05/14/2022	16:26:21	Ver.	4.1	UNKNOWN
Optical Delay	639.989416	Delta X		0.078125	Sweeps	1	Scan Rate	0/0
Coordinates	Axis 1	NaN	Axis 2	NaN	Axis 3	NaN	Axis 4	NaN	Axis 5	NaN	Axis 6	0.000000
TX Power	0.000000	RX Power	0.000000

639.989	0.0136788
640.068	0.0136894
640.146	0.0137490
640.224	0.0136961
640.302	0.0138280
640.380	0.0136576
640.458	0.0137332
640.536	0.0136694
640.614	0.0136587
640.693	0.0136867
640.771	0.0137897
640.849	0.0136887
640.927	0.0136469
641.005	0.0136684
641.083	0.0136984
641.161	0.0136856
641.239	0.0136082
641.318	0.0135748
641.396	0.0137914
641.474	0.0137885
641.552	0.0136628
641.630	0.0136539
641.708	0.0136784
641.786	0.0135295
641.864	0.0137795
641.943	0.0137204
642.021	0.0135179
642.099	0.0137517
642.177	0.0137002
642.255	0.0136506
642.333	0.0137277
642.411	0.0137241
642.489	0.0136922
642.568	0.0135991
642.646	0.0137891
642.724	0.0137494
642.802	0.0136872
642.880	0.0137114
642.958	0.0137628
643.036	0.0136336
643.114	0.0137338
643.193	0.0137001
643.271	0.0135529
643.349	0.0137145
643.427	0.0137148
643.505	0.0136942
643.583	0.0137770
643.661	0.0137543
643.739	0.0136886
643.818	0.0135278
643.896	0.0137547
643.974	0.0139010
644.052	0.0137716
644.130	0.0136346
644.208	0.0136777
644.286	0.0138239
644.364	0.0136711
644.443	0.0136941
644.521	0.0135233
644.599	0.0137490
644.677	0.0137933
644.755	0.0137006
644.833	0.0137404
644.911	0.0136523
644.989	0.0136140
645.068	0.0135971
645.146	0.0135822
645.224	0.0135835
645.302	0.0136535
645.380	0.0136920
645.458	0.0137167
645.536	0.0137453
645.614	0.0136961
645.693	0.0136744
645.771	0.0136382
645.849	0.0137628
645.927	0.0137324
646.005	0.0136372
646.083	0.0137631
646.161	0.0136964
646.239	0.0137894
646.318	0.0137907
646.396	0.0137148
646.474	0.0137097
646.552	0.0137099
646.630	0.0136465
646.708	0.0138256
646.786	0.0136954
646.864	0.0136454
646.943	0.0135656
647.021	0.0135574
647.099	0.0137074
647.177	0.0137216
647.255	0.0136503
647.333	0.0136323
647.411	0.0136887
647.489	0.0136953
647.568	0.0135295
647.646	0.0137170
647.724	0.0136184
647.802	0.0137350
647.880	0.0138134
647.958	0.0137119
648.036	0.0136692
648.114	0.0137659
648.193	0.0135909
648.271	0.0136864
648.349	0.0136669
648.427	0.0136406
648.505	0.0137120
648.583	0.0136543
648.661	0.0137531
648.739	0.0136827
648.818	0.0137054
648.896	0.0136560
648.974	0.0135194
649.052	0.0136742
649.130	0.0137615
649.208	0.0135249
649.286	0.0136935
649.364	0.0137872
649.443	0.0136289
649.521	0.0137383
649.599	0.0138162
649.677	0.0135303
649.755	0.0137291
649.833	0.0136774
649.911	0.0137206
649.989	0.0136880
650.068	0.0136932
650.146	0.0136768
650.224	0.0135956
650.302	0.0137423
650.380	0.0137537
650.458	0.0136868
650.536	0.0135632
650.614	0.0135918
650.693	0.0135915
650.771	0.0137722
650.849	0.0136965
650.927	0.0135998
651.005	0.0136552
651.083	0.0137645
651.161	0.0136709
651.239	0.0137265
651.318	0.0137531
651.396	0.0137204
651.474	0.0136455
651.552	0.0137740
651.630	0.0136992
651.708	0.0136677
651.786	0.0136391
651.864	0.0136465
651.943	0.0136447
652.021	0.0137891
652.099	0.0137889
652.177	0.0136355
652.255	0.0137257
652.333	0.0135974
652.411	0.0136914
652.489	0.0136407
652.568	0.0136897
652.646	0.0136378
652.724	0.0137232
652.802	0.0137051
652.880	0.0136892
652.958	0.0135962
653.036	0.0136362
653.114	0.0138026
653.193	0.0136654
653.271	0.0137189
653.349	0.0137027
653.427	0.0137572
653.505	0.0136709
653.583	0.0134456
653.661	0.0135985
653.739	0.0136272
653.818	0.0137157
653.896	0.0137320
653.974	0.0138389
654.052	0.0136186
654.130	0.0136908
654.208	0.0135867
654.286	0.0136260
654.364	0.0137218
654.443	0.0136922
654.521	0.0137144
654.599	0.0137201
654.677	0.0136168
654.755	0.0136833
654.833	0.0136767
654.911	0.0137193
654.989	0.0136265
655.068	0.0137928
655.146	0.0136783
655.224	0.0135454
655.302	0.0136641
655.380	0.0137651
655.458	0.0136508
655.536	0.0136550
655.614	0.0135564
655.693	0.0137300
655.771	0.0137123
655.849	0.0136326
655.927	0.0137522
656.005	0.0137784
656.083	0.0136366
656.161	0.0137729
656.239	0.0136237
656.318	0.0136540
656.396	0.0136720
656.474	0.0136234
656.552	0.0137070
656.630	0.0136432
656.708	0.0136224
656.786	0.0137387
656.864	0.0138715
656.943	0.0136296
657.021	0.0135715
657.099	0.0137668
657.177	0.0135615
657.255	0.0137887
657.333	0.0136545
657.411	0.0138431
657.489	0.0136697
657.568	0.0135683
657.646	0.0137119
657.724	0.0136049
657.802	0.0136195
657.880	0.0137537
657.958	0.0138087
658.036	0.0136604
658.114	0.0137069
658.193	0.0136328
658.271	0.0136895
658.349	0.0136610
658.427	0.0136526
658.505	0.0136716
658.583	0.0135751
658.661	0.0138244
658.739	0.0137283
658.818	0.0136325
658.896	0.0136176
658.974	0.0136761
659.052	0.0136819
659.130	0.0135852
659.208	0.0136438
659.286	0.0137745
659.364	0.0135884
659.443	0.0137139
659.521	0.0136564
659.599	0.0137743
659.677	0.0137547
659.755	0.0135732
659.833	0.0136659
659.911	0.0136066
659.989	0.0137976
660.068	0.0137806
660.146	0.0136707
660.224	0.0137619
660.302	0.0137269
660.380	0.0136313
660.458	0.0136155
660.536	0.0136760
660.614	0.0138216
660.693	0.0137735
660.771	0.0136227
660.849	0.0136226
660.927	0.0137291
661.005	0.0137101
661.083	0.0136897
661.161	0.0137696
661.239	0.0136307
661.318	0.0137103
661.396	0.0136540
661.474	0.0137008
661.552	0.0136927
661.630	0.0137286
661.708	0.0136690
661.786	0.0138230
661.864	0.0137685
661.943	0.0138190
662.021	0.0135984
662.099	0.0136279
662.177	0.0137063
662.255	0.0137811
662.333	0.0137149
662.411	0.0137435
662.489	0.0137664
662.568	0.0137022
662.646	0.0137080
662.724	0.0135840
662.802	0.0136640
662.880	0.0136247
662.958	0.0136473
663.036	0.0137311
663.114	0.0136208
663.193	0.0138202
663.271	0.0138426
663.349	0.0137182
663.427	0.0137128
663.505	0.0137232
663.583	0.0137437
663.661	0.0138297
663.739	0.0137878
663.818	0.0137383
663.896	0.0136868
663.974	0.0136819
664.052	0.0136102
664.130	0.0136497
664.208	0.0136784
664.286	0.0137035
664.364	0.0137083
664.443	0.0136412
664.521	0.0137324
664.599	0.0138324
664.677	0.0138210
664.755	0.0137098
664.833	0.0136292
664.911	0.0136990
664.989	0.0136726
665.068	0.0137519
665.146	0.0137754
665.224	0.0137321
665.302	0.0136254
665.380	0.0136664
665.458	0.0137132
665.536	0.0137229
665.614	0.0136979
665.693	0.0137381
665.771	0.0136841
665.849	0.0136719
665.927	0.0138013
666.005	0.0137012
666.083	0.0137446
666.161	0.0137144
666.239	0.0137531
666.318	0.0137323
666.396	0.0136845
666.474	0.0138062
666.552	0.0136929
666.630	0.0137733
666.708	0.0137594
666.786	0.0136775
666.864	0.0137492
666.943	0.0137273
667.021	0.0136490
667.099	0.0137084
667.177	0.0137629
667.255	0.0136858
667.333	0.0137141
667.411	0.0135850
667.489	0.0136761
667.568	0.0137131
667.646	0.0136805
667.724	0.0137718
667.802	0.0135966
667.880	0.0136471
667.958	0.0137209
668.036	0.0136407
668.114	0.0136169
668.193	0.0138088
668.271	0.0138508
668.349	0.0135857
668.427	0.0136410
668.505	0.0135361
668.583	0.0136555
668.661	0.0137602
668.739	0.0136712
668.818	0.0136407
668.896	0.0136463
668.974	0.0136302
669.052	0.0136362
669.130	0.0136241
669.208	0.0137430
669.286	0.0138065
669.364	0.0136620
669.443	0.0135925
669.521	0.0136587
669.599	0.0137018
669.677	0.0137525
669.755	0.0136948
669.833	0.0136705
669.911	0.0134955
669.989	0.0136751
670.068	0.0137225
670.146	0.0136912
670.224	0.0136185
670.302	0.0136874
670.380	0.0136775
670.458	0.0135892
670.536	0.0136221
670.614	0.0136136
670.693	0.0135641
670.771	0.0136465
670.849	0.0136281
670.927	0.0137854
671.005	0.0137125
671.083	0.0135405
671.161	0.0136662
671.239	0.0135616
671.318	0.0136014
671.396	0.0136062
671.474	0.0136407
671.552	0.0136620
671.630	0.0136582
671.708	0.0136044
671.786	0.0137255
671.864	0.0136449
671.943	0.0137240
672.021	0.0136439
672.099	0.0136126
672.177	0.0137469
672.255	0.0136583
672.333	0.0136583
672.411	0.0136485
672.489	0.0135285
672.568	0.0136638
672.646	0.0135239
672.724	0.0136871
672.802	0.0136683
672.880	0.0136004
672.958	0.0136979
673.036	0.0137592
673.114	0.0136746
673.193	0.0135889
673.271	0.0136655
673.349	0.0137423
673.427	0.0136133
673.505	0.0136401
673.583	0.0135920
673.661	0.0137425
673.739	0.0136517
673.818	0.0136056
673.896	0.0137561
673.974	0.0137536
674.052	0.0136945
674.130	0.0137054
674.208	0.0136348
674.286	0.0136755
674.364	0.0137307
674.443	0.0138382
674.521	0.0136812
674.599	0.0136265
674.677	0.0135173
674.755	0.0137320
674.833	0.0137998
674.911	0.0138020
674.989	0.0136211
675.068	0.0137054
675.146	0.0136691
675.224	0.0136694
675.302	0.0137508
675.380	0.0137688
675.458	0.0136049
675.536	0.0136486
675.614	0.0135329
675.693	0.0136106
675.771	0.0138120
675.849	0.0136395
675.927	0.0137727
676.005	0.0137494
676.083	0.0137326
676.161	0.0135645
676.239	0.0137556
676.318	0.0138506
676.396	0.0136113
676.474	0.0136378
676.552	0.0136601
676.630	0.0137189
676.708	0.0136748
676.786	0.0135621
676.864	0.0136666
676.943	0.0136150
677.021	0.0135607
677.099	0.0136544
677.177	0.0137178
677.255	0.0135576
677.333	0.0135705
677.411	0.0136982
677.489	0.0137209
677.568	0.0136201
677.646	0.0136342
677.724	0.0137162
677.802	0.0135764
677.880	0.0136598
677.958	0.0137057
678.036	0.0136712
678.114	0.0135814
678.193	0.0136220
678.271	0.0136324
678.349	0.0135754
678.427	0.0135507
678.505	0.0135491
678.583	0.0136983
678.661	0.0137500
678.739	0.0135588
678.818	0.0135423
678.896	0.0135689
678.974	0.0137545
679.052	0.0137413
679.130	0.0136562
679.208	0.0136102
679.286	0.0137545
679.364	0.0135293
679.443	0.0136851
679.521	0.0135600
679.599	0.0135992
679.677	0.0136179
679.755	0.0136541
679.833	0.0136904
679.911	0.0135535
679.989	0.0136703
680.068	0.0136549
680.146	0.0136027
680.224	0.0135509
680.302	0.0135144
680.380	0.0136358
680.458	0.0136702
680.536	0.0136547
680.614	0.0135567
680.693	0.0136518
680.771	0.0136494
680.849	0.0136872
680.927	0.0134575
681.005	0.0135505
681.083	0.0136330
681.161	0.0136741
681.239	0.0137012
681.318	0.0137629
681.396	0.0136507
681.474	0.0135706
681.552	0.0135976
681.630	0.0136237
681.708	0.0137830
681.786	0.0136913
681.864	0.0135695
681.943	0.0136200
682.021	0.0136790
682.099	0.0136600
682.177	0.0135498
682.255	0.0136493
682.333	0.0137173
682.411	0.0136879
682.489	0.0137514
682.568	0.0136272
682.646	0.0136392
682.724	0.0136905
682.802	0.0135381
682.880	0.0133262
682.958	0.0137061
683.036	0.0136315
683.114	0.0135454
683.193	0.0135127
683.271	0.0135786
683.349	0.0136021
683.427	0.0135776
683.505	0.0135773
683.583	0.0135739
683.661	0.0138406
683.739	0.0136080
683.818	0.0137507
683.896	0.0135806
683.974	0.0136869
684.052	0.0136337
684.130	0.0136716
684.208	0.0137449
684.286	0.0136897
684.364	0.0136868
684.443	0.0137682
684.521	0.0136909
684.599	0.0136527
684.677	0.0136443
684.755	0.0135873
684.833	0.0136797
684.911	0.0135310
684.989	0.0136491
685.068	0.0134640
685.146	0.0135918
685.224	0.0136716
685.302	0.0137112
685.380	0.0135339
685.458	0.0136418
685.536	0.0136615
685.614	0.0138634
685.693	0.0137262
685.771	0.0138253
685.849	0.0137008
685.927	0.0137031
686.005	0.0137119
686.083	0.0136253
686.161	0.0136807
686.239	0.0134883
686.318	0.0135026
686.396	0.0133527
686.474	0.0133649
686.552	0.0132813
686.630	0.0132117
686.708	0.0132893
686.786	0.0134001
686.864	0.0135583
686.943	0.0135949
687.021	0.0137308
687.099	0.0139555
687.177	0.0140111
687.255	0.0140801
687.333	0.0142216
687.411	0.0143262
687.489	0.0142386
687.568	0.0142674
687.646	0.0142472
687.724	0.0140818
687.802	0.0139738
687.880	0.0137109
687.958	0.0135764
688.036	0.0133893
688.114	0.0131130
688.193	0.0130855
688.271	0.0128115
688.349	0.0126518
688.427	0.0125365
688.505	0.0125256
688.583	0.0126275
688.661	0.0126022
688.739	0.0127921
688.818	0.0129311
688.896	0.0131112
688.974	0.0133421
689.052	0.0135500
689.130	0.0137891
689.208	0.0139937
689.286	0.0144304
689.364	0.0146500
689.443	0.0150601
689.521	0.0151406
689.599	0.0153265
689.677	0.0154082
689.755	0.0155015
689.833	0.0154578
689.911	0.0154964
689.989	0.0151996
690.068	0.0149751
690.146	0.0146717
690.224	0.0141763
690.302	0.0138454
690.380	0.0133483
690.458	0.0131159
690.536	0.0128014
690.614	0.0123303
690.693	0.0121299
690.771	0.0118600
690.849	0.0117840
690.927	0.0117349
691.005	0.0114404
691.083	0.0114798
691.161	0.0114668
691.239	0.0116037
691.318	0.0116738
691.396	0.0118703
691.474	0.0119550
691.552	0.0122923
691.630	0.0126076
691.708	0.0129380
691.786	0.0134040
691.864	0.0138565
691.943	0.0143579
692.021	0.0148746
692.099	0.0152096
692.177	0.0157200
692.255	0.0160898
692.333	0.0164298
692.411	0.0168504
692.489	0.0170558
692.568	0.0170356
692.646	0.0172006
692.724	0.0170449
692.802	0.0169228
692.880	0.0166571
692.958	0.0162572
693.036	0.0156406
693.114	0.0152819
693.193	0.0147853
693.271	0.0142577
693.349	0.0137750
693.427	0.0130021
693.505	0.0126083
693.583	0.0121315
693.661	0.0117024
693.739	0.0111817
693.818	0.0106700
693.896	0.0103114
693.974	0.00998802
694.052	0.00979591
694.130	0.00965759
694.208	0.00929504
694.286	0.00918884
694.364	0.00909866
694.443	0.00922234
694.521	0.00943130
694.599	0.00989632
694.677	0.0103809
694.755	0.0109652
694.833	0.0117698
694.911	0.0126617
694.989	0.0135199
695.068	0.0143877
695.146	0.0153218
695.224	0.0161782
695.302	0.0167978
695.380	0.0177757
695.458	0.0183724
695.536	0.0185473
695.614	0.0189077
695.693	0.0193398
695.771	0.0194048
695.849	0.0192682
695.927	0.0193040
696.005	0.0189481
696.083	0.0184605
696.161	0.0179058
696.239	0.0172926
696.318	0.0166930
696.396	0.0158769
696.474	0.0151785
696.552	0.0143394
696.630	0.0135778
696.708	0.0126288
696.786	0.0117967
696.864	0.0110426
696.943	0.0102789
697.021	0.00990898
697.099	0.00943565
697.177	0.00918388
697.255	0.00912010
697.333	0.00905128
697.411	0.00915306
697.489	0.00914406
697.568	0.00936226
697.646	0.00962013
697.724	0.00986809
697.802	0.0100632
697.880	0.0103436
697.958	0.0108089
698.036	0.0110175
698.114	0.0112014
698.193	0.0114793
698.271	0.0118260
698.349	0.0121460
698.427	0.0124604
698.505	0.0130133
698.583	0.0132623
698.661	0.0137811
698.739	0.0143002
698.818	0.0147955
698.896	0.0155126
698.974	0.0161267
699.052	0.0165946
699.130	0.0171514
699.208	0.0173350
699.286	0.0176105
699.364	0.0181229
699.443	0.0182787
699.521	0.0182906
699.599	0.0183704
699.677	0.0183862
699.755	0.0184372
699.833	0.0182338
699.911	0.0180535
699.989	0.0178941
700.068	0.0175723
700.146	0.0172679
700.224	0.0169646
700.302	0.0165317
700.380	0.0159713
700.458	0.0153679
700.536	0.0145533
700.614	0.0138559
700.693	0.0132446
700.771	0.0123579
700.849	0.0115879
700.927	0.0109144
701.005	0.0103471
701.083	0.00985336
701.161	0.00936020
701.239	0.00914879
701.318	0.00892883
701.396	0.00869247
701.474	0.00870667
701.552	0.00868744
701.630	0.00866150
701.708	0.00867737
701.786	0.00857841
701.864	0.00886635
701.943	0.00879539
702.021	0.00887276
702.099	0.00897095
702.177	0.00920090
702.255	0.00925240
702.333	0.00952568
702.411	0.00968193
702.489	0.0101472
702.568	0.0105635
702.646	0.0110379
702.724	0.0119137
702.802	0.0125140
702.880	0.0134544
702.958	0.0144999
703.036	0.0154977
703.114	0.0162966
703.193	0.0173700
703.271	0.0186228
703.349	0.0196048
703.427	0.0206731
703.505	0.0214256
703.583	0.0220625
703.661	0.0226411
703.739	0.0229685
703.818	0.0230972
703.896	0.0230290
703.974	0.0227033
704.052	0.0223793
704.130	0.0219987
704.208	0.0213168
704.286	0.0205315
704.364	0.0197301
704.443	0.0186938
704.521	0.0175300
704.599	0.0162806
704.677	0.0148664
704.755	0.0133996
704.833	0.0118330
704.911	0.0105212
704.989	0.00891342
705.068	0.00772911
705.146	0.00639107
705.224	0.00540924
705.302	0.00444389
705.380	0.00390121
705.458	0.00333336
705.536	0.00333351
705.614	0.00327652
705.693	0.00346436
705.771	0.00416618
705.849	0.00469513
705.927	0.00550240
706.005	0.00628723
706.083	0.00734360
706.161	0.00823357
706.239	0.00910095
706.318	0.0100300
706.396	0.0106227
706.474	0.0115915
706.552	0.0124327
706.630	0.0130828
706.708	0.0138404
706.786	0.0145887
706.864	0.0152502
706.943	0.0159502
707.021	0.0166539
707.099	0.0174644
707.177	0.0181368
707.255	0.0187982
707.333	0.0193613
707.411	0.0198531
707.489	0.0203938
707.568	0.0209360
707.646	0.0211547
707.724	0.0211891
707.802	0.0212348
707.880	0.0213851
707.958	0.0212206
708.036	0.0210717
708.114	0.0209137
708.193	0.0206214
708.271	0.0201796
708.349	0.0198819
708.427	0.0194515
708.505	0.0189053
708.583	0.0179887
708.661	0.0172240
708.739	0.0163576
708.818	0.0155067
708.896	0.0141812
708.974	0.0130968
709.052	0.0119161
709.130	0.0106050
709.208	0.00936272
709.286	0.00840843
709.364	0.00751526
709.443	0.00665451
709.521	0.00610107
709.599	0.00566139
709.677	0.00545670
709.755	0.00526886
709.833	0.00523445
709.911	0.00548370
709.989	0.00590958
710.068	0.00612061
710.146	0.00675926
710.224	0.00741867
710.302	0.00790710
710.380	0.00854340
710.458	0.00927101
710.536	0.00996201
710.614	0.0108030
710.693	0.0113383
710.771	0.0121827
710.849	0.0128935
710.927	0.0137859
711.005	0.0144097
711.083	0.0151118
711.161	0.0156855
711.239	0.0161264
711.318	0.0165392
711.396	0.0170541
711.474	0.0173925
711.552	0.0175693
711.630	0.0178470
711.708	0.0181372
711.786	0.0182465
711.864	0.0184956
711.943	0.0185760
712.021	0.0185558
712.099	0.0186184
712.177	0.0185847
712.255	0.0186089
712.333	0.0185024
712.411	0.0183600
712.489	0.0180157
712.568	0.0179465
712.646	0.0175386
712.724	0.0171352
712.802	0.0168522
712.880	0.0165695
712.958	0.0161720
713.036	0.0154544
713.114	0.0147181
713.193	0.0142801
713.271	0.0137041
713.349	0.0128742
713.427	0.0121798
713.505	0.0114376
713.583	0.0110809
713.661	0.0105677
713.739	0.0100912
713.818	0.00982079
713.896	0.00953697
713.974	0.00943710
714.052	0.00953346
714.130	0.00977242
714.208	0.0101993
714.286	0.0103530
714.364	0.0107213
714.443	0.0111174
714.521	0.0114851
714.599	0.0119376
714.677	0.0123159
714.755	0.0124848
714.833	0.0126483
714.911	0.0128994
714.989	0.0129987
715.068	0.0129478
715.146	0.0129974
715.224	0.0128984
715.302	0.0127765
715.380	0.0125805
715.458	0.0124541
715.536	0.0122156
715.614	0.0122368
715.693	0.0120607
715.771	0.0119902
715.849	0.0120010
715.927	0.0122314
716.005	0.0123579
716.083	0.0127571
716.161	0.0133046
716.239	0.0136286
716.318	0.0142070
716.396	0.0147913
716.474	0.0154382
716.552	0.0158892
716.630	0.0166225
716.708	0.0170869
716.786	0.0174960
716.864	0.0178927
716.943	0.0181540
717.021	0.0182088
717.099	0.0182473
717.177	0.0180882
717.255	0.0176791
717.333	0.0172427
717.411	0.0167471
717.489	0.0161877
717.568	0.0156016
717.646	0.0147470
717.724	0.0139070
717.802	0.0132584
717.880	0.0127000
717.958	0.0120874
718.036	0.0118295
718.114	0.0115011
718.193	0.0113498
718.271	0.0112550
718.349	0.0113103
718.427	0.0115451
718.505	0.0116028
718.583	0.0118507
718.661	0.0121714
718.739	0.0124119
718.818	0.0128049
718.896	0.0130779
718.974	0.0133173
719.052	0.0134884
719.130	0.0136914
719.208	0.0139395
719.286	0.0142495
719.364	0.0143452
719.443	0.0142893
719.521	0.0144501
719.599	0.0145521
719.677	0.0144912
719.755	0.0143689
719.833	0.0143386
719.911	0.0141908
719.989	0.0139893
720.068	0.0138325
720.146	0.0136507
720.224	0.0133492
720.302	0.0130145
720.380	0.0126818
720.458	0.0125590
720.536	0.0123290
720.614	0.0120809
720.693	0.0118330
720.771	0.0119392
720.849	0.0117741
720.927	0.0119781
721.005	0.0119492
721.083	0.0122282
721.161	0.0124255
721.239	0.0124139
721.318	0.0125165
721.396	0.0128487
721.474	0.0130574
721.552	0.0132145
721.630	0.0134980
721.708	0.0137186
721.786	0.0139753
721.864	0.0143631
721.943	0.0143924
722.021	0.0148768
722.099	0.0149597
722.177	0.0151949
722.255	0.0153873
722.333	0.0156780
722.411	0.0156381
722.489	0.0156696
722.568	0.0156091
722.646	0.0157616
722.724	0.0154173
722.802	0.0153113
722.880	0.0152769
722.958	0.0149051
723.036	0.0146284
723.114	0.0144526
723.193	0.0141478
723.271	0.0139988
723.349	0.0138669
723.427	0.0134605
723.505	0.0135394
723.583	0.0137196
723.661	0.0136105
723.739	0.0134747
723.818	0.0134813
723.896	0.0133401
723.974	0.0133061
724.052	0.0132779
724.130	0.0133000
724.208	0.0132098
724.286	0.0131474
724.364	0.0129778
724.443	0.0129110
724.521	0.0129099
724.599	0.0128439
724.677	0.0128718
724.755	0.0128463
724.833	0.0129248
724.911	0.0129608
724.989	0.0130436
725.068	0.0129816
725.146	0.0131662
725.224	0.0132752
725.302	0.0132568
725.380	0.0135233
725.458	0.0135124
725.536	0.0136095
725.614	0.0136063
725.693	0.0137221
725.771	0.0137227
725.849	0.0135522
725.927	0.0136288
726.005	0.0136640
726.083	0.0135960
726.161	0.0136360
726.239	0.0135190
726.318	0.0132137
726.396	0.0130666
726.474	0.0133012
726.552	0.0131374
726.630	0.0130977
726.708	0.0129337
726.786	0.0128929
726.864	0.0127399
726.943	0.0128583
727.021	0.0130949
727.099	0.0132462
727.177	0.0132623
727.255	0.0134911
727.333	0.0136967
727.411	0.0139996
727.489	0.0141384
727.568	0.0145051
727.646	0.0148641
727.724	0.0149342
727.802	0.0150934
727.880	0.0152741
727.958	0.0154263
728.036	0.0152890
728.114	0.0151860
728.193	0.0149408
728.271	0.0150320
728.349	0.0148232
728.427	0.0143931
728.505	0.0142348
728.583	0.0139445
728.661	0.0134882
728.739	0.0133934
728.818	0.0131598
728.896	0.0129858
728.974	0.0128032
729.052	0.0125320
729.130	0.0124962
729.208	0.0122649
729.286	0.0123436
729.364	0.0122592
729.443	0.0123484
729.521	0.0123468
729.599	0.0125330
729.677	0.0128265
729.755	0.0129762
729.833	0.0131990
729.911	0.0132700
729.989	0.0134799
730.068	0.0136928
730.146	0.0138961
730.224	0.0141491
730.302	0.0143615
730.380	0.0144236
730.458	0.0143529
730.536	0.0144898
730.614	0.0145413
730.693	0.0146560
730.771	0.0144331
730.849	0.0144350
730.927	0.0143576
731.005	0.0142142
731.083	0.0141010
731.161	0.0141282
731.239	0.0140553
731.318	0.0141679
731.396	0.0140771
731.474	0.0139724
731.552	0.0142100
731.630	0.0140032
731.708	0.0140022
731.786	0.0140368
731.864	0.0139951
731.943	0.0137920
732.021	0.0136776
732.099	0.0136665
732.177	0.0136557
732.255	0.0135229
732.333	0.0133626
732.411	0.0131697
732.489	0.0130323
732.568	0.0131138
732.646	0.0129659
732.724	0.0129744
732.802	0.0128733
732.880	0.0128193
732.958	0.0128744
733.036	0.0129770
733.114	0.0128969
733.193	0.0130029
733.271	0.0130581
733.349	0.0130978
733.427	0.0131422
733.505	0.0131470
733.583	0.0131865
733.661	0.0133646
733.739	0.0132920
733.818	0.0134538
733.896	0.0134882
733.974	0.0135673
734.052	0.0134267
734.130	0.0134841
734.208	0.0135444
734.286	0.0134126
734.364	0.0136203
734.443	0.0136334
734.521	0.0136438
734.599	0.0136478
734.677	0.0137380
734.755	0.0138646
734.833	0.0136544
734.911	0.0138007
734.989	0.0138438
735.068	0.0138873
735.146	0.0139743
735.224	0.0141370
735.302	0.0139286
735.380	0.0141642
735.458	0.0143992
735.536	0.0144333
735.614	0.0145022
735.693	0.0144598
735.771	0.0144051
735.849	0.0144232
735.927	0.0144161
736.005	0.0143114
736.083	0.0141682
736.161	0.0140062
736.239	0.0140332
736.318	0.0138350
736.396	0.0137364
736.474	0.0133771
736.552	0.0133943
736.630	0.0134493
736.708	0.0134649
736.786	0.0132976
736.864	0.0134858
736.943	0.0135480
737.021	0.0134609
737.099	0.0135956
737.177	0.0136980
737.255	0.0135783
737.333	0.0137360
737.411	0.0138423
737.489	0.0139834
737.568	0.0138464
737.646	0.0138906
737.724	0.0136868
737.802	0.0138270
737.880	0.0137081
737.958	0.0137121
738.036	0.0136983
738.114	0.0136283
738.193	0.0134206
738.271	0.0135599
738.349	0.0134363
738.427	0.0134042
738.505	0.0132267
738.583	0.0132786
738.661	0.0131530
738.739	0.0131206
738.818	0.0131667
738.896	0.0131863
738.974	0.0131132
739.052	0.0129503
739.130	0.0130893
739.208	0.0130888
739.286	0.0131461
739.364	0.0132740
739.443	0.0134560
739.521	0.0133035
739.599	0.0134344
739.677	0.0135137
739.755	0.0134865
739.833	0.0135904
739.911	0.0136620
739.989	0.0138066
740.068	0.0136359
740.146	0.0136587
740.224	0.0137258
740.302	0.0134549
740.380	0.0133791
740.458	0.0135634
740.536	0.0135499
740.614	0.0134530
740.693	0.0136246
740.771	0.0135860
740.849	0.0136086
740.927	0.0135508
741.005	0.0136626
741.083	0.0137586
741.161	0.0136756
741.239	0.0136137
741.318	0.0137418
741.396	0.0138141
741.474	0.0138348
741.552	0.0138223
741.630	0.0137214
741.708	0.0136564
741.786	0.0138406
741.864	0.0139364
741.943	0.0139549
742.021	0.0141750
742.099	0.0140768
742.177	0.0140185
742.255	0.0143260
742.333	0.0145555
742.411	0.0143713
742.489	0.0145352
742.568	0.0145423
742.646	0.0146017
742.724	0.0147109
742.802	0.0145454
742.880	0.0147645
742.958	0.0145876
743.036	0.0145662
743.114	0.0144268
743.193	0.0143570
743.271	0.0142682
743.349	0.0141838
743.427	0.0141310
743.505	0.0138604
743.583	0.0137005
743.661	0.0134835
743.739	0.0134579
743.818	0.0133363
743.896	0.0133043
743.974	0.0131495
744.052	0.0130782
744.130	0.0129665
744.208	0.0129719
744.286	0.0129229
744.364	0.0128989
744.443	0.0129345
744.521	0.0129408
744.599	0.0129790
744.677	0.0128168
744.755	0.0129105
744.833	0.0129681
744.911	0.0129166
744.989	0.0130923
745.068	0.0129935
745.146	0.0129970
745.224	0.0130818
745.302	0.0129110
745.380	0.0129432
745.458	0.0128635
745.536	0.0130371
745.614	0.0130392
745.693	0.0130419
745.771	0.0131039
745.849	0.0130342
745.927	0.0130254
746.005	0.0132839
746.083	0.0134258
746.161	0.0134526
746.239	0.0136341
746.318	0.0137122
746.396	0.0137856
746.474	0.0138868
746.552	0.0139626
746.630	0.0141246
746.708	0.0141499
746.786	0.0142766
746.864	0.0141744
746.943	0.0142506
747.021	0.0142671
747.099	0.0142755
747.177	0.0142970
747.255	0.0142783
747.333	0.0142452
747.411	0.0144376
747.489	0.0141500
747.568	0.0142016
747.646	0.0141315
747.724	0.0143378
747.802	0.0140383
747.880	0.0140253
747.958	0.0141631
748.036	0.0140039
748.114	0.0139124
748.193	0.0141262
748.271	0.0141422
748.349	0.0139053
748.427	0.0140309
748.505	0.0141068
748.583	0.0140527
748.661	0.0138644
748.739	0.0138120
748.818	0.0140087
748.896	0.0138330
748.974	0.0136627
749.052	0.0137310
749.130	0.0137004
749.208	0.0136282
749.286	0.0136887
749.364	0.0135703
749.443	0.0135536
749.521	0.0134729
749.599	0.0135008
749.677	0.0134071
749.755	0.0134124
749.833	0.0132996
749.911	0.0131837
749.989	0.0132365
750.068	0.0132564
750.146	0.0132804
750.224	0.0130334
750.302	0.0131299
750.380	0.0131550
750.458	0.0131187
750.536	0.0131265
750.614	0.0132159
750.693	0.0132280
750.771	0.0132220
750.849	0.0131624
750.927	0.0133537
751.005	0.0133172
751.083	0.0133187
751.161	0.0131673
751.239	0.0133191
751.318	0.0135830
751.396	0.0136531
751.474	0.0136292
751.552	0.0137467
751.630	0.0138093
751.708	0.0136982
751.786	0.0138287
751.864	0.0139874
751.943	0.0138593
752.021	0.0140130
752.099	0.0139765
752.177	0.0140859
752.255	0.0138305
752.333	0.0139594
752.411	0.0139634
752.489	0.0138218
752.568	0.0139497
752.646	0.0139587
752.724	0.0138448
752.802	0.0138071
752.880	0.0137838
752.958	0.0138256
753.036	0.0137933
753.114	0.0137694
753.193	0.0137895
753.271	0.0137330
753.349	0.0137546
753.427	0.0138613
753.505	0.0137683
753.583	0.0137035
753.661	0.0136093
753.739	0.0137189
753.818	0.0136931
753.896	0.0136009
753.974	0.0134747
754.052	0.0136589
754.130	0.0136226
754.208	0.0135138
754.286	0.0135530
754.364	0.0135488
754.443	0.0136739
754.521	0.0136285
754.599	0.0137839
754.677	0.0138824
754.755	0.0138522
754.833	0.0139738
754.911	0.0139600
754.989	0.0140064
755.068	0.0140570
755.146	0.0140102
755.224	0.0140491
755.302	0.0141614
755.380	0.0140778
755.458	0.0141419
755.536	0.0142346
755.614	0.0140131
755.693	0.0140154
755.771	0.0140284
755.849	0.0139830
755.927	0.0140086
756.005	0.0137218
756.083	0.0137216
756.161	0.0137286
756.239	0.0136397
756.318	0.0135174
756.396	0.0135241
756.474	0.0134234
756.552	0.0133490
756.630	0.0132597
756.708	0.0133504
756.786	0.0132241
756.864	0.0131721
756.943	0.0131870
757.021	0.0131445
757.099	0.0131379
757.177	0.0130782
757.255	0.0130448
757.333	0.0129190
757.411	0.0130061
757.489	0.0130293
757.568	0.0131426
757.646	0.0130219
757.724	0.0132201
757.802	0.0133861
757.880	0.0131484
757.958	0.0132280
758.036	0.0132932
758.114	0.0134734
758.193	0.0134016
758.271	0.0134178
758.349	0.0134743
758.427	0.0135001
758.505	0.0134048
758.583	0.0136694
758.661	0.0136887
758.739	0.0136095
758.818	0.0137357
758.896	0.0137142
758.974	0.0138838
759.052	0.0137662
759.130	0.0139413
759.208	0.0140361
759.286	0.0140321
759.364	0.0140642
759.443	0.0140910
759.521	0.0140914
759.599	0.0141654
759.677	0.0140611
759.755	0.0141216
759.833	0.0139345
759.911	0.0139348
759.989	0.0139124
760.068	0.0138737
760.146	0.0137823
760.224	0.0137617
760.302	0.0137672
760.380	0.0136794
760.458	0.0136251
760.536	0.0138264
760.614	0.0138947
760.693	0.0137791
760.771	0.0137366
760.849	0.0138324
760.927	0.0137238
761.005	0.0137595
761.083	0.0137261
761.161	0.0138267
761.239	0.0138754
761.318	0.0136955
761.396	0.0135870
761.474	0.0136396
761.552	0.0135138
761.630	0.0136282
761.708	0.0135783
761.786	0.0135773
761.864	0.0134367
761.943	0.0133413
762.021	0.0134476
762.099	0.0134528
762.177	0.0132990
762.255	0.0133438
762.333	0.0134697
762.411	0.0134832
762.489	0.0131956
762.568	0.0134038
762.646	0.0134417
762.724	0.0134215
762.802	0.0134719
762.880	0.0134396
762.958	0.0134926
763.036	0.0134967
763.114	0.0135465
763.193	0.0135696
763.271	0.0136449
763.349	0.0136130
763.427	0.0134686
763.505	0.0134689
763.583	0.0137626
763.661	0.0137595
763.739	0.0135814
763.818	0.0137463
763.896	0.0137720
763.974	0.0136359
764.052	0.0136082
764.130	0.0136113
764.208	0.0135480
764.286	0.0135155
764.364	0.0136253
764.443	0.0136648
764.521	0.0135547
764.599	0.0136782
764.677	0.0136021
764.755	0.0134577
764.833	0.0135767
764.911	0.0135529
764.989	0.0136804
765.068	0.0135184
765.146	0.0135493
765.224	0.0135425
765.302	0.0135921
765.380	0.0136635
765.458	0.0137318
765.536	0.0136816
765.614	0.0137260
765.693	0.0136761
765.771	0.0137143
765.849	0.0136445
765.927	0.0135226
766.005	0.0135474
766.083	0.0136283
766.161	0.0135877
766.239	0.0136011
766.318	0.0135147
766.396	0.0134225
766.474	0.0134875
766.552	0.0133369
766.630	0.0132397
766.708	0.0132015
766.786	0.0133478
766.864	0.0132384
766.943	0.0132714
767.021	0.0132539
767.099	0.0131940
767.177	0.0131043
767.255	0.0132452
767.333	0.0133349
767.411	0.0134608
767.489	0.0136319
767.568	0.0135053
767.646	0.0136086
767.724	0.0137595
767.802	0.0140111
767.880	0.0139446
767.958	0.0139885
768.036	0.0140835
768.114	0.0142847
768.193	0.0141696
768.271	0.0141212
768.349	0.0142513
768.427	0.0142556
768.505	0.0142026
768.583	0.0141621
768.661	0.0140280
768.739	0.0141636
768.818	0.0141339
768.896	0.0139304
768.974	0.0140120
769.052	0.0138166
769.130	0.0138113
769.208	0.0138319
769.286	0.0137614
769.364	0.0137059
769.443	0.0135680
769.521	0.0134742
769.599	0.0134516
769.677	0.0133852
769.755	0.0132523
769.833	0.0131999
769.911	0.0131301
769.989	0.0131006
770.068	0.0130616
770.146	0.0130843
770.224	0.0129806
770.302	0.0129086
770.380	0.0128965
770.458	0.0131399
770.536	0.0130126
770.614	0.0131749
770.693	0.0131403
770.771	0.0130591
770.849	0.0131989
770.927	0.0131164
771.005	0.0132134
771.083	0.0133122
771.161	0.0133991
771.239	0.0132933
771.318	0.0135091
771.396	0.0135396
771.474	0.0136671
771.552	0.0135601
771.630	0.0136359
771.708	0.0137818
771.786	0.0138559
771.864	0.0140179
771.943	0.0139885
772.021	0.0138304
772.099	0.0139713
772.177	0.0140056
772.255	0.0138874
772.333	0.0138239
772.411	0.0139778
772.489	0.0139102
772.568	0.0138568
772.646	0.0139341
772.724	0.0138627
772.802	0.0140349
772.880	0.0138639
772.958	0.0139436
773.036	0.0137126
773.114	0.0137956
773.193	0.0137893
773.271	0.0137698
773.349	0.0137968
773.427	0.0137479
773.505	0.0136252
773.583	0.0135591
773.661	0.0136954
773.739	0.0137133
773.818	0.0137104
773.896	0.0137515
773.974	0.0136935
774.052	0.0136533
774.130	0.0136789
774.208	0.0137492
774.286	0.0136993
774.364	0.0137288
774.443	0.0137994
774.521	0.0137099
774.599	0.0138393
774.677	0.0137151
774.755	0.0136225
774.833	0.0135770
774.911	0.0136333
774.989	0.0135651
775.068	0.0135655
775.146	0.0135263
775.224	0.0135106
775.302	0.0136984
775.380	0.0136296
775.458	0.0135352
775.536	0.0134644
775.614	0.0134595
775.693	0.0135849
775.771	0.0134988
775.849	0.0135925
775.927	0.0134953
776.005	0.0135434
776.083	0.0135555
776.161	0.0134041
776.239	0.0134120
776.318	0.0134023
776.396	0.0134980
776.474	0.0135417
776.552	0.0137130
776.630	0.0135839
776.708	0.0134418
776.786	0.0135061
776.864	0.0133726
776.943	0.0135118
777.021	0.0136388
777.099	0.0136221
777.177	0.0136095
777.255	0.0138118
777.333	0.0137395
777.411	0.0137656
777.489	0.0135398
777.568	0.0136771
777.646	0.0138202
777.724	0.0136657
777.802	0.0136835
777.880	0.0137907
777.958	0.0136708
778.036	0.0137105
778.114	0.0135897
778.193	0.0136367
778.271	0.0137717
778.349	0.0136936
778.427	0.0135578
778.505	0.0136159
778.583	0.0135901
778.661	0.0136675
778.739	0.0135766
778.818	0.0136660
778.896	0.0137240
778.974	0.0136565
779.052	0.0136833
779.130	0.0138313
779.208	0.0137531
779.286	0.0138621
779.364	0.0138354
779.443	0.0139331
779.521	0.0139552
779.599	0.0139843
779.677	0.0140011
779.755	0.0139809
779.833	0.0139481
779.911	0.0138311
779.989	0.0137862
780.068	0.0138017
780.146	0.0138290
780.224	0.0138083
780.302	0.0135778
780.380	0.0136359
780.458	0.0136772
780.536	0.0136466
780.614	0.0137268
780.693	0.0135978
780.771	0.0135193
780.849	0.0135280
780.927	0.0135081
781.005	0.0134994
781.083	0.0136143
781.161	0.0133961
781.239	0.0133537
781.318	0.0134116
781.396	0.0134425
781.474	0.0135283
781.552	0.0134009
781.630	0.0133983
781.708	0.0133929
781.786	0.0133975
781.864	0.0134138
781.943	0.0135252
782.021	0.0134857
782.099	0.0135886
782.177	0.0137392
782.255	0.0135934
782.333	0.0135501
782.411	0.0137488
782.489	0.0136820
782.568	0.0137855
782.646	0.0137175
782.724	0.0137709
782.802	0.0137682
782.880	0.0138152
782.958	0.0137518
783.036	0.0137500
783.114	0.0137296
783.193	0.0136990
783.271	0.0137088
783.349	0.0136719
783.427	0.0136881
783.505	0.0136861
783.583	0.0136785
783.661	0.0138214
783.739	0.0138619
783.818	0.0135783
783.896	0.0136231
783.974	0.0138127
784.052	0.0138632
784.130	0.0137348
784.208	0.0136600
784.286	0.0137309
784.364	0.0137966
784.443	0.0137049
784.521	0.0136523
784.599	0.0136707
784.677	0.0137349
784.755	0.0134988
784.833	0.0136197
784.911	0.0134668
784.989	0.0136004
785.068	0.0136115
785.146	0.0134492
785.224	0.0134147
785.302	0.0134862
785.380	0.0134837
785.458	0.0135291
785.536	0.0134200
785.614	0.0134811
785.693	0.0134132
785.771	0.0136186
785.849	0.0135593
785.927	0.0137510
786.005	0.0136940
786.083	0.0137087
786.161	0.0138218
786.239	0.0137782
786.318	0.0139341
786.396	0.0140265
786.474	0.0138873
786.552	0.0137910
786.630	0.0138343
786.708	0.0139704
786.786	0.0139729
786.864	0.0138628
786.943	0.0136478
787.021	0.0136219
787.099	0.0137589
787.177	0.0135444
787.255	0.0134662
787.333	0.0135967
787.411	0.0134171
787.489	0.0134042
787.568	0.0134495
787.646	0.0134253
787.724	0.0135358
787.802	0.0135549
787.880	0.0135179
787.958	0.0134614
788.036	0.0135712
788.114	0.0135966
788.193	0.0135662
788.271	0.0135097
788.349	0.0137709
788.427	0.0138707
788.505	0.0137166
788.583	0.0136678
788.661	0.0137508
788.739	0.0137450
788.818	0.0138101
788.896	0.0136576
788.974	0.0137704
789.052	0.0137988
789.130	0.0136582
789.208	0.0136708
789.286	0.0138264
789.364	0.0137695
789.443	0.0136497
789.521	0.0136487
789.599	0.0137981
789.677	0.0138525
789.755	0.0136073
789.833	0.0138584
789.911	0.0138195
789.989	0.0136810
790.068	0.0137518
790.146	0.0135512
790.224	0.0136821
790.302	0.0136869
790.380	0.0135912
790.458	0.0136779
790.536	0.0134593
790.614	0.0135719
790.693	0.0134607
790.771	0.0134068
790.849	0.0132954
790.927	0.0134135
791.005	0.0133716
791.083	0.0134559
791.161	0.0132502
791.239	0.0133207
791.318	0.0133591
791.396	0.0132861
791.474	0.0133817
791.552	0.0134683
791.630	0.0135259
791.708	0.0136667
791.786	0.0136782
791.864	0.0137968
791.943	0.0139225
792.021	0.0140710
792.099	0.0140419
792.177	0.0141928
792.255	0.0142637
792.333	0.0144244
792.411	0.0142673
792.489	0.0145210
792.568	0.0143777
792.646	0.0145171
792.724	0.0142278
792.802	0.0142149
792.880	0.0141711
792.958	0.0141584
793.036	0.0139622
793.114	0.0139105
793.193	0.0138126
793.271	0.0136936
793.349	0.0134828
793.427	0.0133649
793.505	0.0131703
793.583	0.0132886
793.661	0.0131541
793.739	0.0129436
793.818	0.0130646
793.896	0.0129851
793.974	0.0129368
794.052	0.0129325
794.130	0.0129939
794.208	0.0129654
794.286	0.0128316
794.364	0.0130096
794.443	0.0130520
794.521	0.0130280
794.599	0.0130179
794.677	0.0131100
794.755	0.0131326
794.833	0.0131621
794.911	0.0132494
794.989	0.0132139
795.068	0.0133019
795.146	0.0133556
795.224	0.0134103
795.302	0.0136143
795.380	0.0135560
795.458	0.0135710
795.536	0.0136026
795.614	0.0137133
795.693	0.0138467
795.771	0.0138329
795.849	0.0141294
795.927	0.0142010
796.005	0.0141598
796.083	0.0142588
796.161	0.0143780
796.239	0.0144026
796.318	0.0146539
796.396	0.0146199
796.474	0.0144822
796.552	0.0145634
796.630	0.0147184
796.708	0.0146098
796.786	0.0145154
796.864	0.0145163
796.943	0.0143337
797.021	0.0143399
797.099	0.0140739
797.177	0.0139391
797.255	0.0138838
797.333	0.0137124
797.411	0.0135638
797.489	0.0134396
797.568	0.0133219
797.646	0.0131805
797.724	0.0130877
797.802	0.0130698
797.880	0.0129984
797.958	0.0127695
798.036	0.0127009
798.114	0.0127536
798.193	0.0127018
798.271	0.0125969
798.349	0.0127849
798.427	0.0127398
798.505	0.0128533
798.583	0.0130146
798.661	0.0129754
798.739	0.0129665
798.818	0.0130800
798.896	0.0131630
798.974	0.0132761
799.052	0.0132034
799.130	0.0132149
799.208	0.0133110
799.286	0.0133749
799.364	0.0134119
799.443	0.0136100
799.521	0.0136141
799.599	0.0136229
799.677	0.0139113
799.755	0.0139566
799.833	0.0139168
799.911	0.0141296
799.989	0.0141331
800.068	0.0142343
800.146	0.0144993
800.224	0.0146773
800.302	0.0145464
800.380	0.0147465
800.458	0.0146983
800.536	0.0147469
800.614	0.0149061
800.693	0.0149163
800.771	0.0148695
800.849	0.0148489
800.927	0.0148463
801.005	0.0146911
801.083	0.0146256
801.161	0.0144413
801.239	0.0143653
801.318	0.0142657
801.396	0.0139746
801.474	0.0138617
801.552	0.0134307
801.630	0.0133829
801.708	0.0132948
801.786	0.0131075
801.864	0.0127695
801.943	0.0126132
802.021	0.0126785
802.099	0.0123920
802.177	0.0122757
802.255	0.0122336
802.333	0.0122216
802.411	0.0121743
802.489	0.0121728
802.568	0.0123853
802.646	0.0123781
802.724	0.0124411
802.802	0.0127000
802.880	0.0127077
802.958	0.0127624
803.036	0.0129796
803.114	0.0130934
803.193	0.0132407
803.271	0.0133897
803.349	0.0134506
803.427	0.0135561
803.505	0.0137482
803.583	0.0137954
803.661	0.0139450
803.739	0.0141316
803.818	0.0139983
803.896	0.0140183
803.974	0.0141875
804.052	0.0143275
804.130	0.0142921
804.208	0.0142609
804.286	0.0144719
804.364	0.0144206
804.443	0.0144395
804.521	0.0146571
804.599	0.0146317
804.677	0.0148071
804.755	0.0148635
804.833	0.0147363
804.911	0.0147805
804.989	0.0148346
805.068	0.0147227
805.146	0.0147147
805.224	0.0146093
805.302	0.0144566
805.380	0.0142907
805.458	0.0142248
805.536	0.0140401
805.614	0.0138259
805.693	0.0138028
805.771	0.0137762
805.849	0.0135146
805.927	0.0133377
806.005	0.0132677
806.083	0.0131433
806.161	0.0130002
806.239	0.0129269
806.318	0.0127986
806.396	0.0127573
806.474	0.0126591
806.552	0.0125107
806.630	0.0125822
806.708	0.0124138
806.786	0.0123808
806.864	0.0123717
806.943	0.0124876
807.021	0.0125471
807.099	0.0126923
807.177	0.0128511
807.255	0.0127862
807.333	0.0128824
807.411	0.0130532
807.489	0.0132889
807.568	0.0133755
807.646	0.0133927
807.724	0.0134794
807.802	0.0136668
807.880	0.0137164
807.958	0.0138445
808.036	0.0138947
808.114	0.0141322
808.193	0.0142217
808.271	0.0143372
808.349	0.0143391
808.427	0.0143893
808.505	0.0143919
808.583	0.0145409
808.661	0.0144342
808.739	0.0145584
808.818	0.0146722
808.896	0.0146355
808.974	0.0145238
809.052	0.0146284
809.130	0.0147060
809.208	0.0146790
809.286	0.0144939
809.364	0.0143530
809.443	0.0144590
809.521	0.0143794
809.599	0.0143774
809.677	0.0141320
809.755	0.0140018
809.833	0.0140750
809.911	0.0138886
809.989	0.0137608
810.068	0.0136930
810.146	0.0134771
810.224	0.0135519
810.302	0.0134303
810.380	0.0133617
810.458	0.0132722
810.536	0.0133051
810.614	0.0131027
810.693	0.0133077
810.771	0.0133149
810.849	0.0131525
810.927	0.0129826
811.005	0.0131489
811.083	0.0132117
811.161	0.0131492
811.239	0.0130544
811.318	0.0130467
811.396	0.0129630
811.474	0.0131642
811.552	0.0133456
811.630	0.0131983
811.708	0.0132185
811.786	0.0133514
811.864	0.0132092
811.943	0.0133606
812.021	0.0133437
812.099	0.0133236
812.177	0.0136057
812.255	0.0134971
812.333	0.0135134
812.411	0.0135729
812.489	0.0137580
812.568	0.0137373
812.646	0.0136236
812.724	0.0137853
812.802	0.0140122
812.880	0.0141575
812.958	0.0141762
813.036	0.0141584
813.114	0.0142730
813.193	0.0142312
813.271	0.0141660
813.349	0.0142441
813.427	0.0142908
813.505	0.0143605
813.583	0.0145275
813.661	0.0143867
813.739	0.0143221
813.818	0.0143914
813.896	0.0143227
813.974	0.0141984
814.052	0.0141109
814.130	0.0141555
814.208	0.0140546
814.286	0.0140350
814.364	0.0137766
814.443	0.0136310
814.521	0.0135709
814.599	0.0137118
814.677	0.0135495
814.755	0.0135376
814.833	0.0134676
814.911	0.0134468
814.989	0.0133168
815.068	0.0133871
815.146	0.0132745
815.224	0.0132206
815.302	0.0132902
815.380	0.0132699
815.458	0.0133903
815.536	0.0133010
815.614	0.0132887
815.693	0.0133646
815.771	0.0134951
815.849	0.0134619
815.927	0.0134389
816.005	0.0135167
816.083	0.0135292
816.161	0.0136350
816.239	0.0137559
816.318	0.0135946
816.396	0.0136626
816.474	0.0135301
816.552	0.0137779
816.630	0.0137842
816.708	0.0137772
816.786	0.0138622
816.864	0.0138043
816.943	0.0137177
817.021	0.0137183
817.099	0.0137334
817.177	0.0136003
817.255	0.0136570
817.333	0.0136656
817.411	0.0135934
817.489	0.0136406
817.568	0.0136278
817.646	0.0134822
817.724	0.0135612
817.802	0.0134052
817.880	0.0134233
817.958	0.0135403
818.036	0.0134760
818.114	0.0135831
818.193	0.0136585
818.271	0.0136230
818.349	0.0137321
818.427	0.0136041
818.505	0.0136300
818.583	0.0135828
818.661	0.0138750
818.739	0.0139563
818.818	0.0138512
818.896	0.0139807
818.974	0.0140228
819.052	0.0139220
819.130	0.0138557
819.208	0.0139210
819.286	0.0140490
819.364	0.0140698
819.443	0.0138754
819.521	0.0138446
819.599	0.0138487
819.677	0.0138885
819.755	0.0139130
819.833	0.0137767
819.911	0.0136919
819.989	0.0136845
820.068	0.0137502
820.146	0.0137981
820.224	0.0138225
820.302	0.0135623
820.380	0.0136695
820.458	0.0138145
820.536	0.0137401
820.614	0.0135780
820.693	0.0138985
820.771	0.0139342
820.849	0.0137969
820.927	0.0137533
821.005	0.0136243
821.083	0.0137794
821.161	0.0137238
821.239	0.0134660
821.318	0.0134923
821.396	0.0136101
821.474	0.0135516
821.552	0.0137109
821.630	0.0135225
821.708	0.0134724
821.786	0.0136104
821.864	0.0134961
821.943	0.0135194
822.021	0.0134375
822.099	0.0136217
822.177	0.0136585
822.255	0.0134055
822.333	0.0135245
822.411	0.0134959
822.489	0.0135992
822.568	0.0134781
822.646	0.0134518
822.724	0.0134026
822.802	0.0135059
822.880	0.0134820
822.958	0.0134560
823.036	0.0135882
823.114	0.0135172
823.193	0.0134315
823.271	0.0134514
823.349	0.0134581
823.427	0.0134380
823.505	0.0136103
823.583	0.0134772
823.661	0.0133918
823.739	0.0134007
823.818	0.0135100
823.896	0.0136047
823.974	0.0137000
824.052	0.0135889
824.130	0.0136353
824.208	0.0137132
824.286	0.0139235
824.364	0.0137977
824.443	0.0139060
824.521	0.0139829
824.599	0.0140923
824.677	0.0141176
824.755	0.0142258
824.833	0.0141369
824.911	0.0141723
824.989	0.0142485
825.068	0.0143155
825.146	0.0143695
825.224	0.0142203
825.302	0.0142274
825.380	0.0141904
825.458	0.0142316
825.536	0.0141063
825.614	0.0139697
825.693	0.0138451
825.771	0.0137961
825.849	0.0138635
825.927	0.0137922
826.005	0.0136889
826.083	0.0137466
826.161	0.0135719
826.239	0.0135880
826.318	0.0134909
826.396	0.0134319
826.474	0.0135007
826.552	0.0132311
826.630	0.0133785
826.708	0.0134438
826.786	0.0134148
826.864	0.0133907
826.943	0.0132560
827.021	0.0132218
827.099	0.0132858
827.177	0.0133405
827.255	0.0132155
827.333	0.0133025
827.411	0.0132999
827.489	0.0132817
827.568	0.0132314
827.646	0.0134428
827.724	0.0134815
827.802	0.0134610
827.880	0.0134000
827.958	0.0134334
828.036	0.0136074
828.114	0.0135161
828.193	0.0134896
828.271	0.0135091
828.349	0.0136227
828.427	0.0136013
828.505	0.0135964
828.583	0.0135986
828.661	0.0135508
828.739	0.0136976
828.818	0.0135207
828.896	0.0135767
828.974	0.0137030
829.052	0.0137650
829.130	0.0136612
829.208	0.0137879
829.286	0.0138947
829.364	0.0137460
829.443	0.0139152
829.521	0.0139348
829.599	0.0139401
829.677	0.0139140
829.755	0.0139596
829.833	0.0140772
829.911	0.0140995
829.989	0.0140172
830.068	0.0142216
830.146	0.0141612
830.224	0.0142036
830.302	0.0141434
830.380	0.0141867
830.458	0.0141053
830.536	0.0141853
830.614	0.0140594
830.693	0.0140645
830.771	0.0139311
830.849	0.0140427
830.927	0.0141353
831.005	0.0139896
831.083	0.0139392
831.161	0.0139504
831.239	0.0138548
831.318	0.0138949
831.396	0.0139085
831.474	0.0138684
831.552	0.0137000
831.630	0.0136277
831.708	0.0136018
831.786	0.0135884
831.864	0.0134386
831.943	0.0133210
832.021	0.0132977
832.099	0.0133265
832.177	0.0133077
832.255	0.0132489
832.333	0.0134097
832.411	0.0132684
832.489	0.0130754
832.568	0.0130702
832.646	0.0130695
832.724	0.0130866
832.802	0.0131357
832.880	0.0132848
832.958	0.0132829
833.036	0.0133384
833.114	0.0133734
833.193	0.0133370
833.271	0.0135255
833.349	0.0135722
833.427	0.0136939
833.505	0.0137859
833.583	0.0136428
833.661	0.0138139
833.739	0.0139823
833.818	0.0140611
833.896	0.0140731
833.974	0.0142017
834.052	0.0141589
834.130	0.0141396
834.208	0.0141988
834.286	0.0141470
834.364	0.0143911
834.443	0.0143149
834.521	0.0143436
834.599	0.0141425
834.677	0.0143313
834.755	0.0142064
834.833	0.0140998
834.911	0.0140924
834.989	0.0140887
835.068	0.0140710
835.146	0.0138278
835.224	0.0139070
835.302	0.0139133
835.380	0.0139658
835.458	0.0138007
835.536	0.0135212
835.614	0.0135652
835.693	0.0134287
835.771	0.0135155
835.849	0.0134522
835.927	0.0133954
836.005	0.0133553
836.083	0.0132702
836.161	0.0132433
836.239	0.0131504
836.318	0.0131573
836.396	0.0131461
836.474	0.0130573
836.552	0.0132025
836.630	0.0131626
836.708	0.0130804
836.786	0.0130862
836.864	0.0131210
836.943	0.0131123
837.021	0.0133381
837.099	0.0134094
837.177	0.0132871
837.255	0.0133170
837.333	0.0134265
837.411	0.0134364
837.489	0.0133360
837.568	0.0135981
837.646	0.0136552
837.724	0.0137446
837.802	0.0137556
837.880	0.0138474
837.958	0.0139600
838.036	0.0138168
838.114	0.0139569
838.193	0.0138085
838.271	0.0139278
838.349	0.0141138
838.427	0.0141210
838.505	0.0140899
838.583	0.0140802
838.661	0.0142390
838.739	0.0141080
838.818	0.0142035
838.896	0.0141676
838.974	0.0142037
839.052	0.0143455
839.130	0.0141924
839.208	0.0142663
839.286	0.0140971
839.364	0.0142491
839.443	0.0140791
839.521	0.0140932
839.599	0.0140115
839.677	0.0140474
839.755	0.0141028
839.833	0.0140095
839.911	0.0139227
839.989	0.0140247
840.068	0.0138690
840.146	0.0137169
840.224	0.0137037
840.302	0.0135447
840.380	0.0134698
840.458	0.0136008
840.536	0.0134637
840.614	0.0131884
840.693	0.0133749
840.771	0.0130930
840.849	0.0129933
840.927	0.0130402
841.005	0.0129594
841.083	0.0131120
841.161	0.0128962
841.239	0.0128839
841.318	0.0130012
841.396	0.0129020
841.474	0.0129157
841.552	0.0129007
841.630	0.0130009
841.708	0.0130745
841.786	0.0132973
841.864	0.0131959
841.943	0.0132758
842.021	0.0134787
842.099	0.0134608
842.177	0.0135294
842.255	0.0136423
842.333	0.0137845
842.411	0.0138195
842.489	0.0138090
842.568	0.0139548
842.646	0.0141445
842.724	0.0139832
842.802	0.0140697
842.880	0.0143654
842.958	0.0143137
843.036	0.0143056
843.114	0.0144547
843.193	0.0143625
843.271	0.0143951
843.349	0.0144170
843.427	0.0144663
843.505	0.0143092
843.583	0.0144353
843.661	0.0144247
843.739	0.0143987
843.818	0.0142495
843.896	0.0142441
843.974	0.0142629
844.052	0.0140620
844.130	0.0140469
844.208	0.0139082
844.286	0.0139590
844.364	0.0136911
844.443	0.0136208
844.521	0.0134974
844.599	0.0133908
844.677	0.0134605
844.755	0.0133670
844.833	0.0132434
844.911	0.0133666
844.989	0.0131301
845.068	0.0131421
845.146	0.0131951
845.224	0.0130709
845.302	0.0131320
845.380	0.0129162
845.458	0.0129631
845.536	0.0130547
845.614	0.0132172
845.693	0.0130966
845.771	0.0131334
845.849	0.0131358
845.927	0.0132750
846.005	0.0132454
846.083	0.0133262
846.161	0.0134811
846.239	0.0134853
846.318	0.0136916
846.396	0.0136587
846.474	0.0137337
846.552	0.0138715
846.630	0.0137592
846.708	0.0138550
846.786	0.0139809
846.864	0.0139912
846.943	0.0140839
847.021	0.0141342
847.099	0.0141163
847.177	0.0140633
847.255	0.0141331
847.333	0.0141399
847.411	0.0142127
847.489	0.0141142
847.568	0.0140681
847.646	0.0141090
847.724	0.0140018
847.802	0.0139636
847.880	0.0140090
847.958	0.0139289
848.036	0.0140470
848.114	0.0138887
848.193	0.0137598
848.271	0.0137187
848.349	0.0136826
848.427	0.0135161
848.505	0.0134838
848.583	0.0133791
848.661	0.0135104
848.739	0.0133946
848.818	0.0133489
848.896	0.0133002
848.974	0.0133438
849.052	0.0133183
849.130	0.0131893
849.208	0.0131464
849.286	0.0132175
849.364	0.0132122
849.443	0.0131391
849.521	0.0132414
849.599	0.0130940
849.677	0.0131802
849.755	0.0130443
849.833	0.0132394
849.911	0.0133299
849.989	0.0133369
850.068	0.0133208
850.146	0.0134192
850.224	0.0135240
850.302	0.0134538
850.380	0.0135770
850.458	0.0135425
850.536	0.0135984
850.614	0.0135045
850.693	0.0137839
850.771	0.0138274
850.849	0.0136879
850.927	0.0136754
851.005	0.0139256
851.083	0.0139101
851.161	0.0136207
851.239	0.0138319
851.318	0.0138326
851.396	0.0138860
851.474	0.0138866
851.552	0.0139769
851.630	0.0139375
851.708	0.0139702
851.786	0.0140525
851.864	0.0140585
851.943	0.0139783
852.021	0.0139878
852.099	0.0140338
852.177	0.0141118
852.255	0.0141738
852.333	0.0140972
852.411	0.0141794
852.489	0.0139488
852.568	0.0141032
852.646	0.0140485
852.724	0.0140456
852.802	0.0139642
852.880	0.0138882
852.958	0.0137816
853.036	0.0136449
853.114	0.0137036
853.193	0.0137020
853.271	0.0136932
853.349	0.0134647
853.427	0.0135642
853.505	0.0133317
853.583	0.0134714
853.661	0.0132661
853.739	0.0132603
853.818	0.0131441
853.896	0.0130351
853.974	0.0131110
854.052	0.0130980
854.130	0.0131436
854.208	0.0129833
854.286	0.0128976
854.364	0.0129506
854.443	0.0130061
854.521	0.0129419
854.599	0.0130186
854.677	0.0129949
854.755	0.0130450
854.833	0.0131370
854.911	0.0131469
854.989	0.0133418
855.068	0.0133189
855.146	0.0134077
855.224	0.0134885
855.302	0.0135368
855.380	0.0135704
855.458	0.0136071
855.536	0.0138190
855.614	0.0138725
855.693	0.0137521
855.771	0.0140106
855.849	0.0139889
855.927	0.0138909
856.005	0.0139815
856.083	0.0141531
856.161	0.0141769
856.239	0.0141672
856.318	0.0141727
856.396	0.0141550
856.474	0.0142637
856.552	0.0142580
856.630	0.0141097
856.708	0.0140243
856.786	0.0142126
856.864	0.0142169
856.943	0.0140223
857.021	0.0139709
857.099	0.0139935
857.177	0.0138595
857.255	0.0138865
857.333	0.0138467
857.411	0.0138066
857.489	0.0136655
857.568	0.0137459
857.646	0.0136936
857.724	0.0134264
857.802	0.0134392
857.880	0.0133645
857.958	0.0134296
858.036	0.0134961
858.114	0.0135313
858.193	0.0134874
858.271	0.0134912
858.349	0.0133958
858.427	0.0134679
858.505	0.0133698
858.583	0.0133494
858.661	0.0134238
858.739	0.0133805
858.818	0.0132457
858.896	0.0134543
858.974	0.0133787
859.052	0.0134193
859.130	0.0134164
859.208	0.0132932
859.286	0.0133501
859.364	0.0134376
859.443	0.0134493
859.521	0.0134007
859.599	0.0133951
859.677	0.0133951
859.755	0.0135218
859.833	0.0133929
859.911	0.0133356
859.989	0.0133656
860.068	0.0133054
860.146	0.0133121
860.224	0.0133301
860.302	0.0134785
860.380	0.0135040
860.458	0.0132867
860.536	0.0134842
860.614	0.0135314
860.693	0.0134718
860.771	0.0134321
860.849	0.0135634
860.927	0.0136210
861.005	0.0136999
861.083	0.0137446
861.161	0.0137096
861.239	0.0137389
861.318	0.0137713
861.396	0.0137747
861.474	0.0138591
861.552	0.0139491
861.630	0.0137996
861.708	0.0138930
861.786	0.0138406
861.864	0.0137687
861.943	0.0139542
862.021	0.0137317
862.099	0.0138384
862.177	0.0138229
862.255	0.0136717
862.333	0.0140160
862.411	0.0137872
862.489	0.0136926
862.568	0.0138440
862.646	0.0140000
862.724	0.0137408
862.802	0.0137877
862.880	0.0137684
862.958	0.0138234
863.036	0.0138132
863.114	0.0136842
863.193	0.0137530
863.271	0.0137779
863.349	0.0135648
863.427	0.0135435
863.505	0.0135472
863.583	0.0135896
863.661	0.0135156
863.739	0.0135275
863.818	0.0133733
863.896	0.0135428
863.974	0.0135377
864.052	0.0134470
864.130	0.0135191
864.208	0.0134092
864.286	0.0134732
864.364	0.0133799
864.443	0.0134319
864.521	0.0133520
864.599	0.0134783
864.677	0.0134800
864.755	0.0133560
864.833	0.0135132
864.911	0.0134812
864.989	0.0134718
865.068	0.0135424
865.146	0.0132221
865.224	0.0135226
865.302	0.0134807
865.380	0.0135219
865.458	0.0136277
865.536	0.0137801
865.614	0.0136682
865.693	0.0136941
865.771	0.0137667
865.849	0.0137840
865.927	0.0137010
866.005	0.0136142
866.083	0.0136108
866.161	0.0138766
866.239	0.0137933
866.318	0.0138091
866.396	0.0138737
866.474	0.0136558
866.552	0.0138462
866.630	0.0139021
866.708	0.0138208
866.786	0.0138811
866.864	0.0138455
866.943	0.0138827
867.021	0.0138883
867.099	0.0138212
867.177	0.0138572
867.255	0.0138271
867.333	0.0137727
867.411	0.0137354
867.489	0.0138486
867.568	0.0137319
867.646	0.0135462
867.724	0.0136788
867.802	0.0136918
867.880	0.0136655
867.958	0.0135841
868.036	0.0135892
868.114	0.0134274
868.193	0.0135229
868.271	0.0133376
868.349	0.0133781
868.427	0.0134537
868.505	0.0133382
868.583	0.0133561
868.661	0.0131709
868.739	0.0133676
868.818	0.0133826
868.896	0.0133884
868.974	0.0133239
869.052	0.0133806
869.130	0.0134519
869.208	0.0134459
869.286	0.0133913
869.364	0.0135075
869.443	0.0135632
869.521	0.0134613
869.599	0.0134516
869.677	0.0135169
869.755	0.0136678
869.833	0.0136805
869.911	0.0136848
869.989	0.0136028
870.068	0.0136630
870.146	0.0137628
870.224	0.0137949
870.302	0.0137531
870.380	0.0138608
870.458	0.0138467
870.536	0.0138934
870.614	0.0139821
870.693	0.0140285
870.771	0.0140662
870.849	0.0139618
870.927	0.0141221
871.005	0.0140331
871.083	0.0140845
871.161	0.0140106
871.239	0.0141107
871.318	0.0139464
871.396	0.0138721
871.474	0.0140415
871.552	0.0139118
871.630	0.0139973
871.708	0.0140413
871.786	0.0138895
871.864	0.0139501
871.943	0.0138097
872.021	0.0138152
872.099	0.0137237
872.177	0.0135323
872.255	0.0137415
872.333	0.0136020
872.411	0.0135429
872.489	0.0133564
872.568	0.0134869
872.646	0.0134538
872.724	0.0133725
872.802	0.0134061
872.880	0.0133994
872.958	0.0133342
873.036	0.0133820
873.114	0.0133241
873.193	0.0133062
873.271	0.0131831
873.349	0.0132314
873.427	0.0133720
873.505	0.0131934
873.583	0.0132492
873.661	0.0132561
873.739	0.0133069
873.818	0.0133195
873.896	0.0133101
873.974	0.0133050
874.052	0.0132017
874.130	0.0132734
874.208	0.0133784
874.286	0.0133755
874.364	0.0135460
874.443	0.0135018
874.521	0.0135636
874.599	0.0135580
874.677	0.0135534
874.755	0.0136304
874.833	0.0136962
874.911	0.0137309
874.989	0.0137748
875.068	0.0138469
875.146	0.0138889
875.224	0.0139612
875.302	0.0139396
875.380	0.0138056
875.458	0.0137631
875.536	0.0139848
875.614	0.0138433
875.693	0.0138886
875.771	0.0139943
875.849	0.0140323
875.927	0.0139448
876.005	0.0139500
876.083	0.0139630
876.161	0.0138280
876.239	0.0140784
876.318	0.0140664
876.396	0.0139411
876.474	0.0139278
876.552	0.0140467
876.630	0.0138819
876.708	0.0140723
876.786	0.0139117
876.864	0.0138315
876.943	0.0138998
877.021	0.0138802
877.099	0.0137980
877.177	0.0137421
877.255	0.0135891
877.333	0.0136477
877.411	0.0135196
877.489	0.0134837
877.568	0.0134154
877.646	0.0133738
877.724	0.0134129
877.802	0.0134821
877.880	0.0135925
877.958	0.0133976
878.036	0.0134099
878.114	0.0132234
878.193	0.0132148
878.271	0.0131506
878.349	0.0132398
878.427	0.0132911
878.505	0.0132842
878.583	0.0133360
878.661	0.0132449
878.739	0.0133505
878.818	0.0133355
878.896	0.0133172
878.974	0.0133790
879.052	0.0135999
879.130	0.0135629
879.208	0.0136030
879.286	0.0135303
879.364	0.0136629
879.443	0.0135300
879.521	0.0136680
879.599	0.0135696
879.677	0.0135516
879.755	0.0135627
879.833	0.0136946
879.911	0.0136803
879.989	0.0137585
880.068	0.0136060
880.146	0.0137168
880.224	0.0136673
880.302	0.0136886
880.380	0.0138375
880.458	0.0138634
880.536	0.0138457
880.614	0.0136674
880.693	0.0138297
880.771	0.0138625
880.849	0.0138825
880.927	0.0139166
881.005	0.0137706
881.083	0.0137772
881.161	0.0138806
881.239	0.0138649
881.318	0.0136996
881.396	0.0138431
881.474	0.0136829
881.552	0.0137505
881.630	0.0138005
881.708	0.0137355
881.786	0.0134905
881.864	0.0135583
881.943	0.0135153
882.021	0.0134750
882.099	0.0134489
882.177	0.0133941
882.255	0.0133096
882.333	0.0133258
882.411	0.0135198
882.489	0.0134213
882.568	0.0134700
882.646	0.0134831
882.724	0.0134512
882.802	0.0136848
882.880	0.0136720
882.958	0.0138658
883.036	0.0137258
883.114	0.0137370
883.193	0.0138418
883.271	0.0139191
883.349	0.0138132
883.427	0.0138367
883.505	0.0140703
883.583	0.0141528
883.661	0.0140616
883.739	0.0140852
883.818	0.0141496
883.896	0.0141960
883.974	0.0142428
884.052	0.0141013
884.130	0.0141777
884.208	0.0142592
884.286	0.0140564
884.364	0.0139552
884.443	0.0138976
884.521	0.0139075
884.599	0.0138493
884.677	0.0137211
884.755	0.0135377
884.833	0.0134417
884.911	0.0133647
884.989	0.0133489
885.068	0.0132864
885.146	0.0130820
885.224	0.0129823
885.302	0.0129762
885.380	0.0129607
885.458	0.0129419
885.536	0.0128680
885.614	0.0129147
885.693	0.0130056
885.771	0.0128504
885.849	0.0128317
885.927	0.0129667
886.005	0.0128661
886.083	0.0129810
886.161	0.0130177
886.239	0.0130980
886.318	0.0131508
886.396	0.0134082
886.474	0.0134058
886.552	0.0135279
886.630	0.0137965
886.708	0.0137624
886.786	0.0138704
886.864	0.0140720
886.943	0.0141921
887.021	0.0140312
887.099	0.0142422
887.177	0.0143388
887.255	0.0145083
887.333	0.0143901
887.411	0.0144592
887.489	0.0143973
887.568	0.0144072
887.646	0.0144440
887.724	0.0143189
887.802	0.0143182
887.880	0.0140992
887.958	0.0141666
888.036	0.0141089
888.114	0.0140755
888.193	0.0138199
888.271	0.0138121
888.349	0.0136098
888.427	0.0135053
888.505	0.0135327
888.583	0.0135242
888.661	0.0133508
888.739	0.0133480
888.818	0.0134879
888.896	0.0133996
888.974	0.0134001
889.052	0.0134729
889.130	0.0134684
889.208	0.0134998
889.286	0.0133582
889.364	0.0135425
889.443	0.0135872
889.521	0.0137152
889.599	0.0135499
889.677	0.0135957
889.755	0.0136615
889.833	0.0137598
889.911	0.0136374
889.989	0.0135764
890.068	0.0135322
890.146	0.0136428
890.224	0.0136044
890.302	0.0137958
890.380	0.0137196
890.458	0.0136789
890.536	0.0135732
890.614	0.0137049
890.693	0.0136747
890.771	0.0137416
890.849	0.0137201
890.927	0.0137991
891.005	0.0137839
891.083	0.0136761
891.161	0.0139101
891.239	0.0136488
891.318	0.0137584
891.396	0.0137600
891.474	0.0137364
891.552	0.0137259
891.630	0.0137675
891.708	0.0136517
891.786	0.0136455
891.864	0.0135204
891.943	0.0135224
892.021	0.0135141
892.099	0.0135305
892.177	0.0134910
892.255	0.0134618
892.333	0.0132516
892.411	0.0132574
892.489	0.0132765
892.568	0.0132623
892.646	0.0131963
892.724	0.0132852
892.802	0.0131919
892.880	0.0130875
892.958	0.0131705
893.036	0.0132103
893.114	0.0132252
893.193	0.0134679
893.271	0.0134534
893.349	0.0135870
893.427	0.0137994
893.505	0.0137840
893.583	0.0138689
893.661	0.0139844
893.739	0.0142562
893.818	0.0141719
893.896	0.0140934
893.974	0.0142128
894.052	0.0141619
894.130	0.0141205
894.208	0.0141429
894.286	0.0141943
894.364	0.0141548
894.443	0.0139909
894.521	0.0140221
894.599	0.0140176
894.677	0.0138514
894.755	0.0139931
894.833	0.0142355
894.911	0.0141095
894.989	0.0141197
895.068	0.0141224
895.146	0.0141284
895.224	0.0140673
895.302	0.0141850
895.380	0.0140994
895.458	0.0141125
895.536	0.0140924
895.614	0.0139467
895.693	0.0137444
895.771	0.0137842
895.849	0.0136679
895.927	0.0135211
896.005	0.0135229
896.083	0.0134468
896.161	0.0133236
896.239	0.0131371
896.318	0.0131698
896.396	0.0129822
896.474	0.0128972
896.552	0.0128648
896.630	0.0128210
896.708	0.0127299
896.786	0.0126824
896.864	0.0126858
896.943	0.0126939
897.021	0.0126501
897.099	0.0128065
897.177	0.0128453
897.255	0.0128451
897.333	0.0130920
897.411	0.0132935
897.489	0.0132868
897.568	0.0133729
897.646	0.0135633
897.724	0.0137170
897.802	0.0138088
897.880	0.0140105
897.958	0.0140044
898.036	0.0142288
898.114	0.0141166
898.193	0.0141962
898.271	0.0142147
898.349	0.0142558
898.427	0.0141683
898.505	0.0142709
898.583	0.0141830
898.661	0.0142715
898.739	0.0142370
898.818	0.0141777
898.896	0.0143228
898.974	0.0140948
899.052	0.0142611
899.130	0.0143105
899.208	0.0143990
899.286	0.0142953
899.364	0.0143470
899.443	0.0143867
899.521	0.0142597
899.599	0.0141118
899.677	0.0142274
899.755	0.0141547
899.833	0.0140083
899.911	0.0139180
899.989	0.0137943
900.068	0.0138742
900.146	0.0136900
900.224	0.0136822
900.302	0.0134484
900.380	0.0133633
900.458	0.0132991
900.536	0.0132184
900.614	0.0130316
900.693	0.0130753
900.771	0.0128091
900.849	0.0130022
900.927	0.0126366
901.005	0.0127840
901.083	0.0126280
901.161	0.0126718
901.239	0.0127213
901.318	0.0126437
901.396	0.0127153
901.474	0.0128230
901.552	0.0130714
901.630	0.0130293
901.708	0.0132212
901.786	0.0133434
901.864	0.0134429
901.943	0.0134875
902.021	0.0137815
902.099	0.0138042
902.177	0.0139955
902.255	0.0141848
902.333	0.0141613
902.411	0.0143748
902.489	0.0142853
902.568	0.0144848
902.646	0.0143956
902.724	0.0144686
902.802	0.0144865
902.880	0.0144614
902.958	0.0145073
903.036	0.0145339
903.114	0.0143890
903.193	0.0143291
903.271	0.0141937
903.349	0.0143054
903.427	0.0142284
903.505	0.0140228
903.583	0.0141299
903.661	0.0139760
903.739	0.0140386
903.818	0.0139216
903.896	0.0137825
903.974	0.0135870
904.052	0.0137480
904.130	0.0135719
904.208	0.0133893
904.286	0.0132532
904.364	0.0132615
904.443	0.0131853
904.521	0.0129669
904.599	0.0131132
904.677	0.0130500
904.755	0.0128611
904.833	0.0129143
904.911	0.0129477
904.989	0.0128825
905.068	0.0128973
905.146	0.0129922
905.224	0.0130377
905.302	0.0131406
905.380	0.0130871
905.458	0.0134087
905.536	0.0134554
905.614	0.0134986
905.693	0.0135148
905.771	0.0136353
905.849	0.0138344
905.927	0.0138885
906.005	0.0140624
906.083	0.0141195
906.161	0.0141338
906.239	0.0140546
906.318	0.0142773
906.396	0.0143701
906.474	0.0142685
906.552	0.0142673
906.630	0.0142845
906.708	0.0141860
906.786	0.0142416
906.864	0.0141278
906.943	0.0139211
907.021	0.0137370
907.099	0.0137899
907.177	0.0137723
907.255	0.0136897
907.333	0.0136542
907.411	0.0134940
907.489	0.0132384
907.568	0.0135197
907.646	0.0133809
907.724	0.0135074
907.802	0.0134192
907.880	0.0133949
907.958	0.0134726
908.036	0.0135144
908.114	0.0135260
908.193	0.0135449
908.271	0.0135227
908.349	0.0135058
908.427	0.0137212
908.505	0.0136820
908.583	0.0137420
908.661	0.0138808
908.739	0.0136874
908.818	0.0136657
908.896	0.0135584
908.974	0.0136249
909.052	0.0135419
909.130	0.0135492
909.208	0.0135058
909.286	0.0133588
909.364	0.0132704
909.443	0.0132158
909.521	0.0133443
909.599	0.0132598
909.677	0.0132227
909.755	0.0133231
909.833	0.0134251
909.911	0.0135957
909.989	0.0134604
910.068	0.0136997
910.146	0.0137070
910.224	0.0136958
910.302	0.0137000
910.380	0.0138631
910.458	0.0139789
910.536	0.0140632
910.614	0.0140593
910.693	0.0140610
910.771	0.0143378
910.849	0.0143860
910.927	0.0141474
911.005	0.0143684
911.083	0.0142390
911.161	0.0142107
911.239	0.0142661
911.318	0.0141311
911.396	0.0140934
911.474	0.0139101
911.552	0.0138310
911.630	0.0137642
911.708	0.0138081
911.786	0.0137060
911.864	0.0135842
911.943	0.0135424
912.021	0.0135139
912.099	0.0134383
912.177	0.0133914
912.255	0.0134647
912.333	0.0132442
912.411	0.0131931
912.489	0.0132989
912.568	0.0133115
912.646	0.0132781
912.724	0.0133080
912.802	0.0133058
912.880	0.0133473
912.958	0.0133739
913.036	0.0133430
913.114	0.0133509
913.193	0.0134733
913.271	0.0134921
913.349	0.0136427
913.427	0.0136182
913.505	0.0136832
913.583	0.0136182
913.661	0.0138567
913.739	0.0139036
913.818	0.0137833
913.896	0.0138438
913.974	0.0139133
914.052	0.0139768
914.130	0.0139619
914.208	0.0139423
914.286	0.0139017
914.364	0.0138240
914.443	0.0137578
914.521	0.0137701
914.599	0.0137803
914.677	0.0137453
914.755	0.0136121
914.833	0.0136286
914.911	0.0135409
914.989	0.0135808
915.068	0.0135445
915.146	0.0135983
915.224	0.0134888
915.302	0.0135141
915.380	0.0135832
915.458	0.0138210
915.536	0.0136246
915.614	0.0137927
915.693	0.0138563
915.771	0.0138122
915.849	0.0139329
915.927	0.0139822
916.005	0.0138729
916.083	0.0139345
916.161	0.0141167
916.239	0.0138981
916.318	0.0139151
916.396	0.0140648
916.474	0.0139889
916.552	0.0139567
916.630	0.0140125
916.708	0.0138761
916.786	0.0137971
916.864	0.0137968
916.943	0.0135903
917.021	0.0136841
917.099	0.0137021
917.177	0.0135985
917.255	0.0135200
917.333	0.0135052
917.411	0.0135445
917.489	0.0134573
917.568	0.0135394
917.646	0.0135020
917.724	0.0134807
917.802	0.0134027
917.880	0.0132558
917.958	0.0134436
918.036	0.0134769
918.114	0.0135049
918.193	0.0133975
918.271	0.0135532
918.349	0.0134136
918.427	0.0134789
918.505	0.0135104
918.583	0.0135002
918.661	0.0135800
918.739	0.0134397
918.818	0.0136297
918.896	0.0138132
918.974	0.0136707
919.052	0.0136713
919.130	0.0137491
919.208	0.0137072
919.286	0.0137685
919.364	0.0136737
919.443	0.0136310
919.521	0.0138105
919.599	0.0139443
919.677	0.0138049
919.755	0.0137523
919.833	0.0135841
919.911	0.0137141
919.989	0.0137559
920.068	0.0136295
920.146	0.0136134
920.224	0.0135905
920.302	0.0136306
920.380	0.0135516
920.458	0.0136040
920.536	0.0135620
920.614	0.0136592
920.693	0.0134732
920.771	0.0134677
920.849	0.0135785
920.927	0.0135751
921.005	0.0136973
921.083	0.0136316
921.161	0.0137737
921.239	0.0138585
921.318	0.0137685
921.396	0.0139283
921.474	0.0139389
921.552	0.0139610
921.630	0.0139947
921.708	0.0138036
921.786	0.0138492
921.864	0.0138794
921.943	0.0139778
922.021	0.0139555
922.099	0.0136639
922.177	0.0137381
922.255	0.0136851
922.333	0.0138066
922.411	0.0137673
922.489	0.0136449
922.568	0.0136731
922.646	0.0135838
922.724	0.0136236
922.802	0.0135308
922.880	0.0136234
922.958	0.0135643
923.036	0.0136328
923.114	0.0134907
923.193	0.0136622
923.271	0.0135971
923.349	0.0136081
923.427	0.0135667
923.505	0.0135667
923.583	0.0136383
923.661	0.0136948
923.739	0.0137366
923.818	0.0134881
923.896	0.0136424
923.974	0.0136108
924.052	0.0136780
924.130	0.0135239
924.208	0.0136348
924.286	0.0135725
924.364	0.0135011
924.443	0.0135890
924.521	0.0135947
924.599	0.0136271
924.677	0.0135738
924.755	0.0135245
924.833	0.0136138
924.911	0.0137100
924.989	0.0135553
925.068	0.0135179
925.146	0.0135825
925.224	0.0137482
925.302	0.0134799
925.380	0.0136488
925.458	0.0136761
925.536	0.0136074
925.614	0.0135633
925.693	0.0135368
925.771	0.0134452
925.849	0.0135977
925.927	0.0136429
926.005	0.0136624
926.083	0.0137861
926.161	0.0135065
926.239	0.0136324
926.318	0.0136261
926.396	0.0137003
926.474	0.0136468
926.552	0.0136952
926.630	0.0136633
926.708	0.0138325
926.786	0.0136615
926.864	0.0138467
926.943	0.0138409
927.021	0.0138100
927.099	0.0139325
927.177	0.0139742
927.255	0.0137618
927.333	0.0137473
927.411	0.0137682
927.489	0.0137893
927.568	0.0137453
927.646	0.0137215
927.724	0.0137910
927.802	0.0137421
927.880	0.0137399
927.958	0.0137109
928.036	0.0136533
928.114	0.0134640
928.193	0.0136320
928.271	0.0135893
928.349	0.0135939
928.427	0.0134785
928.505	0.0135584
928.583	0.0138288
928.661	0.0135735
928.739	0.0135517
928.818	0.0136809
928.896	0.0137010
928.974	0.0135782
929.052	0.0138496
929.130	0.0137547
929.208	0.0138712
929.286	0.0137402
929.364	0.0139208
929.443	0.0138673
929.521	0.0137653
929.599	0.0137503
929.677	0.0139239
929.755	0.0137779
929.833	0.0138293
929.911	0.0138197
929.989	0.0137805
930.068	0.0135317
930.146	0.0135257
930.224	0.0136622
930.302	0.0135474
930.380	0.0136382
930.458	0.0135714
930.536	0.0136392
930.614	0.0135252
930.693	0.0135188
930.771	0.0136584
930.849	0.0137192
930.927	0.0134792
931.005	0.0135266
931.083	0.0135068
931.161	0.0133926
931.239	0.0135415
931.318	0.0136049
931.396	0.0134688
931.474	0.0135155
931.552	0.0136534
931.630	0.0136402
931.708	0.0136466
931.786	0.0135460
931.864	0.0135318
931.943	0.0135422
932.021	0.0137347
932.099	0.0135854
932.177	0.0134722
932.255	0.0136165
932.333	0.0135666
932.411	0.0135241
932.489	0.0135265
932.568	0.0135862
932.646	0.0135938
932.724	0.0135402
932.802	0.0135650
932.880	0.0134444
932.958	0.0135399
933.036	0.0135754
933.114	0.0135912
933.193	0.0136909
933.271	0.0135271
933.349	0.0134818
933.427	0.0136095
933.505	0.0136066
933.583	0.0136507
933.661	0.0137316
933.739	0.0138109
933.818	0.0138483
933.896	0.0138657
933.974	0.0139140
934.052	0.0139803
934.130	0.0138790
934.208	0.0139455
934.286	0.0139744
934.364	0.0141491
934.443	0.0142068
934.521	0.0140890
934.599	0.0139636
934.677	0.0139423
934.755	0.0140288
934.833	0.0140029
934.911	0.0138344
934.989	0.0137056
935.068	0.0138031
935.146	0.0138439
935.224	0.0136559
935.302	0.0136285
935.380	0.0135805
935.458	0.0135368
935.536	0.0134638
935.614	0.0134476
935.693	0.0134968
935.771	0.0133992
935.849	0.0132397
935.927	0.0134720
936.005	0.0133202
936.083	0.0131470
936.161	0.0132172
936.239	0.0131558
936.318	0.0132619
936.396	0.0133353
936.474	0.0133592
936.552	0.0133683
936.630	0.0133404
936.708	0.0135693
936.786	0.0135760
936.864	0.0135421
936.943	0.0137635
937.021	0.0136720
937.099	0.0136103
937.177	0.0136103
937.255	0.0137631
937.333	0.0136919
937.411	0.0137753
937.489	0.0135421
937.568	0.0136874
937.646	0.0136859
937.724	0.0136587
937.802	0.0136461
937.880	0.0138076
937.958	0.0137408
938.036	0.0138184
938.114	0.0136137
938.193	0.0136401
938.271	0.0138073
938.349	0.0136924
938.427	0.0136761
938.505	0.0137659
938.583	0.0138287
938.661	0.0137702
938.739	0.0137029
938.818	0.0137708
938.896	0.0137973
938.974	0.0137663
939.052	0.0137751
939.130	0.0137540
939.208	0.0136645
939.286	0.0137167
939.364	0.0137436
939.443	0.0137846
939.521	0.0138007
939.599	0.0138438
939.677	0.0137833
939.755	0.0137358
939.833	0.0138531
939.911	0.0137825
939.989	0.0137054
940.068	0.0137833
940.146	0.0135461
940.224	0.0135722
940.302	0.0135875
940.380	0.0135816
940.458	0.0134660
940.536	0.0135552
940.614	0.0133052
940.693	0.0133076
940.771	0.0133497
940.849	0.0133453
940.927	0.0131860
941.005	0.0132212
941.083	0.0132829
941.161	0.0132567
941.239	0.0131709
941.318	0.0132827
941.396	0.0133048
941.474	0.0132810
941.552	0.0133337
941.630	0.0133009
941.708	0.0133637
941.786	0.0135257
941.864	0.0134131
941.943	0.0133383
942.021	0.0135728
942.099	0.0137748
942.177	0.0139082
942.255	0.0139745
942.333	0.0139719
942.411	0.0138895
942.489	0.0141029
942.568	0.0142044
942.646	0.0141669
942.724	0.0141916
942.802	0.0143602
942.880	0.0142184
942.958	0.0143424
943.036	0.0142928
943.114	0.0141458
943.193	0.0141275
943.271	0.0140960
943.349	0.0140118
943.427	0.0138946
943.505	0.0138047
943.583	0.0138939
943.661	0.0136361
943.739	0.0135977
943.818	0.0136269
943.896	0.0135210
943.974	0.0133990
944.052	0.0133424
944.130	0.0133452
944.208	0.0134248
944.286	0.0132784
944.364	0.0130877
944.443	0.0131775
944.521	0.0131831
944.599	0.0131459
944.677	0.0130790
944.755	0.0132642
944.833	0.0131908
944.911	0.0132323
944.989	0.0132558
945.068	0.0131551
945.146	0.0132450
945.224	0.0133619
945.302	0.0132954
945.380	0.0133610
945.458	0.0132095
945.536	0.0134073
945.614	0.0136703
945.693	0.0135303
945.771	0.0135740
945.849	0.0137884
945.927	0.0137610
946.005	0.0137838
946.083	0.0138798
946.161	0.0139632
946.239	0.0140752
946.318	0.0139633
946.396	0.0140022
946.474	0.0139790
946.552	0.0140987
946.630	0.0140359
946.708	0.0141525
946.786	0.0142484
946.864	0.0142521
946.943	0.0143172
947.021	0.0141715
947.099	0.0142316
947.177	0.0139610
947.255	0.0140262
947.333	0.0140005
947.411	0.0138310
947.489	0.0137843
947.568	0.0138856
947.646	0.0136530
947.724	0.0135958
947.802	0.0136481
947.880	0.0134814
947.958	0.0132125
948.036	0.0133311
948.114	0.0134683
948.193	0.0132546
948.271	0.0133714
948.349	0.0132378
948.427	0.0133205
948.505	0.0132253
948.583	0.0133481
948.661	0.0133591
948.739	0.0134447
948.818	0.0133646
948.896	0.0134825
948.974	0.0133723
949.052	0.0134851
949.130	0.0135371
949.208	0.0135823
949.286	0.0135433
949.364	0.0135588
949.443	0.0136054
949.521	0.0135962
949.599	0.0136437
949.677	0.0136185
949.755	0.0137831
949.833	0.0136344
949.911	0.0135885
949.989	0.0137946
950.068	0.0137242
950.146	0.0136697
950.224	0.0136987
950.302	0.0137772
950.380	0.0137450
950.458	0.0137453
950.536	0.0139708
950.614	0.0139024
950.693	0.0138515
950.771	0.0138757
950.849	0.0137090
950.927	0.0137873
951.005	0.0137920
951.083	0.0138503
951.161	0.0140788
951.239	0.0138918
951.318	0.0136102
951.396	0.0137371
951.474	0.0137764
951.552	0.0137483
951.630	0.0138477
951.708	0.0136799
951.786	0.0138261
951.864	0.0137318
951.943	0.0135719
952.021	0.0135339
952.099	0.0136629
952.177	0.0135539
952.255	0.0136469
952.333	0.0135738
952.411	0.0136486
952.489	0.0135132
952.568	0.0135795
952.646	0.0136794
952.724	0.0136519
952.802	0.0136356
952.880	0.0136132
952.958	0.0137480
953.036	0.0137380
953.114	0.0135602
953.193	0.0137782
953.271	0.0138402
953.349	0.0136021
953.427	0.0137521
953.505	0.0138929
953.583	0.0137534
953.661	0.0136852
953.739	0.0137397
953.818	0.0137825
953.896	0.0136361
953.974	0.0135680
954.052	0.0136893
954.130	0.0136282
954.208	0.0134795
954.286	0.0136180
954.364	0.0136748
954.443	0.0136922
954.521	0.0135388
954.599	0.0134672
954.677	0.0134971
954.755	0.0135851
954.833	0.0135436
954.911	0.0136261
954.989	0.0136247
955.068	0.0136236
955.146	0.0136204
955.224	0.0137001
955.302	0.0136017
955.380	0.0135286
955.458	0.0137099
955.536	0.0136179
955.614	0.0135786
955.693	0.0134211
955.771	0.0134777
955.849	0.0135106
955.927	0.0135099
956.005	0.0134164
956.083	0.0135794
956.161	0.0135586
956.239	0.0135925
956.318	0.0135177
956.396	0.0136668
956.474	0.0137249
956.552	0.0136159
956.630	0.0136874
956.708	0.0136738
956.786	0.0137032
956.864	0.0138512
956.943	0.0136913
957.021	0.0137100
957.099	0.0138885
957.177	0.0138343
957.255	0.0138850
957.333	0.0138809
957.411	0.0139098
957.489	0.0138010
957.568	0.0138584
957.646	0.0137911
957.724	0.0138300
957.802	0.0137917
957.880	0.0138509
957.958	0.0137046
958.036	0.0135612
958.114	0.0136753
958.193	0.0136236
958.271	0.0136220
958.349	0.0136568
958.427	0.0136522
958.505	0.0135200
958.583	0.0136781
958.661	0.0134361
958.739	0.0136641
958.818	0.0136491
958.896	0.0135844
958.974	0.0135617
959.052	0.0137511
959.130	0.0136676
959.208	0.0136578
959.286	0.0137066
959.364	0.0137109
959.443	0.0138017
959.521	0.0137639
959.599	0.0136774
959.677	0.0138586
959.755	0.0136340
959.833	0.0136044
959.911	0.0136739
