05/14/2022	16:26:36	Ver.	4.1	UNKNOWN
Optical Delay	639.989416	Delta X		0.078125	Sweeps	1	Scan Rate	0/0
Coordinates	Axis 1	NaN	Axis 2	NaN	Axis 3	NaN	Axis 4	NaN	Axis 5	NaN	Axis 6	0.000000
TX Power	0.000000	RX Power	0.000000

639.989	0.0137109
640.068	0.0137453
640.146	0.0138414
640.224	0.0138068
640.302	0.0137347
640.380	0.0138522
640.458	0.0137512
640.536	0.0136407
640.614	0.0137701
640.693	0.0137266
640.771	0.0136934
640.849	0.0135865
640.927	0.0136478
641.005	0.0137608
641.083	0.0137208
641.161	0.0136912
641.239	0.0137152
641.318	0.0137447
641.396	0.0136643
641.474	0.0136556
641.552	0.0137077
641.630	0.0136351
641.708	0.0137182
641.786	0.0136263
641.864	0.0136259
641.943	0.0137686
642.021	0.0137251
642.099	0.0138037
642.177	0.0137110
642.255	0.0138282
642.333	0.0136978
642.411	0.0135790
642.489	0.0137373
642.568	0.0136549
642.646	0.0136612
642.724	0.0136731
642.802	0.0136844
642.880	0.0136874
642.958	0.0136912
643.036	0.0137412
643.114	0.0137154
643.193	0.0137574
643.271	0.0137687
643.349	0.0137227
643.427	0.0136014
643.505	0.0137516
643.583	0.0137794
643.661	0.0137599
643.739	0.0138175
643.818	0.0136864
643.896	0.0136126
643.974	0.0137327
644.052	0.0137620
644.130	0.0138828
644.208	0.0138142
644.286	0.0136346
644.364	0.0137627
644.443	0.0137534
644.521	0.0138229
644.599	0.0136989
644.677	0.0137514
644.755	0.0136066
644.833	0.0137704
644.911	0.0136214
644.989	0.0136669
645.068	0.0137802
645.146	0.0138387
645.224	0.0138055
645.302	0.0136124
645.380	0.0136598
645.458	0.0137163
645.536	0.0135700
645.614	0.0136599
645.693	0.0137840
645.771	0.0137678
645.849	0.0137061
645.927	0.0137265
646.005	0.0138257
646.083	0.0136428
646.161	0.0137638
646.239	0.0136252
646.318	0.0135400
646.396	0.0137611
646.474	0.0137000
646.552	0.0138617
646.630	0.0136825
646.708	0.0137092
646.786	0.0137762
646.864	0.0134187
646.943	0.0138129
647.021	0.0138606
647.099	0.0137829
647.177	0.0135889
647.255	0.0136569
647.333	0.0137759
647.411	0.0137366
647.489	0.0136892
647.568	0.0136931
647.646	0.0137212
647.724	0.0136431
647.802	0.0137270
647.880	0.0138587
647.958	0.0134947
648.036	0.0136877
648.114	0.0137508
648.193	0.0137054
648.271	0.0137540
648.349	0.0137944
648.427	0.0137534
648.505	0.0137986
648.583	0.0136639
648.661	0.0137765
648.739	0.0138158
648.818	0.0137694
648.896	0.0137694
648.974	0.0135963
649.052	0.0136258
649.130	0.0137777
649.208	0.0137018
649.286	0.0137286
649.364	0.0136722
649.443	0.0136774
649.521	0.0135322
649.599	0.0137611
649.677	0.0136446
649.755	0.0136175
649.833	0.0136777
649.911	0.0136681
649.989	0.0136370
650.068	0.0135957
650.146	0.0137759
650.224	0.0137598
650.302	0.0136478
650.380	0.0138122
650.458	0.0136188
650.536	0.0135123
650.614	0.0136789
650.693	0.0136292
650.771	0.0138181
650.849	0.0135879
650.927	0.0136446
651.005	0.0137837
651.083	0.0137529
651.161	0.0136539
651.239	0.0135853
651.318	0.0136870
651.396	0.0137015
651.474	0.0136873
651.552	0.0138226
651.630	0.0137329
651.708	0.0137082
651.786	0.0137114
651.864	0.0138042
651.943	0.0136594
652.021	0.0136738
652.099	0.0137043
652.177	0.0138860
652.255	0.0136806
652.333	0.0136575
652.411	0.0137376
652.489	0.0136304
652.568	0.0135371
652.646	0.0137051
652.724	0.0136614
652.802	0.0137978
652.880	0.0135764
652.958	0.0138100
653.036	0.0137065
653.114	0.0136033
653.193	0.0136158
653.271	0.0136073
653.349	0.0136166
653.427	0.0137890
653.505	0.0137141
653.583	0.0137509
653.661	0.0137318
653.739	0.0137444
653.818	0.0136900
653.896	0.0137736
653.974	0.0136658
654.052	0.0137354
654.130	0.0136588
654.208	0.0137218
654.286	0.0136497
654.364	0.0137509
654.443	0.0135998
654.521	0.0137486
654.599	0.0137450
654.677	0.0136604
654.755	0.0137238
654.833	0.0136882
654.911	0.0137047
654.989	0.0135236
655.068	0.0136833
655.146	0.0137424
655.224	0.0136960
655.302	0.0137739
655.380	0.0137999
655.458	0.0136900
655.536	0.0136427
655.614	0.0137933
655.693	0.0137043
655.771	0.0137350
655.849	0.0136877
655.927	0.0136966
656.005	0.0137054
656.083	0.0136296
656.161	0.0136347
656.239	0.0137560
656.318	0.0137393
656.396	0.0137096
656.474	0.0137249
656.552	0.0136777
656.630	0.0135819
656.708	0.0136536
656.786	0.0137436
656.864	0.0135661
656.943	0.0137038
657.021	0.0136565
657.099	0.0136868
657.177	0.0137523
657.255	0.0136962
657.333	0.0136231
657.411	0.0136822
657.489	0.0138211
657.568	0.0137534
657.646	0.0136407
657.724	0.0136083
657.802	0.0136736
657.880	0.0137267
657.958	0.0137946
658.036	0.0137214
658.114	0.0137202
658.193	0.0137617
658.271	0.0135877
658.349	0.0135239
658.427	0.0135522
658.505	0.0137335
658.583	0.0137753
658.661	0.0136005
658.739	0.0136796
658.818	0.0136944
658.896	0.0136333
658.974	0.0137617
659.052	0.0138126
659.130	0.0136260
659.208	0.0136658
659.286	0.0137124
659.364	0.0137377
659.443	0.0136432
659.521	0.0136485
659.599	0.0136939
659.677	0.0136482
659.755	0.0137630
659.833	0.0137061
659.911	0.0137476
659.989	0.0137999
660.068	0.0136665
660.146	0.0136894
660.224	0.0137241
660.302	0.0137150
660.380	0.0136358
660.458	0.0137281
660.536	0.0135123
660.614	0.0136849
660.693	0.0137546
660.771	0.0135649
660.849	0.0136002
660.927	0.0137904
661.005	0.0138248
661.083	0.0137299
661.161	0.0136454
661.239	0.0135154
661.318	0.0137415
661.396	0.0138038
661.474	0.0136401
661.552	0.0136599
661.630	0.0136024
661.708	0.0137629
661.786	0.0137100
661.864	0.0136552
661.943	0.0137363
662.021	0.0138339
662.099	0.0137733
662.177	0.0136581
662.255	0.0137145
662.333	0.0137892
662.411	0.0137811
662.489	0.0135380
662.568	0.0136831
662.646	0.0137524
662.724	0.0137057
662.802	0.0135971
662.880	0.0137860
662.958	0.0137265
663.036	0.0136610
663.114	0.0136691
663.193	0.0136423
663.271	0.0138108
663.349	0.0137450
663.427	0.0136385
663.505	0.0135873
663.583	0.0137599
663.661	0.0136852
663.739	0.0137040
663.818	0.0136584
663.896	0.0137582
663.974	0.0138418
664.052	0.0137732
664.130	0.0136801
664.208	0.0136106
664.286	0.0136948
664.364	0.0136626
664.443	0.0137090
664.521	0.0137107
664.599	0.0138802
664.677	0.0136741
664.755	0.0137753
664.833	0.0136853
664.911	0.0137681
664.989	0.0136340
665.068	0.0137346
665.146	0.0137122
665.224	0.0137115
665.302	0.0137534
665.380	0.0137545
665.458	0.0136127
665.536	0.0137173
665.614	0.0136776
665.693	0.0136742
665.771	0.0136700
665.849	0.0136734
665.927	0.0136790
666.005	0.0136715
666.083	0.0137241
666.161	0.0137609
666.239	0.0138467
666.318	0.0137099
666.396	0.0135154
666.474	0.0136066
666.552	0.0138282
666.630	0.0136053
666.708	0.0137886
666.786	0.0137693
666.864	0.0136278
666.943	0.0136196
667.021	0.0136234
667.099	0.0137206
667.177	0.0137755
667.255	0.0136793
667.333	0.0136414
667.411	0.0136156
667.489	0.0136980
667.568	0.0135870
667.646	0.0137834
667.724	0.0137146
667.802	0.0136742
667.880	0.0136448
667.958	0.0136054
668.036	0.0136810
668.114	0.0137075
668.193	0.0137045
668.271	0.0137709
668.349	0.0138049
668.427	0.0136438
668.505	0.0137181
668.583	0.0137870
668.661	0.0136050
668.739	0.0136664
668.818	0.0137175
668.896	0.0136286
668.974	0.0136927
669.052	0.0135929
669.130	0.0137691
669.208	0.0137040
669.286	0.0136648
669.364	0.0136305
669.443	0.0137960
669.521	0.0137341
669.599	0.0137308
669.677	0.0137267
669.755	0.0137701
669.833	0.0137486
669.911	0.0137047
669.989	0.0137084
670.068	0.0136136
670.146	0.0137017
670.224	0.0138655
670.302	0.0136861
670.380	0.0137733
670.458	0.0136705
670.536	0.0136318
670.614	0.0137005
670.693	0.0137019
670.771	0.0135590
670.849	0.0137383
670.927	0.0136279
671.005	0.0138293
671.083	0.0137491
671.161	0.0136321
671.239	0.0137196
671.318	0.0136988
671.396	0.0136587
671.474	0.0136871
671.552	0.0138506
671.630	0.0137354
671.708	0.0136178
671.786	0.0137553
671.864	0.0137283
671.943	0.0136289
672.021	0.0137096
672.099	0.0137386
672.177	0.0136722
672.255	0.0136204
672.333	0.0137164
672.411	0.0135613
672.489	0.0137108
672.568	0.0137448
672.646	0.0137290
672.724	0.0136475
672.802	0.0136230
672.880	0.0135778
672.958	0.0137421
673.036	0.0137286
673.114	0.0136631
673.193	0.0136948
673.271	0.0135507
673.349	0.0135222
673.427	0.0136851
673.505	0.0137526
673.583	0.0137299
673.661	0.0136765
673.739	0.0136882
673.818	0.0137157
673.896	0.0137679
673.974	0.0136919
674.052	0.0136043
674.130	0.0136622
674.208	0.0135837
674.286	0.0136068
674.364	0.0137391
674.443	0.0136863
674.521	0.0136201
674.599	0.0136450
674.677	0.0136778
674.755	0.0137339
674.833	0.0136211
674.911	0.0137287
674.989	0.0137264
675.068	0.0136378
675.146	0.0136738
675.224	0.0136829
675.302	0.0136227
675.380	0.0136895
675.458	0.0136462
675.536	0.0136448
675.614	0.0137674
675.693	0.0137039
675.771	0.0136748
675.849	0.0136120
675.927	0.0136267
676.005	0.0137241
676.083	0.0136896
676.161	0.0137103
676.239	0.0137553
676.318	0.0136007
676.396	0.0137116
676.474	0.0136612
676.552	0.0136079
676.630	0.0135049
676.708	0.0136588
676.786	0.0138376
676.864	0.0137404
676.943	0.0136069
677.021	0.0136388
677.099	0.0137122
677.177	0.0136079
677.255	0.0136784
677.333	0.0136781
677.411	0.0136622
677.489	0.0137003
677.568	0.0137727
677.646	0.0138451
677.724	0.0137902
677.802	0.0136824
677.880	0.0135976
677.958	0.0136064
678.036	0.0137466
678.114	0.0137424
678.193	0.0136440
678.271	0.0136536
678.349	0.0137728
678.427	0.0136508
678.505	0.0137410
678.583	0.0138096
678.661	0.0137211
678.739	0.0136657
678.818	0.0136108
678.896	0.0136538
678.974	0.0136393
679.052	0.0138164
679.130	0.0137203
679.208	0.0137735
679.286	0.0137219
679.364	0.0136942
679.443	0.0137255
679.521	0.0136777
679.599	0.0136700
679.677	0.0136014
679.755	0.0137111
679.833	0.0136430
679.911	0.0137759
679.989	0.0136261
680.068	0.0136652
680.146	0.0136118
680.224	0.0136049
680.302	0.0137102
680.380	0.0137194
680.458	0.0137663
680.536	0.0136513
680.614	0.0136594
680.693	0.0137593
680.771	0.0136981
680.849	0.0136521
680.927	0.0135722
681.005	0.0137028
681.083	0.0138535
681.161	0.0137238
681.239	0.0137445
681.318	0.0136816
681.396	0.0137860
681.474	0.0137852
681.552	0.0136565
681.630	0.0135365
681.708	0.0137249
681.786	0.0138023
681.864	0.0136833
681.943	0.0136710
682.021	0.0135136
682.099	0.0135539
682.177	0.0139073
682.255	0.0137124
682.333	0.0136840
682.411	0.0136090
682.489	0.0137504
682.568	0.0136909
682.646	0.0136867
682.724	0.0137457
682.802	0.0136541
682.880	0.0136261
682.958	0.0136614
683.036	0.0137354
683.114	0.0137080
683.193	0.0137400
683.271	0.0138507
683.349	0.0137297
683.427	0.0136134
683.505	0.0137063
683.583	0.0136958
683.661	0.0138609
683.739	0.0138074
683.818	0.0138750
683.896	0.0138123
683.974	0.0136553
684.052	0.0137624
684.130	0.0137133
684.208	0.0137228
684.286	0.0137939
684.364	0.0137324
684.443	0.0137111
684.521	0.0136759
684.599	0.0136909
684.677	0.0136824
684.755	0.0135341
684.833	0.0137269
684.911	0.0137209
684.989	0.0136404
685.068	0.0136076
685.146	0.0137628
685.224	0.0137827
685.302	0.0137811
685.380	0.0137535
685.458	0.0136674
685.536	0.0136728
685.614	0.0138893
685.693	0.0137396
685.771	0.0138325
685.849	0.0137598
685.927	0.0137009
686.005	0.0137348
686.083	0.0134927
686.161	0.0133523
686.239	0.0133941
686.318	0.0134272
686.396	0.0134079
686.474	0.0133128
686.552	0.0133698
686.630	0.0134833
686.708	0.0137132
686.786	0.0137653
686.864	0.0136852
686.943	0.0139408
687.021	0.0141945
687.099	0.0143619
687.177	0.0143213
687.255	0.0143562
687.333	0.0143690
687.411	0.0143694
687.489	0.0141901
687.568	0.0141901
687.646	0.0140611
687.724	0.0138307
687.802	0.0135867
687.880	0.0133625
687.958	0.0131065
688.036	0.0129165
688.114	0.0128458
688.193	0.0126566
688.271	0.0127588
688.349	0.0124642
688.427	0.0124093
688.505	0.0126321
688.583	0.0129027
688.661	0.0129614
688.739	0.0131397
688.818	0.0133939
688.896	0.0137405
688.974	0.0140478
689.052	0.0142911
689.130	0.0146233
689.208	0.0149091
689.286	0.0151799
689.364	0.0153811
689.443	0.0157027
689.521	0.0156863
689.599	0.0156470
689.677	0.0154388
689.755	0.0152641
689.833	0.0150984
689.911	0.0147520
689.989	0.0143791
690.068	0.0140050
690.146	0.0135663
690.224	0.0132233
690.302	0.0127615
690.380	0.0124352
690.458	0.0121260
690.536	0.0118674
690.614	0.0117047
690.693	0.0116221
690.771	0.0115399
690.849	0.0115646
690.927	0.0116259
691.005	0.0117564
691.083	0.0118144
691.161	0.0121389
691.239	0.0123331
691.318	0.0125739
691.396	0.0129326
691.474	0.0131168
691.552	0.0134867
691.630	0.0139290
691.708	0.0142602
691.786	0.0146401
691.864	0.0150345
691.943	0.0153870
692.021	0.0156889
692.099	0.0160898
692.177	0.0163499
692.255	0.0164920
692.333	0.0167380
692.411	0.0168799
692.489	0.0168164
692.568	0.0167273
692.646	0.0165433
692.724	0.0163184
692.802	0.0160884
692.880	0.0156424
692.958	0.0151805
693.036	0.0146570
693.114	0.0141921
693.193	0.0135919
693.271	0.0130695
693.349	0.0126638
693.427	0.0120915
693.505	0.0115581
693.583	0.0110948
693.661	0.0108362
693.739	0.0102932
693.818	0.0100275
693.896	0.00987648
693.974	0.00965950
694.052	0.00942444
694.130	0.00949478
694.208	0.00945206
694.286	0.00947296
694.364	0.00977905
694.443	0.0101912
694.521	0.0107164
694.599	0.0113160
694.677	0.0119907
694.755	0.0128160
694.833	0.0136452
694.911	0.0145827
694.989	0.0155252
695.068	0.0163887
695.146	0.0172688
695.224	0.0178238
695.302	0.0183286
695.380	0.0188774
695.458	0.0192397
695.536	0.0193154
695.614	0.0191831
695.693	0.0190629
695.771	0.0189311
695.849	0.0184770
695.927	0.0182095
696.005	0.0177797
696.083	0.0171011
696.161	0.0166360
696.239	0.0158505
696.318	0.0150423
696.396	0.0142564
696.474	0.0134284
696.552	0.0126368
696.630	0.0118615
696.708	0.0110217
696.786	0.0102764
696.864	0.00978683
696.943	0.00954407
697.021	0.00904236
697.099	0.00886871
697.177	0.00870285
697.255	0.00876427
697.333	0.00877968
697.411	0.00910278
697.489	0.00932281
697.568	0.00962830
697.646	0.00984291
697.724	0.0102787
697.802	0.0107568
697.880	0.0111745
697.958	0.0115249
698.036	0.0120171
698.114	0.0123838
698.193	0.0129606
698.271	0.0133474
698.349	0.0136333
698.427	0.0142278
698.505	0.0147653
698.583	0.0151407
698.661	0.0157390
698.739	0.0163660
698.818	0.0166713
698.896	0.0171840
698.974	0.0175191
699.052	0.0177939
699.130	0.0180029
699.208	0.0182130
699.286	0.0182228
699.364	0.0181277
699.443	0.0179532
699.521	0.0178121
699.599	0.0176103
699.677	0.0172904
699.755	0.0171093
699.833	0.0166218
699.911	0.0163698
699.989	0.0160466
700.068	0.0156432
700.146	0.0152941
700.224	0.0150180
700.302	0.0144492
700.380	0.0138857
700.458	0.0131304
700.536	0.0127343
700.614	0.0122040
700.693	0.0115866
700.771	0.0111340
700.849	0.0107928
700.927	0.0106104
701.005	0.0102911
701.083	0.00993286
701.161	0.00997223
701.239	0.0100443
701.318	0.00991043
701.396	0.00997635
701.474	0.00973305
701.552	0.00980431
701.630	0.00978813
701.708	0.00983429
701.786	0.00986679
701.864	0.0101982
701.943	0.0101283
702.021	0.0100800
702.099	0.0101410
702.177	0.0104424
702.255	0.0106290
702.333	0.0109684
702.411	0.0111753
702.489	0.0116275
702.568	0.0119331
702.646	0.0125093
702.724	0.0129466
702.802	0.0137008
702.880	0.0143134
702.958	0.0150026
703.036	0.0156345
703.114	0.0164840
703.193	0.0173395
703.271	0.0180202
703.349	0.0186195
703.427	0.0193874
703.505	0.0198584
703.583	0.0205322
703.661	0.0209512
703.739	0.0213069
703.818	0.0214455
703.896	0.0214986
703.974	0.0212518
704.052	0.0212408
704.130	0.0209415
704.208	0.0204591
704.286	0.0199294
704.364	0.0190158
704.443	0.0182091
704.521	0.0171146
704.599	0.0159521
704.677	0.0146665
704.755	0.0133555
704.833	0.0119283
704.911	0.0104043
704.989	0.00915207
705.068	0.00785271
705.146	0.00673500
705.224	0.00576134
705.302	0.00494339
705.380	0.00454811
705.458	0.00416832
705.536	0.00411797
705.614	0.00430466
705.693	0.00460861
705.771	0.00520241
705.849	0.00573387
705.927	0.00642082
706.005	0.00718002
706.083	0.00791176
706.161	0.00876869
706.239	0.00961380
706.318	0.0103965
706.396	0.0110361
706.474	0.0116042
706.552	0.0123631
706.630	0.0129468
706.708	0.0134272
706.786	0.0141481
706.864	0.0146424
706.943	0.0151179
707.021	0.0160399
707.099	0.0166988
707.177	0.0172196
707.255	0.0178484
707.333	0.0188525
707.411	0.0192229
707.489	0.0198805
707.568	0.0204155
707.646	0.0210004
707.724	0.0214741
707.802	0.0218166
707.880	0.0219971
707.958	0.0220911
708.036	0.0219833
708.114	0.0217831
708.193	0.0216093
708.271	0.0212712
708.349	0.0208982
708.427	0.0203325
708.505	0.0197733
708.583	0.0188705
708.661	0.0178691
708.739	0.0171819
708.818	0.0159498
708.896	0.0147839
708.974	0.0134373
709.052	0.0122687
709.130	0.0108307
709.208	0.00958366
709.286	0.00830208
709.364	0.00719826
709.443	0.00622490
709.521	0.00533524
709.599	0.00467476
709.677	0.00417458
709.755	0.00401833
709.833	0.00396553
709.911	0.00417252
709.989	0.00455299
710.068	0.00513962
710.146	0.00579071
710.224	0.00647972
710.302	0.00742905
710.380	0.00816956
710.458	0.00894928
710.536	0.00993408
710.614	0.0107864
710.693	0.0116263
710.771	0.0124026
710.849	0.0132466
710.927	0.0139564
711.005	0.0144242
711.083	0.0151635
711.161	0.0155397
711.239	0.0158845
711.318	0.0162440
711.396	0.0166144
711.474	0.0171416
711.552	0.0173005
711.630	0.0176666
711.708	0.0179418
711.786	0.0183367
711.864	0.0188350
711.943	0.0190292
712.021	0.0193064
712.099	0.0195443
712.177	0.0196677
712.255	0.0197260
712.333	0.0195594
712.411	0.0193949
712.489	0.0192603
712.568	0.0189954
712.646	0.0189275
712.724	0.0184624
712.802	0.0181380
712.880	0.0176849
712.958	0.0171745
713.036	0.0166905
713.114	0.0159140
713.193	0.0151861
713.271	0.0144093
713.349	0.0135555
713.427	0.0126820
713.505	0.0118369
713.583	0.0109936
713.661	0.0101537
713.739	0.00965172
713.818	0.00918800
713.896	0.00877144
713.974	0.00832115
714.052	0.00832985
714.130	0.00843544
714.208	0.00856941
714.286	0.00895981
714.364	0.00942406
714.443	0.00973343
714.521	0.0101911
714.599	0.0106036
714.677	0.0110906
714.755	0.0115576
714.833	0.0119273
714.911	0.0120409
714.989	0.0122925
715.068	0.0124241
715.146	0.0124800
715.224	0.0122285
715.302	0.0124467
715.380	0.0124100
715.458	0.0123028
715.536	0.0122234
715.614	0.0123148
715.693	0.0120987
715.771	0.0123430
715.849	0.0124149
715.927	0.0125512
716.005	0.0127294
716.083	0.0132037
716.161	0.0137634
716.239	0.0142136
716.318	0.0148127
716.396	0.0155317
716.474	0.0161801
716.552	0.0169599
716.630	0.0174000
716.708	0.0181018
716.786	0.0184898
716.864	0.0188986
716.943	0.0189624
717.021	0.0191810
717.099	0.0192276
717.177	0.0192435
717.255	0.0187251
717.333	0.0182843
717.411	0.0177798
717.489	0.0170952
717.568	0.0163280
717.646	0.0155389
717.724	0.0149946
717.802	0.0141262
717.880	0.0133323
717.958	0.0126305
718.036	0.0121359
718.114	0.0116925
718.193	0.0111565
718.271	0.0108018
718.349	0.0108410
718.427	0.0107353
718.505	0.0107664
718.583	0.0107598
718.661	0.0109996
718.739	0.0113064
718.818	0.0115424
718.896	0.0120399
718.974	0.0124792
719.052	0.0128056
719.130	0.0131659
719.208	0.0137468
719.286	0.0138748
719.364	0.0141321
719.443	0.0144294
719.521	0.0147116
719.599	0.0144056
719.677	0.0145459
719.755	0.0144382
719.833	0.0140927
719.911	0.0140475
719.989	0.0137307
720.068	0.0133795
720.146	0.0130240
720.224	0.0127332
720.302	0.0124075
720.380	0.0120445
720.458	0.0118575
720.536	0.0114944
720.614	0.0113934
720.693	0.0111194
720.771	0.0110841
720.849	0.0112605
720.927	0.0112576
721.005	0.0114997
721.083	0.0117286
721.161	0.0120844
721.239	0.0126486
721.318	0.0130327
721.396	0.0135168
721.474	0.0139616
721.552	0.0144706
721.630	0.0149887
721.708	0.0152773
721.786	0.0155809
721.864	0.0160632
721.943	0.0162894
722.021	0.0166455
722.099	0.0167352
722.177	0.0168500
722.255	0.0168375
722.333	0.0167642
722.411	0.0166991
722.489	0.0165685
722.568	0.0162640
722.646	0.0159075
722.724	0.0156239
722.802	0.0152605
722.880	0.0148560
722.958	0.0144460
723.036	0.0139693
723.114	0.0136385
723.193	0.0133873
723.271	0.0132287
723.349	0.0128722
723.427	0.0126485
723.505	0.0127777
723.583	0.0128098
723.661	0.0127345
723.739	0.0129333
723.818	0.0129264
723.896	0.0131300
723.974	0.0132830
724.052	0.0133133
724.130	0.0132111
724.208	0.0132673
724.286	0.0131630
724.364	0.0131612
724.443	0.0131054
724.521	0.0130617
724.599	0.0130374
724.677	0.0129724
724.755	0.0130113
724.833	0.0129051
724.911	0.0129140
724.989	0.0129482
725.068	0.0129611
725.146	0.0128551
725.224	0.0129166
725.302	0.0130042
725.380	0.0129284
725.458	0.0130286
725.536	0.0128692
725.614	0.0131531
725.693	0.0132008
725.771	0.0131940
725.849	0.0132143
725.927	0.0133566
726.005	0.0134341
726.083	0.0136359
726.161	0.0136304
726.239	0.0136481
726.318	0.0136456
726.396	0.0137242
726.474	0.0136945
726.552	0.0137373
726.630	0.0134906
726.708	0.0136385
726.786	0.0136503
726.864	0.0136359
726.943	0.0136057
727.021	0.0136754
727.099	0.0138403
727.177	0.0139563
727.255	0.0143443
727.333	0.0144434
727.411	0.0145656
727.489	0.0145802
727.568	0.0149172
727.646	0.0150257
727.724	0.0154060
727.802	0.0153710
727.880	0.0153715
727.958	0.0154205
728.036	0.0152351
728.114	0.0151878
728.193	0.0150086
728.271	0.0149845
728.349	0.0146973
728.427	0.0144727
728.505	0.0141819
728.583	0.0139135
728.661	0.0137514
728.739	0.0133559
728.818	0.0131959
728.896	0.0128735
728.974	0.0127809
729.052	0.0125034
729.130	0.0122644
729.208	0.0120811
729.286	0.0121844
729.364	0.0122094
729.443	0.0122949
729.521	0.0123079
729.599	0.0123161
729.677	0.0124837
729.755	0.0128299
729.833	0.0129662
729.911	0.0132438
729.989	0.0134674
730.068	0.0138006
730.146	0.0140159
730.224	0.0140740
730.302	0.0142559
730.380	0.0143558
730.458	0.0145432
730.536	0.0144337
730.614	0.0145423
730.693	0.0146787
730.771	0.0145111
730.849	0.0144093
730.927	0.0145156
731.005	0.0143655
731.083	0.0143274
731.161	0.0143180
731.239	0.0141797
731.318	0.0139893
731.396	0.0139764
731.474	0.0139812
731.552	0.0139701
731.630	0.0139680
731.708	0.0139513
731.786	0.0137522
731.864	0.0136716
731.943	0.0135015
732.021	0.0136058
732.099	0.0136299
732.177	0.0133416
732.255	0.0133871
732.333	0.0133920
732.411	0.0133812
732.489	0.0131871
732.568	0.0131445
732.646	0.0132534
732.724	0.0131565
732.802	0.0132231
732.880	0.0133541
732.958	0.0133156
733.036	0.0132185
733.114	0.0133480
733.193	0.0135436
733.271	0.0135397
733.349	0.0135745
733.427	0.0136691
733.505	0.0135937
733.583	0.0136723
733.661	0.0137451
733.739	0.0137518
733.818	0.0137317
733.896	0.0137198
733.974	0.0136684
734.052	0.0136451
734.130	0.0135561
734.208	0.0135638
734.286	0.0135857
734.364	0.0134834
734.443	0.0131137
734.521	0.0131290
734.599	0.0131587
734.677	0.0132050
734.755	0.0132072
734.833	0.0132299
734.911	0.0133327
734.989	0.0132738
735.068	0.0136649
735.146	0.0138150
735.224	0.0138992
735.302	0.0142117
735.380	0.0143359
735.458	0.0145969
735.536	0.0144968
735.614	0.0147697
735.693	0.0148334
735.771	0.0147202
735.849	0.0148464
735.927	0.0147501
736.005	0.0148829
736.083	0.0146008
736.161	0.0144469
736.239	0.0142178
736.318	0.0140981
736.396	0.0137306
736.474	0.0138924
736.552	0.0137427
736.630	0.0135424
736.708	0.0133562
736.786	0.0132877
736.864	0.0133178
736.943	0.0130834
737.021	0.0132261
737.099	0.0133601
737.177	0.0132938
737.255	0.0132923
737.333	0.0131956
737.411	0.0135594
737.489	0.0136236
737.568	0.0136856
737.646	0.0137644
737.724	0.0137575
737.802	0.0137117
737.880	0.0137608
737.958	0.0138568
738.036	0.0139324
738.114	0.0137939
738.193	0.0136790
738.271	0.0135741
738.349	0.0135780
738.427	0.0135428
738.505	0.0135715
738.583	0.0134185
738.661	0.0132350
738.739	0.0132908
738.818	0.0134113
738.896	0.0133619
738.974	0.0134128
739.052	0.0133015
739.130	0.0134264
739.208	0.0133315
739.286	0.0133654
739.364	0.0136580
739.443	0.0136244
739.521	0.0136334
739.599	0.0136144
739.677	0.0136106
739.755	0.0136390
739.833	0.0137193
739.911	0.0135954
739.989	0.0137432
740.068	0.0135524
740.146	0.0137697
740.224	0.0135887
740.302	0.0134885
740.380	0.0135956
740.458	0.0137159
740.536	0.0134615
740.614	0.0135339
740.693	0.0135477
740.771	0.0136078
740.849	0.0136670
740.927	0.0137038
741.005	0.0136648
741.083	0.0137019
741.161	0.0137232
741.239	0.0136980
741.318	0.0137271
741.396	0.0138326
741.474	0.0136292
741.552	0.0138257
741.630	0.0139869
741.708	0.0138010
741.786	0.0139272
741.864	0.0140694
741.943	0.0139250
742.021	0.0141003
742.099	0.0141993
742.177	0.0141944
742.255	0.0142500
742.333	0.0141984
742.411	0.0143775
742.489	0.0143117
742.568	0.0145323
742.646	0.0144302
742.724	0.0143365
742.802	0.0144844
742.880	0.0145107
742.958	0.0144067
743.036	0.0145058
743.114	0.0144852
743.193	0.0144003
743.271	0.0143174
743.349	0.0141303
743.427	0.0139983
743.505	0.0138386
743.583	0.0136816
743.661	0.0135124
743.739	0.0134593
743.818	0.0132555
743.896	0.0132048
743.974	0.0132487
744.052	0.0131625
744.130	0.0129252
744.208	0.0128619
744.286	0.0129347
744.364	0.0129762
744.443	0.0130197
744.521	0.0129399
744.599	0.0130688
744.677	0.0131117
744.755	0.0131844
744.833	0.0132429
744.911	0.0131802
744.989	0.0132796
745.068	0.0132848
745.146	0.0132659
745.224	0.0133976
745.302	0.0132410
745.380	0.0131851
745.458	0.0131876
745.536	0.0132011
745.614	0.0130912
745.693	0.0130927
745.771	0.0132002
745.849	0.0132197
745.927	0.0131622
746.005	0.0132981
746.083	0.0132194
746.161	0.0132626
746.239	0.0133266
746.318	0.0133545
746.396	0.0136103
746.474	0.0136397
746.552	0.0138155
746.630	0.0140353
746.708	0.0140833
746.786	0.0141157
746.864	0.0142164
746.943	0.0144228
747.021	0.0144309
747.099	0.0143224
747.177	0.0144592
747.255	0.0144106
747.333	0.0147128
747.411	0.0144902
747.489	0.0145311
747.568	0.0145580
747.646	0.0144696
747.724	0.0144064
747.802	0.0143156
747.880	0.0144376
747.958	0.0141582
748.036	0.0140540
748.114	0.0140594
748.193	0.0142138
748.271	0.0140780
748.349	0.0140929
748.427	0.0139558
748.505	0.0140202
748.583	0.0139937
748.661	0.0139180
748.739	0.0139758
748.818	0.0136755
748.896	0.0137534
748.974	0.0137107
749.052	0.0137523
749.130	0.0136787
749.208	0.0137479
749.286	0.0134785
749.364	0.0136707
749.443	0.0136419
749.521	0.0136552
749.599	0.0134454
749.677	0.0133652
749.755	0.0133244
749.833	0.0133633
749.911	0.0133225
749.989	0.0133126
750.068	0.0131813
750.146	0.0131641
750.224	0.0130814
750.302	0.0130035
750.380	0.0129626
750.458	0.0131231
750.536	0.0131335
750.614	0.0131217
750.693	0.0132675
750.771	0.0132699
750.849	0.0133173
750.927	0.0132924
751.005	0.0133522
751.083	0.0133396
751.161	0.0134099
751.239	0.0136827
751.318	0.0136736
751.396	0.0137756
751.474	0.0139067
751.552	0.0139201
751.630	0.0139039
751.708	0.0140238
751.786	0.0140065
751.864	0.0140284
751.943	0.0140248
752.021	0.0138574
752.099	0.0140668
752.177	0.0139195
752.255	0.0140619
752.333	0.0141025
752.411	0.0140910
752.489	0.0140436
752.568	0.0141196
752.646	0.0139602
752.724	0.0139307
752.802	0.0140808
752.880	0.0140074
752.958	0.0139820
753.036	0.0140424
753.114	0.0139732
753.193	0.0139314
753.271	0.0138920
753.349	0.0138797
753.427	0.0139752
753.505	0.0137392
753.583	0.0138193
753.661	0.0136665
753.739	0.0137292
753.818	0.0135240
753.896	0.0134247
753.974	0.0135035
754.052	0.0134516
754.130	0.0135258
754.208	0.0134534
754.286	0.0134313
754.364	0.0134593
754.443	0.0137132
754.521	0.0135529
754.599	0.0136558
754.677	0.0137732
754.755	0.0139818
754.833	0.0138606
754.911	0.0140340
754.989	0.0140938
755.068	0.0141800
755.146	0.0142450
755.224	0.0142934
755.302	0.0141254
755.380	0.0142603
755.458	0.0142210
755.536	0.0141245
755.614	0.0141124
755.693	0.0141609
755.771	0.0142195
755.849	0.0139600
755.927	0.0138493
756.005	0.0138676
756.083	0.0136636
756.161	0.0136108
756.239	0.0136701
756.318	0.0134661
756.396	0.0133598
756.474	0.0134485
756.552	0.0133198
756.630	0.0132066
756.708	0.0134190
756.786	0.0132749
756.864	0.0132552
756.943	0.0132755
757.021	0.0131784
757.099	0.0132127
757.177	0.0132495
757.255	0.0132147
757.333	0.0132083
757.411	0.0133022
757.489	0.0132510
757.568	0.0132371
757.646	0.0132513
757.724	0.0132697
757.802	0.0132561
757.880	0.0132050
757.958	0.0133091
758.036	0.0133223
758.114	0.0134194
758.193	0.0133024
758.271	0.0134593
758.349	0.0134500
758.427	0.0137202
758.505	0.0135823
758.583	0.0137070
758.661	0.0137070
758.739	0.0139924
758.818	0.0141480
758.896	0.0140231
758.974	0.0140000
759.052	0.0139743
759.130	0.0141086
759.208	0.0140940
759.286	0.0140273
759.364	0.0141606
759.443	0.0140463
759.521	0.0140304
759.599	0.0139251
759.677	0.0139489
759.755	0.0140366
759.833	0.0138055
759.911	0.0138821
759.989	0.0138163
760.068	0.0137429
760.146	0.0136531
760.224	0.0137416
760.302	0.0137778
760.380	0.0136945
760.458	0.0136972
760.536	0.0137686
760.614	0.0137724
760.693	0.0138982
760.771	0.0137487
760.849	0.0137550
760.927	0.0138689
761.005	0.0137140
761.083	0.0137715
761.161	0.0139173
761.239	0.0137423
761.318	0.0139305
761.396	0.0138013
761.474	0.0137509
761.552	0.0138235
761.630	0.0136808
761.708	0.0136321
761.786	0.0137141
761.864	0.0135412
761.943	0.0135071
762.021	0.0135547
762.099	0.0135225
762.177	0.0134923
762.255	0.0134962
762.333	0.0135809
762.411	0.0135027
762.489	0.0133443
762.568	0.0135059
762.646	0.0135052
762.724	0.0134790
762.802	0.0137122
762.880	0.0136931
762.958	0.0135347
763.036	0.0136601
763.114	0.0136944
763.193	0.0137421
763.271	0.0138949
763.349	0.0139423
763.427	0.0138383
763.505	0.0138132
763.583	0.0136814
763.661	0.0138729
763.739	0.0137048
763.818	0.0137514
763.896	0.0138316
763.974	0.0136272
764.052	0.0135217
764.130	0.0135846
764.208	0.0134294
764.286	0.0134859
764.364	0.0133944
764.443	0.0134442
764.521	0.0134927
764.599	0.0133533
764.677	0.0135254
764.755	0.0135624
764.833	0.0135112
764.911	0.0133641
764.989	0.0135577
765.068	0.0137086
765.146	0.0137080
765.224	0.0136591
765.302	0.0137379
765.380	0.0138165
765.458	0.0139240
765.536	0.0139307
765.614	0.0139317
765.693	0.0139143
765.771	0.0137449
765.849	0.0137762
765.927	0.0139877
766.005	0.0137236
766.083	0.0135559
766.161	0.0136678
766.239	0.0136329
766.318	0.0135670
766.396	0.0136082
766.474	0.0135087
766.552	0.0133778
766.630	0.0133694
766.708	0.0134652
766.786	0.0134211
766.864	0.0133650
766.943	0.0133676
767.021	0.0135033
767.099	0.0132584
767.177	0.0133131
767.255	0.0135165
767.333	0.0135374
767.411	0.0134927
767.489	0.0137316
767.568	0.0137714
767.646	0.0137463
767.724	0.0140161
767.802	0.0139089
767.880	0.0140126
767.958	0.0140063
768.036	0.0140290
768.114	0.0143023
768.193	0.0141685
768.271	0.0142078
768.349	0.0142542
768.427	0.0143163
768.505	0.0141471
768.583	0.0142899
768.661	0.0141582
768.739	0.0141481
768.818	0.0140343
768.896	0.0141423
768.974	0.0140815
769.052	0.0140649
769.130	0.0139077
769.208	0.0136559
769.286	0.0137202
769.364	0.0137498
769.443	0.0136123
769.521	0.0134854
769.599	0.0134403
769.677	0.0134308
769.755	0.0132385
769.833	0.0132302
769.911	0.0132623
769.989	0.0132188
770.068	0.0130828
770.146	0.0130505
770.224	0.0131243
770.302	0.0129155
770.380	0.0130087
770.458	0.0130379
770.536	0.0130786
770.614	0.0129932
770.693	0.0130685
770.771	0.0131023
770.849	0.0132557
770.927	0.0132899
771.005	0.0133624
771.083	0.0134262
771.161	0.0135593
771.239	0.0136567
771.318	0.0136523
771.396	0.0137273
771.474	0.0138516
771.552	0.0137510
771.630	0.0139362
771.708	0.0138512
771.786	0.0137650
771.864	0.0139440
771.943	0.0139838
772.021	0.0139433
772.099	0.0139661
772.177	0.0140437
772.255	0.0140198
772.333	0.0141286
772.411	0.0140590
772.489	0.0140853
772.568	0.0140134
772.646	0.0141266
772.724	0.0140317
772.802	0.0140107
772.880	0.0140957
772.958	0.0140340
773.036	0.0139222
773.114	0.0139520
773.193	0.0140147
773.271	0.0139101
773.349	0.0138901
773.427	0.0138024
773.505	0.0138921
773.583	0.0139827
773.661	0.0136806
773.739	0.0138014
773.818	0.0138015
773.896	0.0136523
773.974	0.0136918
774.052	0.0136894
774.130	0.0137195
774.208	0.0136695
774.286	0.0136465
774.364	0.0137460
774.443	0.0137071
774.521	0.0136557
774.599	0.0137443
774.677	0.0136136
774.755	0.0135197
774.833	0.0135424
774.911	0.0136279
774.989	0.0136279
775.068	0.0135399
775.146	0.0134253
775.224	0.0135514
775.302	0.0135748
775.380	0.0135204
775.458	0.0135353
775.536	0.0134168
775.614	0.0133601
775.693	0.0134329
775.771	0.0135297
775.849	0.0135284
775.927	0.0136566
776.005	0.0136176
776.083	0.0135159
776.161	0.0135732
776.239	0.0136098
776.318	0.0137158
776.396	0.0136633
776.474	0.0135145
776.552	0.0135923
776.630	0.0137951
776.708	0.0137429
776.786	0.0137879
776.864	0.0138863
776.943	0.0138322
777.021	0.0138775
777.099	0.0137328
777.177	0.0139557
777.255	0.0140238
777.333	0.0139114
777.411	0.0138194
777.489	0.0138662
777.568	0.0138109
777.646	0.0139606
777.724	0.0137369
777.802	0.0138089
777.880	0.0138482
777.958	0.0138098
778.036	0.0137028
778.114	0.0137479
778.193	0.0137154
778.271	0.0136278
778.349	0.0137356
778.427	0.0137632
778.505	0.0137209
778.583	0.0137498
778.661	0.0136935
778.739	0.0136633
778.818	0.0136708
778.896	0.0135493
778.974	0.0136076
779.052	0.0136916
779.130	0.0137857
779.208	0.0137241
779.286	0.0136655
779.364	0.0137412
779.443	0.0138698
779.521	0.0137460
779.599	0.0137344
779.677	0.0138192
779.755	0.0138430
779.833	0.0136939
779.911	0.0136353
779.989	0.0138280
780.068	0.0138466
780.146	0.0136997
780.224	0.0137273
780.302	0.0137455
780.380	0.0136060
780.458	0.0137548
780.536	0.0136831
780.614	0.0135494
780.693	0.0135248
780.771	0.0136237
780.849	0.0135475
780.927	0.0136561
781.005	0.0136419
781.083	0.0136440
781.161	0.0136716
781.239	0.0136920
781.318	0.0136018
781.396	0.0136256
781.474	0.0135072
781.552	0.0135753
781.630	0.0134531
781.708	0.0134354
781.786	0.0135497
781.864	0.0137174
781.943	0.0136183
782.021	0.0138256
782.099	0.0137112
782.177	0.0137660
782.255	0.0137111
782.333	0.0136810
782.411	0.0137472
782.489	0.0138250
782.568	0.0137630
782.646	0.0139085
782.724	0.0136488
782.802	0.0137758
782.880	0.0137401
782.958	0.0135316
783.036	0.0133745
783.114	0.0136423
783.193	0.0135903
783.271	0.0134908
783.349	0.0136077
783.427	0.0135566
783.505	0.0135725
783.583	0.0134822
783.661	0.0135968
783.739	0.0136427
783.818	0.0137203
783.896	0.0137604
783.974	0.0139030
784.052	0.0136636
784.130	0.0136839
784.208	0.0137727
784.286	0.0137706
784.364	0.0137081
784.443	0.0136499
784.521	0.0136407
784.599	0.0135839
784.677	0.0135661
784.755	0.0134763
784.833	0.0134825
784.911	0.0133959
784.989	0.0133942
785.068	0.0135088
785.146	0.0133134
785.224	0.0134631
785.302	0.0135080
785.380	0.0134718
785.458	0.0134687
785.536	0.0134816
785.614	0.0137114
785.693	0.0138688
785.771	0.0137034
785.849	0.0137191
785.927	0.0137436
786.005	0.0138762
786.083	0.0139619
786.161	0.0139193
786.239	0.0138776
786.318	0.0138955
786.396	0.0139009
786.474	0.0139055
786.552	0.0139690
786.630	0.0137839
786.708	0.0137373
786.786	0.0136504
786.864	0.0137743
786.943	0.0138090
787.021	0.0135593
787.099	0.0135727
787.177	0.0136139
787.255	0.0136108
787.333	0.0134967
787.411	0.0133340
787.489	0.0135683
787.568	0.0135218
787.646	0.0135351
787.724	0.0135215
787.802	0.0135291
787.880	0.0136086
787.958	0.0133627
788.036	0.0135326
788.114	0.0136650
788.193	0.0135085
788.271	0.0135778
788.349	0.0135757
788.427	0.0136198
788.505	0.0137972
788.583	0.0136280
788.661	0.0138323
788.739	0.0137549
788.818	0.0137137
788.896	0.0138274
788.974	0.0138049
789.052	0.0137438
789.130	0.0137897
789.208	0.0138309
789.286	0.0138189
789.364	0.0139312
789.443	0.0137298
789.521	0.0136836
789.599	0.0136611
789.677	0.0137141
789.755	0.0136478
789.833	0.0136366
789.911	0.0135519
789.989	0.0135400
790.068	0.0134772
790.146	0.0136456
790.224	0.0135210
790.302	0.0133828
790.380	0.0134407
790.458	0.0135141
790.536	0.0134241
790.614	0.0134021
790.693	0.0134048
790.771	0.0134499
790.849	0.0133937
790.927	0.0133047
791.005	0.0133181
791.083	0.0133808
791.161	0.0134615
791.239	0.0134566
791.318	0.0136652
791.396	0.0136761
791.474	0.0137058
791.552	0.0137752
791.630	0.0138604
791.708	0.0139793
791.786	0.0140347
791.864	0.0142160
791.943	0.0142021
792.021	0.0142015
792.099	0.0143273
792.177	0.0144083
792.255	0.0143634
792.333	0.0143266
792.411	0.0144724
792.489	0.0142776
792.568	0.0143156
792.646	0.0142435
792.724	0.0141855
792.802	0.0140479
792.880	0.0139722
792.958	0.0140104
793.036	0.0138258
793.114	0.0136201
793.193	0.0136669
793.271	0.0135094
793.349	0.0133753
793.427	0.0131925
793.505	0.0130270
793.583	0.0129931
793.661	0.0130338
793.739	0.0128065
793.818	0.0127225
793.896	0.0128630
793.974	0.0128313
794.052	0.0125658
794.130	0.0127163
794.208	0.0128629
794.286	0.0128606
794.364	0.0129344
794.443	0.0130102
794.521	0.0131379
794.599	0.0132030
794.677	0.0132259
794.755	0.0132320
794.833	0.0135384
794.911	0.0135773
794.989	0.0135419
795.068	0.0134949
795.146	0.0137574
795.224	0.0137968
795.302	0.0137845
795.380	0.0138448
795.458	0.0139734
795.536	0.0139588
795.614	0.0141445
795.693	0.0141183
795.771	0.0141527
795.849	0.0142782
795.927	0.0142448
796.005	0.0143656
796.083	0.0143269
796.161	0.0146201
796.239	0.0144521
796.318	0.0143716
796.396	0.0143762
796.474	0.0145394
796.552	0.0145279
796.630	0.0144446
796.708	0.0143328
796.786	0.0141663
796.864	0.0140572
796.943	0.0141209
797.021	0.0139122
797.099	0.0138542
797.177	0.0137583
797.255	0.0135136
797.333	0.0134150
797.411	0.0134116
797.489	0.0132566
797.568	0.0132004
797.646	0.0131071
797.724	0.0128651
797.802	0.0128045
797.880	0.0128520
797.958	0.0129224
798.036	0.0129846
798.114	0.0128922
798.193	0.0131055
798.271	0.0129749
798.349	0.0131482
798.427	0.0130249
798.505	0.0130272
798.583	0.0134686
798.661	0.0133474
798.739	0.0133237
798.818	0.0134695
798.896	0.0135400
798.974	0.0136448
799.052	0.0135680
799.130	0.0135223
799.208	0.0136057
799.286	0.0136121
799.364	0.0136939
799.443	0.0137125
799.521	0.0138884
799.599	0.0137782
799.677	0.0138130
799.755	0.0138428
799.833	0.0140063
799.911	0.0140040
799.989	0.0141950
800.068	0.0142199
800.146	0.0142659
800.224	0.0142564
800.302	0.0144846
800.380	0.0145636
800.458	0.0145887
800.536	0.0147394
800.614	0.0146272
800.693	0.0148229
800.771	0.0149229
800.849	0.0147382
800.927	0.0148809
801.005	0.0148031
801.083	0.0146274
801.161	0.0145990
801.239	0.0143934
801.318	0.0142755
801.396	0.0141127
801.474	0.0138230
801.552	0.0135885
801.630	0.0132771
801.708	0.0131834
801.786	0.0130597
801.864	0.0129225
801.943	0.0128135
802.021	0.0125715
802.099	0.0124113
802.177	0.0121935
802.255	0.0123630
802.333	0.0122780
802.411	0.0123597
802.489	0.0124593
802.568	0.0124304
802.646	0.0125478
802.724	0.0127611
802.802	0.0127209
802.880	0.0128857
802.958	0.0130393
803.036	0.0131646
803.114	0.0130052
803.193	0.0133335
803.271	0.0134093
803.349	0.0135555
803.427	0.0134954
803.505	0.0134901
803.583	0.0137446
803.661	0.0137881
803.739	0.0138947
803.818	0.0140917
803.896	0.0140845
803.974	0.0140364
804.052	0.0142861
804.130	0.0144563
804.208	0.0145375
804.286	0.0145824
804.364	0.0146582
804.443	0.0146967
804.521	0.0148729
804.599	0.0148690
804.677	0.0150861
804.755	0.0149557
804.833	0.0150134
804.911	0.0151553
804.989	0.0151640
805.068	0.0150408
805.146	0.0150097
805.224	0.0147762
805.302	0.0147653
805.380	0.0144657
805.458	0.0143660
805.536	0.0141972
805.614	0.0139564
805.693	0.0137657
805.771	0.0135535
805.849	0.0134041
805.927	0.0132191
806.005	0.0129999
806.083	0.0127604
806.161	0.0127505
806.239	0.0127074
806.318	0.0124396
806.396	0.0123324
806.474	0.0123293
806.552	0.0123411
806.630	0.0121729
806.708	0.0120878
806.786	0.0124062
806.864	0.0122247
806.943	0.0123192
807.021	0.0125819
807.099	0.0128732
807.177	0.0128078
807.255	0.0128187
807.333	0.0130028
807.411	0.0132173
807.489	0.0132910
807.568	0.0135143
807.646	0.0134784
807.724	0.0137432
807.802	0.0138753
807.880	0.0140932
807.958	0.0141467
808.036	0.0141663
808.114	0.0143402
808.193	0.0145045
808.271	0.0143591
808.349	0.0145499
808.427	0.0146659
808.505	0.0147897
808.583	0.0148253
808.661	0.0148151
808.739	0.0149855
808.818	0.0147838
808.896	0.0148696
808.974	0.0146945
809.052	0.0146459
809.130	0.0147742
809.208	0.0146895
809.286	0.0147425
809.364	0.0145880
809.443	0.0142377
809.521	0.0142296
809.599	0.0143211
809.677	0.0140101
809.755	0.0139862
809.833	0.0139439
809.911	0.0137066
809.989	0.0136417
810.068	0.0134710
810.146	0.0133038
810.224	0.0130064
810.302	0.0131937
810.380	0.0130736
810.458	0.0129898
810.536	0.0130524
810.614	0.0129985
810.693	0.0128908
810.771	0.0128724
810.849	0.0130021
810.927	0.0129533
811.005	0.0129564
811.083	0.0130759
811.161	0.0129230
811.239	0.0129622
811.318	0.0130303
811.396	0.0130956
811.474	0.0132105
811.552	0.0133105
811.630	0.0133028
811.708	0.0134599
811.786	0.0134295
811.864	0.0135677
811.943	0.0136314
812.021	0.0136594
812.099	0.0136755
812.177	0.0136366
812.255	0.0135061
812.333	0.0135688
812.411	0.0139333
812.489	0.0138725
812.568	0.0138882
812.646	0.0139187
812.724	0.0138852
812.802	0.0140444
812.880	0.0141787
812.958	0.0142000
813.036	0.0142247
813.114	0.0141853
813.193	0.0143868
813.271	0.0142900
813.349	0.0145730
813.427	0.0145306
813.505	0.0143645
813.583	0.0143117
813.661	0.0143302
813.739	0.0144273
813.818	0.0142296
813.896	0.0141457
813.974	0.0140559
814.052	0.0140505
814.130	0.0139684
814.208	0.0138843
814.286	0.0138630
814.364	0.0136790
814.443	0.0136197
814.521	0.0136015
814.599	0.0135730
814.677	0.0133641
814.755	0.0132626
814.833	0.0132859
814.911	0.0133404
814.989	0.0132023
815.068	0.0132130
815.146	0.0133184
815.224	0.0132672
815.302	0.0133729
815.380	0.0132002
815.458	0.0132916
815.536	0.0133780
815.614	0.0133766
815.693	0.0133746
815.771	0.0133489
815.849	0.0133768
815.927	0.0135457
816.005	0.0135831
816.083	0.0135751
816.161	0.0135806
816.239	0.0137010
816.318	0.0136462
816.396	0.0136514
816.474	0.0137334
816.552	0.0137690
816.630	0.0138097
816.708	0.0136642
816.786	0.0137974
816.864	0.0137547
816.943	0.0137336
817.021	0.0137169
817.099	0.0137051
817.177	0.0136092
817.255	0.0135921
817.333	0.0135354
817.411	0.0136802
817.489	0.0135933
817.568	0.0136903
817.646	0.0136514
817.724	0.0134683
817.802	0.0135894
817.880	0.0135381
817.958	0.0136003
818.036	0.0136620
818.114	0.0136372
818.193	0.0137151
818.271	0.0138602
818.349	0.0136214
818.427	0.0137979
818.505	0.0138857
818.583	0.0139792
818.661	0.0139007
818.739	0.0139837
818.818	0.0139519
818.896	0.0140299
818.974	0.0139054
819.052	0.0140007
819.130	0.0137718
819.208	0.0137466
819.286	0.0137591
819.364	0.0138508
819.443	0.0140243
819.521	0.0138209
819.599	0.0137935
819.677	0.0136390
819.755	0.0138292
819.833	0.0136720
819.911	0.0137218
819.989	0.0137538
820.068	0.0137418
820.146	0.0137606
820.224	0.0136693
820.302	0.0136028
820.380	0.0135903
820.458	0.0137578
820.536	0.0137553
820.614	0.0135644
820.693	0.0136498
820.771	0.0136110
820.849	0.0136795
820.927	0.0136390
821.005	0.0137636
821.083	0.0136056
821.161	0.0136974
821.239	0.0136901
821.318	0.0135340
821.396	0.0133936
821.474	0.0135770
821.552	0.0135744
821.630	0.0135716
821.708	0.0134777
821.786	0.0134189
821.864	0.0135157
821.943	0.0134620
822.021	0.0136044
822.099	0.0136453
822.177	0.0135339
822.255	0.0135835
822.333	0.0134590
822.411	0.0135091
822.489	0.0134761
822.568	0.0135287
822.646	0.0136156
822.724	0.0134798
822.802	0.0134565
822.880	0.0134647
822.958	0.0133970
823.036	0.0133913
823.114	0.0135607
823.193	0.0135043
823.271	0.0133775
823.349	0.0133952
823.427	0.0134048
823.505	0.0134759
823.583	0.0134833
823.661	0.0133812
823.739	0.0134129
823.818	0.0134695
823.896	0.0136798
823.974	0.0137812
824.052	0.0138170
824.130	0.0138197
824.208	0.0139716
824.286	0.0139958
824.364	0.0140429
824.443	0.0143066
824.521	0.0141035
824.599	0.0142209
824.677	0.0143311
824.755	0.0141788
824.833	0.0141641
824.911	0.0142477
824.989	0.0142921
825.068	0.0144153
825.146	0.0141755
825.224	0.0139348
825.302	0.0140417
825.380	0.0140309
825.458	0.0140543
825.536	0.0138093
825.614	0.0138495
825.693	0.0137882
825.771	0.0136937
825.849	0.0137150
825.927	0.0136425
826.005	0.0135186
826.083	0.0134559
826.161	0.0135603
826.239	0.0135844
826.318	0.0134139
826.396	0.0135548
826.474	0.0135293
826.552	0.0134284
826.630	0.0134364
826.708	0.0134496
826.786	0.0134344
826.864	0.0134179
826.943	0.0134614
827.021	0.0133472
827.099	0.0132192
827.177	0.0132879
827.255	0.0133866
827.333	0.0133176
827.411	0.0133184
827.489	0.0133249
827.568	0.0133617
827.646	0.0133560
827.724	0.0133324
827.802	0.0135129
827.880	0.0135486
827.958	0.0133829
828.036	0.0134246
828.114	0.0134410
828.193	0.0135859
828.271	0.0135937
828.349	0.0135267
828.427	0.0137627
828.505	0.0137877
828.583	0.0136177
828.661	0.0136987
828.739	0.0139548
828.818	0.0139283
828.896	0.0139243
828.974	0.0138753
829.052	0.0139479
829.130	0.0138982
829.208	0.0140502
829.286	0.0140385
829.364	0.0140641
829.443	0.0140713
829.521	0.0140816
829.599	0.0139256
829.677	0.0139992
829.755	0.0141077
829.833	0.0140248
829.911	0.0140343
829.989	0.0140265
830.068	0.0139963
830.146	0.0141162
830.224	0.0139296
830.302	0.0140243
830.380	0.0139148
830.458	0.0138917
830.536	0.0139429
830.614	0.0139341
830.693	0.0139421
830.771	0.0137478
830.849	0.0137977
830.927	0.0137107
831.005	0.0136742
831.083	0.0137164
831.161	0.0136506
831.239	0.0137115
831.318	0.0137196
831.396	0.0137614
831.474	0.0137122
831.552	0.0135027
831.630	0.0136848
831.708	0.0137124
831.786	0.0136732
831.864	0.0136328
831.943	0.0135555
832.021	0.0135632
832.099	0.0135465
832.177	0.0134763
832.255	0.0135175
832.333	0.0134612
832.411	0.0134027
832.489	0.0133495
832.568	0.0133497
832.646	0.0133179
832.724	0.0132355
832.802	0.0134023
832.880	0.0132806
832.958	0.0133424
833.036	0.0133173
833.114	0.0134594
833.193	0.0134198
833.271	0.0134853
833.349	0.0135487
833.427	0.0136963
833.505	0.0136007
833.583	0.0137471
833.661	0.0138232
833.739	0.0138499
833.818	0.0138125
833.896	0.0139998
833.974	0.0141833
834.052	0.0140909
834.130	0.0141561
834.208	0.0140573
834.286	0.0139631
834.364	0.0141760
834.443	0.0141487
834.521	0.0140582
834.599	0.0142207
834.677	0.0143551
834.755	0.0140186
834.833	0.0140781
834.911	0.0139594
834.989	0.0139629
835.068	0.0139486
835.146	0.0139898
835.224	0.0137322
835.302	0.0138374
835.380	0.0137279
835.458	0.0136548
835.536	0.0135474
835.614	0.0136938
835.693	0.0136746
835.771	0.0135646
835.849	0.0135578
835.927	0.0132961
836.005	0.0133584
836.083	0.0132555
836.161	0.0133562
836.239	0.0131351
836.318	0.0132412
836.396	0.0132117
836.474	0.0131937
836.552	0.0132615
836.630	0.0132873
836.708	0.0131107
836.786	0.0132717
836.864	0.0132169
836.943	0.0133591
837.021	0.0132044
837.099	0.0132822
837.177	0.0134187
837.255	0.0134452
837.333	0.0136449
837.411	0.0134484
837.489	0.0134224
837.568	0.0135338
837.646	0.0137563
837.724	0.0137923
837.802	0.0138237
837.880	0.0138451
837.958	0.0138338
838.036	0.0139288
838.114	0.0139088
838.193	0.0139076
838.271	0.0139454
838.349	0.0139792
838.427	0.0140651
838.505	0.0140263
838.583	0.0140205
838.661	0.0140042
838.739	0.0138499
838.818	0.0140062
838.896	0.0139368
838.974	0.0140541
839.052	0.0139881
839.130	0.0139323
839.208	0.0140112
839.286	0.0139998
839.364	0.0138893
839.443	0.0139510
839.521	0.0140221
839.599	0.0138638
839.677	0.0138206
839.755	0.0139796
839.833	0.0139069
839.911	0.0137727
839.989	0.0137498
840.068	0.0137273
840.146	0.0137299
840.224	0.0135396
840.302	0.0135378
840.380	0.0135874
840.458	0.0135862
840.536	0.0134381
840.614	0.0134758
840.693	0.0133301
840.771	0.0132160
840.849	0.0133264
840.927	0.0132446
841.005	0.0132713
841.083	0.0130286
841.161	0.0129713
841.239	0.0131193
841.318	0.0132018
841.396	0.0130814
841.474	0.0131253
841.552	0.0129977
841.630	0.0130817
841.708	0.0132864
841.786	0.0133196
841.864	0.0134530
841.943	0.0133162
842.021	0.0131737
842.099	0.0135379
842.177	0.0135693
842.255	0.0135144
842.333	0.0136919
842.411	0.0137823
842.489	0.0138217
842.568	0.0137671
842.646	0.0139418
842.724	0.0139606
842.802	0.0140553
842.880	0.0141230
842.958	0.0141570
843.036	0.0140598
843.114	0.0141328
843.193	0.0141341
843.271	0.0142471
843.349	0.0143297
843.427	0.0143034
843.505	0.0143237
843.583	0.0143822
843.661	0.0142890
843.739	0.0141332
843.818	0.0142720
843.896	0.0142016
843.974	0.0141192
844.052	0.0140533
844.130	0.0140395
844.208	0.0138875
844.286	0.0138121
844.364	0.0137330
844.443	0.0137840
844.521	0.0136143
844.599	0.0134825
844.677	0.0136179
844.755	0.0135725
844.833	0.0133967
844.911	0.0133392
844.989	0.0133379
845.068	0.0133089
845.146	0.0133413
845.224	0.0132654
845.302	0.0131377
845.380	0.0131264
845.458	0.0132674
845.536	0.0132844
845.614	0.0131525
845.693	0.0132200
845.771	0.0132902
845.849	0.0131898
845.927	0.0133496
846.005	0.0134911
846.083	0.0132445
846.161	0.0133543
846.239	0.0136191
846.318	0.0134665
846.396	0.0135218
846.474	0.0136222
846.552	0.0135973
846.630	0.0138085
846.708	0.0139273
846.786	0.0139139
846.864	0.0140025
846.943	0.0140275
847.021	0.0140369
847.099	0.0139548
847.177	0.0140273
847.255	0.0139986
847.333	0.0139028
847.411	0.0138997
847.489	0.0141300
847.568	0.0138753
847.646	0.0138415
847.724	0.0139159
847.802	0.0138817
847.880	0.0139667
847.958	0.0139154
848.036	0.0138113
848.114	0.0136600
848.193	0.0137040
848.271	0.0137717
848.349	0.0135458
848.427	0.0137276
848.505	0.0136965
848.583	0.0135953
848.661	0.0136756
848.739	0.0135947
848.818	0.0136535
848.896	0.0135500
848.974	0.0135371
849.052	0.0135437
849.130	0.0135565
849.208	0.0134364
849.286	0.0134194
849.364	0.0133238
849.443	0.0133360
849.521	0.0133916
849.599	0.0133091
849.677	0.0133688
849.755	0.0134706
849.833	0.0133916
849.911	0.0134673
849.989	0.0135317
850.068	0.0135851
850.146	0.0134182
850.224	0.0136501
850.302	0.0136619
850.380	0.0137799
850.458	0.0136218
850.536	0.0136138
850.614	0.0136906
850.693	0.0136506
850.771	0.0137401
850.849	0.0136732
850.927	0.0137088
851.005	0.0137162
851.083	0.0136845
851.161	0.0136777
851.239	0.0137701
851.318	0.0137993
851.396	0.0137632
851.474	0.0137435
851.552	0.0136516
851.630	0.0137129
851.708	0.0137180
851.786	0.0138460
851.864	0.0138225
851.943	0.0138937
852.021	0.0140011
852.099	0.0138898
852.177	0.0139598
852.255	0.0140968
852.333	0.0140422
852.411	0.0140387
852.489	0.0140231
852.568	0.0140845
852.646	0.0140189
852.724	0.0138894
852.802	0.0139499
852.880	0.0139773
852.958	0.0137849
853.036	0.0139223
853.114	0.0138892
853.193	0.0138505
853.271	0.0137940
853.349	0.0136332
853.427	0.0136002
853.505	0.0135635
853.583	0.0134466
853.661	0.0133936
853.739	0.0132439
853.818	0.0131770
853.896	0.0132371
853.974	0.0132718
854.052	0.0132304
854.130	0.0132480
854.208	0.0130706
854.286	0.0130507
854.364	0.0132011
854.443	0.0133131
854.521	0.0132748
854.599	0.0132684
854.677	0.0134221
854.755	0.0133453
854.833	0.0133862
854.911	0.0133788
854.989	0.0133974
855.068	0.0134831
855.146	0.0135270
855.224	0.0137232
855.302	0.0137660
855.380	0.0136342
855.458	0.0137952
855.536	0.0137929
855.614	0.0138874
855.693	0.0138732
855.771	0.0139124
855.849	0.0139763
855.927	0.0138880
856.005	0.0139743
856.083	0.0140135
856.161	0.0140392
856.239	0.0139756
856.318	0.0140849
856.396	0.0139862
856.474	0.0139690
856.552	0.0141360
856.630	0.0140396
856.708	0.0139697
856.786	0.0138497
856.864	0.0139864
856.943	0.0139275
857.021	0.0137587
857.099	0.0138212
857.177	0.0139277
857.255	0.0136882
857.333	0.0136523
857.411	0.0136324
857.489	0.0137356
857.568	0.0136461
857.646	0.0135569
857.724	0.0133946
857.802	0.0134552
857.880	0.0133659
857.958	0.0134178
858.036	0.0135402
858.114	0.0135143
858.193	0.0133617
858.271	0.0135999
858.349	0.0133913
858.427	0.0134680
858.505	0.0135591
858.583	0.0135152
858.661	0.0137032
858.739	0.0135484
858.818	0.0136357
858.896	0.0136493
858.974	0.0135637
859.052	0.0137103
859.130	0.0135268
859.208	0.0135024
859.286	0.0136939
859.364	0.0136063
859.443	0.0136440
859.521	0.0138006
859.599	0.0137022
859.677	0.0135273
859.755	0.0136158
859.833	0.0134816
859.911	0.0136367
859.989	0.0135100
860.068	0.0135644
860.146	0.0134879
860.224	0.0134997
860.302	0.0134903
860.380	0.0135557
860.458	0.0134431
860.536	0.0134518
860.614	0.0134834
860.693	0.0133424
860.771	0.0134682
860.849	0.0134818
860.927	0.0135352
861.005	0.0135566
861.083	0.0135869
861.161	0.0135562
861.239	0.0135531
861.318	0.0137021
861.396	0.0137071
861.474	0.0136298
861.552	0.0137755
861.630	0.0137715
861.708	0.0139151
861.786	0.0139317
861.864	0.0139426
861.943	0.0137981
862.021	0.0139740
862.099	0.0138818
862.177	0.0139048
862.255	0.0139458
862.333	0.0140535
862.411	0.0138661
862.489	0.0140324
862.568	0.0138315
862.646	0.0137431
862.724	0.0137288
862.802	0.0139191
862.880	0.0137818
862.958	0.0138079
863.036	0.0138466
863.114	0.0137328
863.193	0.0137349
863.271	0.0136530
863.349	0.0136644
863.427	0.0137784
863.505	0.0135863
863.583	0.0135297
863.661	0.0136153
863.739	0.0136169
863.818	0.0135055
863.896	0.0135905
863.974	0.0134433
864.052	0.0135430
864.130	0.0135586
864.208	0.0135949
864.286	0.0135703
864.364	0.0135471
864.443	0.0134661
864.521	0.0134329
864.599	0.0135338
864.677	0.0134850
864.755	0.0136684
864.833	0.0135857
864.911	0.0134876
864.989	0.0134571
865.068	0.0133819
865.146	0.0133732
865.224	0.0135168
865.302	0.0135403
865.380	0.0134731
865.458	0.0135165
865.536	0.0133176
865.614	0.0134357
865.693	0.0135114
865.771	0.0135636
865.849	0.0136643
865.927	0.0136826
866.005	0.0137090
866.083	0.0136383
866.161	0.0134837
866.239	0.0136555
866.318	0.0136976
866.396	0.0137743
866.474	0.0138564
866.552	0.0138100
866.630	0.0138181
866.708	0.0138107
866.786	0.0137603
866.864	0.0139989
866.943	0.0137395
867.021	0.0138374
867.099	0.0138172
867.177	0.0138491
867.255	0.0138322
867.333	0.0137630
867.411	0.0139864
867.489	0.0138424
867.568	0.0137141
867.646	0.0138217
867.724	0.0138463
867.802	0.0136525
867.880	0.0136885
867.958	0.0135273
868.036	0.0135557
868.114	0.0136263
868.193	0.0134965
868.271	0.0135744
868.349	0.0136138
868.427	0.0135609
868.505	0.0135593
868.583	0.0135175
868.661	0.0134263
868.739	0.0136159
868.818	0.0135694
868.896	0.0134035
868.974	0.0134267
869.052	0.0133840
869.130	0.0133877
869.208	0.0134713
869.286	0.0134457
869.364	0.0134354
869.443	0.0135036
869.521	0.0134109
869.599	0.0134473
869.677	0.0135895
869.755	0.0134613
869.833	0.0134225
869.911	0.0137733
869.989	0.0135858
870.068	0.0135395
870.146	0.0137006
870.224	0.0137558
870.302	0.0137361
870.380	0.0137249
870.458	0.0137988
870.536	0.0138464
870.614	0.0138936
870.693	0.0137897
870.771	0.0138552
870.849	0.0138961
870.927	0.0139014
871.005	0.0138697
871.083	0.0138981
871.161	0.0138538
871.239	0.0138252
871.318	0.0140739
871.396	0.0139448
871.474	0.0138435
871.552	0.0138855
871.630	0.0139673
871.708	0.0137397
871.786	0.0138486
871.864	0.0138239
871.943	0.0137764
872.021	0.0136192
872.099	0.0138139
872.177	0.0137579
872.255	0.0137952
872.333	0.0136314
872.411	0.0136415
872.489	0.0136205
872.568	0.0134888
872.646	0.0133898
872.724	0.0135253
872.802	0.0134694
872.880	0.0132128
872.958	0.0134605
873.036	0.0133148
873.114	0.0133866
873.193	0.0133666
873.271	0.0132075
873.349	0.0133057
873.427	0.0133108
873.505	0.0132843
873.583	0.0132518
873.661	0.0133625
873.739	0.0133576
873.818	0.0134081
873.896	0.0132916
873.974	0.0133534
874.052	0.0133419
874.130	0.0133791
874.208	0.0134293
874.286	0.0134653
874.364	0.0133468
874.443	0.0134294
874.521	0.0136275
874.599	0.0135137
874.677	0.0135636
874.755	0.0136497
874.833	0.0136943
874.911	0.0136551
874.989	0.0138083
875.068	0.0137354
875.146	0.0138337
875.224	0.0137154
875.302	0.0138950
875.380	0.0139037
875.458	0.0140099
875.536	0.0138572
875.614	0.0137957
875.693	0.0138639
875.771	0.0138747
875.849	0.0138204
875.927	0.0138219
876.005	0.0137906
876.083	0.0138483
876.161	0.0138891
876.239	0.0137821
876.318	0.0137948
876.396	0.0139828
876.474	0.0137502
876.552	0.0137852
876.630	0.0139490
876.708	0.0138988
876.786	0.0138162
876.864	0.0139336
876.943	0.0138784
877.021	0.0138066
877.099	0.0138579
877.177	0.0138414
877.255	0.0137381
877.333	0.0137802
877.411	0.0137419
877.489	0.0135448
877.568	0.0137070
877.646	0.0136388
877.724	0.0137332
877.802	0.0137024
877.880	0.0135558
877.958	0.0135352
878.036	0.0135674
878.114	0.0135438
878.193	0.0133041
878.271	0.0133779
878.349	0.0134606
878.427	0.0134119
878.505	0.0135836
878.583	0.0134116
878.661	0.0134677
878.739	0.0135904
878.818	0.0134795
878.896	0.0136121
878.974	0.0135401
879.052	0.0135424
879.130	0.0136404
879.208	0.0133561
879.286	0.0135322
879.364	0.0135930
879.443	0.0135377
879.521	0.0135611
879.599	0.0135807
879.677	0.0134636
879.755	0.0135777
879.833	0.0135727
879.911	0.0136182
879.989	0.0136578
880.068	0.0136644
880.146	0.0138203
880.224	0.0136275
880.302	0.0137301
880.380	0.0138099
880.458	0.0138416
880.536	0.0137522
880.614	0.0137490
880.693	0.0138987
880.771	0.0138942
880.849	0.0139032
880.927	0.0139578
881.005	0.0139431
881.083	0.0139435
881.161	0.0138773
881.239	0.0139124
881.318	0.0139194
881.396	0.0137365
881.474	0.0137547
881.552	0.0136255
881.630	0.0136008
881.708	0.0135648
881.786	0.0134235
881.864	0.0133508
881.943	0.0134922
882.021	0.0134295
882.099	0.0133649
882.177	0.0132722
882.255	0.0134157
882.333	0.0134423
882.411	0.0136113
882.489	0.0134560
882.568	0.0134727
882.646	0.0134904
882.724	0.0136246
882.802	0.0138005
882.880	0.0137878
882.958	0.0137971
883.036	0.0139123
883.114	0.0140056
883.193	0.0140610
883.271	0.0140207
883.349	0.0140485
883.427	0.0141265
883.505	0.0141998
883.583	0.0140228
883.661	0.0141664
883.739	0.0141167
883.818	0.0142056
883.896	0.0141519
883.974	0.0141867
884.052	0.0141866
884.130	0.0141221
884.208	0.0140691
884.286	0.0139003
884.364	0.0139074
884.443	0.0137997
884.521	0.0137664
884.599	0.0135309
884.677	0.0136401
884.755	0.0134879
884.833	0.0135378
884.911	0.0132864
884.989	0.0133308
885.068	0.0133138
885.146	0.0132902
885.224	0.0131361
885.302	0.0130994
885.380	0.0130876
885.458	0.0129802
885.536	0.0128765
885.614	0.0129182
885.693	0.0130568
885.771	0.0130911
885.849	0.0130800
885.927	0.0131067
886.005	0.0131982
886.083	0.0131731
886.161	0.0131319
886.239	0.0132191
886.318	0.0133711
886.396	0.0133275
886.474	0.0134416
886.552	0.0137209
886.630	0.0137265
886.708	0.0138802
886.786	0.0139213
886.864	0.0141013
886.943	0.0140182
887.021	0.0140293
887.099	0.0140685
887.177	0.0141460
887.255	0.0141953
887.333	0.0141586
887.411	0.0140664
887.489	0.0142806
887.568	0.0141605
887.646	0.0141799
887.724	0.0141044
887.802	0.0139037
887.880	0.0140108
887.958	0.0139843
888.036	0.0139782
888.114	0.0138013
888.193	0.0137593
888.271	0.0136746
888.349	0.0136217
888.427	0.0135005
888.505	0.0134776
888.583	0.0134365
888.661	0.0133732
888.739	0.0134634
888.818	0.0133729
888.896	0.0133801
888.974	0.0134854
889.052	0.0135838
889.130	0.0136633
889.208	0.0137151
889.286	0.0137790
889.364	0.0138112
889.443	0.0137479
889.521	0.0137163
889.599	0.0138002
889.677	0.0137625
889.755	0.0137210
889.833	0.0136941
889.911	0.0139391
889.989	0.0138783
890.068	0.0137505
890.146	0.0136723
890.224	0.0137582
890.302	0.0138439
890.380	0.0137469
890.458	0.0138357
890.536	0.0138065
890.614	0.0138387
890.693	0.0136879
890.771	0.0137892
890.849	0.0138110
890.927	0.0137476
891.005	0.0136208
891.083	0.0136566
891.161	0.0136789
891.239	0.0136223
891.318	0.0135316
891.396	0.0135033
891.474	0.0135727
891.552	0.0135362
891.630	0.0136169
891.708	0.0136187
891.786	0.0135096
891.864	0.0134934
891.943	0.0134289
892.021	0.0135116
892.099	0.0135460
892.177	0.0134840
892.255	0.0132770
892.333	0.0133867
892.411	0.0134399
892.489	0.0133842
892.568	0.0134182
892.646	0.0133352
892.724	0.0134679
892.802	0.0133363
892.880	0.0134898
892.958	0.0135706
893.036	0.0136084
893.114	0.0136718
893.193	0.0136844
893.271	0.0137353
893.349	0.0137943
893.427	0.0137016
893.505	0.0138424
893.583	0.0139615
893.661	0.0138328
893.739	0.0139143
893.818	0.0142130
893.896	0.0140130
893.974	0.0140181
894.052	0.0141103
894.130	0.0141116
894.208	0.0139698
894.286	0.0140157
894.364	0.0141198
894.443	0.0141187
894.521	0.0140581
894.599	0.0140434
894.677	0.0140935
894.755	0.0141376
894.833	0.0140181
894.911	0.0139561
894.989	0.0140430
895.068	0.0141196
895.146	0.0140623
895.224	0.0139494
895.302	0.0141264
895.380	0.0142085
895.458	0.0142313
895.536	0.0140320
895.614	0.0140162
895.693	0.0141113
895.771	0.0139913
895.849	0.0138851
895.927	0.0136471
896.005	0.0135477
896.083	0.0135470
896.161	0.0134092
896.239	0.0133117
896.318	0.0132355
896.396	0.0132264
896.474	0.0131082
896.552	0.0128860
896.630	0.0128696
896.708	0.0128671
896.786	0.0128003
896.864	0.0127132
896.943	0.0128674
897.021	0.0128253
897.099	0.0127807
897.177	0.0128513
897.255	0.0129394
897.333	0.0131216
897.411	0.0133199
897.489	0.0134216
897.568	0.0134234
897.646	0.0136245
897.724	0.0137315
897.802	0.0139009
897.880	0.0140463
897.958	0.0138628
898.036	0.0141277
898.114	0.0142182
898.193	0.0141216
898.271	0.0140546
898.349	0.0141943
898.427	0.0140578
898.505	0.0142103
898.583	0.0142056
898.661	0.0140376
898.739	0.0139591
898.818	0.0140417
898.896	0.0139865
898.974	0.0141125
899.052	0.0141927
899.130	0.0142584
899.208	0.0142390
899.286	0.0142973
899.364	0.0143757
899.443	0.0145753
899.521	0.0144313
899.599	0.0144699
899.677	0.0144304
899.755	0.0142631
899.833	0.0142784
899.911	0.0140722
899.989	0.0141647
900.068	0.0140477
900.146	0.0140541
900.224	0.0140279
900.302	0.0136287
900.380	0.0135514
900.458	0.0133823
900.536	0.0133047
900.614	0.0132241
900.693	0.0132046
900.771	0.0129515
900.849	0.0128195
900.927	0.0128545
901.005	0.0128653
901.083	0.0128092
901.161	0.0126656
901.239	0.0126496
901.318	0.0127744
901.396	0.0128613
901.474	0.0128356
901.552	0.0129021
901.630	0.0132177
901.708	0.0133428
901.786	0.0133366
901.864	0.0135455
901.943	0.0137729
902.021	0.0138467
902.099	0.0140630
902.177	0.0140170
902.255	0.0141859
902.333	0.0143454
902.411	0.0143166
902.489	0.0145821
902.568	0.0145801
902.646	0.0146175
902.724	0.0145921
902.802	0.0143958
902.880	0.0145647
902.958	0.0143755
903.036	0.0143669
903.114	0.0143058
903.193	0.0143019
903.271	0.0141966
903.349	0.0142326
903.427	0.0140508
903.505	0.0140489
903.583	0.0139158
903.661	0.0138826
903.739	0.0138139
903.818	0.0139091
903.896	0.0137622
903.974	0.0136956
904.052	0.0135448
904.130	0.0135036
904.208	0.0134264
904.286	0.0134243
904.364	0.0134171
904.443	0.0132826
904.521	0.0131752
904.599	0.0133801
904.677	0.0132550
904.755	0.0132596
904.833	0.0131848
904.911	0.0132413
904.989	0.0132368
905.068	0.0133044
905.146	0.0133432
905.224	0.0133074
905.302	0.0134515
905.380	0.0132513
905.458	0.0134233
905.536	0.0134686
905.614	0.0136839
905.693	0.0136127
905.771	0.0136955
905.849	0.0138488
905.927	0.0139359
906.005	0.0140123
906.083	0.0140351
906.161	0.0141013
906.239	0.0141032
906.318	0.0141884
906.396	0.0142395
906.474	0.0140363
906.552	0.0141207
906.630	0.0141357
906.708	0.0140726
906.786	0.0139637
906.864	0.0139135
906.943	0.0137754
907.021	0.0136559
907.099	0.0136021
907.177	0.0135927
907.255	0.0135146
907.333	0.0132422
907.411	0.0132745
907.489	0.0132507
907.568	0.0133450
907.646	0.0132122
907.724	0.0131802
907.802	0.0133341
907.880	0.0134420
907.958	0.0132946
908.036	0.0136205
908.114	0.0135507
908.193	0.0135916
908.271	0.0137486
908.349	0.0137645
908.427	0.0138946
908.505	0.0140055
908.583	0.0139925
908.661	0.0139060
908.739	0.0139893
908.818	0.0138462
908.896	0.0139377
908.974	0.0139294
909.052	0.0137852
909.130	0.0136699
909.208	0.0137058
909.286	0.0137141
909.364	0.0134682
909.443	0.0134949
909.521	0.0135062
909.599	0.0134403
909.677	0.0132876
909.755	0.0133237
909.833	0.0135207
909.911	0.0135173
909.989	0.0133909
910.068	0.0135117
910.146	0.0137710
910.224	0.0135587
910.302	0.0137069
910.380	0.0137637
910.458	0.0139001
910.536	0.0139571
910.614	0.0139659
910.693	0.0140884
910.771	0.0140978
910.849	0.0141339
910.927	0.0141825
911.005	0.0142518
911.083	0.0141601
911.161	0.0140956
911.239	0.0139263
911.318	0.0139997
911.396	0.0140253
911.474	0.0140506
911.552	0.0137414
911.630	0.0137793
911.708	0.0136927
911.786	0.0135942
911.864	0.0135782
911.943	0.0133552
912.021	0.0133985
912.099	0.0133724
912.177	0.0132720
912.255	0.0132217
912.333	0.0131345
912.411	0.0132294
912.489	0.0132675
912.568	0.0132047
912.646	0.0131622
912.724	0.0132895
912.802	0.0133325
912.880	0.0133344
912.958	0.0135896
913.036	0.0135144
913.114	0.0136226
913.193	0.0137463
913.271	0.0136838
913.349	0.0137355
913.427	0.0137949
913.505	0.0138925
913.583	0.0139828
913.661	0.0138721
913.739	0.0139571
913.818	0.0140363
913.896	0.0139576
913.974	0.0140068
914.052	0.0139693
914.130	0.0138484
914.208	0.0138518
914.286	0.0137692
914.364	0.0137432
914.443	0.0136175
914.521	0.0135917
914.599	0.0136658
914.677	0.0135729
914.755	0.0133498
914.833	0.0134431
914.911	0.0134816
914.989	0.0134286
915.068	0.0134167
915.146	0.0134153
915.224	0.0134798
915.302	0.0136262
915.380	0.0136079
915.458	0.0135823
915.536	0.0137011
915.614	0.0136342
915.693	0.0138530
915.771	0.0139279
915.849	0.0140323
915.927	0.0140639
916.005	0.0140706
916.083	0.0139498
916.161	0.0139986
916.239	0.0140394
916.318	0.0139709
916.396	0.0140833
916.474	0.0140558
916.552	0.0138300
916.630	0.0139275
916.708	0.0139708
916.786	0.0138401
916.864	0.0137916
916.943	0.0138119
917.021	0.0137309
917.099	0.0136332
917.177	0.0137599
917.255	0.0136586
917.333	0.0135146
917.411	0.0134477
917.489	0.0135540
917.568	0.0137316
917.646	0.0135307
917.724	0.0134799
917.802	0.0135073
917.880	0.0135995
917.958	0.0136500
918.036	0.0136471
918.114	0.0136037
918.193	0.0136250
918.271	0.0137351
918.349	0.0137190
918.427	0.0137942
918.505	0.0137218
918.583	0.0136699
918.661	0.0138940
918.739	0.0137457
918.818	0.0136750
918.896	0.0138139
918.974	0.0136877
919.052	0.0138367
919.130	0.0139313
919.208	0.0136555
919.286	0.0139825
919.364	0.0140131
919.443	0.0138945
919.521	0.0137858
919.599	0.0137476
919.677	0.0137589
919.755	0.0136317
919.833	0.0136437
919.911	0.0136383
919.989	0.0135487
920.068	0.0135725
920.146	0.0134980
920.224	0.0134196
920.302	0.0136119
920.380	0.0135776
920.458	0.0135303
920.536	0.0135078
920.614	0.0135395
920.693	0.0137498
920.771	0.0135463
920.849	0.0135619
920.927	0.0136039
921.005	0.0136549
921.083	0.0136326
921.161	0.0136241
921.239	0.0136309
921.318	0.0137471
921.396	0.0137399
921.474	0.0138973
921.552	0.0139236
921.630	0.0138062
921.708	0.0139259
921.786	0.0138805
921.864	0.0140508
921.943	0.0140218
922.021	0.0138337
922.099	0.0140140
922.177	0.0139131
922.255	0.0137175
922.333	0.0138446
922.411	0.0138741
922.489	0.0137531
922.568	0.0136191
922.646	0.0138122
922.724	0.0137726
922.802	0.0136941
922.880	0.0137655
922.958	0.0136652
923.036	0.0138026
923.114	0.0138261
923.193	0.0137355
923.271	0.0137096
923.349	0.0137357
923.427	0.0137230
923.505	0.0139420
923.583	0.0138612
923.661	0.0138422
923.739	0.0137179
923.818	0.0136624
923.896	0.0138395
923.974	0.0137104
924.052	0.0136726
924.130	0.0137072
924.208	0.0136106
924.286	0.0135535
924.364	0.0136694
924.443	0.0134915
924.521	0.0135913
924.599	0.0134581
924.677	0.0136232
924.755	0.0135043
924.833	0.0134673
924.911	0.0135118
924.989	0.0136054
925.068	0.0135229
925.146	0.0136343
925.224	0.0135152
925.302	0.0134705
925.380	0.0134692
925.458	0.0134312
925.536	0.0134586
925.614	0.0133878
925.693	0.0135331
925.771	0.0135065
925.849	0.0135843
925.927	0.0135536
926.005	0.0135984
926.083	0.0136282
926.161	0.0136479
926.239	0.0136378
926.318	0.0136404
926.396	0.0135809
926.474	0.0136596
926.552	0.0136497
926.630	0.0136987
926.708	0.0136683
926.786	0.0136816
926.864	0.0137327
926.943	0.0137065
927.021	0.0137302
927.099	0.0138310
927.177	0.0138359
927.255	0.0137318
927.333	0.0138281
927.411	0.0139547
927.489	0.0138902
927.568	0.0138342
927.646	0.0137591
927.724	0.0137115
927.802	0.0137636
927.880	0.0136545
927.958	0.0135838
928.036	0.0137499
928.114	0.0136987
928.193	0.0135436
928.271	0.0136960
928.349	0.0136248
928.427	0.0136233
928.505	0.0135957
928.583	0.0137023
928.661	0.0136565
928.739	0.0136901
928.818	0.0138362
928.896	0.0136990
928.974	0.0137562
929.052	0.0136971
929.130	0.0137762
929.208	0.0137438
929.286	0.0138667
929.364	0.0139622
929.443	0.0139173
929.521	0.0139526
929.599	0.0139050
929.677	0.0138429
929.755	0.0138415
929.833	0.0138539
929.911	0.0138891
929.989	0.0139906
930.068	0.0138202
930.146	0.0137501
930.224	0.0138168
930.302	0.0135850
930.380	0.0136725
930.458	0.0137730
930.536	0.0136430
930.614	0.0136507
930.693	0.0135247
930.771	0.0135980
930.849	0.0134473
930.927	0.0135333
931.005	0.0136589
931.083	0.0135132
931.161	0.0134836
931.239	0.0135138
931.318	0.0135906
931.396	0.0135319
931.474	0.0133614
931.552	0.0135333
931.630	0.0135635
931.708	0.0134375
931.786	0.0134464
931.864	0.0134756
931.943	0.0135384
932.021	0.0135124
932.099	0.0134553
932.177	0.0135547
932.255	0.0135554
932.333	0.0134975
932.411	0.0135629
932.489	0.0136037
932.568	0.0135393
932.646	0.0135614
932.724	0.0135945
932.802	0.0137209
932.880	0.0135010
932.958	0.0135707
933.036	0.0134582
933.114	0.0136859
933.193	0.0137959
933.271	0.0137951
933.349	0.0136562
933.427	0.0136024
933.505	0.0137564
933.583	0.0138103
933.661	0.0139648
933.739	0.0137682
933.818	0.0139450
933.896	0.0139939
933.974	0.0139374
934.052	0.0141134
934.130	0.0140405
934.208	0.0141238
934.286	0.0139587
934.364	0.0140717
934.443	0.0140478
934.521	0.0140357
934.599	0.0141070
934.677	0.0140552
934.755	0.0139311
934.833	0.0139715
934.911	0.0138479
934.989	0.0138575
935.068	0.0137377
935.146	0.0138367
935.224	0.0135769
935.302	0.0134351
935.380	0.0136189
935.458	0.0136101
935.536	0.0134918
935.614	0.0134575
935.693	0.0132587
935.771	0.0132544
935.849	0.0131178
935.927	0.0132439
936.005	0.0132884
936.083	0.0131541
936.161	0.0132713
936.239	0.0133324
936.318	0.0130231
936.396	0.0133665
936.474	0.0134676
936.552	0.0133176
936.630	0.0133698
936.708	0.0133812
936.786	0.0133685
936.864	0.0136421
936.943	0.0135411
937.021	0.0134974
937.099	0.0135434
937.177	0.0136363
937.255	0.0137034
937.333	0.0138138
937.411	0.0136861
937.489	0.0136272
937.568	0.0137212
937.646	0.0139081
937.724	0.0139069
937.802	0.0137132
937.880	0.0138350
937.958	0.0138944
938.036	0.0139452
938.114	0.0138239
938.193	0.0138386
938.271	0.0138676
938.349	0.0137622
938.427	0.0139376
938.505	0.0138337
938.583	0.0138631
938.661	0.0138626
938.739	0.0138470
938.818	0.0139491
938.896	0.0138786
938.974	0.0138644
939.052	0.0137511
939.130	0.0138951
939.208	0.0137096
939.286	0.0138775
939.364	0.0138303
939.443	0.0139671
939.521	0.0138764
939.599	0.0137856
939.677	0.0138826
939.755	0.0138142
939.833	0.0137400
939.911	0.0135937
939.989	0.0138322
940.068	0.0136127
940.146	0.0136779
940.224	0.0135677
940.302	0.0135809
940.380	0.0135484
940.458	0.0133839
940.536	0.0134073
940.614	0.0133350
940.693	0.0134196
940.771	0.0133606
940.849	0.0133538
940.927	0.0133223
941.005	0.0133186
941.083	0.0132164
941.161	0.0131422
941.239	0.0131861
941.318	0.0134072
941.396	0.0132726
941.474	0.0134068
941.552	0.0133997
941.630	0.0134057
941.708	0.0134230
941.786	0.0134161
941.864	0.0136415
941.943	0.0136361
942.021	0.0136250
942.099	0.0137595
942.177	0.0137227
942.255	0.0137801
942.333	0.0139035
942.411	0.0140535
942.489	0.0141132
942.568	0.0140202
942.646	0.0141051
942.724	0.0141671
942.802	0.0142340
942.880	0.0141249
942.958	0.0141589
943.036	0.0141958
943.114	0.0141176
943.193	0.0140028
943.271	0.0139928
943.349	0.0140084
943.427	0.0138895
943.505	0.0138260
943.583	0.0138638
943.661	0.0137283
943.739	0.0136214
943.818	0.0137433
943.896	0.0136378
943.974	0.0133961
944.052	0.0134682
944.130	0.0134644
944.208	0.0134635
944.286	0.0133175
944.364	0.0131743
944.443	0.0132964
944.521	0.0132970
944.599	0.0133175
944.677	0.0131940
944.755	0.0131161
944.833	0.0131711
944.911	0.0132309
944.989	0.0131922
945.068	0.0131918
945.146	0.0132098
945.224	0.0133218
945.302	0.0134769
945.380	0.0133067
945.458	0.0133209
945.536	0.0134123
945.614	0.0134985
945.693	0.0137440
945.771	0.0135654
945.849	0.0136952
945.927	0.0138022
946.005	0.0139254
946.083	0.0139175
946.161	0.0138339
946.239	0.0139590
946.318	0.0140136
946.396	0.0140664
946.474	0.0140959
946.552	0.0141677
946.630	0.0140522
946.708	0.0141177
946.786	0.0142333
946.864	0.0141444
946.943	0.0140819
947.021	0.0141077
947.099	0.0140507
947.177	0.0139613
947.255	0.0138282
947.333	0.0139057
947.411	0.0137180
947.489	0.0137245
947.568	0.0136956
947.646	0.0135100
947.724	0.0135193
947.802	0.0134823
947.880	0.0134189
947.958	0.0133275
948.036	0.0132855
948.114	0.0133254
948.193	0.0133401
948.271	0.0133158
948.349	0.0134319
948.427	0.0135088
948.505	0.0134051
948.583	0.0135632
948.661	0.0134457
948.739	0.0135233
948.818	0.0134977
948.896	0.0135246
948.974	0.0136049
949.052	0.0134733
949.130	0.0136894
949.208	0.0137248
949.286	0.0135413
949.364	0.0135580
949.443	0.0136063
949.521	0.0135432
949.599	0.0135575
949.677	0.0135126
949.755	0.0134682
949.833	0.0135786
949.911	0.0136469
949.989	0.0135856
950.068	0.0135614
950.146	0.0135002
950.224	0.0137520
950.302	0.0135860
950.380	0.0136895
950.458	0.0137209
950.536	0.0137302
950.614	0.0137714
950.693	0.0136806
950.771	0.0137636
950.849	0.0137572
950.927	0.0137550
951.005	0.0138462
951.083	0.0138336
951.161	0.0138393
951.239	0.0138906
951.318	0.0137920
951.396	0.0137183
951.474	0.0137505
951.552	0.0137112
951.630	0.0136975
951.708	0.0136318
951.786	0.0135516
951.864	0.0136142
951.943	0.0135706
952.021	0.0137004
952.099	0.0136984
952.177	0.0135780
952.255	0.0136791
952.333	0.0135953
952.411	0.0137051
952.489	0.0136320
952.568	0.0136501
952.646	0.0137924
952.724	0.0137321
952.802	0.0137859
952.880	0.0138497
952.958	0.0135926
953.036	0.0136373
953.114	0.0138155
953.193	0.0136490
953.271	0.0136632
953.349	0.0137376
953.427	0.0136523
953.505	0.0136619
953.583	0.0136505
953.661	0.0137204
953.739	0.0135609
953.818	0.0136489
953.896	0.0136153
953.974	0.0133988
954.052	0.0136052
954.130	0.0135419
954.208	0.0135070
954.286	0.0135590
954.364	0.0135464
954.443	0.0135290
954.521	0.0135658
954.599	0.0135263
954.677	0.0135383
954.755	0.0135555
954.833	0.0135162
954.911	0.0135493
954.989	0.0136187
955.068	0.0136607
955.146	0.0136523
955.224	0.0135986
955.302	0.0137321
955.380	0.0135383
955.458	0.0137495
955.536	0.0136042
955.614	0.0136628
955.693	0.0135350
955.771	0.0134576
955.849	0.0135897
955.927	0.0136510
956.005	0.0137174
956.083	0.0134353
956.161	0.0135691
956.239	0.0136009
956.318	0.0134303
956.396	0.0134224
956.474	0.0135930
956.552	0.0134657
956.630	0.0136795
956.708	0.0136037
956.786	0.0136466
956.864	0.0137254
956.943	0.0138299
957.021	0.0136953
957.099	0.0138212
957.177	0.0137322
957.255	0.0139152
957.333	0.0140013
957.411	0.0137989
957.489	0.0139127
957.568	0.0139343
957.646	0.0139524
957.724	0.0138686
957.802	0.0139227
957.880	0.0138350
957.958	0.0137653
958.036	0.0138188
958.114	0.0136773
958.193	0.0136033
958.271	0.0136859
958.349	0.0137006
958.427	0.0137359
958.505	0.0136648
958.583	0.0135941
958.661	0.0135567
958.739	0.0137267
958.818	0.0137708
958.896	0.0135918
958.974	0.0135822
959.052	0.0136241
959.130	0.0136382
959.208	0.0136751
959.286	0.0136337
959.364	0.0136303
959.443	0.0136839
959.521	0.0137176
959.599	0.0137493
959.677	0.0135614
959.755	0.0136475
959.833	0.0137283
959.911	0.0137222
