05/14/2022	16:26:56	Ver.	4.1	UNKNOWN
Optical Delay	639.989416	Delta X		0.078125	Sweeps	1	Scan Rate	0/0
Coordinates	Axis 1	NaN	Axis 2	NaN	Axis 3	NaN	Axis 4	NaN	Axis 5	NaN	Axis 6	0.000000
TX Power	0.000000	RX Power	0.000000

639.989	0.0135361
640.068	0.0135962
640.146	0.0135365
640.224	0.0135896
640.302	0.0135322
640.380	0.0135484
640.458	0.0135345
640.536	0.0137218
640.614	0.0135672
640.693	0.0134570
640.771	0.0134115
640.849	0.0135678
640.927	0.0135066
641.005	0.0135056
641.083	0.0134370
641.161	0.0135909
641.239	0.0134686
641.318	0.0135303
641.396	0.0135416
641.474	0.0134799
641.552	0.0134192
641.630	0.0135351
641.708	0.0136866
641.786	0.0134885
641.864	0.0135304
641.943	0.0136989
642.021	0.0135888
642.099	0.0136007
642.177	0.0135120
642.255	0.0135065
642.333	0.0134514
642.411	0.0135964
642.489	0.0136119
642.568	0.0136604
642.646	0.0135098
642.724	0.0135560
642.802	0.0135721
642.880	0.0135639
642.958	0.0136489
643.036	0.0135861
643.114	0.0135354
643.193	0.0135829
643.271	0.0135667
643.349	0.0136056
643.427	0.0135566
643.505	0.0136420
643.583	0.0135780
643.661	0.0134212
643.739	0.0135426
643.818	0.0135003
643.896	0.0134750
643.974	0.0134690
644.052	0.0136356
644.130	0.0135390
644.208	0.0135297
644.286	0.0135728
644.364	0.0135740
644.443	0.0134074
644.521	0.0133710
644.599	0.0135979
644.677	0.0135754
644.755	0.0135566
644.833	0.0134136
644.911	0.0134236
644.989	0.0134283
645.068	0.0135514
645.146	0.0136511
645.224	0.0136626
645.302	0.0135313
645.380	0.0134843
645.458	0.0136343
645.536	0.0136106
645.614	0.0135275
645.693	0.0135519
645.771	0.0136486
645.849	0.0135722
645.927	0.0135490
646.005	0.0134921
646.083	0.0133151
646.161	0.0135815
646.239	0.0135914
646.318	0.0134862
646.396	0.0136431
646.474	0.0135178
646.552	0.0135088
646.630	0.0134784
646.708	0.0135590
646.786	0.0135564
646.864	0.0135762
646.943	0.0134988
647.021	0.0135307
647.099	0.0135241
647.177	0.0135838
647.255	0.0135655
647.333	0.0136128
647.411	0.0136017
647.489	0.0136909
647.568	0.0135870
647.646	0.0135033
647.724	0.0134778
647.802	0.0135847
647.880	0.0135172
647.958	0.0134839
648.036	0.0136825
648.114	0.0135599
648.193	0.0135772
648.271	0.0135603
648.349	0.0135066
648.427	0.0134589
648.505	0.0135970
648.583	0.0136127
648.661	0.0136611
648.739	0.0135181
648.818	0.0134937
648.896	0.0135273
648.974	0.0134937
649.052	0.0136131
649.130	0.0135752
649.208	0.0135969
649.286	0.0136661
649.364	0.0134152
649.443	0.0134932
649.521	0.0136227
649.599	0.0136591
649.677	0.0134924
649.755	0.0135000
649.833	0.0134840
649.911	0.0135628
649.989	0.0135349
650.068	0.0134940
650.146	0.0136325
650.224	0.0134313
650.302	0.0135777
650.380	0.0136301
650.458	0.0136820
650.536	0.0135278
650.614	0.0134843
650.693	0.0136234
650.771	0.0136584
650.849	0.0135828
650.927	0.0135412
651.005	0.0135787
651.083	0.0135561
651.161	0.0135918
651.239	0.0135805
651.318	0.0135458
651.396	0.0136079
651.474	0.0135606
651.552	0.0135392
651.630	0.0135188
651.708	0.0134476
651.786	0.0134205
651.864	0.0134949
651.943	0.0135187
652.021	0.0134017
652.099	0.0135099
652.177	0.0135371
652.255	0.0135474
652.333	0.0134867
652.411	0.0135990
652.489	0.0135977
652.568	0.0135400
652.646	0.0136623
652.724	0.0136079
652.802	0.0135121
652.880	0.0135211
652.958	0.0136134
653.036	0.0135152
653.114	0.0134016
653.193	0.0136078
653.271	0.0134900
653.349	0.0136414
653.427	0.0135001
653.505	0.0134270
653.583	0.0135475
653.661	0.0136618
653.739	0.0136171
653.818	0.0136766
653.896	0.0135329
653.974	0.0135478
654.052	0.0135926
654.130	0.0134827
654.208	0.0135622
654.286	0.0134985
654.364	0.0136188
654.443	0.0135370
654.521	0.0135219
654.599	0.0136182
654.677	0.0135457
654.755	0.0134380
654.833	0.0136072
654.911	0.0135240
654.989	0.0135680
655.068	0.0135567
655.146	0.0135165
655.224	0.0135023
655.302	0.0136341
655.380	0.0134949
655.458	0.0135835
655.536	0.0135284
655.614	0.0136459
655.693	0.0136570
655.771	0.0135268
655.849	0.0136263
655.927	0.0137366
656.005	0.0134763
656.083	0.0135246
656.161	0.0135199
656.239	0.0134930
656.318	0.0136024
656.396	0.0136223
656.474	0.0135966
656.552	0.0136099
656.630	0.0136004
656.708	0.0135596
656.786	0.0135996
656.864	0.0135726
656.943	0.0135970
657.021	0.0134602
657.099	0.0135872
657.177	0.0135885
657.255	0.0134917
657.333	0.0135961
657.411	0.0135264
657.489	0.0135597
657.568	0.0134827
657.646	0.0135450
657.724	0.0136160
657.802	0.0135753
657.880	0.0135641
657.958	0.0135432
658.036	0.0135742
658.114	0.0135528
658.193	0.0137259
658.271	0.0135360
658.349	0.0136040
658.427	0.0135332
658.505	0.0135509
658.583	0.0136767
658.661	0.0136016
658.739	0.0135403
658.818	0.0134531
658.896	0.0135315
658.974	0.0134707
659.052	0.0135043
659.130	0.0135836
659.208	0.0136119
659.286	0.0135604
659.364	0.0135103
659.443	0.0136024
659.521	0.0134644
659.599	0.0134621
659.677	0.0135397
659.755	0.0136997
659.833	0.0136649
659.911	0.0135684
659.989	0.0134740
660.068	0.0135446
660.146	0.0136853
660.224	0.0135946
660.302	0.0134955
660.380	0.0134904
660.458	0.0135771
660.536	0.0135195
660.614	0.0134430
660.693	0.0135683
660.771	0.0135834
660.849	0.0134228
660.927	0.0135397
661.005	0.0135828
661.083	0.0134630
661.161	0.0135523
661.239	0.0134728
661.318	0.0135438
661.396	0.0135423
661.474	0.0134908
661.552	0.0134841
661.630	0.0135138
661.708	0.0136506
661.786	0.0136145
661.864	0.0135297
661.943	0.0135190
662.021	0.0133234
662.099	0.0134557
662.177	0.0135360
662.255	0.0135696
662.333	0.0135858
662.411	0.0135283
662.489	0.0135397
662.568	0.0134012
662.646	0.0135313
662.724	0.0135196
662.802	0.0136366
662.880	0.0134663
662.958	0.0135324
663.036	0.0135771
663.114	0.0135978
663.193	0.0136012
663.271	0.0133151
663.349	0.0135431
663.427	0.0137157
663.505	0.0136256
663.583	0.0134810
663.661	0.0134790
663.739	0.0135181
663.818	0.0135998
663.896	0.0136259
663.974	0.0135210
664.052	0.0134771
664.130	0.0134432
664.208	0.0135990
664.286	0.0136385
664.364	0.0134129
664.443	0.0135387
664.521	0.0135275
664.599	0.0134953
664.677	0.0136521
664.755	0.0136035
664.833	0.0136587
664.911	0.0135205
664.989	0.0136010
665.068	0.0136198
665.146	0.0135236
665.224	0.0134060
665.302	0.0134976
665.380	0.0135966
665.458	0.0135389
665.536	0.0135229
665.614	0.0135603
665.693	0.0135816
665.771	0.0136693
665.849	0.0134444
665.927	0.0135571
666.005	0.0134566
666.083	0.0135951
666.161	0.0135562
666.239	0.0134739
666.318	0.0135461
666.396	0.0133924
666.474	0.0135191
666.552	0.0134384
666.630	0.0135515
666.708	0.0136880
666.786	0.0135215
666.864	0.0135041
666.943	0.0135292
667.021	0.0136517
667.099	0.0135070
667.177	0.0134383
667.255	0.0135930
667.333	0.0137115
667.411	0.0134798
667.489	0.0135185
667.568	0.0135641
667.646	0.0135484
667.724	0.0136198
667.802	0.0134390
667.880	0.0134179
667.958	0.0136237
668.036	0.0135351
668.114	0.0135538
668.193	0.0135405
668.271	0.0134682
668.349	0.0135307
668.427	0.0136065
668.505	0.0134850
668.583	0.0135680
668.661	0.0136243
668.739	0.0135056
668.818	0.0134455
668.896	0.0135181
668.974	0.0137029
669.052	0.0135358
669.130	0.0136499
669.208	0.0136687
669.286	0.0136250
669.364	0.0134721
669.443	0.0136046
669.521	0.0136386
669.599	0.0136193
669.677	0.0136942
669.755	0.0135767
669.833	0.0136783
669.911	0.0134821
669.989	0.0135735
670.068	0.0135146
670.146	0.0134468
670.224	0.0134407
670.302	0.0135891
670.380	0.0134985
670.458	0.0135176
670.536	0.0136324
670.614	0.0135495
670.693	0.0134759
670.771	0.0135251
670.849	0.0135094
670.927	0.0134757
671.005	0.0135033
671.083	0.0135349
671.161	0.0135595
671.239	0.0135368
671.318	0.0135503
671.396	0.0135158
671.474	0.0134649
671.552	0.0134843
671.630	0.0135603
671.708	0.0136098
671.786	0.0134931
671.864	0.0135927
671.943	0.0136827
672.021	0.0136353
672.099	0.0134806
672.177	0.0134547
672.255	0.0133618
672.333	0.0134877
672.411	0.0136183
672.489	0.0135400
672.568	0.0136071
672.646	0.0135497
672.724	0.0134919
672.802	0.0137302
672.880	0.0135870
672.958	0.0134203
673.036	0.0134010
673.114	0.0137636
673.193	0.0136633
673.271	0.0136088
673.349	0.0133908
673.427	0.0135336
673.505	0.0136672
673.583	0.0136684
673.661	0.0136952
673.739	0.0135587
673.818	0.0134209
673.896	0.0135031
673.974	0.0136745
674.052	0.0137368
674.130	0.0135722
674.208	0.0136201
674.286	0.0135144
674.364	0.0134438
674.443	0.0134881
674.521	0.0135923
674.599	0.0135385
674.677	0.0136761
674.755	0.0135321
674.833	0.0134327
674.911	0.0135724
674.989	0.0135590
675.068	0.0135875
675.146	0.0136209
675.224	0.0135953
675.302	0.0136782
675.380	0.0135963
675.458	0.0137291
675.536	0.0136386
675.614	0.0135694
675.693	0.0135738
675.771	0.0136195
675.849	0.0135721
675.927	0.0135405
676.005	0.0135247
676.083	0.0135059
676.161	0.0135955
676.239	0.0135973
676.318	0.0135832
676.396	0.0134500
676.474	0.0134203
676.552	0.0136384
676.630	0.0136003
676.708	0.0134818
676.786	0.0135268
676.864	0.0134122
676.943	0.0134409
677.021	0.0136653
677.099	0.0135247
677.177	0.0135764
677.255	0.0134821
677.333	0.0134534
677.411	0.0136064
677.489	0.0134679
677.568	0.0134398
677.646	0.0136297
677.724	0.0135064
677.802	0.0135566
677.880	0.0134101
677.958	0.0134830
678.036	0.0134771
678.114	0.0135846
678.193	0.0136279
678.271	0.0135468
678.349	0.0134405
678.427	0.0134286
678.505	0.0135801
678.583	0.0134342
678.661	0.0135605
678.739	0.0134582
678.818	0.0135039
678.896	0.0136366
678.974	0.0137208
679.052	0.0134926
679.130	0.0134075
679.208	0.0134819
679.286	0.0134618
679.364	0.0133601
679.443	0.0135435
679.521	0.0134262
679.599	0.0135142
679.677	0.0134245
679.755	0.0135455
679.833	0.0136010
679.911	0.0135935
679.989	0.0135378
680.068	0.0135104
680.146	0.0136259
680.224	0.0136289
680.302	0.0135231
680.380	0.0135058
680.458	0.0135841
680.536	0.0136116
680.614	0.0135049
680.693	0.0135497
680.771	0.0135207
680.849	0.0135239
680.927	0.0134965
681.005	0.0135429
681.083	0.0135598
681.161	0.0135126
681.239	0.0134211
681.318	0.0135981
681.396	0.0135921
681.474	0.0134418
681.552	0.0135885
681.630	0.0135947
681.708	0.0134686
681.786	0.0136288
681.864	0.0135146
681.943	0.0134159
682.021	0.0136294
682.099	0.0135928
682.177	0.0135784
682.255	0.0135580
682.333	0.0135050
682.411	0.0133865
682.489	0.0135054
682.568	0.0135485
682.646	0.0136388
682.724	0.0136347
682.802	0.0135534
682.880	0.0135761
682.958	0.0135611
683.036	0.0135532
683.114	0.0136517
683.193	0.0135046
683.271	0.0135058
683.349	0.0135626
683.427	0.0134917
683.505	0.0136846
683.583	0.0136742
683.661	0.0135194
683.739	0.0136232
683.818	0.0135814
683.896	0.0134914
683.974	0.0134642
684.052	0.0136540
684.130	0.0135596
684.208	0.0135570
684.286	0.0135101
684.364	0.0136546
684.443	0.0135113
684.521	0.0134238
684.599	0.0135456
684.677	0.0135677
684.755	0.0134359
684.833	0.0134903
684.911	0.0135547
684.989	0.0134438
685.068	0.0135394
685.146	0.0136572
685.224	0.0135629
685.302	0.0136178
685.380	0.0136507
685.458	0.0136985
685.536	0.0136465
685.614	0.0135955
685.693	0.0135095
685.771	0.0133699
685.849	0.0135681
685.927	0.0133691
686.005	0.0133535
686.083	0.0133262
686.161	0.0132520
686.239	0.0132027
686.318	0.0131847
686.396	0.0133167
686.474	0.0132305
686.552	0.0134024
686.630	0.0135008
686.708	0.0134335
686.786	0.0136794
686.864	0.0138209
686.943	0.0139362
687.021	0.0140746
687.099	0.0141171
687.177	0.0141676
687.255	0.0143681
687.333	0.0140826
687.411	0.0140359
687.489	0.0140022
687.568	0.0138525
687.646	0.0136299
687.724	0.0134605
687.802	0.0131295
687.880	0.0130116
687.958	0.0129359
688.036	0.0126831
688.114	0.0126298
688.193	0.0125072
688.271	0.0123602
688.349	0.0125614
688.427	0.0126312
688.505	0.0125635
688.583	0.0127495
688.661	0.0129994
688.739	0.0131318
688.818	0.0133788
688.896	0.0137097
688.974	0.0140453
689.052	0.0144148
689.130	0.0146114
689.208	0.0148908
689.286	0.0152191
689.364	0.0154956
689.443	0.0155725
689.521	0.0155138
689.599	0.0154256
689.677	0.0152139
689.755	0.0149791
689.833	0.0146440
689.911	0.0144299
689.989	0.0139574
690.068	0.0135006
690.146	0.0130266
690.224	0.0124901
690.302	0.0121969
690.380	0.0120190
690.458	0.0117769
690.536	0.0114816
690.614	0.0112868
690.693	0.0113561
690.771	0.0113951
690.849	0.0114652
690.927	0.0116175
691.005	0.0117057
691.083	0.0119205
691.161	0.0119350
691.239	0.0125663
691.318	0.0128122
691.396	0.0130438
691.474	0.0134294
691.552	0.0137569
691.630	0.0141675
691.708	0.0144834
691.786	0.0149653
691.864	0.0152615
691.943	0.0156795
692.021	0.0159444
692.099	0.0161285
692.177	0.0163263
692.255	0.0164900
692.333	0.0165155
692.411	0.0164136
692.489	0.0163348
692.568	0.0162519
692.646	0.0158973
692.724	0.0154664
692.802	0.0152654
692.880	0.0147519
692.958	0.0144505
693.036	0.0138242
693.114	0.0131734
693.193	0.0129093
693.271	0.0124940
693.349	0.0121288
693.427	0.0116971
693.505	0.0113676
693.583	0.0109724
693.661	0.0105105
693.739	0.0103536
693.818	0.0100567
693.896	0.00985832
693.974	0.00971245
694.052	0.00967445
694.130	0.00967339
694.208	0.00955757
694.286	0.00988983
694.364	0.0101668
694.443	0.0106706
694.521	0.0112465
694.599	0.0118119
694.677	0.0125286
694.755	0.0133440
694.833	0.0140776
694.911	0.0149963
694.989	0.0157832
695.068	0.0165150
695.146	0.0172532
695.224	0.0179024
695.302	0.0183911
695.380	0.0187522
695.458	0.0190347
695.536	0.0191714
695.614	0.0190154
695.693	0.0189495
695.771	0.0184251
695.849	0.0181774
695.927	0.0176553
696.005	0.0170660
696.083	0.0164446
696.161	0.0158189
696.239	0.0149600
696.318	0.0142613
696.396	0.0136120
696.474	0.0126397
696.552	0.0120584
696.630	0.0112213
696.708	0.0105951
696.786	0.0102053
696.864	0.00959694
696.943	0.00926605
697.021	0.00908966
697.099	0.00889046
697.177	0.00868607
697.255	0.00858093
697.333	0.00862663
697.411	0.00887993
697.489	0.00907211
697.568	0.00940987
697.646	0.00976486
697.724	0.0101945
697.802	0.0107496
697.880	0.0109882
697.958	0.0114854
698.036	0.0120486
698.114	0.0125707
698.193	0.0131083
698.271	0.0137833
698.349	0.0141942
698.427	0.0147723
698.505	0.0154269
698.583	0.0159381
698.661	0.0163493
698.739	0.0168063
698.818	0.0171629
698.896	0.0176415
698.974	0.0177211
699.052	0.0177693
699.130	0.0179224
699.208	0.0178779
699.286	0.0179519
699.364	0.0180919
699.443	0.0177199
699.521	0.0173634
699.599	0.0172189
699.677	0.0169415
699.755	0.0167102
699.833	0.0163223
699.911	0.0157674
699.989	0.0153095
700.068	0.0149892
700.146	0.0145196
700.224	0.0140222
700.302	0.0134353
700.380	0.0128534
700.458	0.0122726
700.536	0.0116471
700.614	0.0112437
700.693	0.0105695
700.771	0.0101421
700.849	0.0100089
700.927	0.00980263
701.005	0.00945915
701.083	0.00967186
701.161	0.00960915
701.239	0.00967163
701.318	0.00987724
701.396	0.00999168
701.474	0.0102642
701.552	0.0103266
701.630	0.0106082
701.708	0.0107188
701.786	0.0108344
701.864	0.0111014
701.943	0.0113329
702.021	0.0113050
702.099	0.0114839
702.177	0.0116122
702.255	0.0118637
702.333	0.0120403
702.411	0.0121960
702.489	0.0125265
702.568	0.0129037
702.646	0.0133659
702.724	0.0136764
702.802	0.0140267
702.880	0.0146281
702.958	0.0151546
703.036	0.0155877
703.114	0.0159204
703.193	0.0165164
703.271	0.0168932
703.349	0.0172895
703.427	0.0177763
703.505	0.0179434
703.583	0.0182581
703.661	0.0185287
703.739	0.0188719
703.818	0.0190085
703.896	0.0191432
703.974	0.0192731
704.052	0.0192335
704.130	0.0190972
704.208	0.0191084
704.286	0.0188810
704.364	0.0183902
704.443	0.0178528
704.521	0.0171787
704.599	0.0164074
704.677	0.0153859
704.755	0.0142702
704.833	0.0131617
704.911	0.0120962
704.989	0.0110326
705.068	0.00990356
705.146	0.00887802
705.224	0.00803482
705.302	0.00727463
705.380	0.00664673
705.458	0.00616638
705.536	0.00606598
705.614	0.00579895
705.693	0.00606667
705.771	0.00621582
705.849	0.00644943
705.927	0.00670227
706.005	0.00728729
706.083	0.00785942
706.161	0.00814941
706.239	0.00882629
706.318	0.00945518
706.396	0.00985146
706.474	0.0104463
706.552	0.0109937
706.630	0.0114793
706.708	0.0121945
706.786	0.0126933
706.864	0.0132227
706.943	0.0137801
707.021	0.0142104
707.099	0.0149323
707.177	0.0153852
707.255	0.0159316
707.333	0.0166048
707.411	0.0172231
707.489	0.0179798
707.568	0.0188458
707.646	0.0196107
707.724	0.0202912
707.802	0.0208341
707.880	0.0213374
707.958	0.0217497
708.036	0.0219990
708.114	0.0220686
708.193	0.0220857
708.271	0.0218832
708.349	0.0216063
708.427	0.0212698
708.505	0.0206462
708.583	0.0200730
708.661	0.0195101
708.739	0.0186185
708.818	0.0177570
708.896	0.0168043
708.974	0.0157173
709.052	0.0146397
709.130	0.0134605
709.208	0.0121783
709.286	0.0108444
709.364	0.00937607
709.443	0.00808662
709.521	0.00685211
709.599	0.00580795
709.677	0.00465752
709.755	0.00394753
709.833	0.00362480
709.911	0.00326881
709.989	0.00316345
710.068	0.00360649
710.146	0.00404564
710.224	0.00462128
710.302	0.00553421
710.380	0.00642166
710.458	0.00738800
710.536	0.00845207
710.614	0.00952217
710.693	0.0102457
710.771	0.0112717
710.849	0.0120013
710.927	0.0127146
711.005	0.0131674
711.083	0.0137555
711.161	0.0140627
711.239	0.0146208
711.318	0.0151416
711.396	0.0152154
711.474	0.0156494
711.552	0.0159832
711.630	0.0162865
711.708	0.0168358
711.786	0.0173695
711.864	0.0177887
711.943	0.0183594
712.021	0.0186722
712.099	0.0190466
712.177	0.0194360
712.255	0.0197772
712.333	0.0200715
712.411	0.0203209
712.489	0.0202782
712.568	0.0202520
712.646	0.0203393
712.724	0.0201253
712.802	0.0198788
712.880	0.0195352
712.958	0.0192239
713.036	0.0187445
713.114	0.0181232
713.193	0.0174130
713.271	0.0166430
713.349	0.0159211
713.427	0.0149217
713.505	0.0139398
713.583	0.0129922
713.661	0.0119002
713.739	0.0109554
713.818	0.00994461
713.896	0.00921448
713.974	0.00845528
714.052	0.00771233
714.130	0.00706383
714.208	0.00693024
714.286	0.00694084
714.364	0.00693985
714.443	0.00727394
714.521	0.00762207
714.599	0.00794670
714.677	0.00856216
714.755	0.00919250
714.833	0.00952011
714.911	0.0101548
714.989	0.0105336
715.068	0.0111150
715.146	0.0114577
715.224	0.0117644
715.302	0.0117939
715.380	0.0119865
715.458	0.0120335
715.536	0.0119262
715.614	0.0121608
715.693	0.0120986
715.771	0.0121143
715.849	0.0124198
715.927	0.0126069
716.005	0.0127129
716.083	0.0130199
716.161	0.0134014
716.239	0.0138692
716.318	0.0142842
716.396	0.0149238
716.474	0.0156325
716.552	0.0161163
716.630	0.0167654
716.708	0.0174466
716.786	0.0178954
716.864	0.0184162
716.943	0.0188910
717.021	0.0191407
717.099	0.0193794
717.177	0.0195360
717.255	0.0194890
717.333	0.0193757
717.411	0.0190430
717.489	0.0186831
717.568	0.0183106
717.646	0.0177953
717.724	0.0170086
717.802	0.0162321
717.880	0.0156007
717.958	0.0147920
718.036	0.0141008
718.114	0.0132549
718.193	0.0124454
718.271	0.0118752
718.349	0.0112235
718.427	0.0106466
718.505	0.0103083
718.583	0.00980675
718.661	0.00960205
718.739	0.00965668
718.818	0.00975830
718.896	0.00988762
718.974	0.0101725
719.052	0.0106350
719.130	0.0111178
719.208	0.0118066
719.286	0.0122969
719.364	0.0129099
719.443	0.0132496
719.521	0.0135255
719.599	0.0138660
719.677	0.0140518
719.755	0.0141033
719.833	0.0141212
719.911	0.0137411
719.989	0.0136848
720.068	0.0133801
720.146	0.0128719
720.224	0.0125279
720.302	0.0120321
720.380	0.0117402
720.458	0.0112971
720.536	0.0109822
720.614	0.0108785
720.693	0.0105545
720.771	0.0105833
720.849	0.0103723
720.927	0.0103310
721.005	0.0106158
721.083	0.0110020
721.161	0.0113353
721.239	0.0117313
721.318	0.0123804
721.396	0.0128636
721.474	0.0134986
721.552	0.0142276
721.630	0.0148690
721.708	0.0154968
721.786	0.0162589
721.864	0.0168316
721.943	0.0171870
722.021	0.0176643
722.099	0.0179494
722.177	0.0180488
722.255	0.0180012
722.333	0.0179518
722.411	0.0178495
722.489	0.0176562
722.568	0.0173322
722.646	0.0167781
722.724	0.0162457
722.802	0.0159062
722.880	0.0151582
722.958	0.0146239
723.036	0.0140369
723.114	0.0135257
723.193	0.0129510
723.271	0.0126259
723.349	0.0124615
723.427	0.0121748
723.505	0.0120675
723.583	0.0119022
723.661	0.0120056
723.739	0.0119556
723.818	0.0122545
723.896	0.0124133
723.974	0.0124442
724.052	0.0126899
724.130	0.0129154
724.208	0.0130740
724.286	0.0130692
724.364	0.0130867
724.443	0.0130184
724.521	0.0132207
724.599	0.0130869
724.677	0.0128494
724.755	0.0127470
724.833	0.0127000
724.911	0.0124010
724.989	0.0122892
725.068	0.0120188
725.146	0.0120905
725.224	0.0119895
725.302	0.0119346
725.380	0.0119798
725.458	0.0120558
725.536	0.0121717
725.614	0.0124107
725.693	0.0124716
725.771	0.0126295
725.849	0.0127666
725.927	0.0128582
726.005	0.0130798
726.083	0.0133289
726.161	0.0135270
726.239	0.0134325
726.318	0.0135998
726.396	0.0137538
726.474	0.0139059
726.552	0.0140617
726.630	0.0139757
726.708	0.0140162
726.786	0.0141319
726.864	0.0141691
726.943	0.0141373
727.021	0.0142347
727.099	0.0143261
727.177	0.0144693
727.255	0.0144326
727.333	0.0144696
727.411	0.0146727
727.489	0.0148687
727.568	0.0149008
727.646	0.0149660
727.724	0.0150043
727.802	0.0151099
727.880	0.0152312
727.958	0.0151783
728.036	0.0151981
728.114	0.0153055
728.193	0.0150849
728.271	0.0149696
728.349	0.0150703
728.427	0.0147315
728.505	0.0144199
728.583	0.0141760
728.661	0.0140098
728.739	0.0138418
728.818	0.0133504
728.896	0.0131303
728.974	0.0128435
729.052	0.0125902
729.130	0.0122913
729.208	0.0120728
729.286	0.0119194
729.364	0.0118728
729.443	0.0118509
729.521	0.0118900
729.599	0.0118057
729.677	0.0119138
729.755	0.0121119
729.833	0.0124384
729.911	0.0125535
729.989	0.0128074
730.068	0.0131479
730.146	0.0134144
730.224	0.0137225
730.302	0.0137988
730.380	0.0140005
730.458	0.0140646
730.536	0.0141156
730.614	0.0141946
730.693	0.0140630
730.771	0.0142071
730.849	0.0142635
730.927	0.0142307
731.005	0.0142179
731.083	0.0140968
731.161	0.0139867
731.239	0.0140458
731.318	0.0141745
731.396	0.0141639
731.474	0.0140890
731.552	0.0141508
731.630	0.0139843
731.708	0.0137177
731.786	0.0137211
731.864	0.0135366
731.943	0.0133495
732.021	0.0135135
732.099	0.0134238
732.177	0.0131741
732.255	0.0130785
732.333	0.0130875
732.411	0.0129443
732.489	0.0128906
732.568	0.0129448
732.646	0.0130862
732.724	0.0130865
732.802	0.0131433
732.880	0.0133154
732.958	0.0134493
733.036	0.0135169
733.114	0.0134505
733.193	0.0137827
733.271	0.0139287
733.349	0.0140387
733.427	0.0142152
733.505	0.0141463
733.583	0.0140983
733.661	0.0140936
733.739	0.0140768
733.818	0.0140399
733.896	0.0140101
733.974	0.0138093
734.052	0.0137901
734.130	0.0137846
734.208	0.0134684
734.286	0.0133412
734.364	0.0132269
734.443	0.0130290
734.521	0.0128730
734.599	0.0128441
734.677	0.0127557
734.755	0.0125198
734.833	0.0126003
734.911	0.0125764
734.989	0.0126202
735.068	0.0128374
735.146	0.0129144
735.224	0.0129678
735.302	0.0131745
735.380	0.0135835
735.458	0.0137434
735.536	0.0139935
735.614	0.0143359
735.693	0.0145172
735.771	0.0148822
735.849	0.0148814
735.927	0.0149588
736.005	0.0151556
736.083	0.0152581
736.161	0.0151592
736.239	0.0149696
736.318	0.0148259
736.396	0.0145811
736.474	0.0143578
736.552	0.0140656
736.630	0.0137481
736.708	0.0134132
736.786	0.0133060
736.864	0.0128842
736.943	0.0127546
737.021	0.0124367
737.099	0.0123998
737.177	0.0124126
737.255	0.0123801
737.333	0.0124778
737.411	0.0124743
737.489	0.0125159
737.568	0.0127682
737.646	0.0128797
737.724	0.0131214
737.802	0.0133617
737.880	0.0135947
737.958	0.0137357
738.036	0.0138781
738.114	0.0139970
738.193	0.0139697
738.271	0.0140543
738.349	0.0142277
738.427	0.0140575
738.505	0.0138343
738.583	0.0137389
738.661	0.0137134
738.739	0.0136104
738.818	0.0136182
738.896	0.0134290
738.974	0.0133185
739.052	0.0132625
739.130	0.0132571
739.208	0.0130584
739.286	0.0131574
739.364	0.0131371
739.443	0.0130360
739.521	0.0132303
739.599	0.0131860
739.677	0.0133084
739.755	0.0133978
739.833	0.0133506
739.911	0.0134386
739.989	0.0135282
740.068	0.0134283
740.146	0.0135642
740.224	0.0136938
740.302	0.0137642
740.380	0.0136857
740.458	0.0137632
740.536	0.0137284
740.614	0.0136295
740.693	0.0136398
740.771	0.0136838
740.849	0.0134707
740.927	0.0134889
741.005	0.0135925
741.083	0.0134940
741.161	0.0135582
741.239	0.0134451
741.318	0.0132256
741.396	0.0132059
741.474	0.0133606
741.552	0.0134776
741.630	0.0135497
741.708	0.0135197
741.786	0.0135860
741.864	0.0137033
741.943	0.0138189
742.021	0.0138654
742.099	0.0140962
742.177	0.0140362
742.255	0.0140653
742.333	0.0139791
742.411	0.0138949
742.489	0.0139429
742.568	0.0140828
742.646	0.0138902
742.724	0.0139427
742.802	0.0140864
742.880	0.0139643
742.958	0.0139259
743.036	0.0139648
743.114	0.0137384
743.193	0.0139001
743.271	0.0138054
743.349	0.0137605
743.427	0.0137247
743.505	0.0136089
743.583	0.0135560
743.661	0.0134161
743.739	0.0134306
743.818	0.0133632
743.896	0.0134592
743.974	0.0131979
744.052	0.0132379
744.130	0.0132143
744.208	0.0131717
744.286	0.0130885
744.364	0.0130923
744.443	0.0131940
744.521	0.0131210
744.599	0.0130657
744.677	0.0129996
744.755	0.0129659
744.833	0.0130065
744.911	0.0129296
744.989	0.0129531
745.068	0.0130812
745.146	0.0130202
745.224	0.0129382
745.302	0.0129137
745.380	0.0130347
745.458	0.0130317
745.536	0.0130738
745.614	0.0131153
745.693	0.0132966
745.771	0.0131136
745.849	0.0133025
745.927	0.0132477
746.005	0.0131893
746.083	0.0132858
746.161	0.0132858
746.239	0.0132402
746.318	0.0133356
746.396	0.0132564
746.474	0.0132390
746.552	0.0133848
746.630	0.0132528
746.708	0.0134090
746.786	0.0133755
746.864	0.0135574
746.943	0.0137309
747.021	0.0137989
747.099	0.0138223
747.177	0.0140379
747.255	0.0141351
747.333	0.0142198
747.411	0.0143071
747.489	0.0142834
747.568	0.0143829
747.646	0.0145097
747.724	0.0145220
747.802	0.0143859
747.880	0.0144522
747.958	0.0143497
748.036	0.0143524
748.114	0.0143899
748.193	0.0142641
748.271	0.0141262
748.349	0.0140509
748.427	0.0140521
748.505	0.0142059
748.583	0.0138844
748.661	0.0137326
748.739	0.0137111
748.818	0.0138044
748.896	0.0134457
748.974	0.0133380
749.052	0.0132384
749.130	0.0132448
749.208	0.0132319
749.286	0.0132871
749.364	0.0132272
749.443	0.0131425
749.521	0.0130893
749.599	0.0131882
749.677	0.0131591
749.755	0.0132762
749.833	0.0132477
749.911	0.0132352
749.989	0.0132772
750.068	0.0133163
750.146	0.0132198
750.224	0.0133288
750.302	0.0132059
750.380	0.0130330
750.458	0.0129950
750.536	0.0130749
750.614	0.0130624
750.693	0.0129082
750.771	0.0129002
750.849	0.0129159
750.927	0.0129802
751.005	0.0132189
751.083	0.0132126
751.161	0.0131241
751.239	0.0131544
751.318	0.0133757
751.396	0.0134985
751.474	0.0134960
751.552	0.0135873
751.630	0.0136543
751.708	0.0136849
751.786	0.0138384
751.864	0.0138537
751.943	0.0138277
752.021	0.0139532
752.099	0.0138639
752.177	0.0139909
752.255	0.0140427
752.333	0.0140603
752.411	0.0140800
752.489	0.0140732
752.568	0.0139953
752.646	0.0139813
752.724	0.0139773
752.802	0.0139069
752.880	0.0139210
752.958	0.0140017
753.036	0.0139632
753.114	0.0140208
753.193	0.0138425
753.271	0.0139416
753.349	0.0138062
753.427	0.0138567
753.505	0.0137536
753.583	0.0137939
753.661	0.0135815
753.739	0.0136281
753.818	0.0134603
753.896	0.0134341
753.974	0.0133899
754.052	0.0132281
754.130	0.0132315
754.208	0.0132268
754.286	0.0132086
754.364	0.0131454
754.443	0.0132387
754.521	0.0133316
754.599	0.0132319
754.677	0.0133531
754.755	0.0134062
754.833	0.0134380
754.911	0.0135126
754.989	0.0135242
755.068	0.0135780
755.146	0.0137405
755.224	0.0138313
755.302	0.0141056
755.380	0.0139902
755.458	0.0138909
755.536	0.0140596
755.614	0.0141341
755.693	0.0139697
755.771	0.0137768
755.849	0.0139098
755.927	0.0138043
756.005	0.0137098
756.083	0.0137849
756.161	0.0136730
756.239	0.0134917
756.318	0.0135464
756.396	0.0134354
756.474	0.0133287
756.552	0.0133395
756.630	0.0133205
756.708	0.0132262
756.786	0.0133293
756.864	0.0133263
756.943	0.0131966
757.021	0.0132777
757.099	0.0131258
757.177	0.0131708
757.255	0.0132298
757.333	0.0130995
757.411	0.0132589
757.489	0.0132288
757.568	0.0131548
757.646	0.0131096
757.724	0.0131288
757.802	0.0131859
757.880	0.0131805
757.958	0.0131947
758.036	0.0131752
758.114	0.0132553
758.193	0.0131736
758.271	0.0131425
758.349	0.0133334
758.427	0.0133478
758.505	0.0131918
758.583	0.0132315
758.661	0.0134201
758.739	0.0134744
758.818	0.0135313
758.896	0.0136823
758.974	0.0137444
759.052	0.0138622
759.130	0.0139159
759.208	0.0139642
759.286	0.0139866
759.364	0.0138425
759.443	0.0139777
759.521	0.0138604
759.599	0.0139447
759.677	0.0140050
759.755	0.0139244
759.833	0.0137453
759.911	0.0138323
759.989	0.0137138
760.068	0.0135271
760.146	0.0135220
760.224	0.0135812
760.302	0.0135683
760.380	0.0134306
760.458	0.0133646
760.536	0.0133930
760.614	0.0135712
760.693	0.0135011
760.771	0.0133636
760.849	0.0135214
760.927	0.0136472
761.005	0.0137006
761.083	0.0136523
761.161	0.0136307
761.239	0.0138139
761.318	0.0137139
761.396	0.0138419
761.474	0.0136671
761.552	0.0137253
761.630	0.0138506
761.708	0.0137601
761.786	0.0135846
761.864	0.0135997
761.943	0.0135652
762.021	0.0136441
762.099	0.0134644
762.177	0.0135101
762.255	0.0133516
762.333	0.0133750
762.411	0.0132790
762.489	0.0133013
762.568	0.0133051
762.646	0.0132787
762.724	0.0134415
762.802	0.0133669
762.880	0.0135172
762.958	0.0136386
763.036	0.0135116
763.114	0.0134624
763.193	0.0135220
763.271	0.0137720
763.349	0.0136737
763.427	0.0136080
763.505	0.0137377
763.583	0.0136889
763.661	0.0134459
763.739	0.0136533
763.818	0.0135398
763.896	0.0135747
763.974	0.0134843
764.052	0.0133034
764.130	0.0132780
764.208	0.0132603
764.286	0.0131891
764.364	0.0133327
764.443	0.0131127
764.521	0.0130080
764.599	0.0131847
764.677	0.0130142
764.755	0.0132182
764.833	0.0131109
764.911	0.0132969
764.989	0.0133229
765.068	0.0132491
765.146	0.0133234
765.224	0.0133694
765.302	0.0135007
765.380	0.0136072
765.458	0.0135249
765.536	0.0137191
765.614	0.0137054
765.693	0.0137880
765.771	0.0138353
765.849	0.0138403
765.927	0.0137879
766.005	0.0136665
766.083	0.0136800
766.161	0.0137927
766.239	0.0136823
766.318	0.0137100
766.396	0.0136125
766.474	0.0134983
766.552	0.0134688
766.630	0.0135073
766.708	0.0134705
766.786	0.0133767
766.864	0.0132409
766.943	0.0133190
767.021	0.0132872
767.099	0.0133187
767.177	0.0132655
767.255	0.0131424
767.333	0.0131574
767.411	0.0134424
767.489	0.0131760
767.568	0.0134045
767.646	0.0136102
767.724	0.0135732
767.802	0.0135038
767.880	0.0137585
767.958	0.0138548
768.036	0.0137794
768.114	0.0139237
768.193	0.0139738
768.271	0.0139527
768.349	0.0138893
768.427	0.0140281
768.505	0.0140088
768.583	0.0139205
768.661	0.0138863
768.739	0.0138709
768.818	0.0138264
768.896	0.0138754
768.974	0.0137634
769.052	0.0137538
769.130	0.0137215
769.208	0.0137002
769.286	0.0136816
769.364	0.0135270
769.443	0.0134029
769.521	0.0134354
769.599	0.0135393
769.677	0.0133307
769.755	0.0132089
769.833	0.0130481
769.911	0.0132256
769.989	0.0130058
770.068	0.0131359
770.146	0.0128819
770.224	0.0129245
770.302	0.0128946
770.380	0.0129214
770.458	0.0128418
770.536	0.0128691
770.614	0.0129137
770.693	0.0130334
770.771	0.0129447
770.849	0.0131123
770.927	0.0130770
771.005	0.0132465
771.083	0.0133634
771.161	0.0133544
771.239	0.0133984
771.318	0.0133511
771.396	0.0134219
771.474	0.0135392
771.552	0.0136321
771.630	0.0136243
771.708	0.0136800
771.786	0.0136797
771.864	0.0135805
771.943	0.0137515
772.021	0.0136689
772.099	0.0138206
772.177	0.0137077
772.255	0.0138377
772.333	0.0137711
772.411	0.0137511
772.489	0.0137759
772.568	0.0139025
772.646	0.0139255
772.724	0.0139438
772.802	0.0140377
772.880	0.0140888
772.958	0.0138592
773.036	0.0137150
773.114	0.0137972
773.193	0.0138745
773.271	0.0138502
773.349	0.0138241
773.427	0.0138965
773.505	0.0138955
773.583	0.0137347
773.661	0.0137064
773.739	0.0137663
773.818	0.0137933
773.896	0.0137062
773.974	0.0137114
774.052	0.0135326
774.130	0.0135892
774.208	0.0135728
774.286	0.0135728
774.364	0.0134039
774.443	0.0134200
774.521	0.0134559
774.599	0.0134018
774.677	0.0134122
774.755	0.0133607
774.833	0.0133462
774.911	0.0132774
774.989	0.0133845
775.068	0.0133202
775.146	0.0133041
775.224	0.0132220
775.302	0.0132740
775.380	0.0131914
775.458	0.0132816
775.536	0.0132865
775.614	0.0131007
775.693	0.0134061
775.771	0.0133673
775.849	0.0133563
775.927	0.0133652
776.005	0.0131990
776.083	0.0135046
776.161	0.0136030
776.239	0.0135816
776.318	0.0135118
776.396	0.0135172
776.474	0.0135532
776.552	0.0136131
776.630	0.0136877
776.708	0.0136032
776.786	0.0134689
776.864	0.0136253
776.943	0.0137016
777.021	0.0137370
777.099	0.0138730
777.177	0.0139408
777.255	0.0137383
777.333	0.0138290
777.411	0.0139321
777.489	0.0139885
777.568	0.0139498
777.646	0.0138556
777.724	0.0137978
777.802	0.0136929
777.880	0.0136580
777.958	0.0136735
778.036	0.0137036
778.114	0.0136872
778.193	0.0136353
778.271	0.0135671
778.349	0.0135275
778.427	0.0136913
778.505	0.0136341
778.583	0.0135633
778.661	0.0135053
778.739	0.0136006
778.818	0.0134782
778.896	0.0134962
778.974	0.0135621
779.052	0.0135106
779.130	0.0134559
779.208	0.0135222
779.286	0.0136095
779.364	0.0135667
779.443	0.0136771
779.521	0.0136715
779.599	0.0135864
779.677	0.0133689
779.755	0.0136131
779.833	0.0135813
779.911	0.0135657
779.989	0.0136695
780.068	0.0134783
780.146	0.0133408
780.224	0.0135259
780.302	0.0134397
780.380	0.0133247
780.458	0.0132603
780.536	0.0134634
780.614	0.0133684
780.693	0.0134035
780.771	0.0134753
780.849	0.0134921
780.927	0.0134813
781.005	0.0135298
781.083	0.0135837
781.161	0.0135696
781.239	0.0136108
781.318	0.0135448
781.396	0.0136741
781.474	0.0137019
781.552	0.0137013
781.630	0.0136301
781.708	0.0135260
781.786	0.0136555
781.864	0.0136822
781.943	0.0136971
782.021	0.0137690
782.099	0.0137331
782.177	0.0136378
782.255	0.0134963
782.333	0.0133916
782.411	0.0135693
782.489	0.0134847
782.568	0.0134579
782.646	0.0135583
782.724	0.0135948
782.802	0.0135233
782.880	0.0136160
782.958	0.0136023
783.036	0.0134069
783.114	0.0134866
783.193	0.0135952
783.271	0.0136221
783.349	0.0135802
783.427	0.0134739
783.505	0.0136158
783.583	0.0135587
783.661	0.0135175
783.739	0.0134691
783.818	0.0134425
783.896	0.0134803
783.974	0.0135827
784.052	0.0136004
784.130	0.0135228
784.208	0.0135287
784.286	0.0134450
784.364	0.0134906
784.443	0.0134550
784.521	0.0133300
784.599	0.0132970
784.677	0.0134358
784.755	0.0133037
784.833	0.0133858
784.911	0.0132381
784.989	0.0133233
785.068	0.0134014
785.146	0.0135120
785.224	0.0134180
785.302	0.0135111
785.380	0.0135138
785.458	0.0135825
785.536	0.0135761
785.614	0.0135668
785.693	0.0134646
785.771	0.0135508
785.849	0.0136711
785.927	0.0135991
786.005	0.0137187
786.083	0.0136201
786.161	0.0138184
786.239	0.0137143
786.318	0.0138002
786.396	0.0136731
786.474	0.0136538
786.552	0.0136568
786.630	0.0135117
786.708	0.0135759
786.786	0.0136117
786.864	0.0136191
786.943	0.0135838
787.021	0.0136684
787.099	0.0135048
787.177	0.0134811
787.255	0.0134582
787.333	0.0135020
787.411	0.0133369
787.489	0.0134660
787.568	0.0135243
787.646	0.0132892
787.724	0.0132916
787.802	0.0134575
787.880	0.0134545
787.958	0.0134504
788.036	0.0135509
788.114	0.0134418
788.193	0.0136340
788.271	0.0136312
788.349	0.0135141
788.427	0.0136515
788.505	0.0137193
788.583	0.0135582
788.661	0.0135841
788.739	0.0136877
788.818	0.0136597
788.896	0.0138117
788.974	0.0135576
789.052	0.0135281
789.130	0.0136581
789.208	0.0135629
789.286	0.0134444
789.364	0.0135889
789.443	0.0134698
789.521	0.0135876
789.599	0.0135381
789.677	0.0132388
789.755	0.0132293
789.833	0.0132498
789.911	0.0130349
789.989	0.0132145
790.068	0.0132860
790.146	0.0131643
790.224	0.0130804
790.302	0.0131219
790.380	0.0130410
790.458	0.0130936
790.536	0.0131587
790.614	0.0131738
790.693	0.0132620
790.771	0.0133529
790.849	0.0133531
790.927	0.0134070
791.005	0.0134148
791.083	0.0135240
791.161	0.0135249
791.239	0.0136332
791.318	0.0137029
791.396	0.0137531
791.474	0.0135565
791.552	0.0138167
791.630	0.0139731
791.708	0.0139288
791.786	0.0140256
791.864	0.0140077
791.943	0.0140356
792.021	0.0141306
792.099	0.0141585
792.177	0.0142678
792.255	0.0142941
792.333	0.0141499
792.411	0.0142220
792.489	0.0141779
792.568	0.0141525
792.646	0.0141674
792.724	0.0138272
792.802	0.0137714
792.880	0.0138580
792.958	0.0138174
793.036	0.0135810
793.114	0.0132975
793.193	0.0131541
793.271	0.0130672
793.349	0.0130623
793.427	0.0128251
793.505	0.0127152
793.583	0.0125893
793.661	0.0126019
793.739	0.0126210
793.818	0.0124893
793.896	0.0123900
793.974	0.0127104
794.052	0.0126294
794.130	0.0125461
794.208	0.0127879
794.286	0.0127488
794.364	0.0127846
794.443	0.0127927
794.521	0.0130776
794.599	0.0131730
794.677	0.0132794
794.755	0.0133680
794.833	0.0134026
794.911	0.0134959
794.989	0.0135555
795.068	0.0137054
795.146	0.0138094
795.224	0.0137983
795.302	0.0137888
795.380	0.0137715
795.458	0.0139161
795.536	0.0139350
795.614	0.0139317
795.693	0.0140455
795.771	0.0141050
795.849	0.0139597
795.927	0.0140862
796.005	0.0141702
796.083	0.0140015
796.161	0.0140918
796.239	0.0139407
796.318	0.0141819
796.396	0.0142371
796.474	0.0140551
796.552	0.0140038
796.630	0.0138682
796.708	0.0137643
796.786	0.0140926
796.864	0.0137829
796.943	0.0137883
797.021	0.0137016
797.099	0.0135104
797.177	0.0134003
797.255	0.0133846
797.333	0.0131657
797.411	0.0131769
797.489	0.0129108
797.568	0.0130511
797.646	0.0130900
797.724	0.0129060
797.802	0.0128496
797.880	0.0128851
797.958	0.0128904
798.036	0.0128526
798.114	0.0130058
798.193	0.0129572
798.271	0.0129654
798.349	0.0131882
798.427	0.0132590
798.505	0.0132004
798.583	0.0133489
798.661	0.0132599
798.739	0.0132291
798.818	0.0133589
798.896	0.0134882
798.974	0.0133923
799.052	0.0134174
799.130	0.0135231
799.208	0.0134697
799.286	0.0134380
799.364	0.0133509
799.443	0.0134370
799.521	0.0134660
799.599	0.0132644
799.677	0.0135060
799.755	0.0135812
799.833	0.0135811
799.911	0.0136454
799.989	0.0137707
800.068	0.0138550
800.146	0.0138627
800.224	0.0140112
800.302	0.0140810
800.380	0.0141379
800.458	0.0144962
800.536	0.0145360
800.614	0.0143559
800.693	0.0145542
800.771	0.0144800
800.849	0.0144362
800.927	0.0146140
801.005	0.0145234
801.083	0.0144524
801.161	0.0143710
801.239	0.0140463
801.318	0.0141671
801.396	0.0139822
801.474	0.0137139
801.552	0.0136147
801.630	0.0135105
801.708	0.0134511
801.786	0.0131733
801.864	0.0130728
801.943	0.0130183
802.021	0.0128342
802.099	0.0127184
802.177	0.0125440
802.255	0.0125598
802.333	0.0124931
802.411	0.0123929
802.489	0.0124995
802.568	0.0125872
802.646	0.0127074
802.724	0.0125356
802.802	0.0126692
802.880	0.0127361
802.958	0.0127380
803.036	0.0126849
803.114	0.0128678
803.193	0.0130246
803.271	0.0130714
803.349	0.0131893
803.427	0.0132777
803.505	0.0133884
803.583	0.0134834
803.661	0.0133984
803.739	0.0135281
803.818	0.0137514
803.896	0.0137414
803.974	0.0139153
804.052	0.0139486
804.130	0.0140541
804.208	0.0141653
804.286	0.0142484
804.364	0.0144283
804.443	0.0145258
804.521	0.0147408
804.599	0.0147971
804.677	0.0147787
804.755	0.0147744
804.833	0.0148044
804.911	0.0150248
804.989	0.0149241
805.068	0.0149185
805.146	0.0149069
805.224	0.0148447
805.302	0.0146803
805.380	0.0144644
805.458	0.0143147
805.536	0.0142188
805.614	0.0140089
805.693	0.0138803
805.771	0.0135746
805.849	0.0134690
805.927	0.0132434
806.005	0.0130296
806.083	0.0128739
806.161	0.0126757
806.239	0.0124895
806.318	0.0124295
806.396	0.0124113
806.474	0.0121804
806.552	0.0121208
806.630	0.0120847
806.708	0.0123256
806.786	0.0122832
806.864	0.0122128
806.943	0.0123144
807.021	0.0123431
807.099	0.0123798
807.177	0.0124802
807.255	0.0127707
807.333	0.0127761
807.411	0.0129224
807.489	0.0129665
807.568	0.0131417
807.646	0.0132883
807.724	0.0133431
807.802	0.0135793
807.880	0.0137344
807.958	0.0136558
808.036	0.0138251
808.114	0.0139031
808.193	0.0139815
808.271	0.0141865
808.349	0.0141425
808.427	0.0142770
808.505	0.0142855
808.583	0.0143302
808.661	0.0144179
808.739	0.0143813
808.818	0.0144557
808.896	0.0146523
808.974	0.0144790
809.052	0.0145025
809.130	0.0145636
809.208	0.0144811
809.286	0.0143914
809.364	0.0143236
809.443	0.0144652
809.521	0.0143486
809.599	0.0142799
809.677	0.0142995
809.755	0.0141821
809.833	0.0140184
809.911	0.0139227
809.989	0.0138281
810.068	0.0137074
810.146	0.0135430
810.224	0.0133906
810.302	0.0133907
810.380	0.0132077
810.458	0.0132484
810.536	0.0130500
810.614	0.0130850
810.693	0.0127997
810.771	0.0126556
810.849	0.0125792
810.927	0.0125967
811.005	0.0126546
811.083	0.0126739
811.161	0.0127267
811.239	0.0126945
811.318	0.0126234
811.396	0.0127358
811.474	0.0128146
811.552	0.0128710
811.630	0.0128997
811.708	0.0129266
811.786	0.0130201
811.864	0.0130482
811.943	0.0131137
812.021	0.0131897
812.099	0.0133389
812.177	0.0133721
812.255	0.0133694
812.333	0.0136161
812.411	0.0135786
812.489	0.0135461
812.568	0.0134917
812.646	0.0137563
812.724	0.0138530
812.802	0.0137990
812.880	0.0138760
812.958	0.0138329
813.036	0.0137618
813.114	0.0140410
813.193	0.0140725
813.271	0.0140401
813.349	0.0140193
813.427	0.0140720
813.505	0.0140685
813.583	0.0141136
813.661	0.0141475
813.739	0.0142469
813.818	0.0141017
813.896	0.0141450
813.974	0.0140338
814.052	0.0139371
814.130	0.0141402
814.208	0.0139640
814.286	0.0140112
814.364	0.0137783
814.443	0.0138850
814.521	0.0136912
814.599	0.0137543
814.677	0.0136582
814.755	0.0134265
814.833	0.0133031
814.911	0.0132978
814.989	0.0133383
815.068	0.0132111
815.146	0.0130619
815.224	0.0130454
815.302	0.0132042
815.380	0.0130714
815.458	0.0132326
815.536	0.0131913
815.614	0.0130803
815.693	0.0131304
815.771	0.0131049
815.849	0.0133478
815.927	0.0133170
816.005	0.0134059
816.083	0.0133458
816.161	0.0132884
816.239	0.0134869
816.318	0.0134837
816.396	0.0134623
816.474	0.0134741
816.552	0.0135430
816.630	0.0135252
816.708	0.0134316
816.786	0.0135111
816.864	0.0135103
816.943	0.0134425
817.021	0.0133936
817.099	0.0133626
817.177	0.0133390
817.255	0.0134568
817.333	0.0134759
817.411	0.0133819
817.489	0.0133338
817.568	0.0135423
817.646	0.0134129
817.724	0.0135316
817.802	0.0135233
817.880	0.0134982
817.958	0.0133851
818.036	0.0134562
818.114	0.0136274
818.193	0.0135818
818.271	0.0135565
818.349	0.0136710
818.427	0.0137686
818.505	0.0136745
818.583	0.0136894
818.661	0.0137824
818.739	0.0138712
818.818	0.0138307
818.896	0.0139087
818.974	0.0139919
819.052	0.0139738
819.130	0.0139407
819.208	0.0139976
819.286	0.0139832
819.364	0.0139417
819.443	0.0138688
819.521	0.0138161
819.599	0.0138007
819.677	0.0138628
819.755	0.0137851
819.833	0.0136620
819.911	0.0136388
819.989	0.0135006
820.068	0.0136528
820.146	0.0135897
820.224	0.0135599
820.302	0.0134265
820.380	0.0134924
820.458	0.0135189
820.536	0.0134695
820.614	0.0133762
820.693	0.0135862
820.771	0.0135043
820.849	0.0135216
820.927	0.0136324
821.005	0.0135577
821.083	0.0135749
821.161	0.0134156
821.239	0.0134695
821.318	0.0133386
821.396	0.0135637
821.474	0.0133517
821.552	0.0133738
821.630	0.0133042
821.708	0.0133401
821.786	0.0133630
821.864	0.0133772
821.943	0.0132609
822.021	0.0132695
822.099	0.0133151
822.177	0.0133623
822.255	0.0132376
822.333	0.0132310
822.411	0.0131635
822.489	0.0130158
822.568	0.0132682
822.646	0.0131653
822.724	0.0132059
822.802	0.0131011
822.880	0.0132269
822.958	0.0133141
823.036	0.0132408
823.114	0.0131779
823.193	0.0131208
823.271	0.0132265
823.349	0.0132047
823.427	0.0132597
823.505	0.0133802
823.583	0.0134198
823.661	0.0134374
823.739	0.0134447
823.818	0.0134618
823.896	0.0135209
823.974	0.0137082
824.052	0.0136783
824.130	0.0135823
824.208	0.0138432
824.286	0.0138370
824.364	0.0139267
824.443	0.0139941
824.521	0.0140268
824.599	0.0140776
824.677	0.0140691
824.755	0.0141233
824.833	0.0140424
824.911	0.0142027
824.989	0.0141367
825.068	0.0141763
825.146	0.0141316
825.224	0.0139942
825.302	0.0141042
825.380	0.0140912
825.458	0.0139549
825.536	0.0138345
825.614	0.0138506
825.693	0.0136461
825.771	0.0136943
825.849	0.0137337
825.927	0.0135759
826.005	0.0133912
826.083	0.0134633
826.161	0.0134731
826.239	0.0135072
826.318	0.0134496
826.396	0.0132619
826.474	0.0132394
826.552	0.0133109
826.630	0.0132225
826.708	0.0134177
826.786	0.0134394
826.864	0.0132443
826.943	0.0132931
827.021	0.0132513
827.099	0.0132278
827.177	0.0132929
827.255	0.0132545
827.333	0.0131517
827.411	0.0132948
827.489	0.0130814
827.568	0.0130922
827.646	0.0130781
827.724	0.0130004
827.802	0.0130679
827.880	0.0130854
827.958	0.0131090
828.036	0.0130298
828.114	0.0131262
828.193	0.0130623
828.271	0.0132670
828.349	0.0132873
828.427	0.0133440
828.505	0.0133984
828.583	0.0134471
828.661	0.0135665
828.739	0.0135940
828.818	0.0137384
828.896	0.0137899
828.974	0.0138499
829.052	0.0138306
829.130	0.0138499
829.208	0.0139287
829.286	0.0138781
829.364	0.0138763
829.443	0.0139966
829.521	0.0140460
829.599	0.0139786
829.677	0.0140659
829.755	0.0140617
829.833	0.0140830
829.911	0.0140820
829.989	0.0140478
830.068	0.0140603
830.146	0.0140111
830.224	0.0141100
830.302	0.0139734
830.380	0.0139203
830.458	0.0139410
830.536	0.0138339
830.614	0.0137489
830.693	0.0136615
830.771	0.0136602
830.849	0.0136484
830.927	0.0136751
831.005	0.0135493
831.083	0.0134763
831.161	0.0132990
831.239	0.0135593
831.318	0.0134305
831.396	0.0133877
831.474	0.0132391
831.552	0.0133675
831.630	0.0133246
831.708	0.0133608
831.786	0.0133906
831.864	0.0133664
831.943	0.0132619
832.021	0.0133268
832.099	0.0132676
832.177	0.0132896
832.255	0.0133500
832.333	0.0131504
832.411	0.0132937
832.489	0.0133335
832.568	0.0131493
832.646	0.0132293
832.724	0.0132925
832.802	0.0132647
832.880	0.0134182
832.958	0.0133920
833.036	0.0133376
833.114	0.0133199
833.193	0.0133717
833.271	0.0135605
833.349	0.0133498
833.427	0.0135053
833.505	0.0134260
833.583	0.0134876
833.661	0.0136445
833.739	0.0137332
833.818	0.0138198
833.896	0.0138316
833.974	0.0136728
834.052	0.0137369
834.130	0.0137547
834.208	0.0137992
834.286	0.0138500
834.364	0.0137827
834.443	0.0137688
834.521	0.0137223
834.599	0.0138116
834.677	0.0137106
834.755	0.0137564
834.833	0.0138089
834.911	0.0138544
834.989	0.0135535
835.068	0.0135817
835.146	0.0137554
835.224	0.0135519
835.302	0.0137439
835.380	0.0135464
835.458	0.0136096
835.536	0.0134156
835.614	0.0136020
835.693	0.0134811
835.771	0.0133602
835.849	0.0133638
835.927	0.0132864
836.005	0.0131609
836.083	0.0133421
836.161	0.0131158
836.239	0.0132735
836.318	0.0131696
836.396	0.0132681
836.474	0.0132770
836.552	0.0130859
836.630	0.0130945
836.708	0.0132345
836.786	0.0131542
836.864	0.0132729
836.943	0.0131662
837.021	0.0132568
837.099	0.0131898
837.177	0.0132089
837.255	0.0132468
837.333	0.0133337
837.411	0.0135172
837.489	0.0134204
837.568	0.0135150
837.646	0.0135635
837.724	0.0135765
837.802	0.0136319
837.880	0.0135914
837.958	0.0136895
838.036	0.0137202
838.114	0.0137741
838.193	0.0137835
838.271	0.0138596
838.349	0.0137425
838.427	0.0137474
838.505	0.0138732
838.583	0.0139171
838.661	0.0139120
838.739	0.0137557
838.818	0.0137836
838.896	0.0138066
838.974	0.0138770
839.052	0.0137749
839.130	0.0137038
839.208	0.0138093
839.286	0.0138349
839.364	0.0137403
839.443	0.0135288
839.521	0.0135509
839.599	0.0137757
839.677	0.0136450
839.755	0.0135616
839.833	0.0136470
839.911	0.0134426
839.989	0.0134332
840.068	0.0135878
840.146	0.0135225
840.224	0.0134081
840.302	0.0134507
840.380	0.0134892
840.458	0.0134135
840.536	0.0132430
840.614	0.0132378
840.693	0.0133336
840.771	0.0132285
840.849	0.0134184
840.927	0.0132501
841.005	0.0132792
841.083	0.0131863
841.161	0.0132273
841.239	0.0131078
841.318	0.0130584
841.396	0.0131289
841.474	0.0130754
841.552	0.0131063
841.630	0.0132528
841.708	0.0132316
841.786	0.0133035
841.864	0.0132428
841.943	0.0131843
842.021	0.0133208
842.099	0.0134303
842.177	0.0134639
842.255	0.0135280
842.333	0.0134882
842.411	0.0133215
842.489	0.0134454
842.568	0.0135223
842.646	0.0136301
842.724	0.0135176
842.802	0.0137144
842.880	0.0138425
842.958	0.0137849
843.036	0.0138474
843.114	0.0138876
843.193	0.0140384
843.271	0.0139472
843.349	0.0140268
843.427	0.0141122
843.505	0.0139819
843.583	0.0140222
843.661	0.0139070
843.739	0.0140244
843.818	0.0141275
843.896	0.0139543
843.974	0.0140536
844.052	0.0139183
844.130	0.0137803
844.208	0.0137329
844.286	0.0136018
844.364	0.0135400
844.443	0.0134404
844.521	0.0134280
844.599	0.0132613
844.677	0.0134036
844.755	0.0133055
844.833	0.0132446
844.911	0.0132343
844.989	0.0131905
845.068	0.0130845
845.146	0.0132806
845.224	0.0131059
845.302	0.0130581
845.380	0.0130474
845.458	0.0130280
845.536	0.0131924
845.614	0.0131759
845.693	0.0131000
845.771	0.0132081
845.849	0.0133342
845.927	0.0133340
846.005	0.0132262
846.083	0.0133083
846.161	0.0133707
846.239	0.0132374
846.318	0.0133247
846.396	0.0135674
846.474	0.0136066
846.552	0.0135681
846.630	0.0136495
846.708	0.0136047
846.786	0.0137344
846.864	0.0137219
846.943	0.0136505
847.021	0.0137842
847.099	0.0137244
847.177	0.0137613
847.255	0.0137798
847.333	0.0138795
847.411	0.0137108
847.489	0.0137024
847.568	0.0136674
847.646	0.0136908
847.724	0.0137319
847.802	0.0136841
847.880	0.0137212
847.958	0.0135984
848.036	0.0134900
848.114	0.0135794
848.193	0.0135295
848.271	0.0135012
848.349	0.0135049
848.427	0.0135224
848.505	0.0135110
848.583	0.0135346
848.661	0.0134389
848.739	0.0135170
848.818	0.0133214
848.896	0.0132594
848.974	0.0132086
849.052	0.0132713
849.130	0.0131788
849.208	0.0131882
849.286	0.0132312
849.364	0.0132697
849.443	0.0131448
849.521	0.0132013
849.599	0.0131815
849.677	0.0131670
849.755	0.0131702
849.833	0.0131062
849.911	0.0132178
849.989	0.0131207
850.068	0.0132196
850.146	0.0133306
850.224	0.0135622
850.302	0.0133814
850.380	0.0134185
850.458	0.0135004
850.536	0.0134578
850.614	0.0135740
850.693	0.0137819
850.771	0.0136906
850.849	0.0136654
850.927	0.0137628
851.005	0.0135312
851.083	0.0135143
851.161	0.0137227
851.239	0.0137402
851.318	0.0135432
851.396	0.0135664
851.474	0.0137025
851.552	0.0137104
851.630	0.0135730
851.708	0.0135800
851.786	0.0136069
851.864	0.0136259
851.943	0.0136488
852.021	0.0138249
852.099	0.0137813
852.177	0.0137392
852.255	0.0136904
852.333	0.0137537
852.411	0.0138238
852.489	0.0137656
852.568	0.0136897
852.646	0.0138305
852.724	0.0138351
852.802	0.0136592
852.880	0.0137683
852.958	0.0137530
853.036	0.0136739
853.114	0.0133270
853.193	0.0134408
853.271	0.0134063
853.349	0.0133775
853.427	0.0133074
853.505	0.0132681
853.583	0.0131798
853.661	0.0132699
853.739	0.0131087
853.818	0.0132468
853.896	0.0131374
853.974	0.0132416
854.052	0.0132561
854.130	0.0129866
854.208	0.0132800
854.286	0.0132779
854.364	0.0132594
854.443	0.0132886
854.521	0.0133167
854.599	0.0132439
854.677	0.0135713
854.755	0.0134206
854.833	0.0134398
854.911	0.0135127
854.989	0.0134335
855.068	0.0134553
855.146	0.0134421
855.224	0.0135368
855.302	0.0136390
855.380	0.0137346
855.458	0.0137787
855.536	0.0137425
855.614	0.0137997
855.693	0.0137300
855.771	0.0136399
855.849	0.0138280
855.927	0.0139178
856.005	0.0138547
856.083	0.0137663
856.161	0.0139162
856.239	0.0137739
856.318	0.0138275
856.396	0.0137296
856.474	0.0137449
856.552	0.0137735
856.630	0.0137343
856.708	0.0137537
856.786	0.0135679
856.864	0.0135666
856.943	0.0134362
857.021	0.0134946
857.099	0.0134947
857.177	0.0135288
857.255	0.0133546
857.333	0.0133548
857.411	0.0134579
857.489	0.0134412
857.568	0.0134016
857.646	0.0134303
857.724	0.0133260
857.802	0.0132871
857.880	0.0133125
857.958	0.0132554
858.036	0.0133058
858.114	0.0132706
858.193	0.0132265
858.271	0.0133360
858.349	0.0133895
858.427	0.0133896
858.505	0.0134139
858.583	0.0134542
858.661	0.0134552
858.739	0.0135744
858.818	0.0135311
858.896	0.0135644
858.974	0.0134692
859.052	0.0135555
859.130	0.0137178
859.208	0.0136580
859.286	0.0137275
859.364	0.0136148
859.443	0.0136816
859.521	0.0137116
859.599	0.0136729
859.677	0.0136517
859.755	0.0135736
859.833	0.0135777
859.911	0.0135101
859.989	0.0135089
860.068	0.0136376
860.146	0.0133785
860.224	0.0135180
860.302	0.0134689
860.380	0.0132728
860.458	0.0131937
860.536	0.0133275
860.614	0.0133723
860.693	0.0133676
860.771	0.0132803
860.849	0.0132937
860.927	0.0134409
861.005	0.0133035
861.083	0.0132815
861.161	0.0132180
861.239	0.0133659
861.318	0.0133367
861.396	0.0133255
861.474	0.0133835
861.552	0.0134842
861.630	0.0134064
861.708	0.0134538
861.786	0.0137019
861.864	0.0135708
861.943	0.0134596
862.021	0.0136185
862.099	0.0135448
862.177	0.0136408
862.255	0.0137563
862.333	0.0136003
862.411	0.0135985
862.489	0.0137022
862.568	0.0136368
862.646	0.0135989
862.724	0.0136922
862.802	0.0137034
862.880	0.0136909
862.958	0.0135474
863.036	0.0136768
863.114	0.0134774
863.193	0.0136091
863.271	0.0136301
863.349	0.0136390
863.427	0.0134737
863.505	0.0135015
863.583	0.0134236
863.661	0.0133389
863.739	0.0134292
863.818	0.0134781
863.896	0.0133651
863.974	0.0134812
864.052	0.0134771
864.130	0.0133661
864.208	0.0136625
864.286	0.0135866
864.364	0.0134312
864.443	0.0132820
864.521	0.0134554
864.599	0.0135029
864.677	0.0134422
864.755	0.0133441
864.833	0.0133260
864.911	0.0133652
864.989	0.0132959
865.068	0.0133842
865.146	0.0131888
865.224	0.0134246
865.302	0.0134459
865.380	0.0132871
865.458	0.0133379
865.536	0.0132591
865.614	0.0133203
865.693	0.0133352
865.771	0.0133576
865.849	0.0133896
865.927	0.0132761
866.005	0.0133306
866.083	0.0135992
866.161	0.0135201
866.239	0.0135064
866.318	0.0135327
866.396	0.0134668
866.474	0.0135248
866.552	0.0135675
866.630	0.0137095
866.708	0.0136530
866.786	0.0136600
866.864	0.0137456
866.943	0.0137111
867.021	0.0137748
867.099	0.0137350
867.177	0.0137878
867.255	0.0137279
867.333	0.0137562
867.411	0.0136771
867.489	0.0138496
867.568	0.0136194
867.646	0.0137357
867.724	0.0137569
867.802	0.0136903
867.880	0.0135545
867.958	0.0136530
868.036	0.0136613
868.114	0.0135638
868.193	0.0137293
868.271	0.0136493
868.349	0.0135389
868.427	0.0135503
868.505	0.0135077
868.583	0.0134377
868.661	0.0133926
868.739	0.0134638
868.818	0.0133349
868.896	0.0134187
868.974	0.0132560
869.052	0.0133041
869.130	0.0133645
869.208	0.0132778
869.286	0.0132162
869.364	0.0133135
869.443	0.0132500
869.521	0.0132835
869.599	0.0131681
869.677	0.0131927
869.755	0.0132789
869.833	0.0131686
869.911	0.0132406
869.989	0.0132980
870.068	0.0133257
870.146	0.0133462
870.224	0.0134595
870.302	0.0135266
870.380	0.0134299
870.458	0.0135102
870.536	0.0135193
870.614	0.0135076
870.693	0.0135703
870.771	0.0135685
870.849	0.0136211
870.927	0.0137215
871.005	0.0136631
871.083	0.0137883
871.161	0.0137145
871.239	0.0137750
871.318	0.0137197
871.396	0.0137266
871.474	0.0138080
871.552	0.0137376
871.630	0.0137462
871.708	0.0137453
871.786	0.0136845
871.864	0.0137682
871.943	0.0138426
872.021	0.0138270
872.099	0.0137100
872.177	0.0136658
872.255	0.0138058
872.333	0.0136453
872.411	0.0135654
872.489	0.0135186
872.568	0.0134487
872.646	0.0134949
872.724	0.0135746
872.802	0.0134169
872.880	0.0135615
872.958	0.0135020
873.036	0.0133390
873.114	0.0134792
873.193	0.0135516
873.271	0.0133986
873.349	0.0134045
873.427	0.0133459
873.505	0.0135118
873.583	0.0133356
873.661	0.0132407
873.739	0.0131962
873.818	0.0132958
873.896	0.0133100
873.974	0.0132780
874.052	0.0133262
874.130	0.0133411
874.208	0.0132649
874.286	0.0132305
874.364	0.0134119
874.443	0.0131566
874.521	0.0133894
874.599	0.0133915
874.677	0.0135579
874.755	0.0132191
874.833	0.0135233
874.911	0.0135792
874.989	0.0134629
875.068	0.0134982
875.146	0.0135994
875.224	0.0135093
875.302	0.0137177
875.380	0.0134666
875.458	0.0133875
875.536	0.0136671
875.614	0.0134612
875.693	0.0134627
875.771	0.0136694
875.849	0.0135425
875.927	0.0135924
876.005	0.0135701
876.083	0.0136972
876.161	0.0137086
876.239	0.0136292
876.318	0.0134419
876.396	0.0135734
876.474	0.0136033
876.552	0.0136127
876.630	0.0135435
876.708	0.0136866
876.786	0.0136077
876.864	0.0136168
876.943	0.0138028
877.021	0.0137651
877.099	0.0136594
877.177	0.0137140
877.255	0.0136170
877.333	0.0136472
877.411	0.0137957
877.489	0.0136880
877.568	0.0136185
877.646	0.0137283
877.724	0.0136589
877.802	0.0135395
877.880	0.0136021
877.958	0.0137725
878.036	0.0136916
878.114	0.0136229
878.193	0.0136579
878.271	0.0136907
878.349	0.0136033
878.427	0.0136183
878.505	0.0135300
878.583	0.0135155
878.661	0.0136034
878.739	0.0134898
878.818	0.0134801
878.896	0.0135342
878.974	0.0136632
879.052	0.0135815
879.130	0.0134702
879.208	0.0133637
879.286	0.0134239
879.364	0.0134383
879.443	0.0134663
879.521	0.0135035
879.599	0.0134760
879.677	0.0133333
879.755	0.0134489
879.833	0.0132915
879.911	0.0133794
879.989	0.0134782
880.068	0.0134002
880.146	0.0136018
880.224	0.0134113
880.302	0.0134853
880.380	0.0135181
880.458	0.0135799
880.536	0.0136111
880.614	0.0136947
880.693	0.0137502
880.771	0.0136491
880.849	0.0136443
880.927	0.0138607
881.005	0.0136475
881.083	0.0136044
881.161	0.0136729
881.239	0.0136806
881.318	0.0137076
881.396	0.0135902
881.474	0.0134315
881.552	0.0133949
881.630	0.0133575
881.708	0.0133363
881.786	0.0132475
881.864	0.0132669
881.943	0.0132880
882.021	0.0130916
882.099	0.0132848
882.177	0.0132486
882.255	0.0131272
882.333	0.0132315
882.411	0.0133901
882.489	0.0133759
882.568	0.0134771
882.646	0.0135181
882.724	0.0134766
882.802	0.0135807
882.880	0.0136955
882.958	0.0137260
883.036	0.0136552
883.114	0.0138480
883.193	0.0138758
883.271	0.0139361
883.349	0.0140794
883.427	0.0139741
883.505	0.0140285
883.583	0.0141587
883.661	0.0141250
883.739	0.0141792
883.818	0.0139927
883.896	0.0139472
883.974	0.0141560
884.052	0.0139264
884.130	0.0138503
884.208	0.0137482
884.286	0.0137570
884.364	0.0137029
884.443	0.0137009
884.521	0.0137434
884.599	0.0137055
884.677	0.0135959
884.755	0.0133754
884.833	0.0133456
884.911	0.0133154
884.989	0.0132384
885.068	0.0131683
885.146	0.0132343
885.224	0.0133006
885.302	0.0132369
885.380	0.0130835
885.458	0.0131573
885.536	0.0131871
885.614	0.0131380
885.693	0.0131730
885.771	0.0131078
885.849	0.0129305
885.927	0.0129462
886.005	0.0130848
886.083	0.0130978
886.161	0.0131344
886.239	0.0131675
886.318	0.0130950
886.396	0.0131884
886.474	0.0133578
886.552	0.0134750
886.630	0.0134872
886.708	0.0134939
886.786	0.0136343
886.864	0.0136957
886.943	0.0136784
887.021	0.0137874
887.099	0.0138371
887.177	0.0138847
887.255	0.0138418
887.333	0.0137949
887.411	0.0137346
887.489	0.0138676
887.568	0.0139223
887.646	0.0137634
887.724	0.0137279
887.802	0.0138413
887.880	0.0137345
887.958	0.0136430
888.036	0.0135686
888.114	0.0135958
888.193	0.0134998
888.271	0.0134924
888.349	0.0134299
888.427	0.0133091
888.505	0.0134356
888.583	0.0132948
888.661	0.0133456
888.739	0.0133836
888.818	0.0134133
888.896	0.0133498
888.974	0.0133970
889.052	0.0134370
889.130	0.0134732
889.208	0.0133977
889.286	0.0136663
889.364	0.0135058
889.443	0.0136269
889.521	0.0136385
889.599	0.0137243
889.677	0.0137548
889.755	0.0136787
889.833	0.0136521
889.911	0.0136723
889.989	0.0138754
890.068	0.0138953
890.146	0.0138819
890.224	0.0137373
890.302	0.0137659
890.380	0.0137543
890.458	0.0137099
890.536	0.0137049
890.614	0.0138428
890.693	0.0138238
890.771	0.0135598
890.849	0.0136922
890.927	0.0136836
891.005	0.0135837
891.083	0.0135652
891.161	0.0135211
891.239	0.0134088
891.318	0.0133839
891.396	0.0133376
891.474	0.0132076
891.552	0.0133897
891.630	0.0134501
891.708	0.0133337
891.786	0.0132369
891.864	0.0132099
891.943	0.0131911
892.021	0.0130941
892.099	0.0131555
892.177	0.0131583
892.255	0.0131580
892.333	0.0132704
892.411	0.0130665
892.489	0.0131818
892.568	0.0132706
892.646	0.0132665
892.724	0.0133266
892.802	0.0133199
892.880	0.0132439
892.958	0.0133629
893.036	0.0135249
893.114	0.0134518
893.193	0.0134087
893.271	0.0136460
893.349	0.0135940
893.427	0.0135209
893.505	0.0134801
893.583	0.0138206
893.661	0.0136114
893.739	0.0137259
893.818	0.0137040
893.896	0.0138346
893.974	0.0138062
894.052	0.0138348
894.130	0.0137302
894.208	0.0137646
894.286	0.0138824
894.364	0.0137400
894.443	0.0138189
894.521	0.0139165
894.599	0.0138252
894.677	0.0137997
894.755	0.0139203
894.833	0.0138852
894.911	0.0138887
894.989	0.0138859
895.068	0.0139407
895.146	0.0141378
895.224	0.0140941
895.302	0.0139984
895.380	0.0139191
895.458	0.0140266
895.536	0.0139278
895.614	0.0138524
895.693	0.0139212
895.771	0.0139748
895.849	0.0137460
895.927	0.0136023
896.005	0.0136568
896.083	0.0137391
896.161	0.0135245
896.239	0.0134128
896.318	0.0133734
896.396	0.0132607
896.474	0.0132556
896.552	0.0130035
896.630	0.0131302
896.708	0.0130865
896.786	0.0128955
896.864	0.0128085
896.943	0.0128108
897.021	0.0127078
897.099	0.0129073
897.177	0.0128371
897.255	0.0129210
897.333	0.0130271
897.411	0.0131181
897.489	0.0129940
897.568	0.0133663
897.646	0.0133365
897.724	0.0135067
897.802	0.0135243
897.880	0.0136848
897.958	0.0136996
898.036	0.0138995
898.114	0.0138395
898.193	0.0138611
898.271	0.0139278
898.349	0.0138159
898.427	0.0138637
898.505	0.0137262
898.583	0.0136133
898.661	0.0136855
898.739	0.0137006
898.818	0.0138322
898.896	0.0138882
898.974	0.0138958
899.052	0.0138385
899.130	0.0139680
899.208	0.0139462
899.286	0.0140201
899.364	0.0140742
899.443	0.0141348
899.521	0.0141020
899.599	0.0142016
899.677	0.0142197
899.755	0.0142245
899.833	0.0143533
899.911	0.0141666
899.989	0.0141622
900.068	0.0141180
900.146	0.0139007
900.224	0.0138661
900.302	0.0137807
900.380	0.0135297
900.458	0.0133971
900.536	0.0132714
900.614	0.0131564
900.693	0.0130943
900.771	0.0129809
900.849	0.0127361
900.927	0.0127271
901.005	0.0126924
901.083	0.0127334
901.161	0.0125594
901.239	0.0124474
901.318	0.0124142
901.396	0.0126836
901.474	0.0125471
901.552	0.0127687
901.630	0.0127843
901.708	0.0130008
901.786	0.0131101
901.864	0.0132155
901.943	0.0133367
902.021	0.0134458
902.099	0.0137414
902.177	0.0139317
902.255	0.0140662
902.333	0.0141845
902.411	0.0143366
902.489	0.0143884
902.568	0.0144837
902.646	0.0144456
902.724	0.0143687
902.802	0.0144530
902.880	0.0142375
902.958	0.0142129
903.036	0.0142390
903.114	0.0139554
903.193	0.0139873
903.271	0.0139045
903.349	0.0137255
903.427	0.0138081
903.505	0.0138212
903.583	0.0137692
903.661	0.0137299
903.739	0.0137594
903.818	0.0136061
903.896	0.0135452
903.974	0.0136203
904.052	0.0135126
904.130	0.0134728
904.208	0.0134700
904.286	0.0133525
904.364	0.0133990
904.443	0.0133143
904.521	0.0132934
904.599	0.0133788
904.677	0.0131946
904.755	0.0133212
904.833	0.0132782
904.911	0.0132834
904.989	0.0132565
905.068	0.0132301
905.146	0.0133365
905.224	0.0132914
905.302	0.0133347
905.380	0.0133923
905.458	0.0133559
905.536	0.0134748
905.614	0.0133657
905.693	0.0133560
905.771	0.0133443
905.849	0.0136475
905.927	0.0135844
906.005	0.0135912
906.083	0.0136405
906.161	0.0137767
906.239	0.0138682
906.318	0.0136816
906.396	0.0138123
906.474	0.0138152
906.552	0.0139549
906.630	0.0138940
906.708	0.0138601
906.786	0.0139971
906.864	0.0137759
906.943	0.0137867
907.021	0.0135785
907.099	0.0134955
907.177	0.0134200
907.255	0.0133519
907.333	0.0132224
907.411	0.0131895
907.489	0.0132290
907.568	0.0130255
907.646	0.0130042
907.724	0.0129847
907.802	0.0130181
907.880	0.0130557
907.958	0.0131509
908.036	0.0131225
908.114	0.0133253
908.193	0.0133412
908.271	0.0134068
908.349	0.0134695
908.427	0.0135289
908.505	0.0137494
908.583	0.0136330
908.661	0.0137040
908.739	0.0138333
908.818	0.0138223
908.896	0.0138931
908.974	0.0137498
909.052	0.0137924
909.130	0.0136809
909.208	0.0136796
909.286	0.0136332
909.364	0.0136321
909.443	0.0136369
909.521	0.0135831
909.599	0.0134813
909.677	0.0134901
909.755	0.0134263
909.833	0.0134707
909.911	0.0134821
909.989	0.0134595
910.068	0.0133520
910.146	0.0133607
910.224	0.0133807
910.302	0.0134464
910.380	0.0134205
910.458	0.0134984
910.536	0.0135031
910.614	0.0136195
910.693	0.0135481
910.771	0.0138393
910.849	0.0139020
910.927	0.0138061
911.005	0.0138261
911.083	0.0138337
911.161	0.0139295
911.239	0.0139726
911.318	0.0139913
911.396	0.0139782
911.474	0.0139204
911.552	0.0137789
911.630	0.0137841
911.708	0.0137319
911.786	0.0135712
911.864	0.0134649
911.943	0.0133990
912.021	0.0132939
912.099	0.0134679
912.177	0.0132426
912.255	0.0131008
912.333	0.0131059
912.411	0.0131430
912.489	0.0130694
912.568	0.0131509
912.646	0.0130527
912.724	0.0129962
912.802	0.0131001
912.880	0.0131079
912.958	0.0131026
913.036	0.0131651
913.114	0.0133149
913.193	0.0133501
913.271	0.0135348
913.349	0.0136406
913.427	0.0136986
913.505	0.0138319
913.583	0.0139021
913.661	0.0138502
913.739	0.0139606
913.818	0.0138983
913.896	0.0137688
913.974	0.0139217
914.052	0.0139120
914.130	0.0138014
914.208	0.0136856
914.286	0.0137205
914.364	0.0135457
914.443	0.0134537
914.521	0.0136164
914.599	0.0134613
914.677	0.0134468
914.755	0.0134091
914.833	0.0133577
914.911	0.0131630
914.989	0.0132186
915.068	0.0132243
915.146	0.0131718
915.224	0.0132703
915.302	0.0133891
915.380	0.0133501
915.458	0.0132940
915.536	0.0135704
915.614	0.0136362
915.693	0.0136679
915.771	0.0137069
915.849	0.0137682
915.927	0.0138188
916.005	0.0138522
916.083	0.0139464
916.161	0.0138393
916.239	0.0139834
916.318	0.0140544
916.396	0.0139491
916.474	0.0139998
916.552	0.0138257
916.630	0.0137911
916.708	0.0137685
916.786	0.0137463
916.864	0.0136854
916.943	0.0135815
917.021	0.0136557
917.099	0.0134558
917.177	0.0134576
917.255	0.0133878
917.333	0.0133448
917.411	0.0132693
917.489	0.0133877
917.568	0.0133000
917.646	0.0133284
917.724	0.0133675
917.802	0.0134589
917.880	0.0133517
917.958	0.0132997
918.036	0.0133970
918.114	0.0134439
918.193	0.0134698
918.271	0.0135356
918.349	0.0133938
918.427	0.0135420
918.505	0.0136698
918.583	0.0136953
918.661	0.0135462
918.739	0.0136118
918.818	0.0138373
918.896	0.0137331
918.974	0.0137016
919.052	0.0136847
919.130	0.0138505
919.208	0.0138741
919.286	0.0137169
919.364	0.0138752
919.443	0.0138029
919.521	0.0136891
919.599	0.0136570
919.677	0.0136328
919.755	0.0136982
919.833	0.0135807
919.911	0.0134976
919.989	0.0136377
920.068	0.0135686
920.146	0.0135015
920.224	0.0134232
920.302	0.0133666
920.380	0.0133324
920.458	0.0133536
920.536	0.0133696
920.614	0.0132366
920.693	0.0131782
920.771	0.0133905
920.849	0.0133748
920.927	0.0133997
921.005	0.0133378
921.083	0.0134406
921.161	0.0136455
921.239	0.0135334
921.318	0.0135445
921.396	0.0136290
921.474	0.0135695
921.552	0.0137104
921.630	0.0136706
921.708	0.0137322
921.786	0.0137811
921.864	0.0138032
921.943	0.0138483
922.021	0.0137685
922.099	0.0138791
922.177	0.0138924
922.255	0.0138441
922.333	0.0138689
922.411	0.0137714
922.489	0.0138211
922.568	0.0137139
922.646	0.0137524
922.724	0.0137410
922.802	0.0138302
922.880	0.0136539
922.958	0.0136695
923.036	0.0136969
923.114	0.0137292
923.193	0.0138973
923.271	0.0136449
923.349	0.0136262
923.427	0.0135528
923.505	0.0137189
923.583	0.0137270
923.661	0.0135184
923.739	0.0136172
923.818	0.0136005
923.896	0.0135222
923.974	0.0137019
924.052	0.0135233
924.130	0.0136317
924.208	0.0136662
924.286	0.0135557
924.364	0.0135576
924.443	0.0136003
924.521	0.0135226
924.599	0.0134097
924.677	0.0134524
924.755	0.0133578
924.833	0.0133692
924.911	0.0132901
924.989	0.0135450
925.068	0.0133771
925.146	0.0132693
925.224	0.0135163
925.302	0.0133704
925.380	0.0132775
925.458	0.0134844
925.536	0.0133706
925.614	0.0133436
925.693	0.0133589
925.771	0.0134535
925.849	0.0135960
925.927	0.0135165
926.005	0.0133295
926.083	0.0134349
926.161	0.0133792
926.239	0.0133904
926.318	0.0133416
926.396	0.0135881
926.474	0.0134993
926.552	0.0133981
926.630	0.0134557
926.708	0.0135646
926.786	0.0135105
926.864	0.0134629
926.943	0.0135413
927.021	0.0136434
927.099	0.0135026
927.177	0.0136374
927.255	0.0136516
927.333	0.0136983
927.411	0.0136755
927.489	0.0136278
927.568	0.0136356
927.646	0.0136694
927.724	0.0136473
927.802	0.0136128
927.880	0.0137183
927.958	0.0136926
928.036	0.0136150
928.114	0.0135786
928.193	0.0135364
928.271	0.0134536
928.349	0.0135431
928.427	0.0134159
928.505	0.0133471
928.583	0.0133425
928.661	0.0133160
928.739	0.0135308
928.818	0.0134305
928.896	0.0135060
928.974	0.0133863
929.052	0.0134646
929.130	0.0135700
929.208	0.0135945
929.286	0.0136153
929.364	0.0136812
929.443	0.0137747
929.521	0.0137511
929.599	0.0138261
929.677	0.0138306
929.755	0.0138696
929.833	0.0138648
929.911	0.0138734
929.989	0.0137853
930.068	0.0138059
930.146	0.0138494
930.224	0.0138486
930.302	0.0137180
930.380	0.0135944
930.458	0.0135500
930.536	0.0136062
930.614	0.0136317
930.693	0.0134322
930.771	0.0134472
930.849	0.0134798
930.927	0.0134992
931.005	0.0135631
931.083	0.0134013
931.161	0.0132654
931.239	0.0132510
931.318	0.0133258
931.396	0.0132107
931.474	0.0134168
931.552	0.0133035
931.630	0.0133192
931.708	0.0133566
931.786	0.0132782
931.864	0.0131887
931.943	0.0133495
932.021	0.0131865
932.099	0.0132750
932.177	0.0133294
932.255	0.0135577
932.333	0.0132259
932.411	0.0133194
932.489	0.0133741
932.568	0.0133415
932.646	0.0133504
932.724	0.0134385
932.802	0.0134533
932.880	0.0134863
932.958	0.0133742
933.036	0.0136592
933.114	0.0136147
933.193	0.0135544
933.271	0.0135316
933.349	0.0136806
933.427	0.0136557
933.505	0.0136208
933.583	0.0136324
933.661	0.0137083
933.739	0.0137104
933.818	0.0138258
933.896	0.0137786
933.974	0.0137118
934.052	0.0138026
934.130	0.0138687
934.208	0.0139026
934.286	0.0138081
934.364	0.0138880
934.443	0.0138741
934.521	0.0140234
934.599	0.0138607
934.677	0.0138651
934.755	0.0137717
934.833	0.0140222
934.911	0.0139177
934.989	0.0136399
935.068	0.0136688
935.146	0.0137743
935.224	0.0137266
935.302	0.0134666
935.380	0.0135753
935.458	0.0135152
935.536	0.0134058
935.614	0.0133553
935.693	0.0134325
935.771	0.0133530
935.849	0.0132186
935.927	0.0133157
936.005	0.0132111
936.083	0.0132648
936.161	0.0131985
936.239	0.0130385
936.318	0.0131786
936.396	0.0131284
936.474	0.0132633
936.552	0.0131269
936.630	0.0133003
936.708	0.0132172
936.786	0.0132125
936.864	0.0132400
936.943	0.0133151
937.021	0.0134885
937.099	0.0133910
937.177	0.0135204
937.255	0.0134779
937.333	0.0135728
937.411	0.0135962
937.489	0.0136292
937.568	0.0134595
937.646	0.0135760
937.724	0.0136330
937.802	0.0136774
937.880	0.0135744
937.958	0.0136358
938.036	0.0136679
938.114	0.0135779
938.193	0.0136362
938.271	0.0136467
938.349	0.0136643
938.427	0.0136208
938.505	0.0135791
938.583	0.0136795
938.661	0.0136530
938.739	0.0137289
938.818	0.0138469
938.896	0.0137167
938.974	0.0138326
939.052	0.0137477
939.130	0.0137380
939.208	0.0136536
939.286	0.0137601
939.364	0.0137419
939.443	0.0138256
939.521	0.0137474
939.599	0.0136906
939.677	0.0136629
939.755	0.0136566
939.833	0.0137614
939.911	0.0135928
939.989	0.0135954
940.068	0.0135371
940.146	0.0135635
940.224	0.0133915
940.302	0.0133369
940.380	0.0133533
940.458	0.0134814
940.536	0.0132742
940.614	0.0131859
940.693	0.0133205
940.771	0.0133525
940.849	0.0132584
940.927	0.0132219
941.005	0.0132426
941.083	0.0133060
941.161	0.0133741
941.239	0.0133323
941.318	0.0132818
941.396	0.0132538
941.474	0.0134521
941.552	0.0131550
941.630	0.0133309
941.708	0.0134340
941.786	0.0133826
941.864	0.0134129
941.943	0.0134618
942.021	0.0135854
942.099	0.0136324
942.177	0.0136587
942.255	0.0136683
942.333	0.0137626
942.411	0.0137435
942.489	0.0138596
942.568	0.0139610
942.646	0.0139635
942.724	0.0138751
942.802	0.0139441
942.880	0.0140025
942.958	0.0139547
943.036	0.0138439
943.114	0.0139396
943.193	0.0139890
943.271	0.0137137
943.349	0.0137970
943.427	0.0139108
943.505	0.0137562
943.583	0.0137067
943.661	0.0137626
943.739	0.0136056
943.818	0.0136288
943.896	0.0133623
943.974	0.0134824
944.052	0.0132297
944.130	0.0133170
944.208	0.0134345
944.286	0.0132689
944.364	0.0132044
944.443	0.0133182
944.521	0.0130971
944.599	0.0130987
944.677	0.0130332
944.755	0.0130170
944.833	0.0130944
944.911	0.0131758
944.989	0.0132024
945.068	0.0131863
945.146	0.0132317
945.224	0.0132888
945.302	0.0132646
945.380	0.0132247
945.458	0.0132885
945.536	0.0133549
945.614	0.0133577
945.693	0.0134911
945.771	0.0133463
945.849	0.0134682
945.927	0.0135142
946.005	0.0136005
946.083	0.0136748
946.161	0.0137396
946.239	0.0138004
946.318	0.0137035
946.396	0.0137617
946.474	0.0138520
946.552	0.0138499
946.630	0.0138297
946.708	0.0139085
946.786	0.0139208
946.864	0.0140340
946.943	0.0139240
947.021	0.0138979
947.099	0.0139872
947.177	0.0137653
947.255	0.0137585
947.333	0.0138089
947.411	0.0136165
947.489	0.0136407
947.568	0.0136213
947.646	0.0135468
947.724	0.0135201
947.802	0.0134521
947.880	0.0134211
947.958	0.0132773
948.036	0.0133624
948.114	0.0132750
948.193	0.0132870
948.271	0.0132582
948.349	0.0131474
948.427	0.0132288
948.505	0.0132390
948.583	0.0133886
948.661	0.0133014
948.739	0.0133305
948.818	0.0135006
948.896	0.0133937
948.974	0.0134129
949.052	0.0134594
949.130	0.0133154
949.208	0.0134622
949.286	0.0133717
949.364	0.0135207
949.443	0.0134035
949.521	0.0133240
949.599	0.0134648
949.677	0.0134206
949.755	0.0134855
949.833	0.0134042
949.911	0.0133633
949.989	0.0133989
950.068	0.0133578
950.146	0.0134162
950.224	0.0134361
950.302	0.0135128
950.380	0.0133968
950.458	0.0135185
950.536	0.0134708
950.614	0.0134659
950.693	0.0133901
950.771	0.0135354
950.849	0.0135522
950.927	0.0136197
951.005	0.0137322
951.083	0.0136769
951.161	0.0135297
951.239	0.0135873
951.318	0.0136153
951.396	0.0136636
951.474	0.0136550
951.552	0.0136301
951.630	0.0136433
951.708	0.0136857
951.786	0.0135758
951.864	0.0137364
951.943	0.0137325
952.021	0.0137291
952.099	0.0137151
952.177	0.0137230
952.255	0.0135690
952.333	0.0136782
952.411	0.0136151
952.489	0.0136661
952.568	0.0136087
952.646	0.0135806
952.724	0.0136526
952.802	0.0135917
952.880	0.0137155
952.958	0.0137733
953.036	0.0136149
953.114	0.0135442
953.193	0.0136100
953.271	0.0135258
953.349	0.0135785
953.427	0.0134303
953.505	0.0136525
953.583	0.0136503
953.661	0.0133842
953.739	0.0134322
953.818	0.0135152
953.896	0.0133652
953.974	0.0133760
954.052	0.0134506
954.130	0.0135634
954.208	0.0134462
954.286	0.0133991
954.364	0.0134409
954.443	0.0135052
954.521	0.0135077
954.599	0.0133511
954.677	0.0134911
954.755	0.0135576
954.833	0.0136069
954.911	0.0135429
954.989	0.0135451
955.068	0.0134534
955.146	0.0135382
955.224	0.0135353
955.302	0.0135181
955.380	0.0135442
955.458	0.0134472
955.536	0.0135432
955.614	0.0134585
955.693	0.0135072
955.771	0.0134976
955.849	0.0135077
955.927	0.0134079
956.005	0.0133034
956.083	0.0135114
956.161	0.0135711
956.239	0.0134457
956.318	0.0133969
956.396	0.0134756
956.474	0.0135225
956.552	0.0134116
956.630	0.0134370
956.708	0.0134214
956.786	0.0133488
956.864	0.0135426
956.943	0.0136024
957.021	0.0134238
957.099	0.0137541
957.177	0.0136867
957.255	0.0136818
957.333	0.0135256
957.411	0.0136462
957.489	0.0137202
957.568	0.0137894
957.646	0.0137952
957.724	0.0138043
957.802	0.0137853
957.880	0.0136365
957.958	0.0138213
958.036	0.0137168
958.114	0.0138250
958.193	0.0137397
958.271	0.0138001
958.349	0.0137136
958.427	0.0135005
958.505	0.0137236
958.583	0.0137112
958.661	0.0136403
958.739	0.0135727
958.818	0.0135955
958.896	0.0136080
958.974	0.0135767
959.052	0.0135987
959.130	0.0135832
959.208	0.0134663
959.286	0.0134660
959.364	0.0136000
959.443	0.0135298
959.521	0.0135748
959.599	0.0135022
959.677	0.0133156
959.755	0.0133818
959.833	0.0135081
959.911	0.0133791
