05/14/2022	16:27:26	Ver.	4.1	UNKNOWN
Optical Delay	639.989416	Delta X		0.078125	Sweeps	1	Scan Rate	0/0
Coordinates	Axis 1	NaN	Axis 2	NaN	Axis 3	NaN	Axis 4	NaN	Axis 5	NaN	Axis 6	0.000000
TX Power	0.000000	RX Power	0.000000

639.989	0.0137641
640.068	0.0138139
640.146	0.0137932
640.224	0.0139153
640.302	0.0136868
640.380	0.0137457
640.458	0.0138289
640.536	0.0136684
640.614	0.0138628
640.693	0.0138150
640.771	0.0136855
640.849	0.0137196
640.927	0.0138059
641.005	0.0139262
641.083	0.0135791
641.161	0.0139198
641.239	0.0136783
641.318	0.0137290
641.396	0.0138130
641.474	0.0137389
641.552	0.0137698
641.630	0.0138337
641.708	0.0137417
641.786	0.0136632
641.864	0.0137473
641.943	0.0137735
642.021	0.0138447
642.099	0.0137469
642.177	0.0139630
642.255	0.0138671
642.333	0.0138572
642.411	0.0137430
642.489	0.0138468
642.568	0.0137862
642.646	0.0138824
642.724	0.0138308
642.802	0.0138541
642.880	0.0138811
642.958	0.0139215
643.036	0.0138897
643.114	0.0139182
643.193	0.0137648
643.271	0.0139247
643.349	0.0139634
643.427	0.0139215
643.505	0.0138238
643.583	0.0137291
643.661	0.0138680
643.739	0.0138216
643.818	0.0136768
643.896	0.0138285
643.974	0.0139148
644.052	0.0137364
644.130	0.0137772
644.208	0.0139154
644.286	0.0137997
644.364	0.0136890
644.443	0.0138364
644.521	0.0138480
644.599	0.0138453
644.677	0.0137234
644.755	0.0138721
644.833	0.0139099
644.911	0.0137567
644.989	0.0138364
645.068	0.0136971
645.146	0.0137730
645.224	0.0137859
645.302	0.0138123
645.380	0.0137156
645.458	0.0138105
645.536	0.0137948
645.614	0.0137115
645.693	0.0138731
645.771	0.0137569
645.849	0.0137463
645.927	0.0139014
646.005	0.0139217
646.083	0.0137569
646.161	0.0139176
646.239	0.0139328
646.318	0.0137495
646.396	0.0138475
646.474	0.0138957
646.552	0.0138983
646.630	0.0137685
646.708	0.0138190
646.786	0.0139175
646.864	0.0137040
646.943	0.0137504
647.021	0.0138000
647.099	0.0138023
647.177	0.0138271
647.255	0.0138454
647.333	0.0137238
647.411	0.0138432
647.489	0.0138380
647.568	0.0137154
647.646	0.0136314
647.724	0.0137924
647.802	0.0138889
647.880	0.0138006
647.958	0.0139678
648.036	0.0138301
648.114	0.0137280
648.193	0.0137808
648.271	0.0137383
648.349	0.0138409
648.427	0.0138142
648.505	0.0137936
648.583	0.0137259
648.661	0.0137651
648.739	0.0137535
648.818	0.0138956
648.896	0.0137572
648.974	0.0138882
649.052	0.0138046
649.130	0.0136919
649.208	0.0137987
649.286	0.0137635
649.364	0.0138367
649.443	0.0137596
649.521	0.0138850
649.599	0.0137840
649.677	0.0138433
649.755	0.0138637
649.833	0.0137467
649.911	0.0136015
649.989	0.0137419
650.068	0.0137526
650.146	0.0137146
650.224	0.0139144
650.302	0.0137778
650.380	0.0137804
650.458	0.0137782
650.536	0.0137341
650.614	0.0136268
650.693	0.0137610
650.771	0.0137257
650.849	0.0138426
650.927	0.0138531
651.005	0.0138340
651.083	0.0138389
651.161	0.0137194
651.239	0.0138224
651.318	0.0137710
651.396	0.0137823
651.474	0.0137418
651.552	0.0138485
651.630	0.0137915
651.708	0.0138261
651.786	0.0137622
651.864	0.0138260
651.943	0.0138486
652.021	0.0137206
652.099	0.0137508
652.177	0.0138531
652.255	0.0136907
652.333	0.0138901
652.411	0.0137663
652.489	0.0136287
652.568	0.0137854
652.646	0.0136639
652.724	0.0137037
652.802	0.0137688
652.880	0.0138527
652.958	0.0138950
653.036	0.0136730
653.114	0.0137927
653.193	0.0137383
653.271	0.0136824
653.349	0.0137571
653.427	0.0138528
653.505	0.0139264
653.583	0.0137815
653.661	0.0138767
653.739	0.0137279
653.818	0.0138068
653.896	0.0138966
653.974	0.0137446
654.052	0.0137613
654.130	0.0137798
654.208	0.0138120
654.286	0.0139632
654.364	0.0138298
654.443	0.0138654
654.521	0.0139015
654.599	0.0136266
654.677	0.0137447
654.755	0.0137256
654.833	0.0138394
654.911	0.0137551
654.989	0.0137747
655.068	0.0137284
655.146	0.0139162
655.224	0.0138194
655.302	0.0137947
655.380	0.0138020
655.458	0.0136967
655.536	0.0138625
655.614	0.0138601
655.693	0.0137539
655.771	0.0137200
655.849	0.0138891
655.927	0.0137878
656.005	0.0137557
656.083	0.0138620
656.161	0.0138187
656.239	0.0138414
656.318	0.0137358
656.396	0.0138145
656.474	0.0138489
656.552	0.0138690
656.630	0.0137721
656.708	0.0136583
656.786	0.0138462
656.864	0.0138647
656.943	0.0137983
657.021	0.0136938
657.099	0.0137829
657.177	0.0138613
657.255	0.0136131
657.333	0.0138056
657.411	0.0136739
657.489	0.0137822
657.568	0.0138563
657.646	0.0137266
657.724	0.0137793
657.802	0.0138181
657.880	0.0137699
657.958	0.0137749
658.036	0.0138194
658.114	0.0137993
658.193	0.0138940
658.271	0.0138737
658.349	0.0138216
658.427	0.0137967
658.505	0.0137570
658.583	0.0136679
658.661	0.0138428
658.739	0.0138363
658.818	0.0140253
658.896	0.0139721
658.974	0.0138023
659.052	0.0139256
659.130	0.0137878
659.208	0.0137763
659.286	0.0137071
659.364	0.0137627
659.443	0.0138528
659.521	0.0137794
659.599	0.0139275
659.677	0.0137481
659.755	0.0137753
659.833	0.0137240
659.911	0.0137354
659.989	0.0138178
660.068	0.0139173
660.146	0.0137630
660.224	0.0137922
660.302	0.0139063
660.380	0.0136932
660.458	0.0138006
660.536	0.0137355
660.614	0.0137679
660.693	0.0137455
660.771	0.0137123
660.849	0.0139198
660.927	0.0137876
661.005	0.0137724
661.083	0.0137804
661.161	0.0138558
661.239	0.0138302
661.318	0.0137988
661.396	0.0138963
661.474	0.0138839
661.552	0.0137823
661.630	0.0137675
661.708	0.0138145
661.786	0.0137971
661.864	0.0136781
661.943	0.0138854
662.021	0.0137540
662.099	0.0138572
662.177	0.0138892
662.255	0.0138319
662.333	0.0137659
662.411	0.0138060
662.489	0.0138022
662.568	0.0138857
662.646	0.0136794
662.724	0.0138086
662.802	0.0138518
662.880	0.0138116
662.958	0.0137397
663.036	0.0137888
663.114	0.0138558
663.193	0.0138917
663.271	0.0138479
663.349	0.0137836
663.427	0.0138109
663.505	0.0138025
663.583	0.0138412
663.661	0.0138050
663.739	0.0138554
663.818	0.0139259
663.896	0.0139513
663.974	0.0139328
664.052	0.0138069
664.130	0.0137691
664.208	0.0137721
664.286	0.0137349
664.364	0.0136682
664.443	0.0138337
664.521	0.0138132
664.599	0.0138444
664.677	0.0138462
664.755	0.0138461
664.833	0.0138573
664.911	0.0137755
664.989	0.0138267
665.068	0.0138534
665.146	0.0138523
665.224	0.0139805
665.302	0.0139496
665.380	0.0138662
665.458	0.0138828
665.536	0.0138232
665.614	0.0138577
665.693	0.0138276
665.771	0.0139723
665.849	0.0137466
665.927	0.0137397
666.005	0.0139114
666.083	0.0138309
666.161	0.0137196
666.239	0.0136300
666.318	0.0136858
666.396	0.0137356
666.474	0.0139081
666.552	0.0139997
666.630	0.0137682
666.708	0.0137523
666.786	0.0137965
666.864	0.0138555
666.943	0.0138039
667.021	0.0138187
667.099	0.0138829
667.177	0.0137597
667.255	0.0139109
667.333	0.0138050
667.411	0.0137714
667.489	0.0138782
667.568	0.0139458
667.646	0.0138435
667.724	0.0137605
667.802	0.0139347
667.880	0.0138623
667.958	0.0138493
668.036	0.0138087
668.114	0.0138000
668.193	0.0138322
668.271	0.0136830
668.349	0.0137534
668.427	0.0137451
668.505	0.0138368
668.583	0.0137424
668.661	0.0138012
668.739	0.0138049
668.818	0.0137099
668.896	0.0137883
668.974	0.0137842
669.052	0.0138348
669.130	0.0137711
669.208	0.0138229
669.286	0.0138673
669.364	0.0137423
669.443	0.0138025
669.521	0.0137828
669.599	0.0137572
669.677	0.0136602
669.755	0.0137852
669.833	0.0139283
669.911	0.0138004
669.989	0.0138296
670.068	0.0137514
670.146	0.0139057
670.224	0.0137544
670.302	0.0137891
670.380	0.0138517
670.458	0.0136824
670.536	0.0137910
670.614	0.0139398
670.693	0.0138611
670.771	0.0138405
670.849	0.0137457
670.927	0.0139175
671.005	0.0138420
671.083	0.0138860
671.161	0.0136992
671.239	0.0138542
671.318	0.0137080
671.396	0.0138479
671.474	0.0140145
671.552	0.0137441
671.630	0.0139299
671.708	0.0138434
671.786	0.0137537
671.864	0.0138162
671.943	0.0138725
672.021	0.0140172
672.099	0.0140123
672.177	0.0137965
672.255	0.0137891
672.333	0.0138052
672.411	0.0137748
672.489	0.0138282
672.568	0.0138811
672.646	0.0139034
672.724	0.0138086
672.802	0.0137436
672.880	0.0137460
672.958	0.0138049
673.036	0.0138927
673.114	0.0138256
673.193	0.0138838
673.271	0.0138322
673.349	0.0138774
673.427	0.0138492
673.505	0.0137578
673.583	0.0137106
673.661	0.0139286
673.739	0.0137765
673.818	0.0139368
673.896	0.0137959
673.974	0.0138113
674.052	0.0139161
674.130	0.0138215
674.208	0.0139497
674.286	0.0138117
674.364	0.0136840
674.443	0.0138271
674.521	0.0138638
674.599	0.0137539
674.677	0.0137839
674.755	0.0138217
674.833	0.0137427
674.911	0.0137723
674.989	0.0137324
675.068	0.0137807
675.146	0.0138074
675.224	0.0138496
675.302	0.0137608
675.380	0.0138560
675.458	0.0137473
675.536	0.0138821
675.614	0.0139053
675.693	0.0138495
675.771	0.0138084
675.849	0.0137586
675.927	0.0137321
676.005	0.0137754
676.083	0.0137564
676.161	0.0138140
676.239	0.0137855
676.318	0.0138486
676.396	0.0136222
676.474	0.0137395
676.552	0.0138537
676.630	0.0136555
676.708	0.0137276
676.786	0.0138994
676.864	0.0138482
676.943	0.0137655
677.021	0.0137977
677.099	0.0136661
677.177	0.0137967
677.255	0.0137978
677.333	0.0136926
677.411	0.0137701
677.489	0.0138137
677.568	0.0137708
677.646	0.0137035
677.724	0.0138022
677.802	0.0138412
677.880	0.0136208
677.958	0.0136399
678.036	0.0138710
678.114	0.0139034
678.193	0.0137575
678.271	0.0137680
678.349	0.0137709
678.427	0.0137167
678.505	0.0136933
678.583	0.0137814
678.661	0.0138050
678.739	0.0138545
678.818	0.0136850
678.896	0.0136780
678.974	0.0137435
679.052	0.0137701
679.130	0.0136427
679.208	0.0136823
679.286	0.0136765
679.364	0.0136401
679.443	0.0137760
679.521	0.0137938
679.599	0.0138658
679.677	0.0137283
679.755	0.0136813
679.833	0.0137064
679.911	0.0137576
679.989	0.0138139
680.068	0.0138643
680.146	0.0138649
680.224	0.0139207
680.302	0.0138472
680.380	0.0138834
680.458	0.0136995
680.536	0.0137840
680.614	0.0138115
680.693	0.0137248
680.771	0.0137752
680.849	0.0138641
680.927	0.0138512
681.005	0.0136467
681.083	0.0136993
681.161	0.0137741
681.239	0.0138325
681.318	0.0137173
681.396	0.0137140
681.474	0.0138993
681.552	0.0138303
681.630	0.0137981
681.708	0.0136675
681.786	0.0137086
681.864	0.0136958
681.943	0.0138446
682.021	0.0137625
682.099	0.0138068
682.177	0.0137441
682.255	0.0138391
682.333	0.0137961
682.411	0.0137995
682.489	0.0138202
682.568	0.0138783
682.646	0.0137557
682.724	0.0135967
682.802	0.0137186
682.880	0.0138204
682.958	0.0137642
683.036	0.0136607
683.114	0.0138290
683.193	0.0137865
683.271	0.0137930
683.349	0.0137914
683.427	0.0137368
683.505	0.0137334
683.583	0.0138500
683.661	0.0138772
683.739	0.0138393
683.818	0.0137598
683.896	0.0137208
683.974	0.0137257
684.052	0.0137299
684.130	0.0138326
684.208	0.0138309
684.286	0.0139175
684.364	0.0139058
684.443	0.0139581
684.521	0.0139179
684.599	0.0139845
684.677	0.0138694
684.755	0.0138300
684.833	0.0139520
684.911	0.0137550
684.989	0.0138015
685.068	0.0138103
685.146	0.0135772
685.224	0.0135024
685.302	0.0134626
685.380	0.0134444
685.458	0.0133767
685.536	0.0134360
685.614	0.0133381
685.693	0.0135891
685.771	0.0134867
685.849	0.0136827
685.927	0.0136858
686.005	0.0139384
686.083	0.0140663
686.161	0.0142496
686.239	0.0144279
686.318	0.0143508
686.396	0.0143942
686.474	0.0143894
686.552	0.0144395
686.630	0.0143958
686.708	0.0141768
686.786	0.0140376
686.864	0.0138744
686.943	0.0137280
687.021	0.0135369
687.099	0.0132318
687.177	0.0131419
687.255	0.0128936
687.333	0.0127808
687.411	0.0127579
687.489	0.0128191
687.568	0.0128205
687.646	0.0127351
687.724	0.0127689
687.802	0.0129876
687.880	0.0130793
687.958	0.0131638
688.036	0.0135666
688.114	0.0138714
688.193	0.0140791
688.271	0.0144673
688.349	0.0147231
688.427	0.0150684
688.505	0.0154189
688.583	0.0156498
688.661	0.0156872
688.739	0.0157540
688.818	0.0157739
688.896	0.0156403
688.974	0.0154660
689.052	0.0151350
689.130	0.0149091
689.208	0.0142775
689.286	0.0137742
689.364	0.0134282
689.443	0.0129626
689.521	0.0125637
689.599	0.0121482
689.677	0.0118574
689.755	0.0116282
689.833	0.0113588
689.911	0.0112209
689.989	0.0112815
690.068	0.0113527
690.146	0.0116049
690.224	0.0118636
690.302	0.0120581
690.380	0.0123825
690.458	0.0129314
690.536	0.0133552
690.614	0.0135814
690.693	0.0140421
690.771	0.0143798
690.849	0.0146301
690.927	0.0151831
691.005	0.0154475
691.083	0.0157817
691.161	0.0160471
691.239	0.0162447
691.318	0.0164411
691.396	0.0166734
691.474	0.0166070
691.552	0.0166881
691.630	0.0167435
691.708	0.0164320
691.786	0.0162171
691.864	0.0158119
691.943	0.0154364
692.021	0.0150070
692.099	0.0146426
692.177	0.0140491
692.255	0.0136691
692.333	0.0130716
692.411	0.0127377
692.489	0.0122179
692.568	0.0117996
692.646	0.0116946
692.724	0.0113791
692.802	0.0110522
692.880	0.0109312
692.958	0.0107530
693.036	0.0106890
693.114	0.0104685
693.193	0.0104543
693.271	0.0105226
693.349	0.0106547
693.427	0.0107590
693.505	0.0109869
693.583	0.0112370
693.661	0.0115625
693.739	0.0118962
693.818	0.0125549
693.896	0.0131776
693.974	0.0136447
694.052	0.0144572
694.130	0.0152328
694.208	0.0158447
694.286	0.0164194
694.364	0.0168777
694.443	0.0177045
694.521	0.0182253
694.599	0.0184489
694.677	0.0187378
694.755	0.0189262
694.833	0.0188999
694.911	0.0186760
694.989	0.0185095
695.068	0.0180683
695.146	0.0177449
695.224	0.0172794
695.302	0.0166389
695.380	0.0159908
695.458	0.0152644
695.536	0.0145485
695.614	0.0137441
695.693	0.0129102
695.771	0.0121715
695.849	0.0112709
695.927	0.0106551
696.005	0.0103500
696.083	0.00994408
696.161	0.00958847
696.239	0.00950089
696.318	0.00932205
696.396	0.00943756
696.474	0.00951675
696.552	0.00970108
696.630	0.00989830
696.708	0.00996117
696.786	0.0103297
696.864	0.0107431
696.943	0.0109961
697.021	0.0111791
697.099	0.0115887
697.177	0.0118825
697.255	0.0123038
697.333	0.0126637
697.411	0.0130513
697.489	0.0134328
697.568	0.0139318
697.646	0.0143497
697.724	0.0150608
697.802	0.0155711
697.880	0.0160709
697.958	0.0165712
698.036	0.0169758
698.114	0.0173048
698.193	0.0177564
698.271	0.0179965
698.349	0.0181494
698.427	0.0183389
698.505	0.0184604
698.583	0.0181869
698.661	0.0182307
698.739	0.0181184
698.818	0.0177644
698.896	0.0175881
698.974	0.0174154
699.052	0.0170612
699.130	0.0167254
699.208	0.0163176
699.286	0.0159251
699.364	0.0153183
699.443	0.0146451
699.521	0.0137636
699.599	0.0132504
699.677	0.0125653
699.755	0.0117033
699.833	0.0111200
699.911	0.0104367
699.989	0.0100896
700.068	0.00964531
700.146	0.00932152
700.224	0.00914337
700.302	0.00909981
700.380	0.00914154
700.458	0.00925262
700.536	0.00934837
700.614	0.00963921
700.693	0.00976639
700.771	0.00997643
700.849	0.0102798
700.927	0.0106371
701.005	0.0110034
701.083	0.0113510
701.161	0.0116120
701.239	0.0120293
701.318	0.0123469
701.396	0.0128258
701.474	0.0130241
701.552	0.0132909
701.630	0.0136742
701.708	0.0141108
701.786	0.0145140
701.864	0.0150002
701.943	0.0152946
702.021	0.0155374
702.099	0.0159038
702.177	0.0164018
702.255	0.0166925
702.333	0.0172341
702.411	0.0175584
702.489	0.0177796
702.568	0.0181868
702.646	0.0182166
702.724	0.0181434
702.802	0.0180630
702.880	0.0179955
702.958	0.0176295
703.036	0.0174045
703.114	0.0171993
703.193	0.0168022
703.271	0.0165305
703.349	0.0160432
703.427	0.0158038
703.505	0.0153170
703.583	0.0149182
703.661	0.0148604
703.739	0.0145334
703.818	0.0143214
703.896	0.0138605
703.974	0.0135181
704.052	0.0131151
704.130	0.0127001
704.208	0.0121851
704.286	0.0117750
704.364	0.0112239
704.443	0.0108298
704.521	0.0106760
704.599	0.0102602
704.677	0.0101473
704.755	0.0101163
704.833	0.0102370
704.911	0.0102687
704.989	0.0103513
705.068	0.0105602
705.146	0.0107431
705.224	0.0107510
705.302	0.0108035
705.380	0.0109378
705.458	0.0108479
705.536	0.0107614
705.614	0.0109068
705.693	0.0106624
705.771	0.0108142
705.849	0.0109160
705.927	0.0111306
706.005	0.0113525
706.083	0.0115020
706.161	0.0117831
706.239	0.0121720
706.318	0.0125268
706.396	0.0128912
706.474	0.0132006
706.552	0.0135461
706.630	0.0139800
706.708	0.0143626
706.786	0.0150119
706.864	0.0156209
706.943	0.0163107
707.021	0.0170069
707.099	0.0178671
707.177	0.0186895
707.255	0.0195276
707.333	0.0202264
707.411	0.0207839
707.489	0.0210619
707.568	0.0213776
707.646	0.0214585
707.724	0.0216180
707.802	0.0213902
707.880	0.0209119
707.958	0.0205001
708.036	0.0198971
708.114	0.0191055
708.193	0.0183432
708.271	0.0176740
708.349	0.0166254
708.427	0.0158752
708.505	0.0147827
708.583	0.0140574
708.661	0.0129506
708.739	0.0121793
708.818	0.0111693
708.896	0.0101570
708.974	0.00914597
709.052	0.00828499
709.130	0.00754333
709.208	0.00680794
709.286	0.00626389
709.364	0.00584686
709.443	0.00543152
709.521	0.00553055
709.599	0.00562645
709.677	0.00614029
709.755	0.00656700
709.833	0.00724190
709.911	0.00795998
709.989	0.00864174
710.068	0.00943260
710.146	0.0100992
710.224	0.0107505
710.302	0.0114879
710.380	0.0117365
710.458	0.0119939
710.536	0.0124065
710.614	0.0127146
710.693	0.0128031
710.771	0.0129919
710.849	0.0133208
710.927	0.0136014
711.005	0.0137959
711.083	0.0143227
711.161	0.0145280
711.239	0.0152036
711.318	0.0158968
711.396	0.0163866
711.474	0.0169534
711.552	0.0178006
711.630	0.0184440
711.708	0.0191028
711.786	0.0198188
711.864	0.0203117
711.943	0.0209524
712.021	0.0212849
712.099	0.0216927
712.177	0.0218771
712.255	0.0221493
712.333	0.0220724
712.411	0.0217577
712.489	0.0215287
712.568	0.0210810
712.646	0.0205119
712.724	0.0197957
712.802	0.0188872
712.880	0.0179059
712.958	0.0169395
713.036	0.0158469
713.114	0.0149223
713.193	0.0137058
713.271	0.0123347
713.349	0.0113144
713.427	0.0103127
713.505	0.00910515
713.583	0.00822922
713.661	0.00725784
713.739	0.00669014
713.818	0.00599388
713.896	0.00546379
713.974	0.00530609
714.052	0.00518898
714.130	0.00538589
714.208	0.00553864
714.286	0.00601959
714.364	0.00671349
714.443	0.00744720
714.521	0.00816261
714.599	0.00885216
714.677	0.00951317
714.755	0.0103593
714.833	0.0110517
714.911	0.0113947
714.989	0.0119472
715.068	0.0123814
715.146	0.0126611
715.224	0.0129432
715.302	0.0132888
715.380	0.0134913
715.458	0.0138873
715.536	0.0142990
715.614	0.0146548
715.693	0.0149925
715.771	0.0151644
715.849	0.0156493
715.927	0.0158331
716.005	0.0161272
716.083	0.0164428
716.161	0.0166138
716.239	0.0172201
716.318	0.0175658
716.396	0.0179586
716.474	0.0182519
716.552	0.0186856
716.630	0.0191699
716.708	0.0193374
716.786	0.0195963
716.864	0.0197467
716.943	0.0199587
717.021	0.0198734
717.099	0.0199033
717.177	0.0197896
717.255	0.0190549
717.333	0.0188112
717.411	0.0183553
717.489	0.0176597
717.568	0.0170871
717.646	0.0162337
717.724	0.0153720
717.802	0.0146593
717.880	0.0138788
717.958	0.0129843
718.036	0.0122719
718.114	0.0116727
718.193	0.0108850
718.271	0.0102692
718.349	0.00965233
718.427	0.00930611
718.505	0.00906006
718.583	0.00901184
718.661	0.00892731
718.739	0.00915955
718.818	0.00931366
718.896	0.00980042
718.974	0.0101125
719.052	0.0104868
719.130	0.0108114
719.208	0.0113586
719.286	0.0118774
719.364	0.0121444
719.443	0.0121834
719.521	0.0121951
719.599	0.0122942
719.677	0.0121986
719.755	0.0120875
719.833	0.0119314
719.911	0.0116054
719.989	0.0114352
720.068	0.0112906
720.146	0.0112787
720.224	0.0111527
720.302	0.0112423
720.380	0.0113272
720.458	0.0115545
720.536	0.0118197
720.614	0.0119588
720.693	0.0123969
720.771	0.0128553
720.849	0.0134087
720.927	0.0141566
721.005	0.0147313
721.083	0.0153989
721.161	0.0161604
721.239	0.0167460
721.318	0.0174360
721.396	0.0180998
721.474	0.0187044
721.552	0.0188754
721.630	0.0192049
721.708	0.0193562
721.786	0.0194485
721.864	0.0193194
721.943	0.0191204
722.021	0.0188371
722.099	0.0183231
722.177	0.0178685
722.255	0.0174839
722.333	0.0167842
722.411	0.0161916
722.489	0.0157410
722.568	0.0152344
722.646	0.0147900
722.724	0.0142975
722.802	0.0139518
722.880	0.0134762
722.958	0.0131757
723.036	0.0129131
723.114	0.0126785
723.193	0.0125278
723.271	0.0121423
723.349	0.0119680
723.427	0.0119553
723.505	0.0118804
723.583	0.0117444
723.661	0.0117568
723.739	0.0117313
723.818	0.0117989
723.896	0.0118130
723.974	0.0120155
724.052	0.0118925
724.130	0.0120778
724.208	0.0120095
724.286	0.0120231
724.364	0.0119129
724.443	0.0117733
724.521	0.0117118
724.599	0.0114562
724.677	0.0116211
724.755	0.0115311
724.833	0.0115554
724.911	0.0117392
724.989	0.0118064
725.068	0.0118285
725.146	0.0121160
725.224	0.0124967
725.302	0.0126228
725.380	0.0128570
725.458	0.0132351
725.536	0.0134490
725.614	0.0135316
725.693	0.0138584
725.771	0.0139899
725.849	0.0141494
725.927	0.0141908
726.005	0.0141525
726.083	0.0144240
726.161	0.0146368
726.239	0.0147156
726.318	0.0150806
726.396	0.0152379
726.474	0.0154423
726.552	0.0155669
726.630	0.0157803
726.708	0.0159634
726.786	0.0160279
726.864	0.0161354
726.943	0.0160957
727.021	0.0160198
727.099	0.0159178
727.177	0.0159438
727.255	0.0157912
727.333	0.0157463
727.411	0.0157795
727.489	0.0155090
727.568	0.0154958
727.646	0.0154588
727.724	0.0154122
727.802	0.0153562
727.880	0.0152943
727.958	0.0150261
728.036	0.0149238
728.114	0.0148235
728.193	0.0145264
728.271	0.0142957
728.349	0.0139234
728.427	0.0134784
728.505	0.0132059
728.583	0.0129755
728.661	0.0127422
728.739	0.0124534
728.818	0.0124264
728.896	0.0120571
728.974	0.0119746
729.052	0.0118110
729.130	0.0118141
729.208	0.0118674
729.286	0.0119661
729.364	0.0120188
729.443	0.0120336
729.521	0.0122588
729.599	0.0124813
729.677	0.0124156
729.755	0.0128777
729.833	0.0129755
729.911	0.0131149
729.989	0.0133086
730.068	0.0134376
730.146	0.0136601
730.224	0.0137804
730.302	0.0137522
730.380	0.0141109
730.458	0.0140987
730.536	0.0144536
730.614	0.0145171
730.693	0.0144633
730.771	0.0145545
730.849	0.0146645
730.927	0.0144865
731.005	0.0143634
731.083	0.0144260
731.161	0.0142169
731.239	0.0140407
731.318	0.0137518
731.396	0.0135690
731.474	0.0133540
731.552	0.0131660
731.630	0.0130875
731.708	0.0128458
731.786	0.0124649
731.864	0.0126931
731.943	0.0125768
732.021	0.0128038
732.099	0.0128809
732.177	0.0130066
732.255	0.0133233
732.333	0.0135624
732.411	0.0140391
732.489	0.0141004
732.568	0.0146674
732.646	0.0150034
732.724	0.0152619
732.802	0.0153741
732.880	0.0155337
732.958	0.0159523
733.036	0.0160278
733.114	0.0161816
733.193	0.0160240
733.271	0.0159100
733.349	0.0157907
733.427	0.0155101
733.505	0.0151340
733.583	0.0150328
733.661	0.0145833
733.739	0.0140570
733.818	0.0135848
733.896	0.0132053
733.974	0.0129352
734.052	0.0123650
734.130	0.0122218
734.208	0.0119012
734.286	0.0117274
734.364	0.0116166
734.443	0.0115829
734.521	0.0116545
734.599	0.0118462
734.677	0.0119611
734.755	0.0121304
734.833	0.0124709
734.911	0.0130032
734.989	0.0133070
735.068	0.0137132
735.146	0.0141895
735.224	0.0145477
735.302	0.0150503
735.380	0.0151701
735.458	0.0156250
735.536	0.0157908
735.614	0.0158889
735.693	0.0157870
735.771	0.0157761
735.849	0.0156433
735.927	0.0153984
736.005	0.0152951
736.083	0.0147873
736.161	0.0143340
736.239	0.0138240
736.318	0.0135758
736.396	0.0130698
736.474	0.0127421
736.552	0.0123962
736.630	0.0121544
736.708	0.0118490
736.786	0.0118206
736.864	0.0119064
736.943	0.0118539
737.021	0.0119458
737.099	0.0122543
737.177	0.0124274
737.255	0.0126689
737.333	0.0130200
737.411	0.0133883
737.489	0.0133971
737.568	0.0137514
737.646	0.0141528
737.724	0.0143591
737.802	0.0144106
737.880	0.0147401
737.958	0.0147713
738.036	0.0149017
738.114	0.0149268
738.193	0.0148642
738.271	0.0148674
738.349	0.0148785
738.427	0.0148887
738.505	0.0146952
738.583	0.0146320
738.661	0.0144522
738.739	0.0143940
738.818	0.0141898
738.896	0.0140691
738.974	0.0138009
739.052	0.0135686
739.130	0.0134875
739.208	0.0133595
739.286	0.0133462
739.364	0.0131994
739.443	0.0130547
739.521	0.0133132
739.599	0.0132370
739.677	0.0132983
739.755	0.0133321
739.833	0.0133776
739.911	0.0134850
739.989	0.0136707
740.068	0.0136964
740.146	0.0138171
740.224	0.0138991
740.302	0.0139410
740.380	0.0139702
740.458	0.0139230
740.536	0.0140034
740.614	0.0140193
740.693	0.0140962
740.771	0.0140202
740.849	0.0142285
740.927	0.0142303
741.005	0.0142148
741.083	0.0140407
741.161	0.0141398
741.239	0.0141759
741.318	0.0141596
741.396	0.0140186
741.474	0.0140327
741.552	0.0138675
741.630	0.0137982
741.708	0.0136723
741.786	0.0137189
741.864	0.0136912
741.943	0.0134877
742.021	0.0134366
742.099	0.0133395
742.177	0.0134278
742.255	0.0132558
742.333	0.0131995
742.411	0.0132725
742.489	0.0132639
742.568	0.0133274
742.646	0.0133649
742.724	0.0133930
742.802	0.0136526
742.880	0.0136556
742.958	0.0137423
743.036	0.0138067
743.114	0.0139758
743.193	0.0141628
743.271	0.0143407
743.349	0.0142180
743.427	0.0143932
743.505	0.0145201
743.583	0.0144048
743.661	0.0144225
743.739	0.0142838
743.818	0.0141058
743.896	0.0140781
743.974	0.0138203
744.052	0.0138382
744.130	0.0135403
744.208	0.0134476
744.286	0.0132496
744.364	0.0130148
744.443	0.0130437
744.521	0.0129751
744.599	0.0129599
744.677	0.0130788
744.755	0.0129899
744.833	0.0132319
744.911	0.0131960
744.989	0.0134325
745.068	0.0136095
745.146	0.0137222
745.224	0.0137399
745.302	0.0138395
745.380	0.0140131
745.458	0.0140716
745.536	0.0140583
745.614	0.0141029
745.693	0.0141534
745.771	0.0139330
745.849	0.0138013
745.927	0.0138576
746.005	0.0138923
746.083	0.0138268
746.161	0.0137251
746.239	0.0136893
746.318	0.0136684
746.396	0.0137152
746.474	0.0136682
746.552	0.0137830
746.630	0.0139599
746.708	0.0138976
746.786	0.0139206
746.864	0.0142165
746.943	0.0141341
747.021	0.0142044
747.099	0.0143590
747.177	0.0144608
747.255	0.0145701
747.333	0.0146421
747.411	0.0147442
747.489	0.0148457
747.568	0.0147559
747.646	0.0148880
747.724	0.0148195
747.802	0.0146606
747.880	0.0145885
747.958	0.0144668
748.036	0.0144954
748.114	0.0142459
748.193	0.0139387
748.271	0.0138239
748.349	0.0139143
748.427	0.0137749
748.505	0.0134328
748.583	0.0132604
748.661	0.0133092
748.739	0.0131733
748.818	0.0132943
748.896	0.0130271
748.974	0.0129156
749.052	0.0130954
749.130	0.0131393
749.208	0.0131825
749.286	0.0133833
749.364	0.0134285
749.443	0.0134822
749.521	0.0135000
749.599	0.0135448
749.677	0.0137083
749.755	0.0136903
749.833	0.0136320
749.911	0.0136929
749.989	0.0136380
750.068	0.0137597
750.146	0.0136504
750.224	0.0134737
750.302	0.0135854
750.380	0.0135060
750.458	0.0134129
750.536	0.0134644
750.614	0.0136559
750.693	0.0133845
750.771	0.0133221
750.849	0.0134987
750.927	0.0136655
751.005	0.0137623
751.083	0.0137990
751.161	0.0139000
751.239	0.0138410
751.318	0.0141669
751.396	0.0143031
751.474	0.0140768
751.552	0.0142144
751.630	0.0143764
751.708	0.0145130
751.786	0.0142831
751.864	0.0143907
751.943	0.0144318
752.021	0.0144706
752.099	0.0142599
752.177	0.0142648
752.255	0.0143710
752.333	0.0143183
752.411	0.0141148
752.489	0.0140543
752.568	0.0141846
752.646	0.0139654
752.724	0.0139771
752.802	0.0141460
752.880	0.0141230
752.958	0.0140665
753.036	0.0140789
753.114	0.0139755
753.193	0.0139352
753.271	0.0139264
753.349	0.0139378
753.427	0.0137657
753.505	0.0137126
753.583	0.0137541
753.661	0.0137326
753.739	0.0136469
753.818	0.0135811
753.896	0.0135807
753.974	0.0134171
754.052	0.0134877
754.130	0.0133255
754.208	0.0133021
754.286	0.0134039
754.364	0.0134247
754.443	0.0134013
754.521	0.0134694
754.599	0.0134132
754.677	0.0133792
754.755	0.0135313
754.833	0.0134448
754.911	0.0136056
754.989	0.0136539
755.068	0.0136528
755.146	0.0138148
755.224	0.0138398
755.302	0.0138840
755.380	0.0140872
755.458	0.0139986
755.536	0.0140760
755.614	0.0142277
755.693	0.0142862
755.771	0.0142107
755.849	0.0142523
755.927	0.0141765
756.005	0.0141798
756.083	0.0142857
756.161	0.0141292
756.239	0.0139506
756.318	0.0138206
756.396	0.0139400
756.474	0.0138602
756.552	0.0137511
756.630	0.0137010
756.708	0.0135672
756.786	0.0133437
756.864	0.0133160
756.943	0.0133035
757.021	0.0133089
757.099	0.0132032
757.177	0.0131698
757.255	0.0134042
757.333	0.0132590
757.411	0.0133366
757.489	0.0133601
757.568	0.0133315
757.646	0.0135624
757.724	0.0134917
757.802	0.0136983
757.880	0.0136450
757.958	0.0136238
758.036	0.0136811
758.114	0.0136086
758.193	0.0138338
758.271	0.0138380
758.349	0.0138667
758.427	0.0139446
758.505	0.0138028
758.583	0.0139782
758.661	0.0141664
758.739	0.0139042
758.818	0.0139129
758.896	0.0140339
758.974	0.0140063
759.052	0.0140124
759.130	0.0139137
759.208	0.0139053
759.286	0.0140170
759.364	0.0139030
759.443	0.0140305
759.521	0.0139003
759.599	0.0140137
759.677	0.0139451
759.755	0.0136553
759.833	0.0137901
759.911	0.0137899
759.989	0.0138047
760.068	0.0138367
760.146	0.0137504
760.224	0.0137315
760.302	0.0137827
760.380	0.0137691
760.458	0.0139407
760.536	0.0140645
760.614	0.0140476
760.693	0.0140834
760.771	0.0141288
760.849	0.0139460
760.927	0.0139976
761.005	0.0142027
761.083	0.0140798
761.161	0.0140878
761.239	0.0140694
761.318	0.0139336
761.396	0.0139472
761.474	0.0137509
761.552	0.0139361
761.630	0.0138420
761.708	0.0136158
761.786	0.0136462
761.864	0.0136562
761.943	0.0133774
762.021	0.0136301
762.099	0.0135622
762.177	0.0134501
762.255	0.0134045
762.333	0.0133723
762.411	0.0134274
762.489	0.0134600
762.568	0.0134757
762.646	0.0136470
762.724	0.0136102
762.802	0.0135715
762.880	0.0136514
762.958	0.0137206
763.036	0.0135787
763.114	0.0137057
763.193	0.0137815
763.271	0.0137634
763.349	0.0137871
763.427	0.0137328
763.505	0.0136766
763.583	0.0135811
763.661	0.0137405
763.739	0.0136845
763.818	0.0135821
763.896	0.0136304
763.974	0.0135356
764.052	0.0133736
764.130	0.0134786
764.208	0.0135441
764.286	0.0134605
764.364	0.0135615
764.443	0.0133836
764.521	0.0135391
764.599	0.0135058
764.677	0.0135212
764.755	0.0135352
764.833	0.0136207
764.911	0.0135825
764.989	0.0135995
765.068	0.0137137
765.146	0.0137148
765.224	0.0138023
765.302	0.0137797
765.380	0.0137316
765.458	0.0138813
765.536	0.0139073
765.614	0.0139742
765.693	0.0138691
765.771	0.0139490
765.849	0.0138424
765.927	0.0139628
766.005	0.0139059
766.083	0.0139796
766.161	0.0140569
766.239	0.0139121
766.318	0.0140545
766.396	0.0138890
766.474	0.0137923
766.552	0.0137402
766.630	0.0139216
766.708	0.0138574
766.786	0.0138029
766.864	0.0137196
766.943	0.0137444
767.021	0.0138403
767.099	0.0139248
767.177	0.0138465
767.255	0.0137564
767.333	0.0138602
767.411	0.0136722
767.489	0.0137684
767.568	0.0138740
767.646	0.0136790
767.724	0.0138109
767.802	0.0139045
767.880	0.0137453
767.958	0.0138432
768.036	0.0139226
768.114	0.0139072
768.193	0.0138371
768.271	0.0138295
768.349	0.0139420
768.427	0.0140244
768.505	0.0137917
768.583	0.0138911
768.661	0.0139832
768.739	0.0138489
768.818	0.0137138
768.896	0.0138387
768.974	0.0138206
769.052	0.0138187
769.130	0.0137296
769.208	0.0135851
769.286	0.0136736
769.364	0.0136205
769.443	0.0134900
769.521	0.0134786
769.599	0.0135065
769.677	0.0134210
769.755	0.0134365
769.833	0.0134428
769.911	0.0134757
769.989	0.0133445
770.068	0.0134207
770.146	0.0134215
770.224	0.0135566
770.302	0.0134354
770.380	0.0134972
770.458	0.0135474
770.536	0.0137157
770.614	0.0136211
770.693	0.0137798
770.771	0.0139183
770.849	0.0138527
770.927	0.0139184
771.005	0.0140357
771.083	0.0139959
771.161	0.0140500
771.239	0.0139702
771.318	0.0140038
771.396	0.0140142
771.474	0.0140098
771.552	0.0140096
771.630	0.0140155
771.708	0.0139063
771.786	0.0138543
771.864	0.0138539
771.943	0.0138818
772.021	0.0139525
772.099	0.0139785
772.177	0.0140092
772.255	0.0139239
772.333	0.0138885
772.411	0.0141003
772.489	0.0138764
772.568	0.0139651
772.646	0.0139409
772.724	0.0140418
772.802	0.0139455
772.880	0.0141465
772.958	0.0141267
773.036	0.0140637
773.114	0.0140822
773.193	0.0140797
773.271	0.0140074
773.349	0.0139246
773.427	0.0140142
773.505	0.0140229
773.583	0.0139157
773.661	0.0139011
773.739	0.0139000
773.818	0.0138184
773.896	0.0138178
773.974	0.0138672
774.052	0.0136674
774.130	0.0135564
774.208	0.0135419
774.286	0.0135681
774.364	0.0135139
774.443	0.0134875
774.521	0.0135101
774.599	0.0135377
774.677	0.0133763
774.755	0.0134267
774.833	0.0135735
774.911	0.0135390
774.989	0.0134277
775.068	0.0134128
775.146	0.0136361
775.224	0.0135960
775.302	0.0137320
775.380	0.0136568
775.458	0.0136488
775.536	0.0135967
775.614	0.0136358
775.693	0.0136523
775.771	0.0137170
775.849	0.0137699
775.927	0.0136257
776.005	0.0138079
776.083	0.0136736
776.161	0.0137302
776.239	0.0138317
776.318	0.0138700
776.396	0.0138621
776.474	0.0139253
776.552	0.0139208
776.630	0.0141112
776.708	0.0140739
776.786	0.0140214
776.864	0.0140964
776.943	0.0141323
777.021	0.0142192
777.099	0.0141510
777.177	0.0142389
777.255	0.0142907
777.333	0.0142926
777.411	0.0141869
777.489	0.0142529
777.568	0.0140945
777.646	0.0141894
777.724	0.0141800
777.802	0.0139885
777.880	0.0138908
777.958	0.0139252
778.036	0.0138213
778.114	0.0138022
778.193	0.0138103
778.271	0.0137716
778.349	0.0138866
778.427	0.0137176
778.505	0.0137632
778.583	0.0134666
778.661	0.0135796
778.739	0.0136666
778.818	0.0137446
778.896	0.0136667
778.974	0.0136909
779.052	0.0136346
779.130	0.0137210
779.208	0.0136112
779.286	0.0135182
779.364	0.0136549
779.443	0.0136143
779.521	0.0134866
779.599	0.0136185
779.677	0.0134660
779.755	0.0134431
779.833	0.0135201
779.911	0.0136462
779.989	0.0135162
780.068	0.0135226
780.146	0.0134700
780.224	0.0134546
780.302	0.0133953
780.380	0.0135457
780.458	0.0134438
780.536	0.0136826
780.614	0.0136236
780.693	0.0135482
780.771	0.0136633
780.849	0.0138025
780.927	0.0140256
781.005	0.0140534
781.083	0.0139948
781.161	0.0142027
781.239	0.0141508
781.318	0.0142164
781.396	0.0143899
781.474	0.0142886
781.552	0.0142463
781.630	0.0142416
781.708	0.0142117
781.786	0.0142278
781.864	0.0140398
781.943	0.0140826
782.021	0.0139522
782.099	0.0139149
782.177	0.0138422
782.255	0.0138995
782.333	0.0138461
782.411	0.0137118
782.489	0.0138451
782.568	0.0135250
782.646	0.0136082
782.724	0.0136971
782.802	0.0137155
782.880	0.0137350
782.958	0.0135729
783.036	0.0137321
783.114	0.0137517
783.193	0.0137395
783.271	0.0137662
783.349	0.0136192
783.427	0.0136111
783.505	0.0136777
783.583	0.0136588
783.661	0.0134798
783.739	0.0135703
783.818	0.0137209
783.896	0.0134593
783.974	0.0135016
784.052	0.0135049
784.130	0.0134971
784.208	0.0134811
784.286	0.0135507
784.364	0.0135172
784.443	0.0136034
784.521	0.0135815
784.599	0.0137936
784.677	0.0137096
784.755	0.0135884
784.833	0.0138051
784.911	0.0138762
784.989	0.0139018
785.068	0.0139066
785.146	0.0138742
785.224	0.0139680
785.302	0.0137591
785.380	0.0138350
785.458	0.0138007
785.536	0.0138422
785.614	0.0139754
785.693	0.0137669
785.771	0.0138851
785.849	0.0138441
785.927	0.0137416
786.005	0.0137892
786.083	0.0137977
786.161	0.0138059
786.239	0.0136959
786.318	0.0137360
786.396	0.0138683
786.474	0.0137949
786.552	0.0137784
786.630	0.0138558
786.708	0.0138737
786.786	0.0137365
786.864	0.0137851
786.943	0.0136613
787.021	0.0137293
787.099	0.0139020
787.177	0.0139153
787.255	0.0140762
787.333	0.0140158
787.411	0.0139324
787.489	0.0139079
787.568	0.0140547
787.646	0.0140194
787.724	0.0140453
787.802	0.0141442
787.880	0.0140089
787.958	0.0139948
788.036	0.0139262
788.114	0.0139011
788.193	0.0137042
788.271	0.0137621
788.349	0.0139040
788.427	0.0139091
788.505	0.0136223
788.583	0.0138505
788.661	0.0137809
788.739	0.0137889
788.818	0.0136803
788.896	0.0137151
788.974	0.0136987
789.052	0.0136382
789.130	0.0135961
789.208	0.0135991
789.286	0.0134763
789.364	0.0133852
789.443	0.0133458
789.521	0.0133335
789.599	0.0132654
789.677	0.0133244
789.755	0.0133763
789.833	0.0131919
789.911	0.0131402
789.989	0.0132409
790.068	0.0134643
790.146	0.0133379
790.224	0.0133868
790.302	0.0134097
790.380	0.0136883
790.458	0.0136582
790.536	0.0138634
790.614	0.0139095
790.693	0.0140714
790.771	0.0141752
790.849	0.0142162
790.927	0.0144232
791.005	0.0144486
791.083	0.0144661
791.161	0.0144159
791.239	0.0146537
791.318	0.0145765
791.396	0.0145771
791.474	0.0146439
791.552	0.0146857
791.630	0.0146280
791.708	0.0146848
791.786	0.0143388
791.864	0.0143797
791.943	0.0143731
792.021	0.0142788
792.099	0.0142107
792.177	0.0141228
792.255	0.0139981
792.333	0.0139464
792.411	0.0138003
792.489	0.0136493
792.568	0.0136311
792.646	0.0134444
792.724	0.0133723
792.802	0.0131346
792.880	0.0131305
792.958	0.0130096
793.036	0.0129690
793.114	0.0130391
793.193	0.0130420
793.271	0.0128513
793.349	0.0130643
793.427	0.0129597
793.505	0.0129324
793.583	0.0130363
793.661	0.0131693
793.739	0.0132021
793.818	0.0133823
793.896	0.0133630
793.974	0.0134010
794.052	0.0135869
794.130	0.0135281
794.208	0.0137261
794.286	0.0138494
794.364	0.0139057
794.443	0.0139956
794.521	0.0140758
794.599	0.0140749
794.677	0.0142481
794.755	0.0144177
794.833	0.0143050
794.911	0.0144966
794.989	0.0144947
795.068	0.0145111
795.146	0.0145963
795.224	0.0146758
795.302	0.0148833
795.380	0.0146455
795.458	0.0145374
795.536	0.0145729
795.614	0.0146781
795.693	0.0143861
795.771	0.0144320
795.849	0.0143264
795.927	0.0143524
796.005	0.0140355
796.083	0.0140471
796.161	0.0140819
796.239	0.0139597
796.318	0.0139265
796.396	0.0137242
796.474	0.0137119
796.552	0.0136429
796.630	0.0136868
796.708	0.0135405
796.786	0.0133867
796.864	0.0133900
796.943	0.0133115
797.021	0.0132768
797.099	0.0132320
797.177	0.0133194
797.255	0.0132775
797.333	0.0131155
797.411	0.0130903
797.489	0.0132373
797.568	0.0132848
797.646	0.0132153
797.724	0.0132634
797.802	0.0133223
797.880	0.0134181
797.958	0.0134563
798.036	0.0136541
798.114	0.0136948
798.193	0.0137255
798.271	0.0137160
798.349	0.0139165
798.427	0.0138937
798.505	0.0139256
798.583	0.0140057
798.661	0.0139082
798.739	0.0139822
798.818	0.0141218
798.896	0.0140449
798.974	0.0141809
799.052	0.0140171
799.130	0.0140281
799.208	0.0140054
799.286	0.0141451
799.364	0.0142816
799.443	0.0141020
799.521	0.0141518
799.599	0.0142679
799.677	0.0141853
799.755	0.0143314
799.833	0.0142644
799.911	0.0143217
799.989	0.0143520
800.068	0.0143904
800.146	0.0143434
800.224	0.0143393
800.302	0.0143520
800.380	0.0142418
800.458	0.0142799
800.536	0.0143060
800.614	0.0141510
800.693	0.0142330
800.771	0.0141893
800.849	0.0140421
800.927	0.0140100
801.005	0.0138772
801.083	0.0138606
801.161	0.0137383
801.239	0.0136655
801.318	0.0136670
801.396	0.0137420
801.474	0.0135146
801.552	0.0136004
801.630	0.0134106
801.708	0.0133356
801.786	0.0133599
801.864	0.0131385
801.943	0.0132996
802.021	0.0132859
802.099	0.0132111
802.177	0.0132654
802.255	0.0132336
802.333	0.0133030
802.411	0.0132276
802.489	0.0132388
802.568	0.0132206
802.646	0.0134174
802.724	0.0133414
802.802	0.0134649
802.880	0.0134288
802.958	0.0133381
803.036	0.0135069
803.114	0.0135157
803.193	0.0135329
803.271	0.0137738
803.349	0.0137437
803.427	0.0137906
803.505	0.0138699
803.583	0.0140970
803.661	0.0141344
803.739	0.0143185
803.818	0.0145815
803.896	0.0145959
803.974	0.0146465
804.052	0.0146926
804.130	0.0150174
804.208	0.0151088
804.286	0.0150524
804.364	0.0149779
804.443	0.0151269
804.521	0.0151062
804.599	0.0151157
804.677	0.0149686
804.755	0.0149708
804.833	0.0147564
804.911	0.0149346
804.989	0.0145941
805.068	0.0145459
805.146	0.0142465
805.224	0.0140694
805.302	0.0139195
805.380	0.0136314
805.458	0.0134994
805.536	0.0134323
805.614	0.0130995
805.693	0.0129430
805.771	0.0128861
805.849	0.0126574
805.927	0.0126798
806.005	0.0126254
806.083	0.0124784
806.161	0.0125703
806.239	0.0125288
806.318	0.0124751
806.396	0.0124458
806.474	0.0125093
806.552	0.0126659
806.630	0.0128629
806.708	0.0128384
806.786	0.0127775
806.864	0.0128303
806.943	0.0129689
807.021	0.0130347
807.099	0.0132527
807.177	0.0134191
807.255	0.0133364
807.333	0.0136168
807.411	0.0136365
807.489	0.0137424
807.568	0.0138478
807.646	0.0140278
807.724	0.0140163
807.802	0.0141843
807.880	0.0142747
807.958	0.0143867
808.036	0.0146122
808.114	0.0146428
808.193	0.0145766
808.271	0.0146365
808.349	0.0147670
808.427	0.0148589
808.505	0.0151112
808.583	0.0151426
808.661	0.0149534
808.739	0.0151505
808.818	0.0151771
808.896	0.0150850
808.974	0.0152006
809.052	0.0152360
809.130	0.0149918
809.208	0.0149516
809.286	0.0148428
809.364	0.0148460
809.443	0.0146071
809.521	0.0144880
809.599	0.0143069
809.677	0.0142253
809.755	0.0140515
809.833	0.0136577
809.911	0.0134757
809.989	0.0133085
810.068	0.0131464
810.146	0.0129000
810.224	0.0127869
810.302	0.0125306
810.380	0.0123415
810.458	0.0122662
810.536	0.0123218
810.614	0.0122600
810.693	0.0122050
810.771	0.0122951
810.849	0.0124107
810.927	0.0123830
811.005	0.0124751
811.083	0.0125441
811.161	0.0126137
811.239	0.0127836
811.318	0.0128986
811.396	0.0128892
811.474	0.0130055
811.552	0.0132502
811.630	0.0134736
811.708	0.0135986
811.786	0.0137325
811.864	0.0137331
811.943	0.0137935
812.021	0.0140311
812.099	0.0140529
812.177	0.0140489
812.255	0.0142682
812.333	0.0144105
812.411	0.0144341
812.489	0.0144756
812.568	0.0144832
812.646	0.0144709
812.724	0.0144401
812.802	0.0145387
812.880	0.0146473
812.958	0.0146808
813.036	0.0146522
813.114	0.0145867
813.193	0.0146201
813.271	0.0146028
813.349	0.0146552
813.427	0.0147167
813.505	0.0145357
813.583	0.0144383
813.661	0.0143427
813.739	0.0143993
813.818	0.0144191
813.896	0.0143443
813.974	0.0143426
814.052	0.0141840
814.130	0.0142139
814.208	0.0142542
814.286	0.0142091
814.364	0.0139539
814.443	0.0138167
814.521	0.0139707
814.599	0.0138753
814.677	0.0136813
814.755	0.0137029
814.833	0.0134329
814.911	0.0135077
814.989	0.0133982
815.068	0.0133034
815.146	0.0131478
815.224	0.0132207
815.302	0.0132006
815.380	0.0132662
815.458	0.0130416
815.536	0.0132687
815.614	0.0131585
815.693	0.0129048
815.771	0.0130874
815.849	0.0131696
815.927	0.0131513
816.005	0.0132096
816.083	0.0132604
816.161	0.0131287
816.239	0.0131168
816.318	0.0132255
816.396	0.0132863
816.474	0.0133202
816.552	0.0132243
816.630	0.0132446
816.708	0.0133767
816.786	0.0133355
816.864	0.0134226
816.943	0.0135712
817.021	0.0134299
817.099	0.0136313
817.177	0.0137381
817.255	0.0136269
817.333	0.0138578
817.411	0.0138226
817.489	0.0139919
817.568	0.0139391
817.646	0.0140617
817.724	0.0141622
817.802	0.0142313
817.880	0.0143737
817.958	0.0144263
818.036	0.0143399
818.114	0.0144169
818.193	0.0145957
818.271	0.0145772
818.349	0.0144888
818.427	0.0146021
818.505	0.0146146
818.583	0.0145718
818.661	0.0146456
818.739	0.0146017
818.818	0.0146163
818.896	0.0145782
818.974	0.0145538
819.052	0.0145158
819.130	0.0144466
819.208	0.0143802
819.286	0.0143937
819.364	0.0142827
819.443	0.0142050
819.521	0.0140643
819.599	0.0140755
819.677	0.0139374
819.755	0.0139123
819.833	0.0136668
819.911	0.0138219
819.989	0.0136726
820.068	0.0136149
820.146	0.0136923
820.224	0.0135738
820.302	0.0134747
820.380	0.0134785
820.458	0.0134523
820.536	0.0133865
820.614	0.0132462
820.693	0.0131932
820.771	0.0132974
820.849	0.0133218
820.927	0.0131184
821.005	0.0131805
821.083	0.0132903
821.161	0.0131475
821.239	0.0130869
821.318	0.0131536
821.396	0.0132835
821.474	0.0131101
821.552	0.0132043
821.630	0.0133827
821.708	0.0133164
821.786	0.0134801
821.864	0.0134153
821.943	0.0135284
822.021	0.0135313
822.099	0.0137532
822.177	0.0136960
822.255	0.0136749
822.333	0.0138082
822.411	0.0137554
822.489	0.0138735
822.568	0.0137966
822.646	0.0138531
822.724	0.0138399
822.802	0.0139104
822.880	0.0141296
822.958	0.0139829
823.036	0.0140067
823.114	0.0141222
823.193	0.0140863
823.271	0.0142628
823.349	0.0143382
823.427	0.0141911
823.505	0.0142183
823.583	0.0143730
823.661	0.0144331
823.739	0.0144336
823.818	0.0144198
823.896	0.0144878
823.974	0.0144290
824.052	0.0145017
824.130	0.0143311
824.208	0.0143037
824.286	0.0144624
824.364	0.0144048
824.443	0.0144582
824.521	0.0142138
824.599	0.0142123
824.677	0.0141503
824.755	0.0140909
824.833	0.0139416
824.911	0.0139466
824.989	0.0138174
825.068	0.0138147
825.146	0.0136652
825.224	0.0136893
825.302	0.0136864
825.380	0.0136750
825.458	0.0136012
825.536	0.0136695
825.614	0.0136336
825.693	0.0135240
825.771	0.0136912
825.849	0.0136096
825.927	0.0136489
826.005	0.0136048
826.083	0.0136342
826.161	0.0135671
826.239	0.0137932
826.318	0.0137048
826.396	0.0136664
826.474	0.0136662
826.552	0.0137663
826.630	0.0137530
826.708	0.0137367
826.786	0.0138642
826.864	0.0137409
826.943	0.0136148
827.021	0.0135622
827.099	0.0136041
827.177	0.0135461
827.255	0.0133695
827.333	0.0134276
827.411	0.0135027
827.489	0.0135144
827.568	0.0133729
827.646	0.0133044
827.724	0.0134224
827.802	0.0135137
827.880	0.0135836
827.958	0.0135822
828.036	0.0136832
828.114	0.0136501
828.193	0.0137559
828.271	0.0137402
828.349	0.0137653
828.427	0.0138871
828.505	0.0140273
828.583	0.0141147
828.661	0.0141499
828.739	0.0141402
828.818	0.0141861
828.896	0.0142583
828.974	0.0143166
829.052	0.0142884
829.130	0.0143719
829.208	0.0143822
829.286	0.0143605
829.364	0.0144662
829.443	0.0142222
829.521	0.0143105
829.599	0.0143806
829.677	0.0142091
829.755	0.0142368
829.833	0.0142543
829.911	0.0140691
829.989	0.0142105
830.068	0.0141600
830.146	0.0140292
830.224	0.0140982
830.302	0.0140083
830.380	0.0139211
830.458	0.0137943
830.536	0.0138000
830.614	0.0137614
830.693	0.0137931
830.771	0.0136916
830.849	0.0137250
830.927	0.0136317
831.005	0.0134695
831.083	0.0136071
831.161	0.0135790
831.239	0.0135899
831.318	0.0137047
831.396	0.0134735
831.474	0.0135380
831.552	0.0136176
831.630	0.0134647
831.708	0.0136057
831.786	0.0136366
831.864	0.0135358
831.943	0.0135378
832.021	0.0135569
832.099	0.0136181
832.177	0.0136257
832.255	0.0137074
832.333	0.0138393
832.411	0.0137664
832.489	0.0136115
832.568	0.0136691
832.646	0.0137016
832.724	0.0138015
832.802	0.0137171
832.880	0.0138724
832.958	0.0139526
833.036	0.0137617
833.114	0.0138885
833.193	0.0138142
833.271	0.0138760
833.349	0.0138272
833.427	0.0138724
833.505	0.0139012
833.583	0.0138049
833.661	0.0137671
833.739	0.0138651
833.818	0.0137690
833.896	0.0138466
833.974	0.0138049
834.052	0.0138820
834.130	0.0138662
834.208	0.0139240
834.286	0.0138721
834.364	0.0138724
834.443	0.0137352
834.521	0.0139178
834.599	0.0139355
834.677	0.0139116
834.755	0.0139166
834.833	0.0138304
834.911	0.0138026
834.989	0.0139360
835.068	0.0139845
835.146	0.0137959
835.224	0.0139052
835.302	0.0138296
835.380	0.0138868
835.458	0.0138521
835.536	0.0137524
835.614	0.0139563
835.693	0.0137527
835.771	0.0137155
835.849	0.0136290
835.927	0.0135683
836.005	0.0136446
836.083	0.0136041
836.161	0.0134573
836.239	0.0136295
836.318	0.0136630
836.396	0.0135098
836.474	0.0136311
836.552	0.0136137
836.630	0.0135540
836.708	0.0134186
836.786	0.0135695
836.864	0.0136508
836.943	0.0135434
837.021	0.0134861
837.099	0.0134657
837.177	0.0136211
837.255	0.0136344
837.333	0.0134732
837.411	0.0135687
837.489	0.0137179
837.568	0.0138153
837.646	0.0138068
837.724	0.0137907
837.802	0.0140200
837.880	0.0137861
837.958	0.0139086
838.036	0.0140253
838.114	0.0139693
838.193	0.0141425
838.271	0.0140345
838.349	0.0140404
838.427	0.0140723
838.505	0.0140179
838.583	0.0141191
838.661	0.0140193
838.739	0.0141109
838.818	0.0139180
838.896	0.0140769
838.974	0.0139435
839.052	0.0139294
839.130	0.0138792
839.208	0.0138539
839.286	0.0138188
839.364	0.0138502
839.443	0.0137730
839.521	0.0136353
839.599	0.0135985
839.677	0.0137130
839.755	0.0137372
839.833	0.0136039
839.911	0.0136568
839.989	0.0137393
840.068	0.0136803
840.146	0.0136783
840.224	0.0136039
840.302	0.0135667
840.380	0.0135561
840.458	0.0135855
840.536	0.0135335
840.614	0.0135505
840.693	0.0134271
840.771	0.0135551
840.849	0.0133794
840.927	0.0133846
841.005	0.0134802
841.083	0.0134089
841.161	0.0134222
841.239	0.0134415
841.318	0.0134838
841.396	0.0134580
841.474	0.0135308
841.552	0.0135186
841.630	0.0134422
841.708	0.0135144
841.786	0.0135421
841.864	0.0137544
841.943	0.0136266
842.021	0.0137508
842.099	0.0138671
842.177	0.0139486
842.255	0.0139404
842.333	0.0140670
842.411	0.0140600
842.489	0.0140821
842.568	0.0141095
842.646	0.0142197
842.724	0.0143286
842.802	0.0144288
842.880	0.0144463
842.958	0.0144469
843.036	0.0142174
843.114	0.0142406
843.193	0.0143282
843.271	0.0142180
843.349	0.0142103
843.427	0.0142993
843.505	0.0142038
843.583	0.0142605
843.661	0.0140137
843.739	0.0139753
843.818	0.0139437
843.896	0.0137825
843.974	0.0136926
844.052	0.0136597
844.130	0.0135654
844.208	0.0134272
844.286	0.0135407
844.364	0.0133768
844.443	0.0133707
844.521	0.0134035
844.599	0.0132588
844.677	0.0132328
844.755	0.0133752
844.833	0.0133852
844.911	0.0133279
844.989	0.0133014
845.068	0.0134332
845.146	0.0134608
845.224	0.0135162
845.302	0.0134917
845.380	0.0136215
845.458	0.0135722
845.536	0.0135885
845.614	0.0138411
845.693	0.0137216
845.771	0.0138020
845.849	0.0138628
845.927	0.0140807
846.005	0.0141044
846.083	0.0139389
846.161	0.0140678
846.239	0.0140083
846.318	0.0142009
846.396	0.0141317
846.474	0.0140666
846.552	0.0140332
846.630	0.0140784
846.708	0.0139826
846.786	0.0139536
846.864	0.0139496
846.943	0.0139753
847.021	0.0138479
847.099	0.0139324
847.177	0.0139174
847.255	0.0137931
847.333	0.0138699
847.411	0.0138629
847.489	0.0138348
847.568	0.0138389
847.646	0.0139222
847.724	0.0138139
847.802	0.0138012
847.880	0.0137110
847.958	0.0136909
848.036	0.0137658
848.114	0.0137447
848.193	0.0135794
848.271	0.0135898
848.349	0.0135811
848.427	0.0136545
848.505	0.0136266
848.583	0.0134897
848.661	0.0135236
848.739	0.0135645
848.818	0.0134542
848.896	0.0133854
848.974	0.0134702
849.052	0.0134264
849.130	0.0134447
849.208	0.0136134
849.286	0.0134779
849.364	0.0135084
849.443	0.0135159
849.521	0.0136529
849.599	0.0136076
849.677	0.0136491
849.755	0.0137419
849.833	0.0137616
849.911	0.0140003
849.989	0.0139171
850.068	0.0140178
850.146	0.0140738
850.224	0.0140832
850.302	0.0141057
850.380	0.0141759
850.458	0.0142062
850.536	0.0142225
850.614	0.0142469
850.693	0.0144118
850.771	0.0143414
850.849	0.0142786
850.927	0.0143779
851.005	0.0142745
851.083	0.0143351
851.161	0.0141681
851.239	0.0142406
851.318	0.0142609
851.396	0.0141268
851.474	0.0141306
851.552	0.0142155
851.630	0.0141109
851.708	0.0140266
851.786	0.0140308
851.864	0.0138640
851.943	0.0139652
852.021	0.0139883
852.099	0.0138781
852.177	0.0137978
852.255	0.0138851
852.333	0.0137138
852.411	0.0135851
852.489	0.0136042
852.568	0.0134162
852.646	0.0133530
852.724	0.0134409
852.802	0.0133086
852.880	0.0133904
852.958	0.0133411
853.036	0.0132209
853.114	0.0131522
853.193	0.0132311
853.271	0.0132182
853.349	0.0132854
853.427	0.0131458
853.505	0.0130815
853.583	0.0133023
853.661	0.0133015
853.739	0.0132960
853.818	0.0134582
853.896	0.0135303
853.974	0.0134746
854.052	0.0136038
854.130	0.0136713
854.208	0.0138363
854.286	0.0138712
854.364	0.0138084
854.443	0.0138770
854.521	0.0138847
854.599	0.0140282
854.677	0.0141956
854.755	0.0142207
854.833	0.0142663
854.911	0.0142234
854.989	0.0142128
855.068	0.0142954
855.146	0.0143306
855.224	0.0143839
855.302	0.0143669
855.380	0.0142264
855.458	0.0142323
855.536	0.0141303
855.614	0.0142118
855.693	0.0143223
855.771	0.0142471
855.849	0.0140680
855.927	0.0141409
856.005	0.0141180
856.083	0.0141460
856.161	0.0139946
856.239	0.0138578
856.318	0.0138419
856.396	0.0138123
856.474	0.0138474
856.552	0.0138292
856.630	0.0137306
856.708	0.0137921
856.786	0.0136287
856.864	0.0136163
856.943	0.0136237
857.021	0.0135757
857.099	0.0136379
857.177	0.0135051
857.255	0.0134813
857.333	0.0135960
857.411	0.0135644
857.489	0.0134107
857.568	0.0135877
857.646	0.0134370
857.724	0.0133933
857.802	0.0135165
857.880	0.0133778
857.958	0.0134233
858.036	0.0134612
858.114	0.0135399
858.193	0.0134937
858.271	0.0136405
858.349	0.0136289
858.427	0.0135983
858.505	0.0137020
858.583	0.0135603
858.661	0.0137296
858.739	0.0138323
858.818	0.0136519
858.896	0.0136668
858.974	0.0138924
859.052	0.0138559
859.130	0.0137466
859.208	0.0138675
859.286	0.0138369
859.364	0.0139212
859.443	0.0138507
859.521	0.0138725
859.599	0.0139303
859.677	0.0137523
859.755	0.0139131
859.833	0.0137259
859.911	0.0137779
859.989	0.0137000
860.068	0.0138116
860.146	0.0137849
860.224	0.0137026
860.302	0.0137720
860.380	0.0136581
860.458	0.0136671
860.536	0.0137142
860.614	0.0139108
860.693	0.0138068
860.771	0.0138098
860.849	0.0136579
860.927	0.0135876
861.005	0.0137859
861.083	0.0137817
861.161	0.0139716
861.239	0.0138966
861.318	0.0137418
861.396	0.0138689
861.474	0.0139651
861.552	0.0138010
861.630	0.0138552
861.708	0.0139945
861.786	0.0138892
861.864	0.0139416
861.943	0.0139706
862.021	0.0138845
862.099	0.0139981
862.177	0.0140073
862.255	0.0138351
862.333	0.0138483
862.411	0.0139254
862.489	0.0138570
862.568	0.0139385
862.646	0.0138462
862.724	0.0137685
862.802	0.0138374
862.880	0.0138189
862.958	0.0135907
863.036	0.0138078
863.114	0.0137624
863.193	0.0137247
863.271	0.0136843
863.349	0.0135039
863.427	0.0135853
863.505	0.0138724
863.583	0.0137080
863.661	0.0135973
863.739	0.0135571
863.818	0.0136787
863.896	0.0136549
863.974	0.0135844
864.052	0.0136958
864.130	0.0137172
864.208	0.0136227
864.286	0.0136131
864.364	0.0135292
864.443	0.0135920
864.521	0.0134579
864.599	0.0135263
864.677	0.0136810
864.755	0.0136019
864.833	0.0136282
864.911	0.0135094
864.989	0.0136060
865.068	0.0136627
865.146	0.0135584
865.224	0.0136544
865.302	0.0137865
865.380	0.0138114
865.458	0.0137787
865.536	0.0138001
865.614	0.0138257
865.693	0.0138967
865.771	0.0139066
865.849	0.0139359
865.927	0.0140985
866.005	0.0141193
866.083	0.0141126
866.161	0.0140987
866.239	0.0141661
866.318	0.0140761
866.396	0.0139750
866.474	0.0142110
866.552	0.0141163
866.630	0.0141434
866.708	0.0140841
866.786	0.0140910
866.864	0.0140642
866.943	0.0141234
867.021	0.0140554
867.099	0.0138800
867.177	0.0139961
867.255	0.0139352
867.333	0.0138597
867.411	0.0139589
867.489	0.0140276
867.568	0.0138196
867.646	0.0138368
867.724	0.0136794
867.802	0.0137970
867.880	0.0138086
867.958	0.0137232
868.036	0.0137608
868.114	0.0136911
868.193	0.0138401
868.271	0.0137156
868.349	0.0135699
868.427	0.0136189
868.505	0.0133822
868.583	0.0134175
868.661	0.0135256
868.739	0.0134417
868.818	0.0135484
868.896	0.0134427
868.974	0.0133228
869.052	0.0135455
869.130	0.0134505
869.208	0.0134263
869.286	0.0135168
869.364	0.0134645
869.443	0.0136142
869.521	0.0135988
869.599	0.0135402
869.677	0.0135436
869.755	0.0137638
869.833	0.0137430
869.911	0.0138037
869.989	0.0137484
870.068	0.0137340
870.146	0.0139292
870.224	0.0140031
870.302	0.0140366
870.380	0.0139452
870.458	0.0139021
870.536	0.0140012
870.614	0.0140337
870.693	0.0141599
870.771	0.0142234
870.849	0.0141436
870.927	0.0140448
871.005	0.0141722
871.083	0.0141892
871.161	0.0139897
871.239	0.0141634
871.318	0.0140575
871.396	0.0140576
871.474	0.0140427
871.552	0.0140010
871.630	0.0138585
871.708	0.0139709
871.786	0.0139820
871.864	0.0139900
871.943	0.0138155
872.021	0.0137104
872.099	0.0138581
872.177	0.0137857
872.255	0.0138759
872.333	0.0136115
872.411	0.0136926
872.489	0.0137653
872.568	0.0136804
872.646	0.0135556
872.724	0.0135860
872.802	0.0136983
872.880	0.0135828
872.958	0.0136801
873.036	0.0136112
873.114	0.0137766
873.193	0.0136602
873.271	0.0136810
873.349	0.0137827
873.427	0.0137450
873.505	0.0137093
873.583	0.0136431
873.661	0.0137931
873.739	0.0138522
873.818	0.0138262
873.896	0.0137273
873.974	0.0138651
874.052	0.0138226
874.130	0.0137833
874.208	0.0137804
874.286	0.0137809
874.364	0.0137146
874.443	0.0138631
874.521	0.0136507
874.599	0.0139390
874.677	0.0139217
874.755	0.0137746
874.833	0.0138615
874.911	0.0139138
874.989	0.0138795
875.068	0.0138670
875.146	0.0140441
875.224	0.0139263
875.302	0.0137969
875.380	0.0137610
875.458	0.0138200
875.536	0.0139640
875.614	0.0139386
875.693	0.0138429
875.771	0.0139269
875.849	0.0137113
875.927	0.0138611
876.005	0.0137119
876.083	0.0136780
876.161	0.0137563
876.239	0.0136832
876.318	0.0137044
876.396	0.0137106
876.474	0.0137694
876.552	0.0137096
876.630	0.0136887
876.708	0.0136826
876.786	0.0134831
876.864	0.0137476
876.943	0.0137795
877.021	0.0136077
877.099	0.0136899
877.177	0.0137012
877.255	0.0138605
877.333	0.0138002
877.411	0.0138465
877.489	0.0137907
877.568	0.0139951
877.646	0.0139101
877.724	0.0139917
877.802	0.0138568
877.880	0.0138428
877.958	0.0140018
878.036	0.0140292
878.114	0.0140244
878.193	0.0139810
878.271	0.0139397
878.349	0.0138876
878.427	0.0139520
878.505	0.0139960
878.583	0.0137939
878.661	0.0136780
878.739	0.0138879
878.818	0.0138055
878.896	0.0137843
878.974	0.0137574
879.052	0.0136785
879.130	0.0137606
879.208	0.0137756
879.286	0.0137294
879.364	0.0138210
879.443	0.0137779
879.521	0.0138521
879.599	0.0140414
879.677	0.0138216
879.755	0.0138177
879.833	0.0139197
879.911	0.0138796
879.989	0.0140228
880.068	0.0139989
880.146	0.0139689
880.224	0.0139223
880.302	0.0138675
880.380	0.0138526
880.458	0.0139860
880.536	0.0136084
880.614	0.0138319
880.693	0.0137534
880.771	0.0135886
880.849	0.0135909
880.927	0.0136212
881.005	0.0132291
881.083	0.0132641
881.161	0.0132098
881.239	0.0132055
881.318	0.0131876
881.396	0.0132092
881.474	0.0132029
881.552	0.0132304
881.630	0.0132838
881.708	0.0134274
881.786	0.0133881
881.864	0.0135954
881.943	0.0136826
882.021	0.0137191
882.099	0.0137204
882.177	0.0137910
882.255	0.0140115
882.333	0.0140273
882.411	0.0139469
882.489	0.0138831
882.568	0.0141434
882.646	0.0143355
882.724	0.0142104
882.802	0.0142553
882.880	0.0144031
882.958	0.0143215
883.036	0.0143591
883.114	0.0142680
883.193	0.0141706
883.271	0.0140979
883.349	0.0142075
883.427	0.0141603
883.505	0.0141606
883.583	0.0140232
883.661	0.0139828
883.739	0.0139051
883.818	0.0138911
883.896	0.0136868
883.974	0.0136243
884.052	0.0137743
884.130	0.0139016
884.208	0.0136385
884.286	0.0136190
884.364	0.0136729
884.443	0.0135021
884.521	0.0135622
884.599	0.0136595
884.677	0.0136247
884.755	0.0136465
884.833	0.0135162
884.911	0.0136138
884.989	0.0136715
885.068	0.0136388
885.146	0.0136227
885.224	0.0135482
885.302	0.0135519
885.380	0.0134821
885.458	0.0135392
885.536	0.0135220
885.614	0.0135468
885.693	0.0137069
885.771	0.0136043
885.849	0.0137585
885.927	0.0137738
886.005	0.0138039
886.083	0.0138216
886.161	0.0139436
886.239	0.0139216
886.318	0.0139513
886.396	0.0139657
886.474	0.0139452
886.552	0.0138872
886.630	0.0139288
886.708	0.0138799
886.786	0.0139175
886.864	0.0139132
886.943	0.0137677
887.021	0.0136545
887.099	0.0137126
887.177	0.0137113
887.255	0.0136423
887.333	0.0137102
887.411	0.0136728
887.489	0.0136420
887.568	0.0136186
887.646	0.0136270
887.724	0.0134568
887.802	0.0136525
887.880	0.0136870
887.958	0.0136404
888.036	0.0136243
888.114	0.0135893
888.193	0.0136605
888.271	0.0136698
888.349	0.0137434
888.427	0.0139745
888.505	0.0139330
888.583	0.0140086
888.661	0.0139614
888.739	0.0137946
888.818	0.0139459
888.896	0.0139629
888.974	0.0138761
889.052	0.0140225
889.130	0.0138365
889.208	0.0140157
889.286	0.0140157
889.364	0.0140883
889.443	0.0140658
889.521	0.0140672
889.599	0.0142744
889.677	0.0141751
889.755	0.0141078
889.833	0.0141144
889.911	0.0141744
889.989	0.0141528
890.068	0.0141460
890.146	0.0140794
890.224	0.0140211
890.302	0.0139156
890.380	0.0139654
890.458	0.0137772
890.536	0.0138132
890.614	0.0137172
890.693	0.0136977
890.771	0.0135046
890.849	0.0135799
890.927	0.0134593
891.005	0.0134422
891.083	0.0134571
891.161	0.0133434
891.239	0.0135641
891.318	0.0134077
891.396	0.0133278
891.474	0.0132972
891.552	0.0133091
891.630	0.0133019
891.708	0.0133760
891.786	0.0134108
891.864	0.0134621
891.943	0.0134468
892.021	0.0136012
892.099	0.0133786
892.177	0.0135604
892.255	0.0136191
892.333	0.0136238
892.411	0.0135884
892.489	0.0136400
892.568	0.0137224
892.646	0.0137557
892.724	0.0137873
892.802	0.0138956
892.880	0.0137634
892.958	0.0138518
893.036	0.0137358
893.114	0.0138242
893.193	0.0137669
893.271	0.0139991
893.349	0.0139834
893.427	0.0138119
893.505	0.0138483
893.583	0.0140211
893.661	0.0141164
893.739	0.0139979
893.818	0.0140336
893.896	0.0140872
893.974	0.0141679
894.052	0.0140771
894.130	0.0140398
894.208	0.0142012
894.286	0.0142349
894.364	0.0141649
894.443	0.0142889
894.521	0.0142464
894.599	0.0143051
894.677	0.0142677
894.755	0.0142859
894.833	0.0142387
894.911	0.0140556
894.989	0.0140415
895.068	0.0140241
895.146	0.0139389
895.224	0.0138306
895.302	0.0139085
895.380	0.0138280
895.458	0.0138220
895.536	0.0135341
895.614	0.0136240
895.693	0.0135258
895.771	0.0136773
895.849	0.0135986
895.927	0.0134590
896.005	0.0134174
896.083	0.0135831
896.161	0.0134580
896.239	0.0135035
896.318	0.0134117
896.396	0.0134049
896.474	0.0135284
896.552	0.0135880
896.630	0.0137433
896.708	0.0135300
896.786	0.0136855
896.864	0.0135989
896.943	0.0136003
897.021	0.0137081
897.099	0.0137214
897.177	0.0136827
897.255	0.0137691
897.333	0.0138486
897.411	0.0138634
897.489	0.0138390
897.568	0.0138129
897.646	0.0138463
897.724	0.0138059
897.802	0.0139752
897.880	0.0140269
897.958	0.0139447
898.036	0.0139830
898.114	0.0140161
898.193	0.0140826
898.271	0.0140108
898.349	0.0141597
898.427	0.0141669
898.505	0.0143377
898.583	0.0141915
898.661	0.0142717
898.739	0.0144042
898.818	0.0144084
898.896	0.0145296
898.974	0.0145402
899.052	0.0146872
899.130	0.0146704
899.208	0.0145006
899.286	0.0145324
899.364	0.0144059
899.443	0.0144720
899.521	0.0143579
899.599	0.0142364
899.677	0.0140652
899.755	0.0138947
899.833	0.0138466
899.911	0.0136478
899.989	0.0135163
900.068	0.0134592
900.146	0.0134119
900.224	0.0132214
900.302	0.0130628
900.380	0.0130394
900.458	0.0131919
900.536	0.0130742
900.614	0.0129316
900.693	0.0130367
900.771	0.0129537
900.849	0.0131888
900.927	0.0130931
901.005	0.0131712
901.083	0.0133623
901.161	0.0133270
901.239	0.0135532
901.318	0.0137667
901.396	0.0138342
901.474	0.0140517
901.552	0.0141329
901.630	0.0143446
901.708	0.0142931
901.786	0.0143279
901.864	0.0145294
901.943	0.0145953
902.021	0.0145239
902.099	0.0144224
902.177	0.0144279
902.255	0.0142840
902.333	0.0143149
902.411	0.0142314
902.489	0.0141122
902.568	0.0140377
902.646	0.0139178
902.724	0.0138734
902.802	0.0138403
902.880	0.0136655
902.958	0.0136674
903.036	0.0136478
903.114	0.0136408
903.193	0.0136362
903.271	0.0137266
903.349	0.0137183
903.427	0.0136273
903.505	0.0137225
903.583	0.0137037
903.661	0.0138877
903.739	0.0137862
903.818	0.0138746
903.896	0.0140001
903.974	0.0139606
904.052	0.0138693
904.130	0.0139994
904.208	0.0139750
904.286	0.0137679
904.364	0.0138168
904.443	0.0138258
904.521	0.0137735
904.599	0.0137115
904.677	0.0137994
904.755	0.0136600
904.833	0.0136407
904.911	0.0137094
904.989	0.0135455
905.068	0.0136238
905.146	0.0136713
905.224	0.0135542
905.302	0.0135558
905.380	0.0135664
905.458	0.0137563
905.536	0.0136722
905.614	0.0137286
905.693	0.0137269
905.771	0.0137303
905.849	0.0139160
905.927	0.0138376
906.005	0.0136531
906.083	0.0138300
906.161	0.0139892
906.239	0.0141077
906.318	0.0141061
906.396	0.0140569
906.474	0.0140911
906.552	0.0140318
906.630	0.0140054
906.708	0.0140135
906.786	0.0140162
906.864	0.0139584
906.943	0.0138857
907.021	0.0137066
907.099	0.0135994
907.177	0.0135738
907.255	0.0135850
907.333	0.0134718
907.411	0.0134912
907.489	0.0133598
907.568	0.0134919
907.646	0.0134638
907.724	0.0133407
907.802	0.0134479
907.880	0.0135902
907.958	0.0136485
908.036	0.0136584
908.114	0.0136301
908.193	0.0137399
908.271	0.0138660
908.349	0.0138181
908.427	0.0138975
908.505	0.0140846
908.583	0.0139600
908.661	0.0140172
908.739	0.0141223
908.818	0.0141507
908.896	0.0141976
908.974	0.0139912
909.052	0.0140105
909.130	0.0139592
909.208	0.0139952
909.286	0.0140059
909.364	0.0139899
909.443	0.0137477
909.521	0.0138577
909.599	0.0138357
909.677	0.0138174
909.755	0.0137226
909.833	0.0137003
909.911	0.0137089
909.989	0.0137021
910.068	0.0136974
910.146	0.0135439
910.224	0.0136040
910.302	0.0137655
910.380	0.0137106
910.458	0.0137103
910.536	0.0137813
910.614	0.0138164
910.693	0.0137886
910.771	0.0138619
910.849	0.0138709
910.927	0.0139979
911.005	0.0141376
911.083	0.0139041
911.161	0.0139793
911.239	0.0140740
911.318	0.0138954
911.396	0.0139080
911.474	0.0138602
911.552	0.0138604
911.630	0.0138999
911.708	0.0137212
911.786	0.0135953
911.864	0.0136033
911.943	0.0135104
912.021	0.0132652
912.099	0.0135262
912.177	0.0134159
912.255	0.0131719
912.333	0.0131969
912.411	0.0133721
912.489	0.0133793
912.568	0.0134721
912.646	0.0137151
912.724	0.0135880
912.802	0.0136172
912.880	0.0137262
912.958	0.0138398
913.036	0.0139036
913.114	0.0138960
913.193	0.0139201
913.271	0.0139256
913.349	0.0141017
913.427	0.0140860
913.505	0.0139669
913.583	0.0139583
913.661	0.0139178
913.739	0.0139715
913.818	0.0139045
913.896	0.0137868
913.974	0.0138096
914.052	0.0136825
914.130	0.0137957
914.208	0.0137183
914.286	0.0137286
914.364	0.0135947
914.443	0.0136187
914.521	0.0136195
914.599	0.0137483
914.677	0.0137111
914.755	0.0136189
914.833	0.0138213
914.911	0.0137230
914.989	0.0137139
915.068	0.0137107
915.146	0.0136684
915.224	0.0138955
915.302	0.0138296
915.380	0.0138286
915.458	0.0140408
915.536	0.0140961
915.614	0.0141185
915.693	0.0140118
915.771	0.0140503
915.849	0.0140286
915.927	0.0140385
916.005	0.0139404
916.083	0.0139677
916.161	0.0139236
916.239	0.0136552
916.318	0.0138158
916.396	0.0137373
916.474	0.0136908
916.552	0.0136616
916.630	0.0136460
916.708	0.0136384
916.786	0.0135350
916.864	0.0136430
916.943	0.0135590
917.021	0.0135363
917.099	0.0136271
917.177	0.0136339
917.255	0.0136584
917.333	0.0136502
917.411	0.0135863
917.489	0.0136857
917.568	0.0135500
917.646	0.0137342
917.724	0.0137226
917.802	0.0137533
917.880	0.0137852
917.958	0.0138160
918.036	0.0138499
918.114	0.0137545
918.193	0.0138380
918.271	0.0138926
918.349	0.0138641
918.427	0.0140209
918.505	0.0141858
918.583	0.0140660
918.661	0.0141468
918.739	0.0140552
918.818	0.0140617
918.896	0.0141176
918.974	0.0140530
919.052	0.0140754
919.130	0.0141035
919.208	0.0140937
919.286	0.0139501
919.364	0.0139339
919.443	0.0138609
919.521	0.0138376
919.599	0.0135746
919.677	0.0137420
919.755	0.0138515
919.833	0.0138599
919.911	0.0136775
919.989	0.0136302
920.068	0.0134868
920.146	0.0134340
920.224	0.0135454
920.302	0.0135007
920.380	0.0135178
920.458	0.0136183
920.536	0.0135390
920.614	0.0134857
920.693	0.0136402
920.771	0.0136192
920.849	0.0135796
920.927	0.0138097
921.005	0.0136164
921.083	0.0136107
921.161	0.0138576
921.239	0.0139892
921.318	0.0139169
921.396	0.0139808
921.474	0.0138796
921.552	0.0140009
921.630	0.0139323
921.708	0.0140290
921.786	0.0140227
921.864	0.0140176
921.943	0.0139093
922.021	0.0139966
922.099	0.0140095
922.177	0.0141017
922.255	0.0140407
922.333	0.0141191
922.411	0.0141246
922.489	0.0140246
922.568	0.0139403
922.646	0.0139195
922.724	0.0139520
922.802	0.0139921
922.880	0.0139185
922.958	0.0140067
923.036	0.0138700
923.114	0.0139543
923.193	0.0138358
923.271	0.0139230
923.349	0.0138579
923.427	0.0138020
923.505	0.0137734
923.583	0.0137599
923.661	0.0139552
923.739	0.0137983
923.818	0.0137230
923.896	0.0138262
923.974	0.0138766
924.052	0.0137886
924.130	0.0138313
924.208	0.0138583
924.286	0.0137825
924.364	0.0138818
924.443	0.0138246
924.521	0.0137428
924.599	0.0138098
924.677	0.0138470
924.755	0.0137862
924.833	0.0137197
924.911	0.0137240
924.989	0.0138700
925.068	0.0137926
925.146	0.0138377
925.224	0.0137872
925.302	0.0137523
925.380	0.0137453
925.458	0.0137318
925.536	0.0136316
925.614	0.0136951
925.693	0.0136124
925.771	0.0137846
925.849	0.0138215
925.927	0.0137337
926.005	0.0135977
926.083	0.0137248
926.161	0.0137790
926.239	0.0136804
926.318	0.0136826
926.396	0.0136810
926.474	0.0138643
926.552	0.0137907
926.630	0.0139205
926.708	0.0137376
926.786	0.0139746
926.864	0.0140005
926.943	0.0138831
927.021	0.0139282
927.099	0.0139011
927.177	0.0139050
927.255	0.0139745
927.333	0.0140236
927.411	0.0139415
927.489	0.0138014
927.568	0.0139232
927.646	0.0138638
927.724	0.0138355
927.802	0.0137478
927.880	0.0137757
927.958	0.0136785
928.036	0.0137000
928.114	0.0135436
928.193	0.0135699
928.271	0.0135300
928.349	0.0134505
928.427	0.0135670
928.505	0.0136534
928.583	0.0136000
928.661	0.0137393
928.739	0.0137659
928.818	0.0137295
928.896	0.0137957
928.974	0.0138142
929.052	0.0137842
929.130	0.0138690
929.208	0.0141300
929.286	0.0141457
929.364	0.0140878
929.443	0.0141158
929.521	0.0141716
929.599	0.0141082
929.677	0.0141362
929.755	0.0141163
929.833	0.0141813
929.911	0.0141000
929.989	0.0141048
930.068	0.0140166
930.146	0.0139735
930.224	0.0139822
930.302	0.0138475
930.380	0.0138581
930.458	0.0138080
930.536	0.0137805
930.614	0.0135798
930.693	0.0135474
930.771	0.0135580
930.849	0.0133575
930.927	0.0134908
931.005	0.0135818
931.083	0.0134424
931.161	0.0134315
931.239	0.0134451
931.318	0.0134103
931.396	0.0132983
931.474	0.0134063
931.552	0.0132463
931.630	0.0133041
931.708	0.0132820
931.786	0.0132499
931.864	0.0133870
931.943	0.0134964
932.021	0.0133617
932.099	0.0134089
932.177	0.0135076
932.255	0.0136166
932.333	0.0136128
932.411	0.0136104
932.489	0.0137566
932.568	0.0137453
932.646	0.0138551
932.724	0.0139127
932.802	0.0138532
932.880	0.0140051
932.958	0.0140380
933.036	0.0139544
933.114	0.0139902
933.193	0.0140315
933.271	0.0141685
933.349	0.0141242
933.427	0.0142213
933.505	0.0140244
933.583	0.0139541
933.661	0.0138325
933.739	0.0140923
933.818	0.0139771
933.896	0.0138361
933.974	0.0137785
934.052	0.0138575
934.130	0.0137431
934.208	0.0137978
934.286	0.0138757
934.364	0.0138470
934.443	0.0138177
934.521	0.0138680
934.599	0.0139516
934.677	0.0137811
934.755	0.0138239
934.833	0.0138248
934.911	0.0138694
934.989	0.0137874
935.068	0.0137038
935.146	0.0139967
935.224	0.0136560
935.302	0.0136941
935.380	0.0137460
935.458	0.0137814
935.536	0.0136561
935.614	0.0136368
935.693	0.0136054
935.771	0.0136661
935.849	0.0135676
935.927	0.0135410
936.005	0.0134868
936.083	0.0135356
936.161	0.0135483
936.239	0.0134335
936.318	0.0134758
936.396	0.0135737
936.474	0.0135093
936.552	0.0136143
936.630	0.0135332
936.708	0.0135403
936.786	0.0135973
936.864	0.0137923
936.943	0.0137043
937.021	0.0137271
937.099	0.0137848
937.177	0.0138331
937.255	0.0137340
937.333	0.0138580
937.411	0.0138758
937.489	0.0138698
937.568	0.0139147
937.646	0.0138685
937.724	0.0137711
937.802	0.0138515
937.880	0.0138559
937.958	0.0138965
938.036	0.0137447
938.114	0.0137271
938.193	0.0138366
938.271	0.0138229
938.349	0.0139986
938.427	0.0141006
938.505	0.0141159
938.583	0.0139831
938.661	0.0139906
938.739	0.0142022
938.818	0.0140281
938.896	0.0139345
938.974	0.0140881
939.052	0.0140997
939.130	0.0139705
939.208	0.0139050
939.286	0.0139761
939.364	0.0138197
939.443	0.0138226
939.521	0.0136965
939.599	0.0138726
939.677	0.0136571
939.755	0.0135364
939.833	0.0137553
939.911	0.0135635
939.989	0.0134584
940.068	0.0136341
940.146	0.0136189
940.224	0.0135095
940.302	0.0135508
940.380	0.0134335
940.458	0.0135754
940.536	0.0134606
940.614	0.0135289
940.693	0.0136308
940.771	0.0136103
940.849	0.0135912
940.927	0.0136240
941.005	0.0137537
941.083	0.0138844
941.161	0.0137892
941.239	0.0138499
941.318	0.0137403
941.396	0.0138574
941.474	0.0140342
941.552	0.0139079
941.630	0.0138610
941.708	0.0138330
941.786	0.0140389
941.864	0.0138943
941.943	0.0139246
942.021	0.0139097
942.099	0.0139993
942.177	0.0139121
942.255	0.0139534
942.333	0.0140868
942.411	0.0138918
942.489	0.0139892
942.568	0.0138978
942.646	0.0138227
942.724	0.0138779
942.802	0.0138586
942.880	0.0138227
942.958	0.0138283
943.036	0.0140079
943.114	0.0138280
943.193	0.0137674
943.271	0.0137708
943.349	0.0138190
943.427	0.0137656
943.505	0.0136784
943.583	0.0136966
943.661	0.0137531
943.739	0.0136407
943.818	0.0135640
943.896	0.0135193
943.974	0.0134467
944.052	0.0134640
944.130	0.0135213
944.208	0.0134322
944.286	0.0134286
944.364	0.0134436
944.443	0.0135217
944.521	0.0135303
944.599	0.0135332
944.677	0.0136610
944.755	0.0135989
944.833	0.0137622
944.911	0.0136086
944.989	0.0136816
945.068	0.0137324
945.146	0.0138046
945.224	0.0136910
945.302	0.0137846
945.380	0.0137610
945.458	0.0138951
945.536	0.0139787
945.614	0.0138191
945.693	0.0139283
945.771	0.0140804
945.849	0.0139864
945.927	0.0140029
946.005	0.0140673
946.083	0.0139483
946.161	0.0139771
946.239	0.0141151
946.318	0.0141753
946.396	0.0141255
946.474	0.0141421
946.552	0.0140301
946.630	0.0141398
946.708	0.0141982
946.786	0.0140280
946.864	0.0140994
946.943	0.0139785
947.021	0.0138691
947.099	0.0138902
947.177	0.0138163
947.255	0.0136914
947.333	0.0137881
947.411	0.0137936
947.489	0.0137687
947.568	0.0136636
947.646	0.0136868
947.724	0.0137581
947.802	0.0135242
947.880	0.0136711
947.958	0.0136475
948.036	0.0136683
948.114	0.0137104
948.193	0.0137399
948.271	0.0138336
948.349	0.0138678
948.427	0.0138221
948.505	0.0138212
948.583	0.0138013
948.661	0.0138323
948.739	0.0140257
948.818	0.0138519
948.896	0.0137399
948.974	0.0137672
949.052	0.0137741
949.130	0.0137885
949.208	0.0136462
949.286	0.0136623
949.364	0.0136411
949.443	0.0136169
949.521	0.0136647
949.599	0.0136165
949.677	0.0135715
949.755	0.0136623
949.833	0.0136965
949.911	0.0135977
949.989	0.0134527
950.068	0.0134889
950.146	0.0136544
950.224	0.0135889
950.302	0.0135060
950.380	0.0137740
950.458	0.0136875
950.536	0.0137737
950.614	0.0138225
950.693	0.0137642
950.771	0.0137357
950.849	0.0137749
950.927	0.0138596
951.005	0.0139595
951.083	0.0138825
951.161	0.0138496
951.239	0.0140204
951.318	0.0139750
951.396	0.0139613
951.474	0.0139497
951.552	0.0140688
951.630	0.0140936
951.708	0.0139656
951.786	0.0139981
951.864	0.0139073
951.943	0.0139130
952.021	0.0137823
952.099	0.0138921
952.177	0.0139128
952.255	0.0137974
952.333	0.0138365
952.411	0.0138725
952.489	0.0139293
952.568	0.0139210
952.646	0.0138086
952.724	0.0138538
952.802	0.0138965
952.880	0.0138327
952.958	0.0139068
953.036	0.0136722
953.114	0.0138069
953.193	0.0138585
953.271	0.0136317
953.349	0.0138302
953.427	0.0135560
953.505	0.0137152
953.583	0.0136781
953.661	0.0136844
953.739	0.0135982
953.818	0.0136491
953.896	0.0135275
953.974	0.0135944
954.052	0.0136321
954.130	0.0135208
954.208	0.0136470
954.286	0.0136275
954.364	0.0137277
954.443	0.0134970
954.521	0.0136489
954.599	0.0137280
954.677	0.0138223
954.755	0.0136703
954.833	0.0136429
954.911	0.0136826
954.989	0.0135837
955.068	0.0136784
955.146	0.0136505
955.224	0.0137061
955.302	0.0136643
955.380	0.0137114
955.458	0.0137361
955.536	0.0136310
955.614	0.0135597
955.693	0.0135914
955.771	0.0135522
955.849	0.0136616
955.927	0.0137358
956.005	0.0136245
956.083	0.0137409
956.161	0.0137913
956.239	0.0137673
956.318	0.0138843
956.396	0.0140017
956.474	0.0138594
956.552	0.0139958
956.630	0.0137943
956.708	0.0139301
956.786	0.0140820
956.864	0.0141325
956.943	0.0139162
957.021	0.0139849
957.099	0.0138341
957.177	0.0139439
957.255	0.0140108
957.333	0.0139612
957.411	0.0140226
957.489	0.0139323
957.568	0.0138915
957.646	0.0140436
957.724	0.0140356
957.802	0.0139558
957.880	0.0140054
957.958	0.0140689
958.036	0.0141039
958.114	0.0139883
958.193	0.0140099
958.271	0.0139155
958.349	0.0139494
958.427	0.0138329
958.505	0.0137452
958.583	0.0138152
958.661	0.0138039
958.739	0.0138240
958.818	0.0137239
958.896	0.0137820
958.974	0.0135937
959.052	0.0136411
959.130	0.0136095
959.208	0.0135334
959.286	0.0134610
959.364	0.0135555
959.443	0.0136523
959.521	0.0135482
959.599	0.0135634
959.677	0.0135609
959.755	0.0136071
959.833	0.0135623
959.911	0.0136493
