05/14/2022	16:28:06	Ver.	4.1	UNKNOWN
Optical Delay	639.989416	Delta X		0.078125	Sweeps	1	Scan Rate	0/0
Coordinates	Axis 1	NaN	Axis 2	NaN	Axis 3	NaN	Axis 4	NaN	Axis 5	NaN	Axis 6	0.000000
TX Power	0.000000	RX Power	0.000000

639.989	0.0138248
640.068	0.0137889
640.146	0.0138780
640.224	0.0137737
640.302	0.0136441
640.380	0.0138499
640.458	0.0138940
640.536	0.0138464
640.614	0.0138826
640.693	0.0136874
640.771	0.0138046
640.849	0.0138622
640.927	0.0137994
641.005	0.0138457
641.083	0.0138549
641.161	0.0138171
641.239	0.0138858
641.318	0.0138326
641.396	0.0138637
641.474	0.0137725
641.552	0.0139759
641.630	0.0138119
641.708	0.0138086
641.786	0.0137392
641.864	0.0139312
641.943	0.0138084
642.021	0.0137440
642.099	0.0138976
642.177	0.0137987
642.255	0.0138847
642.333	0.0137383
642.411	0.0138361
642.489	0.0139429
642.568	0.0139184
642.646	0.0138058
642.724	0.0140318
642.802	0.0139332
642.880	0.0139444
642.958	0.0138918
643.036	0.0136865
643.114	0.0139098
643.193	0.0138692
643.271	0.0139819
643.349	0.0140056
643.427	0.0138869
643.505	0.0138017
643.583	0.0137711
643.661	0.0137671
643.739	0.0139163
643.818	0.0139486
643.896	0.0137856
643.974	0.0136890
644.052	0.0137817
644.130	0.0137770
644.208	0.0138630
644.286	0.0137391
644.364	0.0139252
644.443	0.0137804
644.521	0.0136837
644.599	0.0137785
644.677	0.0138116
644.755	0.0138058
644.833	0.0138191
644.911	0.0137895
644.989	0.0138935
645.068	0.0138291
645.146	0.0138696
645.224	0.0138786
645.302	0.0138136
645.380	0.0136387
645.458	0.0137486
645.536	0.0138381
645.614	0.0136598
645.693	0.0138708
645.771	0.0138707
645.849	0.0137184
645.927	0.0137915
646.005	0.0139066
646.083	0.0137746
646.161	0.0138215
646.239	0.0138596
646.318	0.0137846
646.396	0.0138873
646.474	0.0139120
646.552	0.0138712
646.630	0.0137978
646.708	0.0137727
646.786	0.0138129
646.864	0.0137886
646.943	0.0137498
647.021	0.0136768
647.099	0.0136964
647.177	0.0138606
647.255	0.0137839
647.333	0.0138332
647.411	0.0138986
647.489	0.0138374
647.568	0.0137392
647.646	0.0138627
647.724	0.0138136
647.802	0.0138403
647.880	0.0138477
647.958	0.0138830
648.036	0.0138540
648.114	0.0140070
648.193	0.0138923
648.271	0.0139436
648.349	0.0137804
648.427	0.0137883
648.505	0.0138680
648.583	0.0138403
648.661	0.0139145
648.739	0.0138431
648.818	0.0137017
648.896	0.0137887
648.974	0.0137916
649.052	0.0137930
649.130	0.0139064
649.208	0.0137727
649.286	0.0137569
649.364	0.0138709
649.443	0.0137878
649.521	0.0138996
649.599	0.0137859
649.677	0.0137559
649.755	0.0137219
649.833	0.0138075
649.911	0.0138558
649.989	0.0137995
650.068	0.0137436
650.146	0.0137749
650.224	0.0138116
650.302	0.0138603
650.380	0.0137280
650.458	0.0137452
650.536	0.0138220
650.614	0.0137708
650.693	0.0136716
650.771	0.0137605
650.849	0.0137524
650.927	0.0138926
651.005	0.0138890
651.083	0.0139048
651.161	0.0138020
651.239	0.0137719
651.318	0.0137326
651.396	0.0137685
651.474	0.0137437
651.552	0.0138621
651.630	0.0138110
651.708	0.0138369
651.786	0.0138731
651.864	0.0137760
651.943	0.0138551
652.021	0.0138364
652.099	0.0138731
652.177	0.0139040
652.255	0.0138248
652.333	0.0139151
652.411	0.0137332
652.489	0.0136970
652.568	0.0138915
652.646	0.0137844
652.724	0.0138377
652.802	0.0138210
652.880	0.0137503
652.958	0.0138741
653.036	0.0138349
653.114	0.0137611
653.193	0.0137215
653.271	0.0137788
653.349	0.0136889
653.427	0.0137307
653.505	0.0138498
653.583	0.0138927
653.661	0.0138499
653.739	0.0138213
653.818	0.0137823
653.896	0.0138957
653.974	0.0139091
654.052	0.0138845
654.130	0.0139204
654.208	0.0139308
654.286	0.0138544
654.364	0.0137108
654.443	0.0137529
654.521	0.0136652
654.599	0.0136337
654.677	0.0138628
654.755	0.0138979
654.833	0.0136746
654.911	0.0137428
654.989	0.0138630
655.068	0.0138104
655.146	0.0137565
655.224	0.0137457
655.302	0.0137017
655.380	0.0138435
655.458	0.0139064
655.536	0.0138492
655.614	0.0139484
655.693	0.0139252
655.771	0.0139072
655.849	0.0137075
655.927	0.0138268
656.005	0.0137291
656.083	0.0138607
656.161	0.0139197
656.239	0.0138468
656.318	0.0139061
656.396	0.0138737
656.474	0.0139020
656.552	0.0139056
656.630	0.0138707
656.708	0.0138629
656.786	0.0138977
656.864	0.0138538
656.943	0.0137930
657.021	0.0138084
657.099	0.0138854
657.177	0.0137846
657.255	0.0138226
657.333	0.0138241
657.411	0.0139070
657.489	0.0138869
657.568	0.0138933
657.646	0.0139818
657.724	0.0139604
657.802	0.0137770
657.880	0.0138084
657.958	0.0140141
658.036	0.0138368
658.114	0.0138838
658.193	0.0138347
658.271	0.0139920
658.349	0.0139728
658.427	0.0138293
658.505	0.0139041
658.583	0.0138934
658.661	0.0139834
658.739	0.0138608
658.818	0.0138538
658.896	0.0138491
658.974	0.0137986
659.052	0.0138950
659.130	0.0139749
659.208	0.0139018
659.286	0.0138151
659.364	0.0139983
659.443	0.0139780
659.521	0.0139397
659.599	0.0139216
659.677	0.0140380
659.755	0.0139137
659.833	0.0136909
659.911	0.0137534
659.989	0.0138365
660.068	0.0139343
660.146	0.0137768
660.224	0.0137837
660.302	0.0140192
660.380	0.0138714
660.458	0.0137917
660.536	0.0138243
660.614	0.0138219
660.693	0.0139671
660.771	0.0138156
660.849	0.0138594
660.927	0.0138722
661.005	0.0138493
661.083	0.0139087
661.161	0.0137747
661.239	0.0138550
661.318	0.0138986
661.396	0.0138228
661.474	0.0138194
661.552	0.0138007
661.630	0.0136955
661.708	0.0139464
661.786	0.0139057
661.864	0.0137333
661.943	0.0138817
662.021	0.0139027
662.099	0.0139205
662.177	0.0139984
662.255	0.0138857
662.333	0.0138347
662.411	0.0137938
662.489	0.0137386
662.568	0.0137961
662.646	0.0138302
662.724	0.0137565
662.802	0.0137241
662.880	0.0136620
662.958	0.0137616
663.036	0.0139267
663.114	0.0138180
663.193	0.0138696
663.271	0.0139753
663.349	0.0138471
663.427	0.0137331
663.505	0.0138211
663.583	0.0136585
663.661	0.0137965
663.739	0.0138081
663.818	0.0138602
663.896	0.0138237
663.974	0.0137743
664.052	0.0137514
664.130	0.0139034
664.208	0.0138195
664.286	0.0138596
664.364	0.0137233
664.443	0.0139397
664.521	0.0136710
664.599	0.0136972
664.677	0.0137330
664.755	0.0137878
664.833	0.0137366
664.911	0.0138106
664.989	0.0137566
665.068	0.0138319
665.146	0.0138673
665.224	0.0138132
665.302	0.0137949
665.380	0.0138705
665.458	0.0137535
665.536	0.0137028
665.614	0.0138914
665.693	0.0138794
665.771	0.0138287
665.849	0.0137929
665.927	0.0137092
666.005	0.0138452
666.083	0.0138210
666.161	0.0138752
666.239	0.0137979
666.318	0.0138499
666.396	0.0138687
666.474	0.0139208
666.552	0.0138425
666.630	0.0137041
666.708	0.0138208
666.786	0.0140929
666.864	0.0137673
666.943	0.0136127
667.021	0.0137656
667.099	0.0138697
667.177	0.0138734
667.255	0.0136768
667.333	0.0137512
667.411	0.0138184
667.489	0.0138048
667.568	0.0137836
667.646	0.0137289
667.724	0.0139194
667.802	0.0138352
667.880	0.0136894
667.958	0.0137925
668.036	0.0137872
668.114	0.0138757
668.193	0.0137914
668.271	0.0137514
668.349	0.0136761
668.427	0.0138945
668.505	0.0138792
668.583	0.0137890
668.661	0.0137630
668.739	0.0137376
668.818	0.0137598
668.896	0.0138464
668.974	0.0138334
669.052	0.0138163
669.130	0.0138645
669.208	0.0137222
669.286	0.0138469
669.364	0.0138236
669.443	0.0138403
669.521	0.0138598
669.599	0.0137410
669.677	0.0136246
669.755	0.0137096
669.833	0.0139725
669.911	0.0139003
669.989	0.0138777
670.068	0.0138225
670.146	0.0136279
670.224	0.0138486
670.302	0.0139137
670.380	0.0138300
670.458	0.0138718
670.536	0.0139146
670.614	0.0136987
670.693	0.0137865
670.771	0.0137617
670.849	0.0138057
670.927	0.0137703
671.005	0.0137880
671.083	0.0137987
671.161	0.0136862
671.239	0.0137919
671.318	0.0138644
671.396	0.0137765
671.474	0.0137150
671.552	0.0138940
671.630	0.0137501
671.708	0.0138676
671.786	0.0139021
671.864	0.0137444
671.943	0.0138020
672.021	0.0139153
672.099	0.0138134
672.177	0.0137742
672.255	0.0138049
672.333	0.0137046
672.411	0.0137691
672.489	0.0139053
672.568	0.0138700
672.646	0.0137627
672.724	0.0137652
672.802	0.0138407
672.880	0.0138364
672.958	0.0139551
673.036	0.0137256
673.114	0.0138290
673.193	0.0137771
673.271	0.0137624
673.349	0.0137524
673.427	0.0137927
673.505	0.0138918
673.583	0.0138705
673.661	0.0137978
673.739	0.0136108
673.818	0.0136802
673.896	0.0138339
673.974	0.0136567
674.052	0.0137569
674.130	0.0137749
674.208	0.0137768
674.286	0.0138091
674.364	0.0138782
674.443	0.0137006
674.521	0.0136407
674.599	0.0139093
674.677	0.0137529
674.755	0.0137740
674.833	0.0137074
674.911	0.0137843
674.989	0.0137547
675.068	0.0137444
675.146	0.0137090
675.224	0.0136845
675.302	0.0138166
675.380	0.0138976
675.458	0.0137753
675.536	0.0137585
675.614	0.0137659
675.693	0.0139671
675.771	0.0137463
675.849	0.0138737
675.927	0.0137413
676.005	0.0137300
676.083	0.0137747
676.161	0.0137679
676.239	0.0137912
676.318	0.0137498
676.396	0.0138058
676.474	0.0138468
676.552	0.0138252
676.630	0.0139210
676.708	0.0138833
676.786	0.0137006
676.864	0.0137585
676.943	0.0138046
677.021	0.0139005
677.099	0.0137431
677.177	0.0137701
677.255	0.0137691
677.333	0.0138246
677.411	0.0137050
677.489	0.0138803
677.568	0.0139303
677.646	0.0138246
677.724	0.0137731
677.802	0.0137793
677.880	0.0137615
677.958	0.0137568
678.036	0.0139272
678.114	0.0137194
678.193	0.0138769
678.271	0.0139333
678.349	0.0137779
678.427	0.0137695
678.505	0.0138515
678.583	0.0137578
678.661	0.0138721
678.739	0.0138092
678.818	0.0137831
678.896	0.0138392
678.974	0.0138463
679.052	0.0137759
679.130	0.0137370
679.208	0.0137753
679.286	0.0137429
679.364	0.0138815
679.443	0.0138081
679.521	0.0139014
679.599	0.0137912
679.677	0.0138833
679.755	0.0137828
679.833	0.0137530
679.911	0.0137093
679.989	0.0138319
680.068	0.0138020
680.146	0.0137410
680.224	0.0138862
680.302	0.0140149
680.380	0.0137460
680.458	0.0137820
680.536	0.0139156
680.614	0.0137975
680.693	0.0137860
680.771	0.0137989
680.849	0.0138105
680.927	0.0136526
681.005	0.0137743
681.083	0.0139680
681.161	0.0137748
681.239	0.0137709
681.318	0.0137640
681.396	0.0139200
681.474	0.0138259
681.552	0.0137962
681.630	0.0138421
681.708	0.0138441
681.786	0.0138252
681.864	0.0137849
681.943	0.0139892
682.021	0.0138636
682.099	0.0139037
682.177	0.0138441
682.255	0.0138555
682.333	0.0138715
682.411	0.0137926
682.489	0.0138171
682.568	0.0138853
682.646	0.0138004
682.724	0.0138915
682.802	0.0138584
682.880	0.0137250
682.958	0.0136805
683.036	0.0137608
683.114	0.0137466
683.193	0.0138406
683.271	0.0138692
683.349	0.0137072
683.427	0.0138660
683.505	0.0138776
683.583	0.0138538
683.661	0.0139471
683.739	0.0137846
683.818	0.0139689
683.896	0.0138812
683.974	0.0137485
684.052	0.0137304
684.130	0.0136074
684.208	0.0137725
684.286	0.0136935
684.364	0.0135071
684.443	0.0134950
684.521	0.0137331
684.599	0.0136922
684.677	0.0138628
684.755	0.0138777
684.833	0.0138644
684.911	0.0138048
684.989	0.0139055
685.068	0.0140185
685.146	0.0140572
685.224	0.0141747
685.302	0.0140971
685.380	0.0142245
685.458	0.0142974
685.536	0.0144402
685.614	0.0142180
685.693	0.0143613
685.771	0.0143040
685.849	0.0141382
685.927	0.0140341
686.005	0.0140287
686.083	0.0139721
686.161	0.0136578
686.239	0.0134145
686.318	0.0135155
686.396	0.0131247
686.474	0.0129213
686.552	0.0128516
686.630	0.0127888
686.708	0.0127979
686.786	0.0129679
686.864	0.0129826
686.943	0.0128693
687.021	0.0132111
687.099	0.0134645
687.177	0.0136082
687.255	0.0138740
687.333	0.0141769
687.411	0.0145473
687.489	0.0145299
687.568	0.0147975
687.646	0.0152446
687.724	0.0152749
687.802	0.0154060
687.880	0.0155366
687.958	0.0157114
688.036	0.0155824
688.114	0.0154140
688.193	0.0152125
688.271	0.0150290
688.349	0.0148613
688.427	0.0144284
688.505	0.0140676
688.583	0.0137771
688.661	0.0131712
688.739	0.0128341
688.818	0.0124184
688.896	0.0122885
688.974	0.0119636
689.052	0.0116729
689.130	0.0116341
689.208	0.0117097
689.286	0.0115328
689.364	0.0115649
689.443	0.0117748
689.521	0.0121339
689.599	0.0124223
689.677	0.0127258
689.755	0.0131754
689.833	0.0134718
689.911	0.0137643
689.989	0.0141195
690.068	0.0146101
690.146	0.0149487
690.224	0.0152293
690.302	0.0157597
690.380	0.0160844
690.458	0.0162247
690.536	0.0164909
690.614	0.0166647
690.693	0.0169019
690.771	0.0168221
690.849	0.0167177
690.927	0.0165157
691.005	0.0164070
691.083	0.0161282
691.161	0.0157899
691.239	0.0152507
691.318	0.0149773
691.396	0.0144383
691.474	0.0139868
691.552	0.0135032
691.630	0.0128483
691.708	0.0122280
691.786	0.0118015
691.864	0.0113519
691.943	0.0108595
692.021	0.0104987
692.099	0.0102706
692.177	0.0100820
692.255	0.00992676
692.333	0.0100389
692.411	0.00994827
692.489	0.0100731
692.568	0.0103143
692.646	0.0107268
692.724	0.0111732
692.802	0.0115813
692.880	0.0121577
692.958	0.0127330
693.036	0.0133704
693.114	0.0143011
693.193	0.0149512
693.271	0.0157585
693.349	0.0164724
693.427	0.0169463
693.505	0.0177088
693.583	0.0181523
693.661	0.0184107
693.739	0.0186710
693.818	0.0187693
693.896	0.0186736
693.974	0.0186714
694.052	0.0184308
694.130	0.0180951
694.208	0.0177307
694.286	0.0171764
694.364	0.0166214
694.443	0.0160853
694.521	0.0154596
694.599	0.0148171
694.677	0.0140414
694.755	0.0133285
694.833	0.0126463
694.911	0.0120182
694.989	0.0114228
695.068	0.0108702
695.146	0.0104135
695.224	0.0100521
695.302	0.00994301
695.380	0.00967743
695.458	0.00958572
695.536	0.00965660
695.614	0.00966522
695.693	0.00992653
695.771	0.0101742
695.849	0.0104250
695.927	0.0106352
696.005	0.0108416
696.083	0.0114156
696.161	0.0116060
696.239	0.0118867
696.318	0.0122401
696.396	0.0126025
696.474	0.0129156
696.552	0.0133079
696.630	0.0138931
696.708	0.0141920
696.786	0.0147872
696.864	0.0154118
696.943	0.0158585
697.021	0.0162796
697.099	0.0165632
697.177	0.0169115
697.255	0.0174185
697.333	0.0175922
697.411	0.0176650
697.489	0.0176690
697.568	0.0176472
697.646	0.0173891
697.724	0.0173013
697.802	0.0170486
697.880	0.0167406
697.958	0.0165296
698.036	0.0160479
698.114	0.0158855
698.193	0.0156049
698.271	0.0153754
698.349	0.0150719
698.427	0.0147677
698.505	0.0145071
698.583	0.0142595
698.661	0.0141351
698.739	0.0136980
698.818	0.0132526
698.896	0.0129266
698.974	0.0125841
699.052	0.0121849
699.130	0.0120180
699.208	0.0116640
699.286	0.0116106
699.364	0.0114484
699.443	0.0111084
699.521	0.0110033
699.599	0.0111172
699.677	0.0111237
699.755	0.0110391
699.833	0.0110418
699.911	0.0111259
699.989	0.0111386
700.068	0.0110383
700.146	0.0109932
700.224	0.0108697
700.302	0.0107317
700.380	0.0108102
700.458	0.0107816
700.536	0.0107498
700.614	0.0109748
700.693	0.0111874
700.771	0.0114342
700.849	0.0117651
700.927	0.0122430
701.005	0.0127237
701.083	0.0132754
701.161	0.0137859
701.239	0.0142205
701.318	0.0149760
701.396	0.0156809
701.474	0.0162247
701.552	0.0168143
701.630	0.0172246
701.708	0.0179829
701.786	0.0184114
701.864	0.0189112
701.943	0.0192680
702.021	0.0196669
702.099	0.0198938
702.177	0.0200095
702.255	0.0201009
702.333	0.0198373
702.411	0.0197018
702.489	0.0193790
702.568	0.0190024
702.646	0.0184045
702.724	0.0176656
702.802	0.0169145
702.880	0.0160635
702.958	0.0151875
703.036	0.0140074
703.114	0.0128423
703.193	0.0117890
703.271	0.0105817
703.349	0.00962463
703.427	0.00863228
703.505	0.00796051
703.583	0.00740166
703.661	0.00687965
703.739	0.00684647
703.818	0.00698181
703.896	0.00711945
703.974	0.00737198
704.052	0.00798035
704.130	0.00869339
704.208	0.00928116
704.286	0.0100827
704.364	0.0107362
704.443	0.0112559
704.521	0.0119010
704.599	0.0126327
704.677	0.0129807
704.755	0.0134763
704.833	0.0140922
704.911	0.0144519
704.989	0.0146499
705.068	0.0148110
705.146	0.0149716
705.224	0.0153316
705.302	0.0153079
705.380	0.0153587
705.458	0.0152738
705.536	0.0151981
705.614	0.0150581
705.693	0.0148899
705.771	0.0146692
705.849	0.0145745
705.927	0.0145293
706.005	0.0146274
706.083	0.0147536
706.161	0.0149812
706.239	0.0152937
706.318	0.0155930
706.396	0.0158884
706.474	0.0163018
706.552	0.0167464
706.630	0.0170128
706.708	0.0173166
706.786	0.0174815
706.864	0.0176987
706.943	0.0176988
707.021	0.0176734
707.099	0.0176211
707.177	0.0173573
707.255	0.0170682
707.333	0.0167166
707.411	0.0164856
707.489	0.0160760
707.568	0.0156668
707.646	0.0150581
707.724	0.0146296
707.802	0.0141827
707.880	0.0135204
707.958	0.0131583
708.036	0.0124803
708.114	0.0118738
708.193	0.0110969
708.271	0.0105315
708.349	0.00983078
708.427	0.00932648
708.505	0.00892899
708.583	0.00876335
708.661	0.00860748
708.739	0.00881172
708.818	0.00895775
708.896	0.00954010
708.974	0.0100794
709.052	0.0107121
709.130	0.0114893
709.208	0.0121738
709.286	0.0129414
709.364	0.0135645
709.443	0.0139945
709.521	0.0142492
709.599	0.0143420
709.677	0.0145038
709.755	0.0144088
709.833	0.0142591
709.911	0.0141430
709.989	0.0137194
710.068	0.0135389
710.146	0.0133936
710.224	0.0130161
710.302	0.0128825
710.380	0.0127821
710.458	0.0125797
710.536	0.0123178
710.614	0.0121140
710.693	0.0120912
710.771	0.0118898
710.849	0.0119910
710.927	0.0121601
711.005	0.0124897
711.083	0.0127690
711.161	0.0133260
711.239	0.0138087
711.318	0.0147334
711.396	0.0156087
711.474	0.0163213
711.552	0.0173602
711.630	0.0180728
711.708	0.0190361
711.786	0.0196475
711.864	0.0201848
711.943	0.0207599
712.021	0.0209252
712.099	0.0208500
712.177	0.0209249
712.255	0.0207193
712.333	0.0204893
712.411	0.0200427
712.489	0.0197419
712.568	0.0190919
712.646	0.0182873
712.724	0.0174758
712.802	0.0167733
712.880	0.0158514
712.958	0.0147285
713.036	0.0137064
713.114	0.0126760
713.193	0.0115748
713.271	0.0105758
713.349	0.00954391
713.427	0.00857948
713.505	0.00764587
713.583	0.00692970
713.661	0.00651100
713.739	0.00598984
713.818	0.00565216
713.896	0.00552246
713.974	0.00568054
714.052	0.00585037
714.130	0.00626953
714.208	0.00683510
714.286	0.00772247
714.364	0.00840775
714.443	0.00938843
714.521	0.0104238
714.599	0.0114307
714.677	0.0122946
714.755	0.0131242
714.833	0.0138583
714.911	0.0142749
714.989	0.0147359
715.068	0.0149523
715.146	0.0151086
715.224	0.0152010
715.302	0.0151118
715.380	0.0149526
715.458	0.0148972
715.536	0.0148283
715.614	0.0147522
715.693	0.0147832
715.771	0.0145253
715.849	0.0148287
715.927	0.0147968
716.005	0.0149938
716.083	0.0154926
716.161	0.0156367
716.239	0.0159222
716.318	0.0163910
716.396	0.0168922
716.474	0.0172321
716.552	0.0177765
716.630	0.0182497
716.708	0.0186593
716.786	0.0191026
716.864	0.0193092
716.943	0.0194606
717.021	0.0196407
717.099	0.0196311
717.177	0.0197404
717.255	0.0195091
717.333	0.0193549
717.411	0.0192712
717.489	0.0188338
717.568	0.0185903
717.646	0.0182383
717.724	0.0178402
717.802	0.0170202
717.880	0.0165472
717.958	0.0157208
718.036	0.0148331
718.114	0.0140536
718.193	0.0129193
718.271	0.0119637
718.349	0.0109116
718.427	0.00967552
718.505	0.00855400
718.583	0.00757622
718.661	0.00672646
718.739	0.00596169
718.818	0.00542793
718.896	0.00492905
718.974	0.00478439
719.052	0.00475922
719.130	0.00492065
719.208	0.00516479
719.286	0.00567093
719.364	0.00632141
719.443	0.00716980
719.521	0.00793304
719.599	0.00892418
719.677	0.0100060
719.755	0.0109209
719.833	0.0118867
719.911	0.0128399
719.989	0.0137995
720.068	0.0144856
720.146	0.0152795
720.224	0.0159929
720.302	0.0165611
720.380	0.0169271
720.458	0.0172971
720.536	0.0175835
720.614	0.0177180
720.693	0.0177140
720.771	0.0176228
720.849	0.0174255
720.927	0.0169920
721.005	0.0170234
721.083	0.0168386
721.161	0.0164716
721.239	0.0163377
721.318	0.0163039
721.396	0.0162371
721.474	0.0162971
721.552	0.0162039
721.630	0.0164178
721.708	0.0166199
721.786	0.0167105
721.864	0.0169611
721.943	0.0170956
722.021	0.0170769
722.099	0.0172974
722.177	0.0173752
722.255	0.0176105
722.333	0.0177930
722.411	0.0176595
722.489	0.0175580
722.568	0.0174789
722.646	0.0173740
722.724	0.0171684
722.802	0.0167307
722.880	0.0165779
722.958	0.0160632
723.036	0.0157127
723.114	0.0151057
723.193	0.0145093
723.271	0.0139472
723.349	0.0133722
723.427	0.0122939
723.505	0.0114308
723.583	0.0106749
723.661	0.00991966
723.739	0.00912109
723.818	0.00828918
723.896	0.00771523
723.974	0.00732056
724.052	0.00672546
724.130	0.00642189
724.208	0.00659111
724.286	0.00650848
724.364	0.00680054
724.443	0.00743111
724.521	0.00807289
724.599	0.00882233
724.677	0.00955101
724.755	0.0103277
724.833	0.0113219
724.911	0.0121317
724.989	0.0127380
725.068	0.0135997
725.146	0.0141158
725.224	0.0147602
725.302	0.0151511
725.380	0.0156270
725.458	0.0157731
725.536	0.0160440
725.614	0.0161959
725.693	0.0162624
725.771	0.0162572
725.849	0.0162292
725.927	0.0161830
726.005	0.0159932
726.083	0.0158739
726.161	0.0157610
726.239	0.0155775
726.318	0.0154231
726.396	0.0152058
726.474	0.0150487
726.552	0.0150703
726.630	0.0149277
726.708	0.0151192
726.786	0.0150793
726.864	0.0150045
726.943	0.0154021
727.021	0.0156116
727.099	0.0156470
727.177	0.0159331
727.255	0.0161427
727.333	0.0160188
727.411	0.0161446
727.489	0.0162003
727.568	0.0161721
727.646	0.0161019
727.724	0.0160504
727.802	0.0161459
727.880	0.0159711
727.958	0.0159332
728.036	0.0159115
728.114	0.0157827
728.193	0.0156310
728.271	0.0154393
728.349	0.0154952
728.427	0.0153289
728.505	0.0149761
728.583	0.0144156
728.661	0.0140725
728.739	0.0134900
728.818	0.0128915
728.896	0.0121864
728.974	0.0114731
729.052	0.0108842
729.130	0.0102069
729.208	0.00966942
729.286	0.00927856
729.364	0.00906296
729.443	0.00884499
729.521	0.00885231
729.599	0.00907883
729.677	0.00936874
729.755	0.00980667
729.833	0.0104940
729.911	0.0108656
729.989	0.0114091
730.068	0.0122029
730.146	0.0125954
730.224	0.0131747
730.302	0.0138382
730.380	0.0141404
730.458	0.0145220
730.536	0.0147611
730.614	0.0148783
730.693	0.0150430
730.771	0.0149892
730.849	0.0147085
730.927	0.0146848
731.005	0.0144031
731.083	0.0141312
731.161	0.0139581
731.239	0.0137976
731.318	0.0135155
731.396	0.0133259
731.474	0.0131781
731.552	0.0129050
731.630	0.0129385
731.708	0.0129108
731.786	0.0129224
731.864	0.0131321
731.943	0.0132348
732.021	0.0134831
732.099	0.0138653
732.177	0.0143607
732.255	0.0146627
732.333	0.0151453
732.411	0.0155782
732.489	0.0159015
732.568	0.0161984
732.646	0.0166219
732.724	0.0168853
732.802	0.0170708
732.880	0.0173684
732.958	0.0174548
733.036	0.0175080
733.114	0.0174927
733.193	0.0174094
733.271	0.0173194
733.349	0.0170453
733.427	0.0167651
733.505	0.0164849
733.583	0.0157456
733.661	0.0153108
733.739	0.0149087
733.818	0.0141691
733.896	0.0137490
733.974	0.0131915
734.052	0.0124937
734.130	0.0120104
734.208	0.0116148
734.286	0.0111124
734.364	0.0107795
734.443	0.0106007
734.521	0.0104821
734.599	0.0104018
734.677	0.0105326
734.755	0.0105590
734.833	0.0109589
734.911	0.0113596
734.989	0.0115338
735.068	0.0120258
735.146	0.0125851
735.224	0.0129144
735.302	0.0133798
735.380	0.0136613
735.458	0.0141355
735.536	0.0144138
735.614	0.0145693
735.693	0.0146697
735.771	0.0147387
735.849	0.0147293
735.927	0.0145535
736.005	0.0143909
736.083	0.0141376
736.161	0.0139606
736.239	0.0138714
736.318	0.0136083
736.396	0.0134725
736.474	0.0132777
736.552	0.0128587
736.630	0.0127242
736.708	0.0125877
736.786	0.0123664
736.864	0.0124099
736.943	0.0125532
737.021	0.0124393
737.099	0.0125648
737.177	0.0126586
737.255	0.0128946
737.333	0.0131554
737.411	0.0134660
737.489	0.0136844
737.568	0.0140744
737.646	0.0143189
737.724	0.0144620
737.802	0.0147575
737.880	0.0149506
737.958	0.0149983
738.036	0.0154374
738.114	0.0155501
738.193	0.0155485
738.271	0.0157553
738.349	0.0158490
738.427	0.0159436
738.505	0.0158385
738.583	0.0157549
738.661	0.0160237
738.739	0.0158718
738.818	0.0156505
738.896	0.0155152
738.974	0.0153514
739.052	0.0150520
739.130	0.0148257
739.208	0.0146174
739.286	0.0142308
739.364	0.0139295
739.443	0.0135485
739.521	0.0131731
739.599	0.0128400
739.677	0.0124719
739.755	0.0121753
739.833	0.0121182
739.911	0.0121714
739.989	0.0121222
740.068	0.0122619
740.146	0.0125092
740.224	0.0126726
740.302	0.0129554
740.380	0.0133662
740.458	0.0137500
740.536	0.0137955
740.614	0.0140959
740.693	0.0143427
740.771	0.0145512
740.849	0.0146748
740.927	0.0148172
741.005	0.0147476
741.083	0.0145802
741.161	0.0144584
741.239	0.0143976
741.318	0.0141966
741.396	0.0140798
741.474	0.0138425
741.552	0.0136542
741.630	0.0133784
741.708	0.0132236
741.786	0.0128270
741.864	0.0127233
741.943	0.0124891
742.021	0.0123170
742.099	0.0123410
742.177	0.0121432
742.255	0.0122204
742.333	0.0122687
742.411	0.0124830
742.489	0.0124835
742.568	0.0127173
742.646	0.0129417
742.724	0.0130546
742.802	0.0133170
742.880	0.0135557
742.958	0.0138121
743.036	0.0138262
743.114	0.0141394
743.193	0.0143036
743.271	0.0143050
743.349	0.0145461
743.427	0.0145151
743.505	0.0145692
743.583	0.0146168
743.661	0.0147010
743.739	0.0145002
743.818	0.0145622
743.896	0.0146669
743.974	0.0143536
744.052	0.0141653
744.130	0.0143365
744.208	0.0144069
744.286	0.0142732
744.364	0.0141755
744.443	0.0139579
744.521	0.0138612
744.599	0.0139877
744.677	0.0140230
744.755	0.0138913
744.833	0.0140073
744.911	0.0139871
744.989	0.0142557
745.068	0.0143508
745.146	0.0141714
745.224	0.0142408
745.302	0.0144168
745.380	0.0147188
745.458	0.0145382
745.536	0.0144812
745.614	0.0145940
745.693	0.0143745
745.771	0.0144141
745.849	0.0143151
745.927	0.0141467
746.005	0.0139159
746.083	0.0138092
746.161	0.0137159
746.239	0.0135412
746.318	0.0134776
746.396	0.0134845
746.474	0.0132083
746.552	0.0131797
746.630	0.0130901
746.708	0.0131248
746.786	0.0132326
746.864	0.0133187
746.943	0.0132804
747.021	0.0134815
747.099	0.0134772
747.177	0.0136681
747.255	0.0138008
747.333	0.0138879
747.411	0.0139161
747.489	0.0139091
747.568	0.0140664
747.646	0.0140334
747.724	0.0140086
747.802	0.0139368
747.880	0.0139249
747.958	0.0138216
748.036	0.0138165
748.114	0.0137656
748.193	0.0136379
748.271	0.0134196
748.349	0.0134274
748.427	0.0134164
748.505	0.0132889
748.583	0.0133183
748.661	0.0132464
748.739	0.0132249
748.818	0.0132488
748.896	0.0130611
748.974	0.0132556
749.052	0.0131540
749.130	0.0133205
749.208	0.0135504
749.286	0.0135680
749.364	0.0136638
749.443	0.0138924
749.521	0.0138200
749.599	0.0140545
749.677	0.0141316
749.755	0.0139810
749.833	0.0142262
749.911	0.0142323
749.989	0.0141892
750.068	0.0142452
750.146	0.0141648
750.224	0.0140621
750.302	0.0141595
750.380	0.0142081
750.458	0.0142593
750.536	0.0141983
750.614	0.0143443
750.693	0.0143917
750.771	0.0144182
750.849	0.0142590
750.927	0.0143936
751.005	0.0144920
751.083	0.0144802
751.161	0.0145425
751.239	0.0145821
751.318	0.0144249
751.396	0.0142047
751.474	0.0142818
751.552	0.0141576
751.630	0.0139506
751.708	0.0138230
751.786	0.0136842
751.864	0.0136363
751.943	0.0135015
752.021	0.0132383
752.099	0.0132333
752.177	0.0130472
752.255	0.0129108
752.333	0.0130322
752.411	0.0129656
752.489	0.0129883
752.568	0.0131599
752.646	0.0131681
752.724	0.0133739
752.802	0.0133999
752.880	0.0136902
752.958	0.0139415
753.036	0.0140201
753.114	0.0140619
753.193	0.0141825
753.271	0.0143895
753.349	0.0143711
753.427	0.0144360
753.505	0.0144961
753.583	0.0145270
753.661	0.0144548
753.739	0.0141822
753.818	0.0141838
753.896	0.0141599
753.974	0.0140038
754.052	0.0137044
754.130	0.0135605
754.208	0.0135553
754.286	0.0131847
754.364	0.0131375
754.443	0.0131065
754.521	0.0129276
754.599	0.0129771
754.677	0.0127057
754.755	0.0128092
754.833	0.0129463
754.911	0.0129211
754.989	0.0129182
755.068	0.0131640
755.146	0.0133849
755.224	0.0135976
755.302	0.0137139
755.380	0.0139195
755.458	0.0139719
755.536	0.0143280
755.614	0.0145156
755.693	0.0146899
755.771	0.0144933
755.849	0.0148249
755.927	0.0147387
756.005	0.0146363
756.083	0.0147631
756.161	0.0147522
756.239	0.0145874
756.318	0.0145033
756.396	0.0143189
756.474	0.0139855
756.552	0.0139642
756.630	0.0137623
756.708	0.0136320
756.786	0.0134921
756.864	0.0134235
756.943	0.0132635
757.021	0.0131464
757.099	0.0131055
757.177	0.0130888
757.255	0.0130274
757.333	0.0131303
757.411	0.0132523
757.489	0.0132106
757.568	0.0133292
757.646	0.0135638
757.724	0.0135347
757.802	0.0137952
757.880	0.0140298
757.958	0.0141792
758.036	0.0140827
758.114	0.0141867
758.193	0.0142828
758.271	0.0143285
758.349	0.0145361
758.427	0.0143687
758.505	0.0143314
758.583	0.0143218
758.661	0.0143513
758.739	0.0141528
758.818	0.0140004
758.896	0.0138528
758.974	0.0137836
759.052	0.0137040
759.130	0.0135699
759.208	0.0135476
759.286	0.0134705
759.364	0.0133162
759.443	0.0134840
759.521	0.0134847
759.599	0.0135691
759.677	0.0135233
759.755	0.0135689
759.833	0.0137155
759.911	0.0137206
759.989	0.0137601
760.068	0.0139823
760.146	0.0139751
760.224	0.0140919
760.302	0.0140108
760.380	0.0140740
760.458	0.0140611
760.536	0.0140906
760.614	0.0140324
760.693	0.0140237
760.771	0.0138975
760.849	0.0140060
760.927	0.0140203
761.005	0.0138371
761.083	0.0137937
761.161	0.0137903
761.239	0.0136792
761.318	0.0137496
761.396	0.0138733
761.474	0.0138707
761.552	0.0138435
761.630	0.0137329
761.708	0.0136765
761.786	0.0136570
761.864	0.0138226
761.943	0.0137575
762.021	0.0137449
762.099	0.0137387
762.177	0.0136587
762.255	0.0133999
762.333	0.0134684
762.411	0.0135555
762.489	0.0133011
762.568	0.0133732
762.646	0.0132490
762.724	0.0132883
762.802	0.0133801
762.880	0.0131477
762.958	0.0131463
763.036	0.0132800
763.114	0.0134428
763.193	0.0134377
763.271	0.0136918
763.349	0.0140327
763.427	0.0139845
763.505	0.0139750
763.583	0.0141592
763.661	0.0144386
763.739	0.0143869
763.818	0.0146002
763.896	0.0146137
763.974	0.0145531
764.052	0.0146003
764.130	0.0146564
764.208	0.0145187
764.286	0.0145401
764.364	0.0143694
764.443	0.0142818
764.521	0.0141029
764.599	0.0139840
764.677	0.0137801
764.755	0.0137366
764.833	0.0135369
764.911	0.0135038
764.989	0.0131728
765.068	0.0131320
765.146	0.0130756
765.224	0.0131370
765.302	0.0130972
765.380	0.0131097
765.458	0.0131994
765.536	0.0132585
765.614	0.0134025
765.693	0.0133536
765.771	0.0135165
765.849	0.0136817
765.927	0.0138522
766.005	0.0139747
766.083	0.0140363
766.161	0.0142613
766.239	0.0143287
766.318	0.0143351
766.396	0.0143858
766.474	0.0143484
766.552	0.0143491
766.630	0.0143423
766.708	0.0142809
766.786	0.0142227
766.864	0.0140748
766.943	0.0140951
767.021	0.0139183
767.099	0.0139279
767.177	0.0137868
767.255	0.0136904
767.333	0.0135635
767.411	0.0135315
767.489	0.0135116
767.568	0.0134513
767.646	0.0132964
767.724	0.0133620
767.802	0.0131341
767.880	0.0132928
767.958	0.0133382
768.036	0.0132072
768.114	0.0133909
768.193	0.0134617
768.271	0.0136346
768.349	0.0136539
768.427	0.0136376
768.505	0.0139227
768.583	0.0139066
768.661	0.0139883
768.739	0.0139512
768.818	0.0141174
768.896	0.0140952
768.974	0.0141189
769.052	0.0141670
769.130	0.0140871
769.208	0.0140768
769.286	0.0141615
769.364	0.0141768
769.443	0.0141245
769.521	0.0140761
769.599	0.0140440
769.677	0.0139677
769.755	0.0140720
769.833	0.0140191
769.911	0.0139749
769.989	0.0138735
770.068	0.0139472
770.146	0.0139536
770.224	0.0138263
770.302	0.0137988
770.380	0.0139603
770.458	0.0139410
770.536	0.0137918
770.614	0.0139816
770.693	0.0139297
770.771	0.0138079
770.849	0.0137059
770.927	0.0138778
771.005	0.0137720
771.083	0.0138307
771.161	0.0137811
771.239	0.0136362
771.318	0.0136405
771.396	0.0137699
771.474	0.0135998
771.552	0.0134701
771.630	0.0135912
771.708	0.0136408
771.786	0.0135199
771.864	0.0135650
771.943	0.0135213
772.021	0.0135110
772.099	0.0135619
772.177	0.0135752
772.255	0.0137311
772.333	0.0138792
772.411	0.0138054
772.489	0.0138652
772.568	0.0140326
772.646	0.0140505
772.724	0.0140340
772.802	0.0140208
772.880	0.0139706
772.958	0.0140273
773.036	0.0141341
773.114	0.0139379
773.193	0.0140809
773.271	0.0139943
773.349	0.0140344
773.427	0.0139654
773.505	0.0139162
773.583	0.0139136
773.661	0.0139278
773.739	0.0138803
773.818	0.0137665
773.896	0.0137860
773.974	0.0137759
774.052	0.0137446
774.130	0.0138759
774.208	0.0137759
774.286	0.0138644
774.364	0.0139149
774.443	0.0138786
774.521	0.0138895
774.599	0.0139053
774.677	0.0137086
774.755	0.0139377
774.833	0.0139865
774.911	0.0138879
774.989	0.0138200
775.068	0.0138358
775.146	0.0138505
775.224	0.0138160
775.302	0.0136285
775.380	0.0136173
775.458	0.0135835
775.536	0.0134567
775.614	0.0134969
775.693	0.0135241
775.771	0.0135865
775.849	0.0133472
775.927	0.0133066
776.005	0.0135082
776.083	0.0137097
776.161	0.0137183
776.239	0.0136177
776.318	0.0136444
776.396	0.0136915
776.474	0.0140154
776.552	0.0139347
776.630	0.0141491
776.708	0.0141189
776.786	0.0141740
776.864	0.0141743
776.943	0.0142426
777.021	0.0142603
777.099	0.0142299
777.177	0.0142725
777.255	0.0141895
777.333	0.0142076
777.411	0.0141376
777.489	0.0139773
777.568	0.0139758
777.646	0.0139442
777.724	0.0139381
777.802	0.0139404
777.880	0.0138539
777.958	0.0137376
778.036	0.0136797
778.114	0.0137459
778.193	0.0136589
778.271	0.0136671
778.349	0.0137634
778.427	0.0135194
778.505	0.0136879
778.583	0.0136182
778.661	0.0137044
778.739	0.0136071
778.818	0.0136991
778.896	0.0136362
778.974	0.0136571
779.052	0.0137222
779.130	0.0136892
779.208	0.0134785
779.286	0.0136238
779.364	0.0135238
779.443	0.0135361
779.521	0.0134934
779.599	0.0135778
779.677	0.0135235
779.755	0.0134517
779.833	0.0134555
779.911	0.0135959
779.989	0.0135020
780.068	0.0137421
780.146	0.0136018
780.224	0.0136629
780.302	0.0135594
780.380	0.0136827
780.458	0.0137420
780.536	0.0137894
780.614	0.0138654
780.693	0.0139944
780.771	0.0139643
780.849	0.0140382
780.927	0.0139288
781.005	0.0140673
781.083	0.0141399
781.161	0.0141735
781.239	0.0143192
781.318	0.0141019
781.396	0.0142881
781.474	0.0144147
781.552	0.0142612
781.630	0.0142454
781.708	0.0141996
781.786	0.0143121
781.864	0.0143611
781.943	0.0142105
782.021	0.0141921
782.099	0.0142824
782.177	0.0140175
782.255	0.0138967
782.333	0.0138555
782.411	0.0138165
782.489	0.0136832
782.568	0.0135432
782.646	0.0135823
782.724	0.0135110
782.802	0.0136005
782.880	0.0135796
782.958	0.0134911
783.036	0.0134936
783.114	0.0134575
783.193	0.0134986
783.271	0.0135173
783.349	0.0136131
783.427	0.0135743
783.505	0.0136137
783.583	0.0136012
783.661	0.0135079
783.739	0.0135696
783.818	0.0138129
783.896	0.0136644
783.974	0.0136838
784.052	0.0137512
784.130	0.0137792
784.208	0.0137984
784.286	0.0138619
784.364	0.0138883
784.443	0.0137866
784.521	0.0137438
784.599	0.0138697
784.677	0.0137691
784.755	0.0138595
784.833	0.0138857
784.911	0.0138777
784.989	0.0136747
785.068	0.0139056
785.146	0.0138441
785.224	0.0138402
785.302	0.0138143
785.380	0.0138371
785.458	0.0137280
785.536	0.0137547
785.614	0.0137626
785.693	0.0138278
785.771	0.0138853
785.849	0.0136156
785.927	0.0137538
786.005	0.0139240
786.083	0.0138319
786.161	0.0139772
786.239	0.0138486
786.318	0.0138601
786.396	0.0139079
786.474	0.0139852
786.552	0.0140833
786.630	0.0140730
786.708	0.0140810
786.786	0.0142022
786.864	0.0141754
786.943	0.0142365
787.021	0.0142138
787.099	0.0142185
787.177	0.0143851
787.255	0.0144022
787.333	0.0143769
787.411	0.0141895
787.489	0.0142719
787.568	0.0142484
787.646	0.0142879
787.724	0.0142216
787.802	0.0140625
787.880	0.0139099
787.958	0.0139484
788.036	0.0139350
788.114	0.0137111
788.193	0.0137170
788.271	0.0137167
788.349	0.0135555
788.427	0.0132608
788.505	0.0133033
788.583	0.0132205
788.661	0.0131296
788.739	0.0131084
788.818	0.0131854
788.896	0.0131836
788.974	0.0131551
789.052	0.0131720
789.130	0.0129958
789.208	0.0131334
789.286	0.0132846
789.364	0.0133189
789.443	0.0133784
789.521	0.0134162
789.599	0.0135806
789.677	0.0137611
789.755	0.0138031
789.833	0.0139864
789.911	0.0140186
789.989	0.0141380
790.068	0.0142034
790.146	0.0144248
790.224	0.0144061
790.302	0.0144659
790.380	0.0147497
790.458	0.0147768
790.536	0.0146350
790.614	0.0146541
790.693	0.0147398
790.771	0.0147253
790.849	0.0145719
790.927	0.0144770
791.005	0.0144285
791.083	0.0144862
791.161	0.0143586
791.239	0.0143121
791.318	0.0142500
791.396	0.0140759
791.474	0.0139364
791.552	0.0137725
791.630	0.0135896
791.708	0.0134664
791.786	0.0134800
791.864	0.0134363
791.943	0.0132268
792.021	0.0132319
792.099	0.0132243
792.177	0.0131309
792.255	0.0132010
792.333	0.0131192
792.411	0.0130567
792.489	0.0131572
792.568	0.0131802
792.646	0.0130462
792.724	0.0131048
792.802	0.0131755
792.880	0.0133248
792.958	0.0132469
793.036	0.0131682
793.114	0.0133978
793.193	0.0134820
793.271	0.0136157
793.349	0.0136381
793.427	0.0137753
793.505	0.0138660
793.583	0.0140981
793.661	0.0141613
793.739	0.0141945
793.818	0.0143668
793.896	0.0143156
793.974	0.0143328
794.052	0.0146037
794.130	0.0146327
794.208	0.0145831
794.286	0.0145641
794.364	0.0145400
794.443	0.0146220
794.521	0.0145953
794.599	0.0146546
794.677	0.0144862
794.755	0.0144788
794.833	0.0143706
794.911	0.0144016
794.989	0.0142522
795.068	0.0141872
795.146	0.0141938
795.224	0.0141560
795.302	0.0141402
795.380	0.0139966
795.458	0.0138126
795.536	0.0137489
795.614	0.0137890
795.693	0.0137549
795.771	0.0137412
795.849	0.0136826
795.927	0.0136691
796.005	0.0136537
796.083	0.0135660
796.161	0.0134644
796.239	0.0135028
796.318	0.0134143
796.396	0.0133077
796.474	0.0134675
796.552	0.0133149
796.630	0.0133841
796.708	0.0133649
796.786	0.0132443
796.864	0.0132471
796.943	0.0133003
797.021	0.0133404
797.099	0.0133313
797.177	0.0132600
797.255	0.0133693
797.333	0.0133248
797.411	0.0133291
797.489	0.0134656
797.568	0.0134520
797.646	0.0134630
797.724	0.0135255
797.802	0.0136392
797.880	0.0138100
797.958	0.0138544
798.036	0.0139117
798.114	0.0140708
798.193	0.0140381
798.271	0.0141261
798.349	0.0142396
798.427	0.0143454
798.505	0.0143742
798.583	0.0145022
798.661	0.0145728
798.739	0.0144785
798.818	0.0144306
798.896	0.0144209
798.974	0.0145032
799.052	0.0144838
799.130	0.0144404
799.208	0.0142721
799.286	0.0142986
799.364	0.0143067
799.443	0.0141596
799.521	0.0141082
799.599	0.0140015
799.677	0.0139371
799.755	0.0139964
799.833	0.0137933
799.911	0.0136909
799.989	0.0135092
800.068	0.0135848
800.146	0.0135558
800.224	0.0133223
800.302	0.0134103
800.380	0.0133563
800.458	0.0134540
800.536	0.0132381
800.614	0.0132710
800.693	0.0132175
800.771	0.0132990
800.849	0.0132526
800.927	0.0135174
801.005	0.0134706
801.083	0.0135800
801.161	0.0137138
801.239	0.0137661
801.318	0.0137778
801.396	0.0138711
801.474	0.0138949
801.552	0.0137740
801.630	0.0140269
801.708	0.0140270
801.786	0.0139998
801.864	0.0139582
801.943	0.0139757
802.021	0.0137747
802.099	0.0137962
802.177	0.0137646
802.255	0.0137082
802.333	0.0136477
802.411	0.0137186
802.489	0.0137162
802.568	0.0136786
802.646	0.0137486
802.724	0.0137000
802.802	0.0137415
802.880	0.0136494
802.958	0.0137917
803.036	0.0138697
803.114	0.0139844
803.193	0.0139592
803.271	0.0139804
803.349	0.0142397
803.427	0.0142844
803.505	0.0141730
803.583	0.0143470
803.661	0.0142709
803.739	0.0144300
803.818	0.0144146
803.896	0.0144462
803.974	0.0143309
804.052	0.0142898
804.130	0.0142579
804.208	0.0143369
804.286	0.0140927
804.364	0.0140071
804.443	0.0140333
804.521	0.0137514
804.599	0.0138280
804.677	0.0136477
804.755	0.0134507
804.833	0.0134460
804.911	0.0133040
804.989	0.0134039
805.068	0.0133479
805.146	0.0132093
805.224	0.0131709
805.302	0.0131309
805.380	0.0132596
805.458	0.0131197
805.536	0.0132300
805.614	0.0133788
805.693	0.0132711
805.771	0.0133371
805.849	0.0134085
805.927	0.0134591
806.005	0.0134969
806.083	0.0133968
806.161	0.0134040
806.239	0.0134733
806.318	0.0136015
806.396	0.0136079
806.474	0.0135395
806.552	0.0135655
806.630	0.0137395
806.708	0.0136296
806.786	0.0135889
806.864	0.0136764
806.943	0.0136518
807.021	0.0136272
807.099	0.0136380
807.177	0.0136635
807.255	0.0136935
807.333	0.0136478
807.411	0.0138559
807.489	0.0138659
807.568	0.0138850
807.646	0.0139153
807.724	0.0140244
807.802	0.0140590
807.880	0.0142643
807.958	0.0143086
808.036	0.0144341
808.114	0.0144832
808.193	0.0144221
808.271	0.0146530
808.349	0.0147562
808.427	0.0148152
808.505	0.0149191
808.583	0.0148615
808.661	0.0149428
808.739	0.0150027
808.818	0.0149566
808.896	0.0149195
808.974	0.0148550
809.052	0.0147292
809.130	0.0148639
809.208	0.0147369
809.286	0.0144052
809.364	0.0142962
809.443	0.0140612
809.521	0.0139911
809.599	0.0136669
809.677	0.0135681
809.755	0.0133453
809.833	0.0129904
809.911	0.0129198
809.989	0.0127882
810.068	0.0126654
810.146	0.0125778
810.224	0.0124321
810.302	0.0125114
810.380	0.0124080
810.458	0.0123264
810.536	0.0125422
810.614	0.0125356
810.693	0.0125356
810.771	0.0124336
810.849	0.0126871
810.927	0.0128925
811.005	0.0129819
811.083	0.0131116
811.161	0.0131879
811.239	0.0134220
811.318	0.0136695
811.396	0.0136961
811.474	0.0137897
811.552	0.0139088
811.630	0.0139461
811.708	0.0142558
811.786	0.0142480
811.864	0.0142958
811.943	0.0144736
812.021	0.0143791
812.099	0.0141375
812.177	0.0144704
812.255	0.0143535
812.333	0.0145267
812.411	0.0145744
812.489	0.0145018
812.568	0.0145082
812.646	0.0144682
812.724	0.0144568
812.802	0.0143888
812.880	0.0144370
812.958	0.0143955
813.036	0.0142443
813.114	0.0143166
813.193	0.0144035
813.271	0.0144638
813.349	0.0143547
813.427	0.0143320
813.505	0.0145319
813.583	0.0144597
813.661	0.0142378
813.739	0.0144544
813.818	0.0144802
813.896	0.0145664
813.974	0.0144365
814.052	0.0144813
814.130	0.0143549
814.208	0.0143853
814.286	0.0142864
814.364	0.0142603
814.443	0.0141208
814.521	0.0140578
814.599	0.0139021
814.677	0.0137245
814.755	0.0137492
814.833	0.0135744
814.911	0.0134129
814.989	0.0133784
815.068	0.0131774
815.146	0.0131139
815.224	0.0131139
815.302	0.0129361
815.380	0.0128333
815.458	0.0128278
815.536	0.0128419
815.614	0.0126942
815.693	0.0125240
815.771	0.0126712
815.849	0.0126585
815.927	0.0127278
816.005	0.0128224
816.083	0.0128026
816.161	0.0129977
816.239	0.0130016
816.318	0.0130353
816.396	0.0130781
816.474	0.0132761
816.552	0.0134844
816.630	0.0135817
816.708	0.0136379
816.786	0.0138489
816.864	0.0138494
816.943	0.0140251
817.021	0.0140763
817.099	0.0141246
817.177	0.0143145
817.255	0.0142916
817.333	0.0143505
817.411	0.0143575
817.489	0.0143677
817.568	0.0144463
817.646	0.0143654
817.724	0.0143842
817.802	0.0145045
817.880	0.0144679
817.958	0.0144829
818.036	0.0143752
818.114	0.0145129
818.193	0.0145124
818.271	0.0143817
818.349	0.0145545
818.427	0.0146043
818.505	0.0145221
818.583	0.0145339
818.661	0.0146644
818.739	0.0144684
818.818	0.0146066
818.896	0.0146809
818.974	0.0147632
819.052	0.0146136
819.130	0.0146107
819.208	0.0146358
819.286	0.0146263
819.364	0.0145270
819.443	0.0145042
819.521	0.0142786
819.599	0.0142000
819.677	0.0140133
819.755	0.0139542
819.833	0.0137944
819.911	0.0137317
819.989	0.0134870
820.068	0.0134827
820.146	0.0134128
820.224	0.0132422
820.302	0.0130933
820.380	0.0130202
820.458	0.0130158
820.536	0.0126984
820.614	0.0126031
820.693	0.0126884
820.771	0.0126318
820.849	0.0127061
820.927	0.0126504
821.005	0.0125745
821.083	0.0126099
821.161	0.0127908
821.239	0.0128830
821.318	0.0127888
821.396	0.0130831
821.474	0.0130867
821.552	0.0131087
821.630	0.0132658
821.708	0.0132389
821.786	0.0133405
821.864	0.0135527
821.943	0.0136476
822.021	0.0137735
822.099	0.0138160
822.177	0.0138289
822.255	0.0138852
822.333	0.0138908
822.411	0.0141771
822.489	0.0142648
822.568	0.0143780
822.646	0.0144104
822.724	0.0144289
822.802	0.0143768
822.880	0.0144718
822.958	0.0144329
823.036	0.0144250
823.114	0.0144824
823.193	0.0145568
823.271	0.0146389
823.349	0.0146529
823.427	0.0144973
823.505	0.0146529
823.583	0.0144702
823.661	0.0144978
823.739	0.0145484
823.818	0.0144891
823.896	0.0143914
823.974	0.0143288
824.052	0.0143731
824.130	0.0143458
824.208	0.0141254
824.286	0.0139854
824.364	0.0140419
824.443	0.0140823
824.521	0.0139065
824.599	0.0139056
824.677	0.0137844
824.755	0.0137675
824.833	0.0137680
824.911	0.0135811
824.989	0.0136404
825.068	0.0136716
825.146	0.0136637
825.224	0.0135516
825.302	0.0134358
825.380	0.0135766
825.458	0.0135284
825.536	0.0135500
825.614	0.0135125
825.693	0.0135534
825.771	0.0135738
825.849	0.0133999
825.927	0.0134024
826.005	0.0133624
826.083	0.0133459
826.161	0.0133394
826.239	0.0132660
826.318	0.0131500
826.396	0.0131828
826.474	0.0133109
826.552	0.0131976
826.630	0.0131553
826.708	0.0132217
826.786	0.0133434
826.864	0.0133105
826.943	0.0132472
827.021	0.0133302
827.099	0.0134998
827.177	0.0134003
827.255	0.0133649
827.333	0.0134570
827.411	0.0136205
827.489	0.0136971
827.568	0.0136883
827.646	0.0137486
827.724	0.0140141
827.802	0.0140245
827.880	0.0140421
827.958	0.0141205
828.036	0.0141666
828.114	0.0141254
828.193	0.0140907
828.271	0.0142517
828.349	0.0142895
828.427	0.0144907
828.505	0.0142902
828.583	0.0143650
828.661	0.0142483
828.739	0.0142655
828.818	0.0142532
828.896	0.0143097
828.974	0.0143982
829.052	0.0142758
829.130	0.0143479
829.208	0.0145170
829.286	0.0143059
829.364	0.0144370
829.443	0.0143123
829.521	0.0144023
829.599	0.0144241
829.677	0.0143706
829.755	0.0141967
829.833	0.0142453
829.911	0.0141489
829.989	0.0141904
830.068	0.0141602
830.146	0.0141237
830.224	0.0140341
830.302	0.0140876
830.380	0.0138725
830.458	0.0136382
830.536	0.0136168
830.614	0.0135548
830.693	0.0134888
830.771	0.0134716
830.849	0.0135254
830.927	0.0134933
831.005	0.0134480
831.083	0.0133287
831.161	0.0133374
831.239	0.0134042
831.318	0.0133661
831.396	0.0134576
831.474	0.0132916
831.552	0.0134363
831.630	0.0133733
831.708	0.0133940
831.786	0.0133388
831.864	0.0133759
831.943	0.0134229
832.021	0.0133143
832.099	0.0132404
832.177	0.0132655
832.255	0.0134667
832.333	0.0134310
832.411	0.0133871
832.489	0.0135877
832.568	0.0135895
832.646	0.0135970
832.724	0.0134505
832.802	0.0135966
832.880	0.0136880
832.958	0.0136774
833.036	0.0137809
833.114	0.0137435
833.193	0.0137948
833.271	0.0138170
833.349	0.0137571
833.427	0.0139470
833.505	0.0140284
833.583	0.0139980
833.661	0.0139951
833.739	0.0139129
833.818	0.0139214
833.896	0.0140399
833.974	0.0140852
834.052	0.0140324
834.130	0.0139603
834.208	0.0141080
834.286	0.0141285
834.364	0.0141827
834.443	0.0141659
834.521	0.0142390
834.599	0.0143294
834.677	0.0143123
834.755	0.0142121
834.833	0.0141913
834.911	0.0143102
834.989	0.0142427
835.068	0.0143358
835.146	0.0143884
835.224	0.0143665
835.302	0.0141196
835.380	0.0142863
835.458	0.0142072
835.536	0.0141911
835.614	0.0141118
835.693	0.0141431
835.771	0.0140370
835.849	0.0139443
835.927	0.0139510
836.005	0.0136820
836.083	0.0136718
836.161	0.0137163
836.239	0.0136668
836.318	0.0134648
836.396	0.0133755
836.474	0.0133626
836.552	0.0131900
836.630	0.0132354
836.708	0.0132175
836.786	0.0132237
836.864	0.0131320
836.943	0.0129790
837.021	0.0129555
837.099	0.0130633
837.177	0.0130601
837.255	0.0132081
837.333	0.0132069
837.411	0.0133243
837.489	0.0132244
837.568	0.0133384
837.646	0.0135471
837.724	0.0136330
837.802	0.0135928
837.880	0.0137624
837.958	0.0139240
838.036	0.0138984
838.114	0.0140968
838.193	0.0140943
838.271	0.0140376
838.349	0.0141483
838.427	0.0141914
838.505	0.0141195
838.583	0.0141241
838.661	0.0142001
838.739	0.0143226
838.818	0.0142355
838.896	0.0143295
838.974	0.0142667
839.052	0.0141862
839.130	0.0142089
839.208	0.0140839
839.286	0.0138795
839.364	0.0139403
839.443	0.0140292
839.521	0.0140081
839.599	0.0139595
839.677	0.0139167
839.755	0.0138596
839.833	0.0137905
839.911	0.0138692
839.989	0.0138645
840.068	0.0136982
840.146	0.0137984
840.224	0.0138001
840.302	0.0137827
840.380	0.0136803
840.458	0.0135755
840.536	0.0138556
840.614	0.0137799
840.693	0.0136973
840.771	0.0137503
840.849	0.0137003
840.927	0.0136401
841.005	0.0137644
841.083	0.0137656
841.161	0.0137216
841.239	0.0137427
841.318	0.0136652
841.396	0.0137463
841.474	0.0137628
841.552	0.0138680
841.630	0.0136962
841.708	0.0138813
841.786	0.0137391
841.864	0.0137753
841.943	0.0137280
842.021	0.0137209
842.099	0.0138139
842.177	0.0139789
842.255	0.0138036
842.333	0.0138506
842.411	0.0139128
842.489	0.0138850
842.568	0.0139018
842.646	0.0139992
842.724	0.0139569
842.802	0.0139702
842.880	0.0141741
842.958	0.0141237
843.036	0.0140073
843.114	0.0140594
843.193	0.0139970
843.271	0.0140036
843.349	0.0140854
843.427	0.0140334
843.505	0.0140540
843.583	0.0140345
843.661	0.0140373
843.739	0.0139449
843.818	0.0138729
843.896	0.0137051
843.974	0.0138318
844.052	0.0138313
844.130	0.0137157
844.208	0.0135757
844.286	0.0136653
844.364	0.0135933
844.443	0.0133826
844.521	0.0135493
844.599	0.0134570
844.677	0.0135044
844.755	0.0134305
844.833	0.0133445
844.911	0.0132700
844.989	0.0134622
845.068	0.0136449
845.146	0.0136188
845.224	0.0135323
845.302	0.0136628
845.380	0.0136412
845.458	0.0137378
845.536	0.0138678
845.614	0.0139407
845.693	0.0138731
845.771	0.0140083
845.849	0.0139911
845.927	0.0138419
846.005	0.0142027
846.083	0.0141402
846.161	0.0140739
846.239	0.0142609
846.318	0.0140557
846.396	0.0140601
846.474	0.0139919
846.552	0.0140342
846.630	0.0140681
846.708	0.0140079
846.786	0.0139298
846.864	0.0140759
846.943	0.0140063
847.021	0.0138145
847.099	0.0137976
847.177	0.0138828
847.255	0.0139382
847.333	0.0139117
847.411	0.0137860
847.489	0.0138223
847.568	0.0137572
847.646	0.0137677
847.724	0.0139278
847.802	0.0138642
847.880	0.0136743
847.958	0.0136739
848.036	0.0135925
848.114	0.0136501
848.193	0.0135896
848.271	0.0135484
848.349	0.0134702
848.427	0.0133948
848.505	0.0133546
848.583	0.0135429
848.661	0.0135177
848.739	0.0134686
848.818	0.0134759
848.896	0.0134941
848.974	0.0134840
849.052	0.0135295
849.130	0.0136256
849.208	0.0136553
849.286	0.0137395
849.364	0.0135662
849.443	0.0136827
849.521	0.0136847
849.599	0.0136909
849.677	0.0139648
849.755	0.0139563
849.833	0.0138688
849.911	0.0139866
849.989	0.0141280
850.068	0.0141528
850.146	0.0141141
850.224	0.0140000
850.302	0.0140509
850.380	0.0142538
850.458	0.0141351
850.536	0.0141374
850.614	0.0142314
850.693	0.0142810
850.771	0.0142206
850.849	0.0142535
850.927	0.0141488
851.005	0.0142553
851.083	0.0142858
851.161	0.0142602
851.239	0.0140321
851.318	0.0141494
851.396	0.0142538
851.474	0.0141966
851.552	0.0140894
851.630	0.0140259
851.708	0.0140722
851.786	0.0140622
851.864	0.0138197
851.943	0.0137154
852.021	0.0138416
852.099	0.0138179
852.177	0.0137878
852.255	0.0136208
852.333	0.0134190
852.411	0.0133765
852.489	0.0132889
852.568	0.0133401
852.646	0.0133414
852.724	0.0132445
852.802	0.0132824
852.880	0.0131221
852.958	0.0133101
853.036	0.0131221
853.114	0.0132506
853.193	0.0132086
853.271	0.0132577
853.349	0.0133622
853.427	0.0133018
853.505	0.0134929
853.583	0.0135349
853.661	0.0135457
853.739	0.0137814
853.818	0.0139160
853.896	0.0139069
853.974	0.0139338
854.052	0.0139831
854.130	0.0139677
854.208	0.0140176
854.286	0.0140950
854.364	0.0140704
854.443	0.0141222
854.521	0.0141591
854.599	0.0141252
854.677	0.0141799
854.755	0.0142313
854.833	0.0141172
854.911	0.0141930
854.989	0.0141376
855.068	0.0141167
855.146	0.0140992
855.224	0.0140892
855.302	0.0143043
855.380	0.0140365
855.458	0.0140163
855.536	0.0138906
855.614	0.0140260
855.693	0.0139883
855.771	0.0141113
855.849	0.0140318
855.927	0.0138737
856.005	0.0138773
856.083	0.0139417
856.161	0.0140058
856.239	0.0137607
856.318	0.0138345
856.396	0.0138538
856.474	0.0138433
856.552	0.0138639
856.630	0.0137827
856.708	0.0137605
856.786	0.0136603
856.864	0.0137948
856.943	0.0137836
857.021	0.0138628
857.099	0.0136484
857.177	0.0135157
857.255	0.0136864
857.333	0.0137862
857.411	0.0135764
857.489	0.0137133
857.568	0.0134793
857.646	0.0134166
857.724	0.0135849
857.802	0.0136387
857.880	0.0134589
857.958	0.0134536
858.036	0.0135657
858.114	0.0135355
858.193	0.0134267
858.271	0.0134243
858.349	0.0134496
858.427	0.0133501
858.505	0.0135109
858.583	0.0134057
858.661	0.0135174
858.739	0.0135995
858.818	0.0136710
858.896	0.0136917
858.974	0.0137024
859.052	0.0137721
859.130	0.0138592
859.208	0.0138560
859.286	0.0140031
859.364	0.0138918
859.443	0.0138645
859.521	0.0138277
859.599	0.0137943
859.677	0.0138808
859.755	0.0139314
859.833	0.0141068
859.911	0.0140101
859.989	0.0140031
860.068	0.0140417
860.146	0.0140788
860.224	0.0141238
860.302	0.0140732
860.380	0.0140024
860.458	0.0140629
860.536	0.0140829
860.614	0.0139836
860.693	0.0140353
860.771	0.0140198
860.849	0.0139697
860.927	0.0139993
861.005	0.0139337
861.083	0.0139031
861.161	0.0139329
861.239	0.0140152
861.318	0.0138462
861.396	0.0138022
861.474	0.0137986
861.552	0.0138373
861.630	0.0138826
861.708	0.0138305
861.786	0.0138354
861.864	0.0137141
861.943	0.0138196
862.021	0.0138313
862.099	0.0138222
862.177	0.0139139
862.255	0.0138365
862.333	0.0137790
862.411	0.0139085
862.489	0.0137945
862.568	0.0137495
862.646	0.0137237
862.724	0.0137511
862.802	0.0137346
862.880	0.0138554
862.958	0.0137428
863.036	0.0137065
863.114	0.0136143
863.193	0.0137239
863.271	0.0137388
863.349	0.0136325
863.427	0.0137644
863.505	0.0135857
863.583	0.0135877
863.661	0.0136563
863.739	0.0135654
863.818	0.0137067
863.896	0.0134483
863.974	0.0135129
864.052	0.0134653
864.130	0.0135322
864.208	0.0135996
864.286	0.0136143
864.364	0.0135812
864.443	0.0137239
864.521	0.0136455
864.599	0.0137975
864.677	0.0136218
864.755	0.0136501
864.833	0.0138079
864.911	0.0138124
864.989	0.0139605
865.068	0.0140520
865.146	0.0139972
865.224	0.0139476
865.302	0.0140882
865.380	0.0141568
865.458	0.0142188
865.536	0.0139583
865.614	0.0141811
865.693	0.0141499
865.771	0.0142763
865.849	0.0141151
865.927	0.0141127
866.005	0.0141505
866.083	0.0140283
866.161	0.0141181
866.239	0.0141779
866.318	0.0141189
866.396	0.0140317
866.474	0.0140298
866.552	0.0140662
866.630	0.0141584
866.708	0.0139977
866.786	0.0139297
866.864	0.0141409
866.943	0.0138898
867.021	0.0138571
867.099	0.0138501
867.177	0.0139097
867.255	0.0137696
867.333	0.0139670
867.411	0.0137476
867.489	0.0136774
867.568	0.0137278
867.646	0.0137000
867.724	0.0137536
867.802	0.0135921
867.880	0.0136151
867.958	0.0136442
868.036	0.0135441
868.114	0.0134286
868.193	0.0137322
868.271	0.0135341
868.349	0.0135872
868.427	0.0134946
868.505	0.0134871
868.583	0.0136084
868.661	0.0135928
868.739	0.0134717
868.818	0.0136553
868.896	0.0136064
868.974	0.0135534
869.052	0.0136870
869.130	0.0136973
869.208	0.0137869
869.286	0.0138180
869.364	0.0136697
869.443	0.0137502
869.521	0.0137921
869.599	0.0137976
869.677	0.0139439
869.755	0.0138194
869.833	0.0138964
869.911	0.0138095
869.989	0.0138405
870.068	0.0138770
870.146	0.0140485
870.224	0.0140771
870.302	0.0139238
870.380	0.0139756
870.458	0.0139144
870.536	0.0140464
870.614	0.0139478
870.693	0.0139629
870.771	0.0140170
870.849	0.0141147
870.927	0.0140598
871.005	0.0139865
871.083	0.0139409
871.161	0.0140318
871.239	0.0139235
871.318	0.0140137
871.396	0.0138688
871.474	0.0137390
871.552	0.0137691
871.630	0.0138385
871.708	0.0139484
871.786	0.0138829
871.864	0.0137697
871.943	0.0138132
872.021	0.0139259
872.099	0.0137105
872.177	0.0136780
872.255	0.0138149
872.333	0.0137206
872.411	0.0138281
872.489	0.0137067
872.568	0.0138400
872.646	0.0138374
872.724	0.0137702
872.802	0.0137021
872.880	0.0138767
872.958	0.0139169
873.036	0.0138555
873.114	0.0138941
873.193	0.0138701
873.271	0.0138574
873.349	0.0139569
873.427	0.0138474
873.505	0.0138330
873.583	0.0139061
873.661	0.0138283
873.739	0.0138620
873.818	0.0138232
873.896	0.0138548
873.974	0.0138470
874.052	0.0138522
874.130	0.0139142
874.208	0.0137437
874.286	0.0138244
874.364	0.0138705
874.443	0.0139944
874.521	0.0139198
874.599	0.0139410
874.677	0.0140246
874.755	0.0139317
874.833	0.0139322
874.911	0.0139820
874.989	0.0138966
875.068	0.0139555
875.146	0.0140569
875.224	0.0137958
875.302	0.0139544
875.380	0.0138979
875.458	0.0139670
875.536	0.0138212
875.614	0.0138973
875.693	0.0137112
875.771	0.0136411
875.849	0.0137469
875.927	0.0137798
876.005	0.0137669
876.083	0.0136816
876.161	0.0138212
876.239	0.0137497
876.318	0.0136713
876.396	0.0137968
876.474	0.0138525
876.552	0.0138007
876.630	0.0138206
876.708	0.0138652
876.786	0.0138551
876.864	0.0139465
876.943	0.0137608
877.021	0.0138778
877.099	0.0140685
877.177	0.0140688
877.255	0.0138516
877.333	0.0140339
877.411	0.0140314
877.489	0.0139526
877.568	0.0140406
877.646	0.0139562
877.724	0.0139452
877.802	0.0139748
877.880	0.0139311
877.958	0.0139217
878.036	0.0138184
878.114	0.0137347
878.193	0.0137817
878.271	0.0137895
878.349	0.0137234
878.427	0.0137555
878.505	0.0137627
878.583	0.0138423
878.661	0.0137382
878.739	0.0137730
878.818	0.0138078
878.896	0.0138684
878.974	0.0138113
879.052	0.0139774
879.130	0.0139104
879.208	0.0139748
879.286	0.0139849
879.364	0.0140288
879.443	0.0140130
879.521	0.0140666
879.599	0.0139951
879.677	0.0140547
879.755	0.0141391
879.833	0.0140160
879.911	0.0139938
879.989	0.0138592
880.068	0.0138453
880.146	0.0137441
880.224	0.0137318
880.302	0.0135796
880.380	0.0136305
880.458	0.0136546
880.536	0.0138645
880.614	0.0135316
880.693	0.0133710
880.771	0.0134592
880.849	0.0134385
880.927	0.0136704
881.005	0.0134708
881.083	0.0133461
881.161	0.0134869
881.239	0.0136758
881.318	0.0134940
881.396	0.0135311
881.474	0.0137218
881.552	0.0138299
881.630	0.0138977
881.708	0.0138076
881.786	0.0139078
881.864	0.0141003
881.943	0.0142532
882.021	0.0141534
882.099	0.0141873
882.177	0.0142262
882.255	0.0142153
882.333	0.0141765
882.411	0.0142957
882.489	0.0143441
882.568	0.0142606
882.646	0.0141763
882.724	0.0141579
882.802	0.0141774
882.880	0.0140005
882.958	0.0139988
883.036	0.0138412
883.114	0.0140616
883.193	0.0139091
883.271	0.0138012
883.349	0.0137226
883.427	0.0136954
883.505	0.0137992
883.583	0.0136177
883.661	0.0135959
883.739	0.0135434
883.818	0.0137436
883.896	0.0136612
883.974	0.0137325
884.052	0.0136087
884.130	0.0137106
884.208	0.0137007
884.286	0.0136748
884.364	0.0136479
884.443	0.0137171
884.521	0.0137827
884.599	0.0137739
884.677	0.0136996
884.755	0.0139016
884.833	0.0137830
884.911	0.0138564
884.989	0.0139703
885.068	0.0140136
885.146	0.0139853
885.224	0.0139281
885.302	0.0137951
885.380	0.0139075
885.458	0.0139301
885.536	0.0138029
885.614	0.0138035
885.693	0.0138077
885.771	0.0137533
885.849	0.0137959
885.927	0.0137624
886.005	0.0137064
886.083	0.0136969
886.161	0.0138230
886.239	0.0137971
886.318	0.0137809
886.396	0.0135559
886.474	0.0136352
886.552	0.0136620
886.630	0.0137117
886.708	0.0136194
886.786	0.0137601
886.864	0.0135829
886.943	0.0136542
887.021	0.0137775
887.099	0.0137319
887.177	0.0138089
887.255	0.0139591
887.333	0.0139507
887.411	0.0139977
887.489	0.0138790
887.568	0.0139642
887.646	0.0140189
887.724	0.0141167
887.802	0.0140762
887.880	0.0141666
887.958	0.0141295
888.036	0.0141082
888.114	0.0141493
888.193	0.0140732
888.271	0.0141232
888.349	0.0139874
888.427	0.0139401
888.505	0.0140600
888.583	0.0140466
888.661	0.0140194
888.739	0.0140289
888.818	0.0139606
888.896	0.0140330
888.974	0.0140474
889.052	0.0138896
889.130	0.0140405
889.208	0.0140783
889.286	0.0138640
889.364	0.0140121
889.443	0.0138393
889.521	0.0139125
889.599	0.0138535
889.677	0.0138031
889.755	0.0137660
889.833	0.0136751
889.911	0.0136395
889.989	0.0135345
890.068	0.0137131
890.146	0.0137085
890.224	0.0136427
890.302	0.0137072
890.380	0.0136094
890.458	0.0136603
890.536	0.0135601
890.614	0.0134969
890.693	0.0135874
890.771	0.0135560
890.849	0.0135337
890.927	0.0133936
891.005	0.0134870
891.083	0.0134998
891.161	0.0136604
891.239	0.0135568
891.318	0.0135858
891.396	0.0136086
891.474	0.0136896
891.552	0.0135175
891.630	0.0136166
891.708	0.0137565
891.786	0.0137844
891.864	0.0136452
891.943	0.0136909
892.021	0.0136868
892.099	0.0135596
892.177	0.0136337
892.255	0.0136420
892.333	0.0138009
892.411	0.0136504
892.489	0.0136176
892.568	0.0136647
892.646	0.0137427
892.724	0.0137941
892.802	0.0138527
892.880	0.0139568
892.958	0.0140168
893.036	0.0140245
893.114	0.0139462
893.193	0.0140580
893.271	0.0141488
893.349	0.0142596
893.427	0.0141739
893.505	0.0142659
893.583	0.0143964
893.661	0.0143563
893.739	0.0144591
893.818	0.0143665
893.896	0.0143808
893.974	0.0143612
894.052	0.0142665
894.130	0.0141997
894.208	0.0142176
894.286	0.0142052
894.364	0.0140527
894.443	0.0142341
894.521	0.0140617
894.599	0.0140371
894.677	0.0139288
894.755	0.0139001
894.833	0.0138145
894.911	0.0137622
894.989	0.0136532
895.068	0.0134166
895.146	0.0135335
895.224	0.0134369
895.302	0.0133273
895.380	0.0133320
895.458	0.0132986
895.536	0.0131732
895.614	0.0133940
895.693	0.0132806
895.771	0.0133451
895.849	0.0135140
895.927	0.0135883
896.005	0.0138271
896.083	0.0139543
896.161	0.0137551
896.239	0.0138026
896.318	0.0139047
896.396	0.0139285
896.474	0.0137403
896.552	0.0138615
896.630	0.0136651
896.708	0.0136948
896.786	0.0136337
896.864	0.0137606
896.943	0.0137705
897.021	0.0136363
897.099	0.0136777
897.177	0.0136709
897.255	0.0136089
897.333	0.0137102
897.411	0.0137134
897.489	0.0138338
897.568	0.0136907
897.646	0.0136887
897.724	0.0139052
897.802	0.0138614
897.880	0.0139684
897.958	0.0141222
898.036	0.0140128
898.114	0.0141318
898.193	0.0142135
898.271	0.0143403
898.349	0.0143980
898.427	0.0143420
898.505	0.0144724
898.583	0.0145395
898.661	0.0144346
898.739	0.0143466
898.818	0.0142626
898.896	0.0143027
898.974	0.0141573
899.052	0.0140975
899.130	0.0139937
899.208	0.0139738
899.286	0.0138654
899.364	0.0137736
899.443	0.0136402
899.521	0.0136170
899.599	0.0134859
899.677	0.0132980
899.755	0.0134126
899.833	0.0133074
899.911	0.0132188
899.989	0.0132937
900.068	0.0132034
900.146	0.0131936
900.224	0.0132525
900.302	0.0132236
900.380	0.0132679
900.458	0.0134937
900.536	0.0135284
900.614	0.0136722
900.693	0.0137845
900.771	0.0140025
900.849	0.0140427
900.927	0.0142207
901.005	0.0141270
901.083	0.0143508
901.161	0.0143509
901.239	0.0145455
901.318	0.0144814
901.396	0.0143783
901.474	0.0143288
901.552	0.0143787
901.630	0.0142381
901.708	0.0141476
901.786	0.0140649
901.864	0.0141107
901.943	0.0139328
902.021	0.0136837
902.099	0.0137500
902.177	0.0138246
902.255	0.0136402
902.333	0.0135910
902.411	0.0133746
902.489	0.0133197
902.568	0.0134003
902.646	0.0132800
902.724	0.0133310
902.802	0.0132703
902.880	0.0134055
902.958	0.0133749
903.036	0.0136301
903.114	0.0136747
903.193	0.0137464
903.271	0.0137440
903.349	0.0138268
903.427	0.0140656
903.505	0.0141499
903.583	0.0141248
903.661	0.0143723
903.739	0.0143578
903.818	0.0142104
903.896	0.0141539
903.974	0.0141558
904.052	0.0140273
904.130	0.0140349
904.208	0.0140589
904.286	0.0139404
904.364	0.0139440
904.443	0.0141806
904.521	0.0137950
904.599	0.0138501
904.677	0.0138337
904.755	0.0136604
904.833	0.0137228
904.911	0.0137460
904.989	0.0136109
905.068	0.0136044
905.146	0.0136292
905.224	0.0136621
905.302	0.0136352
905.380	0.0136652
905.458	0.0135587
905.536	0.0137149
905.614	0.0136202
905.693	0.0138044
905.771	0.0137257
905.849	0.0138881
905.927	0.0140794
906.005	0.0141241
906.083	0.0141412
906.161	0.0142306
906.239	0.0142474
906.318	0.0143307
906.396	0.0142828
906.474	0.0144678
906.552	0.0144378
906.630	0.0143071
906.708	0.0140865
906.786	0.0140479
906.864	0.0140026
906.943	0.0138924
907.021	0.0136796
907.099	0.0137876
907.177	0.0135085
907.255	0.0134313
907.333	0.0135328
907.411	0.0134805
907.489	0.0134538
907.568	0.0133978
907.646	0.0133002
907.724	0.0133407
907.802	0.0134206
907.880	0.0135115
907.958	0.0135458
908.036	0.0135197
908.114	0.0136370
908.193	0.0138158
908.271	0.0138776
908.349	0.0139744
908.427	0.0138493
908.505	0.0140161
908.583	0.0140198
908.661	0.0140070
908.739	0.0141103
908.818	0.0142072
908.896	0.0142298
908.974	0.0142877
909.052	0.0142448
909.130	0.0142792
909.208	0.0142303
909.286	0.0141785
909.364	0.0142474
909.443	0.0140385
909.521	0.0139954
909.599	0.0139029
909.677	0.0138838
909.755	0.0136442
909.833	0.0136109
909.911	0.0136023
909.989	0.0135163
910.068	0.0133128
910.146	0.0134866
910.224	0.0135167
910.302	0.0133132
910.380	0.0133597
910.458	0.0134318
910.536	0.0133197
910.614	0.0133425
910.693	0.0133855
910.771	0.0134014
910.849	0.0136046
910.927	0.0136640
911.005	0.0135204
911.083	0.0137451
911.161	0.0138467
911.239	0.0139355
911.318	0.0140067
911.396	0.0140271
911.474	0.0140726
911.552	0.0141925
911.630	0.0142420
911.708	0.0143121
911.786	0.0143040
911.864	0.0142092
911.943	0.0142403
912.021	0.0141803
912.099	0.0141745
912.177	0.0140022
912.255	0.0139532
912.333	0.0139671
912.411	0.0138453
912.489	0.0137706
912.568	0.0136941
912.646	0.0137331
912.724	0.0134985
912.802	0.0135090
912.880	0.0135648
912.958	0.0134912
913.036	0.0135624
913.114	0.0135348
913.193	0.0136122
913.271	0.0135922
913.349	0.0137074
913.427	0.0137516
913.505	0.0138212
913.583	0.0139614
913.661	0.0139836
913.739	0.0139648
913.818	0.0139899
913.896	0.0140038
913.974	0.0140340
914.052	0.0140550
914.130	0.0142603
914.208	0.0140894
914.286	0.0141935
914.364	0.0141916
914.443	0.0140913
914.521	0.0140892
914.599	0.0140083
914.677	0.0139925
914.755	0.0139225
914.833	0.0139178
914.911	0.0138397
914.989	0.0138452
915.068	0.0137012
915.146	0.0137648
915.224	0.0137073
915.302	0.0136137
915.380	0.0135215
915.458	0.0136965
915.536	0.0135410
915.614	0.0133477
915.693	0.0133832
915.771	0.0133043
915.849	0.0133508
915.927	0.0134973
916.005	0.0135439
916.083	0.0135542
916.161	0.0135374
916.239	0.0135397
916.318	0.0137211
916.396	0.0136771
916.474	0.0137831
916.552	0.0141338
916.630	0.0140459
916.708	0.0140620
916.786	0.0141132
916.864	0.0141002
916.943	0.0141904
917.021	0.0142088
917.099	0.0141514
917.177	0.0142426
917.255	0.0143439
917.333	0.0142622
917.411	0.0140575
917.489	0.0139799
917.568	0.0139170
917.646	0.0138168
917.724	0.0137734
917.802	0.0138243
917.880	0.0138835
917.958	0.0136092
918.036	0.0135629
918.114	0.0136100
918.193	0.0137839
918.271	0.0136699
918.349	0.0136610
918.427	0.0136892
918.505	0.0137818
918.583	0.0137493
918.661	0.0139061
918.739	0.0139070
918.818	0.0140402
918.896	0.0139864
918.974	0.0139568
919.052	0.0140102
919.130	0.0140334
919.208	0.0140685
919.286	0.0139362
919.364	0.0138722
919.443	0.0138036
919.521	0.0138081
919.599	0.0139014
919.677	0.0140186
919.755	0.0137949
919.833	0.0137510
919.911	0.0138914
919.989	0.0137746
920.068	0.0137030
920.146	0.0137154
920.224	0.0135847
920.302	0.0137784
920.380	0.0138705
920.458	0.0136446
920.536	0.0135643
920.614	0.0135825
920.693	0.0135517
920.771	0.0135727
920.849	0.0134818
920.927	0.0135390
921.005	0.0136606
921.083	0.0135273
921.161	0.0135969
921.239	0.0136092
921.318	0.0137145
921.396	0.0137044
921.474	0.0138621
921.552	0.0139998
921.630	0.0140148
921.708	0.0140997
921.786	0.0141438
921.864	0.0142410
921.943	0.0140551
922.021	0.0142725
922.099	0.0142213
922.177	0.0143806
922.255	0.0143323
922.333	0.0143903
922.411	0.0144117
922.489	0.0142133
922.568	0.0140606
922.646	0.0141484
922.724	0.0140811
922.802	0.0139971
922.880	0.0139591
922.958	0.0137486
923.036	0.0137511
923.114	0.0136713
923.193	0.0136130
923.271	0.0136127
923.349	0.0135822
923.427	0.0135266
923.505	0.0134943
923.583	0.0134622
923.661	0.0134127
923.739	0.0135073
923.818	0.0135934
923.896	0.0135763
923.974	0.0136431
924.052	0.0137178
924.130	0.0137452
924.208	0.0136914
924.286	0.0138458
924.364	0.0139082
924.443	0.0138735
924.521	0.0138612
924.599	0.0139327
924.677	0.0139679
924.755	0.0138437
924.833	0.0138682
924.911	0.0139320
924.989	0.0137836
925.068	0.0138436
925.146	0.0137905
925.224	0.0137027
925.302	0.0138753
925.380	0.0137675
925.458	0.0138084
925.536	0.0137066
925.614	0.0137939
925.693	0.0136475
925.771	0.0136382
925.849	0.0137050
925.927	0.0137201
926.005	0.0137437
926.083	0.0137759
926.161	0.0136593
926.239	0.0137114
926.318	0.0137497
926.396	0.0137450
926.474	0.0138145
926.552	0.0139338
926.630	0.0140064
926.708	0.0139610
926.786	0.0140490
926.864	0.0140276
926.943	0.0141580
927.021	0.0141865
927.099	0.0140711
927.177	0.0140556
927.255	0.0139869
927.333	0.0139339
927.411	0.0139382
927.489	0.0139390
927.568	0.0139788
927.646	0.0138487
927.724	0.0137933
927.802	0.0137450
927.880	0.0137266
927.958	0.0137598
928.036	0.0137697
928.114	0.0136843
928.193	0.0136678
928.271	0.0135511
928.349	0.0134795
928.427	0.0137628
928.505	0.0135896
928.583	0.0135688
928.661	0.0135757
928.739	0.0136658
928.818	0.0137885
928.896	0.0137691
928.974	0.0137393
929.052	0.0137312
929.130	0.0137024
929.208	0.0138866
929.286	0.0138091
929.364	0.0137648
929.443	0.0139831
929.521	0.0140698
929.599	0.0140578
929.677	0.0140588
929.755	0.0140080
929.833	0.0140421
929.911	0.0141101
929.989	0.0140450
930.068	0.0141535
930.146	0.0141096
930.224	0.0139986
930.302	0.0140177
930.380	0.0140484
930.458	0.0138927
930.536	0.0137926
930.614	0.0139849
930.693	0.0139306
930.771	0.0140035
930.849	0.0137399
930.927	0.0138108
931.005	0.0136207
931.083	0.0134634
931.161	0.0135375
931.239	0.0134274
931.318	0.0134081
931.396	0.0132965
931.474	0.0133720
931.552	0.0135391
931.630	0.0134336
931.708	0.0134571
931.786	0.0135560
931.864	0.0135768
931.943	0.0136246
932.021	0.0137539
932.099	0.0139275
932.177	0.0139549
932.255	0.0139612
932.333	0.0140847
932.411	0.0141299
932.489	0.0141884
932.568	0.0141858
932.646	0.0142312
932.724	0.0143543
932.802	0.0142788
932.880	0.0142356
932.958	0.0142955
933.036	0.0140853
933.114	0.0140888
933.193	0.0140741
933.271	0.0141272
933.349	0.0140337
933.427	0.0138874
933.505	0.0136975
933.583	0.0137457
933.661	0.0138213
933.739	0.0137638
933.818	0.0135503
933.896	0.0135281
933.974	0.0135365
934.052	0.0135060
934.130	0.0133702
934.208	0.0133447
934.286	0.0135727
934.364	0.0136591
934.443	0.0135606
934.521	0.0136816
934.599	0.0136433
934.677	0.0136859
934.755	0.0136645
934.833	0.0138135
934.911	0.0137571
934.989	0.0137685
935.068	0.0139767
935.146	0.0139397
935.224	0.0138902
935.302	0.0138274
935.380	0.0139174
935.458	0.0140151
935.536	0.0140153
935.614	0.0139384
935.693	0.0140044
935.771	0.0140237
935.849	0.0138718
935.927	0.0138525
936.005	0.0138379
936.083	0.0137894
936.161	0.0138090
936.239	0.0138771
936.318	0.0137847
936.396	0.0135661
936.474	0.0136160
936.552	0.0137279
936.630	0.0135596
936.708	0.0136657
936.786	0.0137665
936.864	0.0137717
936.943	0.0137294
937.021	0.0136561
937.099	0.0136491
937.177	0.0137988
937.255	0.0138432
937.333	0.0139395
937.411	0.0138856
937.489	0.0138808
937.568	0.0138763
937.646	0.0139301
937.724	0.0138282
937.802	0.0138378
937.880	0.0138857
937.958	0.0139838
938.036	0.0138564
938.114	0.0138676
938.193	0.0140121
938.271	0.0138653
938.349	0.0139342
938.427	0.0139787
938.505	0.0137202
938.583	0.0137230
938.661	0.0137959
938.739	0.0138464
938.818	0.0138280
938.896	0.0138379
938.974	0.0136652
939.052	0.0137159
939.130	0.0136723
939.208	0.0137219
939.286	0.0135670
939.364	0.0135076
939.443	0.0137280
939.521	0.0136182
939.599	0.0136422
939.677	0.0136905
939.755	0.0136930
939.833	0.0135841
939.911	0.0136574
939.989	0.0137983
940.068	0.0136049
940.146	0.0137273
940.224	0.0138065
940.302	0.0138145
940.380	0.0138496
940.458	0.0139275
940.536	0.0138852
940.614	0.0138940
940.693	0.0140675
940.771	0.0140321
940.849	0.0140779
940.927	0.0140868
941.005	0.0141470
941.083	0.0140698
941.161	0.0141761
941.239	0.0140678
941.318	0.0141936
941.396	0.0142526
941.474	0.0141078
941.552	0.0140249
941.630	0.0139751
941.708	0.0140675
941.786	0.0140442
941.864	0.0140391
941.943	0.0138641
942.021	0.0140012
942.099	0.0138088
942.177	0.0138464
942.255	0.0137009
942.333	0.0136832
942.411	0.0138126
942.489	0.0138181
942.568	0.0136932
942.646	0.0136617
942.724	0.0135622
942.802	0.0136694
942.880	0.0136714
942.958	0.0137646
943.036	0.0135892
943.114	0.0137722
943.193	0.0136618
943.271	0.0136455
943.349	0.0137776
943.427	0.0137445
943.505	0.0138593
943.583	0.0136239
943.661	0.0137541
943.739	0.0139064
943.818	0.0138454
943.896	0.0137656
943.974	0.0137852
944.052	0.0137431
944.130	0.0136779
944.208	0.0137112
944.286	0.0137453
944.364	0.0137942
944.443	0.0137076
944.521	0.0136836
944.599	0.0136720
944.677	0.0138297
944.755	0.0137797
944.833	0.0138283
944.911	0.0138590
944.989	0.0138427
945.068	0.0138118
945.146	0.0139241
945.224	0.0140201
945.302	0.0139313
945.380	0.0139621
945.458	0.0139150
945.536	0.0141216
945.614	0.0140404
945.693	0.0140219
945.771	0.0139450
945.849	0.0139774
945.927	0.0140176
946.005	0.0140295
946.083	0.0140392
946.161	0.0139464
946.239	0.0139017
946.318	0.0138780
946.396	0.0139371
946.474	0.0139484
946.552	0.0138023
946.630	0.0138423
946.708	0.0138378
946.786	0.0138045
946.864	0.0137685
946.943	0.0138930
947.021	0.0136544
947.099	0.0136652
947.177	0.0138397
947.255	0.0138804
947.333	0.0138076
947.411	0.0138125
947.489	0.0138794
947.568	0.0138086
947.646	0.0137749
947.724	0.0137920
947.802	0.0136736
947.880	0.0137571
947.958	0.0138568
948.036	0.0137961
948.114	0.0136948
948.193	0.0137090
948.271	0.0137350
948.349	0.0137759
948.427	0.0136565
948.505	0.0137081
948.583	0.0136026
948.661	0.0137070
948.739	0.0136250
948.818	0.0135376
948.896	0.0135846
948.974	0.0136446
949.052	0.0136016
949.130	0.0136085
949.208	0.0136614
949.286	0.0135979
949.364	0.0136602
949.443	0.0136263
949.521	0.0136108
949.599	0.0135870
949.677	0.0135413
949.755	0.0137350
949.833	0.0137363
949.911	0.0136535
949.989	0.0136784
950.068	0.0137488
950.146	0.0137479
950.224	0.0138111
950.302	0.0138996
950.380	0.0136459
950.458	0.0137952
950.536	0.0138599
950.614	0.0138559
950.693	0.0138297
950.771	0.0139151
950.849	0.0139931
950.927	0.0137981
951.005	0.0137822
951.083	0.0139017
951.161	0.0138913
951.239	0.0139819
951.318	0.0139467
951.396	0.0140734
951.474	0.0140540
951.552	0.0140457
951.630	0.0138426
951.708	0.0139404
951.786	0.0139748
951.864	0.0139712
951.943	0.0140421
952.021	0.0140430
952.099	0.0139461
952.177	0.0139293
952.255	0.0139537
952.333	0.0139806
952.411	0.0139712
952.489	0.0138998
952.568	0.0139338
952.646	0.0139713
952.724	0.0140072
952.802	0.0138195
952.880	0.0139659
952.958	0.0137550
953.036	0.0138066
953.114	0.0138757
953.193	0.0137557
953.271	0.0137321
953.349	0.0138340
953.427	0.0137315
953.505	0.0136728
953.583	0.0136504
953.661	0.0137086
953.739	0.0136937
953.818	0.0136311
953.896	0.0137524
953.974	0.0136529
954.052	0.0137389
954.130	0.0135989
954.208	0.0136684
954.286	0.0136325
954.364	0.0137780
954.443	0.0135598
954.521	0.0136077
954.599	0.0136147
954.677	0.0136781
954.755	0.0137142
954.833	0.0136543
954.911	0.0136857
954.989	0.0136994
955.068	0.0138632
955.146	0.0137775
955.224	0.0138297
955.302	0.0138805
955.380	0.0137663
955.458	0.0138475
955.536	0.0138924
955.614	0.0138859
955.693	0.0138705
955.771	0.0137941
955.849	0.0139144
955.927	0.0138703
956.005	0.0138260
956.083	0.0140631
956.161	0.0139702
956.239	0.0139732
956.318	0.0139559
956.396	0.0137563
956.474	0.0140517
956.552	0.0138848
956.630	0.0138109
956.708	0.0139781
956.786	0.0138457
956.864	0.0139062
956.943	0.0140292
957.021	0.0140173
957.099	0.0138507
957.177	0.0138235
957.255	0.0139645
957.333	0.0138036
957.411	0.0138792
957.489	0.0139454
957.568	0.0138362
957.646	0.0138763
957.724	0.0139238
957.802	0.0138648
957.880	0.0138753
957.958	0.0138457
958.036	0.0137617
958.114	0.0138006
958.193	0.0138776
958.271	0.0137630
958.349	0.0137856
958.427	0.0137897
958.505	0.0137902
958.583	0.0137933
958.661	0.0136101
958.739	0.0137865
958.818	0.0137572
958.896	0.0136551
958.974	0.0138226
959.052	0.0139237
959.130	0.0135152
959.208	0.0136932
959.286	0.0137865
959.364	0.0137814
959.443	0.0137719
959.521	0.0136902
959.599	0.0136319
959.677	0.0137013
959.755	0.0136989
959.833	0.0137981
959.911	0.0136048
