05/14/2022	16:32:21	Ver.	4.1	UNKNOWN
Optical Delay	639.989416	Delta X		0.078125	Sweeps	1	Scan Rate	0/0
Coordinates	Axis 1	NaN	Axis 2	NaN	Axis 3	NaN	Axis 4	NaN	Axis 5	NaN	Axis 6	0.000000
TX Power	0.000000	RX Power	0.000000

639.989	0.0136548
640.068	0.0136513
640.146	0.0135306
640.224	0.0136542
640.302	0.0137122
640.380	0.0136256
640.458	0.0137574
640.536	0.0137324
640.614	0.0137327
640.693	0.0137858
640.771	0.0136195
640.849	0.0137440
640.927	0.0136676
641.005	0.0136718
641.083	0.0136710
641.161	0.0137866
641.239	0.0137123
641.318	0.0135349
641.396	0.0137845
641.474	0.0136790
641.552	0.0136648
641.630	0.0136335
641.708	0.0137167
641.786	0.0137186
641.864	0.0136587
641.943	0.0136325
642.021	0.0137290
642.099	0.0137236
642.177	0.0135665
642.255	0.0137563
642.333	0.0137530
642.411	0.0137011
642.489	0.0138197
642.568	0.0137483
642.646	0.0136665
642.724	0.0138064
642.802	0.0136884
642.880	0.0136513
642.958	0.0137321
643.036	0.0137800
643.114	0.0137058
643.193	0.0136172
643.271	0.0135826
643.349	0.0137332
643.427	0.0137477
643.505	0.0136473
643.583	0.0135828
643.661	0.0136368
643.739	0.0137722
643.818	0.0136452
643.896	0.0136680
643.974	0.0136902
644.052	0.0135992
644.130	0.0136823
644.208	0.0135967
644.286	0.0135814
644.364	0.0136666
644.443	0.0136491
644.521	0.0135681
644.599	0.0136897
644.677	0.0137083
644.755	0.0135344
644.833	0.0138402
644.911	0.0137341
644.989	0.0135694
645.068	0.0136221
645.146	0.0136319
645.224	0.0136194
645.302	0.0136221
645.380	0.0135851
645.458	0.0136754
645.536	0.0136578
645.614	0.0136403
645.693	0.0136729
645.771	0.0136792
645.849	0.0136125
645.927	0.0137926
646.005	0.0136057
646.083	0.0137623
646.161	0.0136037
646.239	0.0137061
646.318	0.0136013
646.396	0.0137201
646.474	0.0135527
646.552	0.0136954
646.630	0.0136328
646.708	0.0136501
646.786	0.0136594
646.864	0.0136268
646.943	0.0136433
647.021	0.0136990
647.099	0.0138805
647.177	0.0137551
647.255	0.0136364
647.333	0.0136662
647.411	0.0136938
647.489	0.0137024
647.568	0.0135358
647.646	0.0136245
647.724	0.0137426
647.802	0.0135693
647.880	0.0135693
647.958	0.0136314
648.036	0.0137440
648.114	0.0135812
648.193	0.0135821
648.271	0.0136843
648.349	0.0136461
648.427	0.0135379
648.505	0.0135901
648.583	0.0136302
648.661	0.0135799
648.739	0.0135903
648.818	0.0136993
648.896	0.0135412
648.974	0.0136016
649.052	0.0135832
649.130	0.0135995
649.208	0.0136501
649.286	0.0135663
649.364	0.0135498
649.443	0.0135867
649.521	0.0136765
649.599	0.0135722
649.677	0.0135707
649.755	0.0134160
649.833	0.0134560
649.911	0.0135925
649.989	0.0135263
650.068	0.0136051
650.146	0.0136715
650.224	0.0134165
650.302	0.0136172
650.380	0.0135455
650.458	0.0133797
650.536	0.0135429
650.614	0.0135410
650.693	0.0135516
650.771	0.0134200
650.849	0.0135667
650.927	0.0136003
651.005	0.0135977
651.083	0.0134637
651.161	0.0135899
651.239	0.0135686
651.318	0.0134907
651.396	0.0136744
651.474	0.0136005
651.552	0.0134583
651.630	0.0134553
651.708	0.0135432
651.786	0.0135183
651.864	0.0135649
651.943	0.0136090
652.021	0.0136015
652.099	0.0135145
652.177	0.0136349
652.255	0.0137183
652.333	0.0136354
652.411	0.0136775
652.489	0.0135018
652.568	0.0135582
652.646	0.0135301
652.724	0.0136182
652.802	0.0135488
652.880	0.0134693
652.958	0.0136444
653.036	0.0135466
653.114	0.0135174
653.193	0.0136396
653.271	0.0135813
653.349	0.0135460
653.427	0.0135748
653.505	0.0135442
653.583	0.0135409
653.661	0.0135536
653.739	0.0135384
653.818	0.0134731
653.896	0.0135002
653.974	0.0136314
654.052	0.0136526
654.130	0.0136048
654.208	0.0136209
654.286	0.0135294
654.364	0.0136209
654.443	0.0136015
654.521	0.0136724
654.599	0.0136900
654.677	0.0136078
654.755	0.0135462
654.833	0.0135688
654.911	0.0136599
654.989	0.0137144
655.068	0.0134168
655.146	0.0136372
655.224	0.0135954
655.302	0.0134463
655.380	0.0135680
655.458	0.0135934
655.536	0.0136184
655.614	0.0136929
655.693	0.0133973
655.771	0.0135246
655.849	0.0135198
655.927	0.0135736
656.005	0.0135027
656.083	0.0136314
656.161	0.0134682
656.239	0.0135184
656.318	0.0135829
656.396	0.0136130
656.474	0.0137259
656.552	0.0136999
656.630	0.0136521
656.708	0.0136299
656.786	0.0136694
656.864	0.0137029
656.943	0.0136693
657.021	0.0135658
657.099	0.0136309
657.177	0.0136384
657.255	0.0136858
657.333	0.0136537
657.411	0.0137315
657.489	0.0136144
657.568	0.0136007
657.646	0.0135198
657.724	0.0136045
657.802	0.0136179
657.880	0.0136106
657.958	0.0136308
658.036	0.0135140
658.114	0.0135365
658.193	0.0136965
658.271	0.0137420
658.349	0.0135914
658.427	0.0136886
658.505	0.0137161
658.583	0.0137370
658.661	0.0135931
658.739	0.0137032
658.818	0.0136781
658.896	0.0136137
658.974	0.0137357
659.052	0.0135902
659.130	0.0136339
659.208	0.0138689
659.286	0.0135755
659.364	0.0136820
659.443	0.0136670
659.521	0.0136508
659.599	0.0136462
659.677	0.0136421
659.755	0.0136360
659.833	0.0134898
659.911	0.0136681
659.989	0.0136783
660.068	0.0136465
660.146	0.0135400
660.224	0.0137231
660.302	0.0136526
660.380	0.0137422
660.458	0.0137430
660.536	0.0136009
660.614	0.0136862
660.693	0.0136143
660.771	0.0136211
660.849	0.0136037
660.927	0.0136070
661.005	0.0136255
661.083	0.0136706
661.161	0.0137801
661.239	0.0137333
661.318	0.0135758
661.396	0.0136378
661.474	0.0137808
661.552	0.0137503
661.630	0.0136938
661.708	0.0136053
661.786	0.0136556
661.864	0.0135653
661.943	0.0136698
662.021	0.0137653
662.099	0.0138454
662.177	0.0137849
662.255	0.0136966
662.333	0.0135836
662.411	0.0137111
662.489	0.0135744
662.568	0.0136367
662.646	0.0136588
662.724	0.0136791
662.802	0.0137553
662.880	0.0136906
662.958	0.0138371
663.036	0.0136090
663.114	0.0136512
663.193	0.0136678
663.271	0.0137326
663.349	0.0137194
663.427	0.0138602
663.505	0.0135977
663.583	0.0138097
663.661	0.0136678
663.739	0.0138171
663.818	0.0138696
663.896	0.0136958
663.974	0.0135606
664.052	0.0137344
664.130	0.0138067
664.208	0.0137302
664.286	0.0137933
664.364	0.0138216
664.443	0.0136137
664.521	0.0136115
664.599	0.0137281
664.677	0.0138268
664.755	0.0136459
664.833	0.0138287
664.911	0.0139400
664.989	0.0136446
665.068	0.0138001
665.146	0.0137123
665.224	0.0137536
665.302	0.0137438
665.380	0.0137337
665.458	0.0136256
665.536	0.0136057
665.614	0.0137146
665.693	0.0136771
665.771	0.0138166
665.849	0.0137582
665.927	0.0136187
666.005	0.0136333
666.083	0.0136128
666.161	0.0137007
666.239	0.0136016
666.318	0.0136844
666.396	0.0137241
666.474	0.0136588
666.552	0.0137491
666.630	0.0136174
666.708	0.0137128
666.786	0.0137237
666.864	0.0135371
666.943	0.0136489
667.021	0.0138376
667.099	0.0137266
667.177	0.0136138
667.255	0.0136929
667.333	0.0136084
667.411	0.0135597
667.489	0.0136376
667.568	0.0136350
667.646	0.0135118
667.724	0.0137190
667.802	0.0137044
667.880	0.0136752
667.958	0.0134993
668.036	0.0136236
668.114	0.0136144
668.193	0.0136040
668.271	0.0136799
668.349	0.0135361
668.427	0.0136369
668.505	0.0137047
668.583	0.0136561
668.661	0.0135673
668.739	0.0136283
668.818	0.0135581
668.896	0.0137345
668.974	0.0136517
669.052	0.0135706
669.130	0.0136641
669.208	0.0135487
669.286	0.0135659
669.364	0.0135448
669.443	0.0135637
669.521	0.0136082
669.599	0.0135726
669.677	0.0136331
669.755	0.0136388
669.833	0.0135369
669.911	0.0134677
669.989	0.0134605
670.068	0.0134081
670.146	0.0136628
670.224	0.0135103
670.302	0.0134577
670.380	0.0134017
670.458	0.0135628
670.536	0.0135918
670.614	0.0135310
670.693	0.0135698
670.771	0.0136265
670.849	0.0136533
670.927	0.0135909
671.005	0.0135585
671.083	0.0135725
671.161	0.0135269
671.239	0.0135517
671.318	0.0134919
671.396	0.0136140
671.474	0.0135287
671.552	0.0134724
671.630	0.0133923
671.708	0.0134637
671.786	0.0134464
671.864	0.0135867
671.943	0.0134528
672.021	0.0134747
672.099	0.0133885
672.177	0.0133266
672.255	0.0136073
672.333	0.0135479
672.411	0.0133620
672.489	0.0134718
672.568	0.0135431
672.646	0.0135622
672.724	0.0134339
672.802	0.0135324
672.880	0.0135927
672.958	0.0135069
673.036	0.0136830
673.114	0.0135610
673.193	0.0134511
673.271	0.0134541
673.349	0.0134550
673.427	0.0135361
673.505	0.0134525
673.583	0.0135678
673.661	0.0135559
673.739	0.0135695
673.818	0.0135892
673.896	0.0134657
673.974	0.0135973
674.052	0.0135703
674.130	0.0136537
674.208	0.0135414
674.286	0.0136967
674.364	0.0135471
674.443	0.0134238
674.521	0.0134689
674.599	0.0136111
674.677	0.0135921
674.755	0.0135902
674.833	0.0136094
674.911	0.0135223
674.989	0.0135650
675.068	0.0136112
675.146	0.0134247
675.224	0.0136543
675.302	0.0135617
675.380	0.0135062
675.458	0.0135340
675.536	0.0136380
675.614	0.0135871
675.693	0.0134764
675.771	0.0134026
675.849	0.0134999
675.927	0.0135943
676.005	0.0135595
676.083	0.0135660
676.161	0.0137498
676.239	0.0135998
676.318	0.0138001
676.396	0.0135618
676.474	0.0135992
676.552	0.0136341
676.630	0.0134463
676.708	0.0135513
676.786	0.0135973
676.864	0.0136823
676.943	0.0135565
677.021	0.0135462
677.099	0.0135735
677.177	0.0135587
677.255	0.0136402
677.333	0.0136246
677.411	0.0135967
677.489	0.0137656
677.568	0.0134645
677.646	0.0135258
677.724	0.0136036
677.802	0.0135051
677.880	0.0135287
677.958	0.0135595
678.036	0.0137144
678.114	0.0136494
678.193	0.0134834
678.271	0.0136527
678.349	0.0137164
678.427	0.0135560
678.505	0.0135175
678.583	0.0136742
678.661	0.0137552
678.739	0.0136560
678.818	0.0137054
678.896	0.0136897
678.974	0.0137994
679.052	0.0136584
679.130	0.0138188
679.208	0.0136568
679.286	0.0137247
679.364	0.0136630
679.443	0.0135081
679.521	0.0133643
679.599	0.0134133
679.677	0.0134441
679.755	0.0134631
679.833	0.0134565
679.911	0.0135329
679.989	0.0134555
680.068	0.0135641
680.146	0.0136808
680.224	0.0138598
680.302	0.0139017
680.380	0.0140221
680.458	0.0140162
680.536	0.0140530
680.614	0.0140854
680.693	0.0141763
680.771	0.0141270
680.849	0.0140502
680.927	0.0138345
681.005	0.0137615
681.083	0.0133920
681.161	0.0133118
681.239	0.0131555
681.318	0.0131467
681.396	0.0132729
681.474	0.0131705
681.552	0.0130814
681.630	0.0130424
681.708	0.0131041
681.786	0.0131586
681.864	0.0129465
681.943	0.0130733
682.021	0.0132571
682.099	0.0133349
682.177	0.0134149
682.255	0.0136048
682.333	0.0137173
682.411	0.0139180
682.489	0.0139046
682.568	0.0141977
682.646	0.0142421
682.724	0.0143136
682.802	0.0145493
682.880	0.0145781
682.958	0.0146062
683.036	0.0145454
683.114	0.0146069
683.193	0.0144521
683.271	0.0143800
683.349	0.0142368
683.427	0.0138535
683.505	0.0137544
683.583	0.0134239
683.661	0.0131292
683.739	0.0130614
683.818	0.0129242
683.896	0.0127000
683.974	0.0127695
684.052	0.0126939
684.130	0.0126509
684.208	0.0126576
684.286	0.0125926
684.364	0.0125785
684.443	0.0126936
684.521	0.0128432
684.599	0.0129119
684.677	0.0129826
684.755	0.0131297
684.833	0.0133905
684.911	0.0134800
684.989	0.0135929
685.068	0.0137690
685.146	0.0140435
685.224	0.0141788
685.302	0.0144285
685.380	0.0147010
685.458	0.0148557
685.536	0.0148663
685.614	0.0148106
685.693	0.0150021
685.771	0.0150566
685.849	0.0147680
685.927	0.0147757
686.005	0.0146292
686.083	0.0141759
686.161	0.0141644
686.239	0.0138348
686.318	0.0135458
686.396	0.0135210
686.474	0.0131936
686.552	0.0131194
686.630	0.0131429
686.708	0.0129282
686.786	0.0128853
686.864	0.0130815
686.943	0.0130412
687.021	0.0131362
687.099	0.0132716
687.177	0.0133234
687.255	0.0134288
687.333	0.0134818
687.411	0.0133589
687.489	0.0133590
687.568	0.0133704
687.646	0.0133279
687.724	0.0131638
687.802	0.0129666
687.880	0.0128655
687.958	0.0125835
688.036	0.0126635
688.114	0.0125620
688.193	0.0124813
688.271	0.0126450
688.349	0.0127245
688.427	0.0126661
688.505	0.0127123
688.583	0.0130164
688.661	0.0132306
688.739	0.0134897
688.818	0.0134878
688.896	0.0139112
688.974	0.0139269
689.052	0.0143562
689.130	0.0144131
689.208	0.0145901
689.286	0.0149950
689.364	0.0152412
689.443	0.0153921
689.521	0.0155068
689.599	0.0156549
689.677	0.0156918
689.755	0.0158466
689.833	0.0156932
689.911	0.0155447
689.989	0.0154516
690.068	0.0153612
690.146	0.0151189
690.224	0.0148832
690.302	0.0144766
690.380	0.0142477
690.458	0.0141401
690.536	0.0137656
690.614	0.0133606
690.693	0.0129877
690.771	0.0126121
690.849	0.0123665
690.927	0.0120403
691.005	0.0116091
691.083	0.0114351
691.161	0.0111943
691.239	0.0111317
691.318	0.0109850
691.396	0.0109792
691.474	0.0109027
691.552	0.0109885
691.630	0.0111176
691.708	0.0114206
691.786	0.0114969
691.864	0.0116827
691.943	0.0120200
692.021	0.0122414
692.099	0.0126608
692.177	0.0128938
692.255	0.0132477
692.333	0.0134924
692.411	0.0135905
692.489	0.0138185
692.568	0.0141642
692.646	0.0143971
692.724	0.0144904
692.802	0.0146924
692.880	0.0149101
692.958	0.0151384
693.036	0.0152900
693.114	0.0157144
693.193	0.0160832
693.271	0.0162813
693.349	0.0163635
693.427	0.0167376
693.505	0.0168895
693.583	0.0168954
693.661	0.0168783
693.739	0.0167175
693.818	0.0165576
693.896	0.0161246
693.974	0.0157206
694.052	0.0153607
694.130	0.0149650
694.208	0.0144137
694.286	0.0140133
694.364	0.0136141
694.443	0.0132759
694.521	0.0128986
694.599	0.0126710
694.677	0.0124690
694.755	0.0124081
694.833	0.0121607
694.911	0.0122433
694.989	0.0120695
695.068	0.0118369
695.146	0.0117525
695.224	0.0116445
695.302	0.0114596
695.380	0.0114545
695.458	0.0112539
695.536	0.0110062
695.614	0.0110273
695.693	0.0110911
695.771	0.0109692
695.849	0.0106999
695.927	0.0107710
696.005	0.0107285
696.083	0.0106921
696.161	0.0107140
696.239	0.0107404
696.318	0.0107318
696.396	0.0108723
696.474	0.0109704
696.552	0.0113079
696.630	0.0115855
696.708	0.0119081
696.786	0.0124347
696.864	0.0127251
696.943	0.0135090
697.021	0.0141570
697.099	0.0149603
697.177	0.0157998
697.255	0.0165603
697.333	0.0174069
697.411	0.0180481
697.489	0.0187080
697.568	0.0192284
697.646	0.0199345
697.724	0.0203085
697.802	0.0203103
697.880	0.0203941
697.958	0.0203185
698.036	0.0199830
698.114	0.0196734
698.193	0.0192417
698.271	0.0186565
698.349	0.0179370
698.427	0.0170554
698.505	0.0163026
698.583	0.0152412
698.661	0.0143268
698.739	0.0133920
698.818	0.0125058
698.896	0.0115931
698.974	0.0107442
699.052	0.00996193
699.130	0.00908737
699.208	0.00837578
699.286	0.00777740
699.364	0.00746216
699.443	0.00698570
699.521	0.00666580
699.599	0.00642570
699.677	0.00647614
699.755	0.00630325
699.833	0.00663734
699.911	0.00699478
699.989	0.00735619
700.068	0.00785240
700.146	0.00836586
700.224	0.00917564
700.302	0.00997429
700.380	0.0108269
700.458	0.0116050
700.536	0.0124617
700.614	0.0134098
700.693	0.0140234
700.771	0.0147772
700.849	0.0156974
700.927	0.0163480
701.005	0.0167960
701.083	0.0175719
701.161	0.0179632
701.239	0.0181900
701.318	0.0185217
701.396	0.0186204
701.474	0.0187836
701.552	0.0187502
701.630	0.0187332
701.708	0.0184227
701.786	0.0181146
701.864	0.0180193
701.943	0.0177290
702.021	0.0173726
702.099	0.0170867
702.177	0.0167571
702.255	0.0164622
702.333	0.0162523
702.411	0.0159859
702.489	0.0158794
702.568	0.0155600
702.646	0.0153632
702.724	0.0150047
702.802	0.0147224
702.880	0.0145348
702.958	0.0141483
703.036	0.0137727
703.114	0.0133486
703.193	0.0128458
703.271	0.0125320
703.349	0.0120199
703.427	0.0115367
703.505	0.0111674
703.583	0.0108437
703.661	0.0105958
703.739	0.0101733
703.818	0.00976479
703.896	0.00946136
703.974	0.00935394
704.052	0.00911751
704.130	0.00893112
704.208	0.00876892
704.286	0.00896324
704.364	0.00899254
704.443	0.00921516
704.521	0.00954659
704.599	0.00988625
704.677	0.0101833
704.755	0.0106081
704.833	0.0111281
704.911	0.0116536
704.989	0.0122066
705.068	0.0126543
705.146	0.0131487
705.224	0.0137035
705.302	0.0142430
705.380	0.0146879
705.458	0.0149299
705.536	0.0152792
705.614	0.0154427
705.693	0.0156345
705.771	0.0158358
705.849	0.0159080
705.927	0.0158496
706.005	0.0159812
706.083	0.0158662
706.161	0.0158411
706.239	0.0160130
706.318	0.0161297
706.396	0.0160819
706.474	0.0162454
706.552	0.0163226
706.630	0.0163279
706.708	0.0163644
706.786	0.0166090
706.864	0.0164989
706.943	0.0165684
707.021	0.0165081
707.099	0.0165463
707.177	0.0162744
707.255	0.0162486
707.333	0.0158553
707.411	0.0157356
707.489	0.0154824
707.568	0.0151271
707.646	0.0147903
707.724	0.0144607
707.802	0.0140546
707.880	0.0135563
707.958	0.0133797
708.036	0.0130228
708.114	0.0125476
708.193	0.0123519
708.271	0.0120172
708.349	0.0119731
708.427	0.0116700
708.505	0.0115018
708.583	0.0113177
708.661	0.0110757
708.739	0.0108814
708.818	0.0106098
708.896	0.0105441
708.974	0.0104237
709.052	0.0101106
709.130	0.0100076
709.208	0.00993744
709.286	0.00980637
709.364	0.00990646
709.443	0.00990540
709.521	0.0100668
709.599	0.0103874
709.677	0.0108113
709.755	0.0111308
709.833	0.0117950
709.911	0.0121630
709.989	0.0130473
710.068	0.0137360
710.146	0.0142068
710.224	0.0146817
710.302	0.0151766
710.380	0.0158514
710.458	0.0160659
710.536	0.0163890
710.614	0.0164761
710.693	0.0165771
710.771	0.0164420
710.849	0.0162930
710.927	0.0163515
711.005	0.0161412
711.083	0.0159467
711.161	0.0157320
711.239	0.0154803
711.318	0.0153711
711.396	0.0150258
711.474	0.0148213
711.552	0.0143604
711.630	0.0142183
711.708	0.0139985
711.786	0.0134935
711.864	0.0133422
711.943	0.0132698
712.021	0.0129775
712.099	0.0128318
712.177	0.0125307
712.255	0.0122514
712.333	0.0124523
712.411	0.0125969
712.489	0.0126405
712.568	0.0127616
712.646	0.0128547
712.724	0.0131560
712.802	0.0135028
712.880	0.0138589
712.958	0.0141750
713.036	0.0145145
713.114	0.0147626
713.193	0.0150298
713.271	0.0152407
713.349	0.0153902
713.427	0.0156165
713.505	0.0157321
713.583	0.0157801
713.661	0.0157126
713.739	0.0156731
713.818	0.0154661
713.896	0.0154179
713.974	0.0150597
714.052	0.0149416
714.130	0.0144835
714.208	0.0139231
714.286	0.0135566
714.364	0.0128839
714.443	0.0123451
714.521	0.0117049
714.599	0.0111173
714.677	0.0106349
714.755	0.0103420
714.833	0.00974060
714.911	0.00957008
714.989	0.00945480
715.068	0.00947693
715.146	0.00947357
715.224	0.00979324
715.302	0.0102538
715.380	0.0106144
715.458	0.0111083
715.536	0.0117328
715.614	0.0123564
715.693	0.0128389
715.771	0.0133762
715.849	0.0141013
715.927	0.0144527
716.005	0.0147620
716.083	0.0151785
716.161	0.0156564
716.239	0.0158437
716.318	0.0160210
716.396	0.0160831
716.474	0.0160717
716.552	0.0160159
716.630	0.0160513
716.708	0.0156850
716.786	0.0154191
716.864	0.0152546
716.943	0.0147475
717.021	0.0144388
717.099	0.0142001
717.177	0.0136380
717.255	0.0134407
717.333	0.0131647
717.411	0.0130021
717.489	0.0128586
717.568	0.0128340
717.646	0.0127740
717.724	0.0127254
717.802	0.0130130
717.880	0.0131289
717.958	0.0135155
718.036	0.0137447
718.114	0.0138730
718.193	0.0141463
718.271	0.0143306
718.349	0.0145204
718.427	0.0146174
718.505	0.0147637
718.583	0.0149486
718.661	0.0150455
718.739	0.0150251
718.818	0.0150946
718.896	0.0148933
718.974	0.0149793
719.052	0.0150082
719.130	0.0148695
719.208	0.0147744
719.286	0.0145967
719.364	0.0143127
719.443	0.0142857
719.521	0.0141778
719.599	0.0137154
719.677	0.0134975
719.755	0.0130895
719.833	0.0129836
719.911	0.0127700
719.989	0.0123699
720.068	0.0120467
720.146	0.0117871
720.224	0.0117060
720.302	0.0116442
720.380	0.0114301
720.458	0.0113813
720.536	0.0114567
720.614	0.0116110
720.693	0.0116395
720.771	0.0116902
720.849	0.0119553
720.927	0.0121207
721.005	0.0123763
721.083	0.0126324
721.161	0.0130634
721.239	0.0133733
721.318	0.0137309
721.396	0.0141229
721.474	0.0143581
721.552	0.0146207
721.630	0.0149461
721.708	0.0147409
721.786	0.0149982
721.864	0.0150554
721.943	0.0148505
722.021	0.0146088
722.099	0.0143404
722.177	0.0141378
722.255	0.0137872
722.333	0.0134582
722.411	0.0129114
722.489	0.0125217
722.568	0.0122198
722.646	0.0119336
722.724	0.0115919
722.802	0.0114012
722.880	0.0112109
722.958	0.0110602
723.036	0.0113187
723.114	0.0114149
723.193	0.0116034
723.271	0.0117892
723.349	0.0122628
723.427	0.0128848
723.505	0.0134721
723.583	0.0140500
723.661	0.0144862
723.739	0.0150679
723.818	0.0155795
723.896	0.0160124
723.974	0.0165919
724.052	0.0166585
724.130	0.0169434
724.208	0.0168068
724.286	0.0167204
724.364	0.0165528
724.443	0.0165720
724.521	0.0162968
724.599	0.0161709
724.677	0.0157689
724.755	0.0154797
724.833	0.0153529
724.911	0.0151909
724.989	0.0149811
725.068	0.0148687
725.146	0.0147839
725.224	0.0145162
725.302	0.0142907
725.380	0.0141174
725.458	0.0142666
725.536	0.0138872
725.614	0.0138984
725.693	0.0135699
725.771	0.0133881
725.849	0.0130513
725.927	0.0128847
726.005	0.0126071
726.083	0.0124943
726.161	0.0120407
726.239	0.0119115
726.318	0.0116710
726.396	0.0114678
726.474	0.0114841
726.552	0.0114555
726.630	0.0113836
726.708	0.0112729
726.786	0.0114046
726.864	0.0113046
726.943	0.0114223
727.021	0.0116326
727.099	0.0115538
727.177	0.0117608
727.255	0.0119395
727.333	0.0122559
727.411	0.0123130
727.489	0.0124285
727.568	0.0123695
727.646	0.0124902
727.724	0.0126821
727.802	0.0127628
727.880	0.0128022
727.958	0.0129147
728.036	0.0129588
728.114	0.0129021
728.193	0.0131735
728.271	0.0133045
728.349	0.0134032
728.427	0.0134677
728.505	0.0136991
728.583	0.0138992
728.661	0.0139001
728.739	0.0140199
728.818	0.0142832
728.896	0.0143127
728.974	0.0144891
729.052	0.0147908
729.130	0.0149331
729.208	0.0151617
729.286	0.0150830
729.364	0.0152235
729.443	0.0155661
729.521	0.0157025
729.599	0.0156259
729.677	0.0156031
729.755	0.0157406
729.833	0.0158248
729.911	0.0157993
729.989	0.0159058
730.068	0.0157688
730.146	0.0157289
730.224	0.0158008
730.302	0.0156159
730.380	0.0152969
730.458	0.0153179
730.536	0.0152024
730.614	0.0148798
730.693	0.0146974
730.771	0.0144347
730.849	0.0144770
730.927	0.0141208
731.005	0.0139312
731.083	0.0136831
731.161	0.0134783
731.239	0.0133617
731.318	0.0131698
731.396	0.0130143
731.474	0.0128006
731.552	0.0126166
731.630	0.0123181
731.708	0.0121583
731.786	0.0119021
731.864	0.0118936
731.943	0.0117489
732.021	0.0116824
732.099	0.0116341
732.177	0.0115161
732.255	0.0113502
732.333	0.0113189
732.411	0.0113528
732.489	0.0113560
732.568	0.0114398
732.646	0.0114818
732.724	0.0116915
732.802	0.0117840
732.880	0.0117146
732.958	0.0119004
733.036	0.0121608
733.114	0.0123083
733.193	0.0124795
733.271	0.0126916
733.349	0.0128091
733.427	0.0128369
733.505	0.0131681
733.583	0.0133513
733.661	0.0132539
733.739	0.0134266
733.818	0.0137328
733.896	0.0139693
733.974	0.0141913
734.052	0.0143052
734.130	0.0144174
734.208	0.0145174
734.286	0.0145771
734.364	0.0147298
734.443	0.0147292
734.521	0.0148424
734.599	0.0148045
734.677	0.0147667
734.755	0.0148273
734.833	0.0147175
734.911	0.0147076
734.989	0.0145998
735.068	0.0147219
735.146	0.0144524
735.224	0.0145687
735.302	0.0146767
735.380	0.0143994
735.458	0.0144726
735.536	0.0143855
735.614	0.0142655
735.693	0.0140997
735.771	0.0140862
735.849	0.0141291
735.927	0.0141240
736.005	0.0141264
736.083	0.0139500
736.161	0.0138900
736.239	0.0138785
736.318	0.0140079
736.396	0.0138751
736.474	0.0140448
736.552	0.0140961
736.630	0.0139699
736.708	0.0139694
736.786	0.0140620
736.864	0.0141149
736.943	0.0140032
737.021	0.0141396
737.099	0.0139626
737.177	0.0142235
737.255	0.0141513
737.333	0.0139912
737.411	0.0140633
737.489	0.0140234
737.568	0.0140394
737.646	0.0137788
737.724	0.0137895
737.802	0.0136281
737.880	0.0134182
737.958	0.0134120
738.036	0.0131621
738.114	0.0129501
738.193	0.0127379
738.271	0.0125581
738.349	0.0125458
738.427	0.0123551
738.505	0.0121511
738.583	0.0121178
738.661	0.0120906
738.739	0.0120300
738.818	0.0121825
738.896	0.0122152
738.974	0.0122563
739.052	0.0122767
739.130	0.0125682
739.208	0.0128073
739.286	0.0130328
739.364	0.0130512
739.443	0.0131957
739.521	0.0133235
739.599	0.0134633
739.677	0.0134061
739.755	0.0134518
739.833	0.0135028
739.911	0.0135501
739.989	0.0134759
740.068	0.0134123
740.146	0.0133704
740.224	0.0133791
740.302	0.0134769
740.380	0.0133404
740.458	0.0134625
740.536	0.0135846
740.614	0.0137233
740.693	0.0136929
740.771	0.0137986
740.849	0.0139336
740.927	0.0138905
741.005	0.0142331
741.083	0.0144427
741.161	0.0145036
741.239	0.0149192
741.318	0.0149892
741.396	0.0151410
741.474	0.0151186
741.552	0.0151624
741.630	0.0152254
741.708	0.0151973
741.786	0.0150286
741.864	0.0150224
741.943	0.0148521
742.021	0.0147050
742.099	0.0144154
742.177	0.0144378
742.255	0.0140483
742.333	0.0141023
742.411	0.0139487
742.489	0.0139570
742.568	0.0138570
742.646	0.0136834
742.724	0.0135522
742.802	0.0134791
742.880	0.0136588
742.958	0.0136952
743.036	0.0136124
743.114	0.0135999
743.193	0.0137811
743.271	0.0137263
743.349	0.0136298
743.427	0.0137038
743.505	0.0136743
743.583	0.0135832
743.661	0.0134975
743.739	0.0135075
743.818	0.0134353
743.896	0.0132533
743.974	0.0131026
744.052	0.0131381
744.130	0.0129917
744.208	0.0127621
744.286	0.0126687
744.364	0.0125726
744.443	0.0125642
744.521	0.0123856
744.599	0.0123507
744.677	0.0123518
744.755	0.0124342
744.833	0.0123693
744.911	0.0125949
744.989	0.0126824
745.068	0.0126626
745.146	0.0128252
745.224	0.0130960
745.302	0.0131444
745.380	0.0132300
745.458	0.0133617
745.536	0.0135370
745.614	0.0135945
745.693	0.0136785
745.771	0.0135683
745.849	0.0135848
745.927	0.0135571
746.005	0.0133586
746.083	0.0135474
746.161	0.0135561
746.239	0.0133473
746.318	0.0134569
746.396	0.0135113
746.474	0.0135466
746.552	0.0136814
746.630	0.0136907
746.708	0.0138778
746.786	0.0137706
746.864	0.0137901
746.943	0.0140497
747.021	0.0140885
747.099	0.0141350
747.177	0.0142057
747.255	0.0141954
747.333	0.0142348
747.411	0.0141775
747.489	0.0143899
747.568	0.0142867
747.646	0.0142962
747.724	0.0141230
747.802	0.0140774
747.880	0.0139536
747.958	0.0138464
748.036	0.0137530
748.114	0.0134538
748.193	0.0135786
748.271	0.0135439
748.349	0.0132671
748.427	0.0132764
748.505	0.0133640
748.583	0.0132039
748.661	0.0132413
748.739	0.0132098
748.818	0.0133876
748.896	0.0135854
748.974	0.0136623
749.052	0.0137289
749.130	0.0138600
749.208	0.0141372
749.286	0.0142451
749.364	0.0144543
749.443	0.0145179
749.521	0.0146119
749.599	0.0146000
749.677	0.0145856
749.755	0.0145985
749.833	0.0146688
749.911	0.0144488
749.989	0.0142760
750.068	0.0140991
750.146	0.0140337
750.224	0.0138302
750.302	0.0136540
750.380	0.0134990
750.458	0.0134258
750.536	0.0132853
750.614	0.0132007
750.693	0.0131362
750.771	0.0130019
750.849	0.0131213
750.927	0.0130888
751.005	0.0130461
751.083	0.0130036
751.161	0.0130862
751.239	0.0131089
751.318	0.0131309
751.396	0.0132558
751.474	0.0132539
751.552	0.0132127
751.630	0.0132648
751.708	0.0133579
751.786	0.0132458
751.864	0.0132164
751.943	0.0130591
752.021	0.0132226
752.099	0.0132845
752.177	0.0132596
752.255	0.0129785
752.333	0.0131179
752.411	0.0129105
752.489	0.0130557
752.568	0.0128483
752.646	0.0130696
752.724	0.0129217
752.802	0.0129344
752.880	0.0129415
752.958	0.0131140
753.036	0.0130186
753.114	0.0130463
753.193	0.0131371
753.271	0.0130977
753.349	0.0131137
753.427	0.0131709
753.505	0.0132854
753.583	0.0134151
753.661	0.0133896
753.739	0.0136060
753.818	0.0137079
753.896	0.0135552
753.974	0.0138476
754.052	0.0138291
754.130	0.0139099
754.208	0.0140061
754.286	0.0141087
754.364	0.0142373
754.443	0.0142079
754.521	0.0141570
754.599	0.0142925
754.677	0.0142512
754.755	0.0142929
754.833	0.0144068
754.911	0.0142330
754.989	0.0143610
755.068	0.0142521
755.146	0.0142838
755.224	0.0142991
755.302	0.0142852
755.380	0.0143490
755.458	0.0142151
755.536	0.0141911
755.614	0.0144069
755.693	0.0142245
755.771	0.0141753
755.849	0.0141784
755.927	0.0142826
756.005	0.0140947
756.083	0.0137077
756.161	0.0137046
756.239	0.0136314
756.318	0.0135509
756.396	0.0135515
756.474	0.0134308
756.552	0.0133220
756.630	0.0133642
756.708	0.0131928
756.786	0.0130481
756.864	0.0131368
756.943	0.0132203
757.021	0.0131286
757.099	0.0129928
757.177	0.0132321
757.255	0.0131351
757.333	0.0130191
757.411	0.0131921
757.489	0.0132891
757.568	0.0132436
757.646	0.0131600
757.724	0.0131410
757.802	0.0132134
757.880	0.0130836
757.958	0.0133083
758.036	0.0132598
758.114	0.0132288
758.193	0.0133154
758.271	0.0131660
758.349	0.0132334
758.427	0.0131343
758.505	0.0130888
758.583	0.0131628
758.661	0.0133157
758.739	0.0132042
758.818	0.0132108
758.896	0.0132781
758.974	0.0132648
759.052	0.0132401
759.130	0.0132713
759.208	0.0134684
759.286	0.0134118
759.364	0.0135005
759.443	0.0137057
759.521	0.0135944
759.599	0.0136176
759.677	0.0137176
759.755	0.0136938
759.833	0.0136765
759.911	0.0137576
759.989	0.0136906
760.068	0.0139243
760.146	0.0140319
760.224	0.0138600
760.302	0.0139773
760.380	0.0138915
760.458	0.0139902
760.536	0.0139718
760.614	0.0137260
760.693	0.0137490
760.771	0.0137969
760.849	0.0137225
760.927	0.0137224
761.005	0.0137696
761.083	0.0137223
761.161	0.0136909
761.239	0.0137054
761.318	0.0135620
761.396	0.0135901
761.474	0.0136323
761.552	0.0139573
761.630	0.0140268
761.708	0.0139307
761.786	0.0141958
761.864	0.0142048
761.943	0.0142675
762.021	0.0144609
762.099	0.0145062
762.177	0.0144071
762.255	0.0144565
762.333	0.0144213
762.411	0.0143776
762.489	0.0144198
762.568	0.0144061
762.646	0.0142569
762.724	0.0140865
762.802	0.0139550
762.880	0.0136725
762.958	0.0135978
763.036	0.0135976
763.114	0.0134193
763.193	0.0132629
763.271	0.0131322
763.349	0.0131927
763.427	0.0133148
763.505	0.0131146
763.583	0.0132311
763.661	0.0132545
763.739	0.0130311
763.818	0.0129720
763.896	0.0130756
763.974	0.0129961
764.052	0.0129493
764.130	0.0130356
764.208	0.0129140
764.286	0.0130379
764.364	0.0129747
764.443	0.0129974
764.521	0.0130680
764.599	0.0131873
764.677	0.0130695
764.755	0.0131096
764.833	0.0131709
764.911	0.0132706
764.989	0.0133898
765.068	0.0133966
765.146	0.0133424
765.224	0.0134713
765.302	0.0135996
765.380	0.0135359
765.458	0.0136476
765.536	0.0137891
765.614	0.0137849
765.693	0.0137706
765.771	0.0138439
765.849	0.0138831
765.927	0.0137894
766.005	0.0137790
766.083	0.0138863
766.161	0.0137640
766.239	0.0137720
766.318	0.0137901
766.396	0.0135668
766.474	0.0136945
766.552	0.0137659
766.630	0.0135497
766.708	0.0136374
766.786	0.0136840
766.864	0.0136135
766.943	0.0135863
767.021	0.0136217
767.099	0.0135780
767.177	0.0136388
767.255	0.0137871
767.333	0.0138216
767.411	0.0138033
767.489	0.0137447
767.568	0.0137260
767.646	0.0138856
767.724	0.0137399
767.802	0.0137775
767.880	0.0138654
767.958	0.0138853
768.036	0.0139336
768.114	0.0139079
768.193	0.0137897
768.271	0.0139000
768.349	0.0139155
768.427	0.0138798
768.505	0.0138329
768.583	0.0139533
768.661	0.0140019
768.739	0.0140131
768.818	0.0138776
768.896	0.0138345
768.974	0.0138860
769.052	0.0138417
769.130	0.0138441
769.208	0.0137410
769.286	0.0136813
769.364	0.0137266
769.443	0.0138043
769.521	0.0136095
769.599	0.0134771
769.677	0.0135779
769.755	0.0136433
769.833	0.0135007
769.911	0.0134872
769.989	0.0134506
770.068	0.0134695
770.146	0.0135150
770.224	0.0134582
770.302	0.0134586
770.380	0.0132026
770.458	0.0133368
770.536	0.0132772
770.614	0.0132995
770.693	0.0133507
770.771	0.0132124
770.849	0.0131342
770.927	0.0133784
771.005	0.0132841
771.083	0.0131174
771.161	0.0131557
771.239	0.0131888
771.318	0.0131351
771.396	0.0129980
771.474	0.0131467
771.552	0.0130440
771.630	0.0129489
771.708	0.0130016
771.786	0.0128860
771.864	0.0130381
771.943	0.0133793
772.021	0.0132756
772.099	0.0132617
772.177	0.0132706
772.255	0.0132961
772.333	0.0136694
772.411	0.0137185
772.489	0.0137673
772.568	0.0140208
772.646	0.0138613
772.724	0.0139966
772.802	0.0142162
772.880	0.0140302
772.958	0.0141270
773.036	0.0140385
773.114	0.0141272
773.193	0.0141631
773.271	0.0141614
773.349	0.0139156
773.427	0.0138883
773.505	0.0138290
773.583	0.0138552
773.661	0.0137997
773.739	0.0137630
773.818	0.0137413
773.896	0.0138045
773.974	0.0136047
774.052	0.0137019
774.130	0.0136857
774.208	0.0138577
774.286	0.0138600
774.364	0.0136439
774.443	0.0136863
774.521	0.0138238
774.599	0.0136269
774.677	0.0138109
774.755	0.0136980
774.833	0.0137458
774.911	0.0137119
774.989	0.0135176
775.068	0.0135944
775.146	0.0135851
775.224	0.0135572
775.302	0.0133294
775.380	0.0135916
775.458	0.0136175
775.536	0.0134016
775.614	0.0133621
775.693	0.0134493
775.771	0.0134893
775.849	0.0137000
775.927	0.0135506
776.005	0.0135883
776.083	0.0135666
776.161	0.0135741
776.239	0.0135993
776.318	0.0136517
776.396	0.0135932
776.474	0.0135604
776.552	0.0136481
776.630	0.0136804
776.708	0.0135925
776.786	0.0134695
776.864	0.0135304
776.943	0.0135262
777.021	0.0133710
777.099	0.0133674
777.177	0.0134927
777.255	0.0134263
777.333	0.0134286
777.411	0.0133982
777.489	0.0133578
777.568	0.0133449
777.646	0.0133434
777.724	0.0132362
777.802	0.0132908
777.880	0.0132059
777.958	0.0132794
778.036	0.0132481
778.114	0.0130742
778.193	0.0132938
778.271	0.0132468
778.349	0.0134570
778.427	0.0133293
778.505	0.0134312
778.583	0.0135351
778.661	0.0136789
778.739	0.0136777
778.818	0.0136467
778.896	0.0136452
778.974	0.0137195
779.052	0.0139322
779.130	0.0138781
779.208	0.0139099
779.286	0.0137667
779.364	0.0138984
779.443	0.0139362
779.521	0.0138161
779.599	0.0138145
779.677	0.0137824
779.755	0.0135653
779.833	0.0134842
779.911	0.0133889
779.989	0.0134556
780.068	0.0132997
780.146	0.0133818
780.224	0.0133286
780.302	0.0133746
780.380	0.0131613
780.458	0.0132574
780.536	0.0132130
780.614	0.0133747
780.693	0.0133055
780.771	0.0133880
780.849	0.0133486
780.927	0.0133303
781.005	0.0135198
781.083	0.0134448
781.161	0.0134718
781.239	0.0135796
781.318	0.0136335
781.396	0.0137799
781.474	0.0136674
781.552	0.0136686
781.630	0.0137650
781.708	0.0139556
781.786	0.0138029
781.864	0.0138778
781.943	0.0138362
782.021	0.0139604
782.099	0.0138017
782.177	0.0139374
782.255	0.0140032
782.333	0.0140305
782.411	0.0138516
782.489	0.0139758
782.568	0.0139694
782.646	0.0139487
782.724	0.0140009
782.802	0.0138341
782.880	0.0138085
782.958	0.0138220
783.036	0.0137745
783.114	0.0137458
783.193	0.0135098
783.271	0.0134793
783.349	0.0134386
783.427	0.0134848
783.505	0.0132886
783.583	0.0133253
783.661	0.0132971
783.739	0.0132624
783.818	0.0131213
783.896	0.0131411
783.974	0.0131826
784.052	0.0131704
784.130	0.0131356
784.208	0.0132717
784.286	0.0132470
784.364	0.0132596
784.443	0.0131588
784.521	0.0131350
784.599	0.0133155
784.677	0.0132721
784.755	0.0135066
784.833	0.0134372
784.911	0.0134023
784.989	0.0134806
785.068	0.0135741
785.146	0.0136134
785.224	0.0135560
785.302	0.0136159
785.380	0.0137157
785.458	0.0138809
785.536	0.0137598
785.614	0.0138093
785.693	0.0137625
785.771	0.0138893
785.849	0.0139882
785.927	0.0139636
786.005	0.0140121
786.083	0.0140031
786.161	0.0141054
786.239	0.0141947
786.318	0.0142212
786.396	0.0142259
786.474	0.0141927
786.552	0.0141663
786.630	0.0142960
786.708	0.0141917
786.786	0.0139053
786.864	0.0139123
786.943	0.0139007
787.021	0.0139916
787.099	0.0137533
787.177	0.0135777
787.255	0.0135959
787.333	0.0133331
787.411	0.0133715
787.489	0.0132695
787.568	0.0132639
787.646	0.0129185
787.724	0.0130409
787.802	0.0129377
787.880	0.0130169
787.958	0.0130121
788.036	0.0129065
788.114	0.0128712
788.193	0.0130496
788.271	0.0129813
788.349	0.0129923
788.427	0.0131567
788.505	0.0131654
788.583	0.0132646
788.661	0.0131795
788.739	0.0134165
788.818	0.0133634
788.896	0.0135317
788.974	0.0135632
789.052	0.0136948
789.130	0.0137128
789.208	0.0137675
789.286	0.0138762
789.364	0.0139661
789.443	0.0139725
789.521	0.0138553
789.599	0.0138936
789.677	0.0139300
789.755	0.0140103
789.833	0.0140651
789.911	0.0142263
789.989	0.0139984
790.068	0.0140810
790.146	0.0139151
790.224	0.0140279
790.302	0.0140229
790.380	0.0138754
790.458	0.0138914
790.536	0.0139126
790.614	0.0139445
790.693	0.0138197
790.771	0.0136736
790.849	0.0138601
790.927	0.0138062
791.005	0.0137559
791.083	0.0138807
791.161	0.0139301
791.239	0.0136961
791.318	0.0136900
791.396	0.0135386
791.474	0.0134000
791.552	0.0134498
791.630	0.0133791
791.708	0.0132873
791.786	0.0131435
791.864	0.0132545
791.943	0.0131395
792.021	0.0130493
792.099	0.0130772
792.177	0.0129506
792.255	0.0131239
792.333	0.0131413
792.411	0.0131312
792.489	0.0131906
792.568	0.0131470
792.646	0.0132654
792.724	0.0133073
792.802	0.0134613
792.880	0.0133259
792.958	0.0134750
793.036	0.0135887
793.114	0.0135670
793.193	0.0137332
793.271	0.0136506
793.349	0.0134900
793.427	0.0137311
793.505	0.0137383
793.583	0.0135088
793.661	0.0136656
793.739	0.0136832
793.818	0.0135865
793.896	0.0135439
793.974	0.0137442
794.052	0.0137099
794.130	0.0137226
794.208	0.0137093
794.286	0.0137210
794.364	0.0139717
794.443	0.0140543
794.521	0.0139111
794.599	0.0140955
794.677	0.0140286
794.755	0.0141488
794.833	0.0141380
794.911	0.0140878
794.989	0.0141844
795.068	0.0142433
795.146	0.0141760
795.224	0.0140264
795.302	0.0139409
795.380	0.0139320
795.458	0.0137958
795.536	0.0136983
795.614	0.0137928
795.693	0.0135416
795.771	0.0134398
795.849	0.0132914
795.927	0.0132263
796.005	0.0129943
796.083	0.0129305
796.161	0.0128416
796.239	0.0127955
796.318	0.0127648
796.396	0.0126538
796.474	0.0125969
796.552	0.0127108
796.630	0.0126128
796.708	0.0127390
796.786	0.0127862
796.864	0.0128418
796.943	0.0129301
797.021	0.0129108
797.099	0.0130229
797.177	0.0131808
797.255	0.0132932
797.333	0.0133765
797.411	0.0135419
797.489	0.0136407
797.568	0.0137341
797.646	0.0137807
797.724	0.0139937
797.802	0.0140784
797.880	0.0139082
797.958	0.0141399
798.036	0.0142429
798.114	0.0143326
798.193	0.0141399
798.271	0.0142494
798.349	0.0141597
798.427	0.0141717
798.505	0.0142033
798.583	0.0141374
798.661	0.0142139
798.739	0.0139899
798.818	0.0142177
798.896	0.0139094
798.974	0.0140006
799.052	0.0140719
799.130	0.0139428
799.208	0.0139696
799.286	0.0141134
799.364	0.0141046
799.443	0.0140500
799.521	0.0141256
799.599	0.0139729
799.677	0.0139233
799.755	0.0138600
799.833	0.0139102
799.911	0.0138588
799.989	0.0139467
800.068	0.0135995
800.146	0.0135663
800.224	0.0133067
800.302	0.0131441
800.380	0.0130515
800.458	0.0130134
800.536	0.0127149
800.614	0.0125173
800.693	0.0125385
800.771	0.0123849
800.849	0.0123324
800.927	0.0123792
801.005	0.0123338
801.083	0.0123685
801.161	0.0124391
801.239	0.0126214
801.318	0.0126643
801.396	0.0128101
801.474	0.0127766
801.552	0.0130740
801.630	0.0132459
801.708	0.0132202
801.786	0.0134184
801.864	0.0135058
801.943	0.0135349
802.021	0.0137309
802.099	0.0138478
802.177	0.0139242
802.255	0.0140196
802.333	0.0140997
802.411	0.0141982
802.489	0.0142161
802.568	0.0143871
802.646	0.0142582
802.724	0.0143031
802.802	0.0144673
802.880	0.0143144
802.958	0.0143109
803.036	0.0143177
803.114	0.0143234
803.193	0.0142021
803.271	0.0142223
803.349	0.0143866
803.427	0.0141730
803.505	0.0142281
803.583	0.0141869
803.661	0.0142781
803.739	0.0140916
803.818	0.0139246
803.896	0.0140460
803.974	0.0140857
804.052	0.0141237
804.130	0.0139679
804.208	0.0140137
804.286	0.0138344
804.364	0.0137363
804.443	0.0138239
804.521	0.0137867
804.599	0.0135091
804.677	0.0135203
804.755	0.0135232
804.833	0.0134039
804.911	0.0133298
804.989	0.0132222
805.068	0.0132200
805.146	0.0131344
805.224	0.0129973
805.302	0.0129625
805.380	0.0130621
805.458	0.0130550
805.536	0.0128291
805.614	0.0128200
805.693	0.0127453
805.771	0.0128777
805.849	0.0128822
805.927	0.0128329
806.005	0.0129121
806.083	0.0130653
806.161	0.0130250
806.239	0.0130303
806.318	0.0132507
806.396	0.0132613
806.474	0.0133261
806.552	0.0135355
806.630	0.0135231
806.708	0.0137183
806.786	0.0137337
806.864	0.0137482
806.943	0.0137901
807.021	0.0138828
807.099	0.0138272
807.177	0.0138847
807.255	0.0140327
807.333	0.0139221
807.411	0.0138965
807.489	0.0139738
807.568	0.0139885
807.646	0.0140449
807.724	0.0137824
807.802	0.0139046
807.880	0.0138933
807.958	0.0137618
808.036	0.0137441
808.114	0.0138127
808.193	0.0137922
808.271	0.0138170
808.349	0.0138142
808.427	0.0136826
808.505	0.0137167
808.583	0.0137514
808.661	0.0136703
808.739	0.0135682
808.818	0.0136316
808.896	0.0136353
808.974	0.0137796
809.052	0.0137971
809.130	0.0136073
809.208	0.0136983
809.286	0.0136613
809.364	0.0138324
809.443	0.0137749
809.521	0.0136821
809.599	0.0138107
809.677	0.0137552
809.755	0.0138512
809.833	0.0138539
809.911	0.0139482
809.989	0.0138036
810.068	0.0138773
810.146	0.0139275
810.224	0.0140071
810.302	0.0140156
810.380	0.0138036
810.458	0.0137993
810.536	0.0136901
810.614	0.0138149
810.693	0.0136124
810.771	0.0136148
810.849	0.0137470
810.927	0.0135130
811.005	0.0136026
811.083	0.0134594
811.161	0.0133175
811.239	0.0132872
811.318	0.0133435
811.396	0.0132784
811.474	0.0131956
811.552	0.0131789
811.630	0.0131402
811.708	0.0129579
811.786	0.0130805
811.864	0.0131161
811.943	0.0131109
812.021	0.0131663
812.099	0.0131733
812.177	0.0131706
812.255	0.0134225
812.333	0.0134001
812.411	0.0133046
812.489	0.0133387
812.568	0.0134095
812.646	0.0134143
812.724	0.0135718
812.802	0.0136235
812.880	0.0136687
812.958	0.0138232
813.036	0.0136858
813.114	0.0138046
813.193	0.0137231
813.271	0.0137862
813.349	0.0140263
813.427	0.0138730
813.505	0.0139001
813.583	0.0138361
813.661	0.0139890
813.739	0.0139661
813.818	0.0137556
813.896	0.0138078
813.974	0.0139264
814.052	0.0139175
814.130	0.0138410
814.208	0.0137221
814.286	0.0137666
814.364	0.0137691
814.443	0.0136681
814.521	0.0138091
814.599	0.0138773
814.677	0.0139181
814.755	0.0139288
814.833	0.0140448
814.911	0.0138271
814.989	0.0141607
815.068	0.0140724
815.146	0.0139986
815.224	0.0141511
815.302	0.0141914
815.380	0.0140484
815.458	0.0139671
815.536	0.0140197
815.614	0.0138846
815.693	0.0139345
815.771	0.0138183
815.849	0.0136306
815.927	0.0135865
816.005	0.0135375
816.083	0.0133474
816.161	0.0132588
816.239	0.0132602
816.318	0.0132143
816.396	0.0131764
816.474	0.0130851
816.552	0.0130128
816.630	0.0128940
816.708	0.0128915
816.786	0.0129274
816.864	0.0129520
816.943	0.0129578
817.021	0.0129565
817.099	0.0129952
817.177	0.0129195
817.255	0.0128358
817.333	0.0132005
817.411	0.0131026
817.489	0.0131874
817.568	0.0132034
817.646	0.0133170
817.724	0.0134509
817.802	0.0133810
817.880	0.0134895
817.958	0.0135471
818.036	0.0136641
818.114	0.0136526
818.193	0.0136321
818.271	0.0137324
818.349	0.0137935
818.427	0.0138144
818.505	0.0136880
818.583	0.0138754
818.661	0.0137514
818.739	0.0138981
818.818	0.0138600
818.896	0.0139886
818.974	0.0139836
819.052	0.0137682
819.130	0.0139283
819.208	0.0138897
819.286	0.0136676
819.364	0.0137280
819.443	0.0138506
819.521	0.0137360
819.599	0.0137822
819.677	0.0137209
819.755	0.0135658
819.833	0.0137740
819.911	0.0137959
819.989	0.0137698
820.068	0.0137342
820.146	0.0138329
820.224	0.0138001
820.302	0.0138757
820.380	0.0139254
820.458	0.0139119
820.536	0.0139590
820.614	0.0139890
820.693	0.0139866
820.771	0.0138251
820.849	0.0139917
820.927	0.0139662
821.005	0.0139796
821.083	0.0138588
821.161	0.0138577
821.239	0.0137935
821.318	0.0139019
821.396	0.0137990
821.474	0.0137283
821.552	0.0137183
821.630	0.0135268
821.708	0.0135448
821.786	0.0135858
821.864	0.0134416
821.943	0.0133583
822.021	0.0132835
822.099	0.0132143
822.177	0.0131573
822.255	0.0132379
822.333	0.0131667
822.411	0.0132217
822.489	0.0132938
822.568	0.0130619
822.646	0.0131589
822.724	0.0131171
822.802	0.0131010
822.880	0.0130206
822.958	0.0131013
823.036	0.0131276
823.114	0.0131803
823.193	0.0131342
823.271	0.0130013
823.349	0.0132600
823.427	0.0133379
823.505	0.0133701
823.583	0.0132594
823.661	0.0134627
823.739	0.0135824
823.818	0.0136683
823.896	0.0136523
823.974	0.0136081
824.052	0.0137727
824.130	0.0137495
824.208	0.0137261
824.286	0.0137403
824.364	0.0138094
824.443	0.0140029
824.521	0.0139180
824.599	0.0138567
824.677	0.0138238
824.755	0.0140337
824.833	0.0140536
824.911	0.0140334
824.989	0.0139241
825.068	0.0140053
825.146	0.0139063
825.224	0.0140679
825.302	0.0137656
825.380	0.0137425
825.458	0.0138416
825.536	0.0138891
825.614	0.0137910
825.693	0.0136456
825.771	0.0135640
825.849	0.0136233
825.927	0.0135899
826.005	0.0135544
826.083	0.0137145
826.161	0.0136218
826.239	0.0136309
826.318	0.0136963
826.396	0.0136683
826.474	0.0138288
826.552	0.0137362
826.630	0.0137868
826.708	0.0137646
826.786	0.0138323
826.864	0.0138131
826.943	0.0137687
827.021	0.0138102
827.099	0.0140038
827.177	0.0138953
827.255	0.0139619
827.333	0.0140355
827.411	0.0139306
827.489	0.0139418
827.568	0.0138747
827.646	0.0139327
827.724	0.0137856
827.802	0.0137594
827.880	0.0136136
827.958	0.0136240
828.036	0.0135780
828.114	0.0135579
828.193	0.0134135
828.271	0.0132706
828.349	0.0133690
828.427	0.0134292
828.505	0.0132571
828.583	0.0132643
828.661	0.0133686
828.739	0.0131275
828.818	0.0131600
828.896	0.0132317
828.974	0.0131506
829.052	0.0131914
829.130	0.0132175
829.208	0.0133022
829.286	0.0133026
829.364	0.0132310
829.443	0.0132612
829.521	0.0132426
829.599	0.0134074
829.677	0.0132713
829.755	0.0134370
829.833	0.0135147
829.911	0.0134904
829.989	0.0133051
830.068	0.0135854
830.146	0.0135919
830.224	0.0135792
830.302	0.0136557
830.380	0.0137950
830.458	0.0137961
830.536	0.0138190
830.614	0.0139198
830.693	0.0139571
830.771	0.0140182
830.849	0.0139220
830.927	0.0140894
831.005	0.0140902
831.083	0.0141103
831.161	0.0141763
831.239	0.0142205
831.318	0.0140295
831.396	0.0139770
831.474	0.0140864
831.552	0.0139251
831.630	0.0137524
831.708	0.0138960
831.786	0.0137008
831.864	0.0135398
831.943	0.0135069
832.021	0.0134711
832.099	0.0133813
832.177	0.0134449
832.255	0.0132552
832.333	0.0131815
832.411	0.0131763
832.489	0.0131483
832.568	0.0132021
832.646	0.0133289
832.724	0.0133495
832.802	0.0132755
832.880	0.0133289
832.958	0.0135154
833.036	0.0133990
833.114	0.0133990
833.193	0.0136563
833.271	0.0136317
833.349	0.0136381
833.427	0.0138496
833.505	0.0138831
833.583	0.0138477
833.661	0.0138974
833.739	0.0139590
833.818	0.0139420
833.896	0.0139431
833.974	0.0138694
834.052	0.0139273
834.130	0.0140833
834.208	0.0139009
834.286	0.0139710
834.364	0.0138823
834.443	0.0139729
834.521	0.0139328
834.599	0.0138716
834.677	0.0136247
834.755	0.0136928
834.833	0.0138629
834.911	0.0136657
834.989	0.0136665
835.068	0.0135789
835.146	0.0133925
835.224	0.0133369
835.302	0.0133892
835.380	0.0133374
835.458	0.0134286
835.536	0.0132675
835.614	0.0132738
835.693	0.0131152
835.771	0.0129243
835.849	0.0130727
835.927	0.0129692
836.005	0.0130215
836.083	0.0131554
836.161	0.0131198
836.239	0.0130676
836.318	0.0130517
836.396	0.0130614
836.474	0.0129984
836.552	0.0132783
836.630	0.0131009
836.708	0.0132370
836.786	0.0132989
836.864	0.0134300
836.943	0.0133801
837.021	0.0134946
837.099	0.0135607
837.177	0.0134939
837.255	0.0136919
837.333	0.0135778
837.411	0.0137391
837.489	0.0137261
837.568	0.0137186
837.646	0.0139481
837.724	0.0138905
837.802	0.0139210
837.880	0.0139012
837.958	0.0139173
838.036	0.0140366
838.114	0.0137978
838.193	0.0139357
838.271	0.0140919
838.349	0.0138973
838.427	0.0140070
838.505	0.0139800
838.583	0.0136742
838.661	0.0138431
838.739	0.0139975
838.818	0.0137517
838.896	0.0138731
838.974	0.0137683
839.052	0.0138951
839.130	0.0139755
839.208	0.0139398
839.286	0.0138959
839.364	0.0137468
839.443	0.0139207
839.521	0.0140463
839.599	0.0138622
839.677	0.0138543
839.755	0.0139242
839.833	0.0138902
839.911	0.0138393
839.989	0.0138699
840.068	0.0137469
840.146	0.0135793
840.224	0.0135547
840.302	0.0134550
840.380	0.0136106
840.458	0.0136297
840.536	0.0134887
840.614	0.0134124
840.693	0.0134488
840.771	0.0133823
840.849	0.0133865
840.927	0.0132319
841.005	0.0132903
841.083	0.0134029
841.161	0.0132385
841.239	0.0132422
841.318	0.0132905
841.396	0.0132228
841.474	0.0132673
841.552	0.0133122
841.630	0.0131685
841.708	0.0131490
841.786	0.0131767
841.864	0.0133499
841.943	0.0133416
842.021	0.0133987
842.099	0.0134835
842.177	0.0134825
842.255	0.0135480
842.333	0.0135143
842.411	0.0135448
842.489	0.0136946
842.568	0.0138069
842.646	0.0136194
842.724	0.0136628
842.802	0.0137775
842.880	0.0136153
842.958	0.0137678
843.036	0.0139306
843.114	0.0139065
843.193	0.0135965
843.271	0.0138727
843.349	0.0136933
843.427	0.0137843
843.505	0.0137216
843.583	0.0137592
843.661	0.0138361
843.739	0.0136797
843.818	0.0137930
843.896	0.0136989
843.974	0.0136504
844.052	0.0136086
844.130	0.0135977
844.208	0.0136895
844.286	0.0135405
844.364	0.0135263
844.443	0.0136281
844.521	0.0137601
844.599	0.0136565
844.677	0.0137605
844.755	0.0135901
844.833	0.0137892
844.911	0.0138625
844.989	0.0135995
845.068	0.0135573
845.146	0.0136373
845.224	0.0136590
845.302	0.0137255
845.380	0.0138006
845.458	0.0138555
845.536	0.0138722
845.614	0.0138058
845.693	0.0138044
845.771	0.0137515
845.849	0.0138448
845.927	0.0139320
846.005	0.0138380
846.083	0.0138446
846.161	0.0138381
846.239	0.0138275
846.318	0.0137365
846.396	0.0138323
846.474	0.0138914
846.552	0.0136968
846.630	0.0137164
846.708	0.0136674
846.786	0.0136703
846.864	0.0136068
846.943	0.0134526
847.021	0.0136444
847.099	0.0134885
847.177	0.0133678
847.255	0.0134514
847.333	0.0133890
847.411	0.0133136
847.489	0.0133511
847.568	0.0133652
847.646	0.0134611
847.724	0.0132441
847.802	0.0133184
847.880	0.0132738
847.958	0.0133414
848.036	0.0134197
848.114	0.0134198
848.193	0.0134566
848.271	0.0135398
848.349	0.0134610
848.427	0.0134489
848.505	0.0134202
848.583	0.0135135
848.661	0.0134775
848.739	0.0136013
848.818	0.0134712
848.896	0.0135492
848.974	0.0136121
849.052	0.0135680
849.130	0.0134705
849.208	0.0133937
849.286	0.0135168
849.364	0.0135290
849.443	0.0135594
849.521	0.0136256
849.599	0.0135614
849.677	0.0135667
849.755	0.0137240
849.833	0.0136160
849.911	0.0134560
849.989	0.0136620
850.068	0.0135434
850.146	0.0137343
850.224	0.0136704
850.302	0.0137957
850.380	0.0136484
850.458	0.0136192
850.536	0.0138023
850.614	0.0137514
850.693	0.0138380
850.771	0.0138400
850.849	0.0138392
850.927	0.0138495
851.005	0.0139194
851.083	0.0138658
851.161	0.0137845
851.239	0.0138311
851.318	0.0136940
851.396	0.0140459
851.474	0.0139336
851.552	0.0140641
851.630	0.0139471
851.708	0.0140990
851.786	0.0140080
851.864	0.0139184
851.943	0.0138287
852.021	0.0139783
852.099	0.0139443
852.177	0.0139022
852.255	0.0138535
852.333	0.0138123
852.411	0.0138275
852.489	0.0137257
852.568	0.0137309
852.646	0.0135792
852.724	0.0136293
852.802	0.0135818
852.880	0.0134341
852.958	0.0133858
853.036	0.0134475
853.114	0.0133448
853.193	0.0134366
853.271	0.0133598
853.349	0.0132307
853.427	0.0132739
853.505	0.0132269
853.583	0.0132816
853.661	0.0130082
853.739	0.0132858
853.818	0.0131353
853.896	0.0133118
853.974	0.0132281
854.052	0.0131969
854.130	0.0133616
854.208	0.0133286
854.286	0.0133726
854.364	0.0133773
854.443	0.0134096
854.521	0.0133566
854.599	0.0135880
854.677	0.0135420
854.755	0.0136579
854.833	0.0135361
854.911	0.0136351
854.989	0.0137746
855.068	0.0136940
855.146	0.0137281
855.224	0.0136766
855.302	0.0137679
855.380	0.0137206
855.458	0.0136971
855.536	0.0137551
855.614	0.0139395
855.693	0.0139609
855.771	0.0137382
855.849	0.0137451
855.927	0.0140549
856.005	0.0137096
856.083	0.0138021
856.161	0.0138226
856.239	0.0137476
856.318	0.0137959
856.396	0.0137409
856.474	0.0137594
856.552	0.0137685
856.630	0.0138428
856.708	0.0138459
856.786	0.0138180
856.864	0.0136861
856.943	0.0135863
857.021	0.0137048
857.099	0.0136133
857.177	0.0136964
857.255	0.0136733
857.333	0.0135567
857.411	0.0135695
857.489	0.0136093
857.568	0.0135869
857.646	0.0135400
857.724	0.0135276
857.802	0.0135876
857.880	0.0135708
857.958	0.0136660
858.036	0.0136752
858.114	0.0135188
858.193	0.0137536
858.271	0.0137222
858.349	0.0137303
858.427	0.0134767
858.505	0.0134686
858.583	0.0136021
858.661	0.0135172
858.739	0.0134982
858.818	0.0134370
858.896	0.0134627
858.974	0.0134747
859.052	0.0132418
859.130	0.0134399
859.208	0.0133228
859.286	0.0132678
859.364	0.0133642
859.443	0.0132634
859.521	0.0133946
859.599	0.0132722
859.677	0.0132430
859.755	0.0133052
859.833	0.0133736
859.911	0.0132491
859.989	0.0133944
860.068	0.0133119
860.146	0.0134355
860.224	0.0134382
860.302	0.0133420
860.380	0.0133236
860.458	0.0135809
860.536	0.0135576
860.614	0.0134481
860.693	0.0135622
860.771	0.0136129
860.849	0.0136044
860.927	0.0136831
861.005	0.0136082
861.083	0.0136106
861.161	0.0136538
861.239	0.0137527
861.318	0.0136504
861.396	0.0136745
861.474	0.0137811
861.552	0.0137704
861.630	0.0136252
861.708	0.0136992
861.786	0.0138036
861.864	0.0137447
861.943	0.0136982
862.021	0.0136894
862.099	0.0137801
862.177	0.0137431
862.255	0.0137003
862.333	0.0138136
862.411	0.0137872
862.489	0.0137074
862.568	0.0138378
862.646	0.0136395
862.724	0.0135881
862.802	0.0135992
862.880	0.0137930
862.958	0.0136140
863.036	0.0135728
863.114	0.0135840
863.193	0.0135446
863.271	0.0135818
863.349	0.0135574
863.427	0.0135447
863.505	0.0135239
863.583	0.0134338
863.661	0.0134087
863.739	0.0134818
863.818	0.0135361
863.896	0.0133458
863.974	0.0135262
864.052	0.0135380
864.130	0.0134903
864.208	0.0134539
864.286	0.0135874
864.364	0.0136281
864.443	0.0135742
864.521	0.0135633
864.599	0.0136646
864.677	0.0136271
864.755	0.0136977
864.833	0.0136012
864.911	0.0135624
864.989	0.0134787
865.068	0.0135320
865.146	0.0136120
865.224	0.0136045
865.302	0.0136482
865.380	0.0135839
865.458	0.0135790
865.536	0.0135830
865.614	0.0135737
865.693	0.0134762
865.771	0.0135203
865.849	0.0135628
865.927	0.0134415
866.005	0.0134661
866.083	0.0135128
866.161	0.0135338
866.239	0.0133313
866.318	0.0133853
866.396	0.0133981
866.474	0.0134826
866.552	0.0134663
866.630	0.0135226
866.708	0.0135658
866.786	0.0134341
866.864	0.0135996
866.943	0.0135892
867.021	0.0135356
867.099	0.0134415
867.177	0.0136049
867.255	0.0136327
867.333	0.0136476
867.411	0.0135307
867.489	0.0135790
867.568	0.0136035
867.646	0.0136269
867.724	0.0136883
867.802	0.0138656
867.880	0.0138914
867.958	0.0138388
868.036	0.0137293
868.114	0.0138859
868.193	0.0138024
868.271	0.0137508
868.349	0.0138940
868.427	0.0137443
868.505	0.0138454
868.583	0.0138671
868.661	0.0138771
868.739	0.0137569
868.818	0.0138355
868.896	0.0138002
868.974	0.0137817
869.052	0.0138480
869.130	0.0138456
869.208	0.0137917
869.286	0.0137281
869.364	0.0135847
869.443	0.0135484
869.521	0.0136789
869.599	0.0137082
869.677	0.0136674
869.755	0.0135588
869.833	0.0134840
869.911	0.0134348
869.989	0.0134965
870.068	0.0135881
870.146	0.0136021
870.224	0.0135567
870.302	0.0135861
870.380	0.0135192
870.458	0.0135025
870.536	0.0137550
870.614	0.0135642
870.693	0.0135946
870.771	0.0134389
870.849	0.0134972
870.927	0.0135705
871.005	0.0135072
871.083	0.0135355
871.161	0.0135828
871.239	0.0135590
871.318	0.0135533
871.396	0.0136564
871.474	0.0135571
871.552	0.0136307
871.630	0.0135172
871.708	0.0134524
871.786	0.0136376
871.864	0.0135043
871.943	0.0134750
872.021	0.0135275
872.099	0.0135351
872.177	0.0135496
872.255	0.0136871
872.333	0.0135353
872.411	0.0135378
872.489	0.0135147
872.568	0.0135548
872.646	0.0135857
872.724	0.0135413
872.802	0.0136172
872.880	0.0136430
872.958	0.0136853
873.036	0.0135241
873.114	0.0136026
873.193	0.0135118
873.271	0.0134047
873.349	0.0137935
873.427	0.0136096
873.505	0.0137286
873.583	0.0136810
873.661	0.0137379
873.739	0.0137327
873.818	0.0139072
873.896	0.0137669
873.974	0.0138688
874.052	0.0138255
874.130	0.0137595
874.208	0.0137905
874.286	0.0136340
874.364	0.0137718
874.443	0.0138480
874.521	0.0138587
874.599	0.0138479
874.677	0.0137254
874.755	0.0138779
874.833	0.0137356
874.911	0.0137011
874.989	0.0136372
875.068	0.0137151
875.146	0.0136547
875.224	0.0134977
875.302	0.0137257
875.380	0.0136305
875.458	0.0134992
875.536	0.0134595
875.614	0.0134435
875.693	0.0135965
875.771	0.0134190
875.849	0.0135655
875.927	0.0134779
876.005	0.0134969
876.083	0.0135188
876.161	0.0135670
876.239	0.0135732
876.318	0.0136106
876.396	0.0134502
876.474	0.0134724
876.552	0.0134518
876.630	0.0135556
876.708	0.0135338
876.786	0.0134286
876.864	0.0133439
876.943	0.0133121
877.021	0.0133734
877.099	0.0135208
877.177	0.0135906
877.255	0.0135783
877.333	0.0134633
877.411	0.0134045
877.489	0.0135699
877.568	0.0133748
877.646	0.0135426
877.724	0.0135105
877.802	0.0132752
877.880	0.0134320
877.958	0.0133617
878.036	0.0134261
878.114	0.0134995
878.193	0.0134099
878.271	0.0135670
878.349	0.0134851
878.427	0.0135579
878.505	0.0136242
878.583	0.0138669
878.661	0.0138204
878.739	0.0136848
878.818	0.0137289
878.896	0.0138094
878.974	0.0138202
879.052	0.0137712
879.130	0.0138773
879.208	0.0138581
879.286	0.0138898
879.364	0.0140306
879.443	0.0138132
879.521	0.0137710
879.599	0.0137785
879.677	0.0137294
879.755	0.0135425
879.833	0.0136389
879.911	0.0134432
879.989	0.0135615
880.068	0.0135614
880.146	0.0134888
880.224	0.0136234
880.302	0.0135866
880.380	0.0135173
880.458	0.0134975
880.536	0.0135316
880.614	0.0135710
880.693	0.0133682
880.771	0.0134598
880.849	0.0135567
880.927	0.0136781
881.005	0.0135132
881.083	0.0135133
881.161	0.0136760
881.239	0.0137167
881.318	0.0135831
881.396	0.0136192
881.474	0.0137498
881.552	0.0137498
881.630	0.0136707
881.708	0.0136324
881.786	0.0136575
881.864	0.0137342
881.943	0.0137073
882.021	0.0138120
882.099	0.0137412
882.177	0.0136538
882.255	0.0137762
882.333	0.0136857
882.411	0.0137827
882.489	0.0137045
882.568	0.0137297
882.646	0.0135832
882.724	0.0136462
882.802	0.0135647
882.880	0.0135146
882.958	0.0134724
883.036	0.0135223
883.114	0.0135336
883.193	0.0134733
883.271	0.0135100
883.349	0.0135230
883.427	0.0134317
883.505	0.0134237
883.583	0.0134549
883.661	0.0134420
883.739	0.0135580
883.818	0.0136726
883.896	0.0134863
883.974	0.0135847
884.052	0.0136295
884.130	0.0137247
884.208	0.0136922
884.286	0.0135703
884.364	0.0136634
884.443	0.0136549
884.521	0.0135646
884.599	0.0137876
884.677	0.0137840
884.755	0.0138613
884.833	0.0138348
884.911	0.0138670
884.989	0.0137823
885.068	0.0138022
885.146	0.0138053
885.224	0.0137811
885.302	0.0138446
885.380	0.0138944
885.458	0.0136749
885.536	0.0136645
885.614	0.0137336
885.693	0.0137830
885.771	0.0136560
885.849	0.0135707
885.927	0.0136124
886.005	0.0136385
886.083	0.0135287
886.161	0.0134641
886.239	0.0136255
886.318	0.0136450
886.396	0.0135566
886.474	0.0137308
886.552	0.0135423
886.630	0.0136423
886.708	0.0136725
886.786	0.0136511
886.864	0.0136182
886.943	0.0136916
887.021	0.0135916
887.099	0.0136020
887.177	0.0136105
887.255	0.0134262
887.333	0.0136811
887.411	0.0136507
887.489	0.0135639
887.568	0.0136211
887.646	0.0135432
887.724	0.0136655
887.802	0.0136134
887.880	0.0136459
887.958	0.0136884
888.036	0.0136611
888.114	0.0136243
888.193	0.0136752
888.271	0.0136716
888.349	0.0137969
888.427	0.0137809
888.505	0.0137195
888.583	0.0138080
888.661	0.0137272
888.739	0.0138058
888.818	0.0138257
888.896	0.0138904
888.974	0.0138828
889.052	0.0138287
889.130	0.0138928
889.208	0.0139380
889.286	0.0138413
889.364	0.0139410
889.443	0.0140354
889.521	0.0139423
889.599	0.0139243
889.677	0.0137625
889.755	0.0136545
889.833	0.0137050
889.911	0.0135210
889.989	0.0134383
890.068	0.0134494
890.146	0.0135209
890.224	0.0133221
890.302	0.0131665
890.380	0.0131225
890.458	0.0131646
890.536	0.0131322
890.614	0.0129861
890.693	0.0130693
890.771	0.0132577
890.849	0.0131316
890.927	0.0129841
891.005	0.0131256
891.083	0.0132181
891.161	0.0131358
891.239	0.0132394
891.318	0.0132584
891.396	0.0132947
891.474	0.0133102
891.552	0.0134338
891.630	0.0134795
891.708	0.0135624
891.786	0.0137192
891.864	0.0135826
891.943	0.0135963
892.021	0.0139094
892.099	0.0138509
892.177	0.0137450
892.255	0.0140324
892.333	0.0140170
892.411	0.0139838
892.489	0.0139182
892.568	0.0140422
892.646	0.0139966
892.724	0.0139830
892.802	0.0140508
892.880	0.0139690
892.958	0.0138816
893.036	0.0139075
893.114	0.0138495
893.193	0.0139093
893.271	0.0139288
893.349	0.0138269
893.427	0.0137737
893.505	0.0137120
893.583	0.0137476
893.661	0.0136642
893.739	0.0137337
893.818	0.0136394
893.896	0.0135921
893.974	0.0135304
894.052	0.0135117
894.130	0.0134599
894.208	0.0135205
894.286	0.0134715
894.364	0.0134280
894.443	0.0133193
894.521	0.0133371
894.599	0.0133869
894.677	0.0132899
894.755	0.0133733
894.833	0.0134236
894.911	0.0133482
894.989	0.0132942
895.068	0.0130333
895.146	0.0132290
895.224	0.0130612
895.302	0.0129690
895.380	0.0130025
895.458	0.0130170
895.536	0.0129363
895.614	0.0130157
895.693	0.0130151
895.771	0.0130852
895.849	0.0130151
895.927	0.0131509
896.005	0.0132447
896.083	0.0132795
896.161	0.0133284
896.239	0.0135469
896.318	0.0134957
896.396	0.0136899
896.474	0.0137593
896.552	0.0138303
896.630	0.0139613
896.708	0.0139523
896.786	0.0137811
896.864	0.0140085
896.943	0.0141690
897.021	0.0141103
897.099	0.0141360
897.177	0.0140323
897.255	0.0143121
897.333	0.0141344
897.411	0.0141042
897.489	0.0140992
897.568	0.0140054
897.646	0.0139977
897.724	0.0140058
897.802	0.0139472
897.880	0.0137791
897.958	0.0137921
898.036	0.0136936
898.114	0.0137050
898.193	0.0135928
898.271	0.0136062
898.349	0.0134411
898.427	0.0133530
898.505	0.0133873
898.583	0.0133250
898.661	0.0132720
898.739	0.0133024
898.818	0.0133741
898.896	0.0133824
898.974	0.0133595
899.052	0.0132588
899.130	0.0133405
899.208	0.0133073
899.286	0.0132884
899.364	0.0133537
899.443	0.0133456
899.521	0.0133565
899.599	0.0134203
899.677	0.0133958
899.755	0.0134247
899.833	0.0133663
899.911	0.0135165
899.989	0.0134843
900.068	0.0136461
900.146	0.0136993
900.224	0.0135463
900.302	0.0135448
900.380	0.0137171
900.458	0.0134814
900.536	0.0137477
900.614	0.0137080
900.693	0.0135961
900.771	0.0136031
900.849	0.0136670
900.927	0.0135188
901.005	0.0135729
901.083	0.0135560
901.161	0.0135165
901.239	0.0136440
901.318	0.0136237
901.396	0.0136070
901.474	0.0138002
901.552	0.0138995
901.630	0.0138030
901.708	0.0138409
901.786	0.0141087
901.864	0.0139380
901.943	0.0140573
902.021	0.0140223
902.099	0.0138819
902.177	0.0140411
902.255	0.0140095
902.333	0.0138905
902.411	0.0137659
902.489	0.0138239
902.568	0.0139082
902.646	0.0137869
902.724	0.0136398
902.802	0.0135269
902.880	0.0135099
902.958	0.0135769
903.036	0.0134162
903.114	0.0133092
903.193	0.0132291
903.271	0.0133080
903.349	0.0131532
903.427	0.0131775
903.505	0.0132536
903.583	0.0134055
903.661	0.0131815
903.739	0.0132944
903.818	0.0133095
903.896	0.0134052
903.974	0.0134944
904.052	0.0135832
904.130	0.0135831
904.208	0.0136436
904.286	0.0137705
904.364	0.0138078
904.443	0.0139760
904.521	0.0139185
904.599	0.0139758
904.677	0.0141934
904.755	0.0142158
904.833	0.0141679
904.911	0.0140658
904.989	0.0140459
905.068	0.0139215
905.146	0.0139143
905.224	0.0139641
905.302	0.0139753
905.380	0.0137807
905.458	0.0137936
905.536	0.0136152
905.614	0.0134732
905.693	0.0135713
905.771	0.0134393
905.849	0.0134607
905.927	0.0133488
906.005	0.0132376
906.083	0.0131109
906.161	0.0132411
906.239	0.0131538
906.318	0.0130730
906.396	0.0130375
906.474	0.0131092
906.552	0.0132276
906.630	0.0132086
906.708	0.0132464
906.786	0.0134055
906.864	0.0134421
906.943	0.0135658
907.021	0.0137136
907.099	0.0136420
907.177	0.0137601
907.255	0.0138294
907.333	0.0139384
907.411	0.0140066
907.489	0.0138957
907.568	0.0141545
907.646	0.0141879
907.724	0.0141452
907.802	0.0140948
907.880	0.0142040
907.958	0.0141679
908.036	0.0141639
908.114	0.0141540
908.193	0.0142088
908.271	0.0141553
908.349	0.0139655
908.427	0.0139806
908.505	0.0138645
908.583	0.0137237
908.661	0.0140613
908.739	0.0138311
908.818	0.0136720
908.896	0.0135616
908.974	0.0135670
909.052	0.0136942
909.130	0.0135528
909.208	0.0135151
909.286	0.0134760
909.364	0.0135202
909.443	0.0135838
909.521	0.0136314
909.599	0.0137472
909.677	0.0136547
909.755	0.0134966
909.833	0.0137458
909.911	0.0137932
909.989	0.0137819
910.068	0.0137736
910.146	0.0137753
910.224	0.0138178
910.302	0.0138135
910.380	0.0137715
910.458	0.0136041
910.536	0.0137672
910.614	0.0137221
910.693	0.0136591
910.771	0.0136499
910.849	0.0135229
910.927	0.0135190
911.005	0.0135230
911.083	0.0135818
911.161	0.0136102
911.239	0.0134347
911.318	0.0134007
911.396	0.0133422
911.474	0.0133798
911.552	0.0133648
911.630	0.0134365
911.708	0.0132153
911.786	0.0133220
911.864	0.0136483
911.943	0.0135420
912.021	0.0134915
912.099	0.0134541
912.177	0.0135485
912.255	0.0135541
912.333	0.0135988
912.411	0.0136926
912.489	0.0137026
912.568	0.0137471
912.646	0.0136668
912.724	0.0138268
912.802	0.0139547
912.880	0.0138474
912.958	0.0139205
913.036	0.0139207
913.114	0.0141891
913.193	0.0140845
913.271	0.0141326
913.349	0.0138490
913.427	0.0139388
913.505	0.0139398
913.583	0.0138757
913.661	0.0138916
913.739	0.0138697
913.818	0.0137981
913.896	0.0137835
913.974	0.0136298
914.052	0.0134599
914.130	0.0134946
914.208	0.0135283
914.286	0.0135065
914.364	0.0134093
914.443	0.0133951
914.521	0.0132583
914.599	0.0134203
914.677	0.0134281
914.755	0.0132978
914.833	0.0132721
914.911	0.0132880
914.989	0.0134890
915.068	0.0134586
915.146	0.0135161
915.224	0.0135487
915.302	0.0135418
915.380	0.0136163
915.458	0.0136198
915.536	0.0136555
915.614	0.0136745
915.693	0.0138273
915.771	0.0138023
915.849	0.0137399
915.927	0.0137233
916.005	0.0136992
916.083	0.0136149
916.161	0.0136216
916.239	0.0135182
916.318	0.0134391
916.396	0.0134653
916.474	0.0134919
916.552	0.0132184
916.630	0.0132693
916.708	0.0132884
916.786	0.0133580
916.864	0.0132347
916.943	0.0132355
917.021	0.0133993
917.099	0.0134677
917.177	0.0134930
917.255	0.0135529
917.333	0.0135047
917.411	0.0136373
917.489	0.0136799
917.568	0.0136507
917.646	0.0136989
917.724	0.0138055
917.802	0.0137320
917.880	0.0139516
917.958	0.0138629
918.036	0.0137621
918.114	0.0138070
918.193	0.0136892
918.271	0.0139417
918.349	0.0138936
918.427	0.0137840
918.505	0.0137989
918.583	0.0138214
918.661	0.0138801
918.739	0.0138885
918.818	0.0137476
918.896	0.0136880
918.974	0.0136971
919.052	0.0135909
919.130	0.0137506
919.208	0.0135999
919.286	0.0136807
919.364	0.0134537
919.443	0.0135152
919.521	0.0134814
919.599	0.0134361
919.677	0.0133501
919.755	0.0133936
919.833	0.0136265
919.911	0.0136217
919.989	0.0134483
920.068	0.0134018
920.146	0.0135175
920.224	0.0133475
920.302	0.0136011
920.380	0.0135747
920.458	0.0136298
920.536	0.0135032
920.614	0.0134383
920.693	0.0136557
920.771	0.0136052
920.849	0.0136263
920.927	0.0136220
921.005	0.0137316
921.083	0.0136745
921.161	0.0137446
921.239	0.0137756
921.318	0.0137218
921.396	0.0137715
921.474	0.0137025
921.552	0.0138264
921.630	0.0138631
921.708	0.0136608
921.786	0.0137428
921.864	0.0137486
921.943	0.0136893
922.021	0.0136180
922.099	0.0137761
922.177	0.0136543
922.255	0.0136333
922.333	0.0136459
922.411	0.0135501
922.489	0.0134912
922.568	0.0136567
922.646	0.0134826
922.724	0.0135291
922.802	0.0135179
922.880	0.0134552
922.958	0.0136537
923.036	0.0136161
923.114	0.0135580
923.193	0.0135394
923.271	0.0137151
923.349	0.0135407
923.427	0.0134900
923.505	0.0136990
923.583	0.0137698
923.661	0.0137366
923.739	0.0137554
923.818	0.0138730
923.896	0.0138517
923.974	0.0138836
924.052	0.0137310
924.130	0.0138931
924.208	0.0139503
924.286	0.0138564
924.364	0.0139803
924.443	0.0138396
924.521	0.0137283
924.599	0.0137255
924.677	0.0137316
924.755	0.0137301
924.833	0.0138422
924.911	0.0137004
924.989	0.0136494
925.068	0.0137135
925.146	0.0137833
925.224	0.0136853
925.302	0.0136173
925.380	0.0136189
925.458	0.0136420
925.536	0.0136001
925.614	0.0135266
925.693	0.0135413
925.771	0.0135862
925.849	0.0135473
925.927	0.0135297
926.005	0.0135366
926.083	0.0133589
926.161	0.0133514
926.239	0.0133048
926.318	0.0132864
926.396	0.0134990
926.474	0.0134174
926.552	0.0132683
926.630	0.0134445
926.708	0.0134715
926.786	0.0135342
926.864	0.0135754
926.943	0.0135181
927.021	0.0135770
927.099	0.0135579
927.177	0.0135020
927.255	0.0136786
927.333	0.0135765
927.411	0.0135716
927.489	0.0136919
927.568	0.0137997
927.646	0.0137121
927.724	0.0137094
927.802	0.0136762
927.880	0.0135941
927.958	0.0136920
928.036	0.0138476
928.114	0.0138263
928.193	0.0138770
928.271	0.0137831
928.349	0.0138734
928.427	0.0138293
928.505	0.0138416
928.583	0.0138822
928.661	0.0139037
928.739	0.0138342
928.818	0.0138866
928.896	0.0137898
928.974	0.0137655
929.052	0.0138526
929.130	0.0138058
929.208	0.0136668
929.286	0.0136737
929.364	0.0136034
929.443	0.0136435
929.521	0.0135570
929.599	0.0135579
929.677	0.0135223
929.755	0.0135675
929.833	0.0135586
929.911	0.0134738
929.989	0.0134142
930.068	0.0134599
930.146	0.0133337
930.224	0.0134216
930.302	0.0134085
930.380	0.0134306
930.458	0.0134678
930.536	0.0134322
930.614	0.0134848
930.693	0.0135776
930.771	0.0134561
930.849	0.0136605
930.927	0.0137127
931.005	0.0138873
931.083	0.0138538
931.161	0.0137534
931.239	0.0138656
931.318	0.0137633
931.396	0.0138011
931.474	0.0138428
931.552	0.0138345
931.630	0.0137664
931.708	0.0138775
931.786	0.0138479
931.864	0.0138609
931.943	0.0137201
932.021	0.0137983
932.099	0.0136767
932.177	0.0138038
932.255	0.0137527
932.333	0.0136662
932.411	0.0138621
932.489	0.0137603
932.568	0.0137542
932.646	0.0136942
932.724	0.0137423
932.802	0.0137147
932.880	0.0137794
932.958	0.0135374
933.036	0.0137875
933.114	0.0137716
933.193	0.0135519
933.271	0.0137038
933.349	0.0137151
933.427	0.0136445
933.505	0.0136492
933.583	0.0136726
933.661	0.0136509
933.739	0.0136620
933.818	0.0135545
933.896	0.0135327
933.974	0.0136133
934.052	0.0136736
934.130	0.0135801
934.208	0.0134342
934.286	0.0134901
934.364	0.0136356
934.443	0.0135180
934.521	0.0134927
934.599	0.0133563
934.677	0.0135344
934.755	0.0136472
934.833	0.0134176
934.911	0.0135049
934.989	0.0135865
935.068	0.0134979
935.146	0.0134789
935.224	0.0134159
935.302	0.0134891
935.380	0.0135014
935.458	0.0134845
935.536	0.0134978
935.614	0.0134055
935.693	0.0134219
935.771	0.0134827
935.849	0.0135239
935.927	0.0135246
936.005	0.0134592
936.083	0.0134650
936.161	0.0134275
936.239	0.0136203
936.318	0.0135751
936.396	0.0135399
936.474	0.0136099
936.552	0.0137144
936.630	0.0137515
936.708	0.0136768
936.786	0.0138314
936.864	0.0139525
936.943	0.0138799
937.021	0.0139492
937.099	0.0139513
937.177	0.0139153
937.255	0.0140157
937.333	0.0140424
937.411	0.0140683
937.489	0.0140261
937.568	0.0139615
937.646	0.0139559
937.724	0.0138587
937.802	0.0137450
937.880	0.0136777
937.958	0.0137219
938.036	0.0135295
938.114	0.0134958
938.193	0.0134294
938.271	0.0134866
938.349	0.0133466
938.427	0.0133543
938.505	0.0132269
938.583	0.0131847
938.661	0.0131802
938.739	0.0132683
938.818	0.0133353
938.896	0.0132902
938.974	0.0132365
939.052	0.0133585
939.130	0.0133840
939.208	0.0133405
939.286	0.0134363
939.364	0.0131603
939.443	0.0131032
939.521	0.0131650
939.599	0.0133475
939.677	0.0133583
939.755	0.0133680
939.833	0.0134074
939.911	0.0132707
939.989	0.0134007
940.068	0.0134614
940.146	0.0134887
940.224	0.0134331
940.302	0.0136029
940.380	0.0135186
940.458	0.0136375
940.536	0.0135403
940.614	0.0135526
940.693	0.0136932
940.771	0.0137035
940.849	0.0137507
940.927	0.0138080
941.005	0.0137614
941.083	0.0137424
941.161	0.0137338
941.239	0.0137609
941.318	0.0137794
941.396	0.0138220
941.474	0.0137865
941.552	0.0138284
941.630	0.0137309
941.708	0.0138059
941.786	0.0137486
941.864	0.0137813
941.943	0.0137064
942.021	0.0135800
942.099	0.0136253
942.177	0.0136501
942.255	0.0135778
942.333	0.0136309
942.411	0.0134886
942.489	0.0136201
942.568	0.0135696
942.646	0.0135269
942.724	0.0135536
942.802	0.0134315
942.880	0.0134238
942.958	0.0134657
943.036	0.0135045
943.114	0.0134081
943.193	0.0134415
943.271	0.0135355
943.349	0.0135340
943.427	0.0135609
943.505	0.0135968
943.583	0.0135648
943.661	0.0136739
943.739	0.0137048
943.818	0.0137463
943.896	0.0136549
943.974	0.0135817
944.052	0.0136465
944.130	0.0136573
944.208	0.0135829
944.286	0.0136812
944.364	0.0135324
944.443	0.0135359
944.521	0.0133688
944.599	0.0134637
944.677	0.0133466
944.755	0.0133245
944.833	0.0135562
944.911	0.0134948
944.989	0.0135044
945.068	0.0134254
945.146	0.0135375
945.224	0.0136262
945.302	0.0136038
945.380	0.0135474
945.458	0.0136559
945.536	0.0137381
945.614	0.0137832
945.693	0.0137211
945.771	0.0137080
945.849	0.0138126
945.927	0.0136695
946.005	0.0136714
946.083	0.0138361
946.161	0.0136577
946.239	0.0138007
946.318	0.0138990
946.396	0.0137458
946.474	0.0138435
946.552	0.0137945
946.630	0.0136462
946.708	0.0137932
946.786	0.0138730
946.864	0.0137386
946.943	0.0137244
947.021	0.0137225
947.099	0.0136682
947.177	0.0138275
947.255	0.0138084
947.333	0.0138052
947.411	0.0138316
947.489	0.0138667
947.568	0.0137705
947.646	0.0137693
947.724	0.0138253
947.802	0.0137832
947.880	0.0137243
947.958	0.0137287
948.036	0.0136565
948.114	0.0136962
948.193	0.0138027
948.271	0.0137102
948.349	0.0136382
948.427	0.0137147
948.505	0.0136641
948.583	0.0136564
948.661	0.0135077
948.739	0.0134736
948.818	0.0133725
948.896	0.0133719
948.974	0.0133974
949.052	0.0134801
949.130	0.0133662
949.208	0.0133225
949.286	0.0133749
949.364	0.0134787
949.443	0.0133482
949.521	0.0134812
949.599	0.0135209
949.677	0.0136608
949.755	0.0134799
949.833	0.0136553
949.911	0.0135827
949.989	0.0136492
950.068	0.0135285
950.146	0.0136020
950.224	0.0135081
950.302	0.0135762
950.380	0.0136044
950.458	0.0136281
950.536	0.0135100
950.614	0.0135083
950.693	0.0135332
950.771	0.0136535
950.849	0.0135925
950.927	0.0135741
951.005	0.0137014
951.083	0.0135483
951.161	0.0137778
951.239	0.0136999
951.318	0.0137356
951.396	0.0137253
951.474	0.0138497
951.552	0.0137715
951.630	0.0136369
951.708	0.0138231
951.786	0.0138359
951.864	0.0137501
951.943	0.0138291
952.021	0.0137875
952.099	0.0137102
952.177	0.0138375
952.255	0.0137351
952.333	0.0137566
952.411	0.0138095
952.489	0.0137438
952.568	0.0137262
952.646	0.0136648
952.724	0.0137003
952.802	0.0137746
952.880	0.0138205
952.958	0.0138087
953.036	0.0136642
953.114	0.0137245
953.193	0.0135699
953.271	0.0137013
953.349	0.0137786
953.427	0.0136241
953.505	0.0135767
953.583	0.0136142
953.661	0.0136719
953.739	0.0136115
953.818	0.0136416
953.896	0.0135482
953.974	0.0136086
954.052	0.0134451
954.130	0.0135111
954.208	0.0134717
954.286	0.0135043
954.364	0.0135074
954.443	0.0133333
954.521	0.0134364
954.599	0.0133578
954.677	0.0134693
954.755	0.0135155
954.833	0.0133421
954.911	0.0133123
954.989	0.0134526
955.068	0.0133183
955.146	0.0134856
955.224	0.0133811
955.302	0.0134472
955.380	0.0133382
955.458	0.0133633
955.536	0.0134925
955.614	0.0135116
955.693	0.0134456
955.771	0.0134882
955.849	0.0135069
955.927	0.0135652
956.005	0.0136330
956.083	0.0135685
956.161	0.0134482
956.239	0.0136153
956.318	0.0134255
956.396	0.0135838
956.474	0.0136232
956.552	0.0136507
956.630	0.0136023
956.708	0.0135886
956.786	0.0138638
956.864	0.0138083
956.943	0.0136546
957.021	0.0137447
957.099	0.0137295
957.177	0.0138280
957.255	0.0139293
957.333	0.0137929
957.411	0.0138543
957.489	0.0138641
957.568	0.0137122
957.646	0.0136366
957.724	0.0137911
957.802	0.0136951
957.880	0.0136420
957.958	0.0134750
958.036	0.0135600
958.114	0.0135600
958.193	0.0135818
958.271	0.0136069
958.349	0.0134155
958.427	0.0135344
958.505	0.0133415
958.583	0.0134820
958.661	0.0134313
958.739	0.0135374
958.818	0.0134778
958.896	0.0133933
958.974	0.0135526
959.052	0.0136595
959.130	0.0135963
959.208	0.0134957
959.286	0.0136217
959.364	0.0136024
959.443	0.0135253
959.521	0.0136089
959.599	0.0136334
959.677	0.0137679
959.755	0.0135651
959.833	0.0136700
959.911	0.0136708
