05/14/2022	16:32:41	Ver.	4.1	UNKNOWN
Optical Delay	639.989416	Delta X		0.078125	Sweeps	1	Scan Rate	0/0
Coordinates	Axis 1	NaN	Axis 2	NaN	Axis 3	NaN	Axis 4	NaN	Axis 5	NaN	Axis 6	0.000000
TX Power	0.000000	RX Power	0.000000

639.989	0.0134921
640.068	0.0135014
640.146	0.0135438
640.224	0.0134769
640.302	0.0134260
640.380	0.0134207
640.458	0.0133379
640.536	0.0133443
640.614	0.0133920
640.693	0.0134236
640.771	0.0134126
640.849	0.0133525
640.927	0.0134555
641.005	0.0135626
641.083	0.0134998
641.161	0.0133658
641.239	0.0134979
641.318	0.0135199
641.396	0.0134113
641.474	0.0133850
641.552	0.0135450
641.630	0.0134414
641.708	0.0133290
641.786	0.0132568
641.864	0.0134304
641.943	0.0134109
642.021	0.0136565
642.099	0.0136240
642.177	0.0133730
642.255	0.0134898
642.333	0.0133530
642.411	0.0134022
642.489	0.0136360
642.568	0.0134531
642.646	0.0135732
642.724	0.0133731
642.802	0.0134322
642.880	0.0134760
642.958	0.0134458
643.036	0.0134370
643.114	0.0133860
643.193	0.0134784
643.271	0.0135254
643.349	0.0134070
643.427	0.0134245
643.505	0.0134456
643.583	0.0134583
643.661	0.0134982
643.739	0.0133823
643.818	0.0134137
643.896	0.0134821
643.974	0.0133968
644.052	0.0134042
644.130	0.0134924
644.208	0.0134113
644.286	0.0134457
644.364	0.0134359
644.443	0.0133298
644.521	0.0133644
644.599	0.0134486
644.677	0.0134263
644.755	0.0132809
644.833	0.0135168
644.911	0.0133727
644.989	0.0133633
645.068	0.0135228
645.146	0.0134519
645.224	0.0133433
645.302	0.0134491
645.380	0.0134161
645.458	0.0134995
645.536	0.0133607
645.614	0.0134257
645.693	0.0133658
645.771	0.0134003
645.849	0.0133169
645.927	0.0133555
646.005	0.0133405
646.083	0.0133770
646.161	0.0133443
646.239	0.0134058
646.318	0.0133767
646.396	0.0134059
646.474	0.0133428
646.552	0.0133341
646.630	0.0134795
646.708	0.0133284
646.786	0.0134100
646.864	0.0133486
646.943	0.0133676
647.021	0.0132250
647.099	0.0133056
647.177	0.0133953
647.255	0.0133295
647.333	0.0132782
647.411	0.0134249
647.489	0.0134266
647.568	0.0132765
647.646	0.0132090
647.724	0.0133522
647.802	0.0133994
647.880	0.0134303
647.958	0.0133669
648.036	0.0134254
648.114	0.0134364
648.193	0.0134065
648.271	0.0132981
648.349	0.0133408
648.427	0.0134404
648.505	0.0133426
648.583	0.0135316
648.661	0.0132852
648.739	0.0132309
648.818	0.0134035
648.896	0.0133139
648.974	0.0132583
649.052	0.0133829
649.130	0.0133546
649.208	0.0133778
649.286	0.0134197
649.364	0.0134265
649.443	0.0133355
649.521	0.0133697
649.599	0.0134238
649.677	0.0133597
649.755	0.0133968
649.833	0.0134595
649.911	0.0133247
649.989	0.0133252
650.068	0.0135220
650.146	0.0134262
650.224	0.0133498
650.302	0.0133250
650.380	0.0134410
650.458	0.0133869
650.536	0.0134388
650.614	0.0133234
650.693	0.0133594
650.771	0.0133922
650.849	0.0133920
650.927	0.0135081
651.005	0.0133514
651.083	0.0134081
651.161	0.0134592
651.239	0.0132832
651.318	0.0132738
651.396	0.0133308
651.474	0.0133189
651.552	0.0133678
651.630	0.0135436
651.708	0.0134456
651.786	0.0133544
651.864	0.0133145
651.943	0.0133257
652.021	0.0133061
652.099	0.0133988
652.177	0.0134197
652.255	0.0134924
652.333	0.0133867
652.411	0.0133249
652.489	0.0133878
652.568	0.0135503
652.646	0.0133705
652.724	0.0134024
652.802	0.0134790
652.880	0.0134103
652.958	0.0134639
653.036	0.0134831
653.114	0.0134093
653.193	0.0134922
653.271	0.0133640
653.349	0.0135000
653.427	0.0135108
653.505	0.0134169
653.583	0.0135544
653.661	0.0134040
653.739	0.0134270
653.818	0.0134405
653.896	0.0133708
653.974	0.0137230
654.052	0.0134940
654.130	0.0134452
654.208	0.0135902
654.286	0.0134502
654.364	0.0133912
654.443	0.0135314
654.521	0.0135523
654.599	0.0134244
654.677	0.0134779
654.755	0.0136482
654.833	0.0136179
654.911	0.0133945
654.989	0.0134427
655.068	0.0134132
655.146	0.0134544
655.224	0.0134890
655.302	0.0135379
655.380	0.0133579
655.458	0.0135430
655.536	0.0134728
655.614	0.0134220
655.693	0.0134563
655.771	0.0134081
655.849	0.0134319
655.927	0.0134478
656.005	0.0133874
656.083	0.0133669
656.161	0.0134578
656.239	0.0134919
656.318	0.0135883
656.396	0.0136300
656.474	0.0135799
656.552	0.0135378
656.630	0.0135753
656.708	0.0133896
656.786	0.0134985
656.864	0.0135646
656.943	0.0134964
657.021	0.0134557
657.099	0.0136430
657.177	0.0135679
657.255	0.0133725
657.333	0.0134945
657.411	0.0134802
657.489	0.0135475
657.568	0.0134879
657.646	0.0135011
657.724	0.0133968
657.802	0.0135070
657.880	0.0134777
657.958	0.0135755
658.036	0.0136260
658.114	0.0135905
658.193	0.0134538
658.271	0.0135339
658.349	0.0134833
658.427	0.0134622
658.505	0.0135572
658.583	0.0136253
658.661	0.0135561
658.739	0.0135889
658.818	0.0136604
658.896	0.0135886
658.974	0.0135271
659.052	0.0135101
659.130	0.0134923
659.208	0.0135056
659.286	0.0135773
659.364	0.0134486
659.443	0.0135134
659.521	0.0135196
659.599	0.0134866
659.677	0.0134883
659.755	0.0134749
659.833	0.0134814
659.911	0.0135548
659.989	0.0133635
660.068	0.0134898
660.146	0.0134163
660.224	0.0135632
660.302	0.0136375
660.380	0.0135361
660.458	0.0136956
660.536	0.0134321
660.614	0.0134225
660.693	0.0136145
660.771	0.0135452
660.849	0.0136063
660.927	0.0136730
661.005	0.0136153
661.083	0.0134370
661.161	0.0135318
661.239	0.0135128
661.318	0.0133870
661.396	0.0135413
661.474	0.0135262
661.552	0.0135533
661.630	0.0135293
661.708	0.0135865
661.786	0.0135707
661.864	0.0135382
661.943	0.0135059
662.021	0.0134993
662.099	0.0135577
662.177	0.0136145
662.255	0.0134859
662.333	0.0135051
662.411	0.0135332
662.489	0.0135250
662.568	0.0136347
662.646	0.0136003
662.724	0.0134946
662.802	0.0134640
662.880	0.0135106
662.958	0.0134895
663.036	0.0135550
663.114	0.0135334
663.193	0.0134711
663.271	0.0134705
663.349	0.0134080
663.427	0.0135417
663.505	0.0135459
663.583	0.0134745
663.661	0.0134743
663.739	0.0135309
663.818	0.0134711
663.896	0.0134027
663.974	0.0135696
664.052	0.0134232
664.130	0.0134981
664.208	0.0134300
664.286	0.0134310
664.364	0.0134715
664.443	0.0134792
664.521	0.0134552
664.599	0.0134307
664.677	0.0133780
664.755	0.0133198
664.833	0.0135118
664.911	0.0133939
664.989	0.0133554
665.068	0.0133503
665.146	0.0134174
665.224	0.0134112
665.302	0.0135363
665.380	0.0132468
665.458	0.0133171
665.536	0.0135066
665.614	0.0134876
665.693	0.0135297
665.771	0.0134174
665.849	0.0135414
665.927	0.0132845
666.005	0.0135036
666.083	0.0135404
666.161	0.0134751
666.239	0.0135044
666.318	0.0134786
666.396	0.0134626
666.474	0.0134116
666.552	0.0132569
666.630	0.0133689
666.708	0.0134484
666.786	0.0133872
666.864	0.0134389
666.943	0.0133596
667.021	0.0134392
667.099	0.0134168
667.177	0.0132354
667.255	0.0133961
667.333	0.0134658
667.411	0.0132269
667.489	0.0133797
667.568	0.0133337
667.646	0.0132660
667.724	0.0134449
667.802	0.0132863
667.880	0.0133154
667.958	0.0133189
668.036	0.0133356
668.114	0.0132710
668.193	0.0133484
668.271	0.0134023
668.349	0.0134127
668.427	0.0133005
668.505	0.0132826
668.583	0.0134291
668.661	0.0132768
668.739	0.0133888
668.818	0.0131927
668.896	0.0133207
668.974	0.0132348
669.052	0.0132913
669.130	0.0132377
669.208	0.0133492
669.286	0.0131926
669.364	0.0133355
669.443	0.0133496
669.521	0.0132090
669.599	0.0133327
669.677	0.0133819
669.755	0.0133235
669.833	0.0134224
669.911	0.0134335
669.989	0.0133369
670.068	0.0133197
670.146	0.0133456
670.224	0.0134578
670.302	0.0135304
670.380	0.0133971
670.458	0.0134761
670.536	0.0135669
670.614	0.0134200
670.693	0.0133792
670.771	0.0133261
670.849	0.0134344
670.927	0.0133396
671.005	0.0132648
671.083	0.0134158
671.161	0.0134476
671.239	0.0133501
671.318	0.0133852
671.396	0.0133280
671.474	0.0132508
671.552	0.0132775
671.630	0.0134259
671.708	0.0133534
671.786	0.0132816
671.864	0.0132325
671.943	0.0132426
672.021	0.0134504
672.099	0.0135862
672.177	0.0134010
672.255	0.0133035
672.333	0.0133493
672.411	0.0133033
672.489	0.0133993
672.568	0.0135413
672.646	0.0133298
672.724	0.0133147
672.802	0.0133014
672.880	0.0134093
672.958	0.0134649
673.036	0.0135027
673.114	0.0133974
673.193	0.0134671
673.271	0.0135409
673.349	0.0133611
673.427	0.0134177
673.505	0.0133446
673.583	0.0133682
673.661	0.0134270
673.739	0.0134000
673.818	0.0134930
673.896	0.0134293
673.974	0.0134156
674.052	0.0135066
674.130	0.0132803
674.208	0.0133921
674.286	0.0133882
674.364	0.0134349
674.443	0.0134241
674.521	0.0134669
674.599	0.0134522
674.677	0.0134129
674.755	0.0134496
674.833	0.0134312
674.911	0.0134790
674.989	0.0134869
675.068	0.0134109
675.146	0.0134149
675.224	0.0135120
675.302	0.0134846
675.380	0.0134991
675.458	0.0136874
675.536	0.0134911
675.614	0.0132569
675.693	0.0133609
675.771	0.0134703
675.849	0.0134151
675.927	0.0136790
676.005	0.0135011
676.083	0.0136680
676.161	0.0135849
676.239	0.0134968
676.318	0.0134344
676.396	0.0134766
676.474	0.0134119
676.552	0.0135394
676.630	0.0132767
676.708	0.0134806
676.786	0.0134312
676.864	0.0134982
676.943	0.0134858
677.021	0.0134458
677.099	0.0135338
677.177	0.0134618
677.255	0.0134650
677.333	0.0135101
677.411	0.0134989
677.489	0.0135042
677.568	0.0133696
677.646	0.0133759
677.724	0.0134486
677.802	0.0135152
677.880	0.0135885
677.958	0.0135468
678.036	0.0135175
678.114	0.0135453
678.193	0.0135549
678.271	0.0136047
678.349	0.0136145
678.427	0.0134724
678.505	0.0133782
678.583	0.0134598
678.661	0.0135320
678.739	0.0134674
678.818	0.0134953
678.896	0.0135898
678.974	0.0134923
679.052	0.0134326
679.130	0.0133472
679.208	0.0133735
679.286	0.0133246
679.364	0.0132185
679.443	0.0132767
679.521	0.0133371
679.599	0.0133337
679.677	0.0133730
679.755	0.0134688
679.833	0.0134836
679.911	0.0136487
679.989	0.0137593
680.068	0.0138229
680.146	0.0136543
680.224	0.0139517
680.302	0.0140215
680.380	0.0139304
680.458	0.0138168
680.536	0.0138883
680.614	0.0137537
680.693	0.0135547
680.771	0.0135023
680.849	0.0134270
680.927	0.0130849
681.005	0.0129576
681.083	0.0130647
681.161	0.0130138
681.239	0.0128604
681.318	0.0128788
681.396	0.0128419
681.474	0.0128885
681.552	0.0128895
681.630	0.0128960
681.708	0.0129849
681.786	0.0130232
681.864	0.0131879
681.943	0.0133424
682.021	0.0132322
682.099	0.0136698
682.177	0.0138490
682.255	0.0138578
682.333	0.0139398
682.411	0.0141859
682.489	0.0141354
682.568	0.0141933
682.646	0.0143180
682.724	0.0144365
682.802	0.0143967
682.880	0.0142680
682.958	0.0143314
683.036	0.0140020
683.114	0.0138358
683.193	0.0137927
683.271	0.0135551
683.349	0.0133942
683.427	0.0132450
683.505	0.0127644
683.583	0.0125125
683.661	0.0124747
683.739	0.0124745
683.818	0.0123144
683.896	0.0123834
683.974	0.0124602
684.052	0.0123597
684.130	0.0124461
684.208	0.0125301
684.286	0.0126698
684.364	0.0128185
684.443	0.0128912
684.521	0.0129897
684.599	0.0132040
684.677	0.0134996
684.755	0.0134543
684.833	0.0136631
684.911	0.0137013
684.989	0.0139948
685.068	0.0142154
685.146	0.0143705
685.224	0.0145380
685.302	0.0146986
685.380	0.0146886
685.458	0.0146845
685.536	0.0147132
685.614	0.0147719
685.693	0.0145004
685.771	0.0144302
685.849	0.0143924
685.927	0.0142615
686.005	0.0140367
686.083	0.0135762
686.161	0.0134613
686.239	0.0131960
686.318	0.0130188
686.396	0.0129951
686.474	0.0126266
686.552	0.0127197
686.630	0.0127815
686.708	0.0125533
686.786	0.0125800
686.864	0.0125555
686.943	0.0128445
687.021	0.0128399
687.099	0.0128661
687.177	0.0130589
687.255	0.0130888
687.333	0.0131453
687.411	0.0132610
687.489	0.0131702
687.568	0.0131303
687.646	0.0132333
687.724	0.0132751
687.802	0.0130808
687.880	0.0131109
687.958	0.0131294
688.036	0.0129531
688.114	0.0128599
688.193	0.0130712
688.271	0.0130514
688.349	0.0131236
688.427	0.0130883
688.505	0.0131460
688.583	0.0131068
688.661	0.0133023
688.739	0.0133233
688.818	0.0133617
688.896	0.0136687
688.974	0.0138565
689.052	0.0140827
689.130	0.0141589
689.208	0.0144128
689.286	0.0148029
689.364	0.0148083
689.443	0.0148491
689.521	0.0152428
689.599	0.0153526
689.677	0.0152441
689.755	0.0152805
689.833	0.0150784
689.911	0.0149637
689.989	0.0148300
690.068	0.0146351
690.146	0.0144579
690.224	0.0140926
690.302	0.0139143
690.380	0.0136560
690.458	0.0134003
690.536	0.0131635
690.614	0.0128297
690.693	0.0124810
690.771	0.0120605
690.849	0.0118025
690.927	0.0115874
691.005	0.0113358
691.083	0.0110787
691.161	0.0109022
691.239	0.0108685
691.318	0.0106702
691.396	0.0107507
691.474	0.0108335
691.552	0.0111051
691.630	0.0112875
691.708	0.0115312
691.786	0.0117464
691.864	0.0120087
691.943	0.0122658
692.021	0.0126850
692.099	0.0130072
692.177	0.0133393
692.255	0.0136031
692.333	0.0138206
692.411	0.0140059
692.489	0.0143220
692.568	0.0144818
692.646	0.0147272
692.724	0.0149069
692.802	0.0151550
692.880	0.0153610
692.958	0.0155313
693.036	0.0158120
693.114	0.0158982
693.193	0.0160527
693.271	0.0163179
693.349	0.0164666
693.427	0.0164620
693.505	0.0164085
693.583	0.0163273
693.661	0.0160310
693.739	0.0157515
693.818	0.0154937
693.896	0.0149797
693.974	0.0144438
694.052	0.0141615
694.130	0.0137981
694.208	0.0134128
694.286	0.0130866
694.364	0.0127303
694.443	0.0125549
694.521	0.0123885
694.599	0.0122058
694.677	0.0119761
694.755	0.0119024
694.833	0.0118457
694.911	0.0116360
694.989	0.0113720
695.068	0.0113834
695.146	0.0112056
695.224	0.0110916
695.302	0.0108444
695.380	0.0107916
695.458	0.0109659
695.536	0.0108353
695.614	0.0108456
695.693	0.0109064
695.771	0.0111678
695.849	0.0110928
695.927	0.0110839
696.005	0.0112054
696.083	0.0114541
696.161	0.0115253
696.239	0.0117814
696.318	0.0117621
696.396	0.0118941
696.474	0.0119289
696.552	0.0123573
696.630	0.0124953
696.708	0.0128575
696.786	0.0132523
696.864	0.0138419
696.943	0.0143723
697.021	0.0146759
697.099	0.0153956
697.177	0.0160524
697.255	0.0166657
697.333	0.0172285
697.411	0.0178329
697.489	0.0183794
697.568	0.0187160
697.646	0.0189914
697.724	0.0192465
697.802	0.0192645
697.880	0.0190215
697.958	0.0189896
698.036	0.0184676
698.114	0.0180162
698.193	0.0174664
698.271	0.0166505
698.349	0.0160095
698.427	0.0151907
698.505	0.0143327
698.583	0.0135665
698.661	0.0130191
698.739	0.0121882
698.818	0.0115221
698.896	0.0108022
698.974	0.0103236
699.052	0.00998947
699.130	0.00937805
699.208	0.00884445
699.286	0.00857895
699.364	0.00817902
699.443	0.00777000
699.521	0.00748215
699.599	0.00722168
699.677	0.00727165
699.755	0.00709030
699.833	0.00726295
699.911	0.00766289
699.989	0.00799095
700.068	0.00837440
700.146	0.00895538
700.224	0.00956772
700.302	0.0103429
700.380	0.0108598
700.458	0.0115979
700.536	0.0123170
700.614	0.0131010
700.693	0.0137372
700.771	0.0142871
700.849	0.0151033
700.927	0.0155220
701.005	0.0162087
701.083	0.0168842
701.161	0.0173630
701.239	0.0178194
701.318	0.0181300
701.396	0.0184811
701.474	0.0185560
701.552	0.0187453
701.630	0.0188210
701.708	0.0185741
701.786	0.0184177
701.864	0.0183238
701.943	0.0180753
702.021	0.0175596
702.099	0.0175184
702.177	0.0172298
702.255	0.0169254
702.333	0.0165836
702.411	0.0163329
702.489	0.0159914
702.568	0.0157169
702.646	0.0153967
702.724	0.0149467
702.802	0.0146918
702.880	0.0139927
702.958	0.0135271
703.036	0.0128924
703.114	0.0122725
703.193	0.0115509
703.271	0.0109815
703.349	0.0106295
703.427	0.00999992
703.505	0.00965637
703.583	0.00913712
703.661	0.00889885
703.739	0.00862213
703.818	0.00871681
703.896	0.00858864
703.974	0.00857803
704.052	0.00839523
704.130	0.00868217
704.208	0.00883026
704.286	0.00900169
704.364	0.00917770
704.443	0.00950981
704.521	0.00994347
704.599	0.0103191
704.677	0.0109043
704.755	0.0113825
704.833	0.0118922
704.911	0.0124004
704.989	0.0128665
705.068	0.0135705
705.146	0.0140498
705.224	0.0145703
705.302	0.0151198
705.380	0.0154092
705.458	0.0156241
705.536	0.0158345
705.614	0.0160175
705.693	0.0159150
705.771	0.0160697
705.849	0.0161028
705.927	0.0161758
706.005	0.0160710
706.083	0.0157584
706.161	0.0157317
706.239	0.0156457
706.318	0.0155370
706.396	0.0155044
706.474	0.0156190
706.552	0.0155482
706.630	0.0156216
706.708	0.0157449
706.786	0.0158496
706.864	0.0159538
706.943	0.0160017
707.021	0.0160906
707.099	0.0161903
707.177	0.0161641
707.255	0.0161846
707.333	0.0161195
707.411	0.0158566
707.489	0.0158195
707.568	0.0155076
707.646	0.0151549
707.724	0.0147768
707.802	0.0143734
707.880	0.0138554
707.958	0.0133394
708.036	0.0129513
708.114	0.0122488
708.193	0.0117670
708.271	0.0114181
708.349	0.0109281
708.427	0.0106398
708.505	0.0101920
708.583	0.00998566
708.661	0.00971428
708.739	0.00953102
708.818	0.00935020
708.896	0.00912285
708.974	0.00893997
709.052	0.00897758
709.130	0.00893013
709.208	0.00898338
709.286	0.00911499
709.364	0.00934067
709.443	0.00965004
709.521	0.0101073
709.599	0.0104745
709.677	0.0110598
709.755	0.0117284
709.833	0.0122980
709.911	0.0130701
709.989	0.0137934
710.068	0.0143922
710.146	0.0148798
710.224	0.0156100
710.302	0.0159820
710.380	0.0163799
710.458	0.0166962
710.536	0.0166699
710.614	0.0167389
710.693	0.0166589
710.771	0.0165462
710.849	0.0164103
710.927	0.0160707
711.005	0.0159155
711.083	0.0158231
711.161	0.0153924
711.239	0.0153021
711.318	0.0149052
711.396	0.0145229
711.474	0.0144419
711.552	0.0142886
711.630	0.0139251
711.708	0.0136798
711.786	0.0137022
711.864	0.0133424
711.943	0.0131493
712.021	0.0131223
712.099	0.0128599
712.177	0.0128754
712.255	0.0128580
712.333	0.0129085
712.411	0.0129066
712.489	0.0129322
712.568	0.0130611
712.646	0.0130619
712.724	0.0133016
712.802	0.0133448
712.880	0.0136269
712.958	0.0137147
713.036	0.0138592
713.114	0.0141282
713.193	0.0142193
713.271	0.0143924
713.349	0.0144653
713.427	0.0146255
713.505	0.0147318
713.583	0.0145893
713.661	0.0147679
713.739	0.0147797
713.818	0.0144345
713.896	0.0142977
713.974	0.0139957
714.052	0.0138129
714.130	0.0133981
714.208	0.0130195
714.286	0.0126137
714.364	0.0120557
714.443	0.0116182
714.521	0.0111496
714.599	0.0105671
714.677	0.0101894
714.755	0.00988869
714.833	0.00941360
714.911	0.00929756
714.989	0.00913780
715.068	0.00929115
715.146	0.00966812
715.224	0.00997421
715.302	0.0104416
715.380	0.0110188
715.458	0.0116917
715.536	0.0124843
715.614	0.0131918
715.693	0.0138888
715.771	0.0145179
715.849	0.0149643
715.927	0.0154456
716.005	0.0158081
716.083	0.0160187
716.161	0.0162218
716.239	0.0159829
716.318	0.0160468
716.396	0.0158595
716.474	0.0157408
716.552	0.0156042
716.630	0.0153114
716.708	0.0149390
716.786	0.0147802
716.864	0.0146426
716.943	0.0141145
717.021	0.0139108
717.099	0.0138474
717.177	0.0135545
717.255	0.0134540
717.333	0.0132260
717.411	0.0130659
717.489	0.0132366
717.568	0.0128662
717.646	0.0129471
717.724	0.0129639
717.802	0.0130578
717.880	0.0132318
717.958	0.0135655
718.036	0.0136169
718.114	0.0137493
718.193	0.0140441
718.271	0.0141290
718.349	0.0142427
718.427	0.0142947
718.505	0.0143752
718.583	0.0143602
718.661	0.0142586
718.739	0.0142718
718.818	0.0142495
718.896	0.0140652
718.974	0.0140582
719.052	0.0140823
719.130	0.0139670
719.208	0.0139951
719.286	0.0137568
719.364	0.0136357
719.443	0.0133746
719.521	0.0132004
719.599	0.0129990
719.677	0.0128164
719.755	0.0123186
719.833	0.0123804
719.911	0.0121849
719.989	0.0117490
720.068	0.0115594
720.146	0.0113229
720.224	0.0112815
720.302	0.0112663
720.380	0.0112975
720.458	0.0114487
720.536	0.0115061
720.614	0.0116893
720.693	0.0118784
720.771	0.0121719
720.849	0.0122259
720.927	0.0127939
721.005	0.0128870
721.083	0.0131258
721.161	0.0135862
721.239	0.0138094
721.318	0.0141523
721.396	0.0144317
721.474	0.0147442
721.552	0.0149078
721.630	0.0151649
721.708	0.0151743
721.786	0.0151784
721.864	0.0150866
721.943	0.0149291
722.021	0.0145942
722.099	0.0142976
722.177	0.0139495
722.255	0.0134154
722.333	0.0129099
722.411	0.0127916
722.489	0.0122321
722.568	0.0120021
722.646	0.0117182
722.724	0.0115608
722.802	0.0114913
722.880	0.0114260
722.958	0.0113947
723.036	0.0116088
723.114	0.0117445
723.193	0.0119448
723.271	0.0123510
723.349	0.0124908
723.427	0.0128343
723.505	0.0131167
723.583	0.0137084
723.661	0.0141092
723.739	0.0143781
723.818	0.0148048
723.896	0.0151183
723.974	0.0154461
724.052	0.0157030
724.130	0.0159085
724.208	0.0158585
724.286	0.0159075
724.364	0.0158710
724.443	0.0157695
724.521	0.0156836
724.599	0.0156073
724.677	0.0153070
724.755	0.0150984
724.833	0.0149756
724.911	0.0149580
724.989	0.0146272
725.068	0.0144826
725.146	0.0143791
725.224	0.0142812
725.302	0.0140417
725.380	0.0138786
725.458	0.0138227
725.536	0.0138321
725.614	0.0134392
725.693	0.0131706
725.771	0.0129148
725.849	0.0128689
725.927	0.0124246
726.005	0.0122803
726.083	0.0120505
726.161	0.0116991
726.239	0.0115288
726.318	0.0114413
726.396	0.0113824
726.474	0.0111539
726.552	0.0109985
726.630	0.0110722
726.708	0.0110863
726.786	0.0112344
726.864	0.0114032
726.943	0.0115424
727.021	0.0117910
727.099	0.0121236
727.177	0.0123267
727.255	0.0124971
727.333	0.0127091
727.411	0.0127860
727.489	0.0129729
727.568	0.0132476
727.646	0.0130821
727.724	0.0130914
727.802	0.0130525
727.880	0.0129971
727.958	0.0130940
728.036	0.0129376
728.114	0.0128233
728.193	0.0127079
728.271	0.0127013
728.349	0.0127003
728.427	0.0127568
728.505	0.0127452
728.583	0.0128849
728.661	0.0130943
728.739	0.0130995
728.818	0.0132848
728.896	0.0134653
728.974	0.0136391
729.052	0.0139697
729.130	0.0142913
729.208	0.0144948
729.286	0.0148875
729.364	0.0150225
729.443	0.0154333
729.521	0.0155353
729.599	0.0158751
729.677	0.0158636
729.755	0.0159787
729.833	0.0160619
729.911	0.0161190
729.989	0.0160763
730.068	0.0159150
730.146	0.0158134
730.224	0.0156463
730.302	0.0154987
730.380	0.0153634
730.458	0.0151350
730.536	0.0148098
730.614	0.0145199
730.693	0.0143614
730.771	0.0140813
730.849	0.0138795
730.927	0.0137004
731.005	0.0136198
731.083	0.0135007
731.161	0.0132048
731.239	0.0129998
731.318	0.0130309
731.396	0.0127468
731.474	0.0125616
731.552	0.0123147
731.630	0.0122638
731.708	0.0121140
731.786	0.0119050
731.864	0.0115372
731.943	0.0112395
732.021	0.0112664
732.099	0.0110757
732.177	0.0110616
732.255	0.0110727
732.333	0.0110249
732.411	0.0112271
732.489	0.0112643
732.568	0.0114452
732.646	0.0114600
732.724	0.0115955
732.802	0.0117454
732.880	0.0118623
732.958	0.0121209
733.036	0.0122748
733.114	0.0124408
733.193	0.0123698
733.271	0.0126283
733.349	0.0127142
733.427	0.0127721
733.505	0.0127383
733.583	0.0128967
733.661	0.0131674
733.739	0.0132527
733.818	0.0133937
733.896	0.0135518
733.974	0.0136427
734.052	0.0136735
734.130	0.0140346
734.208	0.0141714
734.286	0.0142236
734.364	0.0144627
734.443	0.0144846
734.521	0.0145802
734.599	0.0145026
734.677	0.0145755
734.755	0.0144940
734.833	0.0145709
734.911	0.0145557
734.989	0.0146130
735.068	0.0146368
735.146	0.0147829
735.224	0.0147197
735.302	0.0147263
735.380	0.0147447
735.458	0.0146753
735.536	0.0147993
735.614	0.0147126
735.693	0.0147261
735.771	0.0146699
735.849	0.0146186
735.927	0.0146005
736.005	0.0144881
736.083	0.0143584
736.161	0.0142658
736.239	0.0140704
736.318	0.0140137
736.396	0.0140186
736.474	0.0137429
736.552	0.0135197
736.630	0.0134907
736.708	0.0133517
736.786	0.0131532
736.864	0.0128904
736.943	0.0128683
737.021	0.0128942
737.099	0.0128745
737.177	0.0127886
737.255	0.0129959
737.333	0.0129437
737.411	0.0128831
737.489	0.0130699
737.568	0.0131099
737.646	0.0132240
737.724	0.0131407
737.802	0.0130874
737.880	0.0132075
737.958	0.0133048
738.036	0.0130654
738.114	0.0133109
738.193	0.0131871
738.271	0.0130083
738.349	0.0129345
738.427	0.0128331
738.505	0.0127057
738.583	0.0125498
738.661	0.0122440
738.739	0.0123980
738.818	0.0121655
738.896	0.0121478
738.974	0.0122948
739.052	0.0121545
739.130	0.0123897
739.208	0.0123352
739.286	0.0124718
739.364	0.0125410
739.443	0.0127756
739.521	0.0127499
739.599	0.0129125
739.677	0.0129386
739.755	0.0130772
739.833	0.0131634
739.911	0.0133002
739.989	0.0133756
740.068	0.0133765
740.146	0.0135781
740.224	0.0136592
740.302	0.0136691
740.380	0.0136793
740.458	0.0137279
740.536	0.0137557
740.614	0.0137585
740.693	0.0138074
740.771	0.0139536
740.849	0.0140280
740.927	0.0140534
741.005	0.0141618
741.083	0.0142704
741.161	0.0145995
741.239	0.0145466
741.318	0.0146929
741.396	0.0149368
741.474	0.0148077
741.552	0.0149325
741.630	0.0149531
741.708	0.0149983
741.786	0.0149908
741.864	0.0147462
741.943	0.0146429
742.021	0.0147150
742.099	0.0143404
742.177	0.0142896
742.255	0.0141052
742.333	0.0139605
742.411	0.0137603
742.489	0.0136813
742.568	0.0134256
742.646	0.0133554
742.724	0.0132343
742.802	0.0130984
742.880	0.0129178
742.958	0.0130322
743.036	0.0129056
743.114	0.0129948
743.193	0.0129912
743.271	0.0130810
743.349	0.0130869
743.427	0.0131117
743.505	0.0132059
743.583	0.0132738
743.661	0.0131625
743.739	0.0132128
743.818	0.0132375
743.896	0.0131240
743.974	0.0130602
744.052	0.0130093
744.130	0.0129318
744.208	0.0127547
744.286	0.0127405
744.364	0.0125645
744.443	0.0123228
744.521	0.0123373
744.599	0.0122537
744.677	0.0122249
744.755	0.0121870
744.833	0.0121449
744.911	0.0122876
744.989	0.0121869
745.068	0.0122759
745.146	0.0123150
745.224	0.0127560
745.302	0.0127493
745.380	0.0129239
745.458	0.0130829
745.536	0.0131611
745.614	0.0133619
745.693	0.0134064
745.771	0.0135032
745.849	0.0135369
745.927	0.0136593
746.005	0.0136142
746.083	0.0135866
746.161	0.0137875
746.239	0.0137805
746.318	0.0137215
746.396	0.0136332
746.474	0.0137727
746.552	0.0138960
746.630	0.0137372
746.708	0.0137197
746.786	0.0138481
746.864	0.0139271
746.943	0.0138697
747.021	0.0138329
747.099	0.0138099
747.177	0.0140307
747.255	0.0140712
747.333	0.0141161
747.411	0.0140284
747.489	0.0141112
747.568	0.0140070
747.646	0.0139909
747.724	0.0139938
747.802	0.0139479
747.880	0.0139460
747.958	0.0138088
748.036	0.0135719
748.114	0.0134586
748.193	0.0134669
748.271	0.0133260
748.349	0.0132661
748.427	0.0132561
748.505	0.0130494
748.583	0.0132171
748.661	0.0132602
748.739	0.0131572
748.818	0.0130970
748.896	0.0132706
748.974	0.0134491
749.052	0.0136990
749.130	0.0134459
749.208	0.0136025
749.286	0.0138601
749.364	0.0138279
749.443	0.0138689
749.521	0.0139715
749.599	0.0142094
749.677	0.0140248
749.755	0.0140067
749.833	0.0139337
749.911	0.0139014
749.989	0.0139203
750.068	0.0137070
750.146	0.0135856
750.224	0.0136063
750.302	0.0133314
750.380	0.0132452
750.458	0.0131059
750.536	0.0129283
750.614	0.0128758
750.693	0.0129207
750.771	0.0126590
750.849	0.0125928
750.927	0.0126887
751.005	0.0126324
751.083	0.0128723
751.161	0.0128465
751.239	0.0130402
751.318	0.0129747
751.396	0.0129840
751.474	0.0131597
751.552	0.0132706
751.630	0.0131989
751.708	0.0131385
751.786	0.0132819
751.864	0.0132797
751.943	0.0133375
752.021	0.0132944
752.099	0.0133086
752.177	0.0132695
752.255	0.0131428
752.333	0.0132194
752.411	0.0133216
752.489	0.0133894
752.568	0.0131750
752.646	0.0131683
752.724	0.0132387
752.802	0.0133511
752.880	0.0132549
752.958	0.0131819
753.036	0.0131779
753.114	0.0132829
753.193	0.0132384
753.271	0.0131580
753.349	0.0132504
753.427	0.0132997
753.505	0.0131242
753.583	0.0132954
753.661	0.0131816
753.739	0.0132207
753.818	0.0133097
753.896	0.0134029
753.974	0.0135924
754.052	0.0134337
754.130	0.0135174
754.208	0.0135698
754.286	0.0135568
754.364	0.0137869
754.443	0.0136945
754.521	0.0137482
754.599	0.0138042
754.677	0.0139504
754.755	0.0140625
754.833	0.0139811
754.911	0.0140432
754.989	0.0139496
755.068	0.0140386
755.146	0.0140717
755.224	0.0143519
755.302	0.0142259
755.380	0.0141374
755.458	0.0141972
755.536	0.0142346
755.614	0.0142600
755.693	0.0140711
755.771	0.0140927
755.849	0.0139986
755.927	0.0139102
756.005	0.0137396
756.083	0.0135841
756.161	0.0134512
756.239	0.0134237
756.318	0.0133257
756.396	0.0132501
756.474	0.0131162
756.552	0.0131141
756.630	0.0130095
756.708	0.0130032
756.786	0.0128723
756.864	0.0126749
756.943	0.0126805
757.021	0.0128998
757.099	0.0127572
757.177	0.0127303
757.255	0.0127944
757.333	0.0128916
757.411	0.0127797
757.489	0.0128794
757.568	0.0128717
757.646	0.0129436
757.724	0.0129655
757.802	0.0131532
757.880	0.0133170
757.958	0.0131985
758.036	0.0132188
758.114	0.0134499
758.193	0.0134396
758.271	0.0134428
758.349	0.0133911
758.427	0.0135228
758.505	0.0135109
758.583	0.0134742
758.661	0.0134560
758.739	0.0134367
758.818	0.0135307
758.896	0.0134644
758.974	0.0135133
759.052	0.0134052
759.130	0.0135410
759.208	0.0134474
759.286	0.0133620
759.364	0.0133379
759.443	0.0133609
759.521	0.0134479
759.599	0.0133260
759.677	0.0131838
759.755	0.0133561
759.833	0.0132785
759.911	0.0133095
759.989	0.0133446
760.068	0.0133480
760.146	0.0133032
760.224	0.0133538
760.302	0.0133566
760.380	0.0134059
760.458	0.0133949
760.536	0.0133534
760.614	0.0135763
760.693	0.0134950
760.771	0.0135197
760.849	0.0134968
760.927	0.0135600
761.005	0.0136190
761.083	0.0134969
761.161	0.0135060
761.239	0.0137323
761.318	0.0136505
761.396	0.0135220
761.474	0.0136442
761.552	0.0136337
761.630	0.0137020
761.708	0.0138516
761.786	0.0138953
761.864	0.0138238
761.943	0.0139639
762.021	0.0142574
762.099	0.0142440
762.177	0.0142017
762.255	0.0140813
762.333	0.0143060
762.411	0.0143481
762.489	0.0142618
762.568	0.0141574
762.646	0.0141095
762.724	0.0140141
762.802	0.0137578
762.880	0.0138197
762.958	0.0136199
763.036	0.0134200
763.114	0.0134063
763.193	0.0132034
763.271	0.0130552
763.349	0.0128881
763.427	0.0127798
763.505	0.0128806
763.583	0.0127554
763.661	0.0126867
763.739	0.0126806
763.818	0.0127627
763.896	0.0127259
763.974	0.0127362
764.052	0.0128159
764.130	0.0127515
764.208	0.0126579
764.286	0.0127669
764.364	0.0130777
764.443	0.0131428
764.521	0.0130618
764.599	0.0132742
764.677	0.0133241
764.755	0.0132417
764.833	0.0131372
764.911	0.0132978
764.989	0.0134768
765.068	0.0135363
765.146	0.0134254
765.224	0.0134565
765.302	0.0134947
765.380	0.0134813
765.458	0.0133566
765.536	0.0135181
765.614	0.0135349
765.693	0.0135078
765.771	0.0135370
765.849	0.0135513
765.927	0.0135017
766.005	0.0135297
766.083	0.0133565
766.161	0.0134533
766.239	0.0134967
766.318	0.0135318
766.396	0.0135003
766.474	0.0136138
766.552	0.0134847
766.630	0.0134135
766.708	0.0134442
766.786	0.0135088
766.864	0.0133928
766.943	0.0134603
767.021	0.0136214
767.099	0.0135308
767.177	0.0136439
767.255	0.0134757
767.333	0.0135571
767.411	0.0135023
767.489	0.0135388
767.568	0.0134747
767.646	0.0133890
767.724	0.0133913
767.802	0.0135707
767.880	0.0135340
767.958	0.0134081
768.036	0.0133249
768.114	0.0134299
768.193	0.0135386
768.271	0.0135081
768.349	0.0134742
768.427	0.0135921
768.505	0.0136264
768.583	0.0136829
768.661	0.0135965
768.739	0.0136301
768.818	0.0135636
768.896	0.0136459
768.974	0.0136765
769.052	0.0136252
769.130	0.0137717
769.208	0.0135512
769.286	0.0135658
769.364	0.0135996
769.443	0.0135892
769.521	0.0133498
769.599	0.0133201
769.677	0.0133877
769.755	0.0133245
769.833	0.0133002
769.911	0.0133179
769.989	0.0133710
770.068	0.0133522
770.146	0.0132217
770.224	0.0131500
770.302	0.0133286
770.380	0.0132772
770.458	0.0133324
770.536	0.0133861
770.614	0.0133284
770.693	0.0133471
770.771	0.0133018
770.849	0.0132250
770.927	0.0131131
771.005	0.0133351
771.083	0.0132447
771.161	0.0131548
771.239	0.0131619
771.318	0.0130594
771.396	0.0129820
771.474	0.0130219
771.552	0.0129081
771.630	0.0128426
771.708	0.0129111
771.786	0.0128709
771.864	0.0129415
771.943	0.0130139
772.021	0.0131696
772.099	0.0131347
772.177	0.0130657
772.255	0.0131862
772.333	0.0133684
772.411	0.0133784
772.489	0.0135738
772.568	0.0135658
772.646	0.0136138
772.724	0.0135454
772.802	0.0136149
772.880	0.0137859
772.958	0.0137411
773.036	0.0138529
773.114	0.0138011
773.193	0.0136377
773.271	0.0137050
773.349	0.0137017
773.427	0.0136027
773.505	0.0134780
773.583	0.0135130
773.661	0.0133552
773.739	0.0135064
773.818	0.0134525
773.896	0.0133861
773.974	0.0135084
774.052	0.0134199
774.130	0.0133970
774.208	0.0133642
774.286	0.0136308
774.364	0.0135868
774.443	0.0134403
774.521	0.0135166
774.599	0.0136330
774.677	0.0136984
774.755	0.0137551
774.833	0.0137189
774.911	0.0136944
774.989	0.0136969
775.068	0.0135884
775.146	0.0136426
775.224	0.0134481
775.302	0.0136776
775.380	0.0136098
775.458	0.0135139
775.536	0.0135286
775.614	0.0135866
775.693	0.0136181
775.771	0.0134716
775.849	0.0132835
775.927	0.0134681
776.005	0.0136113
776.083	0.0135139
776.161	0.0134251
776.239	0.0134656
776.318	0.0134497
776.396	0.0135799
776.474	0.0133559
776.552	0.0133353
776.630	0.0133109
776.708	0.0134698
776.786	0.0134422
776.864	0.0133836
776.943	0.0132214
777.021	0.0131479
777.099	0.0132497
777.177	0.0132318
777.255	0.0131956
777.333	0.0131838
777.411	0.0131786
777.489	0.0132333
777.568	0.0129571
777.646	0.0130083
777.724	0.0130369
777.802	0.0128901
777.880	0.0129676
777.958	0.0128777
778.036	0.0129242
778.114	0.0129433
778.193	0.0128828
778.271	0.0130828
778.349	0.0131192
778.427	0.0129428
778.505	0.0131532
778.583	0.0134292
778.661	0.0133859
778.739	0.0136143
778.818	0.0135925
778.896	0.0137155
778.974	0.0136340
779.052	0.0138769
779.130	0.0137640
779.208	0.0138343
779.286	0.0139775
779.364	0.0139470
779.443	0.0138113
779.521	0.0139903
779.599	0.0136238
779.677	0.0136699
779.755	0.0135770
779.833	0.0135567
779.911	0.0134662
779.989	0.0134354
780.068	0.0132719
780.146	0.0132188
780.224	0.0132270
780.302	0.0132467
780.380	0.0130489
780.458	0.0130875
780.536	0.0131056
780.614	0.0131085
780.693	0.0132321
780.771	0.0132154
780.849	0.0132129
780.927	0.0133202
781.005	0.0134248
781.083	0.0133964
781.161	0.0135513
781.239	0.0135069
781.318	0.0134982
781.396	0.0136935
781.474	0.0136539
781.552	0.0137173
781.630	0.0138364
781.708	0.0139386
781.786	0.0139198
781.864	0.0138751
781.943	0.0137360
782.021	0.0137826
782.099	0.0137800
782.177	0.0138861
782.255	0.0138326
782.333	0.0136661
782.411	0.0135999
782.489	0.0135057
782.568	0.0135249
782.646	0.0134895
782.724	0.0135655
782.802	0.0135452
782.880	0.0133457
782.958	0.0133852
783.036	0.0133083
783.114	0.0133653
783.193	0.0133270
783.271	0.0132342
783.349	0.0134246
783.427	0.0132438
783.505	0.0132282
783.583	0.0133135
783.661	0.0131961
783.739	0.0132458
783.818	0.0132787
783.896	0.0133567
783.974	0.0132265
784.052	0.0133302
784.130	0.0132987
784.208	0.0131532
784.286	0.0132305
784.364	0.0131879
784.443	0.0131204
784.521	0.0131099
784.599	0.0130719
784.677	0.0131256
784.755	0.0130386
784.833	0.0130766
784.911	0.0130971
784.989	0.0131586
785.068	0.0132622
785.146	0.0132700
785.224	0.0131674
785.302	0.0132569
785.380	0.0133321
785.458	0.0133897
785.536	0.0133674
785.614	0.0136656
785.693	0.0136725
785.771	0.0137460
785.849	0.0138174
785.927	0.0140893
786.005	0.0139641
786.083	0.0139523
786.161	0.0140085
786.239	0.0140064
786.318	0.0140932
786.396	0.0139796
786.474	0.0139556
786.552	0.0139278
786.630	0.0136875
786.708	0.0137395
786.786	0.0137643
786.864	0.0136404
786.943	0.0134344
787.021	0.0133847
787.099	0.0134138
787.177	0.0131550
787.255	0.0130392
787.333	0.0129881
787.411	0.0129751
787.489	0.0130887
787.568	0.0129031
787.646	0.0129009
787.724	0.0127276
787.802	0.0128916
787.880	0.0129659
787.958	0.0128620
788.036	0.0129286
788.114	0.0128440
788.193	0.0129381
788.271	0.0129970
788.349	0.0130048
788.427	0.0130895
788.505	0.0130997
788.583	0.0130812
788.661	0.0131029
788.739	0.0132971
788.818	0.0133589
788.896	0.0133408
788.974	0.0133881
789.052	0.0135754
789.130	0.0135738
789.208	0.0137541
789.286	0.0137541
789.364	0.0138691
789.443	0.0138679
789.521	0.0139229
789.599	0.0139944
789.677	0.0139770
789.755	0.0138708
789.833	0.0139359
789.911	0.0140537
789.989	0.0140883
790.068	0.0139799
790.146	0.0138799
790.224	0.0139708
790.302	0.0139809
790.380	0.0138181
790.458	0.0136577
790.536	0.0137300
790.614	0.0137893
790.693	0.0137615
790.771	0.0135509
790.849	0.0136295
790.927	0.0135757
791.005	0.0134001
791.083	0.0133576
791.161	0.0132923
791.239	0.0133006
791.318	0.0131985
791.396	0.0131908
791.474	0.0131425
791.552	0.0130227
791.630	0.0129485
791.708	0.0130981
791.786	0.0129563
791.864	0.0129812
791.943	0.0130042
792.021	0.0128940
792.099	0.0127748
792.177	0.0130684
792.255	0.0130034
792.333	0.0130243
792.411	0.0130211
792.489	0.0129945
792.568	0.0130312
792.646	0.0132011
792.724	0.0133021
792.802	0.0136194
792.880	0.0133872
792.958	0.0133791
793.036	0.0134326
793.114	0.0134654
793.193	0.0136228
793.271	0.0135225
793.349	0.0136225
793.427	0.0136260
793.505	0.0135195
793.583	0.0134697
793.661	0.0135735
793.739	0.0134163
793.818	0.0134810
793.896	0.0134473
793.974	0.0134998
794.052	0.0133472
794.130	0.0134554
794.208	0.0135123
794.286	0.0134846
794.364	0.0135447
794.443	0.0135736
794.521	0.0137494
794.599	0.0138042
794.677	0.0137811
794.755	0.0138307
794.833	0.0137108
794.911	0.0138266
794.989	0.0138401
795.068	0.0138692
795.146	0.0138061
795.224	0.0137426
795.302	0.0137163
795.380	0.0135520
795.458	0.0135701
795.536	0.0134750
795.614	0.0135242
795.693	0.0135011
795.771	0.0132578
795.849	0.0129684
795.927	0.0128678
796.005	0.0129474
796.083	0.0127581
796.161	0.0126437
796.239	0.0127385
796.318	0.0128396
796.396	0.0128050
796.474	0.0125812
796.552	0.0127755
796.630	0.0126829
796.708	0.0127755
796.786	0.0127910
796.864	0.0127516
796.943	0.0129444
797.021	0.0129295
797.099	0.0131251
797.177	0.0131576
797.255	0.0133421
797.333	0.0134074
797.411	0.0134621
797.489	0.0136153
797.568	0.0135262
797.646	0.0137009
797.724	0.0137791
797.802	0.0138900
797.880	0.0139781
797.958	0.0139668
798.036	0.0138944
798.114	0.0139665
798.193	0.0138760
798.271	0.0140041
798.349	0.0140076
798.427	0.0141187
798.505	0.0140314
798.583	0.0140621
798.661	0.0141311
798.739	0.0139370
798.818	0.0140090
798.896	0.0139204
798.974	0.0138699
799.052	0.0139182
799.130	0.0138525
799.208	0.0138839
799.286	0.0138187
799.364	0.0136745
799.443	0.0136910
799.521	0.0136128
799.599	0.0136509
799.677	0.0136353
799.755	0.0136263
799.833	0.0134866
799.911	0.0135211
799.989	0.0134890
800.068	0.0134872
800.146	0.0132458
800.224	0.0131916
800.302	0.0129469
800.380	0.0129086
800.458	0.0128818
800.536	0.0125554
800.614	0.0125780
800.693	0.0123993
800.771	0.0124509
800.849	0.0123701
800.927	0.0123893
801.005	0.0122876
801.083	0.0123318
801.161	0.0122672
801.239	0.0123723
801.318	0.0124815
801.396	0.0126947
801.474	0.0128093
801.552	0.0129967
801.630	0.0129123
801.708	0.0131274
801.786	0.0133801
801.864	0.0134079
801.943	0.0135414
802.021	0.0137103
802.099	0.0136520
802.177	0.0138967
802.255	0.0139648
802.333	0.0140206
802.411	0.0141470
802.489	0.0142118
802.568	0.0140703
802.646	0.0142294
802.724	0.0141812
802.802	0.0142307
802.880	0.0143014
802.958	0.0142733
803.036	0.0141802
803.114	0.0142175
803.193	0.0142077
803.271	0.0140786
803.349	0.0141887
803.427	0.0140858
803.505	0.0139909
803.583	0.0139602
803.661	0.0138379
803.739	0.0139285
803.818	0.0138508
803.896	0.0137525
803.974	0.0137922
804.052	0.0135491
804.130	0.0135671
804.208	0.0135757
804.286	0.0134982
804.364	0.0133937
804.443	0.0133863
804.521	0.0131250
804.599	0.0131562
804.677	0.0131838
804.755	0.0131277
804.833	0.0130701
804.911	0.0129282
804.989	0.0128632
805.068	0.0128022
805.146	0.0127186
805.224	0.0127446
805.302	0.0127129
805.380	0.0126826
805.458	0.0126317
805.536	0.0125686
805.614	0.0126061
805.693	0.0124911
805.771	0.0126765
805.849	0.0126649
805.927	0.0127271
806.005	0.0128374
806.083	0.0130186
806.161	0.0129543
806.239	0.0130389
806.318	0.0132087
806.396	0.0132658
806.474	0.0132817
806.552	0.0134988
806.630	0.0136301
806.708	0.0136938
806.786	0.0137614
806.864	0.0137670
806.943	0.0138375
807.021	0.0138967
807.099	0.0139790
807.177	0.0139054
807.255	0.0138316
807.333	0.0138078
807.411	0.0138559
807.489	0.0138437
807.568	0.0138689
807.646	0.0137281
807.724	0.0136993
807.802	0.0137160
807.880	0.0136599
807.958	0.0136806
808.036	0.0136295
808.114	0.0134789
808.193	0.0133664
808.271	0.0134510
808.349	0.0134841
808.427	0.0134907
808.505	0.0135606
808.583	0.0134502
808.661	0.0134802
808.739	0.0134485
808.818	0.0135532
808.896	0.0134708
808.974	0.0135259
809.052	0.0135397
809.130	0.0135854
809.208	0.0135467
809.286	0.0134872
809.364	0.0136611
809.443	0.0135413
809.521	0.0136102
809.599	0.0135622
809.677	0.0135399
809.755	0.0133884
809.833	0.0135195
809.911	0.0135445
809.989	0.0135458
810.068	0.0134393
810.146	0.0134515
810.224	0.0134243
810.302	0.0134902
810.380	0.0132444
810.458	0.0134205
810.536	0.0134132
810.614	0.0133427
810.693	0.0131990
810.771	0.0131927
810.849	0.0132515
810.927	0.0132199
811.005	0.0132189
811.083	0.0131727
811.161	0.0130834
811.239	0.0130248
811.318	0.0131304
811.396	0.0130788
811.474	0.0129964
811.552	0.0130132
811.630	0.0131052
811.708	0.0132009
811.786	0.0128931
811.864	0.0130666
811.943	0.0131731
812.021	0.0132320
812.099	0.0131516
812.177	0.0131622
812.255	0.0131522
812.333	0.0132867
812.411	0.0133935
812.489	0.0133504
812.568	0.0132851
812.646	0.0135014
812.724	0.0134415
812.802	0.0134431
812.880	0.0135878
812.958	0.0135068
813.036	0.0134561
813.114	0.0134361
813.193	0.0136259
813.271	0.0135739
813.349	0.0135113
813.427	0.0135753
813.505	0.0136175
813.583	0.0136754
813.661	0.0137064
813.739	0.0136499
813.818	0.0136440
813.896	0.0135180
813.974	0.0135077
814.052	0.0135634
814.130	0.0137428
814.208	0.0136420
814.286	0.0135740
814.364	0.0136628
814.443	0.0136698
814.521	0.0137393
814.599	0.0135445
814.677	0.0134915
814.755	0.0136034
814.833	0.0136131
814.911	0.0136642
814.989	0.0136194
815.068	0.0137050
815.146	0.0136386
815.224	0.0137946
815.302	0.0135452
815.380	0.0135338
815.458	0.0135411
815.536	0.0135472
815.614	0.0134369
815.693	0.0132962
815.771	0.0132440
815.849	0.0134438
815.927	0.0133090
816.005	0.0132729
816.083	0.0130975
816.161	0.0130206
816.239	0.0131052
816.318	0.0130436
816.396	0.0129546
816.474	0.0129271
816.552	0.0129292
816.630	0.0129283
816.708	0.0128583
816.786	0.0127934
816.864	0.0129002
816.943	0.0128983
817.021	0.0129978
817.099	0.0129462
817.177	0.0128010
817.255	0.0130161
817.333	0.0130504
817.411	0.0130341
817.489	0.0130207
817.568	0.0132938
817.646	0.0134426
817.724	0.0133349
817.802	0.0134532
817.880	0.0134196
817.958	0.0135848
818.036	0.0136502
818.114	0.0137120
818.193	0.0137302
818.271	0.0138780
818.349	0.0137169
818.427	0.0139034
818.505	0.0139671
818.583	0.0138535
818.661	0.0137806
818.739	0.0137691
818.818	0.0138696
818.896	0.0137157
818.974	0.0137020
819.052	0.0138453
819.130	0.0136359
819.208	0.0136347
819.286	0.0136343
819.364	0.0134119
819.443	0.0133595
819.521	0.0133897
819.599	0.0134771
819.677	0.0133179
819.755	0.0134573
819.833	0.0133529
819.911	0.0134715
819.989	0.0135208
820.068	0.0134355
820.146	0.0135392
820.224	0.0135171
820.302	0.0136644
820.380	0.0137312
820.458	0.0138377
820.536	0.0137251
820.614	0.0136687
820.693	0.0137947
820.771	0.0137213
820.849	0.0137378
820.927	0.0137498
821.005	0.0137794
821.083	0.0137511
821.161	0.0136100
821.239	0.0135605
821.318	0.0136058
821.396	0.0135519
821.474	0.0134716
821.552	0.0134525
821.630	0.0132378
821.708	0.0132722
821.786	0.0131950
821.864	0.0130396
821.943	0.0131108
822.021	0.0128917
822.099	0.0128443
822.177	0.0128297
822.255	0.0128265
822.333	0.0131080
822.411	0.0129350
822.489	0.0128059
822.568	0.0130895
822.646	0.0130856
822.724	0.0129156
822.802	0.0130357
822.880	0.0130225
822.958	0.0131387
823.036	0.0131918
823.114	0.0131811
823.193	0.0131240
823.271	0.0133459
823.349	0.0133958
823.427	0.0133639
823.505	0.0133881
823.583	0.0134991
823.661	0.0135058
823.739	0.0136745
823.818	0.0134998
823.896	0.0137425
823.974	0.0138049
824.052	0.0136228
824.130	0.0136305
824.208	0.0137379
824.286	0.0136854
824.364	0.0137595
824.443	0.0137167
824.521	0.0137801
824.599	0.0137448
824.677	0.0135989
824.755	0.0136593
824.833	0.0136181
824.911	0.0136884
824.989	0.0137628
825.068	0.0137415
825.146	0.0137121
825.224	0.0135954
825.302	0.0134221
825.380	0.0135989
825.458	0.0135268
825.536	0.0133621
825.614	0.0135638
825.693	0.0134980
825.771	0.0135614
825.849	0.0136034
825.927	0.0134370
826.005	0.0135538
826.083	0.0134882
826.161	0.0134834
826.239	0.0134087
826.318	0.0135081
826.396	0.0136213
826.474	0.0133349
826.552	0.0133566
826.630	0.0136162
826.708	0.0134985
826.786	0.0135672
826.864	0.0135944
826.943	0.0134022
827.021	0.0136778
827.099	0.0134766
827.177	0.0135719
827.255	0.0136292
827.333	0.0136999
827.411	0.0136336
827.489	0.0135222
827.568	0.0135661
827.646	0.0136700
827.724	0.0135534
827.802	0.0135651
827.880	0.0134796
827.958	0.0135258
828.036	0.0134920
828.114	0.0133548
828.193	0.0132629
828.271	0.0131595
828.349	0.0131847
828.427	0.0131546
828.505	0.0132345
828.583	0.0130392
828.661	0.0129082
828.739	0.0130470
828.818	0.0130010
828.896	0.0128972
828.974	0.0130074
829.052	0.0129801
829.130	0.0129400
829.208	0.0129147
829.286	0.0130621
829.364	0.0130959
829.443	0.0129841
829.521	0.0130970
829.599	0.0130034
829.677	0.0130624
829.755	0.0131071
829.833	0.0130924
829.911	0.0131526
829.989	0.0132371
830.068	0.0132349
830.146	0.0134843
830.224	0.0134162
830.302	0.0133820
830.380	0.0135593
830.458	0.0137286
830.536	0.0136137
830.614	0.0136836
830.693	0.0137112
830.771	0.0138850
830.849	0.0138520
830.927	0.0138687
831.005	0.0138184
831.083	0.0139098
831.161	0.0139520
831.239	0.0140003
831.318	0.0140123
831.396	0.0138825
831.474	0.0138777
831.552	0.0138242
831.630	0.0137973
831.708	0.0137761
831.786	0.0135696
831.864	0.0136589
831.943	0.0134389
832.021	0.0133626
832.099	0.0134366
832.177	0.0133908
832.255	0.0134179
832.333	0.0133710
832.411	0.0132847
832.489	0.0132935
832.568	0.0132191
832.646	0.0131123
832.724	0.0132939
832.802	0.0132703
832.880	0.0132551
832.958	0.0132632
833.036	0.0131618
833.114	0.0132449
833.193	0.0132325
833.271	0.0134259
833.349	0.0133197
833.427	0.0133958
833.505	0.0134464
833.583	0.0133649
833.661	0.0135189
833.739	0.0136586
833.818	0.0135511
833.896	0.0135680
833.974	0.0136112
834.052	0.0136184
834.130	0.0136339
834.208	0.0135925
834.286	0.0138144
834.364	0.0136453
834.443	0.0136169
834.521	0.0136647
834.599	0.0137144
834.677	0.0136142
834.755	0.0134428
834.833	0.0136129
834.911	0.0135694
834.989	0.0134644
835.068	0.0134377
835.146	0.0133929
835.224	0.0134090
835.302	0.0132124
835.380	0.0131412
835.458	0.0131465
835.536	0.0130085
835.614	0.0129766
835.693	0.0130149
835.771	0.0129343
835.849	0.0130460
835.927	0.0128226
836.005	0.0128670
836.083	0.0129472
836.161	0.0129082
836.239	0.0130122
836.318	0.0129365
836.396	0.0129961
836.474	0.0129600
836.552	0.0132040
836.630	0.0131229
836.708	0.0132553
836.786	0.0134137
836.864	0.0133802
836.943	0.0133015
837.021	0.0133978
837.099	0.0134616
837.177	0.0135826
837.255	0.0135371
837.333	0.0135808
837.411	0.0136259
837.489	0.0137405
837.568	0.0135880
837.646	0.0137118
837.724	0.0138627
837.802	0.0137572
837.880	0.0136996
837.958	0.0136988
838.036	0.0137234
838.114	0.0137301
838.193	0.0138336
838.271	0.0138573
838.349	0.0137991
838.427	0.0137247
838.505	0.0137784
838.583	0.0138300
838.661	0.0137493
838.739	0.0137035
838.818	0.0136378
838.896	0.0136522
838.974	0.0137491
839.052	0.0137396
839.130	0.0135223
839.208	0.0136496
839.286	0.0137384
839.364	0.0136479
839.443	0.0136047
839.521	0.0136412
839.599	0.0135384
839.677	0.0135386
839.755	0.0136182
839.833	0.0134464
839.911	0.0135466
839.989	0.0135863
840.068	0.0133704
840.146	0.0133992
840.224	0.0133765
840.302	0.0133746
840.380	0.0133125
840.458	0.0132690
840.536	0.0132391
840.614	0.0131949
840.693	0.0132085
840.771	0.0132254
840.849	0.0132220
840.927	0.0133840
841.005	0.0133259
841.083	0.0130715
841.161	0.0130723
841.239	0.0132132
841.318	0.0132227
841.396	0.0131681
841.474	0.0132050
841.552	0.0131369
841.630	0.0130614
841.708	0.0133051
841.786	0.0132483
841.864	0.0133023
841.943	0.0131635
842.021	0.0132882
842.099	0.0132998
842.177	0.0133408
842.255	0.0134535
842.333	0.0134290
842.411	0.0135600
842.489	0.0134878
842.568	0.0134022
842.646	0.0135615
842.724	0.0135479
842.802	0.0134568
842.880	0.0136460
842.958	0.0136221
843.036	0.0137142
843.114	0.0136618
843.193	0.0135266
843.271	0.0136364
843.349	0.0136599
843.427	0.0136469
843.505	0.0134999
843.583	0.0135092
843.661	0.0136379
843.739	0.0136027
843.818	0.0135760
843.896	0.0135033
843.974	0.0136299
844.052	0.0136427
844.130	0.0134818
844.208	0.0135457
844.286	0.0132810
844.364	0.0133453
844.443	0.0135197
844.521	0.0137073
844.599	0.0135934
844.677	0.0135453
844.755	0.0133988
844.833	0.0133315
844.911	0.0135571
844.989	0.0135001
845.068	0.0133125
845.146	0.0133907
845.224	0.0136006
845.302	0.0135225
845.380	0.0135800
845.458	0.0136137
845.536	0.0135970
845.614	0.0135910
845.693	0.0136749
845.771	0.0136905
845.849	0.0135667
845.927	0.0138018
846.005	0.0137935
846.083	0.0137284
846.161	0.0137252
846.239	0.0136739
846.318	0.0137416
846.396	0.0136729
846.474	0.0136105
846.552	0.0134702
846.630	0.0134369
846.708	0.0134533
846.786	0.0133917
846.864	0.0133427
846.943	0.0133181
847.021	0.0133957
847.099	0.0131173
847.177	0.0132167
847.255	0.0132977
847.333	0.0131451
847.411	0.0131879
847.489	0.0130379
847.568	0.0131994
847.646	0.0132300
847.724	0.0131716
847.802	0.0130836
847.880	0.0131626
847.958	0.0132003
848.036	0.0132477
848.114	0.0132510
848.193	0.0133410
848.271	0.0134295
848.349	0.0134372
848.427	0.0133371
848.505	0.0133233
848.583	0.0133358
848.661	0.0134944
848.739	0.0135434
848.818	0.0135468
848.896	0.0135663
848.974	0.0135394
849.052	0.0135996
849.130	0.0135327
849.208	0.0136015
849.286	0.0134522
849.364	0.0134834
849.443	0.0135044
849.521	0.0135365
849.599	0.0136214
849.677	0.0134077
849.755	0.0134689
849.833	0.0134711
849.911	0.0134870
849.989	0.0134592
850.068	0.0134736
850.146	0.0134327
850.224	0.0135133
850.302	0.0135122
850.380	0.0133627
850.458	0.0134028
850.536	0.0135236
850.614	0.0134080
850.693	0.0134495
850.771	0.0134608
850.849	0.0135113
850.927	0.0134855
851.005	0.0133956
851.083	0.0133681
851.161	0.0136090
851.239	0.0135033
851.318	0.0134897
851.396	0.0136230
851.474	0.0136702
851.552	0.0137096
851.630	0.0137559
851.708	0.0136940
851.786	0.0135545
851.864	0.0136768
851.943	0.0136268
852.021	0.0136755
852.099	0.0134398
852.177	0.0136477
852.255	0.0134841
852.333	0.0135295
852.411	0.0133653
852.489	0.0133635
852.568	0.0134471
852.646	0.0133921
852.724	0.0133356
852.802	0.0132821
852.880	0.0132564
852.958	0.0131768
853.036	0.0132379
853.114	0.0133232
853.193	0.0132310
853.271	0.0133275
853.349	0.0131745
853.427	0.0132112
853.505	0.0132081
853.583	0.0131120
853.661	0.0132993
853.739	0.0132094
853.818	0.0132543
853.896	0.0131984
853.974	0.0132620
854.052	0.0132922
854.130	0.0133855
854.208	0.0133083
854.286	0.0132651
854.364	0.0133717
854.443	0.0134488
854.521	0.0133894
854.599	0.0135712
854.677	0.0133372
854.755	0.0134234
854.833	0.0134695
854.911	0.0136351
854.989	0.0134760
855.068	0.0135081
855.146	0.0135443
855.224	0.0135777
855.302	0.0136641
855.380	0.0133533
855.458	0.0134828
855.536	0.0134276
855.614	0.0134836
855.693	0.0135595
855.771	0.0134969
855.849	0.0135059
855.927	0.0135613
856.005	0.0134324
856.083	0.0134319
856.161	0.0134361
856.239	0.0134479
856.318	0.0135105
856.396	0.0135141
856.474	0.0134917
856.552	0.0134289
856.630	0.0135404
856.708	0.0132662
856.786	0.0134826
856.864	0.0134389
856.943	0.0133527
857.021	0.0133974
857.099	0.0134512
857.177	0.0133064
857.255	0.0133517
857.333	0.0134632
857.411	0.0133915
857.489	0.0133422
857.568	0.0134392
857.646	0.0133577
857.724	0.0133524
857.802	0.0134022
857.880	0.0134557
857.958	0.0135559
858.036	0.0133401
858.114	0.0133808
858.193	0.0135683
858.271	0.0133353
858.349	0.0133920
858.427	0.0134530
858.505	0.0133534
858.583	0.0134193
858.661	0.0132772
858.739	0.0131832
858.818	0.0133061
858.896	0.0131863
858.974	0.0131394
859.052	0.0133070
859.130	0.0133267
859.208	0.0132462
859.286	0.0131360
859.364	0.0132130
859.443	0.0132519
859.521	0.0132494
859.599	0.0131913
859.677	0.0131913
859.755	0.0131222
859.833	0.0131026
859.911	0.0133078
859.989	0.0133485
860.068	0.0132611
860.146	0.0132665
860.224	0.0133910
860.302	0.0133327
860.380	0.0133349
860.458	0.0134056
860.536	0.0135024
860.614	0.0135044
860.693	0.0135688
860.771	0.0135818
860.849	0.0136554
860.927	0.0136037
861.005	0.0136266
861.083	0.0135913
861.161	0.0136090
861.239	0.0136298
861.318	0.0136374
861.396	0.0134679
861.474	0.0134526
861.552	0.0136120
861.630	0.0135648
861.708	0.0135943
861.786	0.0135213
861.864	0.0135704
861.943	0.0135719
862.021	0.0136905
862.099	0.0135878
862.177	0.0135609
862.255	0.0135473
862.333	0.0134881
862.411	0.0135072
862.489	0.0134196
862.568	0.0135993
862.646	0.0135408
862.724	0.0135355
862.802	0.0135215
862.880	0.0133413
862.958	0.0134577
863.036	0.0135239
863.114	0.0134150
863.193	0.0134141
863.271	0.0134039
863.349	0.0133447
863.427	0.0134542
863.505	0.0134264
863.583	0.0133336
863.661	0.0132970
863.739	0.0133952
863.818	0.0132694
863.896	0.0133777
863.974	0.0134357
864.052	0.0134394
864.130	0.0134372
864.208	0.0133414
864.286	0.0134180
864.364	0.0134294
864.443	0.0134725
864.521	0.0135473
864.599	0.0134827
864.677	0.0134382
864.755	0.0135052
864.833	0.0135701
864.911	0.0135056
864.989	0.0134851
865.068	0.0135054
865.146	0.0133061
865.224	0.0135368
865.302	0.0133613
865.380	0.0132405
865.458	0.0134254
865.536	0.0132853
865.614	0.0133186
865.693	0.0133429
865.771	0.0133082
865.849	0.0133463
865.927	0.0131868
866.005	0.0132095
866.083	0.0131477
866.161	0.0132001
866.239	0.0132004
866.318	0.0131985
866.396	0.0132864
866.474	0.0132460
866.552	0.0132311
866.630	0.0132590
866.708	0.0132261
866.786	0.0133339
866.864	0.0133914
866.943	0.0133981
867.021	0.0134070
867.099	0.0134990
867.177	0.0134811
867.255	0.0134808
867.333	0.0134906
867.411	0.0135473
867.489	0.0133883
867.568	0.0134460
867.646	0.0136891
867.724	0.0137520
867.802	0.0135789
867.880	0.0136794
867.958	0.0136787
868.036	0.0135758
868.114	0.0136671
868.193	0.0135844
868.271	0.0137409
868.349	0.0136414
868.427	0.0136283
868.505	0.0136739
868.583	0.0138033
868.661	0.0136031
868.739	0.0135791
868.818	0.0134254
868.896	0.0135016
868.974	0.0134167
869.052	0.0135592
869.130	0.0135403
869.208	0.0135805
869.286	0.0135708
869.364	0.0135526
869.443	0.0134387
869.521	0.0135367
869.599	0.0134309
869.677	0.0133922
869.755	0.0133635
869.833	0.0133399
869.911	0.0132920
869.989	0.0132974
870.068	0.0132333
870.146	0.0131780
870.224	0.0132552
870.302	0.0133755
870.380	0.0132623
870.458	0.0132426
870.536	0.0132574
870.614	0.0133478
870.693	0.0132562
870.771	0.0133759
870.849	0.0134628
870.927	0.0131778
871.005	0.0131491
871.083	0.0131738
871.161	0.0133237
871.239	0.0133047
871.318	0.0132861
871.396	0.0134112
871.474	0.0133748
871.552	0.0132961
871.630	0.0131968
871.708	0.0134180
871.786	0.0134221
871.864	0.0134853
871.943	0.0134521
872.021	0.0134450
872.099	0.0134803
872.177	0.0134850
872.255	0.0133811
872.333	0.0134807
872.411	0.0134612
872.489	0.0132909
872.568	0.0134158
872.646	0.0131553
872.724	0.0134136
872.802	0.0135231
872.880	0.0133439
872.958	0.0134659
873.036	0.0134451
873.114	0.0133441
873.193	0.0133646
873.271	0.0133801
873.349	0.0134170
873.427	0.0135358
873.505	0.0135722
873.583	0.0135035
873.661	0.0135363
873.739	0.0136102
873.818	0.0135941
873.896	0.0135523
873.974	0.0136163
874.052	0.0136784
874.130	0.0135238
874.208	0.0136143
874.286	0.0135408
874.364	0.0135424
874.443	0.0135404
874.521	0.0135332
874.599	0.0134647
874.677	0.0134571
874.755	0.0134203
874.833	0.0133922
874.911	0.0133208
874.989	0.0131748
875.068	0.0131885
875.146	0.0132321
875.224	0.0132751
875.302	0.0131938
875.380	0.0132484
875.458	0.0133287
875.536	0.0132608
875.614	0.0132452
875.693	0.0132013
875.771	0.0132972
875.849	0.0134007
875.927	0.0133783
876.005	0.0132874
876.083	0.0133604
876.161	0.0134756
876.239	0.0133865
876.318	0.0134119
876.396	0.0133109
876.474	0.0133884
876.552	0.0134686
876.630	0.0134110
876.708	0.0133668
876.786	0.0134778
876.864	0.0135065
876.943	0.0135623
877.021	0.0135079
877.099	0.0135085
877.177	0.0136572
877.255	0.0135285
877.333	0.0135757
877.411	0.0133981
877.489	0.0133839
877.568	0.0134524
877.646	0.0133365
877.724	0.0133286
877.802	0.0133730
877.880	0.0132964
877.958	0.0131810
878.036	0.0132793
878.114	0.0131959
878.193	0.0133061
878.271	0.0133995
878.349	0.0134052
878.427	0.0132397
878.505	0.0134283
878.583	0.0134878
878.661	0.0134571
878.739	0.0134891
878.818	0.0135108
878.896	0.0135368
878.974	0.0135455
879.052	0.0135983
879.130	0.0136439
879.208	0.0136163
879.286	0.0135230
879.364	0.0136420
879.443	0.0135596
879.521	0.0136645
879.599	0.0135463
879.677	0.0134965
879.755	0.0134618
879.833	0.0133333
879.911	0.0135049
879.989	0.0135780
880.068	0.0135635
880.146	0.0134611
880.224	0.0134571
880.302	0.0134748
880.380	0.0133966
880.458	0.0133512
880.536	0.0133617
880.614	0.0133308
880.693	0.0133875
880.771	0.0134631
880.849	0.0135889
880.927	0.0134174
881.005	0.0135590
881.083	0.0135911
881.161	0.0135077
881.239	0.0135678
881.318	0.0134475
881.396	0.0135316
881.474	0.0135180
881.552	0.0136347
881.630	0.0135682
881.708	0.0135596
881.786	0.0135716
881.864	0.0136362
881.943	0.0134809
882.021	0.0135493
882.099	0.0135307
882.177	0.0135412
882.255	0.0134845
882.333	0.0135141
882.411	0.0133904
882.489	0.0136098
882.568	0.0135109
882.646	0.0133727
882.724	0.0132946
882.802	0.0133945
882.880	0.0133840
882.958	0.0132134
883.036	0.0131751
883.114	0.0134305
883.193	0.0133746
883.271	0.0132907
883.349	0.0133408
883.427	0.0133481
883.505	0.0134967
883.583	0.0133428
883.661	0.0133728
883.739	0.0133312
883.818	0.0134245
883.896	0.0134228
883.974	0.0135567
884.052	0.0135043
884.130	0.0134628
884.208	0.0134854
884.286	0.0135506
884.364	0.0133998
884.443	0.0135267
884.521	0.0135993
884.599	0.0136538
884.677	0.0136678
884.755	0.0137278
884.833	0.0135650
884.911	0.0136435
884.989	0.0136995
885.068	0.0137519
885.146	0.0138190
885.224	0.0136100
885.302	0.0137955
885.380	0.0135406
885.458	0.0135963
885.536	0.0136383
885.614	0.0134116
885.693	0.0135064
885.771	0.0132312
885.849	0.0133406
885.927	0.0133886
886.005	0.0133221
886.083	0.0133382
886.161	0.0133680
886.239	0.0132678
886.318	0.0133118
886.396	0.0133949
886.474	0.0133630
886.552	0.0133266
886.630	0.0133855
886.708	0.0134843
886.786	0.0134755
886.864	0.0133472
886.943	0.0132837
887.021	0.0133029
887.099	0.0133067
887.177	0.0133220
887.255	0.0133371
887.333	0.0132658
887.411	0.0134246
887.489	0.0133489
887.568	0.0134034
887.646	0.0133907
887.724	0.0133757
887.802	0.0134354
887.880	0.0134899
887.958	0.0134361
888.036	0.0134821
888.114	0.0137240
888.193	0.0136314
888.271	0.0134787
888.349	0.0136253
888.427	0.0137170
888.505	0.0134384
888.583	0.0134766
888.661	0.0136164
888.739	0.0136884
888.818	0.0136079
888.896	0.0136708
888.974	0.0136042
889.052	0.0135910
889.130	0.0135902
889.208	0.0136559
889.286	0.0135859
889.364	0.0136718
889.443	0.0136168
889.521	0.0136393
889.599	0.0135806
889.677	0.0136464
889.755	0.0135228
889.833	0.0134317
889.911	0.0134669
889.989	0.0132304
890.068	0.0131370
890.146	0.0132565
890.224	0.0131427
890.302	0.0130125
890.380	0.0130457
890.458	0.0130782
890.536	0.0130288
890.614	0.0129405
890.693	0.0129170
890.771	0.0130288
890.849	0.0129444
890.927	0.0129912
891.005	0.0130286
891.083	0.0131499
891.161	0.0131249
891.239	0.0131247
891.318	0.0131172
891.396	0.0131961
891.474	0.0134261
891.552	0.0132246
891.630	0.0133387
891.708	0.0132954
891.786	0.0133627
891.864	0.0135785
891.943	0.0134967
892.021	0.0135871
892.099	0.0136193
892.177	0.0137662
892.255	0.0136649
892.333	0.0136516
892.411	0.0136610
892.489	0.0135676
892.568	0.0136614
892.646	0.0136453
892.724	0.0137469
892.802	0.0136364
892.880	0.0136016
892.958	0.0136586
893.036	0.0136767
893.114	0.0137100
893.193	0.0135563
893.271	0.0134664
893.349	0.0136666
893.427	0.0136435
893.505	0.0134889
893.583	0.0135341
893.661	0.0136413
893.739	0.0136798
893.818	0.0135675
893.896	0.0134640
893.974	0.0136079
894.052	0.0134901
894.130	0.0134281
894.208	0.0134734
894.286	0.0134430
894.364	0.0133731
894.443	0.0132688
894.521	0.0132881
894.599	0.0134011
894.677	0.0131146
894.755	0.0131004
894.833	0.0129316
894.911	0.0131767
894.989	0.0131003
895.068	0.0127757
895.146	0.0128173
895.224	0.0128228
895.302	0.0127026
895.380	0.0127758
895.458	0.0129366
895.536	0.0128519
895.614	0.0128785
895.693	0.0129457
895.771	0.0130375
895.849	0.0131644
895.927	0.0132599
896.005	0.0134306
896.083	0.0132925
896.161	0.0135197
896.239	0.0136610
896.318	0.0135448
896.396	0.0137907
896.474	0.0138548
896.552	0.0138197
896.630	0.0138528
896.708	0.0138889
896.786	0.0138754
896.864	0.0140680
896.943	0.0140216
897.021	0.0142057
897.099	0.0140370
897.177	0.0141131
897.255	0.0140416
897.333	0.0139581
897.411	0.0138538
897.489	0.0139405
897.568	0.0138593
897.646	0.0137717
897.724	0.0135923
897.802	0.0134693
897.880	0.0136789
897.958	0.0134836
898.036	0.0133656
898.114	0.0132169
898.193	0.0132160
898.271	0.0131976
898.349	0.0132351
898.427	0.0133150
898.505	0.0131405
898.583	0.0131642
898.661	0.0131152
898.739	0.0131943
898.818	0.0131702
898.896	0.0133617
898.974	0.0131301
899.052	0.0133281
899.130	0.0132508
899.208	0.0133463
899.286	0.0132733
899.364	0.0132550
899.443	0.0132619
899.521	0.0133406
899.599	0.0133929
899.677	0.0133228
899.755	0.0132155
899.833	0.0132233
899.911	0.0132278
899.989	0.0134952
900.068	0.0132820
900.146	0.0133784
900.224	0.0134872
900.302	0.0134873
900.380	0.0133680
900.458	0.0133200
900.536	0.0134117
900.614	0.0134161
900.693	0.0135024
900.771	0.0135365
900.849	0.0134325
900.927	0.0134379
901.005	0.0135061
901.083	0.0134188
901.161	0.0134647
901.239	0.0134912
901.318	0.0135403
901.396	0.0134997
901.474	0.0136392
901.552	0.0135450
901.630	0.0135390
901.708	0.0135585
901.786	0.0138039
901.864	0.0139521
901.943	0.0138747
902.021	0.0137630
902.099	0.0139139
902.177	0.0137512
902.255	0.0138026
902.333	0.0136844
902.411	0.0137391
902.489	0.0138105
902.568	0.0137920
902.646	0.0135924
902.724	0.0135416
902.802	0.0133510
902.880	0.0132919
902.958	0.0133859
903.036	0.0135233
903.114	0.0133212
903.193	0.0132999
903.271	0.0133318
903.349	0.0132332
903.427	0.0132815
903.505	0.0131679
903.583	0.0131556
903.661	0.0133469
903.739	0.0133381
903.818	0.0132951
903.896	0.0134751
903.974	0.0135428
904.052	0.0134486
904.130	0.0135900
904.208	0.0135776
904.286	0.0136935
904.364	0.0137960
904.443	0.0138338
904.521	0.0136771
904.599	0.0137634
904.677	0.0137556
904.755	0.0138949
904.833	0.0138145
904.911	0.0138540
904.989	0.0136842
905.068	0.0137542
905.146	0.0135910
905.224	0.0136451
905.302	0.0135139
905.380	0.0135431
905.458	0.0134092
905.536	0.0134470
905.614	0.0135265
905.693	0.0132196
905.771	0.0131721
905.849	0.0131512
905.927	0.0131055
906.005	0.0130602
906.083	0.0131802
906.161	0.0130481
906.239	0.0129137
906.318	0.0128664
906.396	0.0131509
906.474	0.0130003
906.552	0.0130391
906.630	0.0130879
906.708	0.0130740
906.786	0.0131898
906.864	0.0132661
906.943	0.0133243
907.021	0.0134942
907.099	0.0136647
907.177	0.0136112
907.255	0.0138840
907.333	0.0137553
907.411	0.0139218
907.489	0.0140268
907.568	0.0138224
907.646	0.0140432
907.724	0.0139262
907.802	0.0139952
907.880	0.0140166
907.958	0.0140249
908.036	0.0139472
908.114	0.0138046
908.193	0.0138316
908.271	0.0136615
908.349	0.0136902
908.427	0.0136614
908.505	0.0137064
908.583	0.0135455
908.661	0.0136584
908.739	0.0134466
908.818	0.0135907
908.896	0.0135413
908.974	0.0135363
909.052	0.0133540
909.130	0.0133597
909.208	0.0133698
909.286	0.0134285
909.364	0.0134320
909.443	0.0134219
909.521	0.0133946
909.599	0.0134475
909.677	0.0135754
909.755	0.0135234
909.833	0.0135999
909.911	0.0135415
909.989	0.0134396
910.068	0.0134146
910.146	0.0134359
910.224	0.0136029
910.302	0.0134814
910.380	0.0134281
910.458	0.0134065
910.536	0.0133053
910.614	0.0131111
910.693	0.0134299
910.771	0.0134477
910.849	0.0132880
910.927	0.0130261
911.005	0.0132850
911.083	0.0132569
911.161	0.0132420
911.239	0.0131908
911.318	0.0131888
911.396	0.0132230
911.474	0.0131212
911.552	0.0131477
911.630	0.0132133
911.708	0.0130579
911.786	0.0132281
911.864	0.0131759
911.943	0.0132133
912.021	0.0132030
912.099	0.0133069
912.177	0.0133827
912.255	0.0133766
912.333	0.0134257
912.411	0.0134119
912.489	0.0136023
912.568	0.0134445
912.646	0.0136932
912.724	0.0135921
912.802	0.0137130
912.880	0.0137197
912.958	0.0136926
913.036	0.0137508
913.114	0.0137675
913.193	0.0137379
913.271	0.0136783
913.349	0.0137114
913.427	0.0136909
913.505	0.0136587
913.583	0.0136863
913.661	0.0137101
913.739	0.0135593
913.818	0.0135532
913.896	0.0134903
913.974	0.0134698
914.052	0.0131854
914.130	0.0133633
914.208	0.0133408
914.286	0.0132794
914.364	0.0132545
914.443	0.0131624
914.521	0.0131442
914.599	0.0131534
914.677	0.0131037
914.755	0.0131172
914.833	0.0130319
914.911	0.0131524
914.989	0.0131744
915.068	0.0132336
915.146	0.0133363
915.224	0.0132350
915.302	0.0133247
915.380	0.0134084
915.458	0.0134348
915.536	0.0133717
915.614	0.0134869
915.693	0.0135635
915.771	0.0135759
915.849	0.0134663
915.927	0.0135077
916.005	0.0135133
916.083	0.0134300
916.161	0.0135449
916.239	0.0135784
916.318	0.0134557
916.396	0.0133670
916.474	0.0133382
916.552	0.0132274
916.630	0.0131406
916.708	0.0131640
916.786	0.0130911
916.864	0.0132106
916.943	0.0132106
917.021	0.0132494
917.099	0.0132906
917.177	0.0133402
917.255	0.0135346
917.333	0.0133958
917.411	0.0135075
917.489	0.0136023
917.568	0.0135604
917.646	0.0136201
917.724	0.0135868
917.802	0.0137416
917.880	0.0137807
917.958	0.0137450
918.036	0.0136443
918.114	0.0137606
918.193	0.0136919
918.271	0.0137575
918.349	0.0137090
918.427	0.0136032
918.505	0.0136917
918.583	0.0137120
918.661	0.0136177
918.739	0.0136154
918.818	0.0135758
918.896	0.0134907
918.974	0.0135825
919.052	0.0135183
919.130	0.0134882
919.208	0.0135107
919.286	0.0135021
919.364	0.0134613
919.443	0.0134313
919.521	0.0133045
919.599	0.0132854
919.677	0.0133160
919.755	0.0131244
919.833	0.0131660
919.911	0.0133585
919.989	0.0131416
920.068	0.0132479
920.146	0.0132365
920.224	0.0130791
920.302	0.0133043
920.380	0.0133620
920.458	0.0132668
920.536	0.0132945
920.614	0.0132063
920.693	0.0133746
920.771	0.0134084
920.849	0.0134299
920.927	0.0135384
921.005	0.0134894
921.083	0.0135357
921.161	0.0136320
921.239	0.0136756
921.318	0.0136729
921.396	0.0136079
921.474	0.0136543
921.552	0.0137641
921.630	0.0136573
921.708	0.0136897
921.786	0.0136641
921.864	0.0135719
921.943	0.0136291
922.021	0.0135455
922.099	0.0135629
922.177	0.0133823
922.255	0.0133126
922.333	0.0133880
922.411	0.0134248
922.489	0.0133960
922.568	0.0133323
922.646	0.0132732
922.724	0.0133002
922.802	0.0132667
922.880	0.0133385
922.958	0.0134215
923.036	0.0134620
923.114	0.0134625
923.193	0.0134925
923.271	0.0135078
923.349	0.0135020
923.427	0.0135506
923.505	0.0134999
923.583	0.0136634
923.661	0.0137962
923.739	0.0135520
923.818	0.0135593
923.896	0.0136433
923.974	0.0137332
924.052	0.0137013
924.130	0.0137885
924.208	0.0136354
924.286	0.0137345
924.364	0.0135676
924.443	0.0138152
924.521	0.0137484
924.599	0.0135832
924.677	0.0135538
924.755	0.0134258
924.833	0.0135027
924.911	0.0135526
924.989	0.0134645
925.068	0.0134719
925.146	0.0134916
925.224	0.0135339
925.302	0.0134438
925.380	0.0134630
925.458	0.0134666
925.536	0.0133501
925.614	0.0134971
925.693	0.0131675
925.771	0.0131673
925.849	0.0131417
925.927	0.0132552
926.005	0.0132325
926.083	0.0133060
926.161	0.0132230
926.239	0.0132042
926.318	0.0133540
926.396	0.0132303
926.474	0.0132667
926.552	0.0133275
926.630	0.0133009
926.708	0.0132715
926.786	0.0132896
926.864	0.0133053
926.943	0.0135275
927.021	0.0132195
927.099	0.0133630
927.177	0.0134909
927.255	0.0133195
927.333	0.0133719
927.411	0.0135294
927.489	0.0136043
927.568	0.0135661
927.646	0.0135607
927.724	0.0135990
927.802	0.0135313
927.880	0.0136218
927.958	0.0136724
928.036	0.0136277
928.114	0.0136847
928.193	0.0136855
928.271	0.0137057
928.349	0.0137254
928.427	0.0137638
928.505	0.0136983
928.583	0.0137428
928.661	0.0137338
928.739	0.0136135
928.818	0.0136098
928.896	0.0137083
928.974	0.0136737
929.052	0.0135880
929.130	0.0136756
929.208	0.0136943
929.286	0.0135882
929.364	0.0135319
929.443	0.0134633
929.521	0.0135873
929.599	0.0133977
929.677	0.0133613
929.755	0.0133891
929.833	0.0133789
929.911	0.0133227
929.989	0.0133466
930.068	0.0132773
930.146	0.0133313
930.224	0.0133901
930.302	0.0132913
930.380	0.0132922
930.458	0.0132445
930.536	0.0132903
930.614	0.0133181
930.693	0.0130840
930.771	0.0133771
930.849	0.0132421
930.927	0.0133166
931.005	0.0134711
931.083	0.0133470
931.161	0.0135143
931.239	0.0134895
931.318	0.0134147
931.396	0.0133260
931.474	0.0134856
931.552	0.0136950
931.630	0.0135156
931.708	0.0135811
931.786	0.0134321
931.864	0.0133905
931.943	0.0133994
932.021	0.0135181
932.099	0.0133104
932.177	0.0134519
932.255	0.0136000
932.333	0.0134866
932.411	0.0134386
932.489	0.0134470
932.568	0.0134769
932.646	0.0135631
932.724	0.0134227
932.802	0.0134977
932.880	0.0135001
932.958	0.0134933
933.036	0.0136758
933.114	0.0135300
933.193	0.0135958
933.271	0.0134721
933.349	0.0135884
933.427	0.0135692
933.505	0.0135571
933.583	0.0134984
933.661	0.0134626
933.739	0.0134579
933.818	0.0134512
933.896	0.0134039
933.974	0.0133427
934.052	0.0132803
934.130	0.0133941
934.208	0.0133420
934.286	0.0132974
934.364	0.0133508
934.443	0.0133910
934.521	0.0132872
934.599	0.0133389
934.677	0.0133382
934.755	0.0133421
934.833	0.0132540
934.911	0.0133585
934.989	0.0132867
935.068	0.0134309
935.146	0.0133524
935.224	0.0131585
935.302	0.0132661
935.380	0.0133265
935.458	0.0132345
935.536	0.0134414
935.614	0.0131707
935.693	0.0132600
935.771	0.0132699
935.849	0.0132505
935.927	0.0131208
936.005	0.0132168
936.083	0.0132629
936.161	0.0131648
936.239	0.0131525
936.318	0.0133035
936.396	0.0133315
936.474	0.0134067
936.552	0.0134738
936.630	0.0134802
936.708	0.0133660
936.786	0.0135936
936.864	0.0134638
936.943	0.0135980
937.021	0.0138163
937.099	0.0137767
937.177	0.0137296
937.255	0.0137907
937.333	0.0137411
937.411	0.0138222
937.489	0.0138044
937.568	0.0137274
937.646	0.0136469
937.724	0.0137952
937.802	0.0137741
937.880	0.0135609
937.958	0.0135036
938.036	0.0135300
938.114	0.0134528
938.193	0.0133514
938.271	0.0132826
938.349	0.0131508
938.427	0.0132150
938.505	0.0131573
938.583	0.0131776
938.661	0.0131411
938.739	0.0132256
938.818	0.0130642
938.896	0.0131253
938.974	0.0131033
939.052	0.0130759
939.130	0.0132405
939.208	0.0130932
939.286	0.0131828
939.364	0.0132519
939.443	0.0133273
939.521	0.0133575
939.599	0.0132706
939.677	0.0133581
939.755	0.0133011
939.833	0.0133336
939.911	0.0132769
939.989	0.0132156
940.068	0.0133697
940.146	0.0134489
940.224	0.0133282
940.302	0.0134373
940.380	0.0134959
940.458	0.0134853
940.536	0.0136090
940.614	0.0134951
940.693	0.0135239
940.771	0.0137034
940.849	0.0135471
940.927	0.0135535
941.005	0.0135243
941.083	0.0136735
941.161	0.0137186
941.239	0.0135149
941.318	0.0135795
941.396	0.0136184
941.474	0.0136349
941.552	0.0135326
941.630	0.0136070
941.708	0.0135111
941.786	0.0136153
941.864	0.0136002
941.943	0.0135101
942.021	0.0134657
942.099	0.0133978
942.177	0.0134052
942.255	0.0134978
942.333	0.0135075
942.411	0.0134715
942.489	0.0134231
942.568	0.0134884
942.646	0.0135351
942.724	0.0133065
942.802	0.0133830
942.880	0.0133461
942.958	0.0135290
943.036	0.0135271
943.114	0.0134147
943.193	0.0135506
943.271	0.0134636
943.349	0.0135597
943.427	0.0136352
943.505	0.0135487
943.583	0.0135306
943.661	0.0136288
943.739	0.0136851
943.818	0.0135699
943.896	0.0134509
943.974	0.0134785
944.052	0.0135383
944.130	0.0133786
944.208	0.0134344
944.286	0.0135000
944.364	0.0134032
944.443	0.0133588
944.521	0.0134261
944.599	0.0132495
944.677	0.0132686
944.755	0.0134887
944.833	0.0133574
944.911	0.0134438
944.989	0.0133133
945.068	0.0134375
945.146	0.0134991
945.224	0.0134395
945.302	0.0135373
945.380	0.0136389
945.458	0.0135408
945.536	0.0135226
945.614	0.0135429
945.693	0.0136806
945.771	0.0135934
945.849	0.0135352
945.927	0.0135661
946.005	0.0136461
946.083	0.0135033
946.161	0.0136440
946.239	0.0135940
946.318	0.0136494
946.396	0.0135272
946.474	0.0136545
946.552	0.0137337
946.630	0.0137036
946.708	0.0136322
946.786	0.0136417
946.864	0.0136900
946.943	0.0137051
947.021	0.0136800
947.099	0.0135767
947.177	0.0135937
947.255	0.0136538
947.333	0.0136158
947.411	0.0135664
947.489	0.0134808
947.568	0.0134385
947.646	0.0135235
947.724	0.0134524
947.802	0.0133731
947.880	0.0134225
947.958	0.0134121
948.036	0.0133842
948.114	0.0134253
948.193	0.0133256
948.271	0.0133842
948.349	0.0134158
948.427	0.0134403
948.505	0.0133447
948.583	0.0133329
948.661	0.0133077
948.739	0.0133436
948.818	0.0134270
948.896	0.0132966
948.974	0.0133743
949.052	0.0134048
949.130	0.0133771
949.208	0.0134207
949.286	0.0135792
949.364	0.0133752
949.443	0.0133819
949.521	0.0132285
949.599	0.0133577
949.677	0.0134708
949.755	0.0133903
949.833	0.0134257
949.911	0.0133152
949.989	0.0133936
950.068	0.0134911
950.146	0.0133459
950.224	0.0133224
950.302	0.0134397
950.380	0.0134517
950.458	0.0134325
950.536	0.0134412
950.614	0.0134322
950.693	0.0133111
950.771	0.0134721
950.849	0.0134119
950.927	0.0133221
951.005	0.0134815
951.083	0.0135076
951.161	0.0135201
951.239	0.0134431
951.318	0.0136042
951.396	0.0136546
951.474	0.0135894
951.552	0.0135327
951.630	0.0134465
951.708	0.0135153
951.786	0.0136968
951.864	0.0136350
951.943	0.0136137
952.021	0.0135833
952.099	0.0135650
952.177	0.0135332
952.255	0.0135835
952.333	0.0134547
952.411	0.0134744
952.489	0.0135987
952.568	0.0136541
952.646	0.0134299
952.724	0.0133446
952.802	0.0135529
952.880	0.0135526
952.958	0.0135675
953.036	0.0133914
953.114	0.0132915
953.193	0.0134059
953.271	0.0134550
953.349	0.0133001
953.427	0.0132915
953.505	0.0132536
953.583	0.0134000
953.661	0.0134023
953.739	0.0133572
953.818	0.0133521
953.896	0.0133434
953.974	0.0133260
954.052	0.0133978
954.130	0.0133308
954.208	0.0135229
954.286	0.0134213
954.364	0.0134855
954.443	0.0134152
954.521	0.0133771
954.599	0.0131715
954.677	0.0132276
954.755	0.0133085
954.833	0.0133826
954.911	0.0132996
954.989	0.0133165
955.068	0.0132079
955.146	0.0132973
955.224	0.0133857
955.302	0.0133669
955.380	0.0133629
955.458	0.0133526
955.536	0.0133298
955.614	0.0133102
955.693	0.0132278
955.771	0.0133655
955.849	0.0133012
955.927	0.0133019
956.005	0.0133039
956.083	0.0133578
956.161	0.0132851
956.239	0.0133260
956.318	0.0135601
956.396	0.0135572
956.474	0.0134673
956.552	0.0133675
956.630	0.0134985
956.708	0.0136636
956.786	0.0135814
956.864	0.0135644
956.943	0.0135841
957.021	0.0136339
957.099	0.0136851
957.177	0.0136564
957.255	0.0135990
957.333	0.0134507
957.411	0.0136235
957.489	0.0135997
957.568	0.0133507
957.646	0.0136134
957.724	0.0136646
957.802	0.0135925
957.880	0.0134774
957.958	0.0134637
958.036	0.0134285
958.114	0.0133927
958.193	0.0133468
958.271	0.0133691
958.349	0.0133524
958.427	0.0132653
958.505	0.0131775
958.583	0.0133558
958.661	0.0133347
958.739	0.0133202
958.818	0.0133813
958.896	0.0134819
958.974	0.0132729
959.052	0.0134536
959.130	0.0133398
959.208	0.0133601
959.286	0.0133568
959.364	0.0133852
959.443	0.0133341
959.521	0.0133668
959.599	0.0134535
959.677	0.0133807
959.755	0.0134361
959.833	0.0135112
959.911	0.0134874
