05/14/2022	16:33:01	Ver.	4.1	UNKNOWN
Optical Delay	639.989416	Delta X		0.078125	Sweeps	1	Scan Rate	0/0
Coordinates	Axis 1	NaN	Axis 2	NaN	Axis 3	NaN	Axis 4	NaN	Axis 5	NaN	Axis 6	0.000000
TX Power	0.000000	RX Power	0.000000

639.989	0.0135568
640.068	0.0136193
640.146	0.0134782
640.224	0.0134603
640.302	0.0134834
640.380	0.0135137
640.458	0.0135431
640.536	0.0134898
640.614	0.0135904
640.693	0.0137151
640.771	0.0134529
640.849	0.0134984
640.927	0.0135368
641.005	0.0134048
641.083	0.0136168
641.161	0.0136494
641.239	0.0134245
641.318	0.0135355
641.396	0.0134875
641.474	0.0133905
641.552	0.0135152
641.630	0.0134387
641.708	0.0135464
641.786	0.0135485
641.864	0.0134504
641.943	0.0134814
642.021	0.0134388
642.099	0.0133914
642.177	0.0134525
642.255	0.0135111
642.333	0.0135694
642.411	0.0133305
642.489	0.0133338
642.568	0.0135619
642.646	0.0134679
642.724	0.0134827
642.802	0.0134387
642.880	0.0133936
642.958	0.0135278
643.036	0.0135443
643.114	0.0134109
643.193	0.0134554
643.271	0.0135480
643.349	0.0134534
643.427	0.0133691
643.505	0.0134885
643.583	0.0134573
643.661	0.0135036
643.739	0.0135321
643.818	0.0133327
643.896	0.0135276
643.974	0.0133757
644.052	0.0135120
644.130	0.0134661
644.208	0.0134521
644.286	0.0134361
644.364	0.0135847
644.443	0.0134383
644.521	0.0135432
644.599	0.0135210
644.677	0.0133852
644.755	0.0133731
644.833	0.0135589
644.911	0.0135321
644.989	0.0134328
645.068	0.0135577
645.146	0.0135498
645.224	0.0135898
645.302	0.0135847
645.380	0.0133972
645.458	0.0134599
645.536	0.0134810
645.614	0.0135741
645.693	0.0134227
645.771	0.0135403
645.849	0.0134353
645.927	0.0136476
646.005	0.0135906
646.083	0.0135263
646.161	0.0133612
646.239	0.0134495
646.318	0.0134451
646.396	0.0134368
646.474	0.0136429
646.552	0.0134250
646.630	0.0135628
646.708	0.0135870
646.786	0.0135474
646.864	0.0133849
646.943	0.0134788
647.021	0.0135083
647.099	0.0134955
647.177	0.0134779
647.255	0.0134314
647.333	0.0135939
647.411	0.0135266
647.489	0.0134873
647.568	0.0135783
647.646	0.0135264
647.724	0.0135126
647.802	0.0134769
647.880	0.0134486
647.958	0.0135489
648.036	0.0136240
648.114	0.0134805
648.193	0.0135672
648.271	0.0134801
648.349	0.0135056
648.427	0.0134644
648.505	0.0133576
648.583	0.0136385
648.661	0.0136664
648.739	0.0134931
648.818	0.0134894
648.896	0.0133955
648.974	0.0135869
649.052	0.0136660
649.130	0.0135448
649.208	0.0134968
649.286	0.0135187
649.364	0.0136196
649.443	0.0136255
649.521	0.0135551
649.599	0.0136011
649.677	0.0135109
649.755	0.0136142
649.833	0.0135638
649.911	0.0136990
649.989	0.0136094
650.068	0.0135952
650.146	0.0136137
650.224	0.0135631
650.302	0.0137106
650.380	0.0137292
650.458	0.0135654
650.536	0.0136010
650.614	0.0135322
650.693	0.0136485
650.771	0.0137227
650.849	0.0135971
650.927	0.0136028
651.005	0.0135074
651.083	0.0135445
651.161	0.0136668
651.239	0.0137406
651.318	0.0137442
651.396	0.0135040
651.474	0.0135420
651.552	0.0136042
651.630	0.0135585
651.708	0.0136638
651.786	0.0137185
651.864	0.0137428
651.943	0.0136000
652.021	0.0136200
652.099	0.0136288
652.177	0.0135635
652.255	0.0136050
652.333	0.0136910
652.411	0.0136089
652.489	0.0136387
652.568	0.0135716
652.646	0.0135551
652.724	0.0136020
652.802	0.0136902
652.880	0.0136118
652.958	0.0136439
653.036	0.0136961
653.114	0.0136165
653.193	0.0137148
653.271	0.0134998
653.349	0.0135957
653.427	0.0137317
653.505	0.0136734
653.583	0.0137383
653.661	0.0136981
653.739	0.0135358
653.818	0.0136123
653.896	0.0136798
653.974	0.0136541
654.052	0.0136160
654.130	0.0136816
654.208	0.0137177
654.286	0.0136095
654.364	0.0136162
654.443	0.0136432
654.521	0.0137942
654.599	0.0136769
654.677	0.0138133
654.755	0.0136693
654.833	0.0135115
654.911	0.0136324
654.989	0.0137670
655.068	0.0135868
655.146	0.0136092
655.224	0.0136866
655.302	0.0136803
655.380	0.0137035
655.458	0.0135366
655.536	0.0135064
655.614	0.0136396
655.693	0.0135416
655.771	0.0136094
655.849	0.0136349
655.927	0.0136956
656.005	0.0136555
656.083	0.0136448
656.161	0.0136578
656.239	0.0136229
656.318	0.0137094
656.396	0.0137018
656.474	0.0136489
656.552	0.0135918
656.630	0.0136299
656.708	0.0136880
656.786	0.0136814
656.864	0.0136314
656.943	0.0136375
657.021	0.0136744
657.099	0.0137105
657.177	0.0135860
657.255	0.0136037
657.333	0.0135876
657.411	0.0136002
657.489	0.0137012
657.568	0.0138140
657.646	0.0136764
657.724	0.0136733
657.802	0.0136586
657.880	0.0136485
657.958	0.0136682
658.036	0.0136485
658.114	0.0136971
658.193	0.0136488
658.271	0.0136865
658.349	0.0133826
658.427	0.0135622
658.505	0.0137406
658.583	0.0136513
658.661	0.0136946
658.739	0.0136273
658.818	0.0136362
658.896	0.0136242
658.974	0.0135221
659.052	0.0135829
659.130	0.0136262
659.208	0.0135634
659.286	0.0134792
659.364	0.0135547
659.443	0.0136246
659.521	0.0135978
659.599	0.0135274
659.677	0.0136219
659.755	0.0135829
659.833	0.0134770
659.911	0.0136664
659.989	0.0135814
660.068	0.0136211
660.146	0.0135627
660.224	0.0135124
660.302	0.0135537
660.380	0.0134265
660.458	0.0134546
660.536	0.0135046
660.614	0.0136349
660.693	0.0135009
660.771	0.0134709
660.849	0.0135419
660.927	0.0135552
661.005	0.0134383
661.083	0.0135794
661.161	0.0134637
661.239	0.0133607
661.318	0.0135294
661.396	0.0135567
661.474	0.0135046
661.552	0.0136426
661.630	0.0135461
661.708	0.0133788
661.786	0.0134701
661.864	0.0135725
661.943	0.0135038
662.021	0.0135918
662.099	0.0136124
662.177	0.0135606
662.255	0.0135489
662.333	0.0134190
662.411	0.0134689
662.489	0.0133907
662.568	0.0133984
662.646	0.0134097
662.724	0.0135563
662.802	0.0135274
662.880	0.0134321
662.958	0.0134497
663.036	0.0136345
663.114	0.0135233
663.193	0.0133965
663.271	0.0134873
663.349	0.0134187
663.427	0.0133347
663.505	0.0133687
663.583	0.0134383
663.661	0.0133881
663.739	0.0133897
663.818	0.0134415
663.896	0.0134289
663.974	0.0133456
664.052	0.0134057
664.130	0.0135061
664.208	0.0135004
664.286	0.0133577
664.364	0.0134691
664.443	0.0133607
664.521	0.0134500
664.599	0.0133389
664.677	0.0135426
664.755	0.0134459
664.833	0.0134264
664.911	0.0133978
664.989	0.0133500
665.068	0.0132773
665.146	0.0135504
665.224	0.0134644
665.302	0.0133852
665.380	0.0133638
665.458	0.0135144
665.536	0.0133219
665.614	0.0133559
665.693	0.0133147
665.771	0.0134651
665.849	0.0133188
665.927	0.0133216
666.005	0.0135715
666.083	0.0135506
666.161	0.0133603
666.239	0.0133553
666.318	0.0134405
666.396	0.0133537
666.474	0.0134029
666.552	0.0135094
666.630	0.0133597
666.708	0.0134425
666.786	0.0134309
666.864	0.0134084
666.943	0.0135503
667.021	0.0134235
667.099	0.0133973
667.177	0.0134505
667.255	0.0134355
667.333	0.0134488
667.411	0.0133688
667.489	0.0133843
667.568	0.0135284
667.646	0.0134351
667.724	0.0134627
667.802	0.0134149
667.880	0.0133579
667.958	0.0135392
668.036	0.0133684
668.114	0.0134065
668.193	0.0134371
668.271	0.0134308
668.349	0.0134574
668.427	0.0133871
668.505	0.0135127
668.583	0.0136024
668.661	0.0133714
668.739	0.0134821
668.818	0.0135783
668.896	0.0135839
668.974	0.0136137
669.052	0.0135491
669.130	0.0135101
669.208	0.0135957
669.286	0.0135661
669.364	0.0134550
669.443	0.0135247
669.521	0.0135323
669.599	0.0135052
669.677	0.0134792
669.755	0.0135594
669.833	0.0135482
669.911	0.0134608
669.989	0.0135058
670.068	0.0135595
670.146	0.0136120
670.224	0.0136289
670.302	0.0136203
670.380	0.0135036
670.458	0.0134789
670.536	0.0134987
670.614	0.0135518
670.693	0.0136761
670.771	0.0135049
670.849	0.0136500
670.927	0.0136833
671.005	0.0135426
671.083	0.0135828
671.161	0.0135756
671.239	0.0134893
671.318	0.0135432
671.396	0.0136459
671.474	0.0133747
671.552	0.0135203
671.630	0.0134874
671.708	0.0134943
671.786	0.0135986
671.864	0.0136240
671.943	0.0135192
672.021	0.0135120
672.099	0.0134321
672.177	0.0135123
672.255	0.0135325
672.333	0.0136523
672.411	0.0135770
672.489	0.0135353
672.568	0.0135574
672.646	0.0135177
672.724	0.0134965
672.802	0.0135065
672.880	0.0136217
672.958	0.0135665
673.036	0.0137002
673.114	0.0137596
673.193	0.0136776
673.271	0.0136713
673.349	0.0135693
673.427	0.0135583
673.505	0.0135520
673.583	0.0135870
673.661	0.0135360
673.739	0.0137038
673.818	0.0135364
673.896	0.0137280
673.974	0.0136229
674.052	0.0135728
674.130	0.0135661
674.208	0.0135863
674.286	0.0134303
674.364	0.0135439
674.443	0.0134827
674.521	0.0134627
674.599	0.0135791
674.677	0.0135819
674.755	0.0135664
674.833	0.0135448
674.911	0.0136147
674.989	0.0134617
675.068	0.0136067
675.146	0.0135369
675.224	0.0136377
675.302	0.0136005
675.380	0.0136587
675.458	0.0138705
675.536	0.0136359
675.614	0.0136265
675.693	0.0136551
675.771	0.0136599
675.849	0.0136371
675.927	0.0134919
676.005	0.0137131
676.083	0.0136211
676.161	0.0135406
676.239	0.0135581
676.318	0.0135545
676.396	0.0135163
676.474	0.0135590
676.552	0.0136889
676.630	0.0137275
676.708	0.0136388
676.786	0.0135635
676.864	0.0137535
676.943	0.0135931
677.021	0.0135645
677.099	0.0136333
677.177	0.0137313
677.255	0.0137093
677.333	0.0135508
677.411	0.0137056
677.489	0.0136321
677.568	0.0135890
677.646	0.0136548
677.724	0.0136085
677.802	0.0132808
677.880	0.0135042
677.958	0.0136948
678.036	0.0135180
678.114	0.0134922
678.193	0.0135630
678.271	0.0136955
678.349	0.0136718
678.427	0.0135986
678.505	0.0137388
678.583	0.0137575
678.661	0.0137568
678.739	0.0136543
678.818	0.0136111
678.896	0.0135854
678.974	0.0136211
679.052	0.0135237
679.130	0.0133999
679.208	0.0135035
679.286	0.0133812
679.364	0.0133581
679.443	0.0134618
679.521	0.0136021
679.599	0.0137224
679.677	0.0136230
679.755	0.0135246
679.833	0.0137871
679.911	0.0138916
679.989	0.0139201
680.068	0.0137782
680.146	0.0138634
680.224	0.0137450
680.302	0.0138324
680.380	0.0138612
680.458	0.0134962
680.536	0.0133954
680.614	0.0132433
680.693	0.0132271
680.771	0.0131894
680.849	0.0130703
680.927	0.0129655
681.005	0.0128655
681.083	0.0130048
681.161	0.0129930
681.239	0.0129762
681.318	0.0130402
681.396	0.0129652
681.474	0.0133112
681.552	0.0133092
681.630	0.0134814
681.708	0.0135260
681.786	0.0136317
681.864	0.0137404
681.943	0.0138274
682.021	0.0138252
682.099	0.0139852
682.177	0.0142139
682.255	0.0142034
682.333	0.0143900
682.411	0.0144382
682.489	0.0145247
682.568	0.0143636
682.646	0.0143744
682.724	0.0142513
682.802	0.0140746
682.880	0.0139275
682.958	0.0137559
683.036	0.0134919
683.114	0.0132762
683.193	0.0130376
683.271	0.0127144
683.349	0.0127406
683.427	0.0125182
683.505	0.0123689
683.583	0.0123553
683.661	0.0123931
683.739	0.0124570
683.818	0.0124879
683.896	0.0126373
683.974	0.0128761
684.052	0.0128750
684.130	0.0129950
684.208	0.0131174
684.286	0.0132242
684.364	0.0133710
684.443	0.0135284
684.521	0.0137801
684.599	0.0139458
684.677	0.0141642
684.755	0.0143332
684.833	0.0143228
684.911	0.0145155
684.989	0.0146579
685.068	0.0148354
685.146	0.0150134
685.224	0.0148783
685.302	0.0149137
685.380	0.0147775
685.458	0.0147257
685.536	0.0145719
685.614	0.0144527
685.693	0.0143350
685.771	0.0138821
685.849	0.0135487
685.927	0.0135194
686.005	0.0132039
686.083	0.0127467
686.161	0.0126382
686.239	0.0123737
686.318	0.0123405
686.396	0.0123529
686.474	0.0122400
686.552	0.0120943
686.630	0.0121183
686.708	0.0124261
686.786	0.0124881
686.864	0.0125845
686.943	0.0126559
687.021	0.0130132
687.099	0.0131445
687.177	0.0131615
687.255	0.0134827
687.333	0.0135913
687.411	0.0135609
687.489	0.0137185
687.568	0.0137891
687.646	0.0137999
687.724	0.0137952
687.802	0.0137653
687.880	0.0137337
687.958	0.0136850
688.036	0.0136543
688.114	0.0135615
688.193	0.0134549
688.271	0.0134052
688.349	0.0133755
688.427	0.0133350
688.505	0.0134090
688.583	0.0134144
688.661	0.0134476
688.739	0.0134496
688.818	0.0136479
688.896	0.0137594
688.974	0.0140031
689.052	0.0142855
689.130	0.0143213
689.208	0.0145823
689.286	0.0145855
689.364	0.0148817
689.443	0.0148687
689.521	0.0149088
689.599	0.0147209
689.677	0.0149066
689.755	0.0149491
689.833	0.0145758
689.911	0.0144707
689.989	0.0141421
690.068	0.0140224
690.146	0.0138285
690.224	0.0138329
690.302	0.0135130
690.380	0.0131970
690.458	0.0127052
690.536	0.0125833
690.614	0.0123080
690.693	0.0120015
690.771	0.0116364
690.849	0.0113984
690.927	0.0112109
691.005	0.0111299
691.083	0.0108984
691.161	0.0107966
691.239	0.0108846
691.318	0.0111634
691.396	0.0112743
691.474	0.0115069
691.552	0.0117386
691.630	0.0120273
691.708	0.0123843
691.786	0.0127562
691.864	0.0131235
691.943	0.0133256
692.021	0.0138336
692.099	0.0141392
692.177	0.0143664
692.255	0.0147554
692.333	0.0149652
692.411	0.0151204
692.489	0.0153445
692.568	0.0153600
692.646	0.0156249
692.724	0.0158885
692.802	0.0159995
692.880	0.0160844
692.958	0.0161549
693.036	0.0164153
693.114	0.0163707
693.193	0.0162040
693.271	0.0160194
693.349	0.0159604
693.427	0.0157108
693.505	0.0155038
693.583	0.0150514
693.661	0.0147305
693.739	0.0142740
693.818	0.0138174
693.896	0.0137259
693.974	0.0134286
694.052	0.0130875
694.130	0.0128366
694.208	0.0127077
694.286	0.0126221
694.364	0.0122594
694.443	0.0121590
694.521	0.0119638
694.599	0.0117884
694.677	0.0115193
694.755	0.0113678
694.833	0.0112744
694.911	0.0110410
694.989	0.0109215
695.068	0.0107348
695.146	0.0106755
695.224	0.0107211
695.302	0.0106352
695.380	0.0108179
695.458	0.0110740
695.536	0.0112115
695.614	0.0114637
695.693	0.0115868
695.771	0.0117925
695.849	0.0121580
695.927	0.0124867
696.005	0.0125411
696.083	0.0128181
696.161	0.0130555
696.239	0.0131504
696.318	0.0133070
696.396	0.0136832
696.474	0.0137073
696.552	0.0140285
696.630	0.0142528
696.708	0.0146349
696.786	0.0151095
696.864	0.0153441
696.943	0.0158766
697.021	0.0163423
697.099	0.0167855
697.177	0.0170750
697.255	0.0175095
697.333	0.0177585
697.411	0.0180437
697.489	0.0182542
697.568	0.0182172
697.646	0.0180277
697.724	0.0180510
697.802	0.0177277
697.880	0.0172875
697.958	0.0168156
698.036	0.0161880
698.114	0.0156968
698.193	0.0149657
698.271	0.0144436
698.349	0.0136726
698.427	0.0129894
698.505	0.0124084
698.583	0.0117611
698.661	0.0113715
698.739	0.0109920
698.818	0.0106921
698.896	0.0103236
698.974	0.0100348
699.052	0.00953346
699.130	0.00917175
699.208	0.00901215
699.286	0.00894363
699.364	0.00864792
699.443	0.00850166
699.521	0.00859398
699.599	0.00854279
699.677	0.00876686
699.755	0.00897537
699.833	0.00932205
699.911	0.00978394
699.989	0.0101664
700.068	0.0108351
700.146	0.0112813
700.224	0.0116950
700.302	0.0121664
700.380	0.0125894
700.458	0.0131543
700.536	0.0135995
700.614	0.0139441
700.693	0.0146784
700.771	0.0150427
700.849	0.0154349
700.927	0.0161276
701.005	0.0164614
701.083	0.0169881
701.161	0.0174448
701.239	0.0176181
701.318	0.0180733
701.396	0.0184547
701.474	0.0184896
701.552	0.0185970
701.630	0.0185325
701.708	0.0185725
701.786	0.0184357
701.864	0.0181879
701.943	0.0180303
702.021	0.0179488
702.099	0.0177343
702.177	0.0175213
702.255	0.0173643
702.333	0.0169788
702.411	0.0166003
702.489	0.0162660
702.568	0.0159135
702.646	0.0152075
702.724	0.0146600
702.802	0.0139465
702.880	0.0131605
702.958	0.0123612
703.036	0.0115436
703.114	0.0107446
703.193	0.0101651
703.271	0.00950928
703.349	0.00881752
703.427	0.00844208
703.505	0.00815338
703.583	0.00792542
703.661	0.00766861
703.739	0.00775551
703.818	0.00761925
703.896	0.00791298
703.974	0.00813583
704.052	0.00831444
704.130	0.00869095
704.208	0.00897881
704.286	0.00952690
704.364	0.0100010
704.443	0.0105231
704.521	0.0112239
704.599	0.0119013
704.677	0.0122655
704.755	0.0131308
704.833	0.0138726
704.911	0.0143555
704.989	0.0149300
705.068	0.0155062
705.146	0.0158826
705.224	0.0161145
705.302	0.0163165
705.380	0.0164546
705.458	0.0165714
705.536	0.0165340
705.614	0.0166173
705.693	0.0164796
705.771	0.0164760
705.849	0.0164027
705.927	0.0162697
706.005	0.0163644
706.083	0.0160873
706.161	0.0159351
706.239	0.0158458
706.318	0.0158054
706.396	0.0157864
706.474	0.0155608
706.552	0.0154423
706.630	0.0153941
706.708	0.0154138
706.786	0.0155856
706.864	0.0155518
706.943	0.0157127
707.021	0.0157719
707.099	0.0158358
707.177	0.0158427
707.255	0.0156026
707.333	0.0155413
707.411	0.0154831
707.489	0.0151662
707.568	0.0151031
707.646	0.0144740
707.724	0.0139892
707.802	0.0134695
707.880	0.0130189
707.958	0.0124213
708.036	0.0119083
708.114	0.0112074
708.193	0.0108670
708.271	0.0104704
708.349	0.00997177
708.427	0.00986237
708.505	0.00931778
708.583	0.00905884
708.661	0.00886391
708.739	0.00884392
708.818	0.00871033
708.896	0.00854492
708.974	0.00857826
709.052	0.00866646
709.130	0.00893990
709.208	0.00947479
709.286	0.00980064
709.364	0.0102920
709.443	0.0108576
709.521	0.0115705
709.599	0.0122127
709.677	0.0128181
709.755	0.0135100
709.833	0.0141212
709.911	0.0147687
709.989	0.0155003
710.068	0.0160035
710.146	0.0162188
710.224	0.0167339
710.302	0.0169383
710.380	0.0168315
710.458	0.0168958
710.536	0.0169987
710.614	0.0167439
710.693	0.0164912
710.771	0.0164140
710.849	0.0159763
710.927	0.0158320
711.005	0.0154214
711.083	0.0152547
711.161	0.0149654
711.239	0.0146916
711.318	0.0145614
711.396	0.0143072
711.474	0.0142274
711.552	0.0139869
711.630	0.0139097
711.708	0.0138839
711.786	0.0137166
711.864	0.0134692
711.943	0.0135028
712.021	0.0134584
712.099	0.0135805
712.177	0.0134773
712.255	0.0135954
712.333	0.0135792
712.411	0.0136235
712.489	0.0137306
712.568	0.0138690
712.646	0.0138290
712.724	0.0138300
712.802	0.0140550
712.880	0.0140269
712.958	0.0139526
713.036	0.0141424
713.114	0.0140256
713.193	0.0141583
713.271	0.0141579
713.349	0.0140520
713.427	0.0139432
713.505	0.0138143
713.583	0.0136655
713.661	0.0135339
713.739	0.0132493
713.818	0.0130499
713.896	0.0126403
713.974	0.0121841
714.052	0.0121050
714.130	0.0116862
714.208	0.0113806
714.286	0.0111280
714.364	0.0106698
714.443	0.0105985
714.521	0.0103883
714.599	0.0101414
714.677	0.0103142
714.755	0.0105445
714.833	0.0105206
714.911	0.0106823
714.989	0.0110027
715.068	0.0112955
715.146	0.0116710
715.224	0.0124113
715.302	0.0128023
715.380	0.0132145
715.458	0.0138853
715.536	0.0143172
715.614	0.0149995
715.693	0.0153716
715.771	0.0156257
715.849	0.0159915
715.927	0.0161083
716.005	0.0161608
716.083	0.0162144
716.161	0.0160713
716.239	0.0160457
716.318	0.0159020
716.396	0.0156882
716.474	0.0153870
716.552	0.0150866
716.630	0.0148824
716.708	0.0145966
716.786	0.0143799
716.864	0.0141405
716.943	0.0139754
717.021	0.0137343
717.099	0.0136197
717.177	0.0136210
717.255	0.0134920
717.333	0.0134274
717.411	0.0134704
717.489	0.0134221
717.568	0.0134641
717.646	0.0137048
717.724	0.0136630
717.802	0.0138374
717.880	0.0139908
717.958	0.0141311
718.036	0.0141196
718.114	0.0140987
718.193	0.0142486
718.271	0.0141628
718.349	0.0140172
718.427	0.0141000
718.505	0.0140264
718.583	0.0138519
718.661	0.0139987
718.739	0.0139349
718.818	0.0138486
718.896	0.0137785
718.974	0.0138167
719.052	0.0136963
719.130	0.0135792
719.208	0.0133493
719.286	0.0131754
719.364	0.0128336
719.443	0.0126353
719.521	0.0123872
719.599	0.0120779
719.677	0.0117464
719.755	0.0115823
719.833	0.0112920
719.911	0.0111702
719.989	0.0111694
720.068	0.0113019
720.146	0.0112408
720.224	0.0114410
720.302	0.0115964
720.380	0.0118564
720.458	0.0120767
720.536	0.0125102
720.614	0.0127855
720.693	0.0130817
720.771	0.0136219
720.849	0.0139001
720.927	0.0140769
721.005	0.0143826
721.083	0.0146202
721.161	0.0147340
721.239	0.0149934
721.318	0.0152744
721.396	0.0153749
721.474	0.0155816
721.552	0.0152831
721.630	0.0153162
721.708	0.0152502
721.786	0.0149700
721.864	0.0147183
721.943	0.0145584
722.021	0.0140408
722.099	0.0136777
722.177	0.0132169
722.255	0.0129961
722.333	0.0125462
722.411	0.0123174
722.489	0.0120657
722.568	0.0119130
722.646	0.0119165
722.724	0.0120423
722.802	0.0120947
722.880	0.0121702
722.958	0.0123698
723.036	0.0127724
723.114	0.0128979
723.193	0.0133103
723.271	0.0138298
723.349	0.0141016
723.427	0.0142319
723.505	0.0146542
723.583	0.0146928
723.661	0.0147287
723.739	0.0148225
723.818	0.0149094
723.896	0.0148348
723.974	0.0147874
724.052	0.0147742
724.130	0.0148421
724.208	0.0147030
724.286	0.0147230
724.364	0.0148289
724.443	0.0145885
724.521	0.0146263
724.599	0.0145961
724.677	0.0146493
724.755	0.0145655
724.833	0.0144791
724.911	0.0144430
724.989	0.0143720
725.068	0.0141660
725.146	0.0141310
725.224	0.0141474
725.302	0.0138871
725.380	0.0138489
725.458	0.0136704
725.536	0.0134692
725.614	0.0132841
725.693	0.0130646
725.771	0.0127576
725.849	0.0125521
725.927	0.0124335
726.005	0.0122871
726.083	0.0119748
726.161	0.0118008
726.239	0.0117056
726.318	0.0114601
726.396	0.0114656
726.474	0.0115810
726.552	0.0116195
726.630	0.0118686
726.708	0.0117496
726.786	0.0118317
726.864	0.0122359
726.943	0.0125434
727.021	0.0126601
727.099	0.0129333
727.177	0.0132934
727.255	0.0136108
727.333	0.0137168
727.411	0.0138770
727.489	0.0138847
727.568	0.0140212
727.646	0.0139282
727.724	0.0139252
727.802	0.0136218
727.880	0.0134611
727.958	0.0132451
728.036	0.0130241
728.114	0.0127031
728.193	0.0126027
728.271	0.0124792
728.349	0.0123889
728.427	0.0123473
728.505	0.0124953
728.583	0.0126620
728.661	0.0127419
728.739	0.0128201
728.818	0.0131516
728.896	0.0135426
728.974	0.0138877
729.052	0.0142345
729.130	0.0144342
729.208	0.0148613
729.286	0.0152321
729.364	0.0155647
729.443	0.0159493
729.521	0.0161900
729.599	0.0161749
729.677	0.0163228
729.755	0.0163953
729.833	0.0162929
729.911	0.0160564
729.989	0.0159854
730.068	0.0157539
730.146	0.0155609
730.224	0.0152367
730.302	0.0151056
730.380	0.0149709
730.458	0.0145862
730.536	0.0142491
730.614	0.0141827
730.693	0.0140868
730.771	0.0139119
730.849	0.0135012
730.927	0.0135365
731.005	0.0135690
731.083	0.0133462
731.161	0.0131490
731.239	0.0129925
731.318	0.0129131
731.396	0.0126071
731.474	0.0123897
731.552	0.0121172
731.630	0.0118525
731.708	0.0116469
731.786	0.0114053
731.864	0.0113722
731.943	0.0112701
732.021	0.0113521
732.099	0.0113357
732.177	0.0112579
732.255	0.0113272
732.333	0.0115472
732.411	0.0115907
732.489	0.0118624
732.568	0.0117986
732.646	0.0122095
732.724	0.0124398
732.802	0.0125433
732.880	0.0127758
732.958	0.0129578
733.036	0.0129410
733.114	0.0130811
733.193	0.0131684
733.271	0.0132558
733.349	0.0133067
733.427	0.0133414
733.505	0.0134238
733.583	0.0133595
733.661	0.0133006
733.739	0.0134821
733.818	0.0136065
733.896	0.0135155
733.974	0.0135332
734.052	0.0136045
734.130	0.0137215
734.208	0.0137939
734.286	0.0139322
734.364	0.0139454
734.443	0.0140824
734.521	0.0141812
734.599	0.0143625
734.677	0.0144592
734.755	0.0145934
734.833	0.0146914
734.911	0.0148627
734.989	0.0148551
735.068	0.0149794
735.146	0.0151085
735.224	0.0151374
735.302	0.0151270
735.380	0.0151993
735.458	0.0150426
735.536	0.0153303
735.614	0.0150591
735.693	0.0150686
735.771	0.0150877
735.849	0.0148721
735.927	0.0148931
736.005	0.0148029
736.083	0.0146572
736.161	0.0144498
736.239	0.0141439
736.318	0.0139428
736.396	0.0137658
736.474	0.0136596
736.552	0.0132478
736.630	0.0130728
736.708	0.0129547
736.786	0.0128435
736.864	0.0126083
736.943	0.0125695
737.021	0.0125476
737.099	0.0125687
737.177	0.0126102
737.255	0.0124666
737.333	0.0126163
737.411	0.0125371
737.489	0.0126997
737.568	0.0127537
737.646	0.0129587
737.724	0.0129221
737.802	0.0130684
737.880	0.0131598
737.958	0.0132483
738.036	0.0133189
738.114	0.0133656
738.193	0.0131873
738.271	0.0132431
738.349	0.0133187
738.427	0.0131776
738.505	0.0130492
738.583	0.0130279
738.661	0.0129793
738.739	0.0129652
738.818	0.0128411
738.896	0.0126929
738.974	0.0125613
739.052	0.0127628
739.130	0.0125662
739.208	0.0125958
739.286	0.0125404
739.364	0.0125549
739.443	0.0124993
739.521	0.0125034
739.599	0.0125981
739.677	0.0128554
739.755	0.0128223
739.833	0.0129891
739.911	0.0130549
739.989	0.0132594
740.068	0.0134136
740.146	0.0135050
740.224	0.0136262
740.302	0.0136787
740.380	0.0139265
740.458	0.0140464
740.536	0.0140442
740.614	0.0142592
740.693	0.0144358
740.771	0.0144994
740.849	0.0145247
740.927	0.0147885
741.005	0.0147955
741.083	0.0148743
741.161	0.0150362
741.239	0.0150330
741.318	0.0150363
741.396	0.0152586
741.474	0.0151968
741.552	0.0151976
741.630	0.0150312
741.708	0.0149554
741.786	0.0150035
741.864	0.0147539
741.943	0.0146441
742.021	0.0146039
742.099	0.0142403
742.177	0.0141544
742.255	0.0137951
742.333	0.0136787
742.411	0.0136517
742.489	0.0134153
742.568	0.0131828
742.646	0.0131765
742.724	0.0130440
742.802	0.0130196
742.880	0.0128836
742.958	0.0128618
743.036	0.0129055
743.114	0.0129317
743.193	0.0128233
743.271	0.0130724
743.349	0.0130550
743.427	0.0131060
743.505	0.0130971
743.583	0.0130056
743.661	0.0131402
743.739	0.0130693
743.818	0.0130319
743.896	0.0129227
743.974	0.0130194
744.052	0.0129547
744.130	0.0129184
744.208	0.0128333
744.286	0.0127200
744.364	0.0126170
744.443	0.0126191
744.521	0.0125715
744.599	0.0122982
744.677	0.0123523
744.755	0.0122610
744.833	0.0123582
744.911	0.0123866
744.989	0.0123125
745.068	0.0123664
745.146	0.0125797
745.224	0.0127048
745.302	0.0128716
745.380	0.0131210
745.458	0.0131088
745.536	0.0133860
745.614	0.0135738
745.693	0.0136915
745.771	0.0137271
745.849	0.0138391
745.927	0.0140335
746.005	0.0141476
746.083	0.0141923
746.161	0.0142667
746.239	0.0142805
746.318	0.0145008
746.396	0.0142976
746.474	0.0143678
746.552	0.0142744
746.630	0.0141042
746.708	0.0143181
746.786	0.0140349
746.864	0.0140072
746.943	0.0140957
747.021	0.0140109
747.099	0.0139970
747.177	0.0139882
747.255	0.0139117
747.333	0.0140773
747.411	0.0141041
747.489	0.0139658
747.568	0.0139549
747.646	0.0139965
747.724	0.0140723
747.802	0.0140781
747.880	0.0138557
747.958	0.0138807
748.036	0.0138147
748.114	0.0136472
748.193	0.0135985
748.271	0.0136283
748.349	0.0135873
748.427	0.0136687
748.505	0.0136195
748.583	0.0134795
748.661	0.0135426
748.739	0.0133833
748.818	0.0135539
748.896	0.0136613
748.974	0.0136895
749.052	0.0134839
749.130	0.0135680
749.208	0.0135445
749.286	0.0134837
749.364	0.0135694
749.443	0.0137195
749.521	0.0136328
749.599	0.0137081
749.677	0.0137268
749.755	0.0136371
749.833	0.0133603
749.911	0.0134616
749.989	0.0135103
750.068	0.0135520
750.146	0.0133852
750.224	0.0133140
750.302	0.0134720
750.380	0.0131911
750.458	0.0130585
750.536	0.0130846
750.614	0.0130116
750.693	0.0128458
750.771	0.0127879
750.849	0.0126411
750.927	0.0128539
751.005	0.0127589
751.083	0.0127636
751.161	0.0129138
751.239	0.0129958
751.318	0.0130962
751.396	0.0131633
751.474	0.0133952
751.552	0.0133684
751.630	0.0134347
751.708	0.0137126
751.786	0.0137082
751.864	0.0135217
751.943	0.0138605
752.021	0.0138691
752.099	0.0139545
752.177	0.0138727
752.255	0.0139406
752.333	0.0138633
752.411	0.0138535
752.489	0.0138615
752.568	0.0138713
752.646	0.0135850
752.724	0.0136372
752.802	0.0137601
752.880	0.0136207
752.958	0.0137615
753.036	0.0135712
753.114	0.0135585
753.193	0.0135415
753.271	0.0135674
753.349	0.0135891
753.427	0.0134659
753.505	0.0136895
753.583	0.0136041
753.661	0.0135697
753.739	0.0134738
753.818	0.0135777
753.896	0.0135104
753.974	0.0134148
754.052	0.0135730
754.130	0.0133858
754.208	0.0135696
754.286	0.0136749
754.364	0.0134510
754.443	0.0135697
754.521	0.0135983
754.599	0.0136441
754.677	0.0138246
754.755	0.0138519
754.833	0.0138363
754.911	0.0138074
754.989	0.0139945
755.068	0.0140392
755.146	0.0140965
755.224	0.0140505
755.302	0.0140586
755.380	0.0140496
755.458	0.0141843
755.536	0.0142973
755.614	0.0140984
755.693	0.0140626
755.771	0.0140984
755.849	0.0138647
755.927	0.0138277
756.005	0.0138631
756.083	0.0136024
756.161	0.0135152
756.239	0.0135097
756.318	0.0133569
756.396	0.0133116
756.474	0.0131361
756.552	0.0130524
756.630	0.0130472
756.708	0.0129094
756.786	0.0129306
756.864	0.0128751
756.943	0.0127799
757.021	0.0129001
757.099	0.0129268
757.177	0.0130121
757.255	0.0128616
757.333	0.0128600
757.411	0.0129752
757.489	0.0130782
757.568	0.0129279
757.646	0.0131792
757.724	0.0133197
757.802	0.0133730
757.880	0.0134301
757.958	0.0136288
758.036	0.0136311
758.114	0.0138282
758.193	0.0136114
758.271	0.0139003
758.349	0.0139349
758.427	0.0139980
758.505	0.0138856
758.583	0.0138139
758.661	0.0138869
758.739	0.0139271
758.818	0.0137973
758.896	0.0137598
758.974	0.0135374
759.052	0.0137405
759.130	0.0135332
759.208	0.0135567
759.286	0.0135069
759.364	0.0135368
759.443	0.0133568
759.521	0.0133537
759.599	0.0132853
759.677	0.0133209
759.755	0.0133658
759.833	0.0133069
759.911	0.0132053
759.989	0.0131314
760.068	0.0133387
760.146	0.0133521
760.224	0.0133325
760.302	0.0134104
760.380	0.0133602
760.458	0.0133764
760.536	0.0134018
760.614	0.0134499
760.693	0.0135575
760.771	0.0135431
760.849	0.0136216
760.927	0.0135893
761.005	0.0136498
761.083	0.0135916
761.161	0.0136686
761.239	0.0137329
761.318	0.0138113
761.396	0.0137812
761.474	0.0138422
761.552	0.0139136
761.630	0.0139565
761.708	0.0138844
761.786	0.0139938
761.864	0.0139365
761.943	0.0139471
762.021	0.0139540
762.099	0.0140492
762.177	0.0140112
762.255	0.0140688
762.333	0.0138893
762.411	0.0140975
762.489	0.0139570
762.568	0.0138533
762.646	0.0137077
762.724	0.0138934
762.802	0.0136703
762.880	0.0136101
762.958	0.0136041
763.036	0.0135026
763.114	0.0133174
763.193	0.0131503
763.271	0.0130714
763.349	0.0130470
763.427	0.0130858
763.505	0.0128400
763.583	0.0127072
763.661	0.0128893
763.739	0.0128466
763.818	0.0128474
763.896	0.0127805
763.974	0.0128613
764.052	0.0129004
764.130	0.0130447
764.208	0.0129849
764.286	0.0131787
764.364	0.0132290
764.443	0.0132671
764.521	0.0133613
764.599	0.0135346
764.677	0.0135835
764.755	0.0135744
764.833	0.0137250
764.911	0.0136606
764.989	0.0137221
765.068	0.0138343
765.146	0.0136295
765.224	0.0137521
765.302	0.0137339
765.380	0.0136691
765.458	0.0136169
765.536	0.0134749
765.614	0.0136078
765.693	0.0135580
765.771	0.0134753
765.849	0.0134370
765.927	0.0133614
766.005	0.0134361
766.083	0.0134151
766.161	0.0134164
766.239	0.0134173
766.318	0.0136082
766.396	0.0135318
766.474	0.0134526
766.552	0.0134532
766.630	0.0134381
766.708	0.0135266
766.786	0.0135870
766.864	0.0134261
766.943	0.0136172
767.021	0.0135733
767.099	0.0136913
767.177	0.0135860
767.255	0.0135353
767.333	0.0135429
767.411	0.0136548
767.489	0.0136039
767.568	0.0134499
767.646	0.0134906
767.724	0.0134974
767.802	0.0136247
767.880	0.0135483
767.958	0.0134534
768.036	0.0135335
768.114	0.0135400
768.193	0.0134740
768.271	0.0135597
768.349	0.0136137
768.427	0.0134842
768.505	0.0135485
768.583	0.0135541
768.661	0.0137267
768.739	0.0137297
768.818	0.0136051
768.896	0.0137626
768.974	0.0136433
769.052	0.0136268
769.130	0.0139425
769.208	0.0137640
769.286	0.0136167
769.364	0.0137089
769.443	0.0135493
769.521	0.0135836
769.599	0.0136822
769.677	0.0135293
769.755	0.0135226
769.833	0.0134921
769.911	0.0133456
769.989	0.0133465
770.068	0.0136409
770.146	0.0132695
770.224	0.0131295
770.302	0.0132943
770.380	0.0133855
770.458	0.0133195
770.536	0.0132942
770.614	0.0132788
770.693	0.0133949
770.771	0.0133657
770.849	0.0134164
770.927	0.0134418
771.005	0.0134155
771.083	0.0133251
771.161	0.0133997
771.239	0.0133180
771.318	0.0133300
771.396	0.0132446
771.474	0.0131695
771.552	0.0131901
771.630	0.0132954
771.708	0.0132546
771.786	0.0133524
771.864	0.0133199
771.943	0.0132825
772.021	0.0132888
772.099	0.0132775
772.177	0.0132303
772.255	0.0133192
772.333	0.0134118
772.411	0.0133743
772.489	0.0136127
772.568	0.0135926
772.646	0.0136961
772.724	0.0135604
772.802	0.0136773
772.880	0.0136383
772.958	0.0136195
773.036	0.0134521
773.114	0.0135732
773.193	0.0135950
773.271	0.0135088
773.349	0.0136648
773.427	0.0135339
773.505	0.0133866
773.583	0.0133508
773.661	0.0134644
773.739	0.0134074
773.818	0.0136347
773.896	0.0136077
773.974	0.0134017
774.052	0.0134174
774.130	0.0134525
774.208	0.0134901
774.286	0.0134477
774.364	0.0135477
774.443	0.0134278
774.521	0.0136227
774.599	0.0135551
774.677	0.0135946
774.755	0.0137122
774.833	0.0136217
774.911	0.0136916
774.989	0.0137727
775.068	0.0138022
775.146	0.0138532
775.224	0.0138673
775.302	0.0138462
775.380	0.0140095
775.458	0.0139400
775.536	0.0138531
775.614	0.0137856
775.693	0.0137163
775.771	0.0139529
775.849	0.0137301
775.927	0.0136724
776.005	0.0134819
776.083	0.0136919
776.161	0.0136602
776.239	0.0134922
776.318	0.0134171
776.396	0.0134802
776.474	0.0134289
776.552	0.0134000
776.630	0.0135530
776.708	0.0133839
776.786	0.0134230
776.864	0.0133621
776.943	0.0135661
777.021	0.0133318
777.099	0.0132732
777.177	0.0133684
777.255	0.0132898
777.333	0.0133324
777.411	0.0132919
777.489	0.0132288
777.568	0.0131802
777.646	0.0131397
777.724	0.0130354
777.802	0.0130417
777.880	0.0132177
777.958	0.0130206
778.036	0.0129992
778.114	0.0131557
778.193	0.0131660
778.271	0.0131377
778.349	0.0132602
778.427	0.0134000
778.505	0.0135352
778.583	0.0137374
778.661	0.0138224
778.739	0.0138821
778.818	0.0140804
778.896	0.0140224
778.974	0.0139703
779.052	0.0143213
779.130	0.0142462
779.208	0.0142078
779.286	0.0141706
779.364	0.0142513
779.443	0.0140272
779.521	0.0140205
779.599	0.0139002
779.677	0.0135823
779.755	0.0137162
779.833	0.0135339
779.911	0.0134146
779.989	0.0132905
780.068	0.0132995
780.146	0.0133183
780.224	0.0132135
780.302	0.0130757
780.380	0.0129250
780.458	0.0130547
780.536	0.0130906
780.614	0.0132051
780.693	0.0132625
780.771	0.0131443
780.849	0.0134418
780.927	0.0135365
781.005	0.0135183
781.083	0.0137130
781.161	0.0137569
781.239	0.0136980
781.318	0.0139756
781.396	0.0139745
781.474	0.0139839
781.552	0.0139704
781.630	0.0138972
781.708	0.0137712
781.786	0.0140177
781.864	0.0137002
781.943	0.0136261
782.021	0.0136588
782.099	0.0135913
782.177	0.0135170
782.255	0.0135046
782.333	0.0133948
782.411	0.0134615
782.489	0.0134779
782.568	0.0134812
782.646	0.0133865
782.724	0.0133981
782.802	0.0135473
782.880	0.0134328
782.958	0.0132469
783.036	0.0134002
783.114	0.0133414
783.193	0.0132864
783.271	0.0134129
783.349	0.0135174
783.427	0.0134356
783.505	0.0135596
783.583	0.0135911
783.661	0.0133842
783.739	0.0134815
783.818	0.0136306
783.896	0.0135964
783.974	0.0134778
784.052	0.0134611
784.130	0.0134602
784.208	0.0135471
784.286	0.0134550
784.364	0.0134012
784.443	0.0133956
784.521	0.0133780
784.599	0.0133418
784.677	0.0132385
784.755	0.0131364
784.833	0.0132150
784.911	0.0132274
784.989	0.0133532
785.068	0.0133076
785.146	0.0132206
785.224	0.0131762
785.302	0.0133732
785.380	0.0135883
785.458	0.0134421
785.536	0.0135699
785.614	0.0135030
785.693	0.0136461
785.771	0.0137457
785.849	0.0137918
785.927	0.0138868
786.005	0.0139348
786.083	0.0139828
786.161	0.0141290
786.239	0.0139135
786.318	0.0138904
786.396	0.0138821
786.474	0.0137974
786.552	0.0139088
786.630	0.0136642
786.708	0.0135492
786.786	0.0135224
786.864	0.0134431
786.943	0.0133108
787.021	0.0132460
787.099	0.0131963
787.177	0.0130104
787.255	0.0130320
787.333	0.0130836
787.411	0.0128127
787.489	0.0130611
787.568	0.0129969
787.646	0.0129819
787.724	0.0130239
787.802	0.0129272
787.880	0.0130598
787.958	0.0129643
788.036	0.0131052
788.114	0.0131456
788.193	0.0132081
788.271	0.0133078
788.349	0.0132263
788.427	0.0133089
788.505	0.0133083
788.583	0.0133136
788.661	0.0133073
788.739	0.0136111
788.818	0.0136361
788.896	0.0135463
788.974	0.0137066
789.052	0.0136532
789.130	0.0137282
789.208	0.0137715
789.286	0.0138757
789.364	0.0137764
789.443	0.0140378
789.521	0.0139391
789.599	0.0138835
789.677	0.0137745
789.755	0.0139664
789.833	0.0139567
789.911	0.0137861
789.989	0.0138595
790.068	0.0137641
790.146	0.0136367
790.224	0.0138441
790.302	0.0136829
790.380	0.0137555
790.458	0.0135860
790.536	0.0135938
790.614	0.0134470
790.693	0.0134121
790.771	0.0134606
790.849	0.0134212
790.927	0.0131699
791.005	0.0132789
791.083	0.0131696
791.161	0.0131021
791.239	0.0130824
791.318	0.0131348
791.396	0.0130020
791.474	0.0128898
791.552	0.0128761
791.630	0.0128541
791.708	0.0129362
791.786	0.0130335
791.864	0.0129531
791.943	0.0129042
792.021	0.0129443
792.099	0.0130202
792.177	0.0130861
792.255	0.0132120
792.333	0.0131783
792.411	0.0134221
792.489	0.0133842
792.568	0.0134567
792.646	0.0134241
792.724	0.0135654
792.802	0.0136880
792.880	0.0136011
792.958	0.0138192
793.036	0.0138718
793.114	0.0136515
793.193	0.0138455
793.271	0.0139035
793.349	0.0137141
793.427	0.0137679
793.505	0.0136762
793.583	0.0136783
793.661	0.0135047
793.739	0.0137069
793.818	0.0135278
793.896	0.0135574
793.974	0.0134737
794.052	0.0136256
794.130	0.0136531
794.208	0.0135227
794.286	0.0136093
794.364	0.0135888
794.443	0.0135021
794.521	0.0137470
794.599	0.0137115
794.677	0.0138680
794.755	0.0136146
794.833	0.0136507
794.911	0.0136394
794.989	0.0137197
795.068	0.0136290
795.146	0.0136854
795.224	0.0137174
795.302	0.0135085
795.380	0.0135693
795.458	0.0134409
795.536	0.0133488
795.614	0.0134179
795.693	0.0133234
795.771	0.0131668
795.849	0.0131935
795.927	0.0131667
796.005	0.0131621
796.083	0.0129690
796.161	0.0130800
796.239	0.0130067
796.318	0.0129558
796.396	0.0131512
796.474	0.0131413
796.552	0.0131480
796.630	0.0131924
796.708	0.0131344
796.786	0.0130783
796.864	0.0131750
796.943	0.0132439
797.021	0.0133727
797.099	0.0133680
797.177	0.0132851
797.255	0.0133968
797.333	0.0135395
797.411	0.0135380
797.489	0.0137037
797.568	0.0137555
797.646	0.0136209
797.724	0.0137461
797.802	0.0139194
797.880	0.0139721
797.958	0.0138791
798.036	0.0140034
798.114	0.0140734
798.193	0.0141055
798.271	0.0140542
798.349	0.0140724
798.427	0.0140380
798.505	0.0141355
798.583	0.0141367
798.661	0.0141298
798.739	0.0141120
798.818	0.0140594
798.896	0.0139648
798.974	0.0140334
799.052	0.0139823
799.130	0.0138437
799.208	0.0139365
799.286	0.0136974
799.364	0.0136934
799.443	0.0137872
799.521	0.0136120
799.599	0.0135001
799.677	0.0136267
799.755	0.0135162
799.833	0.0134468
799.911	0.0132397
799.989	0.0132412
800.068	0.0131211
800.146	0.0131004
800.224	0.0131166
800.302	0.0128668
800.380	0.0128340
800.458	0.0127016
800.536	0.0126621
800.614	0.0126997
800.693	0.0127087
800.771	0.0125470
800.849	0.0124152
800.927	0.0125271
801.005	0.0125703
801.083	0.0126639
801.161	0.0127153
801.239	0.0125980
801.318	0.0126658
801.396	0.0128520
801.474	0.0130034
801.552	0.0130798
801.630	0.0132565
801.708	0.0132654
801.786	0.0134370
801.864	0.0136134
801.943	0.0136800
802.021	0.0138522
802.099	0.0140039
802.177	0.0139218
802.255	0.0141834
802.333	0.0142220
802.411	0.0142896
802.489	0.0143970
802.568	0.0143598
802.646	0.0142295
802.724	0.0144015
802.802	0.0143464
802.880	0.0144741
802.958	0.0143406
803.036	0.0144373
803.114	0.0142599
803.193	0.0144875
803.271	0.0144209
803.349	0.0142197
803.427	0.0141691
803.505	0.0139739
803.583	0.0141354
803.661	0.0140792
803.739	0.0138741
803.818	0.0139275
803.896	0.0137323
803.974	0.0136629
804.052	0.0136266
804.130	0.0135786
804.208	0.0134912
804.286	0.0134245
804.364	0.0132997
804.443	0.0132508
804.521	0.0131605
804.599	0.0131144
804.677	0.0131434
804.755	0.0130433
804.833	0.0128780
804.911	0.0127910
804.989	0.0128291
805.068	0.0129457
805.146	0.0127262
805.224	0.0128534
805.302	0.0127135
805.380	0.0127614
805.458	0.0129008
805.536	0.0127417
805.614	0.0128317
805.693	0.0128104
805.771	0.0129282
805.849	0.0129845
805.927	0.0130589
806.005	0.0130573
806.083	0.0131186
806.161	0.0132898
806.239	0.0132508
806.318	0.0134425
806.396	0.0134280
806.474	0.0136431
806.552	0.0137775
806.630	0.0138541
806.708	0.0139095
806.786	0.0139563
806.864	0.0140549
806.943	0.0140083
807.021	0.0140278
807.099	0.0140281
807.177	0.0140566
807.255	0.0139967
807.333	0.0140284
807.411	0.0138648
807.489	0.0137756
807.568	0.0138689
807.646	0.0138544
807.724	0.0136122
807.802	0.0135929
807.880	0.0133964
807.958	0.0134073
808.036	0.0134736
808.114	0.0133283
808.193	0.0133877
808.271	0.0133231
808.349	0.0133322
808.427	0.0135805
808.505	0.0134821
808.583	0.0134196
808.661	0.0134640
808.739	0.0135009
808.818	0.0135476
808.896	0.0135078
808.974	0.0136690
809.052	0.0137083
809.130	0.0138481
809.208	0.0136977
809.286	0.0137561
809.364	0.0137558
809.443	0.0137023
809.521	0.0138402
809.599	0.0137101
809.677	0.0135368
809.755	0.0136479
809.833	0.0135925
809.911	0.0135939
809.989	0.0136366
810.068	0.0134481
810.146	0.0134657
810.224	0.0134617
810.302	0.0134620
810.380	0.0134061
810.458	0.0134242
810.536	0.0132841
810.614	0.0133311
810.693	0.0131619
810.771	0.0132944
810.849	0.0133524
810.927	0.0133512
811.005	0.0133586
811.083	0.0132472
811.161	0.0131683
811.239	0.0131949
811.318	0.0132530
811.396	0.0132529
811.474	0.0132677
811.552	0.0132906
811.630	0.0132203
811.708	0.0133346
811.786	0.0132307
811.864	0.0134227
811.943	0.0133668
812.021	0.0134483
812.099	0.0133688
812.177	0.0136397
812.255	0.0133848
812.333	0.0136093
812.411	0.0135445
812.489	0.0135306
812.568	0.0136412
812.646	0.0134902
812.724	0.0134544
812.802	0.0135299
812.880	0.0135909
812.958	0.0135268
813.036	0.0134893
813.114	0.0137195
813.193	0.0137128
813.271	0.0135479
813.349	0.0136110
813.427	0.0136477
813.505	0.0136706
813.583	0.0137044
813.661	0.0137373
813.739	0.0137258
813.818	0.0136642
813.896	0.0137558
813.974	0.0137618
814.052	0.0136855
814.130	0.0137775
814.208	0.0137809
814.286	0.0138777
814.364	0.0138557
814.443	0.0137424
814.521	0.0138223
814.599	0.0138140
814.677	0.0139164
814.755	0.0139272
814.833	0.0137639
814.911	0.0137994
814.989	0.0137691
815.068	0.0136844
815.146	0.0138528
815.224	0.0136752
815.302	0.0135303
815.380	0.0137347
815.458	0.0137167
815.536	0.0136140
815.614	0.0133003
815.693	0.0133601
815.771	0.0134267
815.849	0.0133592
815.927	0.0133138
816.005	0.0133558
816.083	0.0132234
816.161	0.0130601
816.239	0.0129733
816.318	0.0131268
816.396	0.0131487
816.474	0.0130463
816.552	0.0129886
816.630	0.0131236
816.708	0.0130820
816.786	0.0129745
816.864	0.0129260
816.943	0.0131788
817.021	0.0131394
817.099	0.0132040
817.177	0.0131535
817.255	0.0133287
817.333	0.0133207
817.411	0.0134906
817.489	0.0136023
817.568	0.0136974
817.646	0.0136253
817.724	0.0136765
817.802	0.0139194
817.880	0.0138551
817.958	0.0140700
818.036	0.0140402
818.114	0.0139426
818.193	0.0140554
818.271	0.0139500
818.349	0.0139632
818.427	0.0140405
818.505	0.0139174
818.583	0.0138601
818.661	0.0139336
818.739	0.0138401
818.818	0.0138311
818.896	0.0138865
818.974	0.0137981
819.052	0.0136819
819.130	0.0136916
819.208	0.0136331
819.286	0.0135451
819.364	0.0136355
819.443	0.0134476
819.521	0.0135136
819.599	0.0134821
819.677	0.0135328
819.755	0.0134931
819.833	0.0135455
819.911	0.0134213
819.989	0.0136256
820.068	0.0136053
820.146	0.0136877
820.224	0.0136480
820.302	0.0136983
820.380	0.0138035
820.458	0.0138520
820.536	0.0136683
820.614	0.0138014
820.693	0.0140202
820.771	0.0138559
820.849	0.0138618
820.927	0.0138641
821.005	0.0138541
821.083	0.0137319
821.161	0.0136641
821.239	0.0135751
821.318	0.0135230
821.396	0.0135403
821.474	0.0133926
821.552	0.0134010
821.630	0.0134520
821.708	0.0131203
821.786	0.0131992
821.864	0.0131932
821.943	0.0130801
822.021	0.0130399
822.099	0.0130100
822.177	0.0130500
822.255	0.0130730
822.333	0.0129527
822.411	0.0130878
822.489	0.0130521
822.568	0.0130707
822.646	0.0133406
822.724	0.0134035
822.802	0.0132461
822.880	0.0135178
822.958	0.0135241
823.036	0.0135862
823.114	0.0136051
823.193	0.0136726
823.271	0.0137218
823.349	0.0137035
823.427	0.0136716
823.505	0.0138100
823.583	0.0136893
823.661	0.0137281
823.739	0.0137926
823.818	0.0138563
823.896	0.0136799
823.974	0.0137772
824.052	0.0138596
824.130	0.0138741
824.208	0.0138025
824.286	0.0138071
824.364	0.0138036
824.443	0.0136975
824.521	0.0135845
824.599	0.0139013
824.677	0.0138131
824.755	0.0138591
824.833	0.0135775
824.911	0.0137182
824.989	0.0136394
825.068	0.0134831
825.146	0.0134339
825.224	0.0136332
825.302	0.0135012
825.380	0.0135030
825.458	0.0133905
825.536	0.0135664
825.614	0.0134602
825.693	0.0135355
825.771	0.0134203
825.849	0.0132597
825.927	0.0133189
826.005	0.0133945
826.083	0.0133969
826.161	0.0133813
826.239	0.0134683
826.318	0.0133978
826.396	0.0135127
826.474	0.0133685
826.552	0.0134840
826.630	0.0136761
826.708	0.0136474
826.786	0.0136349
826.864	0.0134385
826.943	0.0135290
827.021	0.0136613
827.099	0.0137251
827.177	0.0136266
827.255	0.0137315
827.333	0.0137431
827.411	0.0136434
827.489	0.0135267
827.568	0.0135841
827.646	0.0136932
827.724	0.0136946
827.802	0.0137177
827.880	0.0136311
827.958	0.0136373
828.036	0.0134703
828.114	0.0134791
828.193	0.0134619
828.271	0.0134399
828.349	0.0133391
828.427	0.0133849
828.505	0.0133943
828.583	0.0133146
828.661	0.0133041
828.739	0.0132926
828.818	0.0132922
828.896	0.0132059
828.974	0.0132858
829.052	0.0132370
829.130	0.0131958
829.208	0.0133260
829.286	0.0132867
829.364	0.0131184
829.443	0.0131274
829.521	0.0132980
829.599	0.0133460
829.677	0.0133000
829.755	0.0132447
829.833	0.0134850
829.911	0.0133475
829.989	0.0132753
830.068	0.0133513
830.146	0.0134770
830.224	0.0135296
830.302	0.0134833
830.380	0.0136340
830.458	0.0137109
830.536	0.0136018
830.614	0.0137270
830.693	0.0137047
830.771	0.0138283
830.849	0.0136655
830.927	0.0137850
831.005	0.0138673
831.083	0.0139869
831.161	0.0139558
831.239	0.0139349
831.318	0.0137280
831.396	0.0138670
831.474	0.0137879
831.552	0.0137576
831.630	0.0137394
831.708	0.0137585
831.786	0.0137585
831.864	0.0135329
831.943	0.0135617
832.021	0.0136103
832.099	0.0134158
832.177	0.0134605
832.255	0.0136526
832.333	0.0134051
832.411	0.0135376
832.489	0.0134386
832.568	0.0133392
832.646	0.0135093
832.724	0.0132130
832.802	0.0132448
832.880	0.0134395
832.958	0.0134250
833.036	0.0134274
833.114	0.0133716
833.193	0.0134928
833.271	0.0133295
833.349	0.0133757
833.427	0.0133628
833.505	0.0133828
833.583	0.0135824
833.661	0.0134820
833.739	0.0136623
833.818	0.0137218
833.896	0.0136732
833.974	0.0136562
834.052	0.0136106
834.130	0.0136882
834.208	0.0137149
834.286	0.0136431
834.364	0.0136243
834.443	0.0137624
834.521	0.0136744
834.599	0.0136293
834.677	0.0137752
834.755	0.0137077
834.833	0.0135580
834.911	0.0135930
834.989	0.0135666
835.068	0.0133754
835.146	0.0133741
835.224	0.0135069
835.302	0.0134792
835.380	0.0133089
835.458	0.0132784
835.536	0.0132575
835.614	0.0131609
835.693	0.0132802
835.771	0.0131637
835.849	0.0130733
835.927	0.0130636
836.005	0.0129382
836.083	0.0131345
836.161	0.0130906
836.239	0.0131890
836.318	0.0132513
836.396	0.0130894
836.474	0.0133850
836.552	0.0133768
836.630	0.0133894
836.708	0.0133806
836.786	0.0134729
836.864	0.0134476
836.943	0.0135838
837.021	0.0137065
837.099	0.0136690
837.177	0.0137563
837.255	0.0138357
837.333	0.0137979
837.411	0.0137048
837.489	0.0137908
837.568	0.0137698
837.646	0.0137988
837.724	0.0137907
837.802	0.0137426
837.880	0.0138650
837.958	0.0136776
838.036	0.0137832
838.114	0.0138493
838.193	0.0137607
838.271	0.0138181
838.349	0.0137473
838.427	0.0137644
838.505	0.0136782
838.583	0.0137282
838.661	0.0137248
838.739	0.0136419
838.818	0.0136320
838.896	0.0136630
838.974	0.0136384
839.052	0.0136369
839.130	0.0136249
839.208	0.0136142
839.286	0.0135438
839.364	0.0136613
839.443	0.0135757
839.521	0.0134863
839.599	0.0134728
839.677	0.0136308
839.755	0.0135850
839.833	0.0135043
839.911	0.0136399
839.989	0.0135567
840.068	0.0135355
840.146	0.0135291
840.224	0.0134732
840.302	0.0135271
840.380	0.0135966
840.458	0.0135680
840.536	0.0136328
840.614	0.0137254
840.693	0.0135287
840.771	0.0136259
840.849	0.0135190
840.927	0.0134592
841.005	0.0135026
841.083	0.0134683
841.161	0.0135041
841.239	0.0133565
841.318	0.0132539
841.396	0.0133975
841.474	0.0133788
841.552	0.0134222
841.630	0.0133385
841.708	0.0133363
841.786	0.0133009
841.864	0.0133426
841.943	0.0133370
842.021	0.0133122
842.099	0.0134249
842.177	0.0134635
842.255	0.0136314
842.333	0.0134557
842.411	0.0135241
842.489	0.0134876
842.568	0.0135991
842.646	0.0135873
842.724	0.0134953
842.802	0.0135464
842.880	0.0135783
842.958	0.0135046
843.036	0.0136892
843.114	0.0136987
843.193	0.0136115
843.271	0.0135046
843.349	0.0136545
843.427	0.0134994
843.505	0.0135531
843.583	0.0135416
843.661	0.0135974
843.739	0.0135291
843.818	0.0135511
843.896	0.0136417
843.974	0.0135653
844.052	0.0135582
844.130	0.0135452
844.208	0.0136221
844.286	0.0135681
844.364	0.0135947
844.443	0.0133757
844.521	0.0136176
844.599	0.0136559
844.677	0.0134773
844.755	0.0136584
844.833	0.0136184
844.911	0.0135454
844.989	0.0135930
845.068	0.0137331
845.146	0.0134784
845.224	0.0136234
845.302	0.0137267
845.380	0.0136849
845.458	0.0136101
845.536	0.0138218
845.614	0.0136020
845.693	0.0137843
845.771	0.0135559
845.849	0.0134673
845.927	0.0137611
846.005	0.0136388
846.083	0.0136554
846.161	0.0136703
846.239	0.0134769
846.318	0.0135952
846.396	0.0136019
846.474	0.0134729
846.552	0.0134261
846.630	0.0133411
846.708	0.0133696
846.786	0.0133887
846.864	0.0132525
846.943	0.0131719
847.021	0.0132940
847.099	0.0132555
847.177	0.0132107
847.255	0.0131967
847.333	0.0133055
847.411	0.0132524
847.489	0.0132420
847.568	0.0132740
847.646	0.0133358
847.724	0.0133870
847.802	0.0132693
847.880	0.0133455
847.958	0.0134815
848.036	0.0133865
848.114	0.0137043
848.193	0.0135612
848.271	0.0134789
848.349	0.0136815
848.427	0.0135865
848.505	0.0136636
848.583	0.0136287
848.661	0.0135960
848.739	0.0135967
848.818	0.0138024
848.896	0.0137653
848.974	0.0136887
849.052	0.0136636
849.130	0.0137241
849.208	0.0136008
849.286	0.0136819
849.364	0.0137167
849.443	0.0136583
849.521	0.0135909
849.599	0.0137390
849.677	0.0137468
849.755	0.0135907
849.833	0.0135184
849.911	0.0134534
849.989	0.0135549
850.068	0.0134409
850.146	0.0134502
850.224	0.0136484
850.302	0.0133842
850.380	0.0134499
850.458	0.0133891
850.536	0.0133794
850.614	0.0134126
850.693	0.0133414
850.771	0.0133585
850.849	0.0133803
850.927	0.0133656
851.005	0.0133740
851.083	0.0136166
851.161	0.0133555
851.239	0.0134656
851.318	0.0135671
851.396	0.0135783
851.474	0.0134319
851.552	0.0134374
851.630	0.0135008
851.708	0.0135773
851.786	0.0135281
851.864	0.0134797
851.943	0.0136575
852.021	0.0136519
852.099	0.0135866
852.177	0.0135928
852.255	0.0136357
852.333	0.0134088
852.411	0.0135966
852.489	0.0134232
852.568	0.0134325
852.646	0.0135167
852.724	0.0134301
852.802	0.0133887
852.880	0.0132768
852.958	0.0133328
853.036	0.0132922
853.114	0.0133540
853.193	0.0133720
853.271	0.0132526
853.349	0.0134937
853.427	0.0135200
853.505	0.0134871
853.583	0.0133452
853.661	0.0133350
853.739	0.0133667
853.818	0.0132766
853.896	0.0134832
853.974	0.0133543
854.052	0.0135091
854.130	0.0134393
854.208	0.0133792
854.286	0.0136341
854.364	0.0133950
854.443	0.0133821
854.521	0.0134987
854.599	0.0135668
854.677	0.0136097
854.755	0.0134602
854.833	0.0135133
854.911	0.0136135
854.989	0.0133813
855.068	0.0134849
855.146	0.0135168
855.224	0.0135048
855.302	0.0133858
855.380	0.0135294
855.458	0.0135658
855.536	0.0135574
855.614	0.0133722
855.693	0.0135438
855.771	0.0135517
855.849	0.0135015
855.927	0.0136368
856.005	0.0135204
856.083	0.0135228
856.161	0.0133832
856.239	0.0134877
856.318	0.0134048
856.396	0.0135479
856.474	0.0135763
856.552	0.0133636
856.630	0.0133921
856.708	0.0135752
856.786	0.0135597
856.864	0.0134765
856.943	0.0135643
857.021	0.0136231
857.099	0.0135106
857.177	0.0135609
857.255	0.0136694
857.333	0.0136706
857.411	0.0136530
857.489	0.0136227
857.568	0.0136546
857.646	0.0136040
857.724	0.0135826
857.802	0.0135405
857.880	0.0137474
857.958	0.0137791
858.036	0.0136382
858.114	0.0135492
858.193	0.0135659
858.271	0.0135310
858.349	0.0135883
858.427	0.0134482
858.505	0.0135198
858.583	0.0135989
858.661	0.0134155
858.739	0.0134321
858.818	0.0134231
858.896	0.0134651
858.974	0.0134843
859.052	0.0134039
859.130	0.0135452
859.208	0.0134601
859.286	0.0133121
859.364	0.0133957
859.443	0.0135345
859.521	0.0134283
859.599	0.0133306
859.677	0.0133305
859.755	0.0134090
859.833	0.0134882
859.911	0.0134521
859.989	0.0135225
860.068	0.0135733
860.146	0.0135706
860.224	0.0135376
860.302	0.0136717
860.380	0.0135770
860.458	0.0136571
860.536	0.0136774
860.614	0.0137147
860.693	0.0137038
860.771	0.0138078
860.849	0.0134929
860.927	0.0136590
861.005	0.0138190
861.083	0.0136927
861.161	0.0136849
861.239	0.0137221
861.318	0.0136005
861.396	0.0134718
861.474	0.0134668
861.552	0.0135043
861.630	0.0135755
861.708	0.0134994
861.786	0.0136921
861.864	0.0136295
861.943	0.0135707
862.021	0.0135719
862.099	0.0135494
862.177	0.0135782
862.255	0.0135532
862.333	0.0136076
862.411	0.0136868
862.489	0.0136021
862.568	0.0136153
862.646	0.0135977
862.724	0.0136385
862.802	0.0135518
862.880	0.0136174
862.958	0.0135789
863.036	0.0135086
863.114	0.0136848
863.193	0.0136235
863.271	0.0135127
863.349	0.0134742
863.427	0.0136261
863.505	0.0136587
863.583	0.0134839
863.661	0.0135999
863.739	0.0135345
863.818	0.0135176
863.896	0.0136135
863.974	0.0134804
864.052	0.0136316
864.130	0.0134733
864.208	0.0134805
864.286	0.0135661
864.364	0.0136562
864.443	0.0136049
864.521	0.0135892
864.599	0.0135657
864.677	0.0136430
864.755	0.0134989
864.833	0.0135528
864.911	0.0135814
864.989	0.0135349
865.068	0.0135947
865.146	0.0134187
865.224	0.0134553
865.302	0.0133994
865.380	0.0134213
865.458	0.0133319
865.536	0.0134116
865.614	0.0133899
865.693	0.0132911
865.771	0.0133178
865.849	0.0133397
865.927	0.0131859
866.005	0.0130709
866.083	0.0131947
866.161	0.0133945
866.239	0.0132680
866.318	0.0133537
866.396	0.0133744
866.474	0.0133296
866.552	0.0133512
866.630	0.0134370
866.708	0.0135033
866.786	0.0135190
866.864	0.0135408
866.943	0.0135797
867.021	0.0137361
867.099	0.0136829
867.177	0.0135928
867.255	0.0136539
867.333	0.0135965
867.411	0.0136820
867.489	0.0136111
867.568	0.0137132
867.646	0.0135336
867.724	0.0136866
867.802	0.0137190
867.880	0.0136557
867.958	0.0136810
868.036	0.0137728
868.114	0.0138094
868.193	0.0137965
868.271	0.0137860
868.349	0.0136915
868.427	0.0136476
868.505	0.0137669
868.583	0.0136787
868.661	0.0136938
868.739	0.0136885
868.818	0.0136913
868.896	0.0136639
868.974	0.0137128
869.052	0.0135924
869.130	0.0136784
869.208	0.0136822
869.286	0.0135027
869.364	0.0135132
869.443	0.0135513
869.521	0.0134365
869.599	0.0134908
869.677	0.0134232
869.755	0.0134127
869.833	0.0133945
869.911	0.0134329
869.989	0.0134303
870.068	0.0133585
870.146	0.0133235
870.224	0.0133775
870.302	0.0132723
870.380	0.0132252
870.458	0.0132533
870.536	0.0133259
870.614	0.0134515
870.693	0.0132446
870.771	0.0131532
870.849	0.0130408
870.927	0.0134194
871.005	0.0133620
871.083	0.0132915
871.161	0.0132131
871.239	0.0132928
871.318	0.0133705
871.396	0.0132932
871.474	0.0134013
871.552	0.0135880
871.630	0.0133642
871.708	0.0134747
871.786	0.0135103
871.864	0.0133725
871.943	0.0134158
872.021	0.0134817
872.099	0.0136022
872.177	0.0136057
872.255	0.0134931
872.333	0.0134130
872.411	0.0134943
872.489	0.0135931
872.568	0.0134798
872.646	0.0135118
872.724	0.0135035
872.802	0.0135439
872.880	0.0136894
872.958	0.0136303
873.036	0.0136725
873.114	0.0136588
873.193	0.0136899
873.271	0.0136134
873.349	0.0137372
873.427	0.0136831
873.505	0.0135744
873.583	0.0136924
873.661	0.0137145
873.739	0.0136920
873.818	0.0136210
873.896	0.0136932
873.974	0.0137417
874.052	0.0137347
874.130	0.0136295
874.208	0.0136636
874.286	0.0135247
874.364	0.0135436
874.443	0.0134824
874.521	0.0134357
874.599	0.0135231
874.677	0.0134116
874.755	0.0134146
874.833	0.0133099
874.911	0.0133076
874.989	0.0132779
875.068	0.0132652
875.146	0.0133721
875.224	0.0133386
875.302	0.0133521
875.380	0.0133112
875.458	0.0132299
875.536	0.0133815
875.614	0.0134446
875.693	0.0133502
875.771	0.0134870
875.849	0.0134520
875.927	0.0134869
876.005	0.0135529
876.083	0.0135873
876.161	0.0135325
876.239	0.0136908
876.318	0.0136323
876.396	0.0136847
876.474	0.0137392
876.552	0.0137974
876.630	0.0136951
876.708	0.0137226
876.786	0.0137413
876.864	0.0138271
876.943	0.0136983
877.021	0.0137657
877.099	0.0138297
877.177	0.0138266
877.255	0.0137875
877.333	0.0137112
877.411	0.0137970
877.489	0.0134918
877.568	0.0134485
877.646	0.0135937
877.724	0.0134977
877.802	0.0133382
877.880	0.0134239
877.958	0.0133597
878.036	0.0134048
878.114	0.0134855
878.193	0.0135336
878.271	0.0132961
878.349	0.0135370
878.427	0.0135628
878.505	0.0133865
878.583	0.0135117
878.661	0.0135904
878.739	0.0135925
878.818	0.0135895
878.896	0.0136671
878.974	0.0138447
879.052	0.0136115
879.130	0.0136382
879.208	0.0138119
879.286	0.0136105
879.364	0.0136582
879.443	0.0135844
879.521	0.0136668
879.599	0.0137055
879.677	0.0136671
879.755	0.0134940
879.833	0.0136255
879.911	0.0135953
879.989	0.0134709
880.068	0.0135543
880.146	0.0136539
880.224	0.0134732
880.302	0.0133790
880.380	0.0134552
880.458	0.0136166
880.536	0.0134129
880.614	0.0133942
880.693	0.0136321
880.771	0.0136362
880.849	0.0135369
880.927	0.0136125
881.005	0.0136771
881.083	0.0136140
881.161	0.0137798
881.239	0.0137148
881.318	0.0137292
881.396	0.0136518
881.474	0.0136186
881.552	0.0136625
881.630	0.0134845
881.708	0.0134234
881.786	0.0135466
881.864	0.0136546
881.943	0.0134392
882.021	0.0134580
882.099	0.0134827
882.177	0.0135006
882.255	0.0134952
882.333	0.0133867
882.411	0.0134656
882.489	0.0134715
882.568	0.0133965
882.646	0.0132566
882.724	0.0134694
882.802	0.0134111
882.880	0.0134081
882.958	0.0134367
883.036	0.0134139
883.114	0.0134268
883.193	0.0134713
883.271	0.0133469
883.349	0.0135411
883.427	0.0135728
883.505	0.0136169
883.583	0.0136610
883.661	0.0134840
883.739	0.0137025
883.818	0.0136758
883.896	0.0136777
883.974	0.0137437
884.052	0.0137910
884.130	0.0137160
884.208	0.0136887
884.286	0.0137746
884.364	0.0138507
884.443	0.0136504
884.521	0.0136527
884.599	0.0138216
884.677	0.0137769
884.755	0.0136633
884.833	0.0136734
884.911	0.0137272
884.989	0.0137064
885.068	0.0136360
885.146	0.0136288
885.224	0.0136007
885.302	0.0134972
885.380	0.0134166
885.458	0.0133652
885.536	0.0134549
885.614	0.0132769
885.693	0.0132967
885.771	0.0133035
885.849	0.0132962
885.927	0.0132071
886.005	0.0132478
886.083	0.0133490
886.161	0.0133360
886.239	0.0133083
886.318	0.0133506
886.396	0.0132693
886.474	0.0133202
886.552	0.0131472
886.630	0.0132975
886.708	0.0132655
886.786	0.0131655
886.864	0.0133707
886.943	0.0132721
887.021	0.0132538
887.099	0.0130956
887.177	0.0133246
887.255	0.0134349
887.333	0.0133497
887.411	0.0133691
887.489	0.0134798
887.568	0.0135205
887.646	0.0135633
887.724	0.0134610
887.802	0.0135516
887.880	0.0136250
887.958	0.0136943
888.036	0.0137151
888.114	0.0136829
888.193	0.0137598
888.271	0.0138380
888.349	0.0135927
888.427	0.0137213
888.505	0.0136301
888.583	0.0136352
888.661	0.0137270
888.739	0.0138188
888.818	0.0137020
888.896	0.0136826
888.974	0.0137552
889.052	0.0138544
889.130	0.0136513
889.208	0.0137044
889.286	0.0137954
889.364	0.0137673
889.443	0.0136798
889.521	0.0134782
889.599	0.0136600
889.677	0.0134891
889.755	0.0133826
889.833	0.0133559
889.911	0.0133073
889.989	0.0130930
890.068	0.0130822
890.146	0.0131198
890.224	0.0131157
890.302	0.0132262
890.380	0.0130815
890.458	0.0130789
890.536	0.0130451
890.614	0.0132274
890.693	0.0130361
890.771	0.0131506
890.849	0.0132566
890.927	0.0132036
891.005	0.0132236
891.083	0.0132333
891.161	0.0133317
891.239	0.0134029
891.318	0.0132906
891.396	0.0133958
891.474	0.0134776
891.552	0.0135107
891.630	0.0134494
891.708	0.0134779
891.786	0.0134874
891.864	0.0136211
891.943	0.0137503
892.021	0.0137481
892.099	0.0136423
892.177	0.0137249
892.255	0.0135616
892.333	0.0136633
892.411	0.0136242
892.489	0.0137172
892.568	0.0136593
892.646	0.0138615
892.724	0.0138116
892.802	0.0138340
892.880	0.0138009
892.958	0.0137422
893.036	0.0137241
893.114	0.0139270
893.193	0.0137544
893.271	0.0137340
893.349	0.0137859
893.427	0.0139520
893.505	0.0137446
893.583	0.0137807
893.661	0.0138461
893.739	0.0135738
893.818	0.0136346
893.896	0.0136021
893.974	0.0134948
894.052	0.0136571
894.130	0.0137223
894.208	0.0136816
894.286	0.0134972
894.364	0.0134393
894.443	0.0132496
894.521	0.0134045
894.599	0.0133936
894.677	0.0132875
894.755	0.0131013
894.833	0.0130817
894.911	0.0131786
894.989	0.0130141
895.068	0.0129805
895.146	0.0128750
895.224	0.0130297
895.302	0.0130289
895.380	0.0130707
895.458	0.0131248
895.536	0.0130088
895.614	0.0131418
895.693	0.0132816
895.771	0.0133698
895.849	0.0134071
895.927	0.0136622
896.005	0.0135333
896.083	0.0136740
896.161	0.0137397
896.239	0.0139346
896.318	0.0138576
896.396	0.0141270
896.474	0.0139429
896.552	0.0140068
896.630	0.0142323
896.708	0.0141118
896.786	0.0141829
896.864	0.0139933
896.943	0.0139577
897.021	0.0139929
897.099	0.0140443
897.177	0.0140447
897.255	0.0139175
897.333	0.0138475
897.411	0.0136728
897.489	0.0137855
897.568	0.0137057
897.646	0.0136626
897.724	0.0136903
897.802	0.0135143
897.880	0.0132883
897.958	0.0134072
898.036	0.0133102
898.114	0.0131943
898.193	0.0133821
898.271	0.0133025
898.349	0.0131323
898.427	0.0131895
898.505	0.0132616
898.583	0.0133257
898.661	0.0132892
898.739	0.0132768
898.818	0.0134083
898.896	0.0134360
898.974	0.0134255
899.052	0.0134567
899.130	0.0134047
899.208	0.0133729
899.286	0.0135481
899.364	0.0134914
899.443	0.0134177
899.521	0.0134811
899.599	0.0134238
899.677	0.0133861
899.755	0.0132580
899.833	0.0134085
899.911	0.0134437
899.989	0.0135660
900.068	0.0134238
900.146	0.0134720
900.224	0.0134003
900.302	0.0134248
900.380	0.0134663
900.458	0.0135547
900.536	0.0134924
900.614	0.0136371
900.693	0.0134706
900.771	0.0136044
900.849	0.0137179
900.927	0.0137593
901.005	0.0136260
901.083	0.0136283
901.161	0.0136365
901.239	0.0137186
901.318	0.0137518
901.396	0.0136539
901.474	0.0137117
901.552	0.0138451
901.630	0.0137785
901.708	0.0137823
901.786	0.0136788
901.864	0.0137759
901.943	0.0138930
902.021	0.0137327
902.099	0.0137363
902.177	0.0136438
902.255	0.0135975
902.333	0.0137482
902.411	0.0137276
902.489	0.0135793
902.568	0.0135640
902.646	0.0134469
902.724	0.0136189
902.802	0.0134290
902.880	0.0134319
902.958	0.0133479
903.036	0.0133967
903.114	0.0133581
903.193	0.0135461
903.271	0.0134094
903.349	0.0133883
903.427	0.0135119
903.505	0.0135619
903.583	0.0134843
903.661	0.0136195
903.739	0.0136636
903.818	0.0136892
903.896	0.0137328
903.974	0.0137985
904.052	0.0138239
904.130	0.0138120
904.208	0.0139168
904.286	0.0137501
904.364	0.0137170
904.443	0.0137422
904.521	0.0138221
904.599	0.0137109
904.677	0.0136440
904.755	0.0137022
904.833	0.0134888
904.911	0.0136868
904.989	0.0136021
905.068	0.0134964
905.146	0.0133870
905.224	0.0134116
905.302	0.0134039
905.380	0.0133465
905.458	0.0133503
905.536	0.0132597
905.614	0.0133086
905.693	0.0132183
905.771	0.0131951
905.849	0.0132767
905.927	0.0129741
906.005	0.0131693
906.083	0.0131393
906.161	0.0131322
906.239	0.0132721
906.318	0.0132666
906.396	0.0131909
906.474	0.0133122
906.552	0.0133607
906.630	0.0132739
906.708	0.0134204
906.786	0.0135339
906.864	0.0136146
906.943	0.0135804
907.021	0.0136214
907.099	0.0137526
907.177	0.0137589
907.255	0.0138795
907.333	0.0138317
907.411	0.0137954
907.489	0.0139767
907.568	0.0139904
907.646	0.0139793
907.724	0.0139322
907.802	0.0139289
907.880	0.0138498
907.958	0.0139806
908.036	0.0139353
908.114	0.0138190
908.193	0.0137318
908.271	0.0137772
908.349	0.0137253
908.427	0.0137289
908.505	0.0137186
908.583	0.0135341
908.661	0.0135840
908.739	0.0135593
908.818	0.0135664
908.896	0.0135310
908.974	0.0135656
909.052	0.0135827
909.130	0.0135316
909.208	0.0134960
909.286	0.0134933
909.364	0.0136579
909.443	0.0135401
909.521	0.0136640
909.599	0.0135737
909.677	0.0135503
909.755	0.0134425
909.833	0.0135207
909.911	0.0133580
909.989	0.0135638
910.068	0.0135188
910.146	0.0134376
910.224	0.0134318
910.302	0.0133009
910.380	0.0133109
910.458	0.0133364
910.536	0.0133414
910.614	0.0133246
910.693	0.0132899
910.771	0.0131833
910.849	0.0132184
910.927	0.0133640
911.005	0.0133012
911.083	0.0132014
911.161	0.0131474
911.239	0.0131520
911.318	0.0132591
911.396	0.0133550
911.474	0.0131527
911.552	0.0132526
911.630	0.0132529
911.708	0.0133034
911.786	0.0134295
911.864	0.0133375
911.943	0.0134017
912.021	0.0134246
912.099	0.0135671
912.177	0.0136080
912.255	0.0135455
912.333	0.0136484
912.411	0.0137975
912.489	0.0136700
912.568	0.0137746
912.646	0.0139196
912.724	0.0138535
912.802	0.0137041
912.880	0.0137803
912.958	0.0137540
913.036	0.0137849
913.114	0.0138160
913.193	0.0137921
913.271	0.0137167
913.349	0.0137933
913.427	0.0136350
913.505	0.0137610
913.583	0.0137624
913.661	0.0136282
913.739	0.0135464
913.818	0.0135309
913.896	0.0135677
913.974	0.0134901
914.052	0.0134013
914.130	0.0134476
914.208	0.0134231
914.286	0.0132838
914.364	0.0134145
914.443	0.0132391
914.521	0.0131610
914.599	0.0134602
914.677	0.0132724
914.755	0.0134624
914.833	0.0134255
914.911	0.0134592
914.989	0.0135257
915.068	0.0134167
915.146	0.0134345
915.224	0.0135972
915.302	0.0136373
915.380	0.0135280
915.458	0.0135625
915.536	0.0136616
915.614	0.0134972
915.693	0.0135618
915.771	0.0136134
915.849	0.0135406
915.927	0.0136600
916.005	0.0135149
916.083	0.0134662
916.161	0.0135738
916.239	0.0135767
916.318	0.0135738
916.396	0.0134469
916.474	0.0134477
916.552	0.0133991
916.630	0.0133965
916.708	0.0135225
916.786	0.0134896
916.864	0.0134873
916.943	0.0135052
917.021	0.0134243
917.099	0.0135779
917.177	0.0135465
917.255	0.0137303
917.333	0.0137016
917.411	0.0138513
917.489	0.0136132
917.568	0.0138077
917.646	0.0139265
917.724	0.0139382
917.802	0.0138332
917.880	0.0138064
917.958	0.0138272
918.036	0.0137567
918.114	0.0138355
918.193	0.0139251
918.271	0.0138029
918.349	0.0137049
918.427	0.0137309
918.505	0.0137547
918.583	0.0137009
918.661	0.0136702
918.739	0.0136104
918.818	0.0135679
918.896	0.0136694
918.974	0.0136949
919.052	0.0136136
919.130	0.0136128
919.208	0.0136550
919.286	0.0135585
919.364	0.0133877
919.443	0.0134881
919.521	0.0135966
919.599	0.0134561
919.677	0.0134811
919.755	0.0132169
919.833	0.0132886
919.911	0.0132423
919.989	0.0131421
920.068	0.0131872
920.146	0.0133623
920.224	0.0133443
920.302	0.0133783
920.380	0.0134121
920.458	0.0134003
920.536	0.0133950
920.614	0.0134510
920.693	0.0134825
920.771	0.0135712
920.849	0.0136175
920.927	0.0135590
921.005	0.0136749
921.083	0.0138335
921.161	0.0138534
921.239	0.0136922
921.318	0.0137698
921.396	0.0138174
921.474	0.0138245
921.552	0.0137994
921.630	0.0139854
921.708	0.0137955
921.786	0.0138326
921.864	0.0136412
921.943	0.0135103
922.021	0.0135006
922.099	0.0134673
922.177	0.0135441
922.255	0.0136038
922.333	0.0134312
922.411	0.0134045
922.489	0.0133678
922.568	0.0134971
922.646	0.0134509
922.724	0.0134204
922.802	0.0135829
922.880	0.0136491
922.958	0.0135521
923.036	0.0136970
923.114	0.0137424
923.193	0.0136667
923.271	0.0136648
923.349	0.0136168
923.427	0.0137882
923.505	0.0138560
923.583	0.0136927
923.661	0.0137150
923.739	0.0137888
923.818	0.0136713
923.896	0.0138849
923.974	0.0138493
924.052	0.0137298
924.130	0.0137340
924.208	0.0138548
924.286	0.0138344
924.364	0.0137716
924.443	0.0137996
924.521	0.0138709
924.599	0.0137481
924.677	0.0137764
924.755	0.0136720
924.833	0.0136609
924.911	0.0135870
924.989	0.0136242
925.068	0.0133529
925.146	0.0133572
925.224	0.0134400
925.302	0.0134991
925.380	0.0133983
925.458	0.0132549
925.536	0.0133105
925.614	0.0133978
925.693	0.0132695
925.771	0.0133170
925.849	0.0133172
925.927	0.0131679
926.005	0.0133028
926.083	0.0133131
926.161	0.0131924
926.239	0.0132733
926.318	0.0133642
926.396	0.0131789
926.474	0.0132062
926.552	0.0133372
926.630	0.0134923
926.708	0.0134315
926.786	0.0133339
926.864	0.0135487
926.943	0.0135049
927.021	0.0136339
927.099	0.0134713
927.177	0.0136413
927.255	0.0136008
927.333	0.0136700
927.411	0.0138586
927.489	0.0137307
927.568	0.0137103
927.646	0.0136951
927.724	0.0138322
927.802	0.0137959
927.880	0.0135098
927.958	0.0136888
928.036	0.0137132
928.114	0.0138353
928.193	0.0137375
928.271	0.0137582
928.349	0.0135928
928.427	0.0135759
928.505	0.0136907
928.583	0.0136840
928.661	0.0136475
928.739	0.0135104
928.818	0.0136691
928.896	0.0136024
928.974	0.0137447
929.052	0.0135976
929.130	0.0136003
929.208	0.0135883
929.286	0.0136321
929.364	0.0134554
929.443	0.0134892
929.521	0.0134473
929.599	0.0136019
929.677	0.0136120
929.755	0.0134975
929.833	0.0134928
929.911	0.0134534
929.989	0.0134621
930.068	0.0134093
930.146	0.0133237
930.224	0.0134145
930.302	0.0132945
930.380	0.0132911
930.458	0.0132327
930.536	0.0132520
930.614	0.0132107
930.693	0.0131895
930.771	0.0131094
930.849	0.0131554
930.927	0.0133398
931.005	0.0132269
931.083	0.0132069
931.161	0.0133085
931.239	0.0133992
931.318	0.0133990
931.396	0.0134566
931.474	0.0134035
931.552	0.0134882
931.630	0.0134769
931.708	0.0135119
931.786	0.0135361
931.864	0.0133898
931.943	0.0136752
932.021	0.0135147
932.099	0.0136732
932.177	0.0136478
932.255	0.0135639
932.333	0.0135079
932.411	0.0136565
932.489	0.0135911
932.568	0.0136107
932.646	0.0137360
932.724	0.0136073
932.802	0.0135505
932.880	0.0136181
932.958	0.0135798
933.036	0.0137028
933.114	0.0137585
933.193	0.0136040
933.271	0.0136492
933.349	0.0136413
933.427	0.0135967
933.505	0.0135730
933.583	0.0135184
933.661	0.0134941
933.739	0.0136617
933.818	0.0134963
933.896	0.0135040
933.974	0.0136030
934.052	0.0133255
934.130	0.0133336
934.208	0.0135000
934.286	0.0134473
934.364	0.0133680
934.443	0.0134448
934.521	0.0131754
934.599	0.0134048
934.677	0.0132123
934.755	0.0133039
934.833	0.0134544
934.911	0.0133762
934.989	0.0133227
935.068	0.0134270
935.146	0.0134261
935.224	0.0133887
935.302	0.0133369
935.380	0.0134602
935.458	0.0134686
935.536	0.0133241
935.614	0.0133858
935.693	0.0134775
935.771	0.0135100
935.849	0.0134710
935.927	0.0134257
936.005	0.0135368
936.083	0.0133842
936.161	0.0133427
936.239	0.0135600
936.318	0.0134944
936.396	0.0135420
936.474	0.0136115
936.552	0.0136950
936.630	0.0137692
936.708	0.0136665
936.786	0.0136874
936.864	0.0138094
936.943	0.0138770
937.021	0.0138208
937.099	0.0137062
937.177	0.0138268
937.255	0.0138408
937.333	0.0138838
937.411	0.0138606
937.489	0.0138032
937.568	0.0138194
937.646	0.0137539
937.724	0.0136597
937.802	0.0136557
937.880	0.0135818
937.958	0.0134541
938.036	0.0135543
938.114	0.0135076
938.193	0.0133936
938.271	0.0134350
938.349	0.0134353
938.427	0.0133684
938.505	0.0133657
938.583	0.0135286
938.661	0.0131711
938.739	0.0133121
938.818	0.0132820
938.896	0.0133674
938.974	0.0133778
939.052	0.0134366
939.130	0.0134038
939.208	0.0133544
939.286	0.0134624
939.364	0.0133453
939.443	0.0135866
939.521	0.0134382
939.599	0.0134144
939.677	0.0134608
939.755	0.0135505
939.833	0.0135946
939.911	0.0134925
939.989	0.0135296
940.068	0.0136594
940.146	0.0134358
940.224	0.0135232
940.302	0.0135257
940.380	0.0134801
940.458	0.0135675
940.536	0.0135233
940.614	0.0133910
940.693	0.0136793
940.771	0.0136348
940.849	0.0135753
940.927	0.0136461
941.005	0.0134751
941.083	0.0135191
941.161	0.0135363
941.239	0.0136016
941.318	0.0136106
941.396	0.0134990
941.474	0.0136167
941.552	0.0136278
941.630	0.0135734
941.708	0.0136081
941.786	0.0135784
941.864	0.0135184
941.943	0.0137328
942.021	0.0136891
942.099	0.0136032
942.177	0.0135764
942.255	0.0136802
942.333	0.0135487
942.411	0.0135138
942.489	0.0136201
942.568	0.0135441
942.646	0.0135074
942.724	0.0135906
942.802	0.0136943
942.880	0.0135966
942.958	0.0136403
943.036	0.0135445
943.114	0.0135998
943.193	0.0137836
943.271	0.0136225
943.349	0.0137819
943.427	0.0135858
943.505	0.0135801
943.583	0.0137330
943.661	0.0135397
943.739	0.0135789
943.818	0.0136345
943.896	0.0134914
943.974	0.0134901
944.052	0.0134315
944.130	0.0134779
944.208	0.0135831
944.286	0.0133953
944.364	0.0133594
944.443	0.0133972
944.521	0.0133480
944.599	0.0132511
944.677	0.0132868
944.755	0.0133472
944.833	0.0133741
944.911	0.0134238
944.989	0.0133623
945.068	0.0133860
945.146	0.0134817
945.224	0.0135139
945.302	0.0134990
945.380	0.0134590
945.458	0.0135578
945.536	0.0136779
945.614	0.0136936
945.693	0.0135632
945.771	0.0135911
945.849	0.0137517
945.927	0.0137103
946.005	0.0137337
946.083	0.0137001
946.161	0.0136486
946.239	0.0136364
946.318	0.0137000
946.396	0.0136958
946.474	0.0135721
946.552	0.0137025
946.630	0.0136834
946.708	0.0137276
946.786	0.0136025
946.864	0.0136780
946.943	0.0136053
947.021	0.0136069
947.099	0.0135346
947.177	0.0134835
947.255	0.0133767
947.333	0.0134931
947.411	0.0137003
947.489	0.0133956
947.568	0.0135190
947.646	0.0133761
947.724	0.0133000
947.802	0.0133793
947.880	0.0134088
947.958	0.0134391
948.036	0.0133038
948.114	0.0133409
948.193	0.0132832
948.271	0.0133618
948.349	0.0136310
948.427	0.0135564
948.505	0.0133796
948.583	0.0134304
948.661	0.0133963
948.739	0.0133813
948.818	0.0135117
948.896	0.0134351
948.974	0.0134988
949.052	0.0135661
949.130	0.0134171
949.208	0.0133220
949.286	0.0132690
949.364	0.0132552
949.443	0.0133839
949.521	0.0133342
949.599	0.0133404
949.677	0.0133225
949.755	0.0134000
949.833	0.0134831
949.911	0.0135608
949.989	0.0135569
950.068	0.0133978
950.146	0.0134638
950.224	0.0134302
950.302	0.0135794
950.380	0.0134676
950.458	0.0135466
950.536	0.0134423
950.614	0.0134714
950.693	0.0135815
950.771	0.0134916
950.849	0.0134322
950.927	0.0135955
951.005	0.0135585
951.083	0.0136509
951.161	0.0136393
951.239	0.0135275
951.318	0.0135407
951.396	0.0135609
951.474	0.0135320
951.552	0.0135429
951.630	0.0134451
951.708	0.0136325
951.786	0.0137471
951.864	0.0135973
951.943	0.0135464
952.021	0.0135977
952.099	0.0135883
952.177	0.0135429
952.255	0.0134483
952.333	0.0134280
952.411	0.0135196
952.489	0.0134427
952.568	0.0133315
952.646	0.0134203
952.724	0.0133359
952.802	0.0134982
952.880	0.0134241
952.958	0.0134200
953.036	0.0133419
953.114	0.0135685
953.193	0.0135014
953.271	0.0134132
953.349	0.0134417
953.427	0.0135196
953.505	0.0134628
953.583	0.0133149
953.661	0.0134887
953.739	0.0134591
953.818	0.0133435
953.896	0.0134614
953.974	0.0133887
954.052	0.0134775
954.130	0.0135142
954.208	0.0134849
954.286	0.0135165
954.364	0.0134809
954.443	0.0134180
954.521	0.0135296
954.599	0.0135754
954.677	0.0135339
954.755	0.0136054
954.833	0.0134986
954.911	0.0134309
954.989	0.0134702
955.068	0.0134313
955.146	0.0134261
955.224	0.0134133
955.302	0.0135342
955.380	0.0134780
955.458	0.0134962
955.536	0.0134767
955.614	0.0136492
955.693	0.0136381
955.771	0.0135246
955.849	0.0135056
955.927	0.0134225
956.005	0.0135062
956.083	0.0135756
956.161	0.0136132
956.239	0.0135480
956.318	0.0134296
956.396	0.0135249
956.474	0.0135160
956.552	0.0135049
956.630	0.0136408
956.708	0.0135916
956.786	0.0137398
956.864	0.0135241
956.943	0.0136245
957.021	0.0135390
957.099	0.0133921
957.177	0.0135413
957.255	0.0136578
957.333	0.0136266
957.411	0.0136267
957.489	0.0135582
957.568	0.0133636
957.646	0.0133184
957.724	0.0134098
957.802	0.0134802
957.880	0.0133835
957.958	0.0134715
958.036	0.0134814
958.114	0.0134087
958.193	0.0133469
958.271	0.0134309
958.349	0.0132913
958.427	0.0135043
958.505	0.0133540
958.583	0.0135722
958.661	0.0135398
958.739	0.0134436
958.818	0.0135030
958.896	0.0136198
958.974	0.0135741
959.052	0.0135844
959.130	0.0134532
959.208	0.0135689
959.286	0.0136345
959.364	0.0136426
959.443	0.0135719
959.521	0.0135428
959.599	0.0136462
959.677	0.0136041
959.755	0.0137578
959.833	0.0136528
959.911	0.0135564
