05/14/2022	16:34:51	Ver.	4.1	UNKNOWN
Optical Delay	639.989416	Delta X		0.078125	Sweeps	1	Scan Rate	0/0
Coordinates	Axis 1	NaN	Axis 2	NaN	Axis 3	NaN	Axis 4	NaN	Axis 5	NaN	Axis 6	0.000000
TX Power	0.000000	RX Power	0.000000

639.989	0.0134651
640.068	0.0134777
640.146	0.0135654
640.224	0.0135146
640.302	0.0135863
640.380	0.0137460
640.458	0.0137395
640.536	0.0135966
640.614	0.0135736
640.693	0.0135114
640.771	0.0135001
640.849	0.0136571
640.927	0.0135387
641.005	0.0135838
641.083	0.0136957
641.161	0.0136834
641.239	0.0136524
641.318	0.0136161
641.396	0.0136658
641.474	0.0135680
641.552	0.0135166
641.630	0.0136981
641.708	0.0134850
641.786	0.0137386
641.864	0.0136302
641.943	0.0135728
642.021	0.0135887
642.099	0.0137270
642.177	0.0137640
642.255	0.0136507
642.333	0.0136906
642.411	0.0136701
642.489	0.0136298
642.568	0.0136154
642.646	0.0136400
642.724	0.0136017
642.802	0.0135174
642.880	0.0136065
642.958	0.0136919
643.036	0.0136715
643.114	0.0134535
643.193	0.0135342
643.271	0.0134695
643.349	0.0134966
643.427	0.0136501
643.505	0.0136161
643.583	0.0136531
643.661	0.0136694
643.739	0.0136728
643.818	0.0136868
643.896	0.0135848
643.974	0.0136496
644.052	0.0136063
644.130	0.0136900
644.208	0.0137144
644.286	0.0137156
644.364	0.0136138
644.443	0.0136901
644.521	0.0136301
644.599	0.0136203
644.677	0.0136411
644.755	0.0137672
644.833	0.0137335
644.911	0.0136270
644.989	0.0136826
645.068	0.0137029
645.146	0.0137959
645.224	0.0138029
645.302	0.0136417
645.380	0.0137034
645.458	0.0135572
645.536	0.0137088
645.614	0.0138442
645.693	0.0137022
645.771	0.0136500
645.849	0.0138073
645.927	0.0135973
646.005	0.0137127
646.083	0.0138223
646.161	0.0137961
646.239	0.0137292
646.318	0.0136756
646.396	0.0137119
646.474	0.0136430
646.552	0.0137440
646.630	0.0137035
646.708	0.0137237
646.786	0.0138158
646.864	0.0137276
646.943	0.0137526
647.021	0.0136688
647.099	0.0136111
647.177	0.0138454
647.255	0.0138541
647.333	0.0137395
647.411	0.0137334
647.489	0.0136676
647.568	0.0137510
647.646	0.0136559
647.724	0.0135840
647.802	0.0136635
647.880	0.0137435
647.958	0.0136466
648.036	0.0136719
648.114	0.0137540
648.193	0.0136449
648.271	0.0137116
648.349	0.0137897
648.427	0.0137156
648.505	0.0137218
648.583	0.0137050
648.661	0.0136532
648.739	0.0136453
648.818	0.0135670
648.896	0.0137344
648.974	0.0137518
649.052	0.0136543
649.130	0.0135904
649.208	0.0136245
649.286	0.0137353
649.364	0.0136793
649.443	0.0136914
649.521	0.0136340
649.599	0.0136185
649.677	0.0137141
649.755	0.0135689
649.833	0.0136001
649.911	0.0137692
649.989	0.0136967
650.068	0.0136230
650.146	0.0135377
650.224	0.0135209
650.302	0.0135722
650.380	0.0136547
650.458	0.0136276
650.536	0.0136073
650.614	0.0136693
650.693	0.0135995
650.771	0.0136590
650.849	0.0136932
650.927	0.0135915
651.005	0.0135845
651.083	0.0135230
651.161	0.0136034
651.239	0.0135429
651.318	0.0136691
651.396	0.0135518
651.474	0.0137060
651.552	0.0136300
651.630	0.0136439
651.708	0.0136021
651.786	0.0136671
651.864	0.0137173
651.943	0.0136459
652.021	0.0135779
652.099	0.0137371
652.177	0.0136890
652.255	0.0135785
652.333	0.0136968
652.411	0.0136253
652.489	0.0137389
652.568	0.0137295
652.646	0.0137522
652.724	0.0135701
652.802	0.0136570
652.880	0.0136728
652.958	0.0135825
653.036	0.0136967
653.114	0.0136776
653.193	0.0137246
653.271	0.0135596
653.349	0.0137534
653.427	0.0137199
653.505	0.0137153
653.583	0.0136574
653.661	0.0135847
653.739	0.0138168
653.818	0.0136767
653.896	0.0135781
653.974	0.0137232
654.052	0.0138119
654.130	0.0137815
654.208	0.0136179
654.286	0.0137215
654.364	0.0137613
654.443	0.0136303
654.521	0.0137820
654.599	0.0137011
654.677	0.0135548
654.755	0.0137216
654.833	0.0137115
654.911	0.0136541
654.989	0.0136411
655.068	0.0135634
655.146	0.0136466
655.224	0.0136831
655.302	0.0135130
655.380	0.0136022
655.458	0.0136060
655.536	0.0135453
655.614	0.0135455
655.693	0.0136094
655.771	0.0136916
655.849	0.0135987
655.927	0.0136087
656.005	0.0137746
656.083	0.0135677
656.161	0.0135402
656.239	0.0135226
656.318	0.0135316
656.396	0.0136594
656.474	0.0136635
656.552	0.0136466
656.630	0.0136118
656.708	0.0136163
656.786	0.0136488
656.864	0.0136493
656.943	0.0135725
657.021	0.0136037
657.099	0.0136287
657.177	0.0134095
657.255	0.0134531
657.333	0.0136834
657.411	0.0137582
657.489	0.0135040
657.568	0.0134769
657.646	0.0136530
657.724	0.0136279
657.802	0.0134092
657.880	0.0136855
657.958	0.0135527
658.036	0.0135641
658.114	0.0136179
658.193	0.0135798
658.271	0.0136870
658.349	0.0136117
658.427	0.0136665
658.505	0.0136745
658.583	0.0135495
658.661	0.0135925
658.739	0.0136328
658.818	0.0136152
658.896	0.0136929
658.974	0.0136502
659.052	0.0134829
659.130	0.0135754
659.208	0.0136826
659.286	0.0136338
659.364	0.0135233
659.443	0.0135942
659.521	0.0136225
659.599	0.0135168
659.677	0.0135727
659.755	0.0136124
659.833	0.0136080
659.911	0.0135912
659.989	0.0134504
660.068	0.0135955
660.146	0.0136109
660.224	0.0134997
660.302	0.0135182
660.380	0.0136578
660.458	0.0136806
660.536	0.0136546
660.614	0.0136629
660.693	0.0136102
660.771	0.0135716
660.849	0.0135614
660.927	0.0135918
661.005	0.0134821
661.083	0.0135662
661.161	0.0136224
661.239	0.0135596
661.318	0.0136124
661.396	0.0135647
661.474	0.0135883
661.552	0.0135516
661.630	0.0134669
661.708	0.0136132
661.786	0.0135750
661.864	0.0135744
661.943	0.0136009
662.021	0.0135171
662.099	0.0135381
662.177	0.0135767
662.255	0.0135684
662.333	0.0136481
662.411	0.0135179
662.489	0.0135623
662.568	0.0135087
662.646	0.0134969
662.724	0.0135765
662.802	0.0135638
662.880	0.0135099
662.958	0.0134760
663.036	0.0134172
663.114	0.0133669
663.193	0.0135765
663.271	0.0135979
663.349	0.0135474
663.427	0.0135683
663.505	0.0136501
663.583	0.0135658
663.661	0.0136056
663.739	0.0134655
663.818	0.0135946
663.896	0.0135213
663.974	0.0136443
664.052	0.0134987
664.130	0.0134203
664.208	0.0135957
664.286	0.0135328
664.364	0.0134618
664.443	0.0135863
664.521	0.0136281
664.599	0.0136636
664.677	0.0135875
664.755	0.0135862
664.833	0.0134677
664.911	0.0135072
664.989	0.0135518
665.068	0.0135419
665.146	0.0135291
665.224	0.0135342
665.302	0.0135587
665.380	0.0135279
665.458	0.0135006
665.536	0.0136201
665.614	0.0136259
665.693	0.0135836
665.771	0.0137181
665.849	0.0135579
665.927	0.0136435
666.005	0.0136646
666.083	0.0136166
666.161	0.0135631
666.239	0.0136755
666.318	0.0137914
666.396	0.0136312
666.474	0.0135251
666.552	0.0135767
666.630	0.0136831
666.708	0.0135801
666.786	0.0136801
666.864	0.0135822
666.943	0.0135736
667.021	0.0136407
667.099	0.0135496
667.177	0.0134998
667.255	0.0136582
667.333	0.0134242
667.411	0.0136634
667.489	0.0134998
667.568	0.0135305
667.646	0.0134844
667.724	0.0135455
667.802	0.0136363
667.880	0.0135717
667.958	0.0136245
668.036	0.0136347
668.114	0.0136562
668.193	0.0136434
668.271	0.0137072
668.349	0.0137369
668.427	0.0136800
668.505	0.0136830
668.583	0.0136063
668.661	0.0136564
668.739	0.0136717
668.818	0.0136716
668.896	0.0136117
668.974	0.0134724
669.052	0.0136517
669.130	0.0136328
669.208	0.0135975
669.286	0.0134459
669.364	0.0135873
669.443	0.0137296
669.521	0.0136672
669.599	0.0135841
669.677	0.0136382
669.755	0.0137874
669.833	0.0138573
669.911	0.0135849
669.989	0.0136166
670.068	0.0137682
670.146	0.0137383
670.224	0.0137434
670.302	0.0137190
670.380	0.0137934
670.458	0.0137375
670.536	0.0138847
670.614	0.0136942
670.693	0.0136725
670.771	0.0138315
670.849	0.0137969
670.927	0.0135980
671.005	0.0136749
671.083	0.0136025
671.161	0.0135715
671.239	0.0136770
671.318	0.0136908
671.396	0.0138031
671.474	0.0139375
671.552	0.0136875
671.630	0.0135580
671.708	0.0134865
671.786	0.0136018
671.864	0.0137400
671.943	0.0136877
672.021	0.0136987
672.099	0.0136580
672.177	0.0137187
672.255	0.0138178
672.333	0.0136999
672.411	0.0136961
672.489	0.0138425
672.568	0.0136516
672.646	0.0136082
672.724	0.0137387
672.802	0.0137321
672.880	0.0137296
672.958	0.0138226
673.036	0.0137408
673.114	0.0136049
673.193	0.0138242
673.271	0.0137732
673.349	0.0136692
673.427	0.0137103
673.505	0.0137553
673.583	0.0135401
673.661	0.0137043
673.739	0.0136803
673.818	0.0137571
673.896	0.0136974
673.974	0.0137080
674.052	0.0137818
674.130	0.0137204
674.208	0.0138711
674.286	0.0138014
674.364	0.0137630
674.443	0.0137795
674.521	0.0137731
674.599	0.0137449
674.677	0.0138360
674.755	0.0137160
674.833	0.0136922
674.911	0.0136883
674.989	0.0136734
675.068	0.0136437
675.146	0.0137484
675.224	0.0136819
675.302	0.0136618
675.380	0.0136087
675.458	0.0135223
675.536	0.0136033
675.614	0.0136022
675.693	0.0136485
675.771	0.0137421
675.849	0.0136913
675.927	0.0136303
676.005	0.0135091
676.083	0.0135808
676.161	0.0134948
676.239	0.0135493
676.318	0.0135822
676.396	0.0134438
676.474	0.0135139
676.552	0.0134447
676.630	0.0135442
676.708	0.0136779
676.786	0.0136298
676.864	0.0135951
676.943	0.0135869
677.021	0.0138252
677.099	0.0139940
677.177	0.0138007
677.255	0.0139733
677.333	0.0138573
677.411	0.0140073
677.489	0.0138808
677.568	0.0139644
677.646	0.0136314
677.724	0.0138279
677.802	0.0138000
677.880	0.0135003
677.958	0.0136073
678.036	0.0135474
678.114	0.0133846
678.193	0.0132556
678.271	0.0132017
678.349	0.0132360
678.427	0.0132673
678.505	0.0131162
678.583	0.0132911
678.661	0.0132021
678.739	0.0131433
678.818	0.0132602
678.896	0.0132631
678.974	0.0133267
679.052	0.0134734
679.130	0.0136216
679.208	0.0136485
679.286	0.0138546
679.364	0.0140499
679.443	0.0142272
679.521	0.0144122
679.599	0.0145122
679.677	0.0145753
679.755	0.0146728
679.833	0.0147289
679.911	0.0146252
679.989	0.0145785
680.068	0.0145730
680.146	0.0143597
680.224	0.0142893
680.302	0.0139047
680.380	0.0138584
680.458	0.0135032
680.536	0.0132748
680.614	0.0129253
680.693	0.0127917
680.771	0.0124487
680.849	0.0123109
680.927	0.0122095
681.005	0.0122208
681.083	0.0120991
681.161	0.0118956
681.239	0.0120861
681.318	0.0123301
681.396	0.0123676
681.474	0.0126003
681.552	0.0126747
681.630	0.0131303
681.708	0.0132775
681.786	0.0136185
681.864	0.0138992
681.943	0.0141093
682.021	0.0144334
682.099	0.0147298
682.177	0.0148143
682.255	0.0149197
682.333	0.0152768
682.411	0.0153275
682.489	0.0153947
682.568	0.0153918
682.646	0.0154081
682.724	0.0152438
682.802	0.0150818
682.880	0.0150220
682.958	0.0147387
683.036	0.0146207
683.114	0.0142113
683.193	0.0139164
683.271	0.0136446
683.349	0.0133487
683.427	0.0128590
683.505	0.0126380
683.583	0.0122486
683.661	0.0120941
683.739	0.0117211
683.818	0.0116930
683.896	0.0114779
683.974	0.0114986
684.052	0.0115498
684.130	0.0114683
684.208	0.0116363
684.286	0.0116206
684.364	0.0118287
684.443	0.0122053
684.521	0.0123740
684.599	0.0124986
684.677	0.0127605
684.755	0.0131592
684.833	0.0135528
684.911	0.0137003
684.989	0.0142044
685.068	0.0143263
685.146	0.0147893
685.224	0.0151510
685.302	0.0153370
685.380	0.0155902
685.458	0.0158945
685.536	0.0159814
685.614	0.0160729
685.693	0.0161756
685.771	0.0160695
685.849	0.0161608
685.927	0.0158862
686.005	0.0156398
686.083	0.0153696
686.161	0.0151481
686.239	0.0147810
686.318	0.0143226
686.396	0.0140105
686.474	0.0132273
686.552	0.0129588
686.630	0.0125478
686.708	0.0122192
686.786	0.0118671
686.864	0.0114653
686.943	0.0111416
687.021	0.0111060
687.099	0.0109213
687.177	0.0108267
687.255	0.0110931
687.333	0.0112247
687.411	0.0113280
687.489	0.0115546
687.568	0.0117831
687.646	0.0121820
687.724	0.0125376
687.802	0.0128493
687.880	0.0133887
687.958	0.0138264
688.036	0.0140584
688.114	0.0144577
688.193	0.0147071
688.271	0.0150883
688.349	0.0152763
688.427	0.0153917
688.505	0.0155358
688.583	0.0154911
688.661	0.0156187
688.739	0.0155752
688.818	0.0154784
688.896	0.0153675
688.974	0.0151395
689.052	0.0149014
689.130	0.0146532
689.208	0.0144888
689.286	0.0140939
689.364	0.0138567
689.443	0.0134233
689.521	0.0130853
689.599	0.0127663
689.677	0.0124732
689.755	0.0123011
689.833	0.0119301
689.911	0.0117765
689.989	0.0116302
690.068	0.0116839
690.146	0.0116938
690.224	0.0117982
690.302	0.0119321
690.380	0.0123713
690.458	0.0126337
690.536	0.0129406
690.614	0.0133387
690.693	0.0136031
690.771	0.0141466
690.849	0.0144376
690.927	0.0148344
691.005	0.0151485
691.083	0.0154332
691.161	0.0157136
691.239	0.0158973
691.318	0.0162315
691.396	0.0163248
691.474	0.0162498
691.552	0.0161452
691.630	0.0160596
691.708	0.0159306
691.786	0.0157484
691.864	0.0154282
691.943	0.0150620
692.021	0.0145932
692.099	0.0140160
692.177	0.0135506
692.255	0.0132252
692.333	0.0124612
692.411	0.0118921
692.489	0.0116319
692.568	0.0111149
692.646	0.0106300
692.724	0.0103571
692.802	0.0101962
692.880	0.00996803
692.958	0.00990669
693.036	0.00990746
693.114	0.00995804
693.193	0.0102126
693.271	0.0104721
693.349	0.0107034
693.427	0.0112895
693.505	0.0115604
693.583	0.0119343
693.661	0.0125187
693.739	0.0129256
693.818	0.0134339
693.896	0.0138670
693.974	0.0144603
694.052	0.0149464
694.130	0.0152526
694.208	0.0157227
694.286	0.0163917
694.364	0.0166705
694.443	0.0169325
694.521	0.0172958
694.599	0.0175124
694.677	0.0177685
694.755	0.0178443
694.833	0.0177947
694.911	0.0176747
694.989	0.0175606
695.068	0.0171857
695.146	0.0167714
695.224	0.0163773
695.302	0.0160410
695.380	0.0154958
695.458	0.0148713
695.536	0.0142328
695.614	0.0136285
695.693	0.0132861
695.771	0.0125986
695.849	0.0122584
695.927	0.0118228
696.005	0.0114211
696.083	0.0111874
696.161	0.0108972
696.239	0.0108758
696.318	0.0107233
696.396	0.0105405
696.474	0.0107077
696.552	0.0106828
696.630	0.0108111
696.708	0.0109466
696.786	0.0109942
696.864	0.0110884
696.943	0.0111909
697.021	0.0112656
697.099	0.0117146
697.177	0.0118616
697.255	0.0119405
697.333	0.0121721
697.411	0.0123928
697.489	0.0126948
697.568	0.0128489
697.646	0.0130406
697.724	0.0131838
697.802	0.0135076
697.880	0.0135669
697.958	0.0138941
698.036	0.0140400
698.114	0.0141743
698.193	0.0142879
698.271	0.0144083
698.349	0.0146095
698.427	0.0147665
698.505	0.0148666
698.583	0.0152797
698.661	0.0153018
698.739	0.0153958
698.818	0.0156926
698.896	0.0158105
698.974	0.0158368
699.052	0.0159940
699.130	0.0159235
699.208	0.0159807
699.286	0.0160841
699.364	0.0159384
699.443	0.0156440
699.521	0.0156692
699.599	0.0154415
699.677	0.0153853
699.755	0.0152373
699.833	0.0148475
699.911	0.0148322
699.989	0.0146002
700.068	0.0145796
700.146	0.0142844
700.224	0.0142118
700.302	0.0138259
700.380	0.0136457
700.458	0.0133760
700.536	0.0130819
700.614	0.0128584
700.693	0.0126278
700.771	0.0125615
700.849	0.0122487
700.927	0.0121542
701.005	0.0121368
701.083	0.0121255
701.161	0.0120407
701.239	0.0121022
701.318	0.0120028
701.396	0.0120925
701.474	0.0119926
701.552	0.0120087
701.630	0.0118362
701.708	0.0119101
701.786	0.0118186
701.864	0.0117835
701.943	0.0116551
702.021	0.0118298
702.099	0.0119247
702.177	0.0118656
702.255	0.0120193
702.333	0.0121064
702.411	0.0123312
702.489	0.0125748
702.568	0.0128250
702.646	0.0131196
702.724	0.0133034
702.802	0.0135841
702.880	0.0137794
702.958	0.0139772
703.036	0.0141628
703.114	0.0142213
703.193	0.0144301
703.271	0.0144312
703.349	0.0147402
703.427	0.0146453
703.505	0.0148338
703.583	0.0149200
703.661	0.0149035
703.739	0.0148612
703.818	0.0151721
703.896	0.0153771
703.974	0.0151988
704.052	0.0153513
704.130	0.0153659
704.208	0.0153367
704.286	0.0154681
704.364	0.0152618
704.443	0.0152051
704.521	0.0150965
704.599	0.0150134
704.677	0.0148944
704.755	0.0148645
704.833	0.0148092
704.911	0.0147049
704.989	0.0147660
705.068	0.0145612
705.146	0.0145316
705.224	0.0145081
705.302	0.0145089
705.380	0.0144028
705.458	0.0143837
705.536	0.0142570
705.614	0.0143021
705.693	0.0141190
705.771	0.0139501
705.849	0.0138194
705.927	0.0138049
706.005	0.0135929
706.083	0.0134203
706.161	0.0130864
706.239	0.0127779
706.318	0.0126351
706.396	0.0124008
706.474	0.0120170
706.552	0.0118174
706.630	0.0114808
706.708	0.0113769
706.786	0.0111092
706.864	0.0110087
706.943	0.0107353
707.021	0.0107347
707.099	0.0106280
707.177	0.0106324
707.255	0.0107062
707.333	0.0106999
707.411	0.0108136
707.489	0.0108801
707.568	0.0112886
707.646	0.0115557
707.724	0.0119577
707.802	0.0122707
707.880	0.0126090
707.958	0.0130420
708.036	0.0134904
708.114	0.0139389
708.193	0.0142236
708.271	0.0146321
708.349	0.0147026
708.427	0.0149716
708.505	0.0151911
708.583	0.0152241
708.661	0.0151955
708.739	0.0152847
708.818	0.0152068
708.896	0.0151307
708.974	0.0149043
709.052	0.0149068
709.130	0.0149076
709.208	0.0149547
709.286	0.0149318
709.364	0.0149384
709.443	0.0150909
709.521	0.0151860
709.599	0.0153394
709.677	0.0155234
709.755	0.0155353
709.833	0.0157271
709.911	0.0157809
709.989	0.0159709
710.068	0.0160294
710.146	0.0160368
710.224	0.0159937
710.302	0.0159716
710.380	0.0159730
710.458	0.0157805
710.536	0.0157090
710.614	0.0156063
710.693	0.0152963
710.771	0.0151529
710.849	0.0147710
710.927	0.0145728
711.005	0.0143599
711.083	0.0139175
711.161	0.0135580
711.239	0.0132970
711.318	0.0127861
711.396	0.0123479
711.474	0.0120303
711.552	0.0116614
711.630	0.0113760
711.708	0.0108272
711.786	0.0105257
711.864	0.0104505
711.943	0.0102619
712.021	0.0100192
712.099	0.00987213
712.177	0.00987846
712.255	0.0100039
712.333	0.0102196
712.411	0.0103336
712.489	0.0105740
712.568	0.0108456
712.646	0.0111147
712.724	0.0115240
712.802	0.0116199
712.880	0.0117308
712.958	0.0121690
713.036	0.0124312
713.114	0.0127961
713.193	0.0129840
713.271	0.0131954
713.349	0.0133426
713.427	0.0136999
713.505	0.0140029
713.583	0.0142944
713.661	0.0145224
713.739	0.0149458
713.818	0.0151493
713.896	0.0153510
713.974	0.0156459
714.052	0.0157311
714.130	0.0158569
714.208	0.0160056
714.286	0.0159030
714.364	0.0159375
714.443	0.0158678
714.521	0.0158045
714.599	0.0156995
714.677	0.0156735
714.755	0.0153791
714.833	0.0153613
714.911	0.0154292
714.989	0.0152248
715.068	0.0152509
715.146	0.0150616
715.224	0.0149346
715.302	0.0148207
715.380	0.0148748
715.458	0.0148168
715.536	0.0146428
715.614	0.0146661
715.693	0.0146499
715.771	0.0145950
715.849	0.0144670
715.927	0.0143887
716.005	0.0141879
716.083	0.0141512
716.161	0.0140761
716.239	0.0140812
716.318	0.0140472
716.396	0.0140881
716.474	0.0140179
716.552	0.0138003
716.630	0.0137328
716.708	0.0135482
716.786	0.0135355
716.864	0.0134392
716.943	0.0131805
717.021	0.0129215
717.099	0.0124959
717.177	0.0122005
717.255	0.0119977
717.333	0.0115781
717.411	0.0112616
717.489	0.0112066
717.568	0.0107981
717.646	0.0104522
717.724	0.0104330
717.802	0.0103989
717.880	0.0102865
717.958	0.0102285
718.036	0.0103100
718.114	0.0105702
718.193	0.0108667
718.271	0.0108845
718.349	0.0112067
718.427	0.0115070
718.505	0.0117794
718.583	0.0120605
718.661	0.0125342
718.739	0.0128474
718.818	0.0132320
718.896	0.0134036
718.974	0.0137995
719.052	0.0142271
719.130	0.0145872
719.208	0.0148380
719.286	0.0151199
719.364	0.0153805
719.443	0.0156763
719.521	0.0158331
719.599	0.0158428
719.677	0.0157067
719.755	0.0159692
719.833	0.0157155
719.911	0.0157364
719.989	0.0157923
720.068	0.0154413
720.146	0.0153000
720.224	0.0152518
720.302	0.0149821
720.380	0.0147066
720.458	0.0148653
720.536	0.0148360
720.614	0.0147471
720.693	0.0146650
720.771	0.0147089
720.849	0.0145509
720.927	0.0147112
721.005	0.0147944
721.083	0.0147662
721.161	0.0147337
721.239	0.0147556
721.318	0.0147321
721.396	0.0147876
721.474	0.0147689
721.552	0.0148671
721.630	0.0148916
721.708	0.0148822
721.786	0.0148278
721.864	0.0147525
721.943	0.0146069
722.021	0.0143308
722.099	0.0142268
722.177	0.0138203
722.255	0.0137036
722.333	0.0132737
722.411	0.0129070
722.489	0.0126247
722.568	0.0124133
722.646	0.0121499
722.724	0.0120297
722.802	0.0117115
722.880	0.0114980
722.958	0.0113944
723.036	0.0112251
723.114	0.0112792
723.193	0.0110500
723.271	0.0111634
723.349	0.0112885
723.427	0.0112532
723.505	0.0113573
723.583	0.0114392
723.661	0.0115099
723.739	0.0116885
723.818	0.0118357
723.896	0.0118784
723.974	0.0120377
724.052	0.0123179
724.130	0.0124127
724.208	0.0127612
724.286	0.0129276
724.364	0.0132377
724.443	0.0134945
724.521	0.0139490
724.599	0.0142682
724.677	0.0144208
724.755	0.0146537
724.833	0.0149223
724.911	0.0152378
724.989	0.0152255
725.068	0.0152637
725.146	0.0153345
725.224	0.0152651
725.302	0.0152729
725.380	0.0150650
725.458	0.0150449
725.536	0.0148634
725.614	0.0145925
725.693	0.0143172
725.771	0.0141756
725.849	0.0140348
725.927	0.0139488
726.005	0.0137196
726.083	0.0136742
726.161	0.0137627
726.239	0.0139680
726.318	0.0139320
726.396	0.0142706
726.474	0.0144893
726.552	0.0145254
726.630	0.0148544
726.708	0.0150204
726.786	0.0151498
726.864	0.0153979
726.943	0.0154360
727.021	0.0154696
727.099	0.0157157
727.177	0.0156867
727.255	0.0155293
727.333	0.0153583
727.411	0.0153545
727.489	0.0150086
727.568	0.0149259
727.646	0.0144636
727.724	0.0142612
727.802	0.0139687
727.880	0.0136678
727.958	0.0135867
728.036	0.0132300
728.114	0.0129572
728.193	0.0127441
728.271	0.0125574
728.349	0.0125772
728.427	0.0124717
728.505	0.0123672
728.583	0.0122955
728.661	0.0120992
728.739	0.0121166
728.818	0.0118924
728.896	0.0118967
728.974	0.0119611
729.052	0.0118933
729.130	0.0118337
729.208	0.0117714
729.286	0.0116795
729.364	0.0117565
729.443	0.0119193
729.521	0.0119359
729.599	0.0120127
729.677	0.0121120
729.755	0.0123643
729.833	0.0125240
729.911	0.0125781
729.989	0.0126163
730.068	0.0130045
730.146	0.0131348
730.224	0.0131552
730.302	0.0133471
730.380	0.0133712
730.458	0.0136115
730.536	0.0136443
730.614	0.0137416
730.693	0.0139297
730.771	0.0140423
730.849	0.0140067
730.927	0.0141902
731.005	0.0142361
731.083	0.0143500
731.161	0.0142009
731.239	0.0143018
731.318	0.0145316
731.396	0.0145813
731.474	0.0144457
731.552	0.0147060
731.630	0.0146844
731.708	0.0147743
731.786	0.0149072
731.864	0.0149775
731.943	0.0150652
732.021	0.0151352
732.099	0.0150497
732.177	0.0152514
732.255	0.0154003
732.333	0.0154096
732.411	0.0155838
732.489	0.0153688
732.568	0.0154213
732.646	0.0152190
732.724	0.0151654
732.802	0.0150600
732.880	0.0149227
732.958	0.0147855
733.036	0.0146946
733.114	0.0146278
733.193	0.0143603
733.271	0.0141377
733.349	0.0139740
733.427	0.0138913
733.505	0.0135052
733.583	0.0133887
733.661	0.0131485
733.739	0.0129751
733.818	0.0126328
733.896	0.0124877
733.974	0.0122537
734.052	0.0121195
734.130	0.0119358
734.208	0.0118911
734.286	0.0118713
734.364	0.0116380
734.443	0.0115674
734.521	0.0116039
734.599	0.0117338
734.677	0.0119000
734.755	0.0118477
734.833	0.0121329
734.911	0.0120623
734.989	0.0124128
735.068	0.0124909
735.146	0.0126535
735.224	0.0128960
735.302	0.0131760
735.380	0.0132102
735.458	0.0133073
735.536	0.0132926
735.614	0.0136073
735.693	0.0136752
735.771	0.0138488
735.849	0.0138099
735.927	0.0140376
736.005	0.0140430
736.083	0.0140832
736.161	0.0140272
736.239	0.0140655
736.318	0.0140316
736.396	0.0140651
736.474	0.0136984
736.552	0.0137731
736.630	0.0136174
736.708	0.0136300
736.786	0.0136115
736.864	0.0135931
736.943	0.0136401
737.021	0.0135909
737.099	0.0135080
737.177	0.0136579
737.255	0.0136221
737.333	0.0137847
737.411	0.0139600
737.489	0.0139701
737.568	0.0140465
737.646	0.0142487
737.724	0.0142333
737.802	0.0143159
737.880	0.0143681
737.958	0.0144152
738.036	0.0143362
738.114	0.0143216
738.193	0.0144393
738.271	0.0143169
738.349	0.0144456
738.427	0.0143584
738.505	0.0142274
738.583	0.0142604
738.661	0.0142645
738.739	0.0141228
738.818	0.0140446
738.896	0.0140395
738.974	0.0139162
739.052	0.0137344
739.130	0.0135854
739.208	0.0136009
739.286	0.0134572
739.364	0.0134772
739.443	0.0132769
739.521	0.0134601
739.599	0.0130907
739.677	0.0132055
739.755	0.0130785
739.833	0.0132687
739.911	0.0132610
739.989	0.0130509
740.068	0.0132343
740.146	0.0131692
740.224	0.0131569
740.302	0.0133575
740.380	0.0132092
740.458	0.0132428
740.536	0.0133260
740.614	0.0134746
740.693	0.0135836
740.771	0.0134300
740.849	0.0134579
740.927	0.0135554
741.005	0.0134977
741.083	0.0134108
741.161	0.0136031
741.239	0.0133875
741.318	0.0134745
741.396	0.0133984
741.474	0.0135333
741.552	0.0134372
741.630	0.0134849
741.708	0.0134303
741.786	0.0134145
741.864	0.0137822
741.943	0.0136338
742.021	0.0134526
742.099	0.0134941
742.177	0.0134341
742.255	0.0133739
742.333	0.0134297
742.411	0.0134473
742.489	0.0133448
742.568	0.0132927
742.646	0.0133006
742.724	0.0133122
742.802	0.0132360
742.880	0.0133366
742.958	0.0135736
743.036	0.0135939
743.114	0.0135625
743.193	0.0135835
743.271	0.0137576
743.349	0.0137002
743.427	0.0138699
743.505	0.0140827
743.583	0.0140410
743.661	0.0141187
743.739	0.0143303
743.818	0.0144364
743.896	0.0143568
743.974	0.0144310
744.052	0.0143497
744.130	0.0142938
744.208	0.0140839
744.286	0.0140491
744.364	0.0138408
744.443	0.0136565
744.521	0.0138041
744.599	0.0135174
744.677	0.0133993
744.755	0.0132628
744.833	0.0133034
744.911	0.0131735
744.989	0.0130435
745.068	0.0130918
745.146	0.0129429
745.224	0.0129510
745.302	0.0129372
745.380	0.0129632
745.458	0.0130978
745.536	0.0130083
745.614	0.0130283
745.693	0.0131638
745.771	0.0132255
745.849	0.0132884
745.927	0.0133891
746.005	0.0134221
746.083	0.0135124
746.161	0.0136528
746.239	0.0137649
746.318	0.0138497
746.396	0.0138963
746.474	0.0139181
746.552	0.0139393
746.630	0.0139548
746.708	0.0141193
746.786	0.0139924
746.864	0.0139714
746.943	0.0140062
747.021	0.0139918
747.099	0.0139670
747.177	0.0139689
747.255	0.0138814
747.333	0.0138262
747.411	0.0138847
747.489	0.0139916
747.568	0.0140126
747.646	0.0139436
747.724	0.0138998
747.802	0.0139585
747.880	0.0139049
747.958	0.0138096
748.036	0.0136914
748.114	0.0136942
748.193	0.0135951
748.271	0.0136446
748.349	0.0136184
748.427	0.0135675
748.505	0.0132857
748.583	0.0132664
748.661	0.0131950
748.739	0.0133014
748.818	0.0133990
748.896	0.0132835
748.974	0.0133070
749.052	0.0134055
749.130	0.0134051
749.208	0.0136024
749.286	0.0137617
749.364	0.0137026
749.443	0.0137622
749.521	0.0138375
749.599	0.0140112
749.677	0.0137762
749.755	0.0139512
749.833	0.0140035
749.911	0.0138314
749.989	0.0139429
750.068	0.0138454
750.146	0.0137858
750.224	0.0137817
750.302	0.0136707
750.380	0.0136555
750.458	0.0136984
750.536	0.0135279
750.614	0.0134590
750.693	0.0136412
750.771	0.0134138
750.849	0.0134264
750.927	0.0134657
751.005	0.0134699
751.083	0.0135745
751.161	0.0137083
751.239	0.0134720
751.318	0.0135274
751.396	0.0136933
751.474	0.0136704
751.552	0.0135497
751.630	0.0135594
751.708	0.0136009
751.786	0.0136354
751.864	0.0135821
751.943	0.0137213
752.021	0.0137662
752.099	0.0138314
752.177	0.0137743
752.255	0.0139709
752.333	0.0139896
752.411	0.0139780
752.489	0.0139849
752.568	0.0140624
752.646	0.0141161
752.724	0.0141100
752.802	0.0141848
752.880	0.0142529
752.958	0.0141989
753.036	0.0141911
753.114	0.0141818
753.193	0.0140408
753.271	0.0141264
753.349	0.0140717
753.427	0.0140594
753.505	0.0140718
753.583	0.0139116
753.661	0.0137170
753.739	0.0137108
753.818	0.0137021
753.896	0.0136124
753.974	0.0135286
754.052	0.0135081
754.130	0.0134280
754.208	0.0132678
754.286	0.0133428
754.364	0.0130872
754.443	0.0130140
754.521	0.0131215
754.599	0.0131425
754.677	0.0131650
754.755	0.0131540
754.833	0.0132845
754.911	0.0131824
754.989	0.0132632
755.068	0.0134689
755.146	0.0134434
755.224	0.0132683
755.302	0.0133318
755.380	0.0133877
755.458	0.0134865
755.536	0.0135694
755.614	0.0133591
755.693	0.0134340
755.771	0.0134631
755.849	0.0134941
755.927	0.0135022
756.005	0.0135776
756.083	0.0137299
756.161	0.0135242
756.239	0.0135597
756.318	0.0137345
756.396	0.0137664
756.474	0.0136256
756.552	0.0137193
756.630	0.0137035
756.708	0.0136163
756.786	0.0137167
756.864	0.0137208
756.943	0.0135056
757.021	0.0135967
757.099	0.0136713
757.177	0.0134621
757.255	0.0135010
757.333	0.0133572
757.411	0.0134776
757.489	0.0133143
757.568	0.0132596
757.646	0.0133262
757.724	0.0131571
757.802	0.0133568
757.880	0.0133091
757.958	0.0133210
758.036	0.0131842
758.114	0.0132923
758.193	0.0133327
758.271	0.0135341
758.349	0.0135680
758.427	0.0136528
758.505	0.0136881
758.583	0.0137899
758.661	0.0139347
758.739	0.0139378
758.818	0.0139337
758.896	0.0140903
758.974	0.0140220
759.052	0.0140523
759.130	0.0141815
759.208	0.0142004
759.286	0.0143874
759.364	0.0142464
759.443	0.0141898
759.521	0.0142191
759.599	0.0142968
759.677	0.0140321
759.755	0.0141762
759.833	0.0141489
759.911	0.0139558
759.989	0.0137824
760.068	0.0137257
760.146	0.0137991
760.224	0.0136530
760.302	0.0135619
760.380	0.0135345
760.458	0.0134805
760.536	0.0133813
760.614	0.0134251
760.693	0.0134388
760.771	0.0134317
760.849	0.0133135
760.927	0.0131432
761.005	0.0132220
761.083	0.0130791
761.161	0.0130082
761.239	0.0130266
761.318	0.0130479
761.396	0.0129459
761.474	0.0128337
761.552	0.0128028
761.630	0.0129518
761.708	0.0130592
761.786	0.0128806
761.864	0.0129509
761.943	0.0127715
762.021	0.0131129
762.099	0.0131662
762.177	0.0131565
762.255	0.0131962
762.333	0.0132721
762.411	0.0132362
762.489	0.0134134
762.568	0.0134852
762.646	0.0134884
762.724	0.0135202
762.802	0.0136717
762.880	0.0136611
762.958	0.0136932
763.036	0.0138225
763.114	0.0136842
763.193	0.0138132
763.271	0.0138114
763.349	0.0138523
763.427	0.0138251
763.505	0.0139853
763.583	0.0139849
763.661	0.0138956
763.739	0.0138998
763.818	0.0138717
763.896	0.0138000
763.974	0.0137096
764.052	0.0136960
764.130	0.0135742
764.208	0.0137537
764.286	0.0137086
764.364	0.0135754
764.443	0.0136700
764.521	0.0137093
764.599	0.0135860
764.677	0.0136095
764.755	0.0136413
764.833	0.0136611
764.911	0.0137885
764.989	0.0137670
765.068	0.0137215
765.146	0.0137680
765.224	0.0138121
765.302	0.0137496
765.380	0.0139165
765.458	0.0138164
765.536	0.0136601
765.614	0.0137135
765.693	0.0137659
765.771	0.0138657
765.849	0.0138793
765.927	0.0137170
766.005	0.0138297
766.083	0.0138223
766.161	0.0136794
766.239	0.0138274
766.318	0.0137184
766.396	0.0137112
766.474	0.0136872
766.552	0.0136703
766.630	0.0136317
766.708	0.0136227
766.786	0.0134586
766.864	0.0135046
766.943	0.0135169
767.021	0.0133817
767.099	0.0134311
767.177	0.0133805
767.255	0.0133820
767.333	0.0132587
767.411	0.0132771
767.489	0.0131995
767.568	0.0132465
767.646	0.0133269
767.724	0.0133283
767.802	0.0131996
767.880	0.0134113
767.958	0.0134647
768.036	0.0135242
768.114	0.0134168
768.193	0.0135178
768.271	0.0135174
768.349	0.0134436
768.427	0.0135620
768.505	0.0135323
768.583	0.0135051
768.661	0.0135912
768.739	0.0135349
768.818	0.0137642
768.896	0.0137269
768.974	0.0136285
769.052	0.0137383
769.130	0.0137914
769.208	0.0137283
769.286	0.0137203
769.364	0.0136797
769.443	0.0138056
769.521	0.0137642
769.599	0.0138334
769.677	0.0139443
769.755	0.0139559
769.833	0.0139149
769.911	0.0138853
769.989	0.0140119
770.068	0.0139127
770.146	0.0137692
770.224	0.0138057
770.302	0.0137968
770.380	0.0138283
770.458	0.0137766
770.536	0.0138348
770.614	0.0135660
770.693	0.0137003
770.771	0.0134624
770.849	0.0134795
770.927	0.0135349
771.005	0.0135701
771.083	0.0134619
771.161	0.0133490
771.239	0.0134178
771.318	0.0134937
771.396	0.0134303
771.474	0.0133983
771.552	0.0134726
771.630	0.0135429
771.708	0.0134615
771.786	0.0135607
771.864	0.0135087
771.943	0.0135967
772.021	0.0135870
772.099	0.0136412
772.177	0.0135069
772.255	0.0135976
772.333	0.0137566
772.411	0.0137148
772.489	0.0135255
772.568	0.0136773
772.646	0.0137245
772.724	0.0136723
772.802	0.0137550
772.880	0.0136846
772.958	0.0136671
773.036	0.0136913
773.114	0.0136623
773.193	0.0137245
773.271	0.0136720
773.349	0.0137288
773.427	0.0136808
773.505	0.0136560
773.583	0.0135223
773.661	0.0136030
773.739	0.0135639
773.818	0.0137672
773.896	0.0136863
773.974	0.0136167
774.052	0.0137383
774.130	0.0137193
774.208	0.0137303
774.286	0.0137022
774.364	0.0137039
774.443	0.0137859
774.521	0.0136926
774.599	0.0138837
774.677	0.0137794
774.755	0.0137712
774.833	0.0137155
774.911	0.0134997
774.989	0.0135988
775.068	0.0135757
775.146	0.0135727
775.224	0.0134167
775.302	0.0133909
775.380	0.0134572
775.458	0.0133655
775.536	0.0133946
775.614	0.0134658
775.693	0.0135576
775.771	0.0135291
775.849	0.0137432
775.927	0.0137217
776.005	0.0136187
776.083	0.0137605
776.161	0.0138533
776.239	0.0139442
776.318	0.0138388
776.396	0.0138809
776.474	0.0139797
776.552	0.0139481
776.630	0.0138102
776.708	0.0139513
776.786	0.0138853
776.864	0.0137743
776.943	0.0136427
777.021	0.0136703
777.099	0.0135521
777.177	0.0134966
777.255	0.0135094
777.333	0.0132542
777.411	0.0133402
777.489	0.0134468
777.568	0.0133884
777.646	0.0133360
777.724	0.0132689
777.802	0.0132985
777.880	0.0133755
777.958	0.0133107
778.036	0.0133534
778.114	0.0133826
778.193	0.0135007
778.271	0.0135476
778.349	0.0134861
778.427	0.0135999
778.505	0.0136650
778.583	0.0136590
778.661	0.0137012
778.739	0.0137548
778.818	0.0137784
778.896	0.0138467
778.974	0.0137393
779.052	0.0138072
779.130	0.0139759
779.208	0.0137225
779.286	0.0137497
779.364	0.0139533
779.443	0.0137650
779.521	0.0136744
779.599	0.0137785
779.677	0.0137542
779.755	0.0138206
779.833	0.0135242
779.911	0.0135253
779.989	0.0134847
780.068	0.0135562
780.146	0.0134520
780.224	0.0133662
780.302	0.0134468
780.380	0.0132747
780.458	0.0132972
780.536	0.0132587
780.614	0.0133214
780.693	0.0134786
780.771	0.0133764
780.849	0.0133936
780.927	0.0134898
781.005	0.0133432
781.083	0.0134525
781.161	0.0135257
781.239	0.0133797
781.318	0.0135044
781.396	0.0136919
781.474	0.0136907
781.552	0.0136275
781.630	0.0136454
781.708	0.0136961
781.786	0.0137189
781.864	0.0138555
781.943	0.0139420
782.021	0.0137567
782.099	0.0137833
782.177	0.0138837
782.255	0.0137666
782.333	0.0139230
782.411	0.0139135
782.489	0.0138528
782.568	0.0138858
782.646	0.0138342
782.724	0.0137617
782.802	0.0138091
782.880	0.0138423
782.958	0.0137772
783.036	0.0137328
783.114	0.0136692
783.193	0.0137564
783.271	0.0137060
783.349	0.0135411
783.427	0.0134615
783.505	0.0135563
783.583	0.0135072
783.661	0.0135916
783.739	0.0135814
783.818	0.0133927
783.896	0.0133987
783.974	0.0134892
784.052	0.0134949
784.130	0.0134978
784.208	0.0134057
784.286	0.0133450
784.364	0.0136318
784.443	0.0136228
784.521	0.0134467
784.599	0.0134830
784.677	0.0136272
784.755	0.0136041
784.833	0.0136092
784.911	0.0136624
784.989	0.0136174
785.068	0.0136613
785.146	0.0137241
785.224	0.0135910
785.302	0.0137968
785.380	0.0137139
785.458	0.0137238
785.536	0.0136551
785.614	0.0136393
785.693	0.0136691
785.771	0.0137514
785.849	0.0137678
785.927	0.0137122
786.005	0.0136076
786.083	0.0135618
786.161	0.0137772
786.239	0.0135857
786.318	0.0133907
786.396	0.0135377
786.474	0.0135639
786.552	0.0135693
786.630	0.0135313
786.708	0.0137031
786.786	0.0136116
786.864	0.0136460
786.943	0.0135529
787.021	0.0136797
787.099	0.0136416
787.177	0.0135696
787.255	0.0136608
787.333	0.0137730
787.411	0.0138645
787.489	0.0138764
787.568	0.0139232
787.646	0.0138427
787.724	0.0139542
787.802	0.0138924
787.880	0.0139180
787.958	0.0139874
788.036	0.0138927
788.114	0.0138854
788.193	0.0138639
788.271	0.0138362
788.349	0.0139294
788.427	0.0138621
788.505	0.0138602
788.583	0.0137302
788.661	0.0136488
788.739	0.0135676
788.818	0.0137083
788.896	0.0136536
788.974	0.0134679
789.052	0.0135463
789.130	0.0133814
789.208	0.0132980
789.286	0.0133894
789.364	0.0133321
789.443	0.0133145
789.521	0.0132984
789.599	0.0132240
789.677	0.0132961
789.755	0.0132061
789.833	0.0133189
789.911	0.0134072
789.989	0.0133695
790.068	0.0133898
790.146	0.0132630
790.224	0.0135635
790.302	0.0137020
790.380	0.0136845
790.458	0.0137222
790.536	0.0138993
790.614	0.0138034
790.693	0.0138815
790.771	0.0139198
790.849	0.0140255
790.927	0.0140146
791.005	0.0138992
791.083	0.0140282
791.161	0.0141287
791.239	0.0140704
791.318	0.0139838
791.396	0.0139252
791.474	0.0140768
791.552	0.0141076
791.630	0.0139858
791.708	0.0138998
791.786	0.0139034
791.864	0.0139715
791.943	0.0137975
792.021	0.0139476
792.099	0.0139278
792.177	0.0138291
792.255	0.0138729
792.333	0.0137892
792.411	0.0136021
792.489	0.0136024
792.568	0.0134782
792.646	0.0134662
792.724	0.0135191
792.802	0.0133273
792.880	0.0133775
792.958	0.0133226
793.036	0.0132969
793.114	0.0131741
793.193	0.0131083
793.271	0.0130318
793.349	0.0130879
793.427	0.0132510
793.505	0.0131076
793.583	0.0132076
793.661	0.0131146
793.739	0.0132443
793.818	0.0132131
793.896	0.0130767
793.974	0.0130967
794.052	0.0133375
794.130	0.0133566
794.208	0.0133987
794.286	0.0134329
794.364	0.0135767
794.443	0.0135368
794.521	0.0137019
794.599	0.0137538
794.677	0.0138072
794.755	0.0137681
794.833	0.0138938
794.911	0.0138143
794.989	0.0138615
795.068	0.0138684
795.146	0.0140317
795.224	0.0140502
795.302	0.0140543
795.380	0.0140598
795.458	0.0139296
795.536	0.0140592
795.614	0.0140094
795.693	0.0138414
795.771	0.0140270
795.849	0.0139272
795.927	0.0138578
796.005	0.0136984
796.083	0.0137400
796.161	0.0136826
796.239	0.0137292
796.318	0.0137520
796.396	0.0137004
796.474	0.0137644
796.552	0.0136942
796.630	0.0136472
796.708	0.0135606
796.786	0.0136174
796.864	0.0136917
796.943	0.0136421
797.021	0.0135561
797.099	0.0135445
797.177	0.0135632
797.255	0.0135989
797.333	0.0133292
797.411	0.0134442
797.489	0.0134811
797.568	0.0133105
797.646	0.0132556
797.724	0.0133820
797.802	0.0134484
797.880	0.0132574
797.958	0.0132931
798.036	0.0132592
798.114	0.0133051
798.193	0.0131071
798.271	0.0129747
798.349	0.0130727
798.427	0.0130559
798.505	0.0131218
798.583	0.0130283
798.661	0.0131517
798.739	0.0131698
798.818	0.0130476
798.896	0.0130937
798.974	0.0132848
799.052	0.0130832
799.130	0.0130225
799.208	0.0131826
799.286	0.0132263
799.364	0.0132902
799.443	0.0133112
799.521	0.0134180
799.599	0.0134925
799.677	0.0137284
799.755	0.0138097
799.833	0.0137172
799.911	0.0137242
799.989	0.0139811
800.068	0.0141515
800.146	0.0141575
800.224	0.0141962
800.302	0.0141496
800.380	0.0140623
800.458	0.0142639
800.536	0.0144093
800.614	0.0143161
800.693	0.0144252
800.771	0.0142426
800.849	0.0143483
800.927	0.0141528
801.005	0.0143478
801.083	0.0142666
801.161	0.0141933
801.239	0.0140114
801.318	0.0140385
801.396	0.0138976
801.474	0.0139108
801.552	0.0136469
801.630	0.0136423
801.708	0.0137495
801.786	0.0135947
801.864	0.0134586
801.943	0.0133834
802.021	0.0132664
802.099	0.0130968
802.177	0.0131047
802.255	0.0131236
802.333	0.0132714
802.411	0.0131462
802.489	0.0133112
802.568	0.0132920
802.646	0.0132314
802.724	0.0132263
802.802	0.0132450
802.880	0.0132944
802.958	0.0134472
803.036	0.0133006
803.114	0.0134258
803.193	0.0134477
803.271	0.0133842
803.349	0.0133754
803.427	0.0133319
803.505	0.0134671
803.583	0.0135215
803.661	0.0134325
803.739	0.0134903
803.818	0.0134568
803.896	0.0134634
803.974	0.0135504
804.052	0.0135036
804.130	0.0134850
804.208	0.0135875
804.286	0.0135637
804.364	0.0135719
804.443	0.0134893
804.521	0.0134975
804.599	0.0136147
804.677	0.0136797
804.755	0.0137594
804.833	0.0136656
804.911	0.0136133
804.989	0.0136059
805.068	0.0137544
805.146	0.0138200
805.224	0.0137538
805.302	0.0137159
805.380	0.0136540
805.458	0.0138176
805.536	0.0138473
805.614	0.0139509
805.693	0.0139135
805.771	0.0139371
805.849	0.0139156
805.927	0.0139150
806.005	0.0139690
806.083	0.0139286
806.161	0.0140643
806.239	0.0139817
806.318	0.0141485
806.396	0.0140432
806.474	0.0139370
806.552	0.0141022
806.630	0.0140124
806.708	0.0140102
806.786	0.0139232
806.864	0.0138851
806.943	0.0140443
807.021	0.0139031
807.099	0.0138088
807.177	0.0137716
807.255	0.0136410
807.333	0.0135816
807.411	0.0136391
807.489	0.0136047
807.568	0.0135373
807.646	0.0133763
807.724	0.0133632
807.802	0.0134118
807.880	0.0133029
807.958	0.0132964
808.036	0.0132671
808.114	0.0133078
808.193	0.0132453
808.271	0.0132644
808.349	0.0133081
808.427	0.0132808
808.505	0.0132838
808.583	0.0131250
808.661	0.0135284
808.739	0.0134318
808.818	0.0134734
808.896	0.0133900
808.974	0.0133756
809.052	0.0134361
809.130	0.0134356
809.208	0.0134392
809.286	0.0134959
809.364	0.0135481
809.443	0.0134650
809.521	0.0133605
809.599	0.0135897
809.677	0.0135700
809.755	0.0136072
809.833	0.0134959
809.911	0.0135525
809.989	0.0135917
810.068	0.0135937
810.146	0.0134663
810.224	0.0135941
810.302	0.0137158
810.380	0.0136300
810.458	0.0137402
810.536	0.0137177
810.614	0.0137087
810.693	0.0137860
810.771	0.0138780
810.849	0.0137569
810.927	0.0138284
811.005	0.0138379
811.083	0.0137930
811.161	0.0140913
811.239	0.0138876
811.318	0.0138908
811.396	0.0140386
811.474	0.0140646
811.552	0.0141524
811.630	0.0141142
811.708	0.0142737
811.786	0.0142525
811.864	0.0142044
811.943	0.0145039
812.021	0.0143002
812.099	0.0143112
812.177	0.0143533
812.255	0.0142767
812.333	0.0142160
812.411	0.0142782
812.489	0.0141485
812.568	0.0141706
812.646	0.0140665
812.724	0.0139641
812.802	0.0138604
812.880	0.0137550
812.958	0.0136575
813.036	0.0136675
813.114	0.0136016
813.193	0.0134800
813.271	0.0133067
813.349	0.0132493
813.427	0.0131170
813.505	0.0130151
813.583	0.0129492
813.661	0.0129661
813.739	0.0130525
813.818	0.0127904
813.896	0.0127827
813.974	0.0128498
814.052	0.0128030
814.130	0.0128939
814.208	0.0128488
814.286	0.0128598
814.364	0.0129442
814.443	0.0129640
814.521	0.0130130
814.599	0.0131368
814.677	0.0131790
814.755	0.0132954
814.833	0.0134026
814.911	0.0134158
814.989	0.0134213
815.068	0.0135481
815.146	0.0135598
815.224	0.0137356
815.302	0.0136897
815.380	0.0137895
815.458	0.0138422
815.536	0.0139292
815.614	0.0139821
815.693	0.0139616
815.771	0.0140509
815.849	0.0139999
815.927	0.0140627
816.005	0.0141544
816.083	0.0141203
816.161	0.0140916
816.239	0.0140986
816.318	0.0139731
816.396	0.0139571
816.474	0.0140574
816.552	0.0139443
816.630	0.0140238
816.708	0.0141528
816.786	0.0139880
816.864	0.0139725
816.943	0.0140616
817.021	0.0140069
817.099	0.0140504
817.177	0.0138961
817.255	0.0140984
817.333	0.0139979
817.411	0.0139775
817.489	0.0140822
817.568	0.0139641
817.646	0.0140501
817.724	0.0139729
817.802	0.0139062
817.880	0.0140146
817.958	0.0139457
818.036	0.0137666
818.114	0.0139120
818.193	0.0139584
818.271	0.0138583
818.349	0.0137273
818.427	0.0137374
818.505	0.0136976
818.583	0.0135830
818.661	0.0135233
818.739	0.0136205
818.818	0.0135247
818.896	0.0134803
818.974	0.0134579
819.052	0.0132269
819.130	0.0131980
819.208	0.0131472
819.286	0.0130344
819.364	0.0131522
819.443	0.0131498
819.521	0.0130904
819.599	0.0129713
819.677	0.0129178
819.755	0.0128973
819.833	0.0129304
819.911	0.0129155
819.989	0.0128745
820.068	0.0130216
820.146	0.0130679
820.224	0.0131335
820.302	0.0130882
820.380	0.0132008
820.458	0.0132407
820.536	0.0132007
820.614	0.0134334
820.693	0.0133289
820.771	0.0133707
820.849	0.0135703
820.927	0.0135205
821.005	0.0136024
821.083	0.0135001
821.161	0.0136976
821.239	0.0138174
821.318	0.0138475
821.396	0.0139658
821.474	0.0137834
821.552	0.0137871
821.630	0.0141584
821.708	0.0138309
821.786	0.0140836
821.864	0.0140767
821.943	0.0142411
822.021	0.0141504
822.099	0.0140389
822.177	0.0141976
822.255	0.0142163
822.333	0.0141106
822.411	0.0142645
822.489	0.0142221
822.568	0.0140707
822.646	0.0140241
822.724	0.0140449
822.802	0.0141554
822.880	0.0140490
822.958	0.0139478
823.036	0.0139124
823.114	0.0140071
823.193	0.0138673
823.271	0.0138882
823.349	0.0140116
823.427	0.0137541
823.505	0.0137041
823.583	0.0139298
823.661	0.0138515
823.739	0.0138107
823.818	0.0137177
823.896	0.0136302
823.974	0.0135450
824.052	0.0134533
824.130	0.0135339
824.208	0.0135394
824.286	0.0134682
824.364	0.0132738
824.443	0.0134171
824.521	0.0133157
824.599	0.0132648
824.677	0.0132389
824.755	0.0129642
824.833	0.0129855
824.911	0.0130577
824.989	0.0130566
825.068	0.0129276
825.146	0.0128712
825.224	0.0130494
825.302	0.0130389
825.380	0.0129884
825.458	0.0130225
825.536	0.0131352
825.614	0.0131409
825.693	0.0132426
825.771	0.0132397
825.849	0.0131660
825.927	0.0133411
826.005	0.0133962
826.083	0.0134412
826.161	0.0133717
826.239	0.0135674
826.318	0.0135401
826.396	0.0135230
826.474	0.0134621
826.552	0.0136486
826.630	0.0137138
826.708	0.0136694
826.786	0.0137584
826.864	0.0137021
826.943	0.0135938
827.021	0.0138205
827.099	0.0137889
827.177	0.0136936
827.255	0.0137353
827.333	0.0137251
827.411	0.0136713
827.489	0.0135964
827.568	0.0136382
827.646	0.0136256
827.724	0.0137426
827.802	0.0136020
827.880	0.0136565
827.958	0.0136221
828.036	0.0136115
828.114	0.0137328
828.193	0.0138365
828.271	0.0137186
828.349	0.0137899
828.427	0.0137515
828.505	0.0137710
828.583	0.0137663
828.661	0.0137902
828.739	0.0139574
828.818	0.0139509
828.896	0.0140201
828.974	0.0139631
829.052	0.0139143
829.130	0.0139162
829.208	0.0139134
829.286	0.0140155
829.364	0.0139396
829.443	0.0139655
829.521	0.0138988
829.599	0.0139599
829.677	0.0138435
829.755	0.0139454
829.833	0.0138174
829.911	0.0137564
829.989	0.0136935
830.068	0.0136588
830.146	0.0136928
830.224	0.0137209
830.302	0.0135596
830.380	0.0134286
830.458	0.0134195
830.536	0.0134636
830.614	0.0133523
830.693	0.0133519
830.771	0.0133975
830.849	0.0132501
830.927	0.0131748
831.005	0.0130627
831.083	0.0131710
831.161	0.0131578
831.239	0.0131670
831.318	0.0132024
831.396	0.0132426
831.474	0.0131960
831.552	0.0132935
831.630	0.0133803
831.708	0.0135227
831.786	0.0133305
831.864	0.0134956
831.943	0.0135751
832.021	0.0137833
832.099	0.0136065
832.177	0.0136720
832.255	0.0136811
832.333	0.0137143
832.411	0.0137812
832.489	0.0136887
832.568	0.0137758
832.646	0.0139236
832.724	0.0137918
832.802	0.0136128
832.880	0.0137852
832.958	0.0138972
833.036	0.0136272
833.114	0.0137112
833.193	0.0136471
833.271	0.0136988
833.349	0.0138172
833.427	0.0136665
833.505	0.0136185
833.583	0.0136784
833.661	0.0138401
833.739	0.0138811
833.818	0.0139172
833.896	0.0137373
833.974	0.0137663
834.052	0.0138070
834.130	0.0138830
834.208	0.0138497
834.286	0.0138412
834.364	0.0137395
834.443	0.0138254
834.521	0.0138728
834.599	0.0136922
834.677	0.0137630
834.755	0.0135273
834.833	0.0134882
834.911	0.0135543
834.989	0.0135681
835.068	0.0133639
835.146	0.0134960
835.224	0.0135865
835.302	0.0134071
835.380	0.0135381
835.458	0.0134919
835.536	0.0134612
835.614	0.0136532
835.693	0.0134438
835.771	0.0133582
835.849	0.0133992
835.927	0.0134345
836.005	0.0135094
836.083	0.0136223
836.161	0.0136170
836.239	0.0136604
836.318	0.0136371
836.396	0.0136688
836.474	0.0138038
836.552	0.0138337
836.630	0.0138354
836.708	0.0137613
836.786	0.0137592
836.864	0.0136973
836.943	0.0136982
837.021	0.0136936
837.099	0.0137666
837.177	0.0137169
837.255	0.0138716
837.333	0.0136719
837.411	0.0136813
837.489	0.0136395
837.568	0.0137866
837.646	0.0138430
837.724	0.0135821
837.802	0.0135921
837.880	0.0135694
837.958	0.0137151
838.036	0.0135582
838.114	0.0134948
838.193	0.0135908
838.271	0.0136078
838.349	0.0132934
838.427	0.0134116
838.505	0.0135902
838.583	0.0134229
838.661	0.0135213
838.739	0.0135087
838.818	0.0135758
838.896	0.0134109
838.974	0.0133883
839.052	0.0133399
839.130	0.0133994
839.208	0.0133775
839.286	0.0134702
839.364	0.0134238
839.443	0.0134350
839.521	0.0134283
839.599	0.0134501
839.677	0.0134711
839.755	0.0135213
839.833	0.0135765
839.911	0.0136374
839.989	0.0135324
840.068	0.0136063
840.146	0.0136739
840.224	0.0136168
840.302	0.0136911
840.380	0.0135105
840.458	0.0137352
840.536	0.0136132
840.614	0.0136630
840.693	0.0137617
840.771	0.0137801
840.849	0.0136958
840.927	0.0136543
841.005	0.0134875
841.083	0.0135154
841.161	0.0135872
841.239	0.0135663
841.318	0.0135534
841.396	0.0134873
841.474	0.0134560
841.552	0.0134541
841.630	0.0134520
841.708	0.0135192
841.786	0.0136430
841.864	0.0135462
841.943	0.0135238
842.021	0.0135577
842.099	0.0136035
842.177	0.0135492
842.255	0.0135827
842.333	0.0137193
842.411	0.0137209
842.489	0.0137225
842.568	0.0137700
842.646	0.0137725
842.724	0.0138452
842.802	0.0138543
842.880	0.0138684
842.958	0.0137617
843.036	0.0137789
843.114	0.0138899
843.193	0.0138529
843.271	0.0139133
843.349	0.0138633
843.427	0.0138464
843.505	0.0137016
843.583	0.0138825
843.661	0.0137808
843.739	0.0137720
843.818	0.0137489
843.896	0.0137271
843.974	0.0137679
844.052	0.0135392
844.130	0.0135017
844.208	0.0135175
844.286	0.0134143
844.364	0.0133905
844.443	0.0133994
844.521	0.0134763
844.599	0.0133913
844.677	0.0132702
844.755	0.0133644
844.833	0.0132609
844.911	0.0131892
844.989	0.0132432
845.068	0.0131721
845.146	0.0131634
845.224	0.0133353
845.302	0.0132571
845.380	0.0133337
845.458	0.0135195
845.536	0.0135339
845.614	0.0135085
845.693	0.0135722
845.771	0.0134106
845.849	0.0138405
845.927	0.0136936
846.005	0.0137105
846.083	0.0135276
846.161	0.0138146
846.239	0.0137315
846.318	0.0137144
846.396	0.0138200
846.474	0.0137319
846.552	0.0138603
846.630	0.0137746
846.708	0.0139666
846.786	0.0138168
846.864	0.0138407
846.943	0.0138285
847.021	0.0138335
847.099	0.0137361
847.177	0.0136578
847.255	0.0136823
847.333	0.0137383
847.411	0.0138278
847.489	0.0137193
847.568	0.0137439
847.646	0.0137950
847.724	0.0136697
847.802	0.0136879
847.880	0.0135806
847.958	0.0136737
848.036	0.0136654
848.114	0.0136761
848.193	0.0136246
848.271	0.0136018
848.349	0.0137836
848.427	0.0135509
848.505	0.0135680
848.583	0.0137625
848.661	0.0137088
848.739	0.0136748
848.818	0.0136586
848.896	0.0136088
848.974	0.0135726
849.052	0.0135554
849.130	0.0135394
849.208	0.0135565
849.286	0.0135085
849.364	0.0135557
849.443	0.0136727
849.521	0.0136771
849.599	0.0136091
849.677	0.0137096
849.755	0.0136608
849.833	0.0135706
849.911	0.0136465
849.989	0.0136192
850.068	0.0135660
850.146	0.0135858
850.224	0.0135310
850.302	0.0135088
850.380	0.0134251
850.458	0.0135056
850.536	0.0133947
850.614	0.0134995
850.693	0.0134926
850.771	0.0134881
850.849	0.0133836
850.927	0.0135805
851.005	0.0135378
851.083	0.0134790
851.161	0.0135278
851.239	0.0135385
851.318	0.0135925
851.396	0.0136176
851.474	0.0135429
851.552	0.0135102
851.630	0.0135651
851.708	0.0136362
851.786	0.0135107
851.864	0.0135292
851.943	0.0136024
852.021	0.0135516
852.099	0.0135322
852.177	0.0135896
852.255	0.0136855
852.333	0.0138001
852.411	0.0137124
852.489	0.0137568
852.568	0.0136614
852.646	0.0136266
852.724	0.0137606
852.802	0.0136714
852.880	0.0137068
852.958	0.0137516
853.036	0.0137460
853.114	0.0137675
853.193	0.0138005
853.271	0.0137260
853.349	0.0137991
853.427	0.0139011
853.505	0.0138445
853.583	0.0137543
853.661	0.0138027
853.739	0.0138020
853.818	0.0139445
853.896	0.0138329
853.974	0.0138697
854.052	0.0138434
854.130	0.0138700
854.208	0.0138814
854.286	0.0137949
854.364	0.0138464
854.443	0.0138477
854.521	0.0138691
854.599	0.0137885
854.677	0.0139004
854.755	0.0137754
854.833	0.0136202
854.911	0.0137775
854.989	0.0136855
855.068	0.0135513
855.146	0.0136226
855.224	0.0136099
855.302	0.0135414
855.380	0.0135394
855.458	0.0134752
855.536	0.0134172
855.614	0.0134863
855.693	0.0133119
855.771	0.0133997
855.849	0.0133796
855.927	0.0133895
856.005	0.0131747
856.083	0.0133995
856.161	0.0133266
856.239	0.0130116
856.318	0.0132098
856.396	0.0133295
856.474	0.0132832
856.552	0.0132626
856.630	0.0131025
856.708	0.0132563
856.786	0.0132152
856.864	0.0131828
856.943	0.0133011
857.021	0.0132955
857.099	0.0132226
857.177	0.0132585
857.255	0.0133372
857.333	0.0133533
857.411	0.0135268
857.489	0.0134200
857.568	0.0135025
857.646	0.0133934
857.724	0.0136308
857.802	0.0136628
857.880	0.0135125
857.958	0.0135657
858.036	0.0135844
858.114	0.0136703
858.193	0.0134289
858.271	0.0135797
858.349	0.0136433
858.427	0.0136494
858.505	0.0136826
858.583	0.0136762
858.661	0.0136648
858.739	0.0136429
858.818	0.0136165
858.896	0.0135968
858.974	0.0138852
859.052	0.0137952
859.130	0.0137780
859.208	0.0137984
859.286	0.0137563
859.364	0.0137963
859.443	0.0138210
859.521	0.0137343
859.599	0.0138542
859.677	0.0139262
859.755	0.0136699
859.833	0.0137550
859.911	0.0137324
859.989	0.0136311
860.068	0.0136065
860.146	0.0134843
860.224	0.0135014
860.302	0.0133906
860.380	0.0134795
860.458	0.0134953
860.536	0.0135383
860.614	0.0132913
860.693	0.0134016
860.771	0.0134168
860.849	0.0132976
860.927	0.0133268
861.005	0.0134391
861.083	0.0133524
861.161	0.0134829
861.239	0.0133878
861.318	0.0133599
861.396	0.0134098
861.474	0.0135011
861.552	0.0133710
861.630	0.0136137
861.708	0.0136494
861.786	0.0136900
861.864	0.0135915
861.943	0.0135623
862.021	0.0136115
862.099	0.0135948
862.177	0.0135629
862.255	0.0136584
862.333	0.0136926
862.411	0.0134718
862.489	0.0135583
862.568	0.0135567
862.646	0.0135495
862.724	0.0136071
862.802	0.0135107
862.880	0.0134832
862.958	0.0134602
863.036	0.0135699
863.114	0.0134093
863.193	0.0132950
863.271	0.0133554
863.349	0.0133173
863.427	0.0133957
863.505	0.0133984
863.583	0.0134490
863.661	0.0134340
863.739	0.0135863
863.818	0.0135497
863.896	0.0134905
863.974	0.0136819
864.052	0.0137024
864.130	0.0136845
864.208	0.0137630
864.286	0.0138117
864.364	0.0138026
864.443	0.0138097
864.521	0.0138429
864.599	0.0138746
864.677	0.0139903
864.755	0.0138943
864.833	0.0139955
864.911	0.0139180
864.989	0.0139579
865.068	0.0139019
865.146	0.0140474
865.224	0.0139029
865.302	0.0139841
865.380	0.0140186
865.458	0.0138892
865.536	0.0138796
865.614	0.0139439
865.693	0.0139330
865.771	0.0138771
865.849	0.0138197
865.927	0.0138870
866.005	0.0138163
866.083	0.0137662
866.161	0.0137141
866.239	0.0137931
866.318	0.0136497
866.396	0.0135069
866.474	0.0137354
866.552	0.0136209
866.630	0.0133900
866.708	0.0134485
866.786	0.0135358
866.864	0.0133163
866.943	0.0133991
867.021	0.0133447
867.099	0.0132774
867.177	0.0132423
867.255	0.0132674
867.333	0.0132847
867.411	0.0133250
867.489	0.0132065
867.568	0.0133741
867.646	0.0132607
867.724	0.0132236
867.802	0.0133294
867.880	0.0134102
867.958	0.0134156
868.036	0.0132937
868.114	0.0134508
868.193	0.0134288
868.271	0.0134251
868.349	0.0134676
868.427	0.0135063
868.505	0.0135201
868.583	0.0135496
868.661	0.0136130
868.739	0.0136472
868.818	0.0136462
868.896	0.0136443
868.974	0.0136282
869.052	0.0137174
869.130	0.0136472
869.208	0.0137984
869.286	0.0137198
869.364	0.0137709
869.443	0.0137829
869.521	0.0137372
869.599	0.0138599
869.677	0.0138697
869.755	0.0138948
869.833	0.0138705
869.911	0.0139288
869.989	0.0140050
870.068	0.0137688
870.146	0.0139417
870.224	0.0140212
870.302	0.0138776
870.380	0.0138325
870.458	0.0139477
870.536	0.0139220
870.614	0.0139571
870.693	0.0138717
870.771	0.0139064
870.849	0.0138710
870.927	0.0138710
871.005	0.0139652
871.083	0.0138648
871.161	0.0136441
871.239	0.0140050
871.318	0.0139008
871.396	0.0137411
871.474	0.0137727
871.552	0.0137950
871.630	0.0135771
871.708	0.0138279
871.786	0.0138239
871.864	0.0136987
871.943	0.0137087
872.021	0.0135420
872.099	0.0134950
872.177	0.0136182
872.255	0.0134141
872.333	0.0134525
872.411	0.0133842
872.489	0.0131947
872.568	0.0133604
872.646	0.0132813
872.724	0.0133380
872.802	0.0134136
872.880	0.0132841
872.958	0.0133978
873.036	0.0134817
873.114	0.0133092
873.193	0.0133831
873.271	0.0134314
873.349	0.0133777
873.427	0.0134151
873.505	0.0137243
873.583	0.0137209
873.661	0.0137715
873.739	0.0135898
873.818	0.0136770
873.896	0.0137561
873.974	0.0138087
874.052	0.0136040
874.130	0.0135771
874.208	0.0136785
874.286	0.0137756
874.364	0.0136324
874.443	0.0136579
874.521	0.0136115
874.599	0.0135358
874.677	0.0135680
874.755	0.0136240
874.833	0.0136462
874.911	0.0134415
874.989	0.0135257
875.068	0.0133804
875.146	0.0134019
875.224	0.0134290
875.302	0.0135436
875.380	0.0135999
875.458	0.0136526
875.536	0.0136303
875.614	0.0137030
875.693	0.0136855
875.771	0.0137325
875.849	0.0137807
875.927	0.0137080
876.005	0.0137184
876.083	0.0138517
876.161	0.0138534
876.239	0.0139102
876.318	0.0137430
876.396	0.0137076
876.474	0.0139333
876.552	0.0139827
876.630	0.0138221
876.708	0.0138249
876.786	0.0140018
876.864	0.0140279
876.943	0.0138657
877.021	0.0137968
877.099	0.0138896
877.177	0.0139240
877.255	0.0139276
877.333	0.0138712
877.411	0.0139940
877.489	0.0137897
877.568	0.0137912
877.646	0.0137801
877.724	0.0136652
877.802	0.0136006
877.880	0.0136245
877.958	0.0135400
878.036	0.0135567
878.114	0.0134498
878.193	0.0134723
878.271	0.0134722
878.349	0.0134617
878.427	0.0133978
878.505	0.0133475
878.583	0.0133864
878.661	0.0133085
878.739	0.0133296
878.818	0.0133769
878.896	0.0134097
878.974	0.0134222
879.052	0.0134047
879.130	0.0134394
879.208	0.0134984
879.286	0.0135226
879.364	0.0134730
879.443	0.0135725
879.521	0.0137277
879.599	0.0135980
879.677	0.0135603
879.755	0.0136871
879.833	0.0136961
879.911	0.0136438
879.989	0.0136985
880.068	0.0136408
880.146	0.0137453
880.224	0.0136416
880.302	0.0135349
880.380	0.0134919
880.458	0.0135831
880.536	0.0134699
880.614	0.0133795
880.693	0.0133225
880.771	0.0134120
880.849	0.0134175
880.927	0.0133895
881.005	0.0133961
881.083	0.0134280
881.161	0.0134241
881.239	0.0133613
881.318	0.0134851
881.396	0.0134941
881.474	0.0134335
881.552	0.0135387
881.630	0.0135360
881.708	0.0135445
881.786	0.0135695
881.864	0.0137350
881.943	0.0138112
882.021	0.0139191
882.099	0.0140932
882.177	0.0138194
882.255	0.0139384
882.333	0.0140018
882.411	0.0139660
882.489	0.0141594
882.568	0.0141169
882.646	0.0141388
882.724	0.0141795
882.802	0.0141380
882.880	0.0140997
882.958	0.0140684
883.036	0.0139165
883.114	0.0138024
883.193	0.0138589
883.271	0.0138843
883.349	0.0137566
883.427	0.0138537
883.505	0.0136730
883.583	0.0134486
883.661	0.0133512
883.739	0.0133827
883.818	0.0131400
883.896	0.0131707
883.974	0.0132584
884.052	0.0129983
884.130	0.0129559
884.208	0.0130571
884.286	0.0130435
884.364	0.0130160
884.443	0.0129398
884.521	0.0129644
884.599	0.0130584
884.677	0.0131912
884.755	0.0130342
884.833	0.0131490
884.911	0.0132906
884.989	0.0134515
885.068	0.0134564
885.146	0.0134592
885.224	0.0136821
885.302	0.0136690
885.380	0.0135573
885.458	0.0136480
885.536	0.0137610
885.614	0.0137962
885.693	0.0137923
885.771	0.0137852
885.849	0.0138890
885.927	0.0137933
886.005	0.0138921
886.083	0.0138377
886.161	0.0139528
886.239	0.0139518
886.318	0.0139379
886.396	0.0139801
886.474	0.0138230
886.552	0.0138409
886.630	0.0139842
886.708	0.0137945
886.786	0.0138618
886.864	0.0137704
886.943	0.0137138
887.021	0.0137953
887.099	0.0136275
887.177	0.0136222
887.255	0.0136367
887.333	0.0137302
887.411	0.0136911
887.489	0.0135842
887.568	0.0133998
887.646	0.0134381
887.724	0.0133944
887.802	0.0135635
887.880	0.0135458
887.958	0.0134619
888.036	0.0135169
888.114	0.0135342
888.193	0.0135378
888.271	0.0135161
888.349	0.0135165
888.427	0.0135821
888.505	0.0135513
888.583	0.0136646
888.661	0.0137008
888.739	0.0135816
888.818	0.0137356
888.896	0.0136499
888.974	0.0137881
889.052	0.0137752
889.130	0.0136931
889.208	0.0137925
889.286	0.0136804
889.364	0.0138020
889.443	0.0138375
889.521	0.0137813
889.599	0.0137745
889.677	0.0136613
889.755	0.0138081
889.833	0.0138079
889.911	0.0136990
889.989	0.0137074
890.068	0.0135615
890.146	0.0136730
890.224	0.0137288
890.302	0.0135923
890.380	0.0136777
890.458	0.0135546
890.536	0.0136018
890.614	0.0134733
890.693	0.0136428
890.771	0.0135551
890.849	0.0136018
890.927	0.0136846
891.005	0.0135976
891.083	0.0136273
891.161	0.0136844
891.239	0.0135930
891.318	0.0137173
891.396	0.0136920
891.474	0.0135925
891.552	0.0136593
891.630	0.0136683
891.708	0.0137750
891.786	0.0136560
891.864	0.0135892
891.943	0.0136414
892.021	0.0137218
892.099	0.0137408
892.177	0.0136768
892.255	0.0137580
892.333	0.0138196
892.411	0.0136852
892.489	0.0137282
892.568	0.0136832
892.646	0.0137345
892.724	0.0136547
892.802	0.0138039
892.880	0.0139655
892.958	0.0137029
893.036	0.0137083
893.114	0.0137104
893.193	0.0137400
893.271	0.0136778
893.349	0.0136141
893.427	0.0136639
893.505	0.0135654
893.583	0.0135078
893.661	0.0133869
893.739	0.0132874
893.818	0.0133564
893.896	0.0135189
893.974	0.0133627
894.052	0.0133667
894.130	0.0134001
894.208	0.0135196
894.286	0.0135797
894.364	0.0135443
894.443	0.0137009
894.521	0.0135432
894.599	0.0136094
894.677	0.0136509
894.755	0.0136235
894.833	0.0136773
894.911	0.0136898
894.989	0.0136116
895.068	0.0137226
895.146	0.0137654
895.224	0.0138143
895.302	0.0137016
895.380	0.0137684
895.458	0.0137687
895.536	0.0137611
895.614	0.0138459
895.693	0.0138245
895.771	0.0137139
895.849	0.0139111
895.927	0.0137856
896.005	0.0136631
896.083	0.0138734
896.161	0.0137491
896.239	0.0135343
896.318	0.0136086
896.396	0.0136234
896.474	0.0137560
896.552	0.0137484
896.630	0.0137590
896.708	0.0137323
896.786	0.0138041
896.864	0.0136591
896.943	0.0137109
897.021	0.0138004
897.099	0.0138067
897.177	0.0138213
897.255	0.0137941
897.333	0.0137672
897.411	0.0138174
897.489	0.0137634
897.568	0.0137424
897.646	0.0138204
897.724	0.0137442
897.802	0.0137442
897.880	0.0137151
897.958	0.0136799
898.036	0.0136908
898.114	0.0137608
898.193	0.0138019
898.271	0.0136743
898.349	0.0136370
898.427	0.0137177
898.505	0.0135216
898.583	0.0136890
898.661	0.0136062
898.739	0.0135057
898.818	0.0135803
898.896	0.0135629
898.974	0.0134879
899.052	0.0134968
899.130	0.0134792
899.208	0.0134825
899.286	0.0134341
899.364	0.0135236
899.443	0.0135415
899.521	0.0136205
899.599	0.0134008
899.677	0.0135582
899.755	0.0136527
899.833	0.0134539
899.911	0.0134470
899.989	0.0134982
900.068	0.0134918
900.146	0.0135345
900.224	0.0134874
900.302	0.0134480
900.380	0.0135112
900.458	0.0132437
900.536	0.0131967
900.614	0.0133260
900.693	0.0134184
900.771	0.0132082
900.849	0.0132594
900.927	0.0133735
901.005	0.0134539
901.083	0.0134930
901.161	0.0135066
901.239	0.0136972
901.318	0.0136647
901.396	0.0137144
901.474	0.0139021
901.552	0.0141040
901.630	0.0140794
901.708	0.0141396
901.786	0.0141414
901.864	0.0142999
901.943	0.0140848
902.021	0.0141759
902.099	0.0141311
902.177	0.0141168
902.255	0.0140874
902.333	0.0140822
902.411	0.0139303
902.489	0.0139544
902.568	0.0137679
902.646	0.0138409
902.724	0.0137445
902.802	0.0136397
902.880	0.0136142
902.958	0.0135580
903.036	0.0136173
903.114	0.0134474
903.193	0.0133883
903.271	0.0132660
903.349	0.0132581
903.427	0.0132956
903.505	0.0134767
903.583	0.0133851
903.661	0.0132112
903.739	0.0133205
903.818	0.0132773
903.896	0.0132239
903.974	0.0131416
904.052	0.0131901
904.130	0.0133356
904.208	0.0133500
904.286	0.0134367
904.364	0.0134434
904.443	0.0134705
904.521	0.0134393
904.599	0.0135404
904.677	0.0134754
904.755	0.0135062
904.833	0.0136285
904.911	0.0135088
904.989	0.0135267
905.068	0.0135784
905.146	0.0135418
905.224	0.0135188
905.302	0.0136040
905.380	0.0135064
905.458	0.0134649
905.536	0.0135480
905.614	0.0137919
905.693	0.0135862
905.771	0.0137316
905.849	0.0136223
905.927	0.0137900
906.005	0.0138240
906.083	0.0137060
906.161	0.0137221
906.239	0.0138401
906.318	0.0138617
906.396	0.0138532
906.474	0.0138541
906.552	0.0137543
906.630	0.0138058
906.708	0.0139228
906.786	0.0138307
906.864	0.0138433
906.943	0.0139048
907.021	0.0139783
907.099	0.0138815
907.177	0.0138613
907.255	0.0139168
907.333	0.0139645
907.411	0.0139320
907.489	0.0136839
907.568	0.0139289
907.646	0.0139474
907.724	0.0139317
907.802	0.0135632
907.880	0.0136526
907.958	0.0137159
908.036	0.0136479
908.114	0.0136535
908.193	0.0136196
908.271	0.0134544
908.349	0.0134953
908.427	0.0135699
908.505	0.0135045
908.583	0.0133665
908.661	0.0133056
908.739	0.0132851
908.818	0.0134940
908.896	0.0134193
908.974	0.0134349
909.052	0.0134028
909.130	0.0134283
909.208	0.0133354
909.286	0.0133143
909.364	0.0132785
909.443	0.0133187
909.521	0.0135865
909.599	0.0135956
909.677	0.0134266
909.755	0.0136194
909.833	0.0138619
909.911	0.0139184
909.989	0.0137675
910.068	0.0136837
910.146	0.0138639
910.224	0.0138522
910.302	0.0139687
910.380	0.0139551
910.458	0.0138795
910.536	0.0139124
910.614	0.0138038
910.693	0.0138343
910.771	0.0138515
910.849	0.0138811
910.927	0.0139285
911.005	0.0138787
911.083	0.0138647
911.161	0.0138229
911.239	0.0138046
911.318	0.0136914
911.396	0.0137932
911.474	0.0138904
911.552	0.0138187
911.630	0.0137342
911.708	0.0137193
911.786	0.0136131
911.864	0.0137376
911.943	0.0136084
912.021	0.0135210
912.099	0.0134487
912.177	0.0136066
912.255	0.0135694
912.333	0.0136313
912.411	0.0136411
912.489	0.0135464
912.568	0.0136651
912.646	0.0137106
912.724	0.0136253
912.802	0.0136429
912.880	0.0138837
912.958	0.0138783
913.036	0.0137703
913.114	0.0138383
913.193	0.0138466
913.271	0.0139127
913.349	0.0137521
913.427	0.0137364
913.505	0.0138566
913.583	0.0139342
913.661	0.0136707
913.739	0.0136938
913.818	0.0139175
913.896	0.0136728
913.974	0.0136297
914.052	0.0136327
914.130	0.0136215
914.208	0.0135703
914.286	0.0137222
914.364	0.0135652
914.443	0.0135744
914.521	0.0135126
914.599	0.0135049
914.677	0.0136214
914.755	0.0136288
914.833	0.0136835
914.911	0.0135695
914.989	0.0136322
915.068	0.0137148
915.146	0.0137545
915.224	0.0137082
915.302	0.0137234
915.380	0.0137643
915.458	0.0138194
915.536	0.0137701
915.614	0.0137480
915.693	0.0138598
915.771	0.0136626
915.849	0.0137717
915.927	0.0137113
916.005	0.0138105
916.083	0.0137214
916.161	0.0137403
916.239	0.0136381
916.318	0.0137391
916.396	0.0136577
916.474	0.0137047
916.552	0.0137319
916.630	0.0135606
916.708	0.0136578
916.786	0.0136137
916.864	0.0134879
916.943	0.0135655
917.021	0.0134513
917.099	0.0133120
917.177	0.0134435
917.255	0.0134993
917.333	0.0134040
917.411	0.0133443
917.489	0.0133112
917.568	0.0132573
917.646	0.0133374
917.724	0.0134087
917.802	0.0133543
917.880	0.0132747
917.958	0.0133641
918.036	0.0133295
918.114	0.0133815
918.193	0.0136111
918.271	0.0135973
918.349	0.0136904
918.427	0.0136530
918.505	0.0137582
918.583	0.0138011
918.661	0.0137889
918.739	0.0138724
918.818	0.0138586
918.896	0.0139198
918.974	0.0139148
919.052	0.0137817
919.130	0.0139247
919.208	0.0138519
919.286	0.0139592
919.364	0.0138313
919.443	0.0138094
919.521	0.0137065
919.599	0.0135926
919.677	0.0137678
919.755	0.0136567
919.833	0.0135583
919.911	0.0135370
919.989	0.0136163
920.068	0.0135604
920.146	0.0136413
920.224	0.0135487
920.302	0.0136811
920.380	0.0135263
920.458	0.0135551
920.536	0.0135865
920.614	0.0135508
920.693	0.0135881
920.771	0.0135485
920.849	0.0135690
920.927	0.0135889
921.005	0.0136221
921.083	0.0136402
921.161	0.0135849
921.239	0.0135830
921.318	0.0135406
921.396	0.0134811
921.474	0.0133552
921.552	0.0136575
921.630	0.0133626
921.708	0.0135683
921.786	0.0135324
921.864	0.0134897
921.943	0.0134926
922.021	0.0134302
922.099	0.0134715
922.177	0.0133656
922.255	0.0134275
922.333	0.0134709
922.411	0.0133335
922.489	0.0133688
922.568	0.0134317
922.646	0.0134052
922.724	0.0134664
922.802	0.0134494
922.880	0.0134691
922.958	0.0135819
923.036	0.0135710
923.114	0.0136295
923.193	0.0136195
923.271	0.0135490
923.349	0.0136025
923.427	0.0136888
923.505	0.0136782
923.583	0.0135661
923.661	0.0137495
923.739	0.0136773
923.818	0.0136581
923.896	0.0136105
923.974	0.0138499
924.052	0.0137383
924.130	0.0136527
924.208	0.0136487
924.286	0.0137580
924.364	0.0137086
924.443	0.0136138
924.521	0.0137207
924.599	0.0137656
924.677	0.0137008
924.755	0.0137975
924.833	0.0134349
924.911	0.0135294
924.989	0.0136789
925.068	0.0136171
925.146	0.0135753
925.224	0.0136647
925.302	0.0135751
925.380	0.0135051
925.458	0.0135629
925.536	0.0136749
925.614	0.0135403
925.693	0.0136486
925.771	0.0134570
925.849	0.0135744
925.927	0.0135899
926.005	0.0136211
926.083	0.0135536
926.161	0.0135325
926.239	0.0134821
926.318	0.0135825
926.396	0.0136089
926.474	0.0137022
926.552	0.0135085
926.630	0.0136027
926.708	0.0135648
926.786	0.0135829
926.864	0.0136124
926.943	0.0135838
927.021	0.0135426
927.099	0.0136697
927.177	0.0137775
927.255	0.0137311
927.333	0.0135358
927.411	0.0135763
927.489	0.0136225
927.568	0.0135933
927.646	0.0134598
927.724	0.0136887
927.802	0.0135115
927.880	0.0134460
927.958	0.0135644
928.036	0.0135590
928.114	0.0136323
928.193	0.0135465
928.271	0.0133983
928.349	0.0135012
928.427	0.0135577
928.505	0.0134866
928.583	0.0133672
928.661	0.0134593
928.739	0.0134583
928.818	0.0135284
928.896	0.0136118
928.974	0.0135325
929.052	0.0135958
929.130	0.0136394
929.208	0.0135494
929.286	0.0135480
929.364	0.0137914
929.443	0.0137457
929.521	0.0137847
929.599	0.0138287
929.677	0.0137825
929.755	0.0138864
929.833	0.0137963
929.911	0.0137603
929.989	0.0136381
930.068	0.0138294
930.146	0.0138152
930.224	0.0137303
930.302	0.0137097
930.380	0.0137033
930.458	0.0138049
930.536	0.0138094
930.614	0.0136277
930.693	0.0136120
930.771	0.0137441
930.849	0.0137125
930.927	0.0136256
931.005	0.0135704
931.083	0.0136771
931.161	0.0137070
931.239	0.0135769
931.318	0.0135677
931.396	0.0135445
931.474	0.0136248
931.552	0.0135759
931.630	0.0135509
931.708	0.0136734
931.786	0.0137010
931.864	0.0137280
931.943	0.0136099
932.021	0.0137122
932.099	0.0136568
932.177	0.0138568
932.255	0.0137468
932.333	0.0137870
932.411	0.0138564
932.489	0.0138537
932.568	0.0137950
932.646	0.0138200
932.724	0.0137041
932.802	0.0136148
932.880	0.0136868
932.958	0.0135633
933.036	0.0136263
933.114	0.0135752
933.193	0.0136652
933.271	0.0135977
933.349	0.0135686
933.427	0.0134843
933.505	0.0134820
933.583	0.0133817
933.661	0.0134618
933.739	0.0135094
933.818	0.0135785
933.896	0.0133884
933.974	0.0134490
934.052	0.0133583
934.130	0.0134285
934.208	0.0133858
934.286	0.0132821
934.364	0.0133598
934.443	0.0134968
934.521	0.0135934
934.599	0.0134150
934.677	0.0133096
934.755	0.0134277
934.833	0.0135536
934.911	0.0135486
934.989	0.0135225
935.068	0.0135899
935.146	0.0136948
935.224	0.0137092
935.302	0.0135805
935.380	0.0136362
935.458	0.0136880
935.536	0.0138338
935.614	0.0137510
935.693	0.0137106
935.771	0.0136550
935.849	0.0137343
935.927	0.0136255
936.005	0.0136684
936.083	0.0135726
936.161	0.0135436
936.239	0.0135743
936.318	0.0136349
936.396	0.0137169
936.474	0.0136186
936.552	0.0137087
936.630	0.0136443
936.708	0.0136682
936.786	0.0136430
936.864	0.0134459
936.943	0.0135601
937.021	0.0135807
937.099	0.0135994
937.177	0.0135587
937.255	0.0136649
937.333	0.0136079
937.411	0.0134125
937.489	0.0136994
937.568	0.0136370
937.646	0.0137135
937.724	0.0138516
937.802	0.0137489
937.880	0.0137273
937.958	0.0138380
938.036	0.0138840
938.114	0.0137876
938.193	0.0137916
938.271	0.0138245
938.349	0.0137981
938.427	0.0139359
938.505	0.0138801
938.583	0.0138384
938.661	0.0137174
938.739	0.0136572
938.818	0.0136301
938.896	0.0136053
938.974	0.0137553
939.052	0.0136987
939.130	0.0136090
939.208	0.0135374
939.286	0.0134319
939.364	0.0135717
939.443	0.0136824
939.521	0.0134066
939.599	0.0133542
939.677	0.0135178
939.755	0.0133875
939.833	0.0134422
939.911	0.0134180
939.989	0.0132851
940.068	0.0132950
940.146	0.0134004
940.224	0.0132701
940.302	0.0133109
940.380	0.0132889
940.458	0.0134218
940.536	0.0134732
940.614	0.0134182
940.693	0.0134266
940.771	0.0134872
940.849	0.0135459
940.927	0.0135711
941.005	0.0135026
941.083	0.0135423
941.161	0.0135565
941.239	0.0137098
941.318	0.0138248
941.396	0.0136403
941.474	0.0137383
941.552	0.0137344
941.630	0.0137813
941.708	0.0136552
941.786	0.0135742
941.864	0.0135700
941.943	0.0136112
942.021	0.0136162
942.099	0.0134891
942.177	0.0135488
942.255	0.0135558
942.333	0.0137118
942.411	0.0136119
942.489	0.0137000
942.568	0.0135995
942.646	0.0136221
942.724	0.0135604
942.802	0.0136350
942.880	0.0135935
942.958	0.0136092
943.036	0.0135369
943.114	0.0136512
943.193	0.0136682
943.271	0.0136918
943.349	0.0136321
943.427	0.0138161
943.505	0.0138477
943.583	0.0137194
943.661	0.0136227
943.739	0.0137546
943.818	0.0137061
943.896	0.0138236
943.974	0.0139268
944.052	0.0138577
944.130	0.0138775
944.208	0.0138669
944.286	0.0138999
944.364	0.0140707
944.443	0.0139571
944.521	0.0139492
944.599	0.0140548
944.677	0.0139053
944.755	0.0139120
944.833	0.0138857
944.911	0.0139762
944.989	0.0138881
945.068	0.0138066
945.146	0.0138712
945.224	0.0138071
945.302	0.0137509
945.380	0.0137577
945.458	0.0137504
945.536	0.0136543
945.614	0.0135867
945.693	0.0135981
945.771	0.0136143
945.849	0.0137714
945.927	0.0137161
946.005	0.0135263
946.083	0.0133318
946.161	0.0135574
946.239	0.0135699
946.318	0.0133405
946.396	0.0134518
946.474	0.0134908
946.552	0.0134850
946.630	0.0136235
946.708	0.0135003
946.786	0.0134300
946.864	0.0135785
946.943	0.0136189
947.021	0.0135081
947.099	0.0134922
947.177	0.0135407
947.255	0.0135429
947.333	0.0135571
947.411	0.0134392
947.489	0.0135654
947.568	0.0135700
947.646	0.0135713
947.724	0.0134885
947.802	0.0135284
947.880	0.0136075
947.958	0.0135057
948.036	0.0135703
948.114	0.0135606
948.193	0.0136580
948.271	0.0134531
948.349	0.0135036
948.427	0.0135217
948.505	0.0134702
948.583	0.0136718
948.661	0.0136475
948.739	0.0136427
948.818	0.0137184
948.896	0.0136018
948.974	0.0136885
949.052	0.0135744
949.130	0.0136785
949.208	0.0137971
949.286	0.0136272
949.364	0.0138077
949.443	0.0136063
949.521	0.0135844
949.599	0.0136053
949.677	0.0135760
949.755	0.0135963
949.833	0.0135957
949.911	0.0136916
949.989	0.0136537
950.068	0.0136635
950.146	0.0137305
950.224	0.0138132
950.302	0.0137234
950.380	0.0137560
950.458	0.0138384
950.536	0.0137680
950.614	0.0138010
950.693	0.0139394
950.771	0.0138099
950.849	0.0137673
950.927	0.0137516
951.005	0.0135935
951.083	0.0137230
951.161	0.0137343
951.239	0.0136613
951.318	0.0136546
951.396	0.0134983
951.474	0.0135335
951.552	0.0134167
951.630	0.0134862
951.708	0.0135202
951.786	0.0134155
951.864	0.0135108
951.943	0.0134656
952.021	0.0134875
952.099	0.0132438
952.177	0.0133473
952.255	0.0134137
952.333	0.0133974
952.411	0.0133644
952.489	0.0133662
952.568	0.0134306
952.646	0.0134722
952.724	0.0134090
952.802	0.0134685
952.880	0.0134537
952.958	0.0136008
953.036	0.0135950
953.114	0.0134458
953.193	0.0135659
953.271	0.0134000
953.349	0.0134939
953.427	0.0136246
953.505	0.0135666
953.583	0.0135661
953.661	0.0136520
953.739	0.0137288
953.818	0.0138457
953.896	0.0137704
953.974	0.0138673
954.052	0.0138174
954.130	0.0138033
954.208	0.0137496
954.286	0.0138084
954.364	0.0138225
954.443	0.0136182
954.521	0.0137678
954.599	0.0138065
954.677	0.0137484
954.755	0.0136695
954.833	0.0136968
954.911	0.0136192
954.989	0.0136933
955.068	0.0137091
955.146	0.0136879
955.224	0.0136956
955.302	0.0135285
955.380	0.0136688
955.458	0.0136493
955.536	0.0136456
955.614	0.0136573
955.693	0.0134747
955.771	0.0135908
955.849	0.0135441
955.927	0.0136572
956.005	0.0136864
956.083	0.0136415
956.161	0.0136623
956.239	0.0134897
956.318	0.0134598
956.396	0.0135698
956.474	0.0136137
956.552	0.0135376
956.630	0.0134827
956.708	0.0134216
956.786	0.0135139
956.864	0.0133793
956.943	0.0132326
957.021	0.0133882
957.099	0.0134378
957.177	0.0133588
957.255	0.0132877
957.333	0.0133610
957.411	0.0133195
957.489	0.0132132
957.568	0.0133105
957.646	0.0132858
957.724	0.0131837
957.802	0.0132845
957.880	0.0133440
957.958	0.0132512
958.036	0.0134586
958.114	0.0134435
958.193	0.0134116
958.271	0.0133969
958.349	0.0133907
958.427	0.0134840
958.505	0.0135736
958.583	0.0135590
958.661	0.0137299
958.739	0.0136752
958.818	0.0136542
958.896	0.0136540
958.974	0.0136524
959.052	0.0136225
959.130	0.0136876
959.208	0.0137183
959.286	0.0137603
959.364	0.0137429
959.443	0.0137461
959.521	0.0137967
959.599	0.0137909
959.677	0.0138174
959.755	0.0138863
959.833	0.0139162
959.911	0.0138109
