05/14/2022	16:17:10	Ver.	4.1	UNKNOWN
Optical Delay	639.989416	Delta X		0.078125	Sweeps	1	Scan Rate	0/0
Coordinates	Axis 1	NaN	Axis 2	NaN	Axis 3	NaN	Axis 4	NaN	Axis 5	NaN	Axis 6	0.000000
TX Power	0.000000	RX Power	0.000000

639.989	0.0135526
640.068	0.0136499
640.146	0.0135568
640.224	0.0135672
640.302	0.0136166
640.380	0.0135449
640.458	0.0134764
640.536	0.0135088
640.614	0.0136166
640.693	0.0136105
640.771	0.0135912
640.849	0.0135200
640.927	0.0135827
641.005	0.0135773
641.083	0.0134917
641.161	0.0135052
641.239	0.0135098
641.318	0.0134976
641.396	0.0136052
641.474	0.0135394
641.552	0.0134997
641.630	0.0135262
641.708	0.0135018
641.786	0.0136269
641.864	0.0135168
641.943	0.0135914
642.021	0.0135581
642.099	0.0135337
642.177	0.0135948
642.255	0.0136213
642.333	0.0134113
642.411	0.0136041
642.489	0.0135447
642.568	0.0136175
642.646	0.0134882
642.724	0.0135995
642.802	0.0134571
642.880	0.0135871
642.958	0.0134921
643.036	0.0135453
643.114	0.0135952
643.193	0.0136244
643.271	0.0135320
643.349	0.0136200
643.427	0.0135905
643.505	0.0136333
643.583	0.0135959
643.661	0.0136025
643.739	0.0136653
643.818	0.0134668
643.896	0.0135605
643.974	0.0135922
644.052	0.0136501
644.130	0.0135909
644.208	0.0135085
644.286	0.0135271
644.364	0.0136985
644.443	0.0136114
644.521	0.0136662
644.599	0.0134681
644.677	0.0134895
644.755	0.0134554
644.833	0.0136561
644.911	0.0135841
644.989	0.0135518
645.068	0.0135587
645.146	0.0135172
645.224	0.0134622
645.302	0.0137253
645.380	0.0136027
645.458	0.0134705
645.536	0.0136225
645.614	0.0136605
645.693	0.0136372
645.771	0.0136580
645.849	0.0135918
645.927	0.0135924
646.005	0.0134957
646.083	0.0136314
646.161	0.0135587
646.239	0.0136124
646.318	0.0134888
646.396	0.0134278
646.474	0.0134903
646.552	0.0135705
646.630	0.0135810
646.708	0.0135719
646.786	0.0134144
646.864	0.0136348
646.943	0.0135384
647.021	0.0134602
647.099	0.0136143
647.177	0.0135239
647.255	0.0136038
647.333	0.0134760
647.411	0.0135107
647.489	0.0135115
647.568	0.0136146
647.646	0.0135004
647.724	0.0135919
647.802	0.0135588
647.880	0.0134877
647.958	0.0134629
648.036	0.0136034
648.114	0.0135498
648.193	0.0135584
648.271	0.0135761
648.349	0.0135669
648.427	0.0136118
648.505	0.0137320
648.583	0.0135325
648.661	0.0137457
648.739	0.0136263
648.818	0.0134438
648.896	0.0135531
648.974	0.0135761
649.052	0.0135127
649.130	0.0135513
649.208	0.0135270
649.286	0.0134789
649.364	0.0134787
649.443	0.0135094
649.521	0.0134755
649.599	0.0135670
649.677	0.0135264
649.755	0.0135207
649.833	0.0134769
649.911	0.0134637
649.989	0.0134588
650.068	0.0135920
650.146	0.0135484
650.224	0.0135519
650.302	0.0133694
650.380	0.0134774
650.458	0.0134169
650.536	0.0133955
650.614	0.0134180
650.693	0.0135445
650.771	0.0134697
650.849	0.0136108
650.927	0.0135554
651.005	0.0136082
651.083	0.0135488
651.161	0.0134818
651.239	0.0136202
651.318	0.0135008
651.396	0.0136295
651.474	0.0134836
651.552	0.0134716
651.630	0.0134713
651.708	0.0134785
651.786	0.0135173
651.864	0.0136018
651.943	0.0135580
652.021	0.0134339
652.099	0.0134853
652.177	0.0134734
652.255	0.0134969
652.333	0.0135838
652.411	0.0134960
652.489	0.0135528
652.568	0.0135079
652.646	0.0133340
652.724	0.0134547
652.802	0.0136578
652.880	0.0134872
652.958	0.0134247
653.036	0.0135223
653.114	0.0135735
653.193	0.0136505
653.271	0.0137461
653.349	0.0135112
653.427	0.0135876
653.505	0.0134644
653.583	0.0134884
653.661	0.0134375
653.739	0.0135238
653.818	0.0135268
653.896	0.0135213
653.974	0.0135880
654.052	0.0136675
654.130	0.0135461
654.208	0.0136020
654.286	0.0135664
654.364	0.0135603
654.443	0.0135457
654.521	0.0136742
654.599	0.0136800
654.677	0.0135707
654.755	0.0136519
654.833	0.0136109
654.911	0.0135266
654.989	0.0134474
655.068	0.0135149
655.146	0.0135745
655.224	0.0134821
655.302	0.0134535
655.380	0.0135400
655.458	0.0135567
655.536	0.0135088
655.614	0.0134060
655.693	0.0136223
655.771	0.0134801
655.849	0.0134027
655.927	0.0134998
656.005	0.0135198
656.083	0.0134697
656.161	0.0135416
656.239	0.0134773
656.318	0.0135805
656.396	0.0134631
656.474	0.0134471
656.552	0.0134590
656.630	0.0135809
656.708	0.0135352
656.786	0.0136117
656.864	0.0135761
656.943	0.0135700
657.021	0.0134344
657.099	0.0135138
657.177	0.0135748
657.255	0.0135751
657.333	0.0136975
657.411	0.0135365
657.489	0.0135100
657.568	0.0135065
657.646	0.0136352
657.724	0.0136190
657.802	0.0136623
657.880	0.0134692
657.958	0.0135447
658.036	0.0135267
658.114	0.0136117
658.193	0.0135068
658.271	0.0135374
658.349	0.0136694
658.427	0.0135210
658.505	0.0136123
658.583	0.0136224
658.661	0.0136687
658.739	0.0134868
658.818	0.0136333
658.896	0.0136334
658.974	0.0136712
659.052	0.0135363
659.130	0.0135702
659.208	0.0135987
659.286	0.0135566
659.364	0.0134606
659.443	0.0135633
659.521	0.0136095
659.599	0.0136646
659.677	0.0137424
659.755	0.0136476
659.833	0.0136069
659.911	0.0134875
659.989	0.0136819
660.068	0.0135811
660.146	0.0134636
660.224	0.0135291
660.302	0.0136023
660.380	0.0136169
660.458	0.0135395
660.536	0.0133964
660.614	0.0134845
660.693	0.0135977
660.771	0.0135631
660.849	0.0135435
660.927	0.0135715
661.005	0.0134144
661.083	0.0134840
661.161	0.0135162
661.239	0.0135152
661.318	0.0135874
661.396	0.0135897
661.474	0.0135683
661.552	0.0135805
661.630	0.0134704
661.708	0.0135899
661.786	0.0134974
661.864	0.0135166
661.943	0.0134851
662.021	0.0134650
662.099	0.0135403
662.177	0.0136109
662.255	0.0135992
662.333	0.0135384
662.411	0.0135002
662.489	0.0134305
662.568	0.0134677
662.646	0.0132676
662.724	0.0133682
662.802	0.0135559
662.880	0.0135979
662.958	0.0134955
663.036	0.0134599
663.114	0.0134375
663.193	0.0134827
663.271	0.0135835
663.349	0.0136224
663.427	0.0135286
663.505	0.0135735
663.583	0.0136448
663.661	0.0135278
663.739	0.0135168
663.818	0.0135258
663.896	0.0134540
663.974	0.0133996
664.052	0.0134299
664.130	0.0135481
664.208	0.0135708
664.286	0.0136449
664.364	0.0134501
664.443	0.0136491
664.521	0.0134447
664.599	0.0134750
664.677	0.0135384
664.755	0.0135963
664.833	0.0135223
664.911	0.0133620
664.989	0.0135578
665.068	0.0136252
665.146	0.0135004
665.224	0.0134865
665.302	0.0136156
665.380	0.0134187
665.458	0.0135701
665.536	0.0136197
665.614	0.0135293
665.693	0.0134970
665.771	0.0134760
665.849	0.0135995
665.927	0.0135455
666.005	0.0135770
666.083	0.0135781
666.161	0.0135754
666.239	0.0137344
666.318	0.0135442
666.396	0.0135446
666.474	0.0136413
666.552	0.0135640
666.630	0.0134792
666.708	0.0135298
666.786	0.0135922
666.864	0.0136143
666.943	0.0135098
667.021	0.0134739
667.099	0.0134888
667.177	0.0135427
667.255	0.0137254
667.333	0.0137190
667.411	0.0134884
667.489	0.0135255
667.568	0.0135535
667.646	0.0135873
667.724	0.0136054
667.802	0.0136604
667.880	0.0136034
667.958	0.0135495
668.036	0.0135408
668.114	0.0135223
668.193	0.0136190
668.271	0.0135856
668.349	0.0134692
668.427	0.0135683
668.505	0.0135612
668.583	0.0136588
668.661	0.0134957
668.739	0.0135096
668.818	0.0135778
668.896	0.0136893
668.974	0.0135634
669.052	0.0135025
669.130	0.0136344
669.208	0.0135748
669.286	0.0134502
669.364	0.0134995
669.443	0.0135028
669.521	0.0134675
669.599	0.0136320
669.677	0.0136391
669.755	0.0136931
669.833	0.0135618
669.911	0.0135462
669.989	0.0134491
670.068	0.0135091
670.146	0.0133846
670.224	0.0135257
670.302	0.0135494
670.380	0.0134523
670.458	0.0134506
670.536	0.0133702
670.614	0.0135703
670.693	0.0135149
670.771	0.0134998
670.849	0.0136242
670.927	0.0134774
671.005	0.0134217
671.083	0.0135254
671.161	0.0135935
671.239	0.0134621
671.318	0.0135976
671.396	0.0135678
671.474	0.0136487
671.552	0.0135869
671.630	0.0134367
671.708	0.0135725
671.786	0.0135790
671.864	0.0134296
671.943	0.0135126
672.021	0.0135892
672.099	0.0136215
672.177	0.0135986
672.255	0.0135170
672.333	0.0135217
672.411	0.0136034
672.489	0.0136008
672.568	0.0134631
672.646	0.0134077
672.724	0.0136056
672.802	0.0135809
672.880	0.0135409
672.958	0.0134202
673.036	0.0135229
673.114	0.0136338
673.193	0.0134587
673.271	0.0135815
673.349	0.0134380
673.427	0.0135224
673.505	0.0133472
673.583	0.0134729
673.661	0.0134322
673.739	0.0135641
673.818	0.0134418
673.896	0.0134699
673.974	0.0135179
674.052	0.0135096
674.130	0.0135804
674.208	0.0134958
674.286	0.0133225
674.364	0.0135667
674.443	0.0133751
674.521	0.0134558
674.599	0.0135156
674.677	0.0133519
674.755	0.0133979
674.833	0.0136393
674.911	0.0134732
674.989	0.0134882
675.068	0.0134992
675.146	0.0134371
675.224	0.0135337
675.302	0.0135350
675.380	0.0134804
675.458	0.0135298
675.536	0.0133395
675.614	0.0134914
675.693	0.0135532
675.771	0.0135117
675.849	0.0134063
675.927	0.0134525
676.005	0.0135181
676.083	0.0133856
676.161	0.0134462
676.239	0.0135740
676.318	0.0135268
676.396	0.0134451
676.474	0.0134578
676.552	0.0135631
676.630	0.0135501
676.708	0.0135340
676.786	0.0134770
676.864	0.0135474
676.943	0.0135633
677.021	0.0134189
677.099	0.0134824
677.177	0.0134961
677.255	0.0134596
677.333	0.0135637
677.411	0.0135987
677.489	0.0134476
677.568	0.0133947
677.646	0.0135841
677.724	0.0135217
677.802	0.0134993
677.880	0.0136020
677.958	0.0136143
678.036	0.0135616
678.114	0.0135364
678.193	0.0134447
678.271	0.0135726
678.349	0.0136562
678.427	0.0135915
678.505	0.0134168
678.583	0.0135708
678.661	0.0135764
678.739	0.0136084
678.818	0.0135945
678.896	0.0135302
678.974	0.0135819
679.052	0.0134339
679.130	0.0135592
679.208	0.0135776
679.286	0.0135786
679.364	0.0134916
679.443	0.0136460
679.521	0.0135897
679.599	0.0135558
679.677	0.0135939
679.755	0.0135749
679.833	0.0135750
679.911	0.0134890
679.989	0.0134843
680.068	0.0134474
680.146	0.0136366
680.224	0.0136364
680.302	0.0135367
680.380	0.0134892
680.458	0.0135648
680.536	0.0136591
680.614	0.0134267
680.693	0.0135925
680.771	0.0135794
680.849	0.0135870
680.927	0.0136639
681.005	0.0136044
681.083	0.0136923
681.161	0.0135558
681.239	0.0135272
681.318	0.0135454
681.396	0.0137131
681.474	0.0136810
681.552	0.0135493
681.630	0.0135959
681.708	0.0135733
681.786	0.0135575
681.864	0.0135608
681.943	0.0135894
682.021	0.0135150
682.099	0.0136353
682.177	0.0135550
682.255	0.0134558
682.333	0.0135334
682.411	0.0135488
682.489	0.0134335
682.568	0.0135564
682.646	0.0135703
682.724	0.0136267
682.802	0.0136565
682.880	0.0136024
682.958	0.0135690
683.036	0.0134305
683.114	0.0134797
683.193	0.0136301
683.271	0.0134846
683.349	0.0136111
683.427	0.0135178
683.505	0.0135593
683.583	0.0135661
683.661	0.0135778
683.739	0.0134458
683.818	0.0135239
683.896	0.0135279
683.974	0.0136567
684.052	0.0135345
684.130	0.0135986
684.208	0.0134586
684.286	0.0134541
684.364	0.0135075
684.443	0.0134669
684.521	0.0135702
684.599	0.0135092
684.677	0.0136488
684.755	0.0135493
684.833	0.0136335
684.911	0.0135670
684.989	0.0135318
685.068	0.0134292
685.146	0.0135020
685.224	0.0135038
685.302	0.0135594
685.380	0.0136375
685.458	0.0134147
685.536	0.0134271
685.614	0.0134923
685.693	0.0136124
685.771	0.0134988
685.849	0.0134725
685.927	0.0133762
686.005	0.0135439
686.083	0.0136710
686.161	0.0135406
686.239	0.0135327
686.318	0.0133474
686.396	0.0134985
686.474	0.0134612
686.552	0.0135052
686.630	0.0134236
686.708	0.0136015
686.786	0.0135851
686.864	0.0134538
686.943	0.0136145
687.021	0.0137257
687.099	0.0134598
687.177	0.0133952
687.255	0.0135217
687.333	0.0135402
687.411	0.0135234
687.489	0.0135790
687.568	0.0136307
687.646	0.0135777
687.724	0.0134809
687.802	0.0135725
687.880	0.0135133
687.958	0.0134806
688.036	0.0135943
688.114	0.0134629
688.193	0.0133712
688.271	0.0135564
688.349	0.0135091
688.427	0.0135834
688.505	0.0135863
688.583	0.0134641
688.661	0.0134406
688.739	0.0135072
688.818	0.0135316
688.896	0.0136175
688.974	0.0134716
689.052	0.0135036
689.130	0.0136089
689.208	0.0135355
689.286	0.0133817
689.364	0.0136335
689.443	0.0136372
689.521	0.0137054
689.599	0.0135445
689.677	0.0135738
689.755	0.0135857
689.833	0.0134103
689.911	0.0135352
689.989	0.0136092
690.068	0.0135542
690.146	0.0135350
690.224	0.0134539
690.302	0.0135310
690.380	0.0134985
690.458	0.0135820
690.536	0.0136642
690.614	0.0135674
690.693	0.0134802
690.771	0.0135252
690.849	0.0136035
690.927	0.0135834
691.005	0.0136256
691.083	0.0135307
691.161	0.0136313
691.239	0.0135310
691.318	0.0135511
691.396	0.0136216
691.474	0.0135328
691.552	0.0134183
691.630	0.0133060
691.708	0.0134487
691.786	0.0133274
691.864	0.0134206
691.943	0.0134152
692.021	0.0134697
692.099	0.0136087
692.177	0.0137012
692.255	0.0136069
692.333	0.0136537
692.411	0.0139300
692.489	0.0139029
692.568	0.0138095
692.646	0.0139120
692.724	0.0139504
692.802	0.0138387
692.880	0.0136938
692.958	0.0136740
693.036	0.0135564
693.114	0.0133859
693.193	0.0131621
693.271	0.0132473
693.349	0.0132567
693.427	0.0130335
693.505	0.0130716
693.583	0.0132195
693.661	0.0133306
693.739	0.0133110
693.818	0.0134463
693.896	0.0133536
693.974	0.0135046
694.052	0.0136285
694.130	0.0136665
694.208	0.0137865
694.286	0.0138882
694.364	0.0140097
694.443	0.0139516
694.521	0.0140486
694.599	0.0139700
694.677	0.0140508
694.755	0.0138241
694.833	0.0137571
694.911	0.0138394
694.989	0.0136201
695.068	0.0136284
695.146	0.0135085
695.224	0.0133380
695.302	0.0134083
695.380	0.0132465
695.458	0.0131993
695.536	0.0132171
695.614	0.0131087
695.693	0.0130695
695.771	0.0131568
695.849	0.0132948
695.927	0.0132438
696.005	0.0133714
696.083	0.0132934
696.161	0.0133898
696.239	0.0134348
696.318	0.0135419
696.396	0.0135484
696.474	0.0135252
696.552	0.0134740
696.630	0.0136578
696.708	0.0136311
696.786	0.0135736
696.864	0.0135571
696.943	0.0137093
697.021	0.0136634
697.099	0.0137541
697.177	0.0138577
697.255	0.0137396
697.333	0.0138798
697.411	0.0138676
697.489	0.0138163
697.568	0.0137624
697.646	0.0136986
697.724	0.0137828
697.802	0.0137209
697.880	0.0135628
697.958	0.0134786
698.036	0.0136414
698.114	0.0135329
698.193	0.0135403
698.271	0.0135650
698.349	0.0135545
698.427	0.0135921
698.505	0.0134444
698.583	0.0134550
698.661	0.0135323
698.739	0.0134157
698.818	0.0132216
698.896	0.0133806
698.974	0.0134461
699.052	0.0133742
699.130	0.0133624
699.208	0.0132185
699.286	0.0133241
699.364	0.0133121
699.443	0.0132259
699.521	0.0132182
699.599	0.0132446
699.677	0.0132338
699.755	0.0131775
699.833	0.0132180
699.911	0.0132388
699.989	0.0132661
700.068	0.0132198
700.146	0.0133291
700.224	0.0133846
700.302	0.0134605
700.380	0.0136001
700.458	0.0136413
700.536	0.0138063
700.614	0.0139105
700.693	0.0140931
700.771	0.0139985
700.849	0.0140661
700.927	0.0142706
701.005	0.0141702
701.083	0.0142722
701.161	0.0141345
701.239	0.0142825
701.318	0.0142059
701.396	0.0141593
701.474	0.0141369
701.552	0.0140970
701.630	0.0138612
701.708	0.0138982
701.786	0.0135099
701.864	0.0135577
701.943	0.0134573
702.021	0.0132809
702.099	0.0133033
702.177	0.0131122
702.255	0.0131120
702.333	0.0128819
702.411	0.0128268
702.489	0.0130060
702.568	0.0129852
702.646	0.0129547
702.724	0.0127914
702.802	0.0129652
702.880	0.0129456
702.958	0.0129181
703.036	0.0128445
703.114	0.0128645
703.193	0.0130037
703.271	0.0130009
703.349	0.0129167
703.427	0.0130327
703.505	0.0133356
703.583	0.0133157
703.661	0.0134605
703.739	0.0135313
703.818	0.0136079
703.896	0.0136937
703.974	0.0138531
704.052	0.0138368
704.130	0.0139634
704.208	0.0141154
704.286	0.0142038
704.364	0.0141565
704.443	0.0142828
704.521	0.0143938
704.599	0.0142999
704.677	0.0143903
704.755	0.0142288
704.833	0.0141237
704.911	0.0140791
704.989	0.0141792
705.068	0.0139195
705.146	0.0139383
705.224	0.0139731
705.302	0.0139278
705.380	0.0139246
705.458	0.0137939
705.536	0.0135255
705.614	0.0134581
705.693	0.0136033
705.771	0.0133266
705.849	0.0133884
705.927	0.0133739
706.005	0.0133795
706.083	0.0131644
706.161	0.0131176
706.239	0.0131473
706.318	0.0130363
706.396	0.0128836
706.474	0.0130022
706.552	0.0128716
706.630	0.0128506
706.708	0.0129209
706.786	0.0129724
706.864	0.0130298
706.943	0.0129803
707.021	0.0131635
707.099	0.0131628
707.177	0.0132536
707.255	0.0132874
707.333	0.0134170
707.411	0.0135265
707.489	0.0136343
707.568	0.0136681
707.646	0.0136200
707.724	0.0138200
707.802	0.0138784
707.880	0.0137949
707.958	0.0139102
708.036	0.0138709
708.114	0.0138330
708.193	0.0139036
708.271	0.0138515
708.349	0.0138078
708.427	0.0139695
708.505	0.0139219
708.583	0.0138555
708.661	0.0139319
708.739	0.0139873
708.818	0.0139478
708.896	0.0138232
708.974	0.0140199
709.052	0.0141048
709.130	0.0139780
709.208	0.0141620
709.286	0.0141126
709.364	0.0141235
709.443	0.0141288
709.521	0.0140987
709.599	0.0142648
709.677	0.0141714
709.755	0.0139371
709.833	0.0139175
709.911	0.0138583
709.989	0.0136565
710.068	0.0137116
710.146	0.0135363
710.224	0.0134209
710.302	0.0132827
710.380	0.0130627
710.458	0.0129752
710.536	0.0128323
710.614	0.0128417
710.693	0.0126702
710.771	0.0128661
710.849	0.0128147
710.927	0.0127284
711.005	0.0126652
711.083	0.0127227
711.161	0.0127776
711.239	0.0128485
711.318	0.0128770
711.396	0.0130369
711.474	0.0130251
711.552	0.0133212
711.630	0.0133231
711.708	0.0134666
711.786	0.0135032
711.864	0.0135843
711.943	0.0137923
712.021	0.0135831
712.099	0.0135934
712.177	0.0135667
712.255	0.0135246
712.333	0.0135104
712.411	0.0135477
712.489	0.0135616
712.568	0.0134013
712.646	0.0135677
712.724	0.0135197
712.802	0.0134578
712.880	0.0135992
712.958	0.0135614
713.036	0.0136169
713.114	0.0137206
713.193	0.0138733
713.271	0.0140388
713.349	0.0142271
713.427	0.0142258
713.505	0.0142152
713.583	0.0142966
713.661	0.0143439
713.739	0.0144304
713.818	0.0144885
713.896	0.0144463
713.974	0.0145605
714.052	0.0144402
714.130	0.0144392
714.208	0.0141087
714.286	0.0140380
714.364	0.0138774
714.443	0.0137358
714.521	0.0134098
714.599	0.0133414
714.677	0.0131495
714.755	0.0130231
714.833	0.0128323
714.911	0.0128128
714.989	0.0126881
715.068	0.0125674
715.146	0.0126878
715.224	0.0125838
715.302	0.0127119
715.380	0.0127150
715.458	0.0127144
715.536	0.0128458
715.614	0.0129218
715.693	0.0132626
715.771	0.0132832
715.849	0.0132544
715.927	0.0134137
716.005	0.0134610
716.083	0.0135065
716.161	0.0136237
716.239	0.0136430
716.318	0.0137279
716.396	0.0137579
716.474	0.0135989
716.552	0.0137549
716.630	0.0138637
716.708	0.0137823
716.786	0.0136600
716.864	0.0137537
716.943	0.0136119
717.021	0.0136407
717.099	0.0135783
717.177	0.0134789
717.255	0.0135249
717.333	0.0134988
717.411	0.0135575
717.489	0.0134351
717.568	0.0134768
717.646	0.0137369
717.724	0.0138023
717.802	0.0137867
717.880	0.0138483
717.958	0.0138770
718.036	0.0140500
718.114	0.0141402
718.193	0.0141437
718.271	0.0142155
718.349	0.0140923
718.427	0.0140661
718.505	0.0141261
718.583	0.0141473
718.661	0.0142313
718.739	0.0140073
718.818	0.0139572
718.896	0.0139109
718.974	0.0137245
719.052	0.0136922
719.130	0.0135607
719.208	0.0134807
719.286	0.0133403
719.364	0.0132738
719.443	0.0131705
719.521	0.0132290
719.599	0.0130876
719.677	0.0130120
719.755	0.0129755
719.833	0.0130500
719.911	0.0131732
719.989	0.0131664
720.068	0.0131573
720.146	0.0131867
720.224	0.0131210
720.302	0.0131938
720.380	0.0131594
720.458	0.0132162
720.536	0.0132268
720.614	0.0131741
720.693	0.0133281
720.771	0.0132790
720.849	0.0132108
720.927	0.0131914
721.005	0.0133102
721.083	0.0134161
721.161	0.0132680
721.239	0.0133655
721.318	0.0132864
721.396	0.0133144
721.474	0.0132229
721.552	0.0133104
721.630	0.0135154
721.708	0.0134672
721.786	0.0135732
721.864	0.0134980
721.943	0.0134953
722.021	0.0135998
722.099	0.0137645
722.177	0.0137074
722.255	0.0138208
722.333	0.0137175
722.411	0.0137931
722.489	0.0139129
722.568	0.0138496
722.646	0.0139354
722.724	0.0138240
722.802	0.0138853
722.880	0.0138715
722.958	0.0138853
723.036	0.0138597
723.114	0.0138399
723.193	0.0138403
723.271	0.0138992
723.349	0.0139388
723.427	0.0139099
723.505	0.0138001
723.583	0.0137581
723.661	0.0136598
723.739	0.0136987
723.818	0.0136181
723.896	0.0136675
723.974	0.0135365
724.052	0.0135478
724.130	0.0135703
724.208	0.0134110
724.286	0.0134554
724.364	0.0135255
724.443	0.0134374
724.521	0.0134912
724.599	0.0133578
724.677	0.0133861
724.755	0.0133868
724.833	0.0134088
724.911	0.0134376
724.989	0.0133997
725.068	0.0134383
725.146	0.0133665
725.224	0.0134629
725.302	0.0133504
725.380	0.0134653
725.458	0.0133250
725.536	0.0134439
725.614	0.0134199
725.693	0.0133014
725.771	0.0131810
725.849	0.0131360
725.927	0.0131431
726.005	0.0130956
726.083	0.0129790
726.161	0.0132953
726.239	0.0132841
726.318	0.0130912
726.396	0.0131274
726.474	0.0132092
726.552	0.0133470
726.630	0.0133010
726.708	0.0132722
726.786	0.0133109
726.864	0.0134457
726.943	0.0134282
727.021	0.0134934
727.099	0.0136375
727.177	0.0136418
727.255	0.0135711
727.333	0.0136600
727.411	0.0135385
727.489	0.0136202
727.568	0.0135838
727.646	0.0137354
727.724	0.0138280
727.802	0.0137981
727.880	0.0137608
727.958	0.0137149
728.036	0.0137347
728.114	0.0136541
728.193	0.0135550
728.271	0.0137221
728.349	0.0136411
728.427	0.0135537
728.505	0.0137305
728.583	0.0137045
728.661	0.0134869
728.739	0.0136212
728.818	0.0137981
728.896	0.0136993
728.974	0.0136386
729.052	0.0136216
729.130	0.0136245
729.208	0.0137474
729.286	0.0137474
729.364	0.0136646
729.443	0.0136274
729.521	0.0136684
729.599	0.0135583
729.677	0.0137212
729.755	0.0135453
729.833	0.0134691
729.911	0.0135708
729.989	0.0134856
730.068	0.0136059
730.146	0.0136388
730.224	0.0135797
730.302	0.0136593
730.380	0.0134592
730.458	0.0134740
730.536	0.0135387
730.614	0.0134995
730.693	0.0134988
730.771	0.0132620
730.849	0.0133125
730.927	0.0134566
731.005	0.0133904
731.083	0.0132941
731.161	0.0133275
731.239	0.0132562
731.318	0.0133772
731.396	0.0134737
731.474	0.0133782
731.552	0.0133965
731.630	0.0134002
731.708	0.0133589
731.786	0.0134335
731.864	0.0134061
731.943	0.0135947
732.021	0.0135885
732.099	0.0134827
732.177	0.0136144
732.255	0.0137450
732.333	0.0136925
732.411	0.0136768
732.489	0.0136121
732.568	0.0136964
732.646	0.0138430
732.724	0.0136773
732.802	0.0136216
732.880	0.0135944
732.958	0.0134780
733.036	0.0134530
733.114	0.0135023
733.193	0.0134544
733.271	0.0134734
733.349	0.0134505
733.427	0.0133076
733.505	0.0133932
733.583	0.0133888
733.661	0.0133005
733.739	0.0135165
733.818	0.0133550
733.896	0.0134283
733.974	0.0135038
734.052	0.0136674
734.130	0.0135522
734.208	0.0135053
734.286	0.0138012
734.364	0.0136887
734.443	0.0138075
734.521	0.0137898
734.599	0.0138725
734.677	0.0138535
734.755	0.0137725
734.833	0.0138043
734.911	0.0137556
734.989	0.0138346
735.068	0.0136697
735.146	0.0135529
735.224	0.0136337
735.302	0.0135616
735.380	0.0135436
735.458	0.0135077
735.536	0.0135235
735.614	0.0134592
735.693	0.0134344
735.771	0.0134583
735.849	0.0135446
735.927	0.0135013
736.005	0.0134562
736.083	0.0133984
736.161	0.0133933
736.239	0.0133672
736.318	0.0135390
736.396	0.0135679
736.474	0.0134318
736.552	0.0135259
736.630	0.0134136
736.708	0.0135944
736.786	0.0136479
736.864	0.0135761
736.943	0.0135744
737.021	0.0136158
737.099	0.0135702
737.177	0.0137281
737.255	0.0135402
737.333	0.0133977
737.411	0.0136592
737.489	0.0135356
737.568	0.0134757
737.646	0.0134771
737.724	0.0134592
737.802	0.0135754
737.880	0.0134896
737.958	0.0133396
738.036	0.0133279
738.114	0.0133916
738.193	0.0133392
738.271	0.0133804
738.349	0.0133744
738.427	0.0133375
738.505	0.0132935
738.583	0.0132800
738.661	0.0132478
738.739	0.0133530
738.818	0.0135233
738.896	0.0134505
738.974	0.0135018
739.052	0.0135882
739.130	0.0134915
739.208	0.0136629
739.286	0.0136712
739.364	0.0134906
739.443	0.0136258
739.521	0.0135129
739.599	0.0134312
739.677	0.0134956
739.755	0.0134912
739.833	0.0135406
739.911	0.0135579
739.989	0.0135175
740.068	0.0136594
740.146	0.0135802
740.224	0.0135921
740.302	0.0135906
740.380	0.0136331
740.458	0.0135775
740.536	0.0134755
740.614	0.0136322
740.693	0.0135774
740.771	0.0136340
740.849	0.0135154
740.927	0.0134876
741.005	0.0135939
741.083	0.0134631
741.161	0.0134719
741.239	0.0135374
741.318	0.0136027
741.396	0.0135020
741.474	0.0135928
741.552	0.0134110
741.630	0.0134426
741.708	0.0136340
741.786	0.0134359
741.864	0.0134728
741.943	0.0136313
742.021	0.0135226
742.099	0.0136174
742.177	0.0137762
742.255	0.0138250
742.333	0.0135220
742.411	0.0136384
742.489	0.0135662
742.568	0.0135410
742.646	0.0135516
742.724	0.0136963
742.802	0.0134734
742.880	0.0134940
742.958	0.0137011
743.036	0.0134599
743.114	0.0135157
743.193	0.0135498
743.271	0.0135487
743.349	0.0135367
743.427	0.0134155
743.505	0.0134116
743.583	0.0134033
743.661	0.0134648
743.739	0.0135612
743.818	0.0135060
743.896	0.0133366
743.974	0.0133975
744.052	0.0136659
744.130	0.0136002
744.208	0.0135070
744.286	0.0136464
744.364	0.0135224
744.443	0.0135469
744.521	0.0136093
744.599	0.0135108
744.677	0.0135345
744.755	0.0135763
744.833	0.0136279
744.911	0.0134756
744.989	0.0135272
745.068	0.0134324
745.146	0.0134058
745.224	0.0135400
745.302	0.0135413
745.380	0.0135138
745.458	0.0133855
745.536	0.0134592
745.614	0.0135178
745.693	0.0135558
745.771	0.0135291
745.849	0.0134859
745.927	0.0135027
746.005	0.0134935
746.083	0.0134882
746.161	0.0134772
746.239	0.0135193
746.318	0.0134593
746.396	0.0134902
746.474	0.0134768
746.552	0.0136612
746.630	0.0136452
746.708	0.0136700
746.786	0.0137263
746.864	0.0136168
746.943	0.0136760
747.021	0.0136878
747.099	0.0136554
747.177	0.0137671
747.255	0.0137046
747.333	0.0134923
747.411	0.0138004
747.489	0.0137045
747.568	0.0136735
747.646	0.0137287
747.724	0.0135477
747.802	0.0136852
747.880	0.0134750
747.958	0.0136456
748.036	0.0136733
748.114	0.0136102
748.193	0.0135532
748.271	0.0136369
748.349	0.0136777
748.427	0.0136009
748.505	0.0135500
748.583	0.0136525
748.661	0.0136314
748.739	0.0136694
748.818	0.0136426
748.896	0.0137599
748.974	0.0136538
749.052	0.0136667
749.130	0.0135682
749.208	0.0137384
749.286	0.0136343
749.364	0.0135242
749.443	0.0136089
749.521	0.0135431
749.599	0.0135309
749.677	0.0134742
749.755	0.0134329
749.833	0.0133893
749.911	0.0134019
749.989	0.0133772
750.068	0.0133270
750.146	0.0133562
750.224	0.0132410
750.302	0.0133202
750.380	0.0131902
750.458	0.0134039
750.536	0.0131538
750.614	0.0132635
750.693	0.0132175
750.771	0.0132712
750.849	0.0134515
750.927	0.0132083
751.005	0.0135032
751.083	0.0135404
751.161	0.0135372
751.239	0.0136850
751.318	0.0135867
751.396	0.0136953
751.474	0.0134726
751.552	0.0138143
751.630	0.0137071
751.708	0.0137592
751.786	0.0138428
751.864	0.0136848
751.943	0.0136301
752.021	0.0137076
752.099	0.0138039
752.177	0.0136526
752.255	0.0135745
752.333	0.0136101
752.411	0.0135106
752.489	0.0134740
752.568	0.0134899
752.646	0.0134106
752.724	0.0134048
752.802	0.0133572
752.880	0.0134016
752.958	0.0133427
753.036	0.0135241
753.114	0.0134374
753.193	0.0134423
753.271	0.0135060
753.349	0.0134280
753.427	0.0134811
753.505	0.0136701
753.583	0.0136559
753.661	0.0136964
753.739	0.0137078
753.818	0.0136623
753.896	0.0136861
753.974	0.0136714
754.052	0.0137294
754.130	0.0136571
754.208	0.0138216
754.286	0.0137697
754.364	0.0138221
754.443	0.0137568
754.521	0.0138731
754.599	0.0137710
754.677	0.0137895
754.755	0.0137056
754.833	0.0137327
754.911	0.0137625
754.989	0.0137508
755.068	0.0136300
755.146	0.0137734
755.224	0.0136507
755.302	0.0135601
755.380	0.0136981
755.458	0.0137370
755.536	0.0136346
755.614	0.0134207
755.693	0.0135400
755.771	0.0134786
755.849	0.0133336
755.927	0.0133010
756.005	0.0134221
756.083	0.0133333
756.161	0.0133037
756.239	0.0134097
756.318	0.0133645
756.396	0.0131129
756.474	0.0132234
756.552	0.0132445
756.630	0.0131829
756.708	0.0132965
756.786	0.0132758
756.864	0.0132979
756.943	0.0134322
757.021	0.0133134
757.099	0.0134083
757.177	0.0134787
757.255	0.0135259
757.333	0.0134162
757.411	0.0134932
757.489	0.0137550
757.568	0.0137353
757.646	0.0136852
757.724	0.0137624
757.802	0.0137922
757.880	0.0138007
757.958	0.0138346
758.036	0.0138739
758.114	0.0138162
758.193	0.0139853
758.271	0.0139616
758.349	0.0138560
758.427	0.0137945
758.505	0.0136109
758.583	0.0137054
758.661	0.0137621
758.739	0.0136823
758.818	0.0137367
758.896	0.0135669
758.974	0.0136208
759.052	0.0136564
759.130	0.0135577
759.208	0.0135089
759.286	0.0134731
759.364	0.0133749
759.443	0.0136637
759.521	0.0136153
759.599	0.0136391
759.677	0.0135122
759.755	0.0135221
759.833	0.0135455
759.911	0.0136192
759.989	0.0135170
760.068	0.0135070
760.146	0.0134384
760.224	0.0133810
760.302	0.0134245
760.380	0.0134930
760.458	0.0133504
760.536	0.0134013
760.614	0.0133722
760.693	0.0133337
760.771	0.0134933
760.849	0.0134554
760.927	0.0133513
761.005	0.0134116
761.083	0.0134576
761.161	0.0134910
761.239	0.0135829
761.318	0.0135578
761.396	0.0136538
761.474	0.0136112
761.552	0.0136436
761.630	0.0137742
761.708	0.0138603
761.786	0.0137899
761.864	0.0137946
761.943	0.0137773
762.021	0.0136389
762.099	0.0137975
762.177	0.0137672
762.255	0.0134811
762.333	0.0135889
762.411	0.0135613
762.489	0.0134909
762.568	0.0134521
762.646	0.0134372
762.724	0.0134688
762.802	0.0133718
762.880	0.0133879
762.958	0.0134135
763.036	0.0132362
763.114	0.0132242
763.193	0.0131536
763.271	0.0133253
763.349	0.0132799
763.427	0.0133022
763.505	0.0133392
763.583	0.0134405
763.661	0.0133633
763.739	0.0134937
763.818	0.0134951
763.896	0.0135117
763.974	0.0136548
764.052	0.0136301
764.130	0.0136317
764.208	0.0137878
764.286	0.0136346
764.364	0.0137032
764.443	0.0136047
764.521	0.0136482
764.599	0.0137167
764.677	0.0136751
764.755	0.0136365
764.833	0.0136970
764.911	0.0136258
764.989	0.0135700
765.068	0.0137751
765.146	0.0135902
765.224	0.0135203
765.302	0.0136073
765.380	0.0136047
765.458	0.0134368
765.536	0.0135263
765.614	0.0134530
765.693	0.0134504
765.771	0.0134579
765.849	0.0135622
765.927	0.0136414
766.005	0.0135163
766.083	0.0134800
766.161	0.0136053
766.239	0.0135242
766.318	0.0133864
766.396	0.0135136
766.474	0.0136433
766.552	0.0133945
766.630	0.0134943
766.708	0.0135407
766.786	0.0134469
766.864	0.0134767
766.943	0.0134472
767.021	0.0136091
767.099	0.0135780
767.177	0.0137506
767.255	0.0135861
767.333	0.0136124
767.411	0.0137077
767.489	0.0137301
767.568	0.0136639
767.646	0.0137125
767.724	0.0137060
767.802	0.0138374
767.880	0.0137776
767.958	0.0138110
768.036	0.0137766
768.114	0.0137154
768.193	0.0138205
768.271	0.0137916
768.349	0.0136635
768.427	0.0135470
768.505	0.0136861
768.583	0.0135331
768.661	0.0136829
768.739	0.0136015
768.818	0.0134011
768.896	0.0134431
768.974	0.0135207
769.052	0.0133537
769.130	0.0133342
769.208	0.0132851
769.286	0.0131376
769.364	0.0132848
769.443	0.0132702
769.521	0.0131204
769.599	0.0132050
769.677	0.0132439
769.755	0.0131757
769.833	0.0132648
769.911	0.0131974
769.989	0.0133551
770.068	0.0133264
770.146	0.0133621
770.224	0.0134805
770.302	0.0134089
770.380	0.0134439
770.458	0.0134453
770.536	0.0135138
770.614	0.0134863
770.693	0.0135318
770.771	0.0135009
770.849	0.0134630
770.927	0.0135159
771.005	0.0136308
771.083	0.0137392
771.161	0.0137799
771.239	0.0137737
771.318	0.0135467
771.396	0.0136920
771.474	0.0137798
771.552	0.0136224
771.630	0.0135944
771.708	0.0136342
771.786	0.0136784
771.864	0.0137759
771.943	0.0137288
772.021	0.0137518
772.099	0.0136945
772.177	0.0138085
772.255	0.0137659
772.333	0.0137799
772.411	0.0136556
772.489	0.0137378
772.568	0.0138034
772.646	0.0135847
772.724	0.0138214
772.802	0.0136561
772.880	0.0136277
772.958	0.0136462
773.036	0.0135587
773.114	0.0136215
773.193	0.0135033
773.271	0.0135361
773.349	0.0133959
773.427	0.0134587
773.505	0.0133588
773.583	0.0132213
773.661	0.0132268
773.739	0.0133373
773.818	0.0132250
773.896	0.0132304
773.974	0.0134010
774.052	0.0134342
774.130	0.0133437
774.208	0.0132487
774.286	0.0133337
774.364	0.0133413
774.443	0.0133811
774.521	0.0133745
774.599	0.0133475
774.677	0.0133523
774.755	0.0134101
774.833	0.0134191
774.911	0.0134296
774.989	0.0134657
775.068	0.0134894
775.146	0.0134673
775.224	0.0134602
775.302	0.0133703
775.380	0.0134510
775.458	0.0135357
775.536	0.0134087
775.614	0.0133971
775.693	0.0134424
775.771	0.0136304
775.849	0.0134709
775.927	0.0134955
776.005	0.0136100
776.083	0.0135265
776.161	0.0136057
776.239	0.0136011
776.318	0.0137591
776.396	0.0137974
776.474	0.0136333
776.552	0.0138673
776.630	0.0138522
776.708	0.0137689
776.786	0.0137070
776.864	0.0138850
776.943	0.0139405
777.021	0.0137520
777.099	0.0135812
777.177	0.0138461
777.255	0.0138773
777.333	0.0136309
777.411	0.0135014
777.489	0.0136723
777.568	0.0135510
777.646	0.0135951
777.724	0.0135619
777.802	0.0134832
777.880	0.0134411
777.958	0.0135987
778.036	0.0135380
778.114	0.0135553
778.193	0.0135074
778.271	0.0135863
778.349	0.0135252
778.427	0.0135080
778.505	0.0135284
778.583	0.0135332
778.661	0.0135571
778.739	0.0135415
778.818	0.0135219
778.896	0.0134711
778.974	0.0136366
779.052	0.0134865
779.130	0.0135238
779.208	0.0134467
779.286	0.0133469
779.364	0.0134151
779.443	0.0133777
779.521	0.0134566
779.599	0.0134118
779.677	0.0133670
779.755	0.0133612
779.833	0.0134745
779.911	0.0134673
779.989	0.0135211
780.068	0.0134566
780.146	0.0134804
780.224	0.0133701
780.302	0.0135923
780.380	0.0135266
780.458	0.0135160
780.536	0.0134785
780.614	0.0135067
780.693	0.0137579
780.771	0.0135696
780.849	0.0136390
780.927	0.0136942
781.005	0.0136231
781.083	0.0137006
781.161	0.0137345
781.239	0.0138671
781.318	0.0136875
781.396	0.0136004
781.474	0.0136863
781.552	0.0136609
781.630	0.0136398
781.708	0.0134951
781.786	0.0136637
781.864	0.0137193
781.943	0.0135992
782.021	0.0135744
782.099	0.0137048
782.177	0.0137093
782.255	0.0136800
782.333	0.0135786
782.411	0.0136735
782.489	0.0135661
782.568	0.0135925
782.646	0.0136230
782.724	0.0135838
782.802	0.0136211
782.880	0.0136986
782.958	0.0135802
783.036	0.0135024
783.114	0.0136055
783.193	0.0133958
783.271	0.0134061
783.349	0.0133779
783.427	0.0134602
783.505	0.0134794
783.583	0.0133307
783.661	0.0133646
783.739	0.0134539
783.818	0.0131149
783.896	0.0132629
783.974	0.0132928
784.052	0.0133105
784.130	0.0133790
784.208	0.0133181
784.286	0.0134103
784.364	0.0133877
784.443	0.0132583
784.521	0.0132247
784.599	0.0134761
784.677	0.0133841
784.755	0.0135004
784.833	0.0135414
784.911	0.0135616
784.989	0.0135710
785.068	0.0135589
785.146	0.0135419
785.224	0.0135503
785.302	0.0137148
785.380	0.0137011
785.458	0.0136873
785.536	0.0135889
785.614	0.0135162
785.693	0.0136460
785.771	0.0135006
785.849	0.0134842
785.927	0.0136461
786.005	0.0136862
786.083	0.0136423
786.161	0.0134059
786.239	0.0135664
786.318	0.0135625
786.396	0.0135399
786.474	0.0136574
786.552	0.0136195
786.630	0.0136993
786.708	0.0136596
786.786	0.0136412
786.864	0.0135805
786.943	0.0136792
787.021	0.0136582
787.099	0.0136884
787.177	0.0136250
787.255	0.0137563
787.333	0.0137389
787.411	0.0136642
787.489	0.0137862
787.568	0.0137426
787.646	0.0136486
787.724	0.0136483
787.802	0.0136447
787.880	0.0135934
787.958	0.0136491
788.036	0.0135052
788.114	0.0135761
788.193	0.0136958
788.271	0.0136024
788.349	0.0135155
788.427	0.0135291
788.505	0.0134450
788.583	0.0133015
788.661	0.0133932
788.739	0.0134682
788.818	0.0134125
788.896	0.0134328
788.974	0.0134055
789.052	0.0134017
789.130	0.0134029
789.208	0.0134997
789.286	0.0135469
789.364	0.0134018
789.443	0.0134316
789.521	0.0134695
789.599	0.0135198
789.677	0.0135053
789.755	0.0134846
789.833	0.0135320
789.911	0.0135014
789.989	0.0136448
790.068	0.0136064
790.146	0.0134887
790.224	0.0134718
790.302	0.0136453
790.380	0.0136139
790.458	0.0135456
790.536	0.0135320
790.614	0.0135622
790.693	0.0135719
790.771	0.0136578
790.849	0.0136246
790.927	0.0136153
791.005	0.0136726
791.083	0.0135293
791.161	0.0136588
791.239	0.0137201
791.318	0.0136790
791.396	0.0135738
791.474	0.0136569
791.552	0.0135920
791.630	0.0137504
791.708	0.0137562
791.786	0.0135552
791.864	0.0135358
791.943	0.0135225
792.021	0.0136472
792.099	0.0135431
792.177	0.0133788
792.255	0.0134864
792.333	0.0135622
792.411	0.0134593
792.489	0.0135088
792.568	0.0133305
792.646	0.0133183
792.724	0.0134404
792.802	0.0133998
792.880	0.0134551
792.958	0.0134534
793.036	0.0135032
793.114	0.0135287
793.193	0.0135601
793.271	0.0135445
793.349	0.0134856
793.427	0.0135905
793.505	0.0137230
793.583	0.0136570
793.661	0.0135793
793.739	0.0134463
793.818	0.0136199
793.896	0.0136446
793.974	0.0135651
794.052	0.0134063
794.130	0.0135377
794.208	0.0135264
794.286	0.0137052
794.364	0.0135919
794.443	0.0134296
794.521	0.0133673
794.599	0.0136092
794.677	0.0134800
794.755	0.0133953
794.833	0.0135011
794.911	0.0133790
794.989	0.0134210
795.068	0.0134804
795.146	0.0133858
795.224	0.0133930
795.302	0.0134987
795.380	0.0135460
795.458	0.0134034
795.536	0.0133991
795.614	0.0134161
795.693	0.0134301
795.771	0.0134000
795.849	0.0134664
795.927	0.0134679
796.005	0.0135880
796.083	0.0134142
796.161	0.0133417
796.239	0.0134620
796.318	0.0134766
796.396	0.0134722
796.474	0.0134411
796.552	0.0134312
796.630	0.0134659
796.708	0.0134608
796.786	0.0136031
796.864	0.0135730
796.943	0.0134884
797.021	0.0134899
797.099	0.0135609
797.177	0.0134975
797.255	0.0135158
797.333	0.0134704
797.411	0.0134370
797.489	0.0135309
797.568	0.0134423
797.646	0.0134521
797.724	0.0136403
797.802	0.0137064
797.880	0.0136311
797.958	0.0135389
798.036	0.0134378
798.114	0.0136885
798.193	0.0136511
798.271	0.0136050
798.349	0.0135707
798.427	0.0135553
798.505	0.0136927
798.583	0.0136237
798.661	0.0136208
798.739	0.0134812
798.818	0.0133764
798.896	0.0135267
798.974	0.0135760
799.052	0.0133892
799.130	0.0134636
799.208	0.0135053
799.286	0.0134479
799.364	0.0132986
799.443	0.0133374
799.521	0.0134476
799.599	0.0134560
799.677	0.0133685
799.755	0.0132124
799.833	0.0134938
799.911	0.0134628
799.989	0.0134719
800.068	0.0134842
800.146	0.0135023
800.224	0.0135893
800.302	0.0134252
800.380	0.0134911
800.458	0.0135708
800.536	0.0135074
800.614	0.0135709
800.693	0.0135461
800.771	0.0134818
800.849	0.0133721
800.927	0.0134219
801.005	0.0135580
801.083	0.0134731
801.161	0.0135093
801.239	0.0135119
801.318	0.0134058
801.396	0.0135300
801.474	0.0137080
801.552	0.0134862
801.630	0.0135504
801.708	0.0136246
801.786	0.0134423
801.864	0.0135519
801.943	0.0135088
802.021	0.0135252
802.099	0.0136039
802.177	0.0135081
802.255	0.0135368
802.333	0.0135802
802.411	0.0136136
802.489	0.0137065
802.568	0.0136036
802.646	0.0135207
802.724	0.0134653
802.802	0.0136774
802.880	0.0135889
802.958	0.0133778
803.036	0.0133610
803.114	0.0134261
803.193	0.0134386
803.271	0.0132880
803.349	0.0135416
803.427	0.0133984
803.505	0.0133814
803.583	0.0133154
803.661	0.0133915
803.739	0.0134730
803.818	0.0134208
803.896	0.0134723
803.974	0.0134199
804.052	0.0135719
804.130	0.0135063
804.208	0.0136401
804.286	0.0136765
804.364	0.0135630
804.443	0.0135699
804.521	0.0135857
804.599	0.0133965
804.677	0.0134664
804.755	0.0134879
804.833	0.0136887
804.911	0.0136453
804.989	0.0136445
805.068	0.0134337
805.146	0.0134349
805.224	0.0135436
805.302	0.0136189
805.380	0.0134375
805.458	0.0134701
805.536	0.0135622
805.614	0.0135284
805.693	0.0135722
805.771	0.0136594
805.849	0.0135122
805.927	0.0137424
806.005	0.0136465
806.083	0.0136526
806.161	0.0136372
806.239	0.0136494
806.318	0.0135799
806.396	0.0136101
806.474	0.0136774
806.552	0.0137491
806.630	0.0136632
806.708	0.0134969
806.786	0.0134872
806.864	0.0135423
806.943	0.0135528
807.021	0.0132306
807.099	0.0134367
807.177	0.0134406
807.255	0.0134557
807.333	0.0133974
807.411	0.0134665
807.489	0.0133581
807.568	0.0134415
807.646	0.0134040
807.724	0.0134624
807.802	0.0135886
807.880	0.0135223
807.958	0.0134100
808.036	0.0134889
808.114	0.0135862
808.193	0.0135442
808.271	0.0135948
808.349	0.0135487
808.427	0.0136971
808.505	0.0134431
808.583	0.0136108
808.661	0.0135435
808.739	0.0135754
808.818	0.0135654
808.896	0.0134842
808.974	0.0133879
809.052	0.0135356
809.130	0.0134889
809.208	0.0134892
809.286	0.0133955
809.364	0.0134696
809.443	0.0135871
809.521	0.0134892
809.599	0.0135755
809.677	0.0136333
809.755	0.0134724
809.833	0.0135947
809.911	0.0135158
809.989	0.0135796
810.068	0.0135523
810.146	0.0136178
810.224	0.0134041
810.302	0.0135483
810.380	0.0135992
810.458	0.0134950
810.536	0.0135874
810.614	0.0136112
810.693	0.0136565
810.771	0.0136722
810.849	0.0135771
810.927	0.0135252
811.005	0.0135361
811.083	0.0135484
811.161	0.0135733
811.239	0.0134923
811.318	0.0133700
811.396	0.0134839
811.474	0.0135608
811.552	0.0134158
811.630	0.0133903
811.708	0.0134608
811.786	0.0133553
811.864	0.0134509
811.943	0.0133746
812.021	0.0132654
812.099	0.0133376
812.177	0.0133756
812.255	0.0133197
812.333	0.0134122
812.411	0.0134856
812.489	0.0134113
812.568	0.0133701
812.646	0.0134067
812.724	0.0134249
812.802	0.0135254
812.880	0.0134467
812.958	0.0134064
813.036	0.0135198
813.114	0.0135100
813.193	0.0135906
813.271	0.0137380
813.349	0.0135969
813.427	0.0136079
813.505	0.0137322
813.583	0.0137628
813.661	0.0138200
813.739	0.0136842
813.818	0.0136616
813.896	0.0137060
813.974	0.0135775
814.052	0.0136929
814.130	0.0136247
814.208	0.0136668
814.286	0.0135537
814.364	0.0134762
814.443	0.0134074
814.521	0.0135314
814.599	0.0135715
814.677	0.0134803
814.755	0.0133907
814.833	0.0134129
814.911	0.0134081
814.989	0.0135053
815.068	0.0133544
815.146	0.0132626
815.224	0.0132951
815.302	0.0134035
815.380	0.0134699
815.458	0.0135223
815.536	0.0134243
815.614	0.0135382
815.693	0.0134333
815.771	0.0134755
815.849	0.0134969
815.927	0.0134321
816.005	0.0135273
816.083	0.0134988
816.161	0.0135020
816.239	0.0134309
816.318	0.0136642
816.396	0.0136010
816.474	0.0135700
816.552	0.0135997
816.630	0.0136118
816.708	0.0135818
816.786	0.0136525
816.864	0.0136302
816.943	0.0136743
817.021	0.0137807
817.099	0.0135185
817.177	0.0136230
817.255	0.0136559
817.333	0.0134657
817.411	0.0136002
817.489	0.0134148
817.568	0.0134740
817.646	0.0134362
817.724	0.0136020
817.802	0.0134244
817.880	0.0133358
817.958	0.0133575
818.036	0.0133775
818.114	0.0132731
818.193	0.0132227
818.271	0.0131646
818.349	0.0132331
818.427	0.0133221
818.505	0.0131042
818.583	0.0131774
818.661	0.0133804
818.739	0.0132044
818.818	0.0132539
818.896	0.0133811
818.974	0.0134180
819.052	0.0134583
819.130	0.0133783
819.208	0.0133847
819.286	0.0134264
819.364	0.0136510
819.443	0.0136176
819.521	0.0135147
819.599	0.0136211
819.677	0.0136801
819.755	0.0136626
819.833	0.0137599
819.911	0.0137257
819.989	0.0136445
820.068	0.0136700
820.146	0.0137715
820.224	0.0137622
820.302	0.0138482
820.380	0.0138676
820.458	0.0138178
820.536	0.0135731
820.614	0.0136463
820.693	0.0136950
820.771	0.0138954
820.849	0.0137891
820.927	0.0136411
821.005	0.0136157
821.083	0.0135764
821.161	0.0136429
821.239	0.0135476
821.318	0.0136095
821.396	0.0135815
821.474	0.0135841
821.552	0.0135310
821.630	0.0134515
821.708	0.0134701
821.786	0.0133301
821.864	0.0133409
821.943	0.0134547
822.021	0.0134880
822.099	0.0134270
822.177	0.0133028
822.255	0.0132435
822.333	0.0131844
822.411	0.0132917
822.489	0.0131547
822.568	0.0133256
822.646	0.0133598
822.724	0.0133059
822.802	0.0132401
822.880	0.0131534
822.958	0.0133778
823.036	0.0133282
823.114	0.0133440
823.193	0.0134531
823.271	0.0133304
823.349	0.0133398
823.427	0.0134656
823.505	0.0134050
823.583	0.0134401
823.661	0.0134633
823.739	0.0134499
823.818	0.0134491
823.896	0.0135629
823.974	0.0133584
824.052	0.0136092
824.130	0.0136221
824.208	0.0135377
824.286	0.0135734
824.364	0.0136088
824.443	0.0136475
824.521	0.0134787
824.599	0.0135642
824.677	0.0136485
824.755	0.0136086
824.833	0.0136632
824.911	0.0135751
824.989	0.0135287
825.068	0.0136820
825.146	0.0135313
825.224	0.0136996
825.302	0.0136905
825.380	0.0136494
825.458	0.0137212
825.536	0.0136446
825.614	0.0136727
825.693	0.0136832
825.771	0.0138765
825.849	0.0139087
825.927	0.0137814
826.005	0.0138703
826.083	0.0138621
826.161	0.0138882
826.239	0.0138190
826.318	0.0136446
826.396	0.0136894
826.474	0.0135699
826.552	0.0136386
826.630	0.0135218
826.708	0.0135043
826.786	0.0135349
826.864	0.0133425
826.943	0.0133723
827.021	0.0133208
827.099	0.0133430
827.177	0.0133229
827.255	0.0133061
827.333	0.0131536
827.411	0.0129963
827.489	0.0131176
827.568	0.0130341
827.646	0.0131719
827.724	0.0130738
827.802	0.0130646
827.880	0.0133205
827.958	0.0131482
828.036	0.0131226
828.114	0.0131487
828.193	0.0131351
828.271	0.0131677
828.349	0.0132382
828.427	0.0134290
828.505	0.0134457
828.583	0.0133894
828.661	0.0133990
828.739	0.0135425
828.818	0.0135680
828.896	0.0136022
828.974	0.0137508
829.052	0.0136552
829.130	0.0137595
829.208	0.0138040
829.286	0.0139140
829.364	0.0139359
829.443	0.0139491
829.521	0.0141302
829.599	0.0139978
829.677	0.0139161
829.755	0.0140380
829.833	0.0140315
829.911	0.0141560
829.989	0.0140596
830.068	0.0140443
830.146	0.0140182
830.224	0.0139232
830.302	0.0137036
830.380	0.0138899
830.458	0.0138307
830.536	0.0137885
830.614	0.0138052
830.693	0.0137498
830.771	0.0136857
830.849	0.0136242
830.927	0.0136600
831.005	0.0134770
831.083	0.0134590
831.161	0.0134719
831.239	0.0133482
831.318	0.0132360
831.396	0.0131925
831.474	0.0131860
831.552	0.0132500
831.630	0.0131001
831.708	0.0129691
831.786	0.0130826
831.864	0.0130288
831.943	0.0131877
832.021	0.0129650
832.099	0.0129408
832.177	0.0131004
832.255	0.0131878
832.333	0.0130583
832.411	0.0131436
832.489	0.0129842
832.568	0.0133096
832.646	0.0130951
832.724	0.0130373
832.802	0.0130894
832.880	0.0135027
832.958	0.0133411
833.036	0.0132845
833.114	0.0133271
833.193	0.0134589
833.271	0.0134367
833.349	0.0134877
833.427	0.0135867
833.505	0.0136844
833.583	0.0136651
833.661	0.0138292
833.739	0.0139104
833.818	0.0138287
833.896	0.0139916
833.974	0.0139274
834.052	0.0140196
834.130	0.0140636
834.208	0.0140956
834.286	0.0141231
834.364	0.0140581
834.443	0.0140561
834.521	0.0140968
834.599	0.0141048
834.677	0.0139819
834.755	0.0139240
834.833	0.0139346
834.911	0.0138988
834.989	0.0139879
835.068	0.0137727
835.146	0.0138197
835.224	0.0137067
835.302	0.0135916
835.380	0.0135669
835.458	0.0134689
835.536	0.0133988
835.614	0.0133910
835.693	0.0133973
835.771	0.0133318
835.849	0.0132737
835.927	0.0132664
836.005	0.0133092
836.083	0.0133298
836.161	0.0132373
836.239	0.0130315
836.318	0.0131718
836.396	0.0131889
836.474	0.0130740
836.552	0.0130856
836.630	0.0130338
836.708	0.0130931
836.786	0.0130079
836.864	0.0130486
836.943	0.0132065
837.021	0.0130860
837.099	0.0131066
837.177	0.0131710
837.255	0.0132281
837.333	0.0130840
837.411	0.0132803
837.489	0.0131570
837.568	0.0132536
837.646	0.0132784
837.724	0.0133238
837.802	0.0133734
837.880	0.0134644
837.958	0.0134097
838.036	0.0134896
838.114	0.0134911
838.193	0.0136607
838.271	0.0136344
838.349	0.0136784
838.427	0.0136459
838.505	0.0137827
838.583	0.0137631
838.661	0.0139058
838.739	0.0138288
838.818	0.0138354
838.896	0.0139841
838.974	0.0140124
839.052	0.0141629
839.130	0.0139951
839.208	0.0140344
839.286	0.0140759
839.364	0.0140587
839.443	0.0139806
839.521	0.0140891
839.599	0.0140187
839.677	0.0140701
839.755	0.0140881
839.833	0.0140572
839.911	0.0138963
839.989	0.0138996
840.068	0.0139156
840.146	0.0139131
840.224	0.0138351
840.302	0.0136198
840.380	0.0134753
840.458	0.0134769
840.536	0.0135826
840.614	0.0133547
840.693	0.0134206
840.771	0.0133091
840.849	0.0133266
840.927	0.0131281
841.005	0.0132104
841.083	0.0130983
841.161	0.0130721
841.239	0.0130816
841.318	0.0129594
841.396	0.0130809
841.474	0.0130481
841.552	0.0129788
841.630	0.0128957
841.708	0.0128980
841.786	0.0130585
841.864	0.0129773
841.943	0.0131225
842.021	0.0129533
842.099	0.0132264
842.177	0.0132510
842.255	0.0132150
842.333	0.0131128
842.411	0.0131622
842.489	0.0132870
842.568	0.0133573
842.646	0.0134257
842.724	0.0134489
842.802	0.0135469
842.880	0.0136114
842.958	0.0137120
843.036	0.0136233
843.114	0.0137495
843.193	0.0138441
843.271	0.0137418
843.349	0.0139023
843.427	0.0140191
843.505	0.0140334
843.583	0.0140562
843.661	0.0140888
843.739	0.0140681
843.818	0.0142431
843.896	0.0141248
843.974	0.0140761
844.052	0.0141633
844.130	0.0141185
844.208	0.0141405
844.286	0.0141610
844.364	0.0140543
844.443	0.0141205
844.521	0.0141630
844.599	0.0140235
844.677	0.0139597
844.755	0.0138873
844.833	0.0138383
844.911	0.0137859
844.989	0.0138931
845.068	0.0136512
845.146	0.0136504
845.224	0.0136327
845.302	0.0135332
845.380	0.0134581
845.458	0.0133720
845.536	0.0134550
845.614	0.0132243
845.693	0.0131138
845.771	0.0132310
845.849	0.0132086
845.927	0.0130121
846.005	0.0129791
846.083	0.0130249
846.161	0.0129935
846.239	0.0129550
846.318	0.0130250
846.396	0.0129646
846.474	0.0129926
846.552	0.0129047
846.630	0.0130333
846.708	0.0130339
846.786	0.0130514
846.864	0.0131345
846.943	0.0132240
847.021	0.0132906
847.099	0.0133229
847.177	0.0134135
847.255	0.0133881
847.333	0.0133323
847.411	0.0136242
847.489	0.0136150
847.568	0.0136558
847.646	0.0136852
847.724	0.0135713
847.802	0.0136475
847.880	0.0137444
847.958	0.0138742
848.036	0.0137877
848.114	0.0139010
848.193	0.0139878
848.271	0.0139051
848.349	0.0138931
848.427	0.0138039
848.505	0.0139058
848.583	0.0139532
848.661	0.0139334
848.739	0.0139376
848.818	0.0140332
848.896	0.0138727
848.974	0.0140524
849.052	0.0139902
849.130	0.0139701
849.208	0.0139022
849.286	0.0138977
849.364	0.0137627
849.443	0.0138745
849.521	0.0138841
849.599	0.0139360
849.677	0.0137216
849.755	0.0136700
849.833	0.0136213
849.911	0.0137301
849.989	0.0137318
850.068	0.0135530
850.146	0.0133993
850.224	0.0135108
850.302	0.0135433
850.380	0.0134077
850.458	0.0133472
850.536	0.0133052
850.614	0.0132237
850.693	0.0133829
850.771	0.0132149
850.849	0.0132501
850.927	0.0134023
851.005	0.0133994
851.083	0.0131721
851.161	0.0132593
851.239	0.0132175
851.318	0.0130960
851.396	0.0131833
851.474	0.0134025
851.552	0.0135054
851.630	0.0133118
851.708	0.0133500
851.786	0.0134377
851.864	0.0135252
851.943	0.0135437
852.021	0.0134171
852.099	0.0136118
852.177	0.0136080
852.255	0.0135455
852.333	0.0136436
852.411	0.0135524
852.489	0.0136252
852.568	0.0136825
852.646	0.0137872
852.724	0.0137002
852.802	0.0137257
852.880	0.0136191
852.958	0.0136942
853.036	0.0137119
853.114	0.0136600
853.193	0.0136897
853.271	0.0137364
853.349	0.0136388
853.427	0.0136586
853.505	0.0136193
853.583	0.0137136
853.661	0.0136838
853.739	0.0137571
853.818	0.0136098
853.896	0.0135895
853.974	0.0135912
854.052	0.0137075
854.130	0.0134418
854.208	0.0135337
854.286	0.0136858
854.364	0.0135743
854.443	0.0136699
854.521	0.0136192
854.599	0.0134879
854.677	0.0134940
854.755	0.0134995
854.833	0.0136046
854.911	0.0134750
854.989	0.0134746
855.068	0.0135339
855.146	0.0135766
855.224	0.0135677
855.302	0.0135712
855.380	0.0134173
855.458	0.0136220
855.536	0.0136376
855.614	0.0135419
855.693	0.0136461
855.771	0.0134579
855.849	0.0135059
855.927	0.0135247
856.005	0.0135418
856.083	0.0136294
856.161	0.0137379
856.239	0.0136340
856.318	0.0135964
856.396	0.0135000
856.474	0.0135733
856.552	0.0136703
856.630	0.0135942
856.708	0.0135018
856.786	0.0136032
856.864	0.0135676
856.943	0.0135845
857.021	0.0135529
857.099	0.0136311
857.177	0.0135006
857.255	0.0136616
857.333	0.0136204
857.411	0.0135385
857.489	0.0135567
857.568	0.0135500
857.646	0.0135471
857.724	0.0135810
857.802	0.0136545
857.880	0.0137416
857.958	0.0136063
858.036	0.0136871
858.114	0.0136991
858.193	0.0137603
858.271	0.0137075
858.349	0.0137105
858.427	0.0135926
858.505	0.0135287
858.583	0.0136475
858.661	0.0136751
858.739	0.0134216
858.818	0.0135522
858.896	0.0135893
858.974	0.0134940
859.052	0.0135484
859.130	0.0134163
859.208	0.0134800
859.286	0.0135201
859.364	0.0134902
859.443	0.0135804
859.521	0.0134011
859.599	0.0134435
859.677	0.0134969
859.755	0.0134877
859.833	0.0134945
859.911	0.0136832
859.989	0.0135538
860.068	0.0135178
860.146	0.0135677
860.224	0.0135788
860.302	0.0135349
860.380	0.0135721
860.458	0.0136306
860.536	0.0136726
860.614	0.0136510
860.693	0.0137149
860.771	0.0136434
860.849	0.0136806
860.927	0.0136824
861.005	0.0137404
861.083	0.0137384
861.161	0.0137347
861.239	0.0136904
861.318	0.0137341
861.396	0.0136658
861.474	0.0138210
861.552	0.0136900
861.630	0.0136947
861.708	0.0136823
861.786	0.0135883
861.864	0.0136790
861.943	0.0135999
862.021	0.0136362
862.099	0.0135944
862.177	0.0135981
862.255	0.0135036
862.333	0.0136827
862.411	0.0136655
862.489	0.0135371
862.568	0.0136168
862.646	0.0134993
862.724	0.0136575
862.802	0.0134391
862.880	0.0136526
862.958	0.0135179
863.036	0.0134471
863.114	0.0133935
863.193	0.0134005
863.271	0.0135048
863.349	0.0136296
863.427	0.0134888
863.505	0.0135385
863.583	0.0134925
863.661	0.0134557
863.739	0.0135880
863.818	0.0133511
863.896	0.0135346
863.974	0.0135890
864.052	0.0134711
864.130	0.0134906
864.208	0.0136008
864.286	0.0134353
864.364	0.0133360
864.443	0.0135299
864.521	0.0135313
864.599	0.0134744
864.677	0.0135050
864.755	0.0134807
864.833	0.0133932
864.911	0.0133692
864.989	0.0134762
865.068	0.0134737
865.146	0.0134457
865.224	0.0134492
865.302	0.0135722
865.380	0.0136040
865.458	0.0134306
865.536	0.0135452
865.614	0.0135129
865.693	0.0135557
865.771	0.0134545
865.849	0.0136751
865.927	0.0135428
866.005	0.0135053
866.083	0.0135905
866.161	0.0136556
866.239	0.0135777
866.318	0.0136923
866.396	0.0136503
866.474	0.0135102
866.552	0.0136708
866.630	0.0136299
866.708	0.0135400
866.786	0.0136353
866.864	0.0136998
866.943	0.0135760
867.021	0.0136665
867.099	0.0136751
867.177	0.0135522
867.255	0.0137291
867.333	0.0136880
867.411	0.0136029
867.489	0.0136257
867.568	0.0136822
867.646	0.0136961
867.724	0.0136141
867.802	0.0136987
867.880	0.0136789
867.958	0.0134934
868.036	0.0137832
868.114	0.0136538
868.193	0.0137317
868.271	0.0135887
868.349	0.0136823
868.427	0.0137151
868.505	0.0136806
868.583	0.0136052
868.661	0.0136391
868.739	0.0135546
868.818	0.0134087
868.896	0.0133969
868.974	0.0135562
869.052	0.0135361
869.130	0.0135406
869.208	0.0134824
869.286	0.0135313
869.364	0.0135069
869.443	0.0136217
869.521	0.0136169
869.599	0.0135081
869.677	0.0134819
869.755	0.0135252
869.833	0.0134125
869.911	0.0135506
869.989	0.0134821
870.068	0.0134722
870.146	0.0136034
870.224	0.0135680
870.302	0.0134850
870.380	0.0134461
870.458	0.0133267
870.536	0.0133870
870.614	0.0135356
870.693	0.0134620
870.771	0.0134384
870.849	0.0134320
870.927	0.0134094
871.005	0.0135680
871.083	0.0134761
871.161	0.0135294
871.239	0.0134229
871.318	0.0132937
871.396	0.0134846
871.474	0.0133947
871.552	0.0134797
871.630	0.0134225
871.708	0.0133675
871.786	0.0133488
871.864	0.0134515
871.943	0.0134627
872.021	0.0134859
872.099	0.0134536
872.177	0.0134575
872.255	0.0136446
872.333	0.0135577
872.411	0.0134962
872.489	0.0135309
872.568	0.0136243
872.646	0.0136875
872.724	0.0136743
872.802	0.0137085
872.880	0.0137711
872.958	0.0137669
873.036	0.0137184
873.114	0.0138873
873.193	0.0138520
873.271	0.0138484
873.349	0.0139120
873.427	0.0138741
873.505	0.0140433
873.583	0.0138262
873.661	0.0139072
873.739	0.0138428
873.818	0.0139209
873.896	0.0137503
873.974	0.0138988
874.052	0.0138559
874.130	0.0138356
874.208	0.0136662
874.286	0.0137529
874.364	0.0137976
874.443	0.0135619
874.521	0.0136855
874.599	0.0137125
874.677	0.0135240
874.755	0.0135557
874.833	0.0134152
874.911	0.0132994
874.989	0.0134135
875.068	0.0134058
875.146	0.0133944
875.224	0.0134608
875.302	0.0134235
875.380	0.0135469
875.458	0.0133466
875.536	0.0132887
875.614	0.0133508
875.693	0.0134084
875.771	0.0134472
875.849	0.0134162
875.927	0.0135155
876.005	0.0135258
876.083	0.0134589
876.161	0.0133945
876.239	0.0136260
876.318	0.0133990
876.396	0.0134496
876.474	0.0135236
876.552	0.0136903
876.630	0.0135452
876.708	0.0135542
876.786	0.0137041
876.864	0.0135567
876.943	0.0135267
877.021	0.0135379
877.099	0.0136526
877.177	0.0135692
877.255	0.0135699
877.333	0.0136954
877.411	0.0136225
877.489	0.0136306
877.568	0.0137114
877.646	0.0136851
877.724	0.0136478
877.802	0.0136806
877.880	0.0137270
877.958	0.0137575
878.036	0.0135786
878.114	0.0137011
878.193	0.0135963
878.271	0.0136401
878.349	0.0136294
878.427	0.0136382
878.505	0.0136959
878.583	0.0135573
878.661	0.0137466
878.739	0.0136808
878.818	0.0137512
878.896	0.0135397
878.974	0.0136163
879.052	0.0136613
879.130	0.0135356
879.208	0.0135368
879.286	0.0136591
879.364	0.0136815
879.443	0.0135521
879.521	0.0136094
879.599	0.0136579
879.677	0.0134901
879.755	0.0135683
879.833	0.0135217
879.911	0.0135676
879.989	0.0135849
880.068	0.0136658
880.146	0.0136106
880.224	0.0136440
880.302	0.0135502
880.380	0.0134917
880.458	0.0135703
880.536	0.0136363
880.614	0.0136309
880.693	0.0135811
880.771	0.0136665
880.849	0.0135658
880.927	0.0136718
881.005	0.0136234
881.083	0.0137090
881.161	0.0136849
881.239	0.0137602
881.318	0.0137572
881.396	0.0135050
881.474	0.0137369
881.552	0.0136486
881.630	0.0135797
881.708	0.0136343
881.786	0.0135660
881.864	0.0136147
881.943	0.0137169
882.021	0.0135876
882.099	0.0134739
882.177	0.0137118
882.255	0.0135413
882.333	0.0135098
882.411	0.0135616
882.489	0.0134309
882.568	0.0135750
882.646	0.0134206
882.724	0.0135244
882.802	0.0135101
882.880	0.0134599
882.958	0.0135507
883.036	0.0135126
883.114	0.0134579
883.193	0.0134071
883.271	0.0135674
883.349	0.0135424
883.427	0.0134845
883.505	0.0135857
883.583	0.0135314
883.661	0.0133462
883.739	0.0135373
883.818	0.0136681
883.896	0.0135993
883.974	0.0136014
884.052	0.0136495
884.130	0.0136814
884.208	0.0136961
884.286	0.0136974
884.364	0.0137270
884.443	0.0136893
884.521	0.0136308
884.599	0.0137112
884.677	0.0136604
884.755	0.0137134
884.833	0.0136872
884.911	0.0136644
884.989	0.0134373
885.068	0.0136391
885.146	0.0134968
885.224	0.0134380
885.302	0.0136211
885.380	0.0135822
885.458	0.0136043
885.536	0.0136128
885.614	0.0135297
885.693	0.0135491
885.771	0.0136857
885.849	0.0137361
885.927	0.0138235
886.005	0.0136675
886.083	0.0136587
886.161	0.0135820
886.239	0.0136834
886.318	0.0137078
886.396	0.0134123
886.474	0.0136076
886.552	0.0135587
886.630	0.0135468
886.708	0.0136890
886.786	0.0135260
886.864	0.0134310
886.943	0.0133967
887.021	0.0134055
887.099	0.0134133
887.177	0.0134698
887.255	0.0135728
887.333	0.0134487
887.411	0.0134179
887.489	0.0134471
887.568	0.0135135
887.646	0.0133903
887.724	0.0135741
887.802	0.0135743
887.880	0.0134457
887.958	0.0135114
888.036	0.0135980
888.114	0.0134977
888.193	0.0135109
888.271	0.0135807
888.349	0.0136200
888.427	0.0136697
888.505	0.0135408
888.583	0.0135696
888.661	0.0134426
888.739	0.0135430
888.818	0.0135526
888.896	0.0136459
888.974	0.0134741
889.052	0.0135892
889.130	0.0135672
889.208	0.0136117
889.286	0.0135779
889.364	0.0135727
889.443	0.0136382
889.521	0.0135666
889.599	0.0135270
889.677	0.0136304
889.755	0.0134748
889.833	0.0134892
889.911	0.0135406
889.989	0.0134867
890.068	0.0134919
890.146	0.0135439
890.224	0.0134949
890.302	0.0134901
890.380	0.0134240
890.458	0.0132764
890.536	0.0135247
890.614	0.0133372
890.693	0.0134123
890.771	0.0134283
890.849	0.0133331
890.927	0.0133832
891.005	0.0134462
891.083	0.0134545
891.161	0.0134525
891.239	0.0133569
891.318	0.0132880
891.396	0.0133606
891.474	0.0136079
891.552	0.0134017
891.630	0.0134187
891.708	0.0134302
891.786	0.0134194
891.864	0.0135548
891.943	0.0134211
892.021	0.0134328
892.099	0.0137366
892.177	0.0134196
892.255	0.0135472
892.333	0.0136066
892.411	0.0136946
892.489	0.0136900
892.568	0.0135538
892.646	0.0136642
892.724	0.0135696
892.802	0.0137566
892.880	0.0136997
892.958	0.0136649
893.036	0.0135804
893.114	0.0134792
893.193	0.0136483
893.271	0.0135909
893.349	0.0135601
893.427	0.0135069
893.505	0.0134612
893.583	0.0134444
893.661	0.0133408
893.739	0.0134718
893.818	0.0135389
893.896	0.0133831
893.974	0.0134256
894.052	0.0133880
894.130	0.0132663
894.208	0.0135659
894.286	0.0135323
894.364	0.0134656
894.443	0.0134113
894.521	0.0134304
894.599	0.0134770
894.677	0.0135854
894.755	0.0134830
894.833	0.0134747
894.911	0.0135693
894.989	0.0134579
895.068	0.0135159
895.146	0.0134354
895.224	0.0134679
895.302	0.0134489
895.380	0.0135029
895.458	0.0136346
895.536	0.0134795
895.614	0.0133260
895.693	0.0134003
895.771	0.0135765
895.849	0.0134521
895.927	0.0134523
896.005	0.0133737
896.083	0.0134661
896.161	0.0134882
896.239	0.0132903
896.318	0.0133945
896.396	0.0135473
896.474	0.0136376
896.552	0.0135490
896.630	0.0135200
896.708	0.0133926
896.786	0.0134578
896.864	0.0135728
896.943	0.0136704
897.021	0.0133914
897.099	0.0135421
897.177	0.0135059
897.255	0.0135094
897.333	0.0134840
897.411	0.0135921
897.489	0.0134326
897.568	0.0134990
897.646	0.0134540
897.724	0.0135410
897.802	0.0134552
897.880	0.0134660
897.958	0.0133647
898.036	0.0134687
898.114	0.0135265
898.193	0.0134883
898.271	0.0135085
898.349	0.0135883
898.427	0.0136284
898.505	0.0135151
898.583	0.0134385
898.661	0.0135328
898.739	0.0136303
898.818	0.0135508
898.896	0.0135905
898.974	0.0136243
899.052	0.0135719
899.130	0.0135684
899.208	0.0137312
899.286	0.0136323
899.364	0.0135767
899.443	0.0135745
899.521	0.0136681
899.599	0.0135405
899.677	0.0136927
899.755	0.0135583
899.833	0.0136596
899.911	0.0135313
899.989	0.0135645
900.068	0.0135756
900.146	0.0135459
900.224	0.0136462
900.302	0.0135980
900.380	0.0135869
900.458	0.0136662
900.536	0.0135770
900.614	0.0137595
900.693	0.0137323
900.771	0.0136668
900.849	0.0135262
900.927	0.0136265
901.005	0.0136121
901.083	0.0135281
901.161	0.0134119
901.239	0.0136196
901.318	0.0135860
901.396	0.0136894
901.474	0.0135433
901.552	0.0136852
901.630	0.0134880
901.708	0.0134879
901.786	0.0135500
901.864	0.0135424
901.943	0.0134536
902.021	0.0133457
902.099	0.0135553
902.177	0.0134373
902.255	0.0134235
902.333	0.0137146
902.411	0.0135518
902.489	0.0135032
902.568	0.0135471
902.646	0.0136020
902.724	0.0134904
902.802	0.0136481
902.880	0.0136188
902.958	0.0135389
903.036	0.0135582
903.114	0.0135415
903.193	0.0135761
903.271	0.0135941
903.349	0.0135211
903.427	0.0134380
903.505	0.0135422
903.583	0.0135904
903.661	0.0136763
903.739	0.0136478
903.818	0.0137188
903.896	0.0135496
903.974	0.0135157
904.052	0.0134713
904.130	0.0134734
904.208	0.0134528
904.286	0.0135400
904.364	0.0133784
904.443	0.0134463
904.521	0.0136141
904.599	0.0135120
904.677	0.0134364
904.755	0.0135477
904.833	0.0134745
904.911	0.0135352
904.989	0.0134103
905.068	0.0135124
905.146	0.0134521
905.224	0.0134917
905.302	0.0134943
905.380	0.0135839
905.458	0.0136982
905.536	0.0134865
905.614	0.0136173
905.693	0.0136855
905.771	0.0134669
905.849	0.0136041
905.927	0.0136035
906.005	0.0134480
906.083	0.0135868
906.161	0.0136211
906.239	0.0134134
906.318	0.0133543
906.396	0.0133510
906.474	0.0134662
906.552	0.0133506
906.630	0.0133419
906.708	0.0133909
906.786	0.0134988
906.864	0.0134161
906.943	0.0135281
907.021	0.0133392
907.099	0.0134941
907.177	0.0135998
907.255	0.0135782
907.333	0.0135737
907.411	0.0135562
907.489	0.0135867
907.568	0.0135505
907.646	0.0136521
907.724	0.0135997
907.802	0.0137454
907.880	0.0135693
907.958	0.0136514
908.036	0.0136463
908.114	0.0135795
908.193	0.0137017
908.271	0.0135652
908.349	0.0136983
908.427	0.0135607
908.505	0.0135622
908.583	0.0135130
908.661	0.0132491
908.739	0.0133656
908.818	0.0133466
908.896	0.0134882
908.974	0.0132077
909.052	0.0131599
909.130	0.0133851
909.208	0.0132658
909.286	0.0132836
909.364	0.0131695
909.443	0.0133045
909.521	0.0132861
909.599	0.0133933
909.677	0.0133691
909.755	0.0134516
909.833	0.0134547
909.911	0.0135208
909.989	0.0135944
910.068	0.0135992
910.146	0.0135993
910.224	0.0137411
910.302	0.0136307
910.380	0.0136858
910.458	0.0136659
910.536	0.0136678
910.614	0.0136182
910.693	0.0137170
910.771	0.0135744
910.849	0.0136247
910.927	0.0135365
911.005	0.0135867
911.083	0.0135515
911.161	0.0134633
911.239	0.0133926
911.318	0.0135265
911.396	0.0134017
911.474	0.0135115
911.552	0.0134836
911.630	0.0133599
911.708	0.0134910
911.786	0.0134791
911.864	0.0134003
911.943	0.0134373
912.021	0.0134063
912.099	0.0133672
912.177	0.0134729
912.255	0.0134951
912.333	0.0134515
912.411	0.0135908
912.489	0.0136947
912.568	0.0135159
912.646	0.0137154
912.724	0.0136670
912.802	0.0136675
912.880	0.0137348
912.958	0.0138660
913.036	0.0137060
913.114	0.0135774
913.193	0.0138629
913.271	0.0137169
913.349	0.0136581
913.427	0.0136168
913.505	0.0135262
913.583	0.0134245
913.661	0.0133998
913.739	0.0134854
913.818	0.0133946
913.896	0.0135131
913.974	0.0132636
914.052	0.0132961
914.130	0.0132764
914.208	0.0132597
914.286	0.0132163
914.364	0.0132743
914.443	0.0131940
914.521	0.0133333
914.599	0.0132784
914.677	0.0133618
914.755	0.0134293
914.833	0.0134130
914.911	0.0132433
914.989	0.0134473
915.068	0.0134544
915.146	0.0135173
915.224	0.0135020
915.302	0.0135326
915.380	0.0135772
915.458	0.0134968
915.536	0.0135451
915.614	0.0135261
915.693	0.0135456
915.771	0.0136226
915.849	0.0136701
915.927	0.0136636
916.005	0.0135707
916.083	0.0136175
916.161	0.0135881
916.239	0.0136192
916.318	0.0136326
916.396	0.0136832
916.474	0.0135562
916.552	0.0136001
916.630	0.0135172
916.708	0.0134850
916.786	0.0136073
916.864	0.0135261
916.943	0.0134450
917.021	0.0134995
917.099	0.0134915
917.177	0.0134798
917.255	0.0135248
917.333	0.0135412
917.411	0.0134939
917.489	0.0133909
917.568	0.0135007
917.646	0.0135596
917.724	0.0135505
917.802	0.0134955
917.880	0.0135422
917.958	0.0134960
918.036	0.0134269
918.114	0.0135265
918.193	0.0134516
918.271	0.0134106
918.349	0.0134930
918.427	0.0135248
918.505	0.0134896
918.583	0.0135564
918.661	0.0135260
918.739	0.0133479
918.818	0.0133010
918.896	0.0133674
918.974	0.0135655
919.052	0.0136023
919.130	0.0135053
919.208	0.0134455
919.286	0.0134877
919.364	0.0135050
919.443	0.0135743
919.521	0.0135552
919.599	0.0135511
919.677	0.0134266
919.755	0.0135907
919.833	0.0136054
919.911	0.0134304
919.989	0.0133725
920.068	0.0134648
920.146	0.0135563
920.224	0.0134478
920.302	0.0134988
920.380	0.0134588
920.458	0.0135462
920.536	0.0135228
920.614	0.0137042
920.693	0.0135571
920.771	0.0135884
920.849	0.0135464
920.927	0.0134295
921.005	0.0135071
921.083	0.0135165
921.161	0.0134760
921.239	0.0135568
921.318	0.0134309
921.396	0.0135101
921.474	0.0134996
921.552	0.0135309
921.630	0.0134551
921.708	0.0135096
921.786	0.0135065
921.864	0.0136030
921.943	0.0135353
922.021	0.0135725
922.099	0.0135937
922.177	0.0135504
922.255	0.0135928
922.333	0.0135490
922.411	0.0135137
922.489	0.0135825
922.568	0.0134990
922.646	0.0135219
922.724	0.0136961
922.802	0.0135583
922.880	0.0135575
922.958	0.0134139
923.036	0.0135264
923.114	0.0136253
923.193	0.0135918
923.271	0.0135251
923.349	0.0135304
923.427	0.0134511
923.505	0.0135191
923.583	0.0136155
923.661	0.0135491
923.739	0.0134039
923.818	0.0136739
923.896	0.0135316
923.974	0.0135748
924.052	0.0134328
924.130	0.0134088
924.208	0.0135335
924.286	0.0133847
924.364	0.0134010
924.443	0.0136296
924.521	0.0135826
924.599	0.0134519
924.677	0.0135281
924.755	0.0134557
924.833	0.0135659
924.911	0.0134856
924.989	0.0135671
925.068	0.0135731
925.146	0.0136140
925.224	0.0135858
925.302	0.0137020
925.380	0.0136579
925.458	0.0134827
925.536	0.0134729
925.614	0.0137446
925.693	0.0135324
925.771	0.0135801
925.849	0.0136102
925.927	0.0136029
926.005	0.0137213
926.083	0.0136411
926.161	0.0136575
926.239	0.0135416
926.318	0.0137082
926.396	0.0137352
926.474	0.0138457
926.552	0.0137462
926.630	0.0135983
926.708	0.0136465
926.786	0.0135916
926.864	0.0136681
926.943	0.0135571
927.021	0.0135866
927.099	0.0133782
927.177	0.0134023
927.255	0.0135086
927.333	0.0135458
927.411	0.0133972
927.489	0.0134698
927.568	0.0135618
927.646	0.0135513
927.724	0.0134976
927.802	0.0134425
927.880	0.0135204
927.958	0.0135301
928.036	0.0136803
928.114	0.0135461
928.193	0.0133981
928.271	0.0133231
928.349	0.0134470
928.427	0.0135273
928.505	0.0135163
928.583	0.0135493
928.661	0.0136597
928.739	0.0135806
928.818	0.0136482
928.896	0.0136215
928.974	0.0137471
929.052	0.0136581
929.130	0.0136413
929.208	0.0136074
929.286	0.0134628
929.364	0.0136238
929.443	0.0135854
929.521	0.0135810
929.599	0.0135969
929.677	0.0135016
929.755	0.0136153
929.833	0.0135424
929.911	0.0135283
929.989	0.0136024
930.068	0.0136752
930.146	0.0136577
930.224	0.0135396
930.302	0.0136323
930.380	0.0136334
930.458	0.0136169
930.536	0.0135982
930.614	0.0135600
930.693	0.0135774
930.771	0.0135145
930.849	0.0134868
930.927	0.0134518
931.005	0.0135579
931.083	0.0135976
931.161	0.0136376
931.239	0.0135776
931.318	0.0135303
931.396	0.0134540
931.474	0.0134767
931.552	0.0133648
931.630	0.0134737
931.708	0.0135180
931.786	0.0133779
931.864	0.0136065
931.943	0.0134741
932.021	0.0134198
932.099	0.0133472
932.177	0.0135056
932.255	0.0133817
932.333	0.0134102
932.411	0.0133383
932.489	0.0133974
932.568	0.0135136
932.646	0.0134526
932.724	0.0134376
932.802	0.0134173
932.880	0.0133652
932.958	0.0134628
933.036	0.0134505
933.114	0.0135490
933.193	0.0134967
933.271	0.0134936
933.349	0.0133761
933.427	0.0133904
933.505	0.0135027
933.583	0.0134161
933.661	0.0134260
933.739	0.0134403
933.818	0.0135562
933.896	0.0134747
933.974	0.0134312
934.052	0.0135130
934.130	0.0137313
934.208	0.0135036
934.286	0.0135287
934.364	0.0136608
934.443	0.0136617
934.521	0.0136096
934.599	0.0136036
934.677	0.0136168
934.755	0.0135892
934.833	0.0135217
934.911	0.0135638
934.989	0.0134391
935.068	0.0134424
935.146	0.0135770
935.224	0.0135535
935.302	0.0135085
935.380	0.0136462
935.458	0.0136166
935.536	0.0134859
935.614	0.0136095
935.693	0.0136268
935.771	0.0134343
935.849	0.0134921
935.927	0.0136378
936.005	0.0135525
936.083	0.0136438
936.161	0.0135707
936.239	0.0135601
936.318	0.0137423
936.396	0.0136723
936.474	0.0135908
936.552	0.0135285
936.630	0.0135289
936.708	0.0136867
936.786	0.0135854
936.864	0.0136697
936.943	0.0136219
937.021	0.0135243
937.099	0.0135065
937.177	0.0134848
937.255	0.0134589
937.333	0.0133576
937.411	0.0134393
937.489	0.0134638
937.568	0.0133514
937.646	0.0135639
937.724	0.0134427
937.802	0.0134045
937.880	0.0135433
937.958	0.0135477
938.036	0.0133707
938.114	0.0134999
938.193	0.0134954
938.271	0.0134457
938.349	0.0135295
938.427	0.0135079
938.505	0.0135454
938.583	0.0135299
938.661	0.0135066
938.739	0.0135673
938.818	0.0135741
938.896	0.0135924
938.974	0.0136006
939.052	0.0135250
939.130	0.0135124
939.208	0.0136379
939.286	0.0135302
939.364	0.0134180
939.443	0.0135812
939.521	0.0134618
939.599	0.0135120
939.677	0.0135007
939.755	0.0135258
939.833	0.0134719
939.911	0.0134631
939.989	0.0134221
940.068	0.0134209
940.146	0.0135233
940.224	0.0134775
940.302	0.0135289
940.380	0.0135934
940.458	0.0135692
940.536	0.0136994
940.614	0.0136393
940.693	0.0135224
940.771	0.0135662
940.849	0.0135641
940.927	0.0135489
941.005	0.0135535
941.083	0.0138026
941.161	0.0136652
941.239	0.0135670
941.318	0.0135799
941.396	0.0135702
941.474	0.0135432
941.552	0.0137009
941.630	0.0135294
941.708	0.0135123
941.786	0.0135310
941.864	0.0135001
941.943	0.0135741
942.021	0.0134631
942.099	0.0133480
942.177	0.0134824
942.255	0.0135416
942.333	0.0135259
942.411	0.0135246
942.489	0.0135403
942.568	0.0135418
942.646	0.0135027
942.724	0.0136226
942.802	0.0136076
942.880	0.0135094
942.958	0.0135834
943.036	0.0135799
943.114	0.0135646
943.193	0.0136526
943.271	0.0136228
943.349	0.0134382
943.427	0.0135227
943.505	0.0134589
943.583	0.0135728
943.661	0.0134348
943.739	0.0135449
943.818	0.0136267
943.896	0.0135490
943.974	0.0136792
944.052	0.0135948
944.130	0.0135843
944.208	0.0134192
944.286	0.0134961
944.364	0.0134863
944.443	0.0134386
944.521	0.0134822
944.599	0.0134562
944.677	0.0135162
944.755	0.0135647
944.833	0.0135304
944.911	0.0133915
944.989	0.0135117
945.068	0.0134502
945.146	0.0134940
945.224	0.0136347
945.302	0.0135679
945.380	0.0137037
945.458	0.0137435
945.536	0.0136398
945.614	0.0135908
945.693	0.0136269
945.771	0.0137260
945.849	0.0137792
945.927	0.0137741
946.005	0.0137634
946.083	0.0138133
946.161	0.0136544
946.239	0.0136609
946.318	0.0136052
946.396	0.0137415
946.474	0.0137211
946.552	0.0135796
946.630	0.0134938
946.708	0.0137081
946.786	0.0136446
946.864	0.0135821
946.943	0.0135973
947.021	0.0134936
947.099	0.0135191
947.177	0.0134669
947.255	0.0136372
947.333	0.0135345
947.411	0.0135509
947.489	0.0135634
947.568	0.0134999
947.646	0.0134605
947.724	0.0136138
947.802	0.0136472
947.880	0.0134979
947.958	0.0136018
948.036	0.0135540
948.114	0.0135548
948.193	0.0136502
948.271	0.0136219
948.349	0.0135336
948.427	0.0134769
948.505	0.0135120
948.583	0.0135610
948.661	0.0136131
948.739	0.0134322
948.818	0.0135648
948.896	0.0135416
948.974	0.0134820
949.052	0.0134912
949.130	0.0136155
949.208	0.0137160
949.286	0.0135452
949.364	0.0136656
949.443	0.0136318
949.521	0.0136259
949.599	0.0136636
949.677	0.0136175
949.755	0.0137086
949.833	0.0135387
949.911	0.0135764
949.989	0.0136401
950.068	0.0137712
950.146	0.0135070
950.224	0.0136266
950.302	0.0136243
950.380	0.0135429
950.458	0.0135773
950.536	0.0135915
950.614	0.0136629
950.693	0.0135527
950.771	0.0135397
950.849	0.0136875
950.927	0.0136194
951.005	0.0135061
951.083	0.0136201
951.161	0.0135181
951.239	0.0136608
951.318	0.0137244
951.396	0.0136818
951.474	0.0137141
951.552	0.0137168
951.630	0.0135850
951.708	0.0137168
951.786	0.0137219
951.864	0.0135697
951.943	0.0135661
952.021	0.0137075
952.099	0.0135576
952.177	0.0135542
952.255	0.0137092
952.333	0.0137006
952.411	0.0137035
952.489	0.0134705
952.568	0.0136417
952.646	0.0136433
952.724	0.0136882
952.802	0.0134372
952.880	0.0135544
952.958	0.0135227
953.036	0.0135299
953.114	0.0137295
953.193	0.0137794
953.271	0.0135863
953.349	0.0136346
953.427	0.0134940
953.505	0.0136181
953.583	0.0136440
953.661	0.0136211
953.739	0.0136027
953.818	0.0135988
953.896	0.0135212
953.974	0.0136042
954.052	0.0136061
954.130	0.0135879
954.208	0.0135990
954.286	0.0134655
954.364	0.0135805
954.443	0.0136272
954.521	0.0135545
954.599	0.0135880
954.677	0.0136238
954.755	0.0135742
954.833	0.0134744
954.911	0.0135973
954.989	0.0136229
955.068	0.0135496
955.146	0.0135170
955.224	0.0134983
955.302	0.0135500
955.380	0.0136313
955.458	0.0135030
955.536	0.0135891
955.614	0.0135353
955.693	0.0136117
955.771	0.0135921
955.849	0.0135269
955.927	0.0135521
956.005	0.0135931
956.083	0.0136049
956.161	0.0136080
956.239	0.0135477
956.318	0.0136376
956.396	0.0136108
956.474	0.0136886
956.552	0.0136829
956.630	0.0136047
956.708	0.0135575
956.786	0.0135823
956.864	0.0136308
956.943	0.0136042
957.021	0.0134949
957.099	0.0136391
957.177	0.0137457
957.255	0.0135754
957.333	0.0135571
957.411	0.0134882
957.489	0.0135020
957.568	0.0135750
957.646	0.0135535
957.724	0.0135747
957.802	0.0135267
957.880	0.0136389
957.958	0.0135337
958.036	0.0135883
958.114	0.0135889
958.193	0.0136704
958.271	0.0135482
958.349	0.0136031
958.427	0.0135384
958.505	0.0136822
958.583	0.0136646
958.661	0.0134216
958.739	0.0135435
958.818	0.0135876
958.896	0.0136800
958.974	0.0136623
959.052	0.0137322
959.130	0.0136163
959.208	0.0135657
959.286	0.0137484
959.364	0.0135036
959.443	0.0136617
959.521	0.0136160
959.599	0.0136689
959.677	0.0136037
959.755	0.0136077
959.833	0.0135487
959.911	0.0134375
