05/14/2022	16:35:16	Ver.	4.1	UNKNOWN
Optical Delay	639.989416	Delta X		0.078125	Sweeps	1	Scan Rate	0/0
Coordinates	Axis 1	NaN	Axis 2	NaN	Axis 3	NaN	Axis 4	NaN	Axis 5	NaN	Axis 6	0.000000
TX Power	0.000000	RX Power	0.000000

639.989	0.0139716
640.068	0.0140546
640.146	0.0139957
640.224	0.0138880
640.302	0.0140141
640.380	0.0140020
640.458	0.0139346
640.536	0.0140430
640.614	0.0140977
640.693	0.0139393
640.771	0.0139204
640.849	0.0139050
640.927	0.0140130
641.005	0.0138886
641.083	0.0138952
641.161	0.0139378
641.239	0.0139084
641.318	0.0139886
641.396	0.0139713
641.474	0.0139798
641.552	0.0139503
641.630	0.0138977
641.708	0.0137997
641.786	0.0139503
641.864	0.0138496
641.943	0.0138412
642.021	0.0140108
642.099	0.0138844
642.177	0.0139961
642.255	0.0138439
642.333	0.0138907
642.411	0.0139434
642.489	0.0139001
642.568	0.0139197
642.646	0.0139359
642.724	0.0139584
642.802	0.0139098
642.880	0.0138456
642.958	0.0139228
643.036	0.0139087
643.114	0.0138904
643.193	0.0138733
643.271	0.0138335
643.349	0.0139044
643.427	0.0139539
643.505	0.0138562
643.583	0.0138859
643.661	0.0140307
643.739	0.0139130
643.818	0.0139375
643.896	0.0138846
643.974	0.0139079
644.052	0.0139532
644.130	0.0140202
644.208	0.0139564
644.286	0.0139832
644.364	0.0137040
644.443	0.0139347
644.521	0.0140322
644.599	0.0140135
644.677	0.0139210
644.755	0.0138062
644.833	0.0138295
644.911	0.0139341
644.989	0.0139410
645.068	0.0139663
645.146	0.0139602
645.224	0.0139588
645.302	0.0137673
645.380	0.0139317
645.458	0.0139374
645.536	0.0138647
645.614	0.0140031
645.693	0.0138361
645.771	0.0138904
645.849	0.0140135
645.927	0.0139310
646.005	0.0137855
646.083	0.0138760
646.161	0.0139453
646.239	0.0139122
646.318	0.0137832
646.396	0.0138284
646.474	0.0137955
646.552	0.0138554
646.630	0.0139135
646.708	0.0141129
646.786	0.0138494
646.864	0.0138754
646.943	0.0139339
647.021	0.0138028
647.099	0.0137141
647.177	0.0137611
647.255	0.0137978
647.333	0.0138174
647.411	0.0138907
647.489	0.0138004
647.568	0.0138137
647.646	0.0139098
647.724	0.0138182
647.802	0.0139356
647.880	0.0137746
647.958	0.0138512
648.036	0.0138882
648.114	0.0139202
648.193	0.0138228
648.271	0.0137655
648.349	0.0139278
648.427	0.0137835
648.505	0.0137919
648.583	0.0138789
648.661	0.0138082
648.739	0.0138741
648.818	0.0137582
648.896	0.0138037
648.974	0.0137530
649.052	0.0137894
649.130	0.0138097
649.208	0.0138229
649.286	0.0138328
649.364	0.0137649
649.443	0.0138934
649.521	0.0138171
649.599	0.0138019
649.677	0.0138103
649.755	0.0138243
649.833	0.0137154
649.911	0.0138515
649.989	0.0138621
650.068	0.0138653
650.146	0.0137774
650.224	0.0137252
650.302	0.0138334
650.380	0.0138565
650.458	0.0139101
650.536	0.0137331
650.614	0.0138725
650.693	0.0139167
650.771	0.0137811
650.849	0.0137671
650.927	0.0136841
651.005	0.0137628
651.083	0.0137989
651.161	0.0136578
651.239	0.0137849
651.318	0.0138940
651.396	0.0138382
651.474	0.0138618
651.552	0.0138959
651.630	0.0138013
651.708	0.0139247
651.786	0.0137398
651.864	0.0138269
651.943	0.0137329
652.021	0.0138280
652.099	0.0137328
652.177	0.0138265
652.255	0.0136719
652.333	0.0137804
652.411	0.0138289
652.489	0.0138111
652.568	0.0136496
652.646	0.0137588
652.724	0.0137765
652.802	0.0137323
652.880	0.0137992
652.958	0.0139147
653.036	0.0137515
653.114	0.0138933
653.193	0.0138347
653.271	0.0137103
653.349	0.0138119
653.427	0.0137395
653.505	0.0137859
653.583	0.0137733
653.661	0.0138345
653.739	0.0138215
653.818	0.0137032
653.896	0.0138457
653.974	0.0137126
654.052	0.0138271
654.130	0.0137028
654.208	0.0139301
654.286	0.0137182
654.364	0.0135712
654.443	0.0136585
654.521	0.0138225
654.599	0.0136569
654.677	0.0138060
654.755	0.0137928
654.833	0.0137204
654.911	0.0138480
654.989	0.0137238
655.068	0.0136996
655.146	0.0135915
655.224	0.0138374
655.302	0.0137228
655.380	0.0137180
655.458	0.0137302
655.536	0.0138006
655.614	0.0136718
655.693	0.0137370
655.771	0.0138154
655.849	0.0137917
655.927	0.0137223
656.005	0.0138544
656.083	0.0138447
656.161	0.0138281
656.239	0.0138233
656.318	0.0138458
656.396	0.0139037
656.474	0.0139776
656.552	0.0139143
656.630	0.0138613
656.708	0.0137625
656.786	0.0138248
656.864	0.0138490
656.943	0.0137739
657.021	0.0138534
657.099	0.0138866
657.177	0.0137519
657.255	0.0138748
657.333	0.0138653
657.411	0.0138750
657.489	0.0137855
657.568	0.0139411
657.646	0.0139169
657.724	0.0138463
657.802	0.0138715
657.880	0.0137988
657.958	0.0137186
658.036	0.0138641
658.114	0.0139088
658.193	0.0137858
658.271	0.0138868
658.349	0.0139266
658.427	0.0138675
658.505	0.0138074
658.583	0.0137424
658.661	0.0137589
658.739	0.0137238
658.818	0.0137794
658.896	0.0137829
658.974	0.0139180
659.052	0.0137295
659.130	0.0137585
659.208	0.0137792
659.286	0.0137782
659.364	0.0138466
659.443	0.0138242
659.521	0.0137178
659.599	0.0137879
659.677	0.0138909
659.755	0.0139198
659.833	0.0137785
659.911	0.0138347
659.989	0.0138130
660.068	0.0139591
660.146	0.0138262
660.224	0.0139781
660.302	0.0139571
660.380	0.0139876
660.458	0.0139577
660.536	0.0138653
660.614	0.0138492
660.693	0.0138393
660.771	0.0139495
660.849	0.0139557
660.927	0.0138365
661.005	0.0138287
661.083	0.0139008
661.161	0.0139017
661.239	0.0139470
661.318	0.0139368
661.396	0.0139687
661.474	0.0137974
661.552	0.0138951
661.630	0.0140013
661.708	0.0138156
661.786	0.0138939
661.864	0.0138161
661.943	0.0138733
662.021	0.0138829
662.099	0.0140128
662.177	0.0139414
662.255	0.0139187
662.333	0.0139758
662.411	0.0138663
662.489	0.0139938
662.568	0.0139731
662.646	0.0138905
662.724	0.0139397
662.802	0.0139288
662.880	0.0138586
662.958	0.0137960
663.036	0.0138996
663.114	0.0140613
663.193	0.0139321
663.271	0.0140202
663.349	0.0138060
663.427	0.0140543
663.505	0.0140089
663.583	0.0140385
663.661	0.0141232
663.739	0.0139758
663.818	0.0140099
663.896	0.0139018
663.974	0.0141231
664.052	0.0139201
664.130	0.0139745
664.208	0.0141917
664.286	0.0140876
664.364	0.0140054
664.443	0.0140254
664.521	0.0140405
664.599	0.0140414
664.677	0.0140154
664.755	0.0139440
664.833	0.0139277
664.911	0.0140142
664.989	0.0138711
665.068	0.0139222
665.146	0.0139379
665.224	0.0139846
665.302	0.0139127
665.380	0.0137988
665.458	0.0140134
665.536	0.0140798
665.614	0.0139600
665.693	0.0139763
665.771	0.0139695
665.849	0.0139653
665.927	0.0140659
666.005	0.0139264
666.083	0.0140083
666.161	0.0140340
666.239	0.0138745
666.318	0.0139565
666.396	0.0139403
666.474	0.0139606
666.552	0.0139483
666.630	0.0138429
666.708	0.0139641
666.786	0.0138839
666.864	0.0137834
666.943	0.0139842
667.021	0.0139149
667.099	0.0138448
667.177	0.0140395
667.255	0.0138622
667.333	0.0137209
667.411	0.0138084
667.489	0.0139214
667.568	0.0139861
667.646	0.0138717
667.724	0.0137053
667.802	0.0140247
667.880	0.0140398
667.958	0.0138021
668.036	0.0138858
668.114	0.0138542
668.193	0.0139072
668.271	0.0138991
668.349	0.0138425
668.427	0.0137744
668.505	0.0137982
668.583	0.0137895
668.661	0.0138742
668.739	0.0138393
668.818	0.0137185
668.896	0.0138316
668.974	0.0139493
669.052	0.0137202
669.130	0.0137451
669.208	0.0139434
669.286	0.0140288
669.364	0.0139468
669.443	0.0139085
669.521	0.0140195
669.599	0.0139262
669.677	0.0138620
669.755	0.0138245
669.833	0.0139910
669.911	0.0139931
669.989	0.0138596
670.068	0.0140140
670.146	0.0139746
670.224	0.0138670
670.302	0.0138490
670.380	0.0138084
670.458	0.0137753
670.536	0.0139606
670.614	0.0138641
670.693	0.0138452
670.771	0.0138008
670.849	0.0137690
670.927	0.0137726
671.005	0.0138717
671.083	0.0138132
671.161	0.0137669
671.239	0.0137239
671.318	0.0138621
671.396	0.0138172
671.474	0.0137637
671.552	0.0137937
671.630	0.0138486
671.708	0.0138454
671.786	0.0138142
671.864	0.0138576
671.943	0.0136657
672.021	0.0138296
672.099	0.0136892
672.177	0.0137234
672.255	0.0136529
672.333	0.0137605
672.411	0.0138153
672.489	0.0136821
672.568	0.0137445
672.646	0.0138393
672.724	0.0137960
672.802	0.0137177
672.880	0.0136467
672.958	0.0137671
673.036	0.0137102
673.114	0.0136473
673.193	0.0138541
673.271	0.0137002
673.349	0.0136521
673.427	0.0136484
673.505	0.0136315
673.583	0.0136113
673.661	0.0136279
673.739	0.0137035
673.818	0.0137089
673.896	0.0136834
673.974	0.0136226
674.052	0.0137638
674.130	0.0138197
674.208	0.0136569
674.286	0.0136401
674.364	0.0137503
674.443	0.0137116
674.521	0.0138974
674.599	0.0137840
674.677	0.0138484
674.755	0.0138122
674.833	0.0137861
674.911	0.0137638
674.989	0.0138535
675.068	0.0137847
675.146	0.0138073
675.224	0.0137491
675.302	0.0138020
675.380	0.0137932
675.458	0.0135857
675.536	0.0136384
675.614	0.0136903
675.693	0.0137881
675.771	0.0137588
675.849	0.0136987
675.927	0.0139346
676.005	0.0139109
676.083	0.0138680
676.161	0.0137121
676.239	0.0137881
676.318	0.0139020
676.396	0.0138796
676.474	0.0138122
676.552	0.0138746
676.630	0.0139658
676.708	0.0140382
676.786	0.0141595
676.864	0.0141400
676.943	0.0140683
677.021	0.0142081
677.099	0.0140931
677.177	0.0141419
677.255	0.0140813
677.333	0.0140530
677.411	0.0140179
677.489	0.0136620
677.568	0.0138247
677.646	0.0135734
677.724	0.0135679
677.802	0.0135136
677.880	0.0134698
677.958	0.0134470
678.036	0.0133856
678.114	0.0133924
678.193	0.0133915
678.271	0.0134649
678.349	0.0134892
678.427	0.0135254
678.505	0.0135624
678.583	0.0137093
678.661	0.0137887
678.739	0.0139386
678.818	0.0142693
678.896	0.0142161
678.974	0.0144640
679.052	0.0144529
679.130	0.0146911
679.208	0.0148405
679.286	0.0149855
679.364	0.0150301
679.443	0.0148587
679.521	0.0147958
679.599	0.0147802
679.677	0.0146971
679.755	0.0143612
679.833	0.0141164
679.911	0.0138079
679.989	0.0136848
680.068	0.0133582
680.146	0.0131226
680.224	0.0130376
680.302	0.0127517
680.380	0.0126625
680.458	0.0124980
680.536	0.0124942
680.614	0.0123518
680.693	0.0124397
680.771	0.0125430
680.849	0.0126856
680.927	0.0127097
681.005	0.0129485
681.083	0.0132191
681.161	0.0136176
681.239	0.0137853
681.318	0.0140057
681.396	0.0143085
681.474	0.0146452
681.552	0.0148006
681.630	0.0151911
681.708	0.0153353
681.786	0.0155373
681.864	0.0156672
681.943	0.0158053
682.021	0.0156704
682.099	0.0157956
682.177	0.0158768
682.255	0.0156303
682.333	0.0154645
682.411	0.0153113
682.489	0.0150250
682.568	0.0148412
682.646	0.0145235
682.724	0.0143685
682.802	0.0139812
682.880	0.0134325
682.958	0.0131432
683.036	0.0128063
683.114	0.0125979
683.193	0.0121844
683.271	0.0119083
683.349	0.0116080
683.427	0.0114579
683.505	0.0114360
683.583	0.0113719
683.661	0.0114576
683.739	0.0114043
683.818	0.0115431
683.896	0.0118940
683.974	0.0120339
684.052	0.0125652
684.130	0.0127992
684.208	0.0131326
684.286	0.0135830
684.364	0.0140195
684.443	0.0143571
684.521	0.0147137
684.599	0.0152047
684.677	0.0155598
684.755	0.0159136
684.833	0.0160631
684.911	0.0164109
684.989	0.0166311
685.068	0.0165392
685.146	0.0167413
685.224	0.0166370
685.302	0.0164872
685.380	0.0163074
685.458	0.0160788
685.536	0.0158628
685.614	0.0155241
685.693	0.0149993
685.771	0.0146594
685.849	0.0144210
685.927	0.0139101
686.005	0.0135870
686.083	0.0130285
686.161	0.0126051
686.239	0.0123470
686.318	0.0120542
686.396	0.0116798
686.474	0.0114737
686.552	0.0112247
686.630	0.0111240
686.708	0.0111855
686.786	0.0111105
686.864	0.0112203
686.943	0.0113689
687.021	0.0115019
687.099	0.0116407
687.177	0.0120602
687.255	0.0124780
687.333	0.0127557
687.411	0.0130515
687.489	0.0134992
687.568	0.0137501
687.646	0.0142602
687.724	0.0147566
687.802	0.0150577
687.880	0.0152335
687.958	0.0155676
688.036	0.0157539
688.114	0.0160275
688.193	0.0160716
688.271	0.0163087
688.349	0.0161766
688.427	0.0162506
688.505	0.0161659
688.583	0.0159306
688.661	0.0158484
688.739	0.0155849
688.818	0.0152987
688.896	0.0151405
688.974	0.0148198
689.052	0.0144182
689.130	0.0139909
689.208	0.0137549
689.286	0.0135653
689.364	0.0131154
689.443	0.0128577
689.521	0.0126395
689.599	0.0123082
689.677	0.0122445
689.755	0.0121883
689.833	0.0119801
689.911	0.0120879
689.989	0.0120153
690.068	0.0120616
690.146	0.0122059
690.224	0.0121555
690.302	0.0125089
690.380	0.0127623
690.458	0.0129910
690.536	0.0132510
690.614	0.0135142
690.693	0.0137884
690.771	0.0142290
690.849	0.0145665
690.927	0.0150533
691.005	0.0154475
691.083	0.0156058
691.161	0.0159664
691.239	0.0162005
691.318	0.0163599
691.396	0.0163476
691.474	0.0164759
691.552	0.0162881
691.630	0.0159894
691.708	0.0156440
691.786	0.0154378
691.864	0.0150538
691.943	0.0144729
692.021	0.0140398
692.099	0.0136852
692.177	0.0130702
692.255	0.0126231
692.333	0.0124405
692.411	0.0118086
692.489	0.0115983
692.568	0.0114633
692.646	0.0111977
692.724	0.0111121
692.802	0.0110957
692.880	0.0109769
692.958	0.0111730
693.036	0.0113168
693.114	0.0114196
693.193	0.0117233
693.271	0.0119533
693.349	0.0123620
693.427	0.0127092
693.505	0.0130730
693.583	0.0134602
693.661	0.0138178
693.739	0.0144662
693.818	0.0147363
693.896	0.0152188
693.974	0.0155372
694.052	0.0161132
694.130	0.0164473
694.208	0.0168200
694.286	0.0170487
694.364	0.0173374
694.443	0.0175586
694.521	0.0174503
694.599	0.0175777
694.677	0.0175801
694.755	0.0173682
694.833	0.0172231
694.911	0.0169429
694.989	0.0166360
695.068	0.0162203
695.146	0.0158553
695.224	0.0153953
695.302	0.0149301
695.380	0.0144637
695.458	0.0139600
695.536	0.0134398
695.614	0.0130273
695.693	0.0126447
695.771	0.0123781
695.849	0.0117261
695.927	0.0114117
696.005	0.0110117
696.083	0.0107840
696.161	0.0103972
696.239	0.0101360
696.318	0.00989990
696.396	0.00977493
696.474	0.00986038
696.552	0.00976059
696.630	0.00976486
696.708	0.0101943
696.786	0.0104269
696.864	0.0104841
696.943	0.0110206
697.021	0.0114957
697.099	0.0120255
697.177	0.0124927
697.255	0.0131542
697.333	0.0136389
697.411	0.0141989
697.489	0.0147628
697.568	0.0153526
697.646	0.0156831
697.724	0.0160345
697.802	0.0165481
697.880	0.0169119
697.958	0.0170899
698.036	0.0171774
698.114	0.0171789
698.193	0.0171447
698.271	0.0170882
698.349	0.0168642
698.427	0.0167997
698.505	0.0164097
698.583	0.0160063
698.661	0.0158286
698.739	0.0155735
698.818	0.0152354
698.896	0.0148754
698.974	0.0146471
699.052	0.0144605
699.130	0.0142606
699.208	0.0141161
699.286	0.0140100
699.364	0.0139474
699.443	0.0137671
699.521	0.0138261
699.599	0.0138394
699.677	0.0138560
699.755	0.0137268
699.833	0.0137991
699.911	0.0137395
699.989	0.0138467
700.068	0.0136800
700.146	0.0135787
700.224	0.0135535
700.302	0.0133978
700.380	0.0133892
700.458	0.0132195
700.536	0.0132023
700.614	0.0129113
700.693	0.0130080
700.771	0.0129646
700.849	0.0128121
700.927	0.0126884
701.005	0.0126427
701.083	0.0124960
701.161	0.0123729
701.239	0.0122977
701.318	0.0120917
701.396	0.0118862
701.474	0.0116804
701.552	0.0116091
701.630	0.0117931
701.708	0.0116420
701.786	0.0116293
701.864	0.0117035
701.943	0.0120071
702.021	0.0123431
702.099	0.0126673
702.177	0.0126431
702.255	0.0130141
702.333	0.0132680
702.411	0.0135770
702.489	0.0140784
702.568	0.0143394
702.646	0.0145752
702.724	0.0148538
702.802	0.0150429
702.880	0.0152071
702.958	0.0155232
703.036	0.0158463
703.114	0.0158254
703.193	0.0160381
703.271	0.0161901
703.349	0.0162479
703.427	0.0162860
703.505	0.0162257
703.583	0.0162655
703.661	0.0163594
703.739	0.0162090
703.818	0.0160736
703.896	0.0162618
703.974	0.0159375
704.052	0.0159524
704.130	0.0158501
704.208	0.0155598
704.286	0.0153659
704.364	0.0152757
704.443	0.0148866
704.521	0.0146334
704.599	0.0143341
704.677	0.0138483
704.755	0.0136256
704.833	0.0134074
704.911	0.0130002
704.989	0.0126082
705.068	0.0122910
705.146	0.0121932
705.224	0.0119147
705.302	0.0115945
705.380	0.0116086
705.458	0.0115682
705.536	0.0116682
705.614	0.0117234
705.693	0.0117739
705.771	0.0118984
705.849	0.0121629
705.927	0.0124974
706.005	0.0126699
706.083	0.0129720
706.161	0.0132847
706.239	0.0133725
706.318	0.0136791
706.396	0.0138087
706.474	0.0138834
706.552	0.0139919
706.630	0.0140658
706.708	0.0140136
706.786	0.0138776
706.864	0.0137237
706.943	0.0136411
707.021	0.0134261
707.099	0.0132880
707.177	0.0130249
707.255	0.0130103
707.333	0.0131841
707.411	0.0130050
707.489	0.0129765
707.568	0.0131951
707.646	0.0130735
707.724	0.0132932
707.802	0.0135436
707.880	0.0136076
707.958	0.0137096
708.036	0.0138531
708.114	0.0141158
708.193	0.0140780
708.271	0.0142654
708.349	0.0142517
708.427	0.0143582
708.505	0.0143946
708.583	0.0144022
708.661	0.0143172
708.739	0.0143271
708.818	0.0143429
708.896	0.0145110
708.974	0.0143718
709.052	0.0144104
709.130	0.0144054
709.208	0.0145866
709.286	0.0146743
709.364	0.0148233
709.443	0.0150203
709.521	0.0150256
709.599	0.0151604
709.677	0.0153280
709.755	0.0155547
709.833	0.0157159
709.911	0.0156979
709.989	0.0158163
710.068	0.0157213
710.146	0.0158495
710.224	0.0157874
710.302	0.0157602
710.380	0.0156528
710.458	0.0154913
710.536	0.0152821
710.614	0.0151024
710.693	0.0147826
710.771	0.0145976
710.849	0.0144880
710.927	0.0140236
711.005	0.0137020
711.083	0.0134145
711.161	0.0131700
711.239	0.0128356
711.318	0.0125306
711.396	0.0123112
711.474	0.0118820
711.552	0.0117806
711.630	0.0116233
711.708	0.0115250
711.786	0.0112556
711.864	0.0113367
711.943	0.0112936
712.021	0.0112602
712.099	0.0113097
712.177	0.0113892
712.255	0.0114305
712.333	0.0115238
712.411	0.0115987
712.489	0.0119141
712.568	0.0119286
712.646	0.0122568
712.724	0.0125389
712.802	0.0127609
712.880	0.0129517
712.958	0.0132386
713.036	0.0134740
713.114	0.0136395
713.193	0.0139549
713.271	0.0139346
713.349	0.0142165
713.427	0.0144339
713.505	0.0144477
713.583	0.0144172
713.661	0.0145844
713.739	0.0146010
713.818	0.0143954
713.896	0.0147626
713.974	0.0148163
714.052	0.0149878
714.130	0.0151133
714.208	0.0153543
714.286	0.0156321
714.364	0.0157880
714.443	0.0158348
714.521	0.0161366
714.599	0.0163589
714.677	0.0165247
714.755	0.0165240
714.833	0.0166670
714.911	0.0166506
714.989	0.0165938
715.068	0.0166262
715.146	0.0164140
715.224	0.0164384
715.302	0.0162368
715.380	0.0159227
715.458	0.0156779
715.536	0.0152785
715.614	0.0152274
715.693	0.0151284
715.771	0.0146432
715.849	0.0144460
715.927	0.0142748
716.005	0.0141473
716.083	0.0139532
716.161	0.0136915
716.239	0.0134798
716.318	0.0134674
716.396	0.0132777
716.474	0.0132213
716.552	0.0129449
716.630	0.0128139
716.708	0.0126745
716.786	0.0124918
716.864	0.0123293
716.943	0.0121069
717.021	0.0119170
717.099	0.0116451
717.177	0.0115883
717.255	0.0116019
717.333	0.0113903
717.411	0.0114360
717.489	0.0114644
717.568	0.0114900
717.646	0.0116439
717.724	0.0117198
717.802	0.0117390
717.880	0.0119628
717.958	0.0121318
718.036	0.0122448
718.114	0.0122321
718.193	0.0123320
718.271	0.0124222
718.349	0.0124623
718.427	0.0125373
718.505	0.0127454
718.583	0.0129442
718.661	0.0129105
718.739	0.0131161
718.818	0.0134401
718.896	0.0135760
718.974	0.0138357
719.052	0.0140485
719.130	0.0141980
719.208	0.0144247
719.286	0.0146719
719.364	0.0149387
719.443	0.0150805
719.521	0.0153879
719.599	0.0156025
719.677	0.0157639
719.755	0.0161108
719.833	0.0161028
719.911	0.0164133
719.989	0.0167064
720.068	0.0169016
720.146	0.0169941
720.224	0.0170176
720.302	0.0168780
720.380	0.0168030
720.458	0.0168204
720.536	0.0165558
720.614	0.0163245
720.693	0.0162046
720.771	0.0159621
720.849	0.0157092
720.927	0.0155584
721.005	0.0153661
721.083	0.0149667
721.161	0.0150325
721.239	0.0148267
721.318	0.0146708
721.396	0.0148132
721.474	0.0147801
721.552	0.0144814
721.630	0.0144203
721.708	0.0143453
721.786	0.0142635
721.864	0.0140172
721.943	0.0136898
722.021	0.0135088
722.099	0.0129916
722.177	0.0125402
722.255	0.0120763
722.333	0.0118020
722.411	0.0112986
722.489	0.0110236
722.568	0.0108142
722.646	0.0105834
722.724	0.0104945
722.802	0.0105449
722.880	0.0104659
722.958	0.0104084
723.036	0.0104614
723.114	0.0108112
723.193	0.0109699
723.271	0.0111455
723.349	0.0113580
723.427	0.0116505
723.505	0.0119699
723.583	0.0121523
723.661	0.0124319
723.739	0.0126936
723.818	0.0130484
723.896	0.0132240
723.974	0.0135538
724.052	0.0136140
724.130	0.0141269
724.208	0.0142944
724.286	0.0143833
724.364	0.0145687
724.443	0.0148304
724.521	0.0149564
724.599	0.0150661
724.677	0.0152703
724.755	0.0155704
724.833	0.0156195
724.911	0.0157856
724.989	0.0157749
725.068	0.0158169
725.146	0.0157327
725.224	0.0156930
725.302	0.0157668
725.380	0.0155299
725.458	0.0155619
725.536	0.0154022
725.614	0.0151060
725.693	0.0150414
725.771	0.0147748
725.849	0.0145554
725.927	0.0144688
726.005	0.0144551
726.083	0.0143790
726.161	0.0142742
726.239	0.0144254
726.318	0.0143131
726.396	0.0143998
726.474	0.0143290
726.552	0.0144357
726.630	0.0143774
726.708	0.0143519
726.786	0.0144250
726.864	0.0143172
726.943	0.0144873
727.021	0.0144400
727.099	0.0144015
727.177	0.0143648
727.255	0.0144898
727.333	0.0144526
727.411	0.0142404
727.489	0.0141401
727.568	0.0141171
727.646	0.0139709
727.724	0.0138896
727.802	0.0136306
727.880	0.0134367
727.958	0.0133031
728.036	0.0131866
728.114	0.0129477
728.193	0.0128873
728.271	0.0128245
728.349	0.0127265
728.427	0.0125886
728.505	0.0125378
728.583	0.0124120
728.661	0.0124618
728.739	0.0121997
728.818	0.0123512
728.896	0.0124820
728.974	0.0124249
729.052	0.0123522
729.130	0.0123579
729.208	0.0125359
729.286	0.0124644
729.364	0.0123201
729.443	0.0125203
729.521	0.0125450
729.599	0.0125421
729.677	0.0126621
729.755	0.0127998
729.833	0.0127514
729.911	0.0127925
729.989	0.0128436
730.068	0.0131243
730.146	0.0132695
730.224	0.0134791
730.302	0.0135806
730.380	0.0137007
730.458	0.0138601
730.536	0.0141426
730.614	0.0142225
730.693	0.0142581
730.771	0.0144576
730.849	0.0146429
730.927	0.0146055
731.005	0.0146657
731.083	0.0149606
731.161	0.0148805
731.239	0.0148053
731.318	0.0148866
731.396	0.0148805
731.474	0.0148280
731.552	0.0149427
731.630	0.0148547
731.708	0.0149052
731.786	0.0150124
731.864	0.0149575
731.943	0.0148846
732.021	0.0150705
732.099	0.0152825
732.177	0.0153054
732.255	0.0153457
732.333	0.0154064
732.411	0.0156290
732.489	0.0155914
732.568	0.0157738
732.646	0.0158469
732.724	0.0156401
732.802	0.0155943
732.880	0.0156012
732.958	0.0154207
733.036	0.0153993
733.114	0.0152485
733.193	0.0150232
733.271	0.0146996
733.349	0.0145641
733.427	0.0143068
733.505	0.0140818
733.583	0.0138002
733.661	0.0136001
733.739	0.0133337
733.818	0.0130438
733.896	0.0128903
733.974	0.0127706
734.052	0.0123705
734.130	0.0120621
734.208	0.0118210
734.286	0.0115014
734.364	0.0113768
734.443	0.0113657
734.521	0.0113226
734.599	0.0109318
734.677	0.0110105
734.755	0.0111542
734.833	0.0112025
734.911	0.0112720
734.989	0.0113433
735.068	0.0114979
735.146	0.0116591
735.224	0.0120277
735.302	0.0120586
735.380	0.0124120
735.458	0.0126420
735.536	0.0129302
735.614	0.0133749
735.693	0.0135830
735.771	0.0137403
735.849	0.0140083
735.927	0.0143871
736.005	0.0146441
736.083	0.0147232
736.161	0.0147536
736.239	0.0149548
736.318	0.0150402
736.396	0.0150701
736.474	0.0150555
736.552	0.0149360
736.630	0.0149765
736.708	0.0149937
736.786	0.0149326
736.864	0.0150952
736.943	0.0149223
737.021	0.0149224
737.099	0.0148975
737.177	0.0148064
737.255	0.0148701
737.333	0.0148307
737.411	0.0148475
737.489	0.0147263
737.568	0.0147155
737.646	0.0147178
737.724	0.0146753
737.802	0.0147386
737.880	0.0149595
737.958	0.0149210
738.036	0.0148425
738.114	0.0150066
738.193	0.0150455
738.271	0.0149483
738.349	0.0150323
738.427	0.0150473
738.505	0.0149777
738.583	0.0148975
738.661	0.0147234
738.739	0.0148396
738.818	0.0146606
738.896	0.0144714
738.974	0.0142355
739.052	0.0138573
739.130	0.0138853
739.208	0.0135638
739.286	0.0133868
739.364	0.0133143
739.443	0.0130331
739.521	0.0128975
739.599	0.0126344
739.677	0.0124010
739.755	0.0124847
739.833	0.0123234
739.911	0.0124543
739.989	0.0124565
740.068	0.0122681
740.146	0.0121954
740.224	0.0123756
740.302	0.0126346
740.380	0.0126720
740.458	0.0128357
740.536	0.0129001
740.614	0.0133591
740.693	0.0132955
740.771	0.0135332
740.849	0.0136320
740.927	0.0139041
741.005	0.0139032
741.083	0.0140308
741.161	0.0141513
741.239	0.0141232
741.318	0.0143369
741.396	0.0143961
741.474	0.0144415
741.552	0.0143394
741.630	0.0144348
741.708	0.0143475
741.786	0.0143750
741.864	0.0143480
741.943	0.0143036
742.021	0.0141510
742.099	0.0140657
742.177	0.0141270
742.255	0.0140333
742.333	0.0140152
742.411	0.0139526
742.489	0.0139001
742.568	0.0139476
742.646	0.0140359
742.724	0.0138825
742.802	0.0139622
742.880	0.0141025
742.958	0.0141689
743.036	0.0140968
743.114	0.0143062
743.193	0.0142416
743.271	0.0141209
743.349	0.0143005
743.427	0.0144411
743.505	0.0144708
743.583	0.0145065
743.661	0.0145250
743.739	0.0144850
743.818	0.0145441
743.896	0.0146065
743.974	0.0146336
744.052	0.0146544
744.130	0.0144481
744.208	0.0144327
744.286	0.0144593
744.364	0.0144311
744.443	0.0142504
744.521	0.0140688
744.599	0.0140270
744.677	0.0137922
744.755	0.0138278
744.833	0.0136584
744.911	0.0137062
744.989	0.0137211
745.068	0.0134852
745.146	0.0134345
745.224	0.0133393
745.302	0.0131792
745.380	0.0133658
745.458	0.0133777
745.536	0.0133692
745.614	0.0133559
745.693	0.0134330
745.771	0.0133570
745.849	0.0134229
745.927	0.0135050
746.005	0.0134601
746.083	0.0136148
746.161	0.0136190
746.239	0.0137707
746.318	0.0137474
746.396	0.0137523
746.474	0.0138565
746.552	0.0137991
746.630	0.0138787
746.708	0.0139487
746.786	0.0140034
746.864	0.0140767
746.943	0.0140366
747.021	0.0141049
747.099	0.0141428
747.177	0.0138884
747.255	0.0140470
747.333	0.0138972
747.411	0.0139262
747.489	0.0137294
747.568	0.0138398
747.646	0.0136737
747.724	0.0136756
747.802	0.0135767
747.880	0.0135044
747.958	0.0135645
748.036	0.0135298
748.114	0.0134621
748.193	0.0133540
748.271	0.0135287
748.349	0.0136208
748.427	0.0135428
748.505	0.0135631
748.583	0.0137888
748.661	0.0137810
748.739	0.0138546
748.818	0.0138776
748.896	0.0140379
748.974	0.0140908
749.052	0.0141491
749.130	0.0141576
749.208	0.0142364
749.286	0.0141293
749.364	0.0142757
749.443	0.0142830
749.521	0.0142907
749.599	0.0142867
749.677	0.0142693
749.755	0.0141970
749.833	0.0141137
749.911	0.0142194
749.989	0.0141298
750.068	0.0141414
750.146	0.0141042
750.224	0.0140867
750.302	0.0139538
750.380	0.0138955
750.458	0.0139276
750.536	0.0137093
750.614	0.0136069
750.693	0.0135536
750.771	0.0134847
750.849	0.0133262
750.927	0.0133167
751.005	0.0131742
751.083	0.0131902
751.161	0.0132319
751.239	0.0132507
751.318	0.0132364
751.396	0.0133491
751.474	0.0134543
751.552	0.0136904
751.630	0.0136303
751.708	0.0136794
751.786	0.0137577
751.864	0.0138065
751.943	0.0137807
752.021	0.0138226
752.099	0.0139415
752.177	0.0139815
752.255	0.0140120
752.333	0.0139396
752.411	0.0138890
752.489	0.0140279
752.568	0.0139117
752.646	0.0139735
752.724	0.0138864
752.802	0.0139739
752.880	0.0138992
752.958	0.0137893
753.036	0.0139277
753.114	0.0141428
753.193	0.0140229
753.271	0.0138290
753.349	0.0138452
753.427	0.0138996
753.505	0.0138009
753.583	0.0136316
753.661	0.0136293
753.739	0.0136548
753.818	0.0135203
753.896	0.0134370
753.974	0.0134888
754.052	0.0135653
754.130	0.0133782
754.208	0.0135645
754.286	0.0134944
754.364	0.0135290
754.443	0.0135441
754.521	0.0135329
754.599	0.0136008
754.677	0.0135867
754.755	0.0137357
754.833	0.0137450
754.911	0.0137218
754.989	0.0138431
755.068	0.0140383
755.146	0.0140491
755.224	0.0138854
755.302	0.0139507
755.380	0.0140250
755.458	0.0140145
755.536	0.0141599
755.614	0.0140051
755.693	0.0140549
755.771	0.0139816
755.849	0.0140306
755.927	0.0140090
756.005	0.0140248
756.083	0.0139150
756.161	0.0140448
756.239	0.0140361
756.318	0.0140559
756.396	0.0139906
756.474	0.0140350
756.552	0.0141107
756.630	0.0140672
756.708	0.0140799
756.786	0.0139976
756.864	0.0141177
756.943	0.0140476
757.021	0.0139874
757.099	0.0139714
757.177	0.0139109
757.255	0.0136367
757.333	0.0137678
757.411	0.0137279
757.489	0.0137459
757.568	0.0134091
757.646	0.0135075
757.724	0.0134967
757.802	0.0136426
757.880	0.0135479
757.958	0.0136013
758.036	0.0136327
758.114	0.0137730
758.193	0.0137056
758.271	0.0137305
758.349	0.0139113
758.427	0.0139622
758.505	0.0138876
758.583	0.0140380
758.661	0.0141303
758.739	0.0140601
758.818	0.0139825
758.896	0.0142434
758.974	0.0140813
759.052	0.0140950
759.130	0.0142310
759.208	0.0141923
759.286	0.0140412
759.364	0.0141193
759.443	0.0141843
759.521	0.0142628
759.599	0.0141507
759.677	0.0141940
759.755	0.0141658
759.833	0.0141730
759.911	0.0143736
759.989	0.0142072
760.068	0.0141894
760.146	0.0141811
760.224	0.0141396
760.302	0.0139642
760.380	0.0139030
760.458	0.0139762
760.536	0.0138773
760.614	0.0136816
760.693	0.0137325
760.771	0.0135211
760.849	0.0136848
760.927	0.0136253
761.005	0.0135731
761.083	0.0135970
761.161	0.0135326
761.239	0.0136279
761.318	0.0137038
761.396	0.0136051
761.474	0.0134779
761.552	0.0135516
761.630	0.0137212
761.708	0.0136670
761.786	0.0137032
761.864	0.0137717
761.943	0.0138247
762.021	0.0137553
762.099	0.0139133
762.177	0.0140042
762.255	0.0137884
762.333	0.0139247
762.411	0.0138965
762.489	0.0139124
762.568	0.0137555
762.646	0.0138856
762.724	0.0137804
762.802	0.0139317
762.880	0.0138808
762.958	0.0137813
763.036	0.0137772
763.114	0.0138140
763.193	0.0137816
763.271	0.0138525
763.349	0.0139359
763.427	0.0138799
763.505	0.0140111
763.583	0.0136882
763.661	0.0138178
763.739	0.0139036
763.818	0.0139868
763.896	0.0141019
763.974	0.0140727
764.052	0.0139751
764.130	0.0140305
764.208	0.0142194
764.286	0.0139857
764.364	0.0139148
764.443	0.0140798
764.521	0.0140950
764.599	0.0142000
764.677	0.0142115
764.755	0.0140476
764.833	0.0140091
764.911	0.0140808
764.989	0.0139073
765.068	0.0139125
765.146	0.0140016
765.224	0.0139542
765.302	0.0138783
765.380	0.0140348
765.458	0.0139952
765.536	0.0140211
765.614	0.0138890
765.693	0.0140391
765.771	0.0141025
765.849	0.0140295
765.927	0.0139873
766.005	0.0138946
766.083	0.0139943
766.161	0.0140388
766.239	0.0139668
766.318	0.0139033
766.396	0.0137850
766.474	0.0138724
766.552	0.0137521
766.630	0.0136680
766.708	0.0137158
766.786	0.0135941
766.864	0.0135326
766.943	0.0135597
767.021	0.0137009
767.099	0.0136455
767.177	0.0134672
767.255	0.0134491
767.333	0.0136821
767.411	0.0134299
767.489	0.0136219
767.568	0.0137793
767.646	0.0135441
767.724	0.0137706
767.802	0.0137093
767.880	0.0137136
767.958	0.0138258
768.036	0.0137883
768.114	0.0137680
768.193	0.0138648
768.271	0.0138062
768.349	0.0138453
768.427	0.0138958
768.505	0.0138901
768.583	0.0139215
768.661	0.0138674
768.739	0.0139710
768.818	0.0138805
768.896	0.0140297
768.974	0.0141649
769.052	0.0141512
769.130	0.0142380
769.208	0.0141884
769.286	0.0143387
769.364	0.0142036
769.443	0.0143089
769.521	0.0143229
769.599	0.0141242
769.677	0.0141692
769.755	0.0139984
769.833	0.0139974
769.911	0.0140126
769.989	0.0139421
770.068	0.0137504
770.146	0.0135879
770.224	0.0136269
770.302	0.0135477
770.380	0.0135102
770.458	0.0135690
770.536	0.0134618
770.614	0.0135302
770.693	0.0132719
770.771	0.0134113
770.849	0.0135099
770.927	0.0135309
771.005	0.0135074
771.083	0.0136557
771.161	0.0136929
771.239	0.0134627
771.318	0.0135016
771.396	0.0135929
771.474	0.0137706
771.552	0.0136755
771.630	0.0136723
771.708	0.0137079
771.786	0.0137067
771.864	0.0138351
771.943	0.0139314
772.021	0.0136487
772.099	0.0138417
772.177	0.0139181
772.255	0.0140196
772.333	0.0140073
772.411	0.0140961
772.489	0.0140565
772.568	0.0140788
772.646	0.0140447
772.724	0.0141245
772.802	0.0140390
772.880	0.0139651
772.958	0.0140237
773.036	0.0140051
773.114	0.0140454
773.193	0.0139405
773.271	0.0139697
773.349	0.0138873
773.427	0.0140459
773.505	0.0139938
773.583	0.0140960
773.661	0.0139075
773.739	0.0140480
773.818	0.0141559
773.896	0.0138663
773.974	0.0139464
774.052	0.0137966
774.130	0.0138625
774.208	0.0137448
774.286	0.0138355
774.364	0.0139349
774.443	0.0137534
774.521	0.0137421
774.599	0.0136861
774.677	0.0136593
774.755	0.0136356
774.833	0.0136784
774.911	0.0137372
774.989	0.0136991
775.068	0.0137230
775.146	0.0137621
775.224	0.0136784
775.302	0.0138817
775.380	0.0138377
775.458	0.0138683
775.536	0.0141235
775.614	0.0141206
775.693	0.0140887
775.771	0.0140518
775.849	0.0140963
775.927	0.0140195
776.005	0.0141563
776.083	0.0140929
776.161	0.0139859
776.239	0.0140436
776.318	0.0140945
776.396	0.0139159
776.474	0.0138651
776.552	0.0138937
776.630	0.0137230
776.708	0.0137514
776.786	0.0139388
776.864	0.0139436
776.943	0.0137831
777.021	0.0136153
777.099	0.0138091
777.177	0.0135065
777.255	0.0135809
777.333	0.0137307
777.411	0.0137527
777.489	0.0138356
777.568	0.0135787
777.646	0.0136174
777.724	0.0137693
777.802	0.0136297
777.880	0.0137465
777.958	0.0139137
778.036	0.0139420
778.114	0.0140361
778.193	0.0141117
778.271	0.0140338
778.349	0.0142686
778.427	0.0144200
778.505	0.0143185
778.583	0.0143510
778.661	0.0143300
778.739	0.0143954
778.818	0.0144602
778.896	0.0144257
778.974	0.0144035
779.052	0.0142149
779.130	0.0141755
779.208	0.0141531
779.286	0.0141628
779.364	0.0141084
779.443	0.0139181
779.521	0.0137911
779.599	0.0137514
779.677	0.0137750
779.755	0.0136793
779.833	0.0136966
779.911	0.0136711
779.989	0.0135183
780.068	0.0135737
780.146	0.0135223
780.224	0.0134202
780.302	0.0135510
780.380	0.0135547
780.458	0.0135822
780.536	0.0136214
780.614	0.0136736
780.693	0.0136265
780.771	0.0137515
780.849	0.0137294
780.927	0.0138346
781.005	0.0137603
781.083	0.0136786
781.161	0.0138114
781.239	0.0138216
781.318	0.0140023
781.396	0.0141225
781.474	0.0140170
781.552	0.0140908
781.630	0.0142621
781.708	0.0141945
781.786	0.0142492
781.864	0.0142622
781.943	0.0143658
782.021	0.0142989
782.099	0.0144433
782.177	0.0143514
782.255	0.0142162
782.333	0.0142936
782.411	0.0142880
782.489	0.0142535
782.568	0.0141231
782.646	0.0140146
782.724	0.0139510
782.802	0.0139629
782.880	0.0139238
782.958	0.0139677
783.036	0.0138990
783.114	0.0137952
783.193	0.0137730
783.271	0.0137170
783.349	0.0137631
783.427	0.0137079
783.505	0.0136812
783.583	0.0137798
783.661	0.0138972
783.739	0.0137453
783.818	0.0136768
783.896	0.0137917
783.974	0.0136839
784.052	0.0138180
784.130	0.0137274
784.208	0.0137377
784.286	0.0137051
784.364	0.0136049
784.443	0.0135998
784.521	0.0136818
784.599	0.0137775
784.677	0.0137296
784.755	0.0138200
784.833	0.0137205
784.911	0.0138686
784.989	0.0140598
785.068	0.0139393
785.146	0.0138762
785.224	0.0140374
785.302	0.0140224
785.380	0.0139779
785.458	0.0141504
785.536	0.0140554
785.614	0.0141365
785.693	0.0140619
785.771	0.0140633
785.849	0.0139735
785.927	0.0138816
786.005	0.0138561
786.083	0.0137705
786.161	0.0138467
786.239	0.0136660
786.318	0.0135688
786.396	0.0136577
786.474	0.0135970
786.552	0.0136485
786.630	0.0134678
786.708	0.0135237
786.786	0.0135204
786.864	0.0135323
786.943	0.0137323
787.021	0.0137497
787.099	0.0140121
787.177	0.0139986
787.255	0.0139159
787.333	0.0139492
787.411	0.0140426
787.489	0.0142118
787.568	0.0142651
787.646	0.0142783
787.724	0.0141647
787.802	0.0143824
787.880	0.0141586
787.958	0.0141882
788.036	0.0141315
788.114	0.0141520
788.193	0.0141557
788.271	0.0140161
788.349	0.0140200
788.427	0.0140475
788.505	0.0139732
788.583	0.0139761
788.661	0.0137770
788.739	0.0136262
788.818	0.0136436
788.896	0.0136163
788.974	0.0134291
789.052	0.0134955
789.130	0.0134074
789.208	0.0133321
789.286	0.0133411
789.364	0.0133422
789.443	0.0133620
789.521	0.0133768
789.599	0.0132654
789.677	0.0135848
789.755	0.0135587
789.833	0.0135883
789.911	0.0135561
789.989	0.0136776
790.068	0.0135587
790.146	0.0136224
790.224	0.0138252
790.302	0.0137791
790.380	0.0139024
790.458	0.0138430
790.536	0.0138586
790.614	0.0139710
790.693	0.0139480
790.771	0.0140144
790.849	0.0140301
790.927	0.0140922
791.005	0.0141077
791.083	0.0140683
791.161	0.0140925
791.239	0.0141672
791.318	0.0141819
791.396	0.0142640
791.474	0.0141439
791.552	0.0142416
791.630	0.0142940
791.708	0.0142231
791.786	0.0141887
791.864	0.0141567
791.943	0.0141082
792.021	0.0140683
792.099	0.0139931
792.177	0.0139751
792.255	0.0140240
792.333	0.0138660
792.411	0.0138607
792.489	0.0136602
792.568	0.0137518
792.646	0.0137513
792.724	0.0135304
792.802	0.0135270
792.880	0.0135571
792.958	0.0133897
793.036	0.0133418
793.114	0.0134821
793.193	0.0134676
793.271	0.0134214
793.349	0.0134453
793.427	0.0134189
793.505	0.0133279
793.583	0.0134171
793.661	0.0134751
793.739	0.0135093
793.818	0.0135435
793.896	0.0135957
793.974	0.0137394
794.052	0.0137019
794.130	0.0138507
794.208	0.0138084
794.286	0.0139063
794.364	0.0140490
794.443	0.0141570
794.521	0.0141305
794.599	0.0141151
794.677	0.0141975
794.755	0.0142108
794.833	0.0141880
794.911	0.0143028
794.989	0.0142677
795.068	0.0142248
795.146	0.0141229
795.224	0.0140319
795.302	0.0140163
795.380	0.0141222
795.458	0.0141097
795.536	0.0139707
795.614	0.0138696
795.693	0.0138441
795.771	0.0139496
795.849	0.0139874
795.927	0.0139603
796.005	0.0138940
796.083	0.0137369
796.161	0.0138753
796.239	0.0139132
796.318	0.0138750
796.396	0.0138241
796.474	0.0140137
796.552	0.0140385
796.630	0.0139504
796.708	0.0139722
796.786	0.0138678
796.864	0.0140051
796.943	0.0139291
797.021	0.0139715
797.099	0.0139030
797.177	0.0139037
797.255	0.0139190
797.333	0.0138226
797.411	0.0137911
797.489	0.0137540
797.568	0.0136674
797.646	0.0137034
797.724	0.0136497
797.802	0.0136832
797.880	0.0136817
797.958	0.0135848
798.036	0.0136314
798.114	0.0135119
798.193	0.0135499
798.271	0.0136620
798.349	0.0134859
798.427	0.0134763
798.505	0.0136238
798.583	0.0134861
798.661	0.0135858
798.739	0.0135926
798.818	0.0136523
798.896	0.0135953
798.974	0.0137193
799.052	0.0136232
799.130	0.0136821
799.208	0.0140366
799.286	0.0140022
799.364	0.0139384
799.443	0.0139978
799.521	0.0142768
799.599	0.0142491
799.677	0.0142175
799.755	0.0141770
799.833	0.0143117
799.911	0.0146591
799.989	0.0144401
800.068	0.0145576
800.146	0.0145358
800.224	0.0145126
800.302	0.0145487
800.380	0.0145779
800.458	0.0146946
800.536	0.0146518
800.614	0.0146333
800.693	0.0146551
800.771	0.0146005
800.849	0.0144150
800.927	0.0144370
801.005	0.0143410
801.083	0.0142909
801.161	0.0143044
801.239	0.0139913
801.318	0.0140195
801.396	0.0139543
801.474	0.0138098
801.552	0.0136839
801.630	0.0135219
801.708	0.0134698
801.786	0.0132987
801.864	0.0131293
801.943	0.0131772
802.021	0.0131449
802.099	0.0132549
802.177	0.0130863
802.255	0.0131625
802.333	0.0130923
802.411	0.0130442
802.489	0.0129745
802.568	0.0131585
802.646	0.0132265
802.724	0.0132795
802.802	0.0132648
802.880	0.0134866
802.958	0.0136058
803.036	0.0137013
803.114	0.0136317
803.193	0.0137100
803.271	0.0137560
803.349	0.0139495
803.427	0.0139530
803.505	0.0138677
803.583	0.0139658
803.661	0.0139783
803.739	0.0141504
803.818	0.0140955
803.896	0.0141821
803.974	0.0140955
804.052	0.0141568
804.130	0.0141219
804.208	0.0141759
804.286	0.0141245
804.364	0.0140587
804.443	0.0140876
804.521	0.0141920
804.599	0.0141953
804.677	0.0141535
804.755	0.0139548
804.833	0.0142271
804.911	0.0140971
804.989	0.0141707
805.068	0.0140594
805.146	0.0140834
805.224	0.0141502
805.302	0.0141057
805.380	0.0141519
805.458	0.0141537
805.536	0.0140420
805.614	0.0140357
805.693	0.0141644
805.771	0.0141800
805.849	0.0142294
805.927	0.0141866
806.005	0.0140177
806.083	0.0142915
806.161	0.0142158
806.239	0.0140170
806.318	0.0140848
806.396	0.0141200
806.474	0.0140579
806.552	0.0140808
806.630	0.0139511
806.708	0.0139782
806.786	0.0139607
806.864	0.0139292
806.943	0.0139133
807.021	0.0138371
807.099	0.0138366
807.177	0.0138361
807.255	0.0137855
807.333	0.0139114
807.411	0.0136937
807.489	0.0137286
807.568	0.0137399
807.646	0.0137141
807.724	0.0135164
807.802	0.0135633
807.880	0.0133941
807.958	0.0134688
808.036	0.0135110
808.114	0.0135061
808.193	0.0133884
808.271	0.0133763
808.349	0.0134657
808.427	0.0133677
808.505	0.0134492
808.583	0.0133757
808.661	0.0134651
808.739	0.0136195
808.818	0.0134937
808.896	0.0136517
808.974	0.0137511
809.052	0.0136849
809.130	0.0136459
809.208	0.0138710
809.286	0.0138018
809.364	0.0138399
809.443	0.0138588
809.521	0.0139864
809.599	0.0139133
809.677	0.0139060
809.755	0.0140305
809.833	0.0139050
809.911	0.0138447
809.989	0.0137857
810.068	0.0139968
810.146	0.0140764
810.224	0.0138153
810.302	0.0139388
810.380	0.0140520
810.458	0.0140784
810.536	0.0139702
810.614	0.0140435
810.693	0.0142060
810.771	0.0140941
810.849	0.0141837
810.927	0.0141744
811.005	0.0143481
811.083	0.0141930
811.161	0.0141732
811.239	0.0143230
811.318	0.0144350
811.396	0.0144251
811.474	0.0145467
811.552	0.0144554
811.630	0.0145483
811.708	0.0144923
811.786	0.0145251
811.864	0.0144637
811.943	0.0144961
812.021	0.0144847
812.099	0.0145477
812.177	0.0145795
812.255	0.0144331
812.333	0.0145374
812.411	0.0143343
812.489	0.0142319
812.568	0.0140847
812.646	0.0140135
812.724	0.0138632
812.802	0.0139164
812.880	0.0139489
812.958	0.0136042
813.036	0.0135509
813.114	0.0135906
813.193	0.0133710
813.271	0.0133002
813.349	0.0134841
813.427	0.0133028
813.505	0.0132191
813.583	0.0131863
813.661	0.0131458
813.739	0.0131076
813.818	0.0130551
813.896	0.0131445
813.974	0.0130660
814.052	0.0131114
814.130	0.0130849
814.208	0.0131281
814.286	0.0131231
814.364	0.0132945
814.443	0.0132564
814.521	0.0132871
814.599	0.0134023
814.677	0.0135356
814.755	0.0136924
814.833	0.0136304
814.911	0.0135741
814.989	0.0137218
815.068	0.0138800
815.146	0.0138165
815.224	0.0139334
815.302	0.0139604
815.380	0.0139902
815.458	0.0141180
815.536	0.0141696
815.614	0.0141367
815.693	0.0141121
815.771	0.0141322
815.849	0.0143233
815.927	0.0142627
816.005	0.0143472
816.083	0.0142226
816.161	0.0142628
816.239	0.0142477
816.318	0.0142564
816.396	0.0142991
816.474	0.0142805
816.552	0.0142854
816.630	0.0142329
816.708	0.0142836
816.786	0.0142869
816.864	0.0142673
816.943	0.0142202
817.021	0.0142696
817.099	0.0142055
817.177	0.0142153
817.255	0.0143041
817.333	0.0143128
817.411	0.0141478
817.489	0.0141671
817.568	0.0142664
817.646	0.0142101
817.724	0.0141775
817.802	0.0142062
817.880	0.0141291
817.958	0.0139568
818.036	0.0140627
818.114	0.0139525
818.193	0.0138211
818.271	0.0139928
818.349	0.0138602
818.427	0.0137099
818.505	0.0137045
818.583	0.0135571
818.661	0.0134549
818.739	0.0135434
818.818	0.0132735
818.896	0.0132766
818.974	0.0132507
819.052	0.0133730
819.130	0.0131999
819.208	0.0131593
819.286	0.0131377
819.364	0.0131545
819.443	0.0130177
819.521	0.0129491
819.599	0.0129736
819.677	0.0131660
819.755	0.0131972
819.833	0.0132545
819.911	0.0133102
819.989	0.0133845
820.068	0.0134564
820.146	0.0134871
820.224	0.0137679
820.302	0.0137162
820.380	0.0137688
820.458	0.0137628
820.536	0.0138988
820.614	0.0138075
820.693	0.0139745
820.771	0.0140192
820.849	0.0140676
820.927	0.0140318
821.005	0.0141992
821.083	0.0143037
821.161	0.0142545
821.239	0.0142408
821.318	0.0141420
821.396	0.0142359
821.474	0.0142789
821.552	0.0142362
821.630	0.0143202
821.708	0.0142982
821.786	0.0143856
821.864	0.0144280
821.943	0.0143403
822.021	0.0143208
822.099	0.0142805
822.177	0.0142554
822.255	0.0141346
822.333	0.0142612
822.411	0.0142207
822.489	0.0141467
822.568	0.0141888
822.646	0.0141045
822.724	0.0139767
822.802	0.0140118
822.880	0.0139552
822.958	0.0139173
823.036	0.0138303
823.114	0.0138626
823.193	0.0138520
823.271	0.0140072
823.349	0.0138557
823.427	0.0139589
823.505	0.0138177
823.583	0.0138360
823.661	0.0139485
823.739	0.0138897
823.818	0.0139812
823.896	0.0139519
823.974	0.0138475
824.052	0.0138900
824.130	0.0139799
824.208	0.0138859
824.286	0.0139934
824.364	0.0138790
824.443	0.0137923
824.521	0.0137168
824.599	0.0137415
824.677	0.0136331
824.755	0.0136057
824.833	0.0135180
824.911	0.0135860
824.989	0.0134226
825.068	0.0135267
825.146	0.0134357
825.224	0.0132986
825.302	0.0133033
825.380	0.0134624
825.458	0.0135654
825.536	0.0134314
825.614	0.0134888
825.693	0.0133939
825.771	0.0135655
825.849	0.0136079
825.927	0.0136400
826.005	0.0136228
826.083	0.0136398
826.161	0.0137424
826.239	0.0137759
826.318	0.0139626
826.396	0.0138562
826.474	0.0138597
826.552	0.0138905
826.630	0.0139130
826.708	0.0141064
826.786	0.0139941
826.864	0.0139829
826.943	0.0141466
827.021	0.0141546
827.099	0.0141359
827.177	0.0139453
827.255	0.0140850
827.333	0.0141995
827.411	0.0140567
827.489	0.0141330
827.568	0.0139851
827.646	0.0139882
827.724	0.0140634
827.802	0.0140517
827.880	0.0140082
827.958	0.0139259
828.036	0.0137973
828.114	0.0138548
828.193	0.0137915
828.271	0.0139400
828.349	0.0139344
828.427	0.0139844
828.505	0.0137373
828.583	0.0138686
828.661	0.0137867
828.739	0.0138702
828.818	0.0140506
828.896	0.0140624
828.974	0.0141329
829.052	0.0140691
829.130	0.0140945
829.208	0.0144456
829.286	0.0142635
829.364	0.0142479
829.443	0.0141697
829.521	0.0142403
829.599	0.0142873
829.677	0.0141858
829.755	0.0140101
829.833	0.0139309
829.911	0.0141118
829.989	0.0139250
830.068	0.0137514
830.146	0.0138160
830.224	0.0138859
830.302	0.0137253
830.380	0.0136195
830.458	0.0136320
830.536	0.0135499
830.614	0.0134967
830.693	0.0134791
830.771	0.0133787
830.849	0.0134643
830.927	0.0133833
831.005	0.0133987
831.083	0.0134595
831.161	0.0134399
831.239	0.0132867
831.318	0.0132970
831.396	0.0134961
831.474	0.0134106
831.552	0.0132934
831.630	0.0134456
831.708	0.0135877
831.786	0.0136054
831.864	0.0136030
831.943	0.0135885
832.021	0.0136221
832.099	0.0136101
832.177	0.0137845
832.255	0.0137605
832.333	0.0136827
832.411	0.0138448
832.489	0.0139225
832.568	0.0140412
832.646	0.0140851
832.724	0.0140318
832.802	0.0139892
832.880	0.0140746
832.958	0.0140238
833.036	0.0141861
833.114	0.0142104
833.193	0.0142423
833.271	0.0140924
833.349	0.0141357
833.427	0.0141210
833.505	0.0140658
833.583	0.0141732
833.661	0.0140400
833.739	0.0141574
833.818	0.0139783
833.896	0.0140346
833.974	0.0140291
834.052	0.0140178
834.130	0.0138147
834.208	0.0139236
834.286	0.0137061
834.364	0.0138708
834.443	0.0137548
834.521	0.0137947
834.599	0.0137648
834.677	0.0137633
834.755	0.0137168
834.833	0.0137631
834.911	0.0136477
834.989	0.0137167
835.068	0.0136350
835.146	0.0136533
835.224	0.0137955
835.302	0.0136711
835.380	0.0138235
835.458	0.0137370
835.536	0.0137580
835.614	0.0138873
835.693	0.0138515
835.771	0.0138379
835.849	0.0139629
835.927	0.0140079
836.005	0.0138273
836.083	0.0138915
836.161	0.0140878
836.239	0.0139955
836.318	0.0141335
836.396	0.0140176
836.474	0.0139556
836.552	0.0140710
836.630	0.0140120
836.708	0.0139011
836.786	0.0140108
836.864	0.0137096
836.943	0.0138493
837.021	0.0138267
837.099	0.0138210
837.177	0.0136858
837.255	0.0137553
837.333	0.0137048
837.411	0.0136742
837.489	0.0136425
837.568	0.0136707
837.646	0.0136804
837.724	0.0137286
837.802	0.0136008
837.880	0.0137641
837.958	0.0136050
838.036	0.0137038
838.114	0.0137605
838.193	0.0138128
838.271	0.0137330
838.349	0.0138388
838.427	0.0139262
838.505	0.0138651
838.583	0.0138750
838.661	0.0136366
838.739	0.0138885
838.818	0.0138899
838.896	0.0139377
838.974	0.0140156
839.052	0.0138466
839.130	0.0138491
839.208	0.0138213
839.286	0.0138866
839.364	0.0138720
839.443	0.0138196
839.521	0.0138531
839.599	0.0139825
839.677	0.0138198
839.755	0.0139185
839.833	0.0136581
839.911	0.0138836
839.989	0.0138776
840.068	0.0139278
840.146	0.0138641
840.224	0.0138470
840.302	0.0139214
840.380	0.0137780
840.458	0.0139017
840.536	0.0139062
840.614	0.0139863
840.693	0.0139581
840.771	0.0139497
840.849	0.0140685
840.927	0.0139423
841.005	0.0140414
841.083	0.0140849
841.161	0.0141998
841.239	0.0140128
841.318	0.0140395
841.396	0.0141576
841.474	0.0140511
841.552	0.0141032
841.630	0.0140629
841.708	0.0141666
841.786	0.0141750
841.864	0.0140767
841.943	0.0139091
842.021	0.0139713
842.099	0.0141352
842.177	0.0140547
842.255	0.0140721
842.333	0.0141563
842.411	0.0141048
842.489	0.0140363
842.568	0.0141113
842.646	0.0142030
842.724	0.0141407
842.802	0.0139559
842.880	0.0140009
842.958	0.0139626
843.036	0.0139819
843.114	0.0138718
843.193	0.0139247
843.271	0.0139825
843.349	0.0139468
843.427	0.0139308
843.505	0.0138973
843.583	0.0139249
843.661	0.0139774
843.739	0.0138371
843.818	0.0139101
843.896	0.0137717
843.974	0.0136073
844.052	0.0137643
844.130	0.0136846
844.208	0.0136498
844.286	0.0138068
844.364	0.0135881
844.443	0.0135984
844.521	0.0137199
844.599	0.0136923
844.677	0.0137379
844.755	0.0136065
844.833	0.0137698
844.911	0.0136391
844.989	0.0135233
845.068	0.0136019
845.146	0.0136997
845.224	0.0138548
845.302	0.0137447
845.380	0.0138969
845.458	0.0138323
845.536	0.0135668
845.614	0.0137771
845.693	0.0138496
845.771	0.0139420
845.849	0.0138188
845.927	0.0139351
846.005	0.0138595
846.083	0.0139932
846.161	0.0140333
846.239	0.0140224
846.318	0.0139877
846.396	0.0139256
846.474	0.0139896
846.552	0.0140601
846.630	0.0140213
846.708	0.0140219
846.786	0.0139536
846.864	0.0139373
846.943	0.0139824
847.021	0.0138968
847.099	0.0139522
847.177	0.0137547
847.255	0.0137518
847.333	0.0137716
847.411	0.0137517
847.489	0.0138876
847.568	0.0137540
847.646	0.0137794
847.724	0.0137398
847.802	0.0136390
847.880	0.0136723
847.958	0.0137009
848.036	0.0138509
848.114	0.0136636
848.193	0.0137190
848.271	0.0138057
848.349	0.0137609
848.427	0.0137058
848.505	0.0138762
848.583	0.0137875
848.661	0.0137571
848.739	0.0137257
848.818	0.0137260
848.896	0.0136251
848.974	0.0137872
849.052	0.0137145
849.130	0.0136967
849.208	0.0138167
849.286	0.0137405
849.364	0.0137313
849.443	0.0137933
849.521	0.0136599
849.599	0.0137112
849.677	0.0138091
849.755	0.0136537
849.833	0.0137793
849.911	0.0136655
849.989	0.0135985
850.068	0.0136823
850.146	0.0136006
850.224	0.0136143
850.302	0.0136656
850.380	0.0136169
850.458	0.0136334
850.536	0.0136445
850.614	0.0135810
850.693	0.0134900
850.771	0.0135445
850.849	0.0136993
850.927	0.0137027
851.005	0.0136488
851.083	0.0135552
851.161	0.0136020
851.239	0.0136905
851.318	0.0136783
851.396	0.0137231
851.474	0.0136893
851.552	0.0137276
851.630	0.0138756
851.708	0.0138145
851.786	0.0138004
851.864	0.0138570
851.943	0.0138715
852.021	0.0139687
852.099	0.0139004
852.177	0.0139472
852.255	0.0139278
852.333	0.0138609
852.411	0.0140462
852.489	0.0139761
852.568	0.0138805
852.646	0.0139016
852.724	0.0138838
852.802	0.0138335
852.880	0.0137805
852.958	0.0138349
853.036	0.0137858
853.114	0.0138308
853.193	0.0139649
853.271	0.0138889
853.349	0.0139206
853.427	0.0139271
853.505	0.0138710
853.583	0.0138053
853.661	0.0140475
853.739	0.0140305
853.818	0.0139268
853.896	0.0140978
853.974	0.0140585
854.052	0.0140828
854.130	0.0140516
854.208	0.0140675
854.286	0.0140926
854.364	0.0141052
854.443	0.0141165
854.521	0.0140887
854.599	0.0140603
854.677	0.0141350
854.755	0.0139893
854.833	0.0140942
854.911	0.0140447
854.989	0.0139796
855.068	0.0141239
855.146	0.0140417
855.224	0.0139735
855.302	0.0140082
855.380	0.0139237
855.458	0.0137983
855.536	0.0138888
855.614	0.0139133
855.693	0.0138200
855.771	0.0138366
855.849	0.0138787
855.927	0.0138338
856.005	0.0137823
856.083	0.0137780
856.161	0.0137902
856.239	0.0137844
856.318	0.0138035
856.396	0.0137563
856.474	0.0136930
856.552	0.0136756
856.630	0.0136857
856.708	0.0136592
856.786	0.0137454
856.864	0.0138237
856.943	0.0136959
857.021	0.0136697
857.099	0.0137856
857.177	0.0137681
857.255	0.0138947
857.333	0.0138352
857.411	0.0137280
857.489	0.0137646
857.568	0.0138447
857.646	0.0138676
857.724	0.0138595
857.802	0.0139075
857.880	0.0139221
857.958	0.0137466
858.036	0.0138898
858.114	0.0137766
858.193	0.0139117
858.271	0.0138569
858.349	0.0138760
858.427	0.0139725
858.505	0.0139124
858.583	0.0138669
858.661	0.0138433
858.739	0.0138113
858.818	0.0139740
858.896	0.0140102
858.974	0.0141257
859.052	0.0139502
859.130	0.0139570
859.208	0.0140777
859.286	0.0140777
859.364	0.0140083
859.443	0.0141234
859.521	0.0140963
859.599	0.0140156
859.677	0.0139543
859.755	0.0139956
859.833	0.0140327
859.911	0.0139423
859.989	0.0141690
860.068	0.0140808
860.146	0.0139956
860.224	0.0139150
860.302	0.0139417
860.380	0.0139548
860.458	0.0138882
860.536	0.0139589
860.614	0.0139044
860.693	0.0137466
860.771	0.0138625
860.849	0.0137849
860.927	0.0136827
861.005	0.0137044
861.083	0.0137703
861.161	0.0137258
861.239	0.0137826
861.318	0.0137386
861.396	0.0136847
861.474	0.0135504
861.552	0.0138905
861.630	0.0137534
861.708	0.0137104
861.786	0.0137257
861.864	0.0137222
861.943	0.0137402
862.021	0.0137743
862.099	0.0138077
862.177	0.0137877
862.255	0.0138007
862.333	0.0137267
862.411	0.0138200
862.489	0.0138209
862.568	0.0138703
862.646	0.0136152
862.724	0.0136105
862.802	0.0136628
862.880	0.0138189
862.958	0.0136495
863.036	0.0136865
863.114	0.0137984
863.193	0.0135983
863.271	0.0136364
863.349	0.0137225
863.427	0.0135857
863.505	0.0136617
863.583	0.0137473
863.661	0.0136501
863.739	0.0137196
863.818	0.0136445
863.896	0.0138395
863.974	0.0138322
864.052	0.0138132
864.130	0.0139285
864.208	0.0139790
864.286	0.0140417
864.364	0.0140504
864.443	0.0140461
864.521	0.0141066
864.599	0.0140603
864.677	0.0140848
864.755	0.0140099
864.833	0.0141300
864.911	0.0141748
864.989	0.0141717
865.068	0.0141190
865.146	0.0141721
865.224	0.0140944
865.302	0.0141009
865.380	0.0141694
865.458	0.0141193
865.536	0.0140575
865.614	0.0139842
865.693	0.0140733
865.771	0.0140826
865.849	0.0141679
865.927	0.0140556
866.005	0.0140437
866.083	0.0139842
866.161	0.0139135
866.239	0.0138567
866.318	0.0139872
866.396	0.0139896
866.474	0.0138631
866.552	0.0138865
866.630	0.0138979
866.708	0.0138938
866.786	0.0135119
866.864	0.0136024
866.943	0.0137486
867.021	0.0136276
867.099	0.0136541
867.177	0.0137911
867.255	0.0136284
867.333	0.0135958
867.411	0.0135953
867.489	0.0135079
867.568	0.0134689
867.646	0.0134883
867.724	0.0136018
867.802	0.0135688
867.880	0.0135446
867.958	0.0136898
868.036	0.0136732
868.114	0.0136111
868.193	0.0135590
868.271	0.0137207
868.349	0.0137519
868.427	0.0136170
868.505	0.0136900
868.583	0.0138387
868.661	0.0136966
868.739	0.0139317
868.818	0.0138326
868.896	0.0137328
868.974	0.0137497
869.052	0.0139047
869.130	0.0138036
869.208	0.0141360
869.286	0.0139513
869.364	0.0139167
869.443	0.0140415
869.521	0.0138973
869.599	0.0138837
869.677	0.0140268
869.755	0.0139011
869.833	0.0138432
869.911	0.0140443
869.989	0.0139763
870.068	0.0140630
870.146	0.0140327
870.224	0.0139411
870.302	0.0140488
870.380	0.0140634
870.458	0.0140496
870.536	0.0140968
870.614	0.0139998
870.693	0.0141030
870.771	0.0141298
870.849	0.0141267
870.927	0.0141319
871.005	0.0141678
871.083	0.0140729
871.161	0.0140164
871.239	0.0140688
871.318	0.0140826
871.396	0.0138779
871.474	0.0138968
871.552	0.0140112
871.630	0.0139243
871.708	0.0138363
871.786	0.0137571
871.864	0.0137155
871.943	0.0137519
872.021	0.0135882
872.099	0.0135101
872.177	0.0135618
872.255	0.0135720
872.333	0.0136511
872.411	0.0134555
872.489	0.0134778
872.568	0.0134427
872.646	0.0135883
872.724	0.0136134
872.802	0.0135606
872.880	0.0135616
872.958	0.0135669
873.036	0.0137376
873.114	0.0136784
873.193	0.0136717
873.271	0.0136777
873.349	0.0138316
873.427	0.0138517
873.505	0.0138499
873.583	0.0138369
873.661	0.0138559
873.739	0.0138803
873.818	0.0138181
873.896	0.0136970
873.974	0.0139125
874.052	0.0139671
874.130	0.0137047
874.208	0.0136377
874.286	0.0137016
874.364	0.0137834
874.443	0.0137579
874.521	0.0138407
874.599	0.0138367
874.677	0.0137831
874.755	0.0138966
874.833	0.0136370
874.911	0.0137744
874.989	0.0138477
875.068	0.0137189
875.146	0.0138313
875.224	0.0136824
875.302	0.0138620
875.380	0.0139520
875.458	0.0140284
875.536	0.0138998
875.614	0.0140883
875.693	0.0140229
875.771	0.0138672
875.849	0.0141094
875.927	0.0140368
876.005	0.0140152
876.083	0.0141097
876.161	0.0141853
876.239	0.0141750
876.318	0.0141645
876.396	0.0143241
876.474	0.0142534
876.552	0.0140974
876.630	0.0141586
876.708	0.0142232
876.786	0.0141711
876.864	0.0140124
876.943	0.0139970
877.021	0.0138795
877.099	0.0141077
877.177	0.0139799
877.255	0.0137801
877.333	0.0139645
877.411	0.0138526
877.489	0.0137321
877.568	0.0138739
877.646	0.0138574
877.724	0.0138876
877.802	0.0138178
877.880	0.0137392
877.958	0.0137119
878.036	0.0137888
878.114	0.0136288
878.193	0.0137655
878.271	0.0138052
878.349	0.0136565
878.427	0.0137349
878.505	0.0138439
878.583	0.0137162
878.661	0.0137759
878.739	0.0138234
878.818	0.0138294
878.896	0.0137372
878.974	0.0138479
879.052	0.0139155
879.130	0.0138071
879.208	0.0138962
879.286	0.0140279
879.364	0.0140250
879.443	0.0139006
879.521	0.0139859
879.599	0.0140462
879.677	0.0139635
879.755	0.0140762
879.833	0.0140340
879.911	0.0138805
879.989	0.0138847
880.068	0.0138302
880.146	0.0138960
880.224	0.0138384
880.302	0.0138252
880.380	0.0138124
880.458	0.0137918
880.536	0.0136269
880.614	0.0137952
880.693	0.0136918
880.771	0.0136419
880.849	0.0137730
880.927	0.0139137
881.005	0.0137116
881.083	0.0136226
881.161	0.0136916
881.239	0.0136452
881.318	0.0137392
881.396	0.0138452
881.474	0.0138309
881.552	0.0138747
881.630	0.0139532
881.708	0.0138196
881.786	0.0139342
881.864	0.0140668
881.943	0.0140379
882.021	0.0139759
882.099	0.0140302
882.177	0.0141431
882.255	0.0141123
882.333	0.0141082
882.411	0.0141527
882.489	0.0142063
882.568	0.0141107
882.646	0.0142361
882.724	0.0142036
882.802	0.0142503
882.880	0.0141835
882.958	0.0141912
883.036	0.0141714
883.114	0.0140895
883.193	0.0140239
883.271	0.0141028
883.349	0.0140912
883.427	0.0138560
883.505	0.0137913
883.583	0.0136586
883.661	0.0136003
883.739	0.0136868
883.818	0.0135840
883.896	0.0134438
883.974	0.0135086
884.052	0.0134213
884.130	0.0134835
884.208	0.0133607
884.286	0.0134591
884.364	0.0133953
884.443	0.0134389
884.521	0.0134176
884.599	0.0134583
884.677	0.0135853
884.755	0.0136758
884.833	0.0136426
884.911	0.0136663
884.989	0.0137565
885.068	0.0137871
885.146	0.0138589
885.224	0.0137528
885.302	0.0140060
885.380	0.0139728
885.458	0.0140701
885.536	0.0140568
885.614	0.0139770
885.693	0.0140852
885.771	0.0142203
885.849	0.0140572
885.927	0.0141302
886.005	0.0140076
886.083	0.0141620
886.161	0.0143204
886.239	0.0142651
886.318	0.0141628
886.396	0.0140228
886.474	0.0140294
886.552	0.0140616
886.630	0.0139958
886.708	0.0137778
886.786	0.0138708
886.864	0.0138121
886.943	0.0137446
887.021	0.0138389
887.099	0.0138464
887.177	0.0137373
887.255	0.0137438
887.333	0.0138364
887.411	0.0136331
887.489	0.0137399
887.568	0.0137946
887.646	0.0138210
887.724	0.0137938
887.802	0.0137254
887.880	0.0138199
887.958	0.0137727
888.036	0.0137530
888.114	0.0137531
888.193	0.0137273
888.271	0.0138560
888.349	0.0138145
888.427	0.0138189
888.505	0.0138355
888.583	0.0137730
888.661	0.0139354
888.739	0.0140095
888.818	0.0140211
888.896	0.0139649
888.974	0.0140409
889.052	0.0141097
889.130	0.0140821
889.208	0.0140412
889.286	0.0140881
889.364	0.0141605
889.443	0.0141121
889.521	0.0139561
889.599	0.0138960
889.677	0.0139674
889.755	0.0139192
889.833	0.0139426
889.911	0.0138927
889.989	0.0139117
890.068	0.0138172
890.146	0.0138153
890.224	0.0137430
890.302	0.0137004
890.380	0.0136934
890.458	0.0137525
890.536	0.0136274
890.614	0.0136288
890.693	0.0136064
890.771	0.0136752
890.849	0.0136526
890.927	0.0135606
891.005	0.0136108
891.083	0.0136568
891.161	0.0136544
891.239	0.0136722
891.318	0.0138157
891.396	0.0138811
891.474	0.0138152
891.552	0.0140246
891.630	0.0141113
891.708	0.0139345
891.786	0.0138678
891.864	0.0139375
891.943	0.0138052
892.021	0.0138837
892.099	0.0140122
892.177	0.0139548
892.255	0.0138429
892.333	0.0138109
892.411	0.0137330
892.489	0.0138592
892.568	0.0137360
892.646	0.0139096
892.724	0.0138928
892.802	0.0137271
892.880	0.0137251
892.958	0.0137045
893.036	0.0137461
893.114	0.0135789
893.193	0.0135654
893.271	0.0136014
893.349	0.0135764
893.427	0.0134599
893.505	0.0136855
893.583	0.0137405
893.661	0.0136600
893.739	0.0135593
893.818	0.0136620
893.896	0.0135678
893.974	0.0136469
894.052	0.0136713
894.130	0.0137575
894.208	0.0137571
894.286	0.0137787
894.364	0.0136983
894.443	0.0138658
894.521	0.0138300
894.599	0.0137688
894.677	0.0138704
894.755	0.0139239
894.833	0.0139515
894.911	0.0138992
894.989	0.0138589
895.068	0.0138697
895.146	0.0139461
895.224	0.0139496
895.302	0.0138463
895.380	0.0140221
895.458	0.0138558
895.536	0.0137845
895.614	0.0138789
895.693	0.0137044
895.771	0.0138726
895.849	0.0137678
895.927	0.0137592
896.005	0.0136877
896.083	0.0137868
896.161	0.0138197
896.239	0.0137312
896.318	0.0136553
896.396	0.0136589
896.474	0.0138655
896.552	0.0137063
896.630	0.0139368
896.708	0.0138580
896.786	0.0137900
896.864	0.0139118
896.943	0.0139220
897.021	0.0140024
897.099	0.0139172
897.177	0.0139240
897.255	0.0139211
897.333	0.0140347
897.411	0.0140634
897.489	0.0138505
897.568	0.0140337
897.646	0.0142337
897.724	0.0142371
897.802	0.0141328
897.880	0.0140338
897.958	0.0142529
898.036	0.0143657
898.114	0.0141222
898.193	0.0140353
898.271	0.0140165
898.349	0.0140677
898.427	0.0139367
898.505	0.0141406
898.583	0.0138836
898.661	0.0138395
898.739	0.0137782
898.818	0.0138410
898.896	0.0136491
898.974	0.0136381
899.052	0.0136767
899.130	0.0136501
899.208	0.0136284
899.286	0.0135566
899.364	0.0135258
899.443	0.0136404
899.521	0.0136636
899.599	0.0136705
899.677	0.0135828
899.755	0.0135668
899.833	0.0135224
899.911	0.0136486
899.989	0.0136003
900.068	0.0138145
900.146	0.0137102
900.224	0.0135934
900.302	0.0135122
900.380	0.0136914
900.458	0.0138033
900.536	0.0137617
900.614	0.0138845
900.693	0.0138481
900.771	0.0139093
900.849	0.0140156
900.927	0.0139999
901.005	0.0139583
901.083	0.0140277
901.161	0.0140775
901.239	0.0142981
901.318	0.0143211
901.396	0.0143538
901.474	0.0144333
901.552	0.0144143
901.630	0.0146038
901.708	0.0144983
901.786	0.0145541
901.864	0.0145638
901.943	0.0144548
902.021	0.0143787
902.099	0.0145846
902.177	0.0144204
902.255	0.0144181
902.333	0.0143840
902.411	0.0141358
902.489	0.0141393
902.568	0.0139868
902.646	0.0140073
902.724	0.0140404
902.802	0.0138930
902.880	0.0138892
902.958	0.0139774
903.036	0.0137904
903.114	0.0139442
903.193	0.0138033
903.271	0.0137290
903.349	0.0138420
903.427	0.0137384
903.505	0.0138080
903.583	0.0137008
903.661	0.0135743
903.739	0.0136857
903.818	0.0136606
903.896	0.0135672
903.974	0.0136605
904.052	0.0136697
904.130	0.0136210
904.208	0.0137070
904.286	0.0137664
904.364	0.0136408
904.443	0.0137624
904.521	0.0138886
904.599	0.0137113
904.677	0.0137482
904.755	0.0138314
904.833	0.0137255
904.911	0.0138455
904.989	0.0136938
905.068	0.0137634
905.146	0.0138449
905.224	0.0138046
905.302	0.0138074
905.380	0.0136781
905.458	0.0137719
905.536	0.0137134
905.614	0.0136272
905.693	0.0136226
905.771	0.0136604
905.849	0.0137342
905.927	0.0138429
906.005	0.0138059
906.083	0.0138235
906.161	0.0139796
906.239	0.0139026
906.318	0.0139850
906.396	0.0141578
906.474	0.0142367
906.552	0.0141486
906.630	0.0140895
906.708	0.0139976
906.786	0.0141486
906.864	0.0142543
906.943	0.0139641
907.021	0.0140443
907.099	0.0140154
907.177	0.0140246
907.255	0.0140073
907.333	0.0138966
907.411	0.0138384
907.489	0.0137738
907.568	0.0138116
907.646	0.0138888
907.724	0.0137930
907.802	0.0137782
907.880	0.0137492
907.958	0.0136497
908.036	0.0136016
908.114	0.0137518
908.193	0.0135549
908.271	0.0135519
908.349	0.0136066
908.427	0.0136990
908.505	0.0135796
908.583	0.0136176
908.661	0.0135709
908.739	0.0136114
908.818	0.0137476
908.896	0.0137343
908.974	0.0136139
909.052	0.0136670
909.130	0.0136831
909.208	0.0136096
909.286	0.0137657
909.364	0.0136813
909.443	0.0138561
909.521	0.0138379
909.599	0.0139053
909.677	0.0139074
909.755	0.0137193
909.833	0.0139784
909.911	0.0137366
909.989	0.0138658
910.068	0.0140689
910.146	0.0139827
910.224	0.0139390
910.302	0.0138986
910.380	0.0140261
910.458	0.0139592
910.536	0.0139663
910.614	0.0139921
910.693	0.0140483
910.771	0.0139594
910.849	0.0139063
910.927	0.0137316
911.005	0.0138070
911.083	0.0139909
911.161	0.0138725
911.239	0.0137421
911.318	0.0137103
911.396	0.0138228
911.474	0.0138963
911.552	0.0138724
911.630	0.0139133
911.708	0.0139043
911.786	0.0137794
911.864	0.0138585
911.943	0.0139397
912.021	0.0138075
912.099	0.0139232
912.177	0.0138880
912.255	0.0139519
912.333	0.0139191
912.411	0.0139510
912.489	0.0139503
912.568	0.0137260
912.646	0.0135596
912.724	0.0137994
912.802	0.0138033
912.880	0.0137210
912.958	0.0137629
913.036	0.0136316
913.114	0.0136275
913.193	0.0137234
913.271	0.0137171
913.349	0.0137268
913.427	0.0136996
913.505	0.0137210
913.583	0.0138293
913.661	0.0139584
913.739	0.0137957
913.818	0.0137463
913.896	0.0136882
913.974	0.0136821
914.052	0.0137691
914.130	0.0137572
914.208	0.0136783
914.286	0.0136129
914.364	0.0136447
914.443	0.0136785
914.521	0.0139027
914.599	0.0137777
914.677	0.0136301
914.755	0.0137159
914.833	0.0137231
914.911	0.0138524
914.989	0.0138978
915.068	0.0139197
915.146	0.0139779
915.224	0.0138907
915.302	0.0138747
915.380	0.0138878
915.458	0.0141011
915.536	0.0139362
915.614	0.0139476
915.693	0.0139462
915.771	0.0138866
915.849	0.0138575
915.927	0.0138985
916.005	0.0138131
916.083	0.0136990
916.161	0.0136938
916.239	0.0139015
916.318	0.0138068
916.396	0.0136664
916.474	0.0136582
916.552	0.0136459
916.630	0.0136662
916.708	0.0136967
916.786	0.0137157
916.864	0.0135117
916.943	0.0136409
917.021	0.0135970
917.099	0.0136178
917.177	0.0136567
917.255	0.0135773
917.333	0.0135964
917.411	0.0136095
917.489	0.0135390
917.568	0.0135709
917.646	0.0136930
917.724	0.0136151
917.802	0.0135968
917.880	0.0136572
917.958	0.0137413
918.036	0.0137430
918.114	0.0137998
918.193	0.0138482
918.271	0.0139532
918.349	0.0139822
918.427	0.0139729
918.505	0.0140950
918.583	0.0139173
918.661	0.0138656
918.739	0.0141253
918.818	0.0141613
918.896	0.0142265
918.974	0.0139884
919.052	0.0142115
919.130	0.0140894
919.208	0.0140553
919.286	0.0140270
919.364	0.0139308
919.443	0.0139839
919.521	0.0138218
919.599	0.0138628
919.677	0.0139824
919.755	0.0139388
919.833	0.0138608
919.911	0.0138319
919.989	0.0139619
920.068	0.0138785
920.146	0.0138571
920.224	0.0138911
920.302	0.0138721
920.380	0.0138695
920.458	0.0139362
920.536	0.0139526
920.614	0.0139101
920.693	0.0142104
920.771	0.0140632
920.849	0.0139613
920.927	0.0141985
921.005	0.0139844
921.083	0.0139407
921.161	0.0139787
921.239	0.0138802
921.318	0.0139184
921.396	0.0139124
921.474	0.0139615
921.552	0.0139441
921.630	0.0138258
921.708	0.0135613
921.786	0.0137462
921.864	0.0137789
921.943	0.0138070
922.021	0.0136709
922.099	0.0137154
922.177	0.0138738
922.255	0.0137901
922.333	0.0136333
922.411	0.0137524
922.489	0.0138179
922.568	0.0137861
922.646	0.0138347
922.724	0.0137769
922.802	0.0137159
922.880	0.0136978
922.958	0.0136639
923.036	0.0138108
923.114	0.0136473
923.193	0.0137266
923.271	0.0137691
923.349	0.0137675
923.427	0.0138605
923.505	0.0136973
923.583	0.0138537
923.661	0.0138858
923.739	0.0138587
923.818	0.0140260
923.896	0.0139673
923.974	0.0139739
924.052	0.0140984
924.130	0.0140652
924.208	0.0141658
924.286	0.0140857
924.364	0.0140091
924.443	0.0141001
924.521	0.0141222
924.599	0.0140936
924.677	0.0139683
924.755	0.0139723
924.833	0.0139962
924.911	0.0141163
924.989	0.0139169
925.068	0.0139172
925.146	0.0139658
925.224	0.0140518
925.302	0.0139404
925.380	0.0138897
925.458	0.0139241
925.536	0.0138683
925.614	0.0139210
925.693	0.0138287
925.771	0.0138984
925.849	0.0137401
925.927	0.0136539
926.005	0.0138597
926.083	0.0138870
926.161	0.0137314
926.239	0.0136452
926.318	0.0138449
926.396	0.0137958
926.474	0.0138042
926.552	0.0136945
926.630	0.0137157
926.708	0.0137393
926.786	0.0138716
926.864	0.0138335
926.943	0.0138284
927.021	0.0138251
927.099	0.0138281
927.177	0.0137327
927.255	0.0139064
927.333	0.0138381
927.411	0.0138114
927.489	0.0139764
927.568	0.0139551
927.646	0.0136925
927.724	0.0138851
927.802	0.0138393
927.880	0.0137413
927.958	0.0136813
928.036	0.0137250
928.114	0.0136040
928.193	0.0136700
928.271	0.0137202
928.349	0.0137363
928.427	0.0136553
928.505	0.0136589
928.583	0.0136074
928.661	0.0137202
928.739	0.0138195
928.818	0.0138065
928.896	0.0138547
928.974	0.0138654
929.052	0.0137328
929.130	0.0137112
929.208	0.0138386
929.286	0.0138068
929.364	0.0137424
929.443	0.0137059
929.521	0.0138213
929.599	0.0139237
929.677	0.0138597
929.755	0.0136891
929.833	0.0138079
929.911	0.0138535
929.989	0.0138332
930.068	0.0138180
930.146	0.0139258
930.224	0.0138528
930.302	0.0138194
930.380	0.0139703
930.458	0.0136890
930.536	0.0138048
930.614	0.0138042
930.693	0.0138454
930.771	0.0137553
930.849	0.0137084
930.927	0.0138300
931.005	0.0138438
931.083	0.0138692
931.161	0.0138320
931.239	0.0139120
931.318	0.0138703
931.396	0.0139140
931.474	0.0137758
931.552	0.0139002
931.630	0.0138683
931.708	0.0139385
931.786	0.0138909
931.864	0.0139204
931.943	0.0138828
932.021	0.0139684
932.099	0.0139674
932.177	0.0139034
932.255	0.0139301
932.333	0.0139487
932.411	0.0139201
932.489	0.0139596
932.568	0.0139312
932.646	0.0139487
932.724	0.0139956
932.802	0.0139151
932.880	0.0138293
932.958	0.0139223
933.036	0.0139304
933.114	0.0137857
933.193	0.0138213
933.271	0.0138625
933.349	0.0139297
933.427	0.0137639
933.505	0.0137727
933.583	0.0138375
933.661	0.0137515
933.739	0.0138835
933.818	0.0138575
933.896	0.0138046
933.974	0.0138394
934.052	0.0137190
934.130	0.0138563
934.208	0.0137096
934.286	0.0138167
934.364	0.0137654
934.443	0.0137639
934.521	0.0138517
934.599	0.0138668
934.677	0.0139062
934.755	0.0138610
934.833	0.0138188
934.911	0.0137726
934.989	0.0138878
935.068	0.0139651
935.146	0.0138902
935.224	0.0139780
935.302	0.0138344
935.380	0.0139024
935.458	0.0138769
935.536	0.0139581
935.614	0.0138599
935.693	0.0138806
935.771	0.0138702
935.849	0.0140041
935.927	0.0139623
936.005	0.0139256
936.083	0.0138840
936.161	0.0138667
936.239	0.0138585
936.318	0.0141449
936.396	0.0139513
936.474	0.0138799
936.552	0.0139159
936.630	0.0139682
936.708	0.0138168
936.786	0.0139174
936.864	0.0139758
936.943	0.0138465
937.021	0.0139223
937.099	0.0139067
937.177	0.0140086
937.255	0.0138654
937.333	0.0139014
937.411	0.0138771
937.489	0.0138993
937.568	0.0140767
937.646	0.0139922
937.724	0.0139782
937.802	0.0140084
937.880	0.0139942
937.958	0.0139269
938.036	0.0139964
938.114	0.0140749
938.193	0.0140570
938.271	0.0139147
938.349	0.0140629
938.427	0.0140111
938.505	0.0139050
938.583	0.0139310
938.661	0.0138688
938.739	0.0138852
938.818	0.0138307
938.896	0.0139162
938.974	0.0137823
939.052	0.0138291
939.130	0.0136973
939.208	0.0136848
939.286	0.0138131
939.364	0.0137276
939.443	0.0136287
939.521	0.0135522
939.599	0.0134949
939.677	0.0136851
939.755	0.0135453
939.833	0.0135677
939.911	0.0136863
939.989	0.0136823
940.068	0.0136656
940.146	0.0136707
940.224	0.0136391
940.302	0.0136166
940.380	0.0137150
940.458	0.0136880
940.536	0.0136797
940.614	0.0138161
940.693	0.0138329
940.771	0.0137103
940.849	0.0137805
940.927	0.0138995
941.005	0.0136639
941.083	0.0137643
941.161	0.0138539
941.239	0.0138696
941.318	0.0136918
941.396	0.0137461
941.474	0.0137691
941.552	0.0138762
941.630	0.0138844
941.708	0.0139523
941.786	0.0140167
941.864	0.0139692
941.943	0.0138079
942.021	0.0140086
942.099	0.0139140
942.177	0.0138974
942.255	0.0139439
942.333	0.0139653
942.411	0.0139431
942.489	0.0139430
942.568	0.0140306
942.646	0.0139529
942.724	0.0138354
942.802	0.0139395
942.880	0.0137482
942.958	0.0138693
943.036	0.0137029
943.114	0.0137969
943.193	0.0138462
943.271	0.0138313
943.349	0.0137776
943.427	0.0137384
943.505	0.0137450
943.583	0.0137616
943.661	0.0138334
943.739	0.0138476
943.818	0.0139788
943.896	0.0138512
943.974	0.0138554
944.052	0.0140179
944.130	0.0139044
944.208	0.0139089
944.286	0.0139471
944.364	0.0140667
944.443	0.0140738
944.521	0.0141062
944.599	0.0140250
944.677	0.0139474
944.755	0.0139166
944.833	0.0139363
944.911	0.0139747
944.989	0.0139956
945.068	0.0138402
945.146	0.0139193
945.224	0.0137556
945.302	0.0138272
945.380	0.0138465
945.458	0.0137835
945.536	0.0138034
945.614	0.0136774
945.693	0.0137460
945.771	0.0137219
945.849	0.0137099
945.927	0.0137229
946.005	0.0135785
946.083	0.0134946
946.161	0.0137588
946.239	0.0138061
946.318	0.0135385
946.396	0.0135122
946.474	0.0136714
946.552	0.0135979
946.630	0.0136702
946.708	0.0136752
946.786	0.0136787
946.864	0.0137260
946.943	0.0136311
947.021	0.0137169
947.099	0.0137965
947.177	0.0134996
947.255	0.0136723
947.333	0.0137792
947.411	0.0135898
947.489	0.0136332
947.568	0.0135686
947.646	0.0135112
947.724	0.0136454
947.802	0.0135654
947.880	0.0136231
947.958	0.0136456
948.036	0.0136073
948.114	0.0136604
948.193	0.0136916
948.271	0.0137981
948.349	0.0137649
948.427	0.0138799
948.505	0.0136449
948.583	0.0137975
948.661	0.0137073
948.739	0.0136792
948.818	0.0137227
948.896	0.0138242
948.974	0.0137701
949.052	0.0138089
949.130	0.0137446
949.208	0.0138808
949.286	0.0138589
949.364	0.0137964
949.443	0.0138054
949.521	0.0139610
949.599	0.0139158
949.677	0.0138094
949.755	0.0137703
949.833	0.0139394
949.911	0.0138037
949.989	0.0138441
950.068	0.0140076
950.146	0.0138383
950.224	0.0139565
950.302	0.0138586
950.380	0.0139408
950.458	0.0138742
950.536	0.0139352
950.614	0.0138154
950.693	0.0137706
950.771	0.0138905
950.849	0.0140095
950.927	0.0138027
951.005	0.0138732
951.083	0.0138263
951.161	0.0138477
951.239	0.0137289
951.318	0.0137591
951.396	0.0136462
951.474	0.0136829
951.552	0.0136411
951.630	0.0135915
951.708	0.0135535
951.786	0.0136560
951.864	0.0136230
951.943	0.0134910
952.021	0.0135458
952.099	0.0135802
952.177	0.0136848
952.255	0.0135282
952.333	0.0135040
952.411	0.0135752
952.489	0.0136091
952.568	0.0136366
952.646	0.0137053
952.724	0.0136366
952.802	0.0136252
952.880	0.0137354
952.958	0.0137203
953.036	0.0137782
953.114	0.0137523
953.193	0.0139105
953.271	0.0139242
953.349	0.0139040
953.427	0.0139031
953.505	0.0138991
953.583	0.0139983
953.661	0.0139869
953.739	0.0140549
953.818	0.0138977
953.896	0.0141175
953.974	0.0140558
954.052	0.0142659
954.130	0.0141269
954.208	0.0139487
954.286	0.0139495
954.364	0.0140903
954.443	0.0140681
954.521	0.0139594
954.599	0.0140824
954.677	0.0140179
954.755	0.0140935
954.833	0.0139138
954.911	0.0141085
954.989	0.0139266
955.068	0.0139610
955.146	0.0139799
955.224	0.0139512
955.302	0.0139302
955.380	0.0139980
955.458	0.0138941
955.536	0.0139626
955.614	0.0140063
955.693	0.0141061
955.771	0.0139108
955.849	0.0139038
955.927	0.0139705
956.005	0.0139198
956.083	0.0138187
956.161	0.0139306
956.239	0.0138380
956.318	0.0138326
956.396	0.0140375
956.474	0.0138140
956.552	0.0139272
956.630	0.0138190
956.708	0.0138417
956.786	0.0139894
956.864	0.0137470
956.943	0.0139026
957.021	0.0137575
957.099	0.0137021
957.177	0.0138998
957.255	0.0139365
957.333	0.0137959
957.411	0.0136889
957.489	0.0137416
957.568	0.0137691
957.646	0.0138553
957.724	0.0138950
957.802	0.0138294
957.880	0.0138319
957.958	0.0139108
958.036	0.0138435
958.114	0.0140225
958.193	0.0140330
958.271	0.0139212
958.349	0.0138409
958.427	0.0137107
958.505	0.0137818
958.583	0.0139957
958.661	0.0138998
958.739	0.0138702
958.818	0.0141559
958.896	0.0139996
958.974	0.0138061
959.052	0.0138597
959.130	0.0140101
959.208	0.0140280
959.286	0.0140489
959.364	0.0140621
959.443	0.0141199
959.521	0.0141067
959.599	0.0140580
959.677	0.0141454
959.755	0.0142168
959.833	0.0141727
959.911	0.0139645
