05/14/2022	16:37:21	Ver.	4.1	UNKNOWN
Optical Delay	639.989416	Delta X		0.078125	Sweeps	1	Scan Rate	0/0
Coordinates	Axis 1	NaN	Axis 2	NaN	Axis 3	NaN	Axis 4	NaN	Axis 5	NaN	Axis 6	0.000000
TX Power	0.000000	RX Power	0.000000

639.989	0.0137368
640.068	0.0136520
640.146	0.0136764
640.224	0.0137256
640.302	0.0135763
640.380	0.0136456
640.458	0.0135695
640.536	0.0135646
640.614	0.0137601
640.693	0.0136770
640.771	0.0135621
640.849	0.0136103
640.927	0.0137090
641.005	0.0135107
641.083	0.0137408
641.161	0.0135836
641.239	0.0135828
641.318	0.0135777
641.396	0.0136159
641.474	0.0134813
641.552	0.0136131
641.630	0.0137384
641.708	0.0136831
641.786	0.0135860
641.864	0.0136447
641.943	0.0136343
642.021	0.0136691
642.099	0.0136005
642.177	0.0136566
642.255	0.0136463
642.333	0.0137163
642.411	0.0136287
642.489	0.0135352
642.568	0.0135777
642.646	0.0137848
642.724	0.0136458
642.802	0.0136182
642.880	0.0135690
642.958	0.0136565
643.036	0.0136696
643.114	0.0136191
643.193	0.0136271
643.271	0.0136533
643.349	0.0136336
643.427	0.0137503
643.505	0.0136808
643.583	0.0137125
643.661	0.0135711
643.739	0.0136598
643.818	0.0137853
643.896	0.0136285
643.974	0.0137285
644.052	0.0135763
644.130	0.0137621
644.208	0.0136364
644.286	0.0136858
644.364	0.0137187
644.443	0.0137384
644.521	0.0137846
644.599	0.0137943
644.677	0.0136957
644.755	0.0137376
644.833	0.0135699
644.911	0.0137885
644.989	0.0136986
645.068	0.0136881
645.146	0.0137598
645.224	0.0136359
645.302	0.0135880
645.380	0.0137521
645.458	0.0138486
645.536	0.0137215
645.614	0.0137665
645.693	0.0137610
645.771	0.0137967
645.849	0.0136147
645.927	0.0137144
646.005	0.0138070
646.083	0.0138522
646.161	0.0137646
646.239	0.0137118
646.318	0.0136633
646.396	0.0138017
646.474	0.0136895
646.552	0.0137685
646.630	0.0137389
646.708	0.0137230
646.786	0.0138006
646.864	0.0138071
646.943	0.0137690
647.021	0.0138461
647.099	0.0138113
647.177	0.0138278
647.255	0.0137115
647.333	0.0137901
647.411	0.0139246
647.489	0.0137449
647.568	0.0137148
647.646	0.0138543
647.724	0.0138319
647.802	0.0138413
647.880	0.0136928
647.958	0.0137838
648.036	0.0137479
648.114	0.0137749
648.193	0.0137112
648.271	0.0137435
648.349	0.0138144
648.427	0.0137355
648.505	0.0136718
648.583	0.0136939
648.661	0.0137747
648.739	0.0137462
648.818	0.0137990
648.896	0.0138308
648.974	0.0138246
649.052	0.0138033
649.130	0.0138802
649.208	0.0137121
649.286	0.0139221
649.364	0.0139050
649.443	0.0137943
649.521	0.0137449
649.599	0.0136249
649.677	0.0136041
649.755	0.0137341
649.833	0.0135735
649.911	0.0137448
649.989	0.0138068
650.068	0.0136858
650.146	0.0136011
650.224	0.0136591
650.302	0.0137170
650.380	0.0136992
650.458	0.0137270
650.536	0.0137640
650.614	0.0137507
650.693	0.0137907
650.771	0.0137185
650.849	0.0137453
650.927	0.0137953
651.005	0.0136472
651.083	0.0137880
651.161	0.0137323
651.239	0.0135761
651.318	0.0138225
651.396	0.0137843
651.474	0.0136744
651.552	0.0137592
651.630	0.0138361
651.708	0.0137968
651.786	0.0137616
651.864	0.0137090
651.943	0.0137807
652.021	0.0138431
652.099	0.0137264
652.177	0.0138704
652.255	0.0137323
652.333	0.0137515
652.411	0.0136613
652.489	0.0136835
652.568	0.0138238
652.646	0.0138511
652.724	0.0136980
652.802	0.0136873
652.880	0.0137395
652.958	0.0137320
653.036	0.0137871
653.114	0.0136091
653.193	0.0137621
653.271	0.0137312
653.349	0.0136641
653.427	0.0138122
653.505	0.0138904
653.583	0.0137813
653.661	0.0138571
653.739	0.0136349
653.818	0.0137457
653.896	0.0138352
653.974	0.0137399
654.052	0.0137832
654.130	0.0138055
654.208	0.0137937
654.286	0.0138274
654.364	0.0138194
654.443	0.0137281
654.521	0.0137214
654.599	0.0136105
654.677	0.0136457
654.755	0.0135895
654.833	0.0136948
654.911	0.0137463
654.989	0.0136405
655.068	0.0137988
655.146	0.0136720
655.224	0.0138118
655.302	0.0137174
655.380	0.0136455
655.458	0.0136420
655.536	0.0136121
655.614	0.0136755
655.693	0.0136470
655.771	0.0135461
655.849	0.0136424
655.927	0.0138409
656.005	0.0136699
656.083	0.0136460
656.161	0.0136664
656.239	0.0134975
656.318	0.0136662
656.396	0.0136889
656.474	0.0136642
656.552	0.0137312
656.630	0.0136581
656.708	0.0137604
656.786	0.0137787
656.864	0.0137476
656.943	0.0136988
657.021	0.0137959
657.099	0.0137336
657.177	0.0136408
657.255	0.0136653
657.333	0.0136828
657.411	0.0135912
657.489	0.0137809
657.568	0.0137654
657.646	0.0137067
657.724	0.0136271
657.802	0.0135877
657.880	0.0136783
657.958	0.0136584
658.036	0.0136163
658.114	0.0137745
658.193	0.0137070
658.271	0.0137042
658.349	0.0137373
658.427	0.0137650
658.505	0.0139061
658.583	0.0138866
658.661	0.0138285
658.739	0.0137866
658.818	0.0139095
658.896	0.0136867
658.974	0.0137939
659.052	0.0138440
659.130	0.0138013
659.208	0.0137437
659.286	0.0136486
659.364	0.0136939
659.443	0.0138056
659.521	0.0135543
659.599	0.0135960
659.677	0.0136152
659.755	0.0135802
659.833	0.0137432
659.911	0.0136507
659.989	0.0136736
660.068	0.0137109
660.146	0.0136642
660.224	0.0135947
660.302	0.0136964
660.380	0.0136951
660.458	0.0136920
660.536	0.0136247
660.614	0.0136675
660.693	0.0137907
660.771	0.0136467
660.849	0.0137819
660.927	0.0137124
661.005	0.0137319
661.083	0.0137785
661.161	0.0137817
661.239	0.0137666
661.318	0.0136591
661.396	0.0137573
661.474	0.0137891
661.552	0.0138293
661.630	0.0138647
661.708	0.0138921
661.786	0.0138255
661.864	0.0137153
661.943	0.0136973
662.021	0.0137296
662.099	0.0138381
662.177	0.0137575
662.255	0.0137425
662.333	0.0136440
662.411	0.0137041
662.489	0.0137043
662.568	0.0136906
662.646	0.0136982
662.724	0.0137976
662.802	0.0136860
662.880	0.0136369
662.958	0.0139126
663.036	0.0138077
663.114	0.0138024
663.193	0.0138097
663.271	0.0138036
663.349	0.0137443
663.427	0.0137837
663.505	0.0138538
663.583	0.0137991
663.661	0.0138566
663.739	0.0138688
663.818	0.0137841
663.896	0.0137062
663.974	0.0137508
664.052	0.0137703
664.130	0.0138099
664.208	0.0138419
664.286	0.0137534
664.364	0.0138012
664.443	0.0137611
664.521	0.0136168
664.599	0.0136110
664.677	0.0135956
664.755	0.0136707
664.833	0.0137551
664.911	0.0136265
664.989	0.0137597
665.068	0.0137447
665.146	0.0137477
665.224	0.0136635
665.302	0.0137166
665.380	0.0137818
665.458	0.0138644
665.536	0.0138786
665.614	0.0137319
665.693	0.0137599
665.771	0.0137192
665.849	0.0137506
665.927	0.0137292
666.005	0.0137172
666.083	0.0137205
666.161	0.0137811
666.239	0.0136581
666.318	0.0137270
666.396	0.0138262
666.474	0.0137107
666.552	0.0136479
666.630	0.0136184
666.708	0.0137080
666.786	0.0137460
666.864	0.0137489
666.943	0.0137426
667.021	0.0136982
667.099	0.0137198
667.177	0.0137221
667.255	0.0137395
667.333	0.0138489
667.411	0.0137077
667.489	0.0137924
667.568	0.0137296
667.646	0.0137637
667.724	0.0137981
667.802	0.0137485
667.880	0.0138000
667.958	0.0138401
668.036	0.0138020
668.114	0.0138210
668.193	0.0136949
668.271	0.0136971
668.349	0.0137363
668.427	0.0138654
668.505	0.0137598
668.583	0.0136482
668.661	0.0137270
668.739	0.0137567
668.818	0.0136798
668.896	0.0138723
668.974	0.0138794
669.052	0.0136221
669.130	0.0137539
669.208	0.0136456
669.286	0.0137246
669.364	0.0138029
669.443	0.0136832
669.521	0.0137435
669.599	0.0136838
669.677	0.0135139
669.755	0.0137603
669.833	0.0136330
669.911	0.0136952
669.989	0.0136632
670.068	0.0136152
670.146	0.0138386
670.224	0.0137152
670.302	0.0137599
670.380	0.0138313
670.458	0.0136200
670.536	0.0138007
670.614	0.0138116
670.693	0.0136367
670.771	0.0137756
670.849	0.0137410
670.927	0.0138860
671.005	0.0138208
671.083	0.0137996
671.161	0.0137798
671.239	0.0136726
671.318	0.0138074
671.396	0.0137720
671.474	0.0138267
671.552	0.0139054
671.630	0.0137078
671.708	0.0138255
671.786	0.0137393
671.864	0.0136564
671.943	0.0137551
672.021	0.0137169
672.099	0.0137419
672.177	0.0138307
672.255	0.0137156
672.333	0.0136672
672.411	0.0137481
672.489	0.0137633
672.568	0.0136600
672.646	0.0136356
672.724	0.0136957
672.802	0.0137849
672.880	0.0135618
672.958	0.0137904
673.036	0.0139376
673.114	0.0138576
673.193	0.0136983
673.271	0.0136326
673.349	0.0137718
673.427	0.0136244
673.505	0.0138825
673.583	0.0136297
673.661	0.0136503
673.739	0.0137749
673.818	0.0138479
673.896	0.0138731
673.974	0.0137921
674.052	0.0138014
674.130	0.0137993
674.208	0.0137090
674.286	0.0137188
674.364	0.0138612
674.443	0.0137142
674.521	0.0136771
674.599	0.0137077
674.677	0.0136672
674.755	0.0136729
674.833	0.0135267
674.911	0.0134645
674.989	0.0134435
675.068	0.0134417
675.146	0.0132597
675.224	0.0133846
675.302	0.0133479
675.380	0.0130849
675.458	0.0131643
675.536	0.0132574
675.614	0.0133716
675.693	0.0132993
675.771	0.0134052
675.849	0.0135030
675.927	0.0135963
676.005	0.0137157
676.083	0.0136826
676.161	0.0138006
676.239	0.0139620
676.318	0.0140201
676.396	0.0139293
676.474	0.0141312
676.552	0.0142869
676.630	0.0143000
676.708	0.0143253
676.786	0.0141300
676.864	0.0142082
676.943	0.0141507
677.021	0.0141682
677.099	0.0139902
677.177	0.0139217
677.255	0.0137735
677.333	0.0137480
677.411	0.0134661
677.489	0.0134451
677.568	0.0131303
677.646	0.0130188
677.724	0.0130156
677.802	0.0128313
677.880	0.0126190
677.958	0.0124696
678.036	0.0124755
678.114	0.0124387
678.193	0.0125239
678.271	0.0125929
678.349	0.0126012
678.427	0.0127953
678.505	0.0128699
678.583	0.0130782
678.661	0.0133447
678.739	0.0136411
678.818	0.0137685
678.896	0.0140463
678.974	0.0143342
679.052	0.0145904
679.130	0.0147607
679.208	0.0148129
679.286	0.0150902
679.364	0.0153731
679.443	0.0155299
679.521	0.0154430
679.599	0.0154062
679.677	0.0155534
679.755	0.0155527
679.833	0.0154408
679.911	0.0152332
679.989	0.0151970
680.068	0.0147584
680.146	0.0144497
680.224	0.0142137
680.302	0.0138080
680.380	0.0134727
680.458	0.0131825
680.536	0.0128138
680.614	0.0125986
680.693	0.0120998
680.771	0.0118265
680.849	0.0116184
680.927	0.0114966
681.005	0.0112822
681.083	0.0111433
681.161	0.0111127
681.239	0.0110054
681.318	0.0112653
681.396	0.0111437
681.474	0.0113876
681.552	0.0117604
681.630	0.0119605
681.708	0.0124701
681.786	0.0129105
681.864	0.0132998
681.943	0.0137441
682.021	0.0142677
682.099	0.0148466
682.177	0.0153113
682.255	0.0158080
682.333	0.0161389
682.411	0.0166408
682.489	0.0169713
682.568	0.0173256
682.646	0.0174908
682.724	0.0175198
682.802	0.0176374
682.880	0.0175705
682.958	0.0174245
683.036	0.0172359
683.114	0.0168422
683.193	0.0162893
683.271	0.0158282
683.349	0.0151918
683.427	0.0145675
683.505	0.0139487
683.583	0.0132895
683.661	0.0126267
683.739	0.0119501
683.818	0.0113811
683.896	0.0107803
683.974	0.0102794
684.052	0.00984749
684.130	0.00955917
684.208	0.00929840
684.286	0.00906502
684.364	0.00918182
684.443	0.00932091
684.521	0.00961166
684.599	0.00992462
684.677	0.0102214
684.755	0.0106255
684.833	0.0113198
684.911	0.0118525
684.989	0.0126834
685.068	0.0133731
685.146	0.0140545
685.224	0.0147283
685.302	0.0154391
685.380	0.0160165
685.458	0.0162160
685.536	0.0166780
685.614	0.0169418
685.693	0.0172776
685.771	0.0175533
685.849	0.0175208
685.927	0.0175201
686.005	0.0175397
686.083	0.0173529
686.161	0.0171140
686.239	0.0169503
686.318	0.0165297
686.396	0.0161966
686.474	0.0159338
686.552	0.0154198
686.630	0.0151064
686.708	0.0147434
686.786	0.0141461
686.864	0.0139667
686.943	0.0134269
687.021	0.0130119
687.099	0.0126920
687.177	0.0123263
687.255	0.0118141
687.333	0.0116034
687.411	0.0113239
687.489	0.0111373
687.568	0.0111673
687.646	0.0109756
687.724	0.0110388
687.802	0.0109841
687.880	0.0110605
687.958	0.0110991
688.036	0.0113285
688.114	0.0116163
688.193	0.0118781
688.271	0.0120915
688.349	0.0124087
688.427	0.0127707
688.505	0.0130093
688.583	0.0133585
688.661	0.0136588
688.739	0.0140709
688.818	0.0142602
688.896	0.0144387
688.974	0.0146988
689.052	0.0148761
689.130	0.0149400
689.208	0.0150044
689.286	0.0150475
689.364	0.0150836
689.443	0.0150609
689.521	0.0150638
689.599	0.0149922
689.677	0.0148898
689.755	0.0148981
689.833	0.0148660
689.911	0.0149198
689.989	0.0149172
690.068	0.0150145
690.146	0.0149393
690.224	0.0148456
690.302	0.0147105
690.380	0.0148266
690.458	0.0145889
690.536	0.0146644
690.614	0.0144051
690.693	0.0142422
690.771	0.0142094
690.849	0.0139574
690.927	0.0137389
691.005	0.0135379
691.083	0.0135590
691.161	0.0133253
691.239	0.0133588
691.318	0.0132479
691.396	0.0131841
691.474	0.0131512
691.552	0.0128555
691.630	0.0130703
691.708	0.0128365
691.786	0.0126882
691.864	0.0125118
691.943	0.0126125
692.021	0.0125471
692.099	0.0124312
692.177	0.0123980
692.255	0.0124348
692.333	0.0124976
692.411	0.0125414
692.489	0.0126610
692.568	0.0126542
692.646	0.0126719
692.724	0.0129507
692.802	0.0129638
692.880	0.0131226
692.958	0.0133006
693.036	0.0135237
693.114	0.0137380
693.193	0.0140573
693.271	0.0142576
693.349	0.0143822
693.427	0.0145853
693.505	0.0148350
693.583	0.0148773
693.661	0.0150159
693.739	0.0151859
693.818	0.0151727
693.896	0.0151443
693.974	0.0151123
694.052	0.0149004
694.130	0.0149848
694.208	0.0148920
694.286	0.0146287
694.364	0.0145845
694.443	0.0143303
694.521	0.0142909
694.599	0.0140512
694.677	0.0138335
694.755	0.0136096
694.833	0.0134259
694.911	0.0131107
694.989	0.0129411
695.068	0.0125855
695.146	0.0123985
695.224	0.0120647
695.302	0.0119757
695.380	0.0118243
695.458	0.0118856
695.536	0.0117936
695.614	0.0119531
695.693	0.0119687
695.771	0.0120971
695.849	0.0122794
695.927	0.0124772
696.005	0.0127046
696.083	0.0127968
696.161	0.0131282
696.239	0.0133571
696.318	0.0136704
696.396	0.0138731
696.474	0.0141112
696.552	0.0143507
696.630	0.0145162
696.708	0.0146752
696.786	0.0149382
696.864	0.0149895
696.943	0.0152245
697.021	0.0154255
697.099	0.0154581
697.177	0.0155869
697.255	0.0156331
697.333	0.0155578
697.411	0.0157366
697.489	0.0155256
697.568	0.0157144
697.646	0.0157082
697.724	0.0156081
697.802	0.0155390
697.880	0.0154106
697.958	0.0152393
698.036	0.0150281
698.114	0.0147544
698.193	0.0144728
698.271	0.0143269
698.349	0.0138970
698.427	0.0134583
698.505	0.0132307
698.583	0.0126283
698.661	0.0121802
698.739	0.0118068
698.818	0.0113721
698.896	0.0108369
698.974	0.0105944
699.052	0.0101376
699.130	0.00992844
699.208	0.00980324
699.286	0.00962379
699.364	0.00961967
699.443	0.00970566
699.521	0.00970772
699.599	0.00999329
699.677	0.0104158
699.755	0.0108179
699.833	0.0111295
699.911	0.0117258
699.989	0.0120895
700.068	0.0125526
700.146	0.0131161
700.224	0.0137511
700.302	0.0143901
700.380	0.0149131
700.458	0.0154758
700.536	0.0158219
700.614	0.0162868
700.693	0.0167708
700.771	0.0170415
700.849	0.0174303
700.927	0.0175837
701.005	0.0179563
701.083	0.0180678
701.161	0.0180629
701.239	0.0178067
701.318	0.0176948
701.396	0.0175208
701.474	0.0172161
701.552	0.0167456
701.630	0.0164848
701.708	0.0160290
701.786	0.0155938
701.864	0.0152075
701.943	0.0146867
702.021	0.0141801
702.099	0.0137875
702.177	0.0132767
702.255	0.0128030
702.333	0.0125407
702.411	0.0119971
702.489	0.0114675
702.568	0.0112045
702.646	0.0110625
702.724	0.0107455
702.802	0.0105307
702.880	0.0103628
702.958	0.0104198
703.036	0.0104990
703.114	0.0105434
703.193	0.0107717
703.271	0.0109601
703.349	0.0112193
703.427	0.0116953
703.505	0.0120264
703.583	0.0123373
703.661	0.0127567
703.739	0.0129324
703.818	0.0133308
703.896	0.0137991
703.974	0.0139756
704.052	0.0142091
704.130	0.0143270
704.208	0.0144024
704.286	0.0146661
704.364	0.0145663
704.443	0.0145558
704.521	0.0145107
704.599	0.0145293
704.677	0.0144209
704.755	0.0145275
704.833	0.0144268
704.911	0.0144687
704.989	0.0144376
705.068	0.0145793
705.146	0.0146767
705.224	0.0146304
705.302	0.0147816
705.380	0.0145968
705.458	0.0146140
705.536	0.0147583
705.614	0.0146015
705.693	0.0144093
705.771	0.0142062
705.849	0.0141331
705.927	0.0139046
706.005	0.0137978
706.083	0.0134325
706.161	0.0133048
706.239	0.0131504
706.318	0.0131244
706.396	0.0128101
706.474	0.0128841
706.552	0.0126266
706.630	0.0125716
706.708	0.0128108
706.786	0.0129465
706.864	0.0130875
706.943	0.0133634
707.021	0.0135957
707.099	0.0139546
707.177	0.0141029
707.255	0.0143546
707.333	0.0146797
707.411	0.0148620
707.489	0.0151914
707.568	0.0153622
707.646	0.0155219
707.724	0.0156638
707.802	0.0157375
707.880	0.0156156
707.958	0.0156234
708.036	0.0153139
708.114	0.0152612
708.193	0.0149702
708.271	0.0146387
708.349	0.0142803
708.427	0.0139272
708.505	0.0136829
708.583	0.0135415
708.661	0.0131798
708.739	0.0127851
708.818	0.0126285
708.896	0.0125436
708.974	0.0122657
709.052	0.0122595
709.130	0.0121849
709.208	0.0121439
709.286	0.0122292
709.364	0.0121859
709.443	0.0121230
709.521	0.0121448
709.599	0.0120985
709.677	0.0120635
709.755	0.0121990
709.833	0.0121391
709.911	0.0121706
709.989	0.0121341
710.068	0.0122959
710.146	0.0124171
710.224	0.0122634
710.302	0.0124925
710.380	0.0125117
710.458	0.0126920
710.536	0.0128703
710.614	0.0130466
710.693	0.0133886
710.771	0.0136169
710.849	0.0138663
710.927	0.0141724
711.005	0.0145850
711.083	0.0147665
711.161	0.0149203
711.239	0.0152235
711.318	0.0153401
711.396	0.0153253
711.474	0.0154372
711.552	0.0155695
711.630	0.0156639
711.708	0.0155910
711.786	0.0156021
711.864	0.0156998
711.943	0.0158540
712.021	0.0156897
712.099	0.0155968
712.177	0.0156277
712.255	0.0155213
712.333	0.0155285
712.411	0.0154185
712.489	0.0153819
712.568	0.0153829
712.646	0.0152036
712.724	0.0151337
712.802	0.0150803
712.880	0.0147394
712.958	0.0144234
713.036	0.0142884
713.114	0.0141155
713.193	0.0137920
713.271	0.0136607
713.349	0.0132946
713.427	0.0130618
713.505	0.0129138
713.583	0.0127682
713.661	0.0124471
713.739	0.0124483
713.818	0.0121555
713.896	0.0120226
713.974	0.0121487
714.052	0.0120146
714.130	0.0120551
714.208	0.0120586
714.286	0.0121633
714.364	0.0123833
714.443	0.0124191
714.521	0.0125901
714.599	0.0127916
714.677	0.0128912
714.755	0.0129720
714.833	0.0132323
714.911	0.0132150
714.989	0.0134724
715.068	0.0135971
715.146	0.0137130
715.224	0.0137872
715.302	0.0138944
715.380	0.0138702
715.458	0.0138362
715.536	0.0137620
715.614	0.0136979
715.693	0.0135490
715.771	0.0135382
715.849	0.0134121
715.927	0.0134264
716.005	0.0134154
716.083	0.0133560
716.161	0.0135341
716.239	0.0134338
716.318	0.0134378
716.396	0.0134563
716.474	0.0136378
716.552	0.0134357
716.630	0.0136359
716.708	0.0136244
716.786	0.0138075
716.864	0.0138383
716.943	0.0140473
717.021	0.0141522
717.099	0.0141718
717.177	0.0141895
717.255	0.0141035
717.333	0.0143378
717.411	0.0143887
717.489	0.0143910
717.568	0.0142770
717.646	0.0143250
717.724	0.0144664
717.802	0.0143205
717.880	0.0143651
717.958	0.0142702
718.036	0.0142701
718.114	0.0140134
718.193	0.0142279
718.271	0.0142419
718.349	0.0141635
718.427	0.0139125
718.505	0.0141059
718.583	0.0142612
718.661	0.0143295
718.739	0.0142308
718.818	0.0143495
718.896	0.0143241
718.974	0.0143560
719.052	0.0142406
719.130	0.0141313
719.208	0.0140479
719.286	0.0137759
719.364	0.0138143
719.443	0.0135803
719.521	0.0134482
719.599	0.0133240
719.677	0.0130877
719.755	0.0129169
719.833	0.0129115
719.911	0.0128889
719.989	0.0125909
720.068	0.0126215
720.146	0.0127631
720.224	0.0127866
720.302	0.0127282
720.380	0.0131658
720.458	0.0131020
720.536	0.0132468
720.614	0.0134573
720.693	0.0136507
720.771	0.0139536
720.849	0.0140445
720.927	0.0141661
721.005	0.0144313
721.083	0.0145070
721.161	0.0143941
721.239	0.0143835
721.318	0.0143313
721.396	0.0140603
721.474	0.0140178
721.552	0.0135508
721.630	0.0133311
721.708	0.0131109
721.786	0.0127859
721.864	0.0124640
721.943	0.0123964
722.021	0.0121612
722.099	0.0119779
722.177	0.0118856
722.255	0.0119077
722.333	0.0118391
722.411	0.0118748
722.489	0.0120678
722.568	0.0122081
722.646	0.0122312
722.724	0.0125198
722.802	0.0125444
722.880	0.0128641
722.958	0.0132325
723.036	0.0132458
723.114	0.0135536
723.193	0.0138945
723.271	0.0142414
723.349	0.0143678
723.427	0.0146078
723.505	0.0148610
723.583	0.0147984
723.661	0.0152361
723.739	0.0152245
723.818	0.0151902
723.896	0.0152242
723.974	0.0152540
724.052	0.0150841
724.130	0.0150620
724.208	0.0150573
724.286	0.0151146
724.364	0.0150196
724.443	0.0148002
724.521	0.0149143
724.599	0.0149261
724.677	0.0149384
724.755	0.0149514
724.833	0.0149783
724.911	0.0149468
724.989	0.0149249
725.068	0.0148764
725.146	0.0148769
725.224	0.0148282
725.302	0.0147437
725.380	0.0147190
725.458	0.0145851
725.536	0.0143108
725.614	0.0141571
725.693	0.0140392
725.771	0.0139381
725.849	0.0138121
725.927	0.0136246
726.005	0.0136311
726.083	0.0136308
726.161	0.0135086
726.239	0.0135578
726.318	0.0133566
726.396	0.0131992
726.474	0.0131149
726.552	0.0130006
726.630	0.0128621
726.708	0.0126413
726.786	0.0124860
726.864	0.0124375
726.943	0.0122160
727.021	0.0118968
727.099	0.0117204
727.177	0.0115276
727.255	0.0115204
727.333	0.0114229
727.411	0.0113425
727.489	0.0114783
727.568	0.0114980
727.646	0.0114076
727.724	0.0115773
727.802	0.0118258
727.880	0.0121013
727.958	0.0123314
728.036	0.0125158
728.114	0.0128431
728.193	0.0131611
728.271	0.0134953
728.349	0.0139093
728.427	0.0141016
728.505	0.0144535
728.583	0.0147556
728.661	0.0148574
728.739	0.0150826
728.818	0.0152515
728.896	0.0153498
728.974	0.0155377
729.052	0.0156740
729.130	0.0156477
729.208	0.0156198
729.286	0.0157130
729.364	0.0154781
729.443	0.0155077
729.521	0.0153800
729.599	0.0152675
729.677	0.0151530
729.755	0.0150227
729.833	0.0147929
729.911	0.0146514
729.989	0.0146432
730.068	0.0143530
730.146	0.0142319
730.224	0.0141092
730.302	0.0141572
730.380	0.0140617
730.458	0.0138874
730.536	0.0140301
730.614	0.0141138
730.693	0.0141118
730.771	0.0140862
730.849	0.0142144
730.927	0.0141892
731.005	0.0141189
731.083	0.0142626
731.161	0.0143176
731.239	0.0143253
731.318	0.0143172
731.396	0.0141776
731.474	0.0141055
731.552	0.0141035
731.630	0.0139166
731.708	0.0139392
731.786	0.0136576
731.864	0.0136153
731.943	0.0135658
732.021	0.0132881
732.099	0.0132588
732.177	0.0132174
732.255	0.0130604
732.333	0.0130335
732.411	0.0129457
732.489	0.0129632
732.568	0.0129399
732.646	0.0129543
732.724	0.0130019
732.802	0.0130459
732.880	0.0129429
732.958	0.0129225
733.036	0.0129108
733.114	0.0128483
733.193	0.0127782
733.271	0.0127960
733.349	0.0128062
733.427	0.0127312
733.505	0.0128252
733.583	0.0128249
733.661	0.0128505
733.739	0.0129308
733.818	0.0130477
733.896	0.0129626
733.974	0.0131262
734.052	0.0131622
734.130	0.0133578
734.208	0.0132641
734.286	0.0133363
734.364	0.0134069
734.443	0.0135107
734.521	0.0136348
734.599	0.0135787
734.677	0.0136481
734.755	0.0136418
734.833	0.0136292
734.911	0.0137691
734.989	0.0137422
735.068	0.0138904
735.146	0.0139526
735.224	0.0140177
735.302	0.0141489
735.380	0.0139874
735.458	0.0141284
735.536	0.0142675
735.614	0.0143110
735.693	0.0143149
735.771	0.0144704
735.849	0.0146033
735.927	0.0146207
736.005	0.0146204
736.083	0.0147202
736.161	0.0148463
736.239	0.0149036
736.318	0.0148795
736.396	0.0149033
736.474	0.0149143
736.552	0.0150151
736.630	0.0150800
736.708	0.0150680
736.786	0.0149451
736.864	0.0149813
736.943	0.0150467
737.021	0.0149046
737.099	0.0147182
737.177	0.0145903
737.255	0.0145279
737.333	0.0143776
737.411	0.0142426
737.489	0.0140767
737.568	0.0138452
737.646	0.0136650
737.724	0.0135658
737.802	0.0135440
737.880	0.0132161
737.958	0.0131844
738.036	0.0128939
738.114	0.0128259
738.193	0.0128434
738.271	0.0126525
738.349	0.0125436
738.427	0.0125205
738.505	0.0123958
738.583	0.0125507
738.661	0.0123943
738.739	0.0123764
738.818	0.0125510
738.896	0.0124789
738.974	0.0124738
739.052	0.0125193
739.130	0.0125675
739.208	0.0125991
739.286	0.0127628
739.364	0.0127049
739.443	0.0126894
739.521	0.0124858
739.599	0.0126235
739.677	0.0125782
739.755	0.0127015
739.833	0.0128094
739.911	0.0127517
739.989	0.0127299
740.068	0.0129546
740.146	0.0131974
740.224	0.0131175
740.302	0.0133127
740.380	0.0135072
740.458	0.0136603
740.536	0.0137827
740.614	0.0140853
740.693	0.0141564
740.771	0.0143779
740.849	0.0146150
740.927	0.0147616
741.005	0.0148604
741.083	0.0147854
741.161	0.0149823
741.239	0.0150787
741.318	0.0149794
741.396	0.0151513
741.474	0.0150826
741.552	0.0149209
741.630	0.0148264
741.708	0.0148000
741.786	0.0147353
741.864	0.0147543
741.943	0.0144273
742.021	0.0142097
742.099	0.0141669
742.177	0.0139847
742.255	0.0139201
742.333	0.0139762
742.411	0.0139280
742.489	0.0137740
742.568	0.0138792
742.646	0.0138921
742.724	0.0140534
742.802	0.0142087
742.880	0.0143500
742.958	0.0141553
743.036	0.0141116
743.114	0.0142200
743.193	0.0141884
743.271	0.0141276
743.349	0.0140092
743.427	0.0138838
743.505	0.0138210
743.583	0.0136922
743.661	0.0134808
743.739	0.0134164
743.818	0.0131766
743.896	0.0129796
743.974	0.0129956
744.052	0.0128901
744.130	0.0128005
744.208	0.0127732
744.286	0.0127206
744.364	0.0128314
744.443	0.0128562
744.521	0.0127599
744.599	0.0129442
744.677	0.0130836
744.755	0.0132793
744.833	0.0134390
744.911	0.0134093
744.989	0.0135412
745.068	0.0135893
745.146	0.0136986
745.224	0.0137753
745.302	0.0139433
745.380	0.0138326
745.458	0.0138853
745.536	0.0139772
745.614	0.0138387
745.693	0.0139335
745.771	0.0139428
745.849	0.0139179
745.927	0.0139083
746.005	0.0137756
746.083	0.0138682
746.161	0.0138395
746.239	0.0137736
746.318	0.0137790
746.396	0.0138354
746.474	0.0140971
746.552	0.0139516
746.630	0.0140353
746.708	0.0142409
746.786	0.0141255
746.864	0.0141441
746.943	0.0142794
747.021	0.0144005
747.099	0.0143285
747.177	0.0143180
747.255	0.0143623
747.333	0.0141832
747.411	0.0140656
747.489	0.0139515
747.568	0.0138452
747.646	0.0137069
747.724	0.0135004
747.802	0.0133590
747.880	0.0133231
747.958	0.0131923
748.036	0.0131701
748.114	0.0131190
748.193	0.0131223
748.271	0.0133191
748.349	0.0131139
748.427	0.0133849
748.505	0.0133970
748.583	0.0135382
748.661	0.0136026
748.739	0.0137267
748.818	0.0139940
748.896	0.0141060
748.974	0.0142673
749.052	0.0143130
749.130	0.0144990
749.208	0.0147344
749.286	0.0147256
749.364	0.0146363
749.443	0.0146355
749.521	0.0146889
749.599	0.0144360
749.677	0.0144236
749.755	0.0145065
749.833	0.0143248
749.911	0.0142619
749.989	0.0140491
750.068	0.0141320
750.146	0.0139120
750.224	0.0138130
750.302	0.0139189
750.380	0.0138833
750.458	0.0138618
750.536	0.0138720
750.614	0.0139259
750.693	0.0139018
750.771	0.0139311
750.849	0.0140218
750.927	0.0140192
751.005	0.0140572
751.083	0.0140620
751.161	0.0139755
751.239	0.0139911
751.318	0.0138046
751.396	0.0137956
751.474	0.0136337
751.552	0.0134702
751.630	0.0134537
751.708	0.0133577
751.786	0.0132832
751.864	0.0131888
751.943	0.0130250
752.021	0.0129449
752.099	0.0127861
752.177	0.0127496
752.255	0.0128278
752.333	0.0127024
752.411	0.0126442
752.489	0.0127171
752.568	0.0126215
752.646	0.0127534
752.724	0.0128139
752.802	0.0129189
752.880	0.0130077
752.958	0.0132123
753.036	0.0131120
753.114	0.0132298
753.193	0.0134591
753.271	0.0136251
753.349	0.0137020
753.427	0.0137741
753.505	0.0139510
753.583	0.0139008
753.661	0.0141419
753.739	0.0141288
753.818	0.0141747
753.896	0.0141431
753.974	0.0142770
754.052	0.0142450
754.130	0.0143079
754.208	0.0140940
754.286	0.0141688
754.364	0.0140405
754.443	0.0140182
754.521	0.0140422
754.599	0.0140546
754.677	0.0139953
754.755	0.0140884
754.833	0.0140257
754.911	0.0139568
754.989	0.0140184
755.068	0.0138168
755.146	0.0141030
755.224	0.0140816
755.302	0.0140432
755.380	0.0139019
755.458	0.0138591
755.536	0.0138569
755.614	0.0138277
755.693	0.0138316
755.771	0.0136456
755.849	0.0136016
755.927	0.0136850
756.005	0.0135015
756.083	0.0135270
756.161	0.0133286
756.239	0.0133518
756.318	0.0133363
756.396	0.0134418
756.474	0.0133847
756.552	0.0133034
756.630	0.0134219
756.708	0.0133560
756.786	0.0135090
756.864	0.0135235
756.943	0.0135417
757.021	0.0136454
757.099	0.0136755
757.177	0.0135671
757.255	0.0135303
757.333	0.0134663
757.411	0.0134807
757.489	0.0136322
757.568	0.0134457
757.646	0.0135546
757.724	0.0136488
757.802	0.0134541
757.880	0.0135732
757.958	0.0134900
758.036	0.0134652
758.114	0.0134026
758.193	0.0134572
758.271	0.0136098
758.349	0.0134564
758.427	0.0133345
758.505	0.0134116
758.583	0.0134480
758.661	0.0133932
758.739	0.0134045
758.818	0.0134299
758.896	0.0134619
758.974	0.0134470
759.052	0.0134827
759.130	0.0135354
759.208	0.0135118
759.286	0.0137704
759.364	0.0136951
759.443	0.0136980
759.521	0.0137759
759.599	0.0137151
759.677	0.0138017
759.755	0.0139752
759.833	0.0138774
759.911	0.0138735
759.989	0.0138926
760.068	0.0139043
760.146	0.0139473
760.224	0.0138605
760.302	0.0138395
760.380	0.0136716
760.458	0.0137984
760.536	0.0136444
760.614	0.0137419
760.693	0.0135316
760.771	0.0134969
760.849	0.0134039
760.927	0.0133624
761.005	0.0135617
761.083	0.0134160
761.161	0.0135215
761.239	0.0135790
761.318	0.0136817
761.396	0.0136197
761.474	0.0136311
761.552	0.0137804
761.630	0.0138783
761.708	0.0138570
761.786	0.0139420
761.864	0.0138707
761.943	0.0140083
762.021	0.0138667
762.099	0.0138135
762.177	0.0137589
762.255	0.0139519
762.333	0.0139677
762.411	0.0139286
762.489	0.0138290
762.568	0.0138744
762.646	0.0137892
762.724	0.0137875
762.802	0.0139317
762.880	0.0139470
762.958	0.0138357
763.036	0.0137592
763.114	0.0138316
763.193	0.0137616
763.271	0.0138468
763.349	0.0139149
763.427	0.0138184
763.505	0.0139040
763.583	0.0137334
763.661	0.0137018
763.739	0.0139238
763.818	0.0137072
763.896	0.0137619
763.974	0.0138982
764.052	0.0137391
764.130	0.0136748
764.208	0.0136951
764.286	0.0135793
764.364	0.0134541
764.443	0.0136221
764.521	0.0135108
764.599	0.0135095
764.677	0.0133620
764.755	0.0132333
764.833	0.0131758
764.911	0.0132358
764.989	0.0131950
765.068	0.0130273
765.146	0.0131242
765.224	0.0131888
765.302	0.0131584
765.380	0.0133312
765.458	0.0133333
765.536	0.0133134
765.614	0.0135597
765.693	0.0135867
765.771	0.0137009
765.849	0.0136539
765.927	0.0137136
766.005	0.0138214
766.083	0.0138228
766.161	0.0139603
766.239	0.0138136
766.318	0.0138161
766.396	0.0140002
766.474	0.0138825
766.552	0.0139601
766.630	0.0141470
766.708	0.0139610
766.786	0.0140273
766.864	0.0140995
766.943	0.0140733
767.021	0.0141858
767.099	0.0141434
767.177	0.0141109
767.255	0.0142797
767.333	0.0142247
767.411	0.0141284
767.489	0.0142448
767.568	0.0141270
767.646	0.0141589
767.724	0.0140609
767.802	0.0140963
767.880	0.0140189
767.958	0.0138778
768.036	0.0139001
768.114	0.0138333
768.193	0.0137997
768.271	0.0137561
768.349	0.0136421
768.427	0.0137098
768.505	0.0137736
768.583	0.0135995
768.661	0.0137086
768.739	0.0136904
768.818	0.0136952
768.896	0.0137358
768.974	0.0137304
769.052	0.0137868
769.130	0.0138202
769.208	0.0139275
769.286	0.0138493
769.364	0.0139624
769.443	0.0139400
769.521	0.0139642
769.599	0.0138677
769.677	0.0137909
769.755	0.0139336
769.833	0.0138359
769.911	0.0138004
769.989	0.0137289
770.068	0.0137237
770.146	0.0135258
770.224	0.0135556
770.302	0.0136070
770.380	0.0136287
770.458	0.0135230
770.536	0.0135216
770.614	0.0135024
770.693	0.0133971
770.771	0.0134259
770.849	0.0134459
770.927	0.0134116
771.005	0.0134968
771.083	0.0135037
771.161	0.0134356
771.239	0.0134106
771.318	0.0134953
771.396	0.0134452
771.474	0.0135378
771.552	0.0134745
771.630	0.0135318
771.708	0.0135415
771.786	0.0134789
771.864	0.0134992
771.943	0.0137674
772.021	0.0135721
772.099	0.0137401
772.177	0.0137912
772.255	0.0139155
772.333	0.0138805
772.411	0.0140328
772.489	0.0140189
772.568	0.0141310
772.646	0.0141850
772.724	0.0141640
772.802	0.0140462
772.880	0.0140347
772.958	0.0143775
773.036	0.0142587
773.114	0.0141959
773.193	0.0141152
773.271	0.0143771
773.349	0.0142333
773.427	0.0141006
773.505	0.0141711
773.583	0.0140894
773.661	0.0141715
773.739	0.0139699
773.818	0.0140066
773.896	0.0139039
773.974	0.0139622
774.052	0.0139634
774.130	0.0139638
774.208	0.0138161
774.286	0.0138651
774.364	0.0139050
774.443	0.0138306
774.521	0.0137276
774.599	0.0137119
774.677	0.0136333
774.755	0.0137279
774.833	0.0136737
774.911	0.0135474
774.989	0.0134631
775.068	0.0135812
775.146	0.0136786
775.224	0.0136054
775.302	0.0137520
775.380	0.0136021
775.458	0.0134994
775.536	0.0135805
775.614	0.0136389
775.693	0.0136539
775.771	0.0135709
775.849	0.0134744
775.927	0.0135536
776.005	0.0137565
776.083	0.0136303
776.161	0.0137043
776.239	0.0136622
776.318	0.0136920
776.396	0.0137416
776.474	0.0138811
776.552	0.0136988
776.630	0.0139714
776.708	0.0138462
776.786	0.0137665
776.864	0.0137727
776.943	0.0137929
777.021	0.0138239
777.099	0.0137122
777.177	0.0136490
777.255	0.0136357
777.333	0.0137650
777.411	0.0137828
777.489	0.0136375
777.568	0.0136044
777.646	0.0135600
777.724	0.0136613
777.802	0.0136375
777.880	0.0133719
777.958	0.0134967
778.036	0.0134715
778.114	0.0135021
778.193	0.0134985
778.271	0.0135408
778.349	0.0135625
778.427	0.0135788
778.505	0.0134808
778.583	0.0135912
778.661	0.0138130
778.739	0.0137010
778.818	0.0137975
778.896	0.0136198
778.974	0.0134914
779.052	0.0136492
779.130	0.0137041
779.208	0.0137939
779.286	0.0138492
779.364	0.0138833
779.443	0.0139438
779.521	0.0138911
779.599	0.0140685
779.677	0.0140265
779.755	0.0140453
779.833	0.0139880
779.911	0.0140229
779.989	0.0141364
780.068	0.0140975
780.146	0.0139577
780.224	0.0138443
780.302	0.0137595
780.380	0.0138580
780.458	0.0138398
780.536	0.0136580
780.614	0.0136293
780.693	0.0136420
780.771	0.0136178
780.849	0.0136205
780.927	0.0135381
781.005	0.0134731
781.083	0.0135114
781.161	0.0135207
781.239	0.0134782
781.318	0.0135971
781.396	0.0136621
781.474	0.0137598
781.552	0.0136911
781.630	0.0138593
781.708	0.0138097
781.786	0.0139649
781.864	0.0139764
781.943	0.0141671
782.021	0.0139413
782.099	0.0141970
782.177	0.0141998
782.255	0.0142554
782.333	0.0141202
782.411	0.0142085
782.489	0.0141225
782.568	0.0141587
782.646	0.0142285
782.724	0.0140894
782.802	0.0140005
782.880	0.0140686
782.958	0.0141145
783.036	0.0139758
783.114	0.0139754
783.193	0.0139520
783.271	0.0138007
783.349	0.0137327
783.427	0.0136974
783.505	0.0137254
783.583	0.0138240
783.661	0.0135369
783.739	0.0136618
783.818	0.0134205
783.896	0.0135390
783.974	0.0133170
784.052	0.0134237
784.130	0.0133130
784.208	0.0132061
784.286	0.0132233
784.364	0.0131176
784.443	0.0131253
784.521	0.0131063
784.599	0.0131868
784.677	0.0132349
784.755	0.0131311
784.833	0.0133161
784.911	0.0133397
784.989	0.0132817
785.068	0.0134074
785.146	0.0136039
785.224	0.0135435
785.302	0.0137154
785.380	0.0137867
785.458	0.0138251
785.536	0.0138601
785.614	0.0138249
785.693	0.0140690
785.771	0.0140575
785.849	0.0140062
785.927	0.0138975
786.005	0.0141097
786.083	0.0141753
786.161	0.0142400
786.239	0.0140527
786.318	0.0140142
786.396	0.0138892
786.474	0.0140393
786.552	0.0140459
786.630	0.0139450
786.708	0.0138342
786.786	0.0139079
786.864	0.0138384
786.943	0.0140131
787.021	0.0138309
787.099	0.0138219
787.177	0.0138358
787.255	0.0137020
787.333	0.0136401
787.411	0.0135627
787.489	0.0135907
787.568	0.0135139
787.646	0.0134883
787.724	0.0133729
787.802	0.0134013
787.880	0.0133791
787.958	0.0134238
788.036	0.0133923
788.114	0.0134092
788.193	0.0134015
788.271	0.0132934
788.349	0.0134930
788.427	0.0133198
788.505	0.0133928
788.583	0.0134738
788.661	0.0135678
788.739	0.0135141
788.818	0.0136580
788.896	0.0135527
788.974	0.0136031
789.052	0.0134416
789.130	0.0136451
789.208	0.0136294
789.286	0.0137520
789.364	0.0136494
789.443	0.0136976
789.521	0.0137928
789.599	0.0138210
789.677	0.0138271
789.755	0.0139396
789.833	0.0138950
789.911	0.0138410
789.989	0.0139477
790.068	0.0140270
790.146	0.0140166
790.224	0.0140086
790.302	0.0140449
790.380	0.0141812
790.458	0.0140411
790.536	0.0142258
790.614	0.0142935
790.693	0.0143084
790.771	0.0141949
790.849	0.0141635
790.927	0.0142199
791.005	0.0141340
791.083	0.0140879
791.161	0.0141164
791.239	0.0141603
791.318	0.0140162
791.396	0.0140141
791.474	0.0140103
791.552	0.0138665
791.630	0.0138554
791.708	0.0138516
791.786	0.0137722
791.864	0.0138517
791.943	0.0137781
792.021	0.0136934
792.099	0.0137634
792.177	0.0138007
792.255	0.0136027
792.333	0.0136005
792.411	0.0136899
792.489	0.0135596
792.568	0.0135954
792.646	0.0135043
792.724	0.0134084
792.802	0.0134200
792.880	0.0134610
792.958	0.0132903
793.036	0.0133523
793.114	0.0133688
793.193	0.0134195
793.271	0.0135767
793.349	0.0132819
793.427	0.0133955
793.505	0.0134959
793.583	0.0135116
793.661	0.0134718
793.739	0.0135079
793.818	0.0135378
793.896	0.0136217
793.974	0.0136463
794.052	0.0137505
794.130	0.0137196
794.208	0.0137361
794.286	0.0138426
794.364	0.0139693
794.443	0.0139053
794.521	0.0138790
794.599	0.0140342
794.677	0.0140361
794.755	0.0140132
794.833	0.0139924
794.911	0.0141177
794.989	0.0140103
795.068	0.0138544
795.146	0.0139060
795.224	0.0139092
795.302	0.0138522
795.380	0.0138294
795.458	0.0136725
795.536	0.0135947
795.614	0.0136202
795.693	0.0134830
795.771	0.0134832
795.849	0.0133881
795.927	0.0133649
796.005	0.0131834
796.083	0.0132572
796.161	0.0131647
796.239	0.0130507
796.318	0.0130853
796.396	0.0131353
796.474	0.0130642
796.552	0.0132649
796.630	0.0133129
796.708	0.0133937
796.786	0.0134274
796.864	0.0136761
796.943	0.0136855
797.021	0.0137762
797.099	0.0139102
797.177	0.0139448
797.255	0.0141260
797.333	0.0141573
797.411	0.0140559
797.489	0.0142581
797.568	0.0143935
797.646	0.0143966
797.724	0.0144476
797.802	0.0142857
797.880	0.0145026
797.958	0.0144378
798.036	0.0143884
798.114	0.0142742
798.193	0.0142773
798.271	0.0141344
798.349	0.0141055
798.427	0.0139573
798.505	0.0139893
798.583	0.0139600
798.661	0.0138304
798.739	0.0138731
798.818	0.0137636
798.896	0.0136343
798.974	0.0136213
799.052	0.0135979
799.130	0.0135989
799.208	0.0135324
799.286	0.0134589
799.364	0.0133572
799.443	0.0135109
799.521	0.0134830
799.599	0.0132446
799.677	0.0134662
799.755	0.0135111
799.833	0.0135271
799.911	0.0134820
799.989	0.0135297
800.068	0.0134548
800.146	0.0134228
800.224	0.0136047
800.302	0.0136025
800.380	0.0134445
800.458	0.0134402
800.536	0.0135746
800.614	0.0135334
800.693	0.0135410
800.771	0.0134904
800.849	0.0136445
800.927	0.0135636
801.005	0.0136216
801.083	0.0135956
801.161	0.0136476
801.239	0.0136617
801.318	0.0137524
801.396	0.0136848
801.474	0.0137022
801.552	0.0137409
801.630	0.0135940
801.708	0.0137361
801.786	0.0138754
801.864	0.0137420
801.943	0.0137292
802.021	0.0137355
802.099	0.0135822
802.177	0.0137984
802.255	0.0139283
802.333	0.0138183
802.411	0.0138672
802.489	0.0138632
802.568	0.0139834
802.646	0.0140205
802.724	0.0139656
802.802	0.0141245
802.880	0.0141895
802.958	0.0140287
803.036	0.0141976
803.114	0.0142278
803.193	0.0141741
803.271	0.0142702
803.349	0.0141846
803.427	0.0142650
803.505	0.0141434
803.583	0.0140436
803.661	0.0144370
803.739	0.0142793
803.818	0.0140749
803.896	0.0140658
803.974	0.0141126
804.052	0.0141618
804.130	0.0140596
804.208	0.0140257
804.286	0.0140363
804.364	0.0139943
804.443	0.0139023
804.521	0.0139725
804.599	0.0138931
804.677	0.0137647
804.755	0.0137661
804.833	0.0137311
804.911	0.0136839
804.989	0.0136485
805.068	0.0137089
805.146	0.0135899
805.224	0.0135076
805.302	0.0135197
805.380	0.0136073
805.458	0.0133401
805.536	0.0133791
805.614	0.0133101
805.693	0.0134003
805.771	0.0133505
805.849	0.0133241
805.927	0.0134143
806.005	0.0135213
806.083	0.0134312
806.161	0.0132924
806.239	0.0132979
806.318	0.0133636
806.396	0.0134321
806.474	0.0136443
806.552	0.0133990
806.630	0.0133469
806.708	0.0134726
806.786	0.0136504
806.864	0.0136381
806.943	0.0136207
807.021	0.0136687
807.099	0.0136434
807.177	0.0136823
807.255	0.0138757
807.333	0.0137482
807.411	0.0136797
807.489	0.0137304
807.568	0.0139275
807.646	0.0137774
807.724	0.0137650
807.802	0.0138573
807.880	0.0139293
807.958	0.0140929
808.036	0.0140655
808.114	0.0141270
808.193	0.0141706
808.271	0.0141911
808.349	0.0142003
808.427	0.0143047
808.505	0.0142878
808.583	0.0144411
808.661	0.0144022
808.739	0.0143209
808.818	0.0143260
808.896	0.0143830
808.974	0.0142629
809.052	0.0142428
809.130	0.0143630
809.208	0.0142799
809.286	0.0142435
809.364	0.0143327
809.443	0.0141353
809.521	0.0141536
809.599	0.0139622
809.677	0.0139407
809.755	0.0139101
809.833	0.0136516
809.911	0.0137502
809.989	0.0136830
810.068	0.0135389
810.146	0.0135042
810.224	0.0132155
810.302	0.0131791
810.380	0.0132787
810.458	0.0131017
810.536	0.0132200
810.614	0.0131076
810.693	0.0130169
810.771	0.0130354
810.849	0.0129277
810.927	0.0129854
811.005	0.0129480
811.083	0.0130125
811.161	0.0131853
811.239	0.0130979
811.318	0.0131457
811.396	0.0132160
811.474	0.0132563
811.552	0.0134780
811.630	0.0135500
811.708	0.0135936
811.786	0.0136263
811.864	0.0137900
811.943	0.0139599
812.021	0.0137695
812.099	0.0140056
812.177	0.0139103
812.255	0.0140955
812.333	0.0141297
812.411	0.0142345
812.489	0.0141287
812.568	0.0141049
812.646	0.0143806
812.724	0.0142023
812.802	0.0143108
812.880	0.0143573
812.958	0.0142610
813.036	0.0141683
813.114	0.0143051
813.193	0.0142179
813.271	0.0140775
813.349	0.0141752
813.427	0.0139175
813.505	0.0138355
813.583	0.0139582
813.661	0.0138687
813.739	0.0138998
813.818	0.0137891
813.896	0.0136911
813.974	0.0136751
814.052	0.0136841
814.130	0.0136164
814.208	0.0134460
814.286	0.0134978
814.364	0.0135143
814.443	0.0134372
814.521	0.0133743
814.599	0.0134702
814.677	0.0135815
814.755	0.0134509
814.833	0.0135844
814.911	0.0133734
814.989	0.0134818
815.068	0.0134923
815.146	0.0136043
815.224	0.0134984
815.302	0.0135664
815.380	0.0135802
815.458	0.0135227
815.536	0.0136781
815.614	0.0136050
815.693	0.0138268
815.771	0.0138244
815.849	0.0136742
815.927	0.0138477
816.005	0.0139206
816.083	0.0136935
816.161	0.0139091
816.239	0.0138030
816.318	0.0138811
816.396	0.0139821
816.474	0.0137978
816.552	0.0138628
816.630	0.0138146
816.708	0.0137415
816.786	0.0137903
816.864	0.0137971
816.943	0.0138074
817.021	0.0137389
817.099	0.0136205
817.177	0.0134905
817.255	0.0136038
817.333	0.0136891
817.411	0.0135038
817.489	0.0134886
817.568	0.0134540
817.646	0.0134923
817.724	0.0134331
817.802	0.0135278
817.880	0.0135802
817.958	0.0136567
818.036	0.0134976
818.114	0.0134241
818.193	0.0135608
818.271	0.0135128
818.349	0.0135658
818.427	0.0135698
818.505	0.0135610
818.583	0.0134643
818.661	0.0135375
818.739	0.0135714
818.818	0.0136220
818.896	0.0135822
818.974	0.0136543
819.052	0.0135980
819.130	0.0136889
819.208	0.0138264
819.286	0.0136841
819.364	0.0136111
819.443	0.0136685
819.521	0.0135600
819.599	0.0136623
819.677	0.0136569
819.755	0.0136844
819.833	0.0136408
819.911	0.0136606
819.989	0.0136432
820.068	0.0136871
820.146	0.0138620
820.224	0.0137821
820.302	0.0136445
820.380	0.0136807
820.458	0.0137509
820.536	0.0137671
820.614	0.0137312
820.693	0.0137977
820.771	0.0138386
820.849	0.0138734
820.927	0.0137405
821.005	0.0138178
821.083	0.0138243
821.161	0.0138105
821.239	0.0139362
821.318	0.0138798
821.396	0.0138228
821.474	0.0138322
821.552	0.0138464
821.630	0.0137878
821.708	0.0139774
821.786	0.0139344
821.864	0.0139902
821.943	0.0139603
822.021	0.0138170
822.099	0.0140446
822.177	0.0140006
822.255	0.0138445
822.333	0.0139610
822.411	0.0138339
822.489	0.0138382
822.568	0.0139146
822.646	0.0138042
822.724	0.0137677
822.802	0.0136113
822.880	0.0136543
822.958	0.0135954
823.036	0.0136478
823.114	0.0134949
823.193	0.0135466
823.271	0.0136689
823.349	0.0135817
823.427	0.0134840
823.505	0.0134785
823.583	0.0135192
823.661	0.0134945
823.739	0.0135908
823.818	0.0136215
823.896	0.0135252
823.974	0.0135808
824.052	0.0135686
824.130	0.0135892
824.208	0.0134720
824.286	0.0135514
824.364	0.0137030
824.443	0.0137341
824.521	0.0137611
824.599	0.0138239
824.677	0.0138823
824.755	0.0138748
824.833	0.0138745
824.911	0.0140232
824.989	0.0140079
825.068	0.0141615
825.146	0.0141914
825.224	0.0142408
825.302	0.0142325
825.380	0.0143365
825.458	0.0142720
825.536	0.0143060
825.614	0.0143616
825.693	0.0142587
825.771	0.0144242
825.849	0.0144318
825.927	0.0142220
826.005	0.0141700
826.083	0.0142765
826.161	0.0142368
826.239	0.0142435
826.318	0.0141957
826.396	0.0142535
826.474	0.0140971
826.552	0.0140763
826.630	0.0141309
826.708	0.0139793
826.786	0.0140123
826.864	0.0140301
826.943	0.0139131
827.021	0.0138145
827.099	0.0138280
827.177	0.0138334
827.255	0.0138770
827.333	0.0136989
827.411	0.0138589
827.489	0.0136481
827.568	0.0136189
827.646	0.0136531
827.724	0.0135042
827.802	0.0134843
827.880	0.0136279
827.958	0.0135864
828.036	0.0134859
828.114	0.0134822
828.193	0.0135189
828.271	0.0135415
828.349	0.0135972
828.427	0.0135784
828.505	0.0136240
828.583	0.0136467
828.661	0.0136876
828.739	0.0136568
828.818	0.0135080
828.896	0.0136594
828.974	0.0136669
829.052	0.0136146
829.130	0.0136311
829.208	0.0135641
829.286	0.0135349
829.364	0.0136581
829.443	0.0135979
829.521	0.0134531
829.599	0.0135590
829.677	0.0134824
829.755	0.0136048
829.833	0.0136369
829.911	0.0135435
829.989	0.0134494
830.068	0.0134121
830.146	0.0134741
830.224	0.0135500
830.302	0.0135831
830.380	0.0135955
830.458	0.0135529
830.536	0.0136023
830.614	0.0135758
830.693	0.0135960
830.771	0.0138515
830.849	0.0137676
830.927	0.0136882
831.005	0.0138578
831.083	0.0137617
831.161	0.0137358
831.239	0.0138783
831.318	0.0137730
831.396	0.0139365
831.474	0.0138528
831.552	0.0139709
831.630	0.0139750
831.708	0.0139642
831.786	0.0138388
831.864	0.0141132
831.943	0.0139340
832.021	0.0139611
832.099	0.0139205
832.177	0.0138693
832.255	0.0138957
832.333	0.0138673
832.411	0.0139420
832.489	0.0138564
832.568	0.0138304
832.646	0.0138371
832.724	0.0137389
832.802	0.0136211
832.880	0.0136659
832.958	0.0137791
833.036	0.0137341
833.114	0.0135950
833.193	0.0136003
833.271	0.0135327
833.349	0.0136443
833.427	0.0136112
833.505	0.0137255
833.583	0.0137349
833.661	0.0137531
833.739	0.0137334
833.818	0.0137552
833.896	0.0138230
833.974	0.0137503
834.052	0.0137737
834.130	0.0138551
834.208	0.0139165
834.286	0.0137501
834.364	0.0136903
834.443	0.0136755
834.521	0.0137749
834.599	0.0137315
834.677	0.0137526
834.755	0.0137947
834.833	0.0136668
834.911	0.0135746
834.989	0.0135013
835.068	0.0134902
835.146	0.0136058
835.224	0.0137019
835.302	0.0136366
835.380	0.0136900
835.458	0.0137268
835.536	0.0136169
835.614	0.0135856
835.693	0.0136092
835.771	0.0136178
835.849	0.0135437
835.927	0.0136738
836.005	0.0137631
836.083	0.0137158
836.161	0.0136254
836.239	0.0135368
836.318	0.0135784
836.396	0.0136320
836.474	0.0137357
836.552	0.0135101
836.630	0.0136928
836.708	0.0135078
836.786	0.0135686
836.864	0.0136349
836.943	0.0135703
837.021	0.0134776
837.099	0.0135288
837.177	0.0136200
837.255	0.0135593
837.333	0.0136555
837.411	0.0137145
837.489	0.0137128
837.568	0.0137379
837.646	0.0137212
837.724	0.0137137
837.802	0.0137881
837.880	0.0137590
837.958	0.0139010
838.036	0.0138929
838.114	0.0137354
838.193	0.0138873
838.271	0.0140646
838.349	0.0140099
838.427	0.0139522
838.505	0.0140126
838.583	0.0140278
838.661	0.0140951
838.739	0.0141235
838.818	0.0141546
838.896	0.0141899
838.974	0.0141038
839.052	0.0142161
839.130	0.0143575
839.208	0.0142691
839.286	0.0142168
839.364	0.0141188
839.443	0.0139861
839.521	0.0141140
839.599	0.0139306
839.677	0.0137584
839.755	0.0138666
839.833	0.0137264
839.911	0.0135958
839.989	0.0137560
840.068	0.0135282
840.146	0.0135655
840.224	0.0132793
840.302	0.0133687
840.380	0.0133856
840.458	0.0134105
840.536	0.0132003
840.614	0.0131159
840.693	0.0131391
840.771	0.0130989
840.849	0.0130931
840.927	0.0132912
841.005	0.0131593
841.083	0.0132340
841.161	0.0131517
841.239	0.0132213
841.318	0.0132748
841.396	0.0133281
841.474	0.0133142
841.552	0.0133473
841.630	0.0134641
841.708	0.0136011
841.786	0.0135393
841.864	0.0135016
841.943	0.0136546
842.021	0.0138065
842.099	0.0136899
842.177	0.0137118
842.255	0.0138092
842.333	0.0138907
842.411	0.0138155
842.489	0.0139044
842.568	0.0139497
842.646	0.0140440
842.724	0.0139828
842.802	0.0139603
842.880	0.0140778
842.958	0.0139636
843.036	0.0139964
843.114	0.0139650
843.193	0.0140707
843.271	0.0139781
843.349	0.0139722
843.427	0.0139893
843.505	0.0141338
843.583	0.0139646
843.661	0.0139291
843.739	0.0140405
843.818	0.0140754
843.896	0.0139682
843.974	0.0138942
844.052	0.0139653
844.130	0.0141302
844.208	0.0139330
844.286	0.0138765
844.364	0.0138966
844.443	0.0139560
844.521	0.0140681
844.599	0.0139236
844.677	0.0139046
844.755	0.0138733
844.833	0.0139199
844.911	0.0139066
844.989	0.0138384
845.068	0.0138017
845.146	0.0137975
845.224	0.0137732
845.302	0.0137758
845.380	0.0136760
845.458	0.0137654
845.536	0.0137669
845.614	0.0137170
845.693	0.0136884
845.771	0.0137385
845.849	0.0137559
845.927	0.0136085
846.005	0.0136752
846.083	0.0137364
846.161	0.0136590
846.239	0.0138404
846.318	0.0136420
846.396	0.0135136
846.474	0.0136776
846.552	0.0135964
846.630	0.0136403
846.708	0.0137302
846.786	0.0136880
846.864	0.0136828
846.943	0.0137153
847.021	0.0137995
847.099	0.0138391
847.177	0.0137598
847.255	0.0138979
847.333	0.0137228
847.411	0.0139281
847.489	0.0138642
847.568	0.0138765
847.646	0.0138480
847.724	0.0138831
847.802	0.0138245
847.880	0.0137539
847.958	0.0136947
848.036	0.0136055
848.114	0.0137063
848.193	0.0138230
848.271	0.0137851
848.349	0.0136839
848.427	0.0135685
848.505	0.0136071
848.583	0.0136355
848.661	0.0136362
848.739	0.0135406
848.818	0.0136657
848.896	0.0135422
848.974	0.0134550
849.052	0.0135387
849.130	0.0135145
849.208	0.0135601
849.286	0.0134064
849.364	0.0135127
849.443	0.0137865
849.521	0.0136479
849.599	0.0136248
849.677	0.0137608
849.755	0.0137225
849.833	0.0139105
849.911	0.0139074
849.989	0.0139008
850.068	0.0140179
850.146	0.0140520
850.224	0.0140565
850.302	0.0141163
850.380	0.0141710
850.458	0.0139922
850.536	0.0140044
850.614	0.0139884
850.693	0.0141264
850.771	0.0140446
850.849	0.0140099
850.927	0.0139494
851.005	0.0139388
851.083	0.0139113
851.161	0.0138899
851.239	0.0139709
851.318	0.0137351
851.396	0.0137724
851.474	0.0138622
851.552	0.0138905
851.630	0.0137634
851.708	0.0136165
851.786	0.0137875
851.864	0.0136609
851.943	0.0137187
852.021	0.0135957
852.099	0.0136474
852.177	0.0137045
852.255	0.0134562
852.333	0.0135998
852.411	0.0135867
852.489	0.0136004
852.568	0.0136297
852.646	0.0135949
852.724	0.0135136
852.802	0.0135238
852.880	0.0134505
852.958	0.0134254
853.036	0.0135130
853.114	0.0134073
853.193	0.0135218
853.271	0.0135339
853.349	0.0134128
853.427	0.0134880
853.505	0.0135036
853.583	0.0136301
853.661	0.0135461
853.739	0.0136853
853.818	0.0137234
853.896	0.0136633
853.974	0.0135984
854.052	0.0135659
854.130	0.0137389
854.208	0.0136926
854.286	0.0138055
854.364	0.0137548
854.443	0.0135461
854.521	0.0136951
854.599	0.0137647
854.677	0.0136961
854.755	0.0135067
854.833	0.0135744
854.911	0.0135638
854.989	0.0137007
855.068	0.0137508
855.146	0.0137420
855.224	0.0137030
855.302	0.0137949
855.380	0.0136482
855.458	0.0136729
855.536	0.0136349
855.614	0.0138252
855.693	0.0137493
855.771	0.0138601
855.849	0.0136515
855.927	0.0137952
856.005	0.0137788
856.083	0.0138560
856.161	0.0137850
856.239	0.0138673
856.318	0.0137699
856.396	0.0138139
856.474	0.0138336
856.552	0.0138543
856.630	0.0138106
856.708	0.0140049
856.786	0.0137309
856.864	0.0137420
856.943	0.0139040
857.021	0.0137685
857.099	0.0137785
857.177	0.0137080
857.255	0.0137962
857.333	0.0138380
857.411	0.0137128
857.489	0.0138954
857.568	0.0138428
857.646	0.0137175
857.724	0.0138924
857.802	0.0137148
857.880	0.0137968
857.958	0.0137872
858.036	0.0138530
858.114	0.0137572
858.193	0.0138012
858.271	0.0137385
858.349	0.0136984
858.427	0.0137292
858.505	0.0136311
858.583	0.0137271
858.661	0.0136053
858.739	0.0135683
858.818	0.0135995
858.896	0.0136430
858.974	0.0135650
859.052	0.0136388
859.130	0.0136481
859.208	0.0135140
859.286	0.0135863
859.364	0.0134746
859.443	0.0135529
859.521	0.0135600
859.599	0.0134244
859.677	0.0135400
859.755	0.0134766
859.833	0.0134204
859.911	0.0133113
859.989	0.0134781
860.068	0.0133752
860.146	0.0133438
860.224	0.0134149
860.302	0.0134583
860.380	0.0133777
860.458	0.0135831
860.536	0.0135918
860.614	0.0135350
860.693	0.0135185
860.771	0.0134827
860.849	0.0136547
860.927	0.0137416
861.005	0.0137032
861.083	0.0136191
861.161	0.0137392
861.239	0.0136249
861.318	0.0138668
861.396	0.0137756
861.474	0.0137882
861.552	0.0138436
861.630	0.0137605
861.708	0.0138538
861.786	0.0138245
861.864	0.0138495
861.943	0.0137782
862.021	0.0138025
862.099	0.0139175
862.177	0.0137889
862.255	0.0138963
862.333	0.0138403
862.411	0.0138229
862.489	0.0137608
862.568	0.0138398
862.646	0.0138364
862.724	0.0137572
862.802	0.0137606
862.880	0.0137386
862.958	0.0138489
863.036	0.0138306
863.114	0.0138295
863.193	0.0136498
863.271	0.0138586
863.349	0.0138593
863.427	0.0137531
863.505	0.0136921
863.583	0.0138029
863.661	0.0137660
863.739	0.0138898
863.818	0.0136481
863.896	0.0136857
863.974	0.0137786
864.052	0.0136979
864.130	0.0136877
864.208	0.0137879
864.286	0.0137763
864.364	0.0138046
864.443	0.0136519
864.521	0.0134849
864.599	0.0135659
864.677	0.0138210
864.755	0.0137988
864.833	0.0136622
864.911	0.0134946
864.989	0.0136732
865.068	0.0136808
865.146	0.0136620
865.224	0.0134934
865.302	0.0134904
865.380	0.0136475
865.458	0.0136354
865.536	0.0135665
865.614	0.0135974
865.693	0.0136141
865.771	0.0135687
865.849	0.0135767
865.927	0.0135239
866.005	0.0137386
866.083	0.0136467
866.161	0.0137766
866.239	0.0137327
866.318	0.0137835
866.396	0.0137241
866.474	0.0137765
866.552	0.0138032
866.630	0.0138161
866.708	0.0137896
866.786	0.0138149
866.864	0.0138015
866.943	0.0137359
867.021	0.0136674
867.099	0.0137449
867.177	0.0139635
867.255	0.0137828
867.333	0.0137038
867.411	0.0137292
867.489	0.0138381
867.568	0.0139017
867.646	0.0139307
867.724	0.0137749
867.802	0.0138663
867.880	0.0139182
867.958	0.0140547
868.036	0.0140334
868.114	0.0139188
868.193	0.0139679
868.271	0.0139229
868.349	0.0139491
868.427	0.0140469
868.505	0.0139344
868.583	0.0140420
868.661	0.0141174
868.739	0.0140173
868.818	0.0141706
868.896	0.0140613
868.974	0.0140095
869.052	0.0140232
869.130	0.0141356
869.208	0.0139651
869.286	0.0137827
869.364	0.0140214
869.443	0.0139491
869.521	0.0140323
869.599	0.0139222
869.677	0.0140047
869.755	0.0140900
869.833	0.0138435
869.911	0.0137296
869.989	0.0137663
870.068	0.0138329
870.146	0.0138505
870.224	0.0138246
870.302	0.0138488
870.380	0.0137298
870.458	0.0136497
870.536	0.0138297
870.614	0.0139532
870.693	0.0138286
870.771	0.0139542
870.849	0.0139076
870.927	0.0139339
871.005	0.0139306
871.083	0.0138966
871.161	0.0139880
871.239	0.0138315
871.318	0.0138125
871.396	0.0137852
871.474	0.0137424
871.552	0.0139331
871.630	0.0136255
871.708	0.0138200
871.786	0.0137917
871.864	0.0136974
871.943	0.0138033
872.021	0.0136111
872.099	0.0136801
872.177	0.0137022
872.255	0.0136613
872.333	0.0138022
872.411	0.0137773
872.489	0.0137114
872.568	0.0137430
872.646	0.0137444
872.724	0.0136980
872.802	0.0137884
872.880	0.0138306
872.958	0.0137868
873.036	0.0139253
873.114	0.0140073
873.193	0.0139813
873.271	0.0139481
873.349	0.0139963
873.427	0.0140586
873.505	0.0139590
873.583	0.0140483
873.661	0.0139596
873.739	0.0140876
873.818	0.0140106
873.896	0.0140673
873.974	0.0138971
874.052	0.0139176
874.130	0.0139595
874.208	0.0139716
874.286	0.0139968
874.364	0.0139824
874.443	0.0139555
874.521	0.0138625
874.599	0.0138937
874.677	0.0137102
874.755	0.0137196
874.833	0.0137543
874.911	0.0138293
874.989	0.0137170
875.068	0.0135713
875.146	0.0134872
875.224	0.0134847
875.302	0.0134953
875.380	0.0134405
875.458	0.0132803
875.536	0.0134693
875.614	0.0134338
875.693	0.0133115
875.771	0.0132800
875.849	0.0133576
875.927	0.0133147
876.005	0.0132849
876.083	0.0134259
876.161	0.0134708
876.239	0.0134297
876.318	0.0134194
876.396	0.0133396
876.474	0.0134673
876.552	0.0134895
876.630	0.0134911
876.708	0.0136099
876.786	0.0137368
876.864	0.0137871
876.943	0.0137897
877.021	0.0138461
877.099	0.0136927
877.177	0.0138762
877.255	0.0138873
877.333	0.0136845
877.411	0.0138110
877.489	0.0138291
877.568	0.0137225
877.646	0.0136470
877.724	0.0136526
877.802	0.0135944
877.880	0.0136633
877.958	0.0136073
878.036	0.0136668
878.114	0.0134668
878.193	0.0135500
878.271	0.0136331
878.349	0.0136191
878.427	0.0134738
878.505	0.0134685
878.583	0.0134901
878.661	0.0135898
878.739	0.0135381
878.818	0.0136367
878.896	0.0134784
878.974	0.0136475
879.052	0.0137642
879.130	0.0136729
879.208	0.0136990
879.286	0.0138284
879.364	0.0137187
879.443	0.0138192
879.521	0.0139476
879.599	0.0138865
879.677	0.0137929
879.755	0.0140159
879.833	0.0139577
879.911	0.0139235
879.989	0.0138927
880.068	0.0138357
880.146	0.0139707
880.224	0.0139861
880.302	0.0138676
880.380	0.0139412
880.458	0.0139219
880.536	0.0139611
880.614	0.0139114
880.693	0.0137693
880.771	0.0137949
880.849	0.0140012
880.927	0.0138314
881.005	0.0138067
881.083	0.0137590
881.161	0.0137652
881.239	0.0137931
881.318	0.0136127
881.396	0.0136183
881.474	0.0137489
881.552	0.0134895
881.630	0.0134773
881.708	0.0135957
881.786	0.0135497
881.864	0.0134945
881.943	0.0135226
882.021	0.0135508
882.099	0.0136577
882.177	0.0135788
882.255	0.0135281
882.333	0.0136245
882.411	0.0135484
882.489	0.0135956
882.568	0.0136094
882.646	0.0135730
882.724	0.0136732
882.802	0.0138060
882.880	0.0137109
882.958	0.0137048
883.036	0.0137945
883.114	0.0137424
883.193	0.0137714
883.271	0.0138677
883.349	0.0137063
883.427	0.0137995
883.505	0.0137592
883.583	0.0138853
883.661	0.0137591
883.739	0.0138026
883.818	0.0138688
883.896	0.0138423
883.974	0.0137475
884.052	0.0138400
884.130	0.0138962
884.208	0.0137379
884.286	0.0137956
884.364	0.0137064
884.443	0.0138053
884.521	0.0139465
884.599	0.0137723
884.677	0.0137395
884.755	0.0137791
884.833	0.0138380
884.911	0.0137599
884.989	0.0135283
885.068	0.0138570
885.146	0.0138625
885.224	0.0136615
885.302	0.0136282
885.380	0.0136945
885.458	0.0136848
885.536	0.0136330
885.614	0.0136269
885.693	0.0134552
885.771	0.0134740
885.849	0.0135428
885.927	0.0135753
886.005	0.0134321
886.083	0.0134019
886.161	0.0134150
886.239	0.0134499
886.318	0.0134234
886.396	0.0136258
886.474	0.0135840
886.552	0.0136494
886.630	0.0135174
886.708	0.0136584
886.786	0.0136029
886.864	0.0136668
886.943	0.0136412
887.021	0.0137177
887.099	0.0137325
887.177	0.0136906
887.255	0.0138983
887.333	0.0137298
887.411	0.0136148
887.489	0.0137544
887.568	0.0138176
887.646	0.0137750
887.724	0.0138856
887.802	0.0139299
887.880	0.0140230
887.958	0.0139351
888.036	0.0139309
888.114	0.0138911
888.193	0.0139336
888.271	0.0139426
888.349	0.0139342
888.427	0.0137671
888.505	0.0137896
888.583	0.0138918
888.661	0.0138648
888.739	0.0138652
888.818	0.0139148
888.896	0.0138197
888.974	0.0138675
889.052	0.0140430
889.130	0.0139195
889.208	0.0139104
889.286	0.0138418
889.364	0.0138609
889.443	0.0138046
889.521	0.0138573
889.599	0.0137675
889.677	0.0136331
889.755	0.0138115
889.833	0.0139032
889.911	0.0137101
889.989	0.0137230
890.068	0.0136782
890.146	0.0136716
890.224	0.0136729
890.302	0.0135658
890.380	0.0136031
890.458	0.0135513
890.536	0.0134917
890.614	0.0134316
890.693	0.0134906
890.771	0.0133736
890.849	0.0134459
890.927	0.0133963
891.005	0.0133807
891.083	0.0134749
891.161	0.0134656
891.239	0.0135587
891.318	0.0134518
891.396	0.0135404
891.474	0.0135939
891.552	0.0136894
891.630	0.0136849
891.708	0.0137622
891.786	0.0138568
891.864	0.0139769
891.943	0.0140051
892.021	0.0140745
892.099	0.0141644
892.177	0.0142500
892.255	0.0141781
892.333	0.0141856
892.411	0.0143616
892.489	0.0142360
892.568	0.0142204
892.646	0.0141681
892.724	0.0142663
892.802	0.0142284
892.880	0.0141387
892.958	0.0140813
893.036	0.0140646
893.114	0.0139934
893.193	0.0140002
893.271	0.0138632
893.349	0.0138744
893.427	0.0138014
893.505	0.0138519
893.583	0.0136259
893.661	0.0135254
893.739	0.0136970
893.818	0.0137131
893.896	0.0136501
893.974	0.0135194
894.052	0.0134216
894.130	0.0134445
894.208	0.0135703
894.286	0.0134425
894.364	0.0134517
894.443	0.0134270
894.521	0.0134701
894.599	0.0133981
894.677	0.0135280
894.755	0.0135613
894.833	0.0135654
894.911	0.0134904
894.989	0.0136253
895.068	0.0136710
895.146	0.0136076
895.224	0.0138013
895.302	0.0138307
895.380	0.0139441
895.458	0.0137933
895.536	0.0138550
895.614	0.0138171
895.693	0.0138156
895.771	0.0140231
895.849	0.0139891
895.927	0.0141292
896.005	0.0140436
896.083	0.0138451
896.161	0.0141113
896.239	0.0140675
896.318	0.0138705
896.396	0.0139074
896.474	0.0139310
896.552	0.0138137
896.630	0.0137711
896.708	0.0139391
896.786	0.0138712
896.864	0.0137215
896.943	0.0137347
897.021	0.0135946
897.099	0.0137450
897.177	0.0135865
897.255	0.0135806
897.333	0.0137451
897.411	0.0134983
897.489	0.0134286
897.568	0.0134748
897.646	0.0133263
897.724	0.0133727
897.802	0.0134877
897.880	0.0132989
897.958	0.0133753
898.036	0.0134285
898.114	0.0132990
898.193	0.0132757
898.271	0.0132671
898.349	0.0134505
898.427	0.0133502
898.505	0.0136061
898.583	0.0136014
898.661	0.0136747
898.739	0.0136137
898.818	0.0137082
898.896	0.0137576
898.974	0.0139133
899.052	0.0139256
899.130	0.0139103
899.208	0.0139883
899.286	0.0139730
899.364	0.0139726
899.443	0.0140499
899.521	0.0140621
899.599	0.0141911
899.677	0.0141200
899.755	0.0141657
899.833	0.0139886
899.911	0.0139784
899.989	0.0140975
900.068	0.0139944
900.146	0.0138339
900.224	0.0138521
900.302	0.0140365
900.380	0.0138549
900.458	0.0138540
900.536	0.0138686
900.614	0.0137824
900.693	0.0137183
900.771	0.0138629
900.849	0.0137179
900.927	0.0136653
901.005	0.0137575
901.083	0.0137025
901.161	0.0136011
901.239	0.0136574
901.318	0.0136600
901.396	0.0137330
901.474	0.0135471
901.552	0.0135874
901.630	0.0135344
901.708	0.0135532
901.786	0.0136610
901.864	0.0135113
901.943	0.0136404
902.021	0.0135845
902.099	0.0135148
902.177	0.0136719
902.255	0.0135970
902.333	0.0135691
902.411	0.0136375
902.489	0.0137766
902.568	0.0137901
902.646	0.0136999
902.724	0.0136763
902.802	0.0137237
902.880	0.0138577
902.958	0.0137888
903.036	0.0139586
903.114	0.0139567
903.193	0.0138231
903.271	0.0139924
903.349	0.0141651
903.427	0.0140922
903.505	0.0141825
903.583	0.0141521
903.661	0.0141047
903.739	0.0141267
903.818	0.0142369
903.896	0.0143282
903.974	0.0142673
904.052	0.0141951
904.130	0.0141322
904.208	0.0140340
904.286	0.0140198
904.364	0.0141052
904.443	0.0141399
904.521	0.0139596
904.599	0.0139765
904.677	0.0140586
904.755	0.0140013
904.833	0.0137550
904.911	0.0139489
904.989	0.0139933
905.068	0.0136097
905.146	0.0136285
905.224	0.0137469
905.302	0.0137135
905.380	0.0136731
905.458	0.0136429
905.536	0.0137073
905.614	0.0135767
905.693	0.0135689
905.771	0.0136485
905.849	0.0134708
905.927	0.0134604
906.005	0.0135304
906.083	0.0137440
906.161	0.0136840
906.239	0.0136668
906.318	0.0137296
906.396	0.0137402
906.474	0.0138534
906.552	0.0137191
906.630	0.0138633
906.708	0.0137904
906.786	0.0138704
906.864	0.0138580
906.943	0.0137994
907.021	0.0138062
907.099	0.0136887
907.177	0.0138625
907.255	0.0138914
907.333	0.0137244
907.411	0.0136574
907.489	0.0137397
907.568	0.0137090
907.646	0.0136445
907.724	0.0135959
907.802	0.0136387
907.880	0.0135839
907.958	0.0135732
908.036	0.0135020
908.114	0.0136979
908.193	0.0136218
908.271	0.0133652
908.349	0.0135445
908.427	0.0136195
908.505	0.0135871
908.583	0.0134788
908.661	0.0136733
908.739	0.0136599
908.818	0.0134627
908.896	0.0136539
908.974	0.0137744
909.052	0.0136806
909.130	0.0138489
909.208	0.0138931
909.286	0.0137661
909.364	0.0137419
909.443	0.0137862
909.521	0.0138987
909.599	0.0138954
909.677	0.0137823
909.755	0.0138292
909.833	0.0138892
909.911	0.0138313
909.989	0.0139668
910.068	0.0139416
910.146	0.0138291
910.224	0.0139005
910.302	0.0139588
910.380	0.0139613
910.458	0.0140182
910.536	0.0139441
910.614	0.0138821
910.693	0.0138636
910.771	0.0139288
910.849	0.0139519
910.927	0.0138691
911.005	0.0138396
911.083	0.0137071
911.161	0.0137100
911.239	0.0137064
911.318	0.0137779
911.396	0.0137605
911.474	0.0138389
911.552	0.0137350
911.630	0.0136414
911.708	0.0136343
911.786	0.0136067
911.864	0.0136839
911.943	0.0135612
912.021	0.0135364
912.099	0.0136013
912.177	0.0136813
912.255	0.0137019
912.333	0.0134935
912.411	0.0135294
912.489	0.0136098
912.568	0.0136743
912.646	0.0135459
912.724	0.0136530
912.802	0.0137180
912.880	0.0136535
912.958	0.0135627
913.036	0.0137779
913.114	0.0136356
913.193	0.0137624
913.271	0.0136721
913.349	0.0136510
913.427	0.0136784
913.505	0.0136102
913.583	0.0137130
913.661	0.0135712
913.739	0.0135677
913.818	0.0136578
913.896	0.0137441
913.974	0.0137224
914.052	0.0135469
914.130	0.0135065
914.208	0.0134937
914.286	0.0135017
914.364	0.0135548
914.443	0.0135981
914.521	0.0136488
914.599	0.0136515
914.677	0.0134637
914.755	0.0136710
914.833	0.0136403
914.911	0.0136651
914.989	0.0137784
915.068	0.0137457
915.146	0.0137078
915.224	0.0136914
915.302	0.0137210
915.380	0.0136417
915.458	0.0137122
915.536	0.0137923
915.614	0.0136321
915.693	0.0135036
915.771	0.0135791
915.849	0.0136275
915.927	0.0135781
916.005	0.0136299
916.083	0.0136260
916.161	0.0135829
916.239	0.0135950
916.318	0.0136664
916.396	0.0136896
916.474	0.0136474
916.552	0.0136327
916.630	0.0136803
916.708	0.0135992
916.786	0.0136016
916.864	0.0138113
916.943	0.0136531
917.021	0.0136989
917.099	0.0137965
917.177	0.0137990
917.255	0.0136964
917.333	0.0136760
917.411	0.0137161
917.489	0.0137830
917.568	0.0138159
917.646	0.0138011
917.724	0.0138508
917.802	0.0136912
917.880	0.0137117
917.958	0.0138851
918.036	0.0137275
918.114	0.0138338
918.193	0.0137374
918.271	0.0137455
918.349	0.0137318
918.427	0.0136734
918.505	0.0137719
918.583	0.0136666
918.661	0.0136450
918.739	0.0137193
918.818	0.0137521
918.896	0.0136215
918.974	0.0136763
919.052	0.0137825
919.130	0.0137203
919.208	0.0136105
919.286	0.0135577
919.364	0.0137477
919.443	0.0137268
919.521	0.0136049
919.599	0.0137115
919.677	0.0136858
919.755	0.0134717
919.833	0.0136902
919.911	0.0137389
919.989	0.0138132
920.068	0.0137196
920.146	0.0137220
920.224	0.0137697
920.302	0.0138457
920.380	0.0137006
920.458	0.0138086
920.536	0.0139066
920.614	0.0138011
920.693	0.0138330
920.771	0.0138259
920.849	0.0138770
920.927	0.0137585
921.005	0.0138591
921.083	0.0137762
921.161	0.0136848
921.239	0.0136909
921.318	0.0136838
921.396	0.0139490
921.474	0.0137549
921.552	0.0136887
921.630	0.0135740
921.708	0.0135484
921.786	0.0137824
921.864	0.0138160
921.943	0.0136157
922.021	0.0135717
922.099	0.0138282
922.177	0.0138734
922.255	0.0138556
922.333	0.0136969
922.411	0.0139212
922.489	0.0138828
922.568	0.0136309
922.646	0.0136333
922.724	0.0138290
922.802	0.0137457
922.880	0.0138455
922.958	0.0137952
923.036	0.0137911
923.114	0.0138769
923.193	0.0137533
923.271	0.0138708
923.349	0.0137587
923.427	0.0136861
923.505	0.0137097
923.583	0.0136973
923.661	0.0137368
923.739	0.0138301
923.818	0.0137782
923.896	0.0138508
923.974	0.0138194
924.052	0.0138396
924.130	0.0137075
924.208	0.0138940
924.286	0.0137479
924.364	0.0138448
924.443	0.0138685
924.521	0.0139130
924.599	0.0138058
924.677	0.0139278
924.755	0.0137814
924.833	0.0138625
924.911	0.0138421
924.989	0.0136987
925.068	0.0137789
925.146	0.0139024
925.224	0.0138633
925.302	0.0137419
925.380	0.0136956
925.458	0.0137517
925.536	0.0136871
925.614	0.0136647
925.693	0.0136247
925.771	0.0135670
925.849	0.0136927
925.927	0.0136699
926.005	0.0135889
926.083	0.0136781
926.161	0.0135583
926.239	0.0136948
926.318	0.0135391
926.396	0.0135056
926.474	0.0136161
926.552	0.0137499
926.630	0.0134584
926.708	0.0135322
926.786	0.0137360
926.864	0.0138200
926.943	0.0137625
927.021	0.0138078
927.099	0.0138015
927.177	0.0138449
927.255	0.0138852
927.333	0.0138999
927.411	0.0139515
927.489	0.0139550
927.568	0.0141148
927.646	0.0139152
927.724	0.0140141
927.802	0.0139773
927.880	0.0139591
927.958	0.0140388
928.036	0.0140450
928.114	0.0141146
928.193	0.0140254
928.271	0.0140750
928.349	0.0138550
928.427	0.0139554
928.505	0.0141707
928.583	0.0141113
928.661	0.0140070
928.739	0.0140211
928.818	0.0140798
928.896	0.0138822
928.974	0.0139534
929.052	0.0140980
929.130	0.0140863
929.208	0.0138192
929.286	0.0137399
929.364	0.0137484
929.443	0.0139172
929.521	0.0138394
929.599	0.0138671
929.677	0.0136973
929.755	0.0136569
929.833	0.0137919
929.911	0.0137484
929.989	0.0135986
930.068	0.0136284
930.146	0.0135909
930.224	0.0135335
930.302	0.0135429
930.380	0.0134517
930.458	0.0135489
930.536	0.0135278
930.614	0.0134111
930.693	0.0134860
930.771	0.0134986
930.849	0.0133417
930.927	0.0134820
931.005	0.0135038
931.083	0.0134018
931.161	0.0134370
931.239	0.0133433
931.318	0.0133603
931.396	0.0133578
931.474	0.0133714
931.552	0.0133656
931.630	0.0134061
931.708	0.0134418
931.786	0.0134143
931.864	0.0135544
931.943	0.0136010
932.021	0.0135590
932.099	0.0137032
932.177	0.0138466
932.255	0.0137525
932.333	0.0136890
932.411	0.0138372
932.489	0.0138323
932.568	0.0138271
932.646	0.0139752
932.724	0.0139274
932.802	0.0140270
932.880	0.0140403
932.958	0.0141427
933.036	0.0140539
933.114	0.0140342
933.193	0.0140276
933.271	0.0138768
933.349	0.0137469
933.427	0.0139066
933.505	0.0138537
933.583	0.0137888
933.661	0.0138438
933.739	0.0138493
933.818	0.0138354
933.896	0.0136716
933.974	0.0137761
934.052	0.0136984
934.130	0.0137737
934.208	0.0137104
934.286	0.0135955
934.364	0.0136784
934.443	0.0138150
934.521	0.0138121
934.599	0.0137523
934.677	0.0138935
934.755	0.0137820
934.833	0.0138484
934.911	0.0138674
934.989	0.0138634
935.068	0.0138957
935.146	0.0138940
935.224	0.0139636
935.302	0.0139194
935.380	0.0137027
935.458	0.0139611
935.536	0.0139182
935.614	0.0137691
935.693	0.0137560
935.771	0.0136600
935.849	0.0137157
935.927	0.0138067
936.005	0.0138133
936.083	0.0137201
936.161	0.0137770
936.239	0.0137194
936.318	0.0137755
936.396	0.0139996
936.474	0.0138364
936.552	0.0137276
936.630	0.0138513
936.708	0.0137279
936.786	0.0136105
936.864	0.0138406
936.943	0.0139044
937.021	0.0137283
937.099	0.0137561
937.177	0.0135747
937.255	0.0136518
937.333	0.0136428
937.411	0.0136582
937.489	0.0137067
937.568	0.0134625
937.646	0.0135500
937.724	0.0135255
937.802	0.0134276
937.880	0.0135082
937.958	0.0133699
938.036	0.0135675
938.114	0.0134554
938.193	0.0135084
938.271	0.0133024
938.349	0.0134840
938.427	0.0135101
938.505	0.0135321
938.583	0.0133930
938.661	0.0135551
938.739	0.0136164
938.818	0.0136523
938.896	0.0136884
938.974	0.0137112
939.052	0.0136330
939.130	0.0136581
939.208	0.0135996
939.286	0.0134792
939.364	0.0136272
939.443	0.0135906
939.521	0.0136429
939.599	0.0134763
939.677	0.0135749
939.755	0.0135667
939.833	0.0136148
939.911	0.0137549
939.989	0.0136790
940.068	0.0135207
940.146	0.0136858
940.224	0.0137211
940.302	0.0136956
940.380	0.0136953
940.458	0.0137859
940.536	0.0137835
940.614	0.0137360
940.693	0.0136262
940.771	0.0137116
940.849	0.0137608
940.927	0.0136398
941.005	0.0136266
941.083	0.0137350
941.161	0.0135740
941.239	0.0136253
941.318	0.0135818
941.396	0.0135503
941.474	0.0135656
941.552	0.0135985
941.630	0.0137094
941.708	0.0136374
941.786	0.0134392
941.864	0.0133900
941.943	0.0135226
942.021	0.0136111
942.099	0.0135095
942.177	0.0135670
942.255	0.0136121
942.333	0.0136687
942.411	0.0136198
942.489	0.0137283
942.568	0.0136420
942.646	0.0135477
942.724	0.0136121
942.802	0.0136327
942.880	0.0136756
942.958	0.0136485
943.036	0.0137432
943.114	0.0136275
943.193	0.0134798
943.271	0.0134727
943.349	0.0135973
943.427	0.0136172
943.505	0.0134328
943.583	0.0134969
943.661	0.0134241
943.739	0.0135538
943.818	0.0136359
943.896	0.0135814
943.974	0.0135448
944.052	0.0135973
944.130	0.0135663
944.208	0.0137605
944.286	0.0137024
944.364	0.0135272
944.443	0.0136723
944.521	0.0137179
944.599	0.0137569
944.677	0.0136644
944.755	0.0138067
944.833	0.0137724
944.911	0.0137443
944.989	0.0136991
945.068	0.0137292
945.146	0.0136590
945.224	0.0136361
945.302	0.0136687
945.380	0.0136288
945.458	0.0136548
945.536	0.0136514
945.614	0.0137010
945.693	0.0137685
945.771	0.0137360
945.849	0.0136384
945.927	0.0137086
946.005	0.0136903
946.083	0.0136940
946.161	0.0136463
946.239	0.0135844
946.318	0.0138398
946.396	0.0138134
946.474	0.0138351
946.552	0.0139194
946.630	0.0137242
946.708	0.0138380
946.786	0.0137132
946.864	0.0138210
946.943	0.0138037
947.021	0.0138789
947.099	0.0139234
947.177	0.0140550
947.255	0.0139073
947.333	0.0140038
947.411	0.0140373
947.489	0.0139272
947.568	0.0140585
947.646	0.0138682
947.724	0.0140255
947.802	0.0139503
947.880	0.0139107
947.958	0.0139742
948.036	0.0139288
948.114	0.0138331
948.193	0.0138632
948.271	0.0139168
948.349	0.0139616
948.427	0.0139806
948.505	0.0137409
948.583	0.0137267
948.661	0.0137930
948.739	0.0137001
948.818	0.0136567
948.896	0.0136526
948.974	0.0136541
949.052	0.0136713
949.130	0.0137001
949.208	0.0136179
949.286	0.0135388
949.364	0.0135199
949.443	0.0135471
949.521	0.0137551
949.599	0.0135182
949.677	0.0135801
949.755	0.0136907
949.833	0.0135825
949.911	0.0135954
949.989	0.0135101
950.068	0.0136238
950.146	0.0136742
950.224	0.0136274
950.302	0.0138152
950.380	0.0136953
950.458	0.0137566
950.536	0.0138313
950.614	0.0138884
950.693	0.0137897
950.771	0.0138812
950.849	0.0138313
950.927	0.0137797
951.005	0.0139063
951.083	0.0138754
951.161	0.0141391
951.239	0.0139173
951.318	0.0139253
951.396	0.0138531
951.474	0.0140230
951.552	0.0139166
951.630	0.0139939
951.708	0.0139594
951.786	0.0139224
951.864	0.0139892
951.943	0.0140406
952.021	0.0140012
952.099	0.0139864
952.177	0.0139528
952.255	0.0141595
952.333	0.0140135
952.411	0.0138936
952.489	0.0139104
952.568	0.0139291
952.646	0.0138226
952.724	0.0139283
952.802	0.0138263
952.880	0.0138840
952.958	0.0138700
953.036	0.0138681
953.114	0.0138577
953.193	0.0140002
953.271	0.0139676
953.349	0.0139365
953.427	0.0139202
953.505	0.0139530
953.583	0.0138479
953.661	0.0141081
953.739	0.0139145
953.818	0.0139201
953.896	0.0137651
953.974	0.0136272
954.052	0.0137596
954.130	0.0137469
954.208	0.0137843
954.286	0.0138190
954.364	0.0136950
954.443	0.0137263
954.521	0.0137090
954.599	0.0137734
954.677	0.0135833
954.755	0.0136070
954.833	0.0136104
954.911	0.0136729
954.989	0.0136463
955.068	0.0137537
955.146	0.0135772
955.224	0.0136879
955.302	0.0136509
955.380	0.0135632
955.458	0.0136759
955.536	0.0134967
955.614	0.0136124
955.693	0.0137387
955.771	0.0137510
955.849	0.0137920
955.927	0.0137363
956.005	0.0137085
956.083	0.0136987
956.161	0.0138063
956.239	0.0137036
956.318	0.0137421
956.396	0.0137463
956.474	0.0137871
956.552	0.0136198
956.630	0.0137909
956.708	0.0137309
956.786	0.0136877
956.864	0.0137222
956.943	0.0137005
957.021	0.0136716
957.099	0.0138021
957.177	0.0138316
957.255	0.0138667
957.333	0.0138878
957.411	0.0137173
957.489	0.0137136
957.568	0.0138787
957.646	0.0136893
957.724	0.0136211
957.802	0.0137370
957.880	0.0138502
957.958	0.0137307
958.036	0.0136672
958.114	0.0138053
958.193	0.0136937
958.271	0.0138189
958.349	0.0138260
958.427	0.0138943
958.505	0.0139166
958.583	0.0136410
958.661	0.0138743
958.739	0.0137207
958.818	0.0136530
958.896	0.0136699
958.974	0.0136456
959.052	0.0137717
959.130	0.0137611
959.208	0.0136713
959.286	0.0136790
959.364	0.0139065
959.443	0.0137064
959.521	0.0138091
959.599	0.0137031
959.677	0.0137501
959.755	0.0138638
959.833	0.0138705
959.911	0.0137722
