05/14/2022	16:37:32	Ver.	4.1	UNKNOWN
Optical Delay	639.989416	Delta X		0.078125	Sweeps	1	Scan Rate	0/0
Coordinates	Axis 1	NaN	Axis 2	NaN	Axis 3	NaN	Axis 4	NaN	Axis 5	NaN	Axis 6	0.000000
TX Power	0.000000	RX Power	0.000000

639.989	0.0136863
640.068	0.0136804
640.146	0.0136816
640.224	0.0136473
640.302	0.0136758
640.380	0.0135871
640.458	0.0137489
640.536	0.0135917
640.614	0.0137274
640.693	0.0137315
640.771	0.0136105
640.849	0.0136637
640.927	0.0136309
641.005	0.0136153
641.083	0.0137910
641.161	0.0137670
641.239	0.0137060
641.318	0.0135863
641.396	0.0137353
641.474	0.0138564
641.552	0.0139577
641.630	0.0136407
641.708	0.0137631
641.786	0.0138184
641.864	0.0138575
641.943	0.0138210
642.021	0.0137573
642.099	0.0139274
642.177	0.0137891
642.255	0.0137394
642.333	0.0137706
642.411	0.0139029
642.489	0.0138876
642.568	0.0137443
642.646	0.0137918
642.724	0.0138293
642.802	0.0137902
642.880	0.0137057
642.958	0.0138153
643.036	0.0137132
643.114	0.0137107
643.193	0.0138198
643.271	0.0137612
643.349	0.0136737
643.427	0.0137231
643.505	0.0138951
643.583	0.0137612
643.661	0.0136279
643.739	0.0138532
643.818	0.0138443
643.896	0.0138265
643.974	0.0138526
644.052	0.0138194
644.130	0.0136752
644.208	0.0136629
644.286	0.0138151
644.364	0.0138101
644.443	0.0138219
644.521	0.0136298
644.599	0.0139023
644.677	0.0138341
644.755	0.0137521
644.833	0.0138277
644.911	0.0137923
644.989	0.0137360
645.068	0.0137205
645.146	0.0137386
645.224	0.0138538
645.302	0.0137411
645.380	0.0136678
645.458	0.0137962
645.536	0.0137215
645.614	0.0139113
645.693	0.0137463
645.771	0.0137265
645.849	0.0137548
645.927	0.0138476
646.005	0.0137546
646.083	0.0137761
646.161	0.0139125
646.239	0.0138400
646.318	0.0137857
646.396	0.0136750
646.474	0.0137462
646.552	0.0137208
646.630	0.0136549
646.708	0.0138268
646.786	0.0138770
646.864	0.0138751
646.943	0.0136629
647.021	0.0137098
647.099	0.0137049
647.177	0.0138966
647.255	0.0137349
647.333	0.0137617
647.411	0.0138187
647.489	0.0136914
647.568	0.0137330
647.646	0.0137208
647.724	0.0137956
647.802	0.0136951
647.880	0.0137807
647.958	0.0136637
648.036	0.0137779
648.114	0.0136752
648.193	0.0136508
648.271	0.0137263
648.349	0.0138186
648.427	0.0136737
648.505	0.0136522
648.583	0.0137400
648.661	0.0135916
648.739	0.0138371
648.818	0.0136362
648.896	0.0136845
648.974	0.0137611
649.052	0.0137829
649.130	0.0135882
649.208	0.0137785
649.286	0.0137833
649.364	0.0137449
649.443	0.0137830
649.521	0.0137817
649.599	0.0136950
649.677	0.0138054
649.755	0.0136794
649.833	0.0137690
649.911	0.0137293
649.989	0.0136444
650.068	0.0136982
650.146	0.0137408
650.224	0.0135989
650.302	0.0135869
650.380	0.0138139
650.458	0.0138326
650.536	0.0138396
650.614	0.0137566
650.693	0.0137775
650.771	0.0136809
650.849	0.0137493
650.927	0.0137075
651.005	0.0137805
651.083	0.0138140
651.161	0.0136411
651.239	0.0136635
651.318	0.0137301
651.396	0.0137325
651.474	0.0136906
651.552	0.0136625
651.630	0.0136453
651.708	0.0136974
651.786	0.0137695
651.864	0.0137550
651.943	0.0136846
652.021	0.0137908
652.099	0.0135449
652.177	0.0137210
652.255	0.0138152
652.333	0.0135983
652.411	0.0137428
652.489	0.0138522
652.568	0.0137357
652.646	0.0136115
652.724	0.0136722
652.802	0.0138451
652.880	0.0138581
652.958	0.0136498
653.036	0.0136683
653.114	0.0137018
653.193	0.0137689
653.271	0.0137325
653.349	0.0137501
653.427	0.0137436
653.505	0.0137189
653.583	0.0136227
653.661	0.0136578
653.739	0.0137035
653.818	0.0137631
653.896	0.0137904
653.974	0.0136933
654.052	0.0137277
654.130	0.0137417
654.208	0.0139188
654.286	0.0136247
654.364	0.0136987
654.443	0.0138360
654.521	0.0137685
654.599	0.0135770
654.677	0.0136423
654.755	0.0138152
654.833	0.0137970
654.911	0.0137508
654.989	0.0137284
655.068	0.0136362
655.146	0.0137373
655.224	0.0137580
655.302	0.0137114
655.380	0.0138849
655.458	0.0137910
655.536	0.0137905
655.614	0.0138522
655.693	0.0138257
655.771	0.0137322
655.849	0.0138518
655.927	0.0137228
656.005	0.0137008
656.083	0.0137766
656.161	0.0137446
656.239	0.0138356
656.318	0.0138000
656.396	0.0138715
656.474	0.0137883
656.552	0.0136117
656.630	0.0136951
656.708	0.0138493
656.786	0.0136450
656.864	0.0137621
656.943	0.0137734
657.021	0.0138474
657.099	0.0138046
657.177	0.0137627
657.255	0.0138191
657.333	0.0137606
657.411	0.0136543
657.489	0.0137967
657.568	0.0137181
657.646	0.0138322
657.724	0.0137472
657.802	0.0137440
657.880	0.0138225
657.958	0.0138420
658.036	0.0136774
658.114	0.0136282
658.193	0.0138155
658.271	0.0136943
658.349	0.0137881
658.427	0.0137221
658.505	0.0137402
658.583	0.0137612
658.661	0.0137325
658.739	0.0138233
658.818	0.0139902
658.896	0.0138365
658.974	0.0136001
659.052	0.0138273
659.130	0.0138766
659.208	0.0137744
659.286	0.0138297
659.364	0.0138367
659.443	0.0137337
659.521	0.0138407
659.599	0.0138299
659.677	0.0138093
659.755	0.0138606
659.833	0.0138310
659.911	0.0138255
659.989	0.0137679
660.068	0.0138380
660.146	0.0137437
660.224	0.0138305
660.302	0.0137629
660.380	0.0138218
660.458	0.0138586
660.536	0.0137074
660.614	0.0137201
660.693	0.0137861
660.771	0.0137173
660.849	0.0136548
660.927	0.0136530
661.005	0.0137557
661.083	0.0138020
661.161	0.0136935
661.239	0.0137721
661.318	0.0136444
661.396	0.0136698
661.474	0.0137029
661.552	0.0136612
661.630	0.0137421
661.708	0.0138786
661.786	0.0137736
661.864	0.0137020
661.943	0.0137159
662.021	0.0136278
662.099	0.0137092
662.177	0.0137611
662.255	0.0137339
662.333	0.0137427
662.411	0.0137176
662.489	0.0137945
662.568	0.0137371
662.646	0.0137261
662.724	0.0136977
662.802	0.0137598
662.880	0.0138938
662.958	0.0140017
663.036	0.0136982
663.114	0.0137123
663.193	0.0137117
663.271	0.0137395
663.349	0.0137492
663.427	0.0138442
663.505	0.0137919
663.583	0.0138385
663.661	0.0138125
663.739	0.0138116
663.818	0.0135933
663.896	0.0137415
663.974	0.0138274
664.052	0.0137593
664.130	0.0137180
664.208	0.0138862
664.286	0.0137711
664.364	0.0137113
664.443	0.0137608
664.521	0.0138305
664.599	0.0137309
664.677	0.0138151
664.755	0.0136992
664.833	0.0136813
664.911	0.0137142
664.989	0.0137066
665.068	0.0137605
665.146	0.0136333
665.224	0.0138676
665.302	0.0137763
665.380	0.0136126
665.458	0.0136861
665.536	0.0138545
665.614	0.0137297
665.693	0.0137605
665.771	0.0138724
665.849	0.0137466
665.927	0.0137696
666.005	0.0137365
666.083	0.0138330
666.161	0.0137868
666.239	0.0136667
666.318	0.0139018
666.396	0.0138583
666.474	0.0137789
666.552	0.0137292
666.630	0.0138080
666.708	0.0137873
666.786	0.0137329
666.864	0.0139702
666.943	0.0138099
667.021	0.0137244
667.099	0.0137106
667.177	0.0137888
667.255	0.0138137
667.333	0.0137875
667.411	0.0137695
667.489	0.0139077
667.568	0.0139144
667.646	0.0137326
667.724	0.0137528
667.802	0.0138256
667.880	0.0138554
667.958	0.0137799
668.036	0.0137113
668.114	0.0137575
668.193	0.0138172
668.271	0.0137186
668.349	0.0136438
668.427	0.0137582
668.505	0.0137427
668.583	0.0139166
668.661	0.0138055
668.739	0.0139359
668.818	0.0138494
668.896	0.0137001
668.974	0.0136930
669.052	0.0137429
669.130	0.0138490
669.208	0.0138672
669.286	0.0136684
669.364	0.0135947
669.443	0.0136189
669.521	0.0136469
669.599	0.0136973
669.677	0.0138242
669.755	0.0136749
669.833	0.0134469
669.911	0.0138238
669.989	0.0138259
670.068	0.0136883
670.146	0.0137473
670.224	0.0136773
670.302	0.0136214
670.380	0.0136640
670.458	0.0136261
670.536	0.0137169
670.614	0.0136330
670.693	0.0136243
670.771	0.0137585
670.849	0.0137309
670.927	0.0136691
671.005	0.0136712
671.083	0.0136127
671.161	0.0137962
671.239	0.0135133
671.318	0.0135997
671.396	0.0136913
671.474	0.0137563
671.552	0.0136638
671.630	0.0137046
671.708	0.0136555
671.786	0.0136796
671.864	0.0136961
671.943	0.0137298
672.021	0.0136552
672.099	0.0137705
672.177	0.0136902
672.255	0.0135794
672.333	0.0135457
672.411	0.0136783
672.489	0.0136467
672.568	0.0138451
672.646	0.0136736
672.724	0.0135425
672.802	0.0136855
672.880	0.0136873
672.958	0.0136063
673.036	0.0136621
673.114	0.0136559
673.193	0.0137022
673.271	0.0137319
673.349	0.0137067
673.427	0.0137437
673.505	0.0138274
673.583	0.0136636
673.661	0.0137642
673.739	0.0138937
673.818	0.0137115
673.896	0.0137428
673.974	0.0138422
674.052	0.0138162
674.130	0.0137968
674.208	0.0138548
674.286	0.0137025
674.364	0.0138387
674.443	0.0137083
674.521	0.0138065
674.599	0.0137151
674.677	0.0137240
674.755	0.0136111
674.833	0.0135492
674.911	0.0136688
674.989	0.0135207
675.068	0.0134389
675.146	0.0134277
675.224	0.0134553
675.302	0.0132259
675.380	0.0134537
675.458	0.0136154
675.536	0.0133067
675.614	0.0135661
675.693	0.0135249
675.771	0.0136632
675.849	0.0137673
675.927	0.0139716
676.005	0.0139690
676.083	0.0139922
676.161	0.0140787
676.239	0.0142762
676.318	0.0142554
676.396	0.0142289
676.474	0.0143254
676.552	0.0144686
676.630	0.0142712
676.708	0.0142665
676.786	0.0142525
676.864	0.0143259
676.943	0.0141368
677.021	0.0140900
677.099	0.0140726
677.177	0.0138702
677.255	0.0137694
677.333	0.0135921
677.411	0.0134795
677.489	0.0133553
677.568	0.0130256
677.646	0.0129234
677.724	0.0128130
677.802	0.0127406
677.880	0.0126005
677.958	0.0126596
678.036	0.0125663
678.114	0.0126852
678.193	0.0128236
678.271	0.0128030
678.349	0.0130013
678.427	0.0131591
678.505	0.0133347
678.583	0.0134704
678.661	0.0137743
678.739	0.0138603
678.818	0.0142603
678.896	0.0144424
678.974	0.0146835
679.052	0.0149659
679.130	0.0151260
679.208	0.0152354
679.286	0.0153126
679.364	0.0155409
679.443	0.0154846
679.521	0.0156177
679.599	0.0155653
679.677	0.0154368
679.755	0.0154147
679.833	0.0151159
679.911	0.0148220
679.989	0.0145254
680.068	0.0145228
680.146	0.0142249
680.224	0.0138065
680.302	0.0132729
680.380	0.0130607
680.458	0.0128067
680.536	0.0124047
680.614	0.0120990
680.693	0.0117677
680.771	0.0115308
680.849	0.0114656
680.927	0.0112748
681.005	0.0111771
681.083	0.0112101
681.161	0.0113163
681.239	0.0113195
681.318	0.0114629
681.396	0.0116607
681.474	0.0119451
681.552	0.0123689
681.630	0.0126957
681.708	0.0131800
681.786	0.0137849
681.864	0.0141611
681.943	0.0146562
682.021	0.0151813
682.099	0.0155401
682.177	0.0159879
682.255	0.0164423
682.333	0.0166772
682.411	0.0172148
682.489	0.0172668
682.568	0.0174522
682.646	0.0174956
682.724	0.0175823
682.802	0.0173701
682.880	0.0172466
682.958	0.0169709
683.036	0.0164629
683.114	0.0161189
683.193	0.0156067
683.271	0.0149354
683.349	0.0145245
683.427	0.0137035
683.505	0.0131139
683.583	0.0125945
683.661	0.0118162
683.739	0.0113526
683.818	0.0108601
683.896	0.0103422
683.974	0.00980980
684.052	0.00958099
684.130	0.00927574
684.208	0.00922287
684.286	0.00910370
684.364	0.00932762
684.443	0.00949493
684.521	0.00991684
684.599	0.0102701
684.677	0.0107123
684.755	0.0113595
684.833	0.0119638
684.911	0.0126836
684.989	0.0133858
685.068	0.0140884
685.146	0.0147833
685.224	0.0153784
685.302	0.0159357
685.380	0.0165040
685.458	0.0169647
685.536	0.0173841
685.614	0.0177206
685.693	0.0177834
685.771	0.0179193
685.849	0.0179736
685.927	0.0177837
686.005	0.0175717
686.083	0.0174267
686.161	0.0171008
686.239	0.0168277
686.318	0.0163958
686.396	0.0159479
686.474	0.0155878
686.552	0.0149589
686.630	0.0143210
686.708	0.0139793
686.786	0.0135773
686.864	0.0130533
686.943	0.0127393
687.021	0.0122635
687.099	0.0118826
687.177	0.0114395
687.255	0.0113351
687.333	0.0110130
687.411	0.0108789
687.489	0.0109943
687.568	0.0107623
687.646	0.0105816
687.724	0.0107053
687.802	0.0109873
687.880	0.0111063
687.958	0.0112991
688.036	0.0113361
688.114	0.0114877
688.193	0.0118989
688.271	0.0123689
688.349	0.0126655
688.427	0.0130223
688.505	0.0134401
688.583	0.0138004
688.661	0.0139132
688.739	0.0142539
688.818	0.0144937
688.896	0.0147620
688.974	0.0149616
689.052	0.0149580
689.130	0.0150687
689.208	0.0148465
689.286	0.0148978
689.364	0.0149817
689.443	0.0149519
689.521	0.0150409
689.599	0.0148431
689.677	0.0148161
689.755	0.0148580
689.833	0.0149373
689.911	0.0149273
689.989	0.0150341
690.068	0.0149102
690.146	0.0148518
690.224	0.0148265
690.302	0.0147259
690.380	0.0146775
690.458	0.0145328
690.536	0.0143365
690.614	0.0143140
690.693	0.0142513
690.771	0.0138892
690.849	0.0138654
690.927	0.0137486
691.005	0.0135624
691.083	0.0134682
691.161	0.0132320
691.239	0.0130467
691.318	0.0129723
691.396	0.0129172
691.474	0.0127785
691.552	0.0125533
691.630	0.0124774
691.708	0.0124571
691.786	0.0124582
691.864	0.0122680
691.943	0.0122863
692.021	0.0124452
692.099	0.0123714
692.177	0.0123761
692.255	0.0124704
692.333	0.0125738
692.411	0.0126516
692.489	0.0127575
692.568	0.0129298
692.646	0.0129337
692.724	0.0132589
692.802	0.0133095
692.880	0.0135400
692.958	0.0136111
693.036	0.0138333
693.114	0.0139852
693.193	0.0141895
693.271	0.0143309
693.349	0.0143168
693.427	0.0146490
693.505	0.0146787
693.583	0.0148403
693.661	0.0147639
693.739	0.0146635
693.818	0.0146806
693.896	0.0148365
693.974	0.0145513
694.052	0.0147073
694.130	0.0145690
694.208	0.0144702
694.286	0.0145119
694.364	0.0143868
694.443	0.0143147
694.521	0.0142372
694.599	0.0140108
694.677	0.0139154
694.755	0.0138096
694.833	0.0135355
694.911	0.0134878
694.989	0.0132438
695.068	0.0130524
695.146	0.0129158
695.224	0.0127372
695.302	0.0126607
695.380	0.0125759
695.458	0.0123720
695.536	0.0123049
695.614	0.0122223
695.693	0.0122871
695.771	0.0125303
695.849	0.0124705
695.927	0.0126503
696.005	0.0126830
696.083	0.0128967
696.161	0.0129818
696.239	0.0130621
696.318	0.0133059
696.396	0.0133352
696.474	0.0136195
696.552	0.0136887
696.630	0.0137512
696.708	0.0140856
696.786	0.0141409
696.864	0.0141901
696.943	0.0143275
697.021	0.0146841
697.099	0.0147380
697.177	0.0149878
697.255	0.0150507
697.333	0.0150688
697.411	0.0153460
697.489	0.0153101
697.568	0.0153784
697.646	0.0155534
697.724	0.0156251
697.802	0.0154564
697.880	0.0155296
697.958	0.0154861
698.036	0.0154417
698.114	0.0151987
698.193	0.0149451
698.271	0.0147896
698.349	0.0145398
698.427	0.0140669
698.505	0.0137417
698.583	0.0134064
698.661	0.0129256
698.739	0.0124506
698.818	0.0121398
698.896	0.0115836
698.974	0.0112232
699.052	0.0108212
699.130	0.0105643
699.208	0.0103885
699.286	0.0101141
699.364	0.0100504
699.443	0.00994461
699.521	0.0100517
699.599	0.0103185
699.677	0.0106390
699.755	0.0107804
699.833	0.0110836
699.911	0.0115411
699.989	0.0120849
700.068	0.0125684
700.146	0.0131545
700.224	0.0134864
700.302	0.0140887
700.380	0.0146643
700.458	0.0150750
700.536	0.0155045
700.614	0.0158327
700.693	0.0163667
700.771	0.0166442
700.849	0.0169326
700.927	0.0172662
701.005	0.0175910
701.083	0.0176258
701.161	0.0176099
701.239	0.0177569
701.318	0.0176249
701.396	0.0173533
701.474	0.0171987
701.552	0.0169756
701.630	0.0166920
701.708	0.0163084
701.786	0.0158908
701.864	0.0155321
701.943	0.0151205
702.021	0.0147099
702.099	0.0141911
702.177	0.0136491
702.255	0.0132677
702.333	0.0128046
702.411	0.0121980
702.489	0.0118926
702.568	0.0115399
702.646	0.0112197
702.724	0.0109228
702.802	0.0107271
702.880	0.0105867
702.958	0.0104164
703.036	0.0103526
703.114	0.0105516
703.193	0.0104385
703.271	0.0107107
703.349	0.0109673
703.427	0.0112130
703.505	0.0113280
703.583	0.0118096
703.661	0.0120401
703.739	0.0123536
703.818	0.0126572
703.896	0.0131188
703.974	0.0133545
704.052	0.0136091
704.130	0.0138319
704.208	0.0140616
704.286	0.0141068
704.364	0.0143002
704.443	0.0143774
704.521	0.0144946
704.599	0.0144937
704.677	0.0148116
704.755	0.0149614
704.833	0.0150354
704.911	0.0149152
704.989	0.0151791
705.068	0.0152471
705.146	0.0154879
705.224	0.0154311
705.302	0.0154984
705.380	0.0154713
705.458	0.0153128
705.536	0.0154507
705.614	0.0154073
705.693	0.0150203
705.771	0.0148106
705.849	0.0147022
705.927	0.0144217
706.005	0.0141124
706.083	0.0137897
706.161	0.0135117
706.239	0.0133624
706.318	0.0130737
706.396	0.0130064
706.474	0.0128927
706.552	0.0128512
706.630	0.0128104
706.708	0.0127776
706.786	0.0128549
706.864	0.0128780
706.943	0.0128728
707.021	0.0130671
707.099	0.0132101
707.177	0.0134500
707.255	0.0135503
707.333	0.0138718
707.411	0.0141558
707.489	0.0143752
707.568	0.0144920
707.646	0.0145902
707.724	0.0148069
707.802	0.0149567
707.880	0.0149064
707.958	0.0151958
708.036	0.0149991
708.114	0.0151077
708.193	0.0151234
708.271	0.0148007
708.349	0.0148372
708.427	0.0145813
708.505	0.0144564
708.583	0.0143880
708.661	0.0141646
708.739	0.0139035
708.818	0.0138322
708.896	0.0136893
708.974	0.0135049
709.052	0.0133387
709.130	0.0130539
709.208	0.0129673
709.286	0.0128431
709.364	0.0126960
709.443	0.0125783
709.521	0.0124466
709.599	0.0123022
709.677	0.0121856
709.755	0.0121388
709.833	0.0119082
709.911	0.0118321
709.989	0.0117192
710.068	0.0117250
710.146	0.0115688
710.224	0.0115802
710.302	0.0117327
710.380	0.0117390
710.458	0.0119779
710.536	0.0122174
710.614	0.0122998
710.693	0.0126231
710.771	0.0128938
710.849	0.0132233
710.927	0.0135410
711.005	0.0138528
711.083	0.0141964
711.161	0.0143501
711.239	0.0146207
711.318	0.0149522
711.396	0.0152361
711.474	0.0154224
711.552	0.0154546
711.630	0.0156992
711.708	0.0157764
711.786	0.0157527
711.864	0.0157552
711.943	0.0158627
712.021	0.0159778
712.099	0.0158359
712.177	0.0158515
712.255	0.0157805
712.333	0.0158076
712.411	0.0158308
712.489	0.0157234
712.568	0.0156492
712.646	0.0152461
712.724	0.0151961
712.802	0.0150910
712.880	0.0148380
712.958	0.0145441
713.036	0.0143583
713.114	0.0140868
713.193	0.0137462
713.271	0.0134710
713.349	0.0131895
713.427	0.0128960
713.505	0.0126900
713.583	0.0125787
713.661	0.0121949
713.739	0.0119486
713.818	0.0118223
713.896	0.0116535
713.974	0.0116557
714.052	0.0116182
714.130	0.0114727
714.208	0.0115139
714.286	0.0115230
714.364	0.0116674
714.443	0.0116400
714.521	0.0117872
714.599	0.0119505
714.677	0.0121769
714.755	0.0124461
714.833	0.0125543
714.911	0.0127764
714.989	0.0128979
715.068	0.0133959
715.146	0.0133067
715.224	0.0133675
715.302	0.0136713
715.380	0.0138638
715.458	0.0137814
715.536	0.0138004
715.614	0.0137133
715.693	0.0136896
715.771	0.0139085
715.849	0.0137585
715.927	0.0136927
716.005	0.0136897
716.083	0.0139497
716.161	0.0138630
716.239	0.0138496
716.318	0.0139317
716.396	0.0139384
716.474	0.0138638
716.552	0.0141099
716.630	0.0140932
716.708	0.0141528
716.786	0.0141237
716.864	0.0142735
716.943	0.0144254
717.021	0.0143897
717.099	0.0144392
717.177	0.0145033
717.255	0.0146302
717.333	0.0147010
717.411	0.0145866
717.489	0.0147473
717.568	0.0147325
717.646	0.0145379
717.724	0.0146420
717.802	0.0144487
717.880	0.0144424
717.958	0.0143908
718.036	0.0140862
718.114	0.0141349
718.193	0.0138852
718.271	0.0139130
718.349	0.0140405
718.427	0.0138122
718.505	0.0137465
718.583	0.0138334
718.661	0.0139561
718.739	0.0138936
718.818	0.0139842
718.896	0.0139991
718.974	0.0140580
719.052	0.0140734
719.130	0.0139252
719.208	0.0137116
719.286	0.0137016
719.364	0.0135809
719.443	0.0135008
719.521	0.0132485
719.599	0.0130045
719.677	0.0128596
719.755	0.0128580
719.833	0.0126532
719.911	0.0125593
719.989	0.0125736
720.068	0.0125385
720.146	0.0124377
720.224	0.0125887
720.302	0.0126133
720.380	0.0127744
720.458	0.0128645
720.536	0.0128961
720.614	0.0132804
720.693	0.0134518
720.771	0.0137993
720.849	0.0139475
720.927	0.0142087
721.005	0.0143272
721.083	0.0143758
721.161	0.0146075
721.239	0.0149117
721.318	0.0148303
721.396	0.0147540
721.474	0.0146879
721.552	0.0146351
721.630	0.0143098
721.708	0.0140480
721.786	0.0138731
721.864	0.0135867
721.943	0.0132990
722.021	0.0129749
722.099	0.0127139
722.177	0.0125739
722.255	0.0125014
722.333	0.0124764
722.411	0.0122905
722.489	0.0123603
722.568	0.0124061
722.646	0.0126155
722.724	0.0125283
722.802	0.0127312
722.880	0.0133242
722.958	0.0133210
723.036	0.0134515
723.114	0.0137402
723.193	0.0139687
723.271	0.0142274
723.349	0.0142820
723.427	0.0144952
723.505	0.0147403
723.583	0.0147829
723.661	0.0147238
723.739	0.0148125
723.818	0.0148466
723.896	0.0150101
723.974	0.0148797
724.052	0.0148484
724.130	0.0148294
724.208	0.0148206
724.286	0.0149585
724.364	0.0147826
724.443	0.0147832
724.521	0.0147672
724.599	0.0145641
724.677	0.0145585
724.755	0.0146342
724.833	0.0146324
724.911	0.0144503
724.989	0.0143907
725.068	0.0144218
725.146	0.0143327
725.224	0.0143907
725.302	0.0142586
725.380	0.0140826
725.458	0.0142609
725.536	0.0140174
725.614	0.0139178
725.693	0.0139120
725.771	0.0138277
725.849	0.0136998
725.927	0.0136092
726.005	0.0136538
726.083	0.0135724
726.161	0.0133590
726.239	0.0133907
726.318	0.0134023
726.396	0.0133730
726.474	0.0133701
726.552	0.0131387
726.630	0.0131441
726.708	0.0131834
726.786	0.0131583
726.864	0.0128310
726.943	0.0126932
727.021	0.0125514
727.099	0.0124384
727.177	0.0123116
727.255	0.0122012
727.333	0.0120583
727.411	0.0118424
727.489	0.0119435
727.568	0.0119233
727.646	0.0118015
727.724	0.0119203
727.802	0.0119411
727.880	0.0120154
727.958	0.0122974
728.036	0.0123854
728.114	0.0126701
728.193	0.0129566
728.271	0.0132326
728.349	0.0135677
728.427	0.0137936
728.505	0.0140663
728.583	0.0143769
728.661	0.0145595
728.739	0.0149374
728.818	0.0150997
728.896	0.0153627
728.974	0.0152992
729.052	0.0153934
729.130	0.0156020
729.208	0.0155688
729.286	0.0155387
729.364	0.0154995
729.443	0.0154738
729.521	0.0154454
729.599	0.0152354
729.677	0.0150620
729.755	0.0149940
729.833	0.0148313
729.911	0.0146499
729.989	0.0144552
730.068	0.0142439
730.146	0.0141294
730.224	0.0139753
730.302	0.0138467
730.380	0.0137635
730.458	0.0137347
730.536	0.0136347
730.614	0.0136227
730.693	0.0136381
730.771	0.0135925
730.849	0.0137766
730.927	0.0137465
731.005	0.0139032
731.083	0.0138525
731.161	0.0140700
731.239	0.0141815
731.318	0.0142562
731.396	0.0142278
731.474	0.0140733
731.552	0.0141310
731.630	0.0140694
731.708	0.0140403
731.786	0.0139014
731.864	0.0136452
731.943	0.0135463
732.021	0.0135818
732.099	0.0134846
732.177	0.0135157
732.255	0.0134014
732.333	0.0132336
732.411	0.0130748
732.489	0.0131126
732.568	0.0131820
732.646	0.0131339
732.724	0.0131635
732.802	0.0130844
732.880	0.0128922
732.958	0.0128529
733.036	0.0125549
733.114	0.0128725
733.193	0.0128853
733.271	0.0127396
733.349	0.0125612
733.427	0.0126318
733.505	0.0128084
733.583	0.0127628
733.661	0.0126742
733.739	0.0127108
733.818	0.0127999
733.896	0.0128556
733.974	0.0130147
734.052	0.0129817
734.130	0.0132008
734.208	0.0132079
734.286	0.0134443
734.364	0.0133976
734.443	0.0135230
734.521	0.0134991
734.599	0.0136290
734.677	0.0137671
734.755	0.0137200
734.833	0.0137668
734.911	0.0139346
734.989	0.0139558
735.068	0.0139320
735.146	0.0140015
735.224	0.0139706
735.302	0.0140611
735.380	0.0140536
735.458	0.0141003
735.536	0.0141020
735.614	0.0140777
735.693	0.0141433
735.771	0.0142937
735.849	0.0142664
735.927	0.0143156
736.005	0.0143847
736.083	0.0144791
736.161	0.0144464
736.239	0.0147176
736.318	0.0147366
736.396	0.0147019
736.474	0.0148886
736.552	0.0149692
736.630	0.0149779
736.708	0.0149339
736.786	0.0151095
736.864	0.0148971
736.943	0.0148148
737.021	0.0148886
737.099	0.0147629
737.177	0.0146757
737.255	0.0146377
737.333	0.0144617
737.411	0.0143107
737.489	0.0142282
737.568	0.0139899
737.646	0.0138223
737.724	0.0136991
737.802	0.0135284
737.880	0.0135045
737.958	0.0134426
738.036	0.0132753
738.114	0.0130602
738.193	0.0130115
738.271	0.0129375
738.349	0.0129153
738.427	0.0128220
738.505	0.0129232
738.583	0.0127400
738.661	0.0127496
738.739	0.0126122
738.818	0.0125826
738.896	0.0125082
738.974	0.0125700
739.052	0.0124190
739.130	0.0124530
739.208	0.0125231
739.286	0.0124355
739.364	0.0124427
739.443	0.0125755
739.521	0.0125471
739.599	0.0126885
739.677	0.0126965
739.755	0.0127219
739.833	0.0129529
739.911	0.0129943
739.989	0.0130859
740.068	0.0130885
740.146	0.0133430
740.224	0.0134677
740.302	0.0136555
740.380	0.0137382
740.458	0.0137804
740.536	0.0139969
740.614	0.0141310
740.693	0.0141682
740.771	0.0143909
740.849	0.0144421
740.927	0.0144933
741.005	0.0147310
741.083	0.0147857
741.161	0.0148410
741.239	0.0149689
741.318	0.0150173
741.396	0.0150235
741.474	0.0151130
741.552	0.0150907
741.630	0.0150618
741.708	0.0149556
741.786	0.0148940
741.864	0.0148919
741.943	0.0148072
742.021	0.0147226
742.099	0.0146548
742.177	0.0145337
742.255	0.0143652
742.333	0.0143375
742.411	0.0141675
742.489	0.0140830
742.568	0.0141869
742.646	0.0141814
742.724	0.0141546
742.802	0.0141227
742.880	0.0140823
742.958	0.0141706
743.036	0.0141183
743.114	0.0141241
743.193	0.0140810
743.271	0.0140974
743.349	0.0139057
743.427	0.0137947
743.505	0.0138855
743.583	0.0138766
743.661	0.0136028
743.739	0.0134544
743.818	0.0133690
743.896	0.0132701
743.974	0.0132990
744.052	0.0130420
744.130	0.0129911
744.208	0.0129976
744.286	0.0130018
744.364	0.0129582
744.443	0.0128130
744.521	0.0127807
744.599	0.0128580
744.677	0.0128017
744.755	0.0127631
744.833	0.0129723
744.911	0.0132527
744.989	0.0131395
745.068	0.0132353
745.146	0.0134278
745.224	0.0136691
745.302	0.0137762
745.380	0.0136829
745.458	0.0136021
745.536	0.0138667
745.614	0.0139011
745.693	0.0139790
745.771	0.0139520
745.849	0.0140266
745.927	0.0139487
746.005	0.0140189
746.083	0.0138868
746.161	0.0140329
746.239	0.0139946
746.318	0.0139670
746.396	0.0140733
746.474	0.0139385
746.552	0.0139602
746.630	0.0140361
746.708	0.0140221
746.786	0.0139893
746.864	0.0140363
746.943	0.0142142
747.021	0.0140922
747.099	0.0140324
747.177	0.0142915
747.255	0.0141145
747.333	0.0141719
747.411	0.0140628
747.489	0.0140411
747.568	0.0139638
747.646	0.0138065
747.724	0.0138236
747.802	0.0137285
747.880	0.0135788
747.958	0.0134322
748.036	0.0134124
748.114	0.0131240
748.193	0.0130453
748.271	0.0130328
748.349	0.0130856
748.427	0.0130771
748.505	0.0131669
748.583	0.0132033
748.661	0.0133548
748.739	0.0134824
748.818	0.0136520
748.896	0.0138445
748.974	0.0139137
749.052	0.0140674
749.130	0.0141956
749.208	0.0143513
749.286	0.0144704
749.364	0.0145422
749.443	0.0145080
749.521	0.0145451
749.599	0.0144136
749.677	0.0144186
749.755	0.0144390
749.833	0.0143454
749.911	0.0140429
749.989	0.0140767
750.068	0.0141373
750.146	0.0139484
750.224	0.0137617
750.302	0.0137467
750.380	0.0138885
750.458	0.0137344
750.536	0.0137948
750.614	0.0138031
750.693	0.0136728
750.771	0.0137953
750.849	0.0137463
750.927	0.0136546
751.005	0.0138499
751.083	0.0136436
751.161	0.0134975
751.239	0.0137464
751.318	0.0136591
751.396	0.0137782
751.474	0.0137370
751.552	0.0135836
751.630	0.0135828
751.708	0.0134303
751.786	0.0135047
751.864	0.0133504
751.943	0.0131445
752.021	0.0130003
752.099	0.0130253
752.177	0.0128487
752.255	0.0128743
752.333	0.0128500
752.411	0.0127834
752.489	0.0127123
752.568	0.0127408
752.646	0.0127829
752.724	0.0129357
752.802	0.0129687
752.880	0.0128055
752.958	0.0129792
753.036	0.0131396
753.114	0.0131838
753.193	0.0133453
753.271	0.0134068
753.349	0.0134528
753.427	0.0136067
753.505	0.0136122
753.583	0.0139002
753.661	0.0138272
753.739	0.0138878
753.818	0.0141592
753.896	0.0141656
753.974	0.0141062
754.052	0.0142569
754.130	0.0142523
754.208	0.0142702
754.286	0.0143259
754.364	0.0143837
754.443	0.0142094
754.521	0.0143106
754.599	0.0142653
754.677	0.0142966
754.755	0.0142390
754.833	0.0142500
754.911	0.0142757
754.989	0.0142988
755.068	0.0142020
755.146	0.0142349
755.224	0.0142581
755.302	0.0140963
755.380	0.0140531
755.458	0.0141630
755.536	0.0139433
755.614	0.0140244
755.693	0.0140148
755.771	0.0138703
755.849	0.0139027
755.927	0.0138052
756.005	0.0136821
756.083	0.0137113
756.161	0.0136609
756.239	0.0135570
756.318	0.0135191
756.396	0.0133549
756.474	0.0133510
756.552	0.0134746
756.630	0.0134872
756.708	0.0134486
756.786	0.0134560
756.864	0.0136485
756.943	0.0134757
757.021	0.0134245
757.099	0.0134159
757.177	0.0135207
757.255	0.0134624
757.333	0.0135021
757.411	0.0135034
757.489	0.0135191
757.568	0.0135011
757.646	0.0133540
757.724	0.0135835
757.802	0.0135741
757.880	0.0135163
757.958	0.0136001
758.036	0.0135986
758.114	0.0135043
758.193	0.0134525
758.271	0.0134165
758.349	0.0134459
758.427	0.0134391
758.505	0.0134100
758.583	0.0133498
758.661	0.0133734
758.739	0.0134255
758.818	0.0134129
758.896	0.0135067
758.974	0.0134796
759.052	0.0134732
759.130	0.0135710
759.208	0.0135463
759.286	0.0135638
759.364	0.0135369
759.443	0.0136980
759.521	0.0138505
759.599	0.0138763
759.677	0.0138289
759.755	0.0139877
759.833	0.0138729
759.911	0.0138593
759.989	0.0140341
760.068	0.0141566
760.146	0.0141688
760.224	0.0141347
760.302	0.0140003
760.380	0.0141100
760.458	0.0139697
760.536	0.0139027
760.614	0.0136868
760.693	0.0137481
760.771	0.0137459
760.849	0.0137234
760.927	0.0136536
761.005	0.0135576
761.083	0.0135177
761.161	0.0134324
761.239	0.0135040
761.318	0.0133916
761.396	0.0134330
761.474	0.0135691
761.552	0.0136578
761.630	0.0138186
761.708	0.0136701
761.786	0.0138890
761.864	0.0138520
761.943	0.0139254
762.021	0.0140543
762.099	0.0140931
762.177	0.0141474
762.255	0.0140765
762.333	0.0140718
762.411	0.0140705
762.489	0.0139243
762.568	0.0141092
762.646	0.0141141
762.724	0.0141713
762.802	0.0139362
762.880	0.0138629
762.958	0.0139999
763.036	0.0139745
763.114	0.0139149
763.193	0.0139091
763.271	0.0139447
763.349	0.0138628
763.427	0.0139599
763.505	0.0139211
763.583	0.0137802
763.661	0.0139771
763.739	0.0140543
763.818	0.0141408
763.896	0.0140327
763.974	0.0138886
764.052	0.0139922
764.130	0.0138307
764.208	0.0139150
764.286	0.0136093
764.364	0.0137481
764.443	0.0138356
764.521	0.0137405
764.599	0.0133212
764.677	0.0133997
764.755	0.0132563
764.833	0.0133028
764.911	0.0132108
764.989	0.0132559
765.068	0.0131626
765.146	0.0129977
765.224	0.0129758
765.302	0.0131396
765.380	0.0131339
765.458	0.0133247
765.536	0.0131528
765.614	0.0132614
765.693	0.0133501
765.771	0.0135447
765.849	0.0135695
765.927	0.0135814
766.005	0.0135543
766.083	0.0137743
766.161	0.0138921
766.239	0.0138258
766.318	0.0138129
766.396	0.0138305
766.474	0.0138859
766.552	0.0138070
766.630	0.0138832
766.708	0.0139306
766.786	0.0138717
766.864	0.0139226
766.943	0.0139927
767.021	0.0139384
767.099	0.0138690
767.177	0.0140716
767.255	0.0141975
767.333	0.0140265
767.411	0.0142116
767.489	0.0140630
767.568	0.0141812
767.646	0.0141864
767.724	0.0141093
767.802	0.0141801
767.880	0.0142854
767.958	0.0143296
768.036	0.0142216
768.114	0.0140848
768.193	0.0142337
768.271	0.0140443
768.349	0.0139788
768.427	0.0141501
768.505	0.0140330
768.583	0.0138543
768.661	0.0138514
768.739	0.0138573
768.818	0.0138596
768.896	0.0137399
768.974	0.0139265
769.052	0.0140493
769.130	0.0138987
769.208	0.0137821
769.286	0.0138878
769.364	0.0138412
769.443	0.0137853
769.521	0.0137323
769.599	0.0137092
769.677	0.0137843
769.755	0.0137366
769.833	0.0136805
769.911	0.0137173
769.989	0.0137103
770.068	0.0135873
770.146	0.0136789
770.224	0.0136205
770.302	0.0136057
770.380	0.0136005
770.458	0.0135639
770.536	0.0136777
770.614	0.0134945
770.693	0.0135940
770.771	0.0135081
770.849	0.0135694
770.927	0.0134373
771.005	0.0134372
771.083	0.0134586
771.161	0.0132996
771.239	0.0133812
771.318	0.0133481
771.396	0.0132628
771.474	0.0135527
771.552	0.0134103
771.630	0.0133190
771.708	0.0135530
771.786	0.0135484
771.864	0.0137975
771.943	0.0135414
772.021	0.0136241
772.099	0.0137968
772.177	0.0138003
772.255	0.0138601
772.333	0.0138506
772.411	0.0138604
772.489	0.0139780
772.568	0.0140169
772.646	0.0141462
772.724	0.0141244
772.802	0.0141605
772.880	0.0140994
772.958	0.0141611
773.036	0.0141906
773.114	0.0140618
773.193	0.0140467
773.271	0.0141125
773.349	0.0140540
773.427	0.0140852
773.505	0.0139369
773.583	0.0138218
773.661	0.0137655
773.739	0.0138471
773.818	0.0136726
773.896	0.0136452
773.974	0.0136848
774.052	0.0137182
774.130	0.0135831
774.208	0.0135834
774.286	0.0136484
774.364	0.0136291
774.443	0.0134238
774.521	0.0134333
774.599	0.0133688
774.677	0.0134297
774.755	0.0135763
774.833	0.0134769
774.911	0.0132654
774.989	0.0131993
775.068	0.0135566
775.146	0.0135972
775.224	0.0134109
775.302	0.0134164
775.380	0.0136449
775.458	0.0135337
775.536	0.0137315
775.614	0.0137097
775.693	0.0136452
775.771	0.0137896
775.849	0.0137075
775.927	0.0138225
776.005	0.0138894
776.083	0.0138996
776.161	0.0140505
776.239	0.0140331
776.318	0.0141519
776.396	0.0142257
776.474	0.0141258
776.552	0.0141467
776.630	0.0139478
776.708	0.0140845
776.786	0.0141106
776.864	0.0140586
776.943	0.0140253
777.021	0.0140639
777.099	0.0139213
777.177	0.0138573
777.255	0.0138515
777.333	0.0137482
777.411	0.0137042
777.489	0.0138217
777.568	0.0136644
777.646	0.0137151
777.724	0.0137057
777.802	0.0136044
777.880	0.0135981
777.958	0.0136945
778.036	0.0136673
778.114	0.0137415
778.193	0.0137355
778.271	0.0137024
778.349	0.0135796
778.427	0.0137025
778.505	0.0137791
778.583	0.0138654
778.661	0.0138190
778.739	0.0137589
778.818	0.0139036
778.896	0.0137545
778.974	0.0140118
779.052	0.0139732
779.130	0.0138663
779.208	0.0138482
779.286	0.0138511
779.364	0.0139474
779.443	0.0137978
779.521	0.0138680
779.599	0.0139237
779.677	0.0138638
779.755	0.0138346
779.833	0.0136140
779.911	0.0138299
779.989	0.0137741
780.068	0.0135546
780.146	0.0136365
780.224	0.0137309
780.302	0.0135756
780.380	0.0134947
780.458	0.0135639
780.536	0.0133814
780.614	0.0133870
780.693	0.0135027
780.771	0.0134271
780.849	0.0133250
780.927	0.0134009
781.005	0.0133545
781.083	0.0133126
781.161	0.0134075
781.239	0.0133942
781.318	0.0134112
781.396	0.0134875
781.474	0.0134036
781.552	0.0135601
781.630	0.0136259
781.708	0.0136833
781.786	0.0137063
781.864	0.0137473
781.943	0.0138435
782.021	0.0139075
782.099	0.0139593
782.177	0.0139306
782.255	0.0139687
782.333	0.0140173
782.411	0.0142313
782.489	0.0141413
782.568	0.0141406
782.646	0.0141357
782.724	0.0142582
782.802	0.0141283
782.880	0.0140083
782.958	0.0141553
783.036	0.0140320
783.114	0.0138985
783.193	0.0140059
783.271	0.0138029
783.349	0.0137466
783.427	0.0138641
783.505	0.0137400
783.583	0.0135481
783.661	0.0136274
783.739	0.0135453
783.818	0.0134054
783.896	0.0133856
783.974	0.0133665
784.052	0.0133733
784.130	0.0131513
784.208	0.0132944
784.286	0.0133749
784.364	0.0131711
784.443	0.0132761
784.521	0.0133970
784.599	0.0134776
784.677	0.0133936
784.755	0.0133557
784.833	0.0133751
784.911	0.0134259
784.989	0.0135910
785.068	0.0135638
785.146	0.0135540
785.224	0.0136480
785.302	0.0137443
785.380	0.0138153
785.458	0.0138400
785.536	0.0136618
785.614	0.0139306
785.693	0.0140324
785.771	0.0140231
785.849	0.0140462
785.927	0.0140637
786.005	0.0141462
786.083	0.0142030
786.161	0.0142471
786.239	0.0140805
786.318	0.0141120
786.396	0.0141409
786.474	0.0140729
786.552	0.0140154
786.630	0.0140935
786.708	0.0139863
786.786	0.0140001
786.864	0.0139962
786.943	0.0138834
787.021	0.0138172
787.099	0.0137492
787.177	0.0137376
787.255	0.0137392
787.333	0.0134720
787.411	0.0135293
787.489	0.0134834
787.568	0.0134326
787.646	0.0134404
787.724	0.0133923
787.802	0.0133613
787.880	0.0133956
787.958	0.0132348
788.036	0.0132857
788.114	0.0133416
788.193	0.0132220
788.271	0.0134663
788.349	0.0133128
788.427	0.0132256
788.505	0.0132771
788.583	0.0133048
788.661	0.0132659
788.739	0.0134322
788.818	0.0134213
788.896	0.0133035
788.974	0.0134093
789.052	0.0134572
789.130	0.0135298
789.208	0.0133730
789.286	0.0135212
789.364	0.0135773
789.443	0.0136127
789.521	0.0136475
789.599	0.0136239
789.677	0.0136265
789.755	0.0137328
789.833	0.0138888
789.911	0.0137821
789.989	0.0137881
790.068	0.0140531
790.146	0.0138177
790.224	0.0140579
790.302	0.0139954
790.380	0.0138773
790.458	0.0139982
790.536	0.0141666
790.614	0.0140815
790.693	0.0140025
790.771	0.0141032
790.849	0.0141664
790.927	0.0141358
791.005	0.0141190
791.083	0.0140919
791.161	0.0140228
791.239	0.0140233
791.318	0.0141698
791.396	0.0140481
791.474	0.0138369
791.552	0.0139685
791.630	0.0139399
791.708	0.0138390
791.786	0.0137767
791.864	0.0137622
791.943	0.0138198
792.021	0.0137405
792.099	0.0137376
792.177	0.0136971
792.255	0.0136132
792.333	0.0134499
792.411	0.0136426
792.489	0.0136423
792.568	0.0135129
792.646	0.0134625
792.724	0.0135683
792.802	0.0133957
792.880	0.0134726
792.958	0.0135179
793.036	0.0134607
793.114	0.0134043
793.193	0.0134686
793.271	0.0135021
793.349	0.0133326
793.427	0.0133221
793.505	0.0134118
793.583	0.0134174
793.661	0.0133313
793.739	0.0133948
793.818	0.0134070
793.896	0.0135541
793.974	0.0135274
794.052	0.0136157
794.130	0.0135594
794.208	0.0136172
794.286	0.0137291
794.364	0.0137445
794.443	0.0138009
794.521	0.0139064
794.599	0.0139552
794.677	0.0140177
794.755	0.0140982
794.833	0.0140742
794.911	0.0140053
794.989	0.0139839
795.068	0.0139916
795.146	0.0141125
795.224	0.0141169
795.302	0.0139481
795.380	0.0138808
795.458	0.0139362
795.536	0.0139552
795.614	0.0137701
795.693	0.0135625
795.771	0.0133687
795.849	0.0135018
795.927	0.0133384
796.005	0.0133669
796.083	0.0133677
796.161	0.0133057
796.239	0.0132670
796.318	0.0132536
796.396	0.0133028
796.474	0.0132104
796.552	0.0133416
796.630	0.0134100
796.708	0.0135779
796.786	0.0136658
796.864	0.0135932
796.943	0.0137151
797.021	0.0138713
797.099	0.0139378
797.177	0.0140980
797.255	0.0141625
797.333	0.0142520
797.411	0.0142309
797.489	0.0142176
797.568	0.0144699
797.646	0.0144683
797.724	0.0144655
797.802	0.0144447
797.880	0.0143893
797.958	0.0144247
798.036	0.0143751
798.114	0.0142115
798.193	0.0142581
798.271	0.0142934
798.349	0.0139807
798.427	0.0140916
798.505	0.0138988
798.583	0.0139175
798.661	0.0139149
798.739	0.0138142
798.818	0.0138791
798.896	0.0137955
798.974	0.0136091
799.052	0.0136978
799.130	0.0137935
799.208	0.0137978
799.286	0.0137022
799.364	0.0135538
799.443	0.0135870
799.521	0.0135580
799.599	0.0135382
799.677	0.0135760
799.755	0.0136375
799.833	0.0135548
799.911	0.0135690
799.989	0.0136349
800.068	0.0134657
800.146	0.0134612
800.224	0.0136166
800.302	0.0136630
800.380	0.0136891
800.458	0.0135431
800.536	0.0134380
800.614	0.0135584
800.693	0.0135104
800.771	0.0135382
800.849	0.0135388
800.927	0.0136161
801.005	0.0135307
801.083	0.0134385
801.161	0.0136590
801.239	0.0136906
801.318	0.0135712
801.396	0.0136543
801.474	0.0138161
801.552	0.0137641
801.630	0.0137456
801.708	0.0136731
801.786	0.0137331
801.864	0.0138584
801.943	0.0138105
802.021	0.0137826
802.099	0.0137207
802.177	0.0138268
802.255	0.0138670
802.333	0.0138432
802.411	0.0138192
802.489	0.0137749
802.568	0.0138234
802.646	0.0138442
802.724	0.0137949
802.802	0.0138451
802.880	0.0139391
802.958	0.0140283
803.036	0.0139468
803.114	0.0140540
803.193	0.0142405
803.271	0.0143800
803.349	0.0142471
803.427	0.0142530
803.505	0.0141734
803.583	0.0144378
803.661	0.0142679
803.739	0.0143342
803.818	0.0141094
803.896	0.0142421
803.974	0.0142419
804.052	0.0141257
804.130	0.0141632
804.208	0.0140828
804.286	0.0141403
804.364	0.0140957
804.443	0.0139613
804.521	0.0139080
804.599	0.0137657
804.677	0.0137339
804.755	0.0135403
804.833	0.0135072
804.911	0.0135301
804.989	0.0134406
805.068	0.0135164
805.146	0.0135773
805.224	0.0135242
805.302	0.0133527
805.380	0.0134517
805.458	0.0134151
805.536	0.0134006
805.614	0.0134031
805.693	0.0133663
805.771	0.0132825
805.849	0.0132256
805.927	0.0133144
806.005	0.0132786
806.083	0.0134307
806.161	0.0133057
806.239	0.0133794
806.318	0.0133292
806.396	0.0133411
806.474	0.0133997
806.552	0.0135133
806.630	0.0135220
806.708	0.0134236
806.786	0.0135629
806.864	0.0134369
806.943	0.0134592
807.021	0.0135062
807.099	0.0134906
807.177	0.0134849
807.255	0.0134740
807.333	0.0134657
807.411	0.0136340
807.489	0.0136475
807.568	0.0136036
807.646	0.0136452
807.724	0.0139934
807.802	0.0138188
807.880	0.0139210
807.958	0.0139085
808.036	0.0140624
808.114	0.0140945
808.193	0.0142183
808.271	0.0142231
808.349	0.0142167
808.427	0.0143724
808.505	0.0143613
808.583	0.0143438
808.661	0.0143461
808.739	0.0143720
808.818	0.0144266
808.896	0.0143002
808.974	0.0144146
809.052	0.0143639
809.130	0.0144041
809.208	0.0142867
809.286	0.0142697
809.364	0.0142368
809.443	0.0141405
809.521	0.0140353
809.599	0.0141249
809.677	0.0139941
809.755	0.0137088
809.833	0.0138332
809.911	0.0137914
809.989	0.0138395
810.068	0.0135316
810.146	0.0134694
810.224	0.0135189
810.302	0.0134434
810.380	0.0131971
810.458	0.0132227
810.536	0.0131344
810.614	0.0131528
810.693	0.0130125
810.771	0.0128586
810.849	0.0127886
810.927	0.0129776
811.005	0.0128294
811.083	0.0128876
811.161	0.0129068
811.239	0.0129176
811.318	0.0129895
811.396	0.0131394
811.474	0.0130656
811.552	0.0132966
811.630	0.0133423
811.708	0.0134827
811.786	0.0137421
811.864	0.0136868
811.943	0.0137090
812.021	0.0137843
812.099	0.0139723
812.177	0.0140469
812.255	0.0139618
812.333	0.0140763
812.411	0.0140844
812.489	0.0142754
812.568	0.0142536
812.646	0.0142873
812.724	0.0142036
812.802	0.0142744
812.880	0.0142035
812.958	0.0143110
813.036	0.0142487
813.114	0.0142858
813.193	0.0141447
813.271	0.0140833
813.349	0.0141096
813.427	0.0141321
813.505	0.0141324
813.583	0.0139668
813.661	0.0139619
813.739	0.0139285
813.818	0.0137455
813.896	0.0137817
813.974	0.0137402
814.052	0.0137338
814.130	0.0137225
814.208	0.0135241
814.286	0.0135461
814.364	0.0137275
814.443	0.0136062
814.521	0.0135603
814.599	0.0134958
814.677	0.0135469
814.755	0.0134695
814.833	0.0135432
814.911	0.0134627
814.989	0.0134403
815.068	0.0134210
815.146	0.0135072
815.224	0.0135863
815.302	0.0135459
815.380	0.0135368
815.458	0.0134615
815.536	0.0135660
815.614	0.0134250
815.693	0.0134978
815.771	0.0135689
815.849	0.0134845
815.927	0.0134483
816.005	0.0135689
816.083	0.0136125
816.161	0.0136288
816.239	0.0135684
816.318	0.0135831
816.396	0.0136576
816.474	0.0136482
816.552	0.0138036
816.630	0.0137927
816.708	0.0138491
816.786	0.0138704
816.864	0.0137299
816.943	0.0137766
817.021	0.0137907
817.099	0.0138298
817.177	0.0138770
817.255	0.0137397
817.333	0.0137960
817.411	0.0137993
817.489	0.0137119
817.568	0.0136044
817.646	0.0136525
817.724	0.0136992
817.802	0.0136090
817.880	0.0136253
817.958	0.0138197
818.036	0.0137670
818.114	0.0137116
818.193	0.0137194
818.271	0.0137719
818.349	0.0136312
818.427	0.0136067
818.505	0.0137540
818.583	0.0136668
818.661	0.0138400
818.739	0.0138428
818.818	0.0137946
818.896	0.0139796
818.974	0.0138972
819.052	0.0138474
819.130	0.0139217
819.208	0.0139381
819.286	0.0138854
819.364	0.0137614
819.443	0.0138699
819.521	0.0139015
819.599	0.0137822
819.677	0.0138979
819.755	0.0139697
819.833	0.0137636
819.911	0.0138176
819.989	0.0138007
820.068	0.0138157
820.146	0.0137812
820.224	0.0139166
820.302	0.0139503
820.380	0.0138097
820.458	0.0138953
820.536	0.0138924
820.614	0.0138099
820.693	0.0138474
820.771	0.0139685
820.849	0.0139730
820.927	0.0137130
821.005	0.0138429
821.083	0.0140079
821.161	0.0139323
821.239	0.0139030
821.318	0.0139013
821.396	0.0139270
821.474	0.0140768
821.552	0.0140672
821.630	0.0139081
821.708	0.0139816
821.786	0.0140076
821.864	0.0140846
821.943	0.0140166
822.021	0.0139600
822.099	0.0138765
822.177	0.0138264
822.255	0.0138895
822.333	0.0139719
822.411	0.0139641
822.489	0.0138188
822.568	0.0139371
822.646	0.0138458
822.724	0.0138293
822.802	0.0137870
822.880	0.0137084
822.958	0.0135545
823.036	0.0135909
823.114	0.0136150
823.193	0.0135335
823.271	0.0134921
823.349	0.0135696
823.427	0.0136524
823.505	0.0134084
823.583	0.0133743
823.661	0.0134415
823.739	0.0135011
823.818	0.0135465
823.896	0.0133433
823.974	0.0134439
824.052	0.0134510
824.130	0.0135941
824.208	0.0135191
824.286	0.0134580
824.364	0.0134350
824.443	0.0134277
824.521	0.0135203
824.599	0.0135906
824.677	0.0136514
824.755	0.0135789
824.833	0.0137401
824.911	0.0137125
824.989	0.0139130
825.068	0.0139902
825.146	0.0139198
825.224	0.0141524
825.302	0.0140499
825.380	0.0141679
825.458	0.0139707
825.536	0.0140591
825.614	0.0141480
825.693	0.0142441
825.771	0.0140691
825.849	0.0139699
825.927	0.0140977
826.005	0.0141093
826.083	0.0140212
826.161	0.0139680
826.239	0.0140689
826.318	0.0141547
826.396	0.0139657
826.474	0.0137565
826.552	0.0139080
826.630	0.0138409
826.708	0.0140201
826.786	0.0138710
826.864	0.0136703
826.943	0.0138109
827.021	0.0136995
827.099	0.0138496
827.177	0.0138494
827.255	0.0136756
827.333	0.0136076
827.411	0.0136958
827.489	0.0137315
827.568	0.0135863
827.646	0.0136672
827.724	0.0135325
827.802	0.0134574
827.880	0.0134277
827.958	0.0136307
828.036	0.0135897
828.114	0.0134216
828.193	0.0134722
828.271	0.0134003
828.349	0.0134030
828.427	0.0135487
828.505	0.0136762
828.583	0.0135177
828.661	0.0135986
828.739	0.0135043
828.818	0.0135313
828.896	0.0137226
828.974	0.0134545
829.052	0.0135170
829.130	0.0135661
829.208	0.0135140
829.286	0.0135654
829.364	0.0135747
829.443	0.0136176
829.521	0.0136732
829.599	0.0134637
829.677	0.0134040
829.755	0.0134613
829.833	0.0135039
829.911	0.0134991
829.989	0.0135328
830.068	0.0135239
830.146	0.0135142
830.224	0.0135935
830.302	0.0135525
830.380	0.0135651
830.458	0.0135795
830.536	0.0136607
830.614	0.0136481
830.693	0.0138475
830.771	0.0137328
830.849	0.0137431
830.927	0.0137095
831.005	0.0139040
831.083	0.0138396
831.161	0.0137541
831.239	0.0139191
831.318	0.0139165
831.396	0.0137813
831.474	0.0139255
831.552	0.0139250
831.630	0.0138802
831.708	0.0141433
831.786	0.0141061
831.864	0.0139944
831.943	0.0140080
832.021	0.0140096
832.099	0.0139487
832.177	0.0139072
832.255	0.0138004
832.333	0.0139661
832.411	0.0138558
832.489	0.0138786
832.568	0.0140076
832.646	0.0139532
832.724	0.0138000
832.802	0.0136997
832.880	0.0137273
832.958	0.0135893
833.036	0.0136444
833.114	0.0138180
833.193	0.0135765
833.271	0.0135880
833.349	0.0137256
833.427	0.0135818
833.505	0.0137152
833.583	0.0136821
833.661	0.0136576
833.739	0.0138257
833.818	0.0136639
833.896	0.0137189
833.974	0.0136452
834.052	0.0135754
834.130	0.0137541
834.208	0.0139338
834.286	0.0137822
834.364	0.0136863
834.443	0.0137109
834.521	0.0136353
834.599	0.0135729
834.677	0.0135184
834.755	0.0137158
834.833	0.0137530
834.911	0.0135763
834.989	0.0136535
835.068	0.0135952
835.146	0.0135748
835.224	0.0136841
835.302	0.0135487
835.380	0.0136209
835.458	0.0137406
835.536	0.0137276
835.614	0.0136781
835.693	0.0137085
835.771	0.0136152
835.849	0.0137918
835.927	0.0137779
836.005	0.0134672
836.083	0.0137038
836.161	0.0137148
836.239	0.0136869
836.318	0.0136007
836.396	0.0136674
836.474	0.0135983
836.552	0.0135944
836.630	0.0136264
836.708	0.0134808
836.786	0.0134749
836.864	0.0134198
836.943	0.0135713
837.021	0.0135444
837.099	0.0135017
837.177	0.0135639
837.255	0.0134791
837.333	0.0135014
837.411	0.0135022
837.489	0.0135357
837.568	0.0137178
837.646	0.0137039
837.724	0.0135618
837.802	0.0136680
837.880	0.0136311
837.958	0.0138047
838.036	0.0139941
838.114	0.0138956
838.193	0.0139876
838.271	0.0138650
838.349	0.0139760
838.427	0.0140540
838.505	0.0141389
838.583	0.0141696
838.661	0.0141134
838.739	0.0141042
838.818	0.0142110
838.896	0.0143609
838.974	0.0143251
839.052	0.0142493
839.130	0.0143196
839.208	0.0143678
839.286	0.0144871
839.364	0.0142273
839.443	0.0141743
839.521	0.0143041
839.599	0.0142567
839.677	0.0142414
839.755	0.0140977
839.833	0.0140610
839.911	0.0141495
839.989	0.0140806
840.068	0.0138996
840.146	0.0137336
840.224	0.0136768
840.302	0.0136927
840.380	0.0137312
840.458	0.0135458
840.536	0.0133238
840.614	0.0133478
840.693	0.0132664
840.771	0.0133054
840.849	0.0132749
840.927	0.0131555
841.005	0.0131695
841.083	0.0132825
841.161	0.0131979
841.239	0.0131437
841.318	0.0132325
841.396	0.0132220
841.474	0.0133685
841.552	0.0134940
841.630	0.0134593
841.708	0.0134295
841.786	0.0134859
841.864	0.0133374
841.943	0.0134943
842.021	0.0136498
842.099	0.0137392
842.177	0.0136977
842.255	0.0136430
842.333	0.0136958
842.411	0.0138613
842.489	0.0140804
842.568	0.0141451
842.646	0.0139616
842.724	0.0140295
842.802	0.0139118
842.880	0.0138791
842.958	0.0139771
843.036	0.0141029
843.114	0.0139788
843.193	0.0140014
843.271	0.0141766
843.349	0.0141279
843.427	0.0139573
843.505	0.0139368
843.583	0.0139075
843.661	0.0140137
843.739	0.0141495
843.818	0.0140807
843.896	0.0139615
843.974	0.0140800
844.052	0.0141251
844.130	0.0139803
844.208	0.0140636
844.286	0.0140456
844.364	0.0140426
844.443	0.0139742
844.521	0.0139075
844.599	0.0139725
844.677	0.0139104
844.755	0.0138918
844.833	0.0139982
844.911	0.0137894
844.989	0.0138175
845.068	0.0137532
845.146	0.0138567
845.224	0.0139354
845.302	0.0136404
845.380	0.0136378
845.458	0.0136764
845.536	0.0136868
845.614	0.0137545
845.693	0.0136707
845.771	0.0137425
845.849	0.0136382
845.927	0.0136982
846.005	0.0136665
846.083	0.0135564
846.161	0.0137811
846.239	0.0136884
846.318	0.0136399
846.396	0.0135670
846.474	0.0136449
846.552	0.0138311
846.630	0.0137608
846.708	0.0136304
846.786	0.0136406
846.864	0.0139297
846.943	0.0137026
847.021	0.0137217
847.099	0.0138587
847.177	0.0137504
847.255	0.0137531
847.333	0.0138474
847.411	0.0138085
847.489	0.0138950
847.568	0.0138368
847.646	0.0138199
847.724	0.0138891
847.802	0.0139306
847.880	0.0140122
847.958	0.0138725
848.036	0.0138972
848.114	0.0136444
848.193	0.0136905
848.271	0.0137388
848.349	0.0137553
848.427	0.0136734
848.505	0.0136359
848.583	0.0135709
848.661	0.0134649
848.739	0.0136057
848.818	0.0136209
848.896	0.0135217
848.974	0.0133849
849.052	0.0135182
849.130	0.0134261
849.208	0.0135911
849.286	0.0135240
849.364	0.0135996
849.443	0.0135368
849.521	0.0135007
849.599	0.0135536
849.677	0.0135957
849.755	0.0136487
849.833	0.0137886
849.911	0.0139259
849.989	0.0138156
850.068	0.0138364
850.146	0.0138892
850.224	0.0138776
850.302	0.0140159
850.380	0.0141007
850.458	0.0140657
850.536	0.0140399
850.614	0.0141705
850.693	0.0141636
850.771	0.0140360
850.849	0.0140013
850.927	0.0140176
851.005	0.0139902
851.083	0.0140495
851.161	0.0140109
851.239	0.0139145
851.318	0.0138626
851.396	0.0137710
851.474	0.0137727
851.552	0.0136705
851.630	0.0138704
851.708	0.0136367
851.786	0.0135422
851.864	0.0136668
851.943	0.0137426
852.021	0.0136207
852.099	0.0136582
852.177	0.0136446
852.255	0.0136722
852.333	0.0136060
852.411	0.0135013
852.489	0.0135706
852.568	0.0135344
852.646	0.0136567
852.724	0.0135667
852.802	0.0136312
852.880	0.0135529
852.958	0.0136005
853.036	0.0135744
853.114	0.0136511
853.193	0.0136214
853.271	0.0137498
853.349	0.0136284
853.427	0.0137484
853.505	0.0136961
853.583	0.0136649
853.661	0.0137818
853.739	0.0136973
853.818	0.0136624
853.896	0.0136091
853.974	0.0137754
854.052	0.0138017
854.130	0.0136868
854.208	0.0136940
854.286	0.0136163
854.364	0.0137863
854.443	0.0137376
854.521	0.0137054
854.599	0.0137475
854.677	0.0136530
854.755	0.0136063
854.833	0.0136156
854.911	0.0134781
854.989	0.0136105
855.068	0.0136314
855.146	0.0137340
855.224	0.0136489
855.302	0.0137546
855.380	0.0138184
855.458	0.0138248
855.536	0.0136381
855.614	0.0136459
855.693	0.0137896
855.771	0.0136360
855.849	0.0136494
855.927	0.0137145
856.005	0.0137411
856.083	0.0136366
856.161	0.0137963
856.239	0.0135841
856.318	0.0137549
856.396	0.0138385
856.474	0.0136864
856.552	0.0138869
856.630	0.0137225
856.708	0.0136237
856.786	0.0137482
856.864	0.0138063
856.943	0.0137720
857.021	0.0136257
857.099	0.0137612
857.177	0.0137975
857.255	0.0136442
857.333	0.0137146
857.411	0.0137726
857.489	0.0136638
857.568	0.0136734
857.646	0.0138393
857.724	0.0137653
857.802	0.0137354
857.880	0.0136861
857.958	0.0136829
858.036	0.0137272
858.114	0.0135511
858.193	0.0136334
858.271	0.0137470
858.349	0.0137247
858.427	0.0137684
858.505	0.0137025
858.583	0.0136471
858.661	0.0135530
858.739	0.0134903
858.818	0.0136234
858.896	0.0136105
858.974	0.0136995
859.052	0.0135694
859.130	0.0136395
859.208	0.0135711
859.286	0.0134679
859.364	0.0134558
859.443	0.0134023
859.521	0.0135760
859.599	0.0135054
859.677	0.0134634
859.755	0.0135094
859.833	0.0135852
859.911	0.0134322
859.989	0.0135542
860.068	0.0134377
860.146	0.0132715
860.224	0.0136086
860.302	0.0136333
860.380	0.0135597
860.458	0.0136808
860.536	0.0135775
860.614	0.0136163
860.693	0.0137607
860.771	0.0137478
860.849	0.0138425
860.927	0.0140628
861.005	0.0138285
861.083	0.0139638
861.161	0.0138780
861.239	0.0140180
861.318	0.0139645
861.396	0.0139240
861.474	0.0140585
861.552	0.0139836
861.630	0.0138860
861.708	0.0138778
861.786	0.0139568
861.864	0.0140131
861.943	0.0139314
862.021	0.0137617
862.099	0.0139772
862.177	0.0138822
862.255	0.0138274
862.333	0.0139231
862.411	0.0137380
862.489	0.0138667
862.568	0.0139825
862.646	0.0138214
862.724	0.0139198
862.802	0.0138806
862.880	0.0139777
862.958	0.0139489
863.036	0.0139192
863.114	0.0138647
863.193	0.0138898
863.271	0.0139500
863.349	0.0137468
863.427	0.0138969
863.505	0.0138200
863.583	0.0138871
863.661	0.0139468
863.739	0.0137872
863.818	0.0138982
863.896	0.0137818
863.974	0.0137228
864.052	0.0139886
864.130	0.0138959
864.208	0.0136580
864.286	0.0137666
864.364	0.0138375
864.443	0.0136288
864.521	0.0136808
864.599	0.0137948
864.677	0.0137945
864.755	0.0135968
864.833	0.0136871
864.911	0.0135602
864.989	0.0138260
865.068	0.0137777
865.146	0.0135669
865.224	0.0137206
865.302	0.0135925
865.380	0.0138216
865.458	0.0135748
865.536	0.0136854
865.614	0.0137905
865.693	0.0137067
865.771	0.0138964
865.849	0.0137693
865.927	0.0138032
866.005	0.0138603
866.083	0.0139310
866.161	0.0138423
866.239	0.0138426
866.318	0.0140314
866.396	0.0139145
866.474	0.0140490
866.552	0.0139442
866.630	0.0141039
866.708	0.0140321
866.786	0.0139646
866.864	0.0139150
866.943	0.0138342
867.021	0.0138632
867.099	0.0138701
867.177	0.0139555
867.255	0.0140272
867.333	0.0137823
867.411	0.0138608
867.489	0.0138760
867.568	0.0137923
867.646	0.0138467
867.724	0.0137255
867.802	0.0138855
867.880	0.0139668
867.958	0.0138267
868.036	0.0139982
868.114	0.0140739
868.193	0.0141008
868.271	0.0139709
868.349	0.0138704
868.427	0.0139143
868.505	0.0139590
868.583	0.0139849
868.661	0.0139506
868.739	0.0140421
868.818	0.0140485
868.896	0.0141273
868.974	0.0140905
869.052	0.0139544
869.130	0.0139182
869.208	0.0137994
869.286	0.0137836
869.364	0.0138113
869.443	0.0139338
869.521	0.0138940
869.599	0.0137858
869.677	0.0136897
869.755	0.0137524
869.833	0.0136085
869.911	0.0137103
869.989	0.0137771
870.068	0.0136224
870.146	0.0137049
870.224	0.0137271
870.302	0.0137788
870.380	0.0135865
870.458	0.0136691
870.536	0.0136303
870.614	0.0134958
870.693	0.0136277
870.771	0.0135978
870.849	0.0134358
870.927	0.0136498
871.005	0.0135714
871.083	0.0135554
871.161	0.0136461
871.239	0.0135255
871.318	0.0135576
871.396	0.0134975
871.474	0.0134022
871.552	0.0134550
871.630	0.0134673
871.708	0.0134344
871.786	0.0133655
871.864	0.0135355
871.943	0.0133891
872.021	0.0134409
872.099	0.0135789
872.177	0.0135317
872.255	0.0134691
872.333	0.0134810
872.411	0.0136240
872.489	0.0135317
872.568	0.0134380
872.646	0.0136929
872.724	0.0136773
872.802	0.0135993
872.880	0.0137779
872.958	0.0137596
873.036	0.0137488
873.114	0.0138417
873.193	0.0138570
873.271	0.0139828
873.349	0.0139354
873.427	0.0138885
873.505	0.0137943
873.583	0.0139539
873.661	0.0139426
873.739	0.0139429
873.818	0.0140273
873.896	0.0139493
873.974	0.0140406
874.052	0.0140419
874.130	0.0138450
874.208	0.0139848
874.286	0.0140209
874.364	0.0137632
874.443	0.0139357
874.521	0.0138261
874.599	0.0138572
874.677	0.0138544
874.755	0.0137244
874.833	0.0135658
874.911	0.0136407
874.989	0.0135534
875.068	0.0136475
875.146	0.0136269
875.224	0.0135509
875.302	0.0136414
875.380	0.0134200
875.458	0.0134138
875.536	0.0134761
875.614	0.0136053
875.693	0.0133679
875.771	0.0134153
875.849	0.0132143
875.927	0.0133818
876.005	0.0133753
876.083	0.0133943
876.161	0.0133829
876.239	0.0134013
876.318	0.0135744
876.396	0.0135170
876.474	0.0136613
876.552	0.0137308
876.630	0.0136535
876.708	0.0139163
876.786	0.0136228
876.864	0.0138410
876.943	0.0139335
877.021	0.0139877
877.099	0.0139605
877.177	0.0139963
877.255	0.0137773
877.333	0.0137539
877.411	0.0138958
877.489	0.0138297
877.568	0.0136977
877.646	0.0138093
877.724	0.0137524
877.802	0.0136549
877.880	0.0137057
877.958	0.0137619
878.036	0.0135553
878.114	0.0135770
878.193	0.0137276
878.271	0.0136432
878.349	0.0135278
878.427	0.0135207
878.505	0.0136044
878.583	0.0136571
878.661	0.0135757
878.739	0.0134158
878.818	0.0135504
878.896	0.0136179
878.974	0.0136362
879.052	0.0136895
879.130	0.0137606
879.208	0.0135384
879.286	0.0137270
879.364	0.0137584
879.443	0.0136629
879.521	0.0137065
879.599	0.0138467
879.677	0.0137785
879.755	0.0138665
879.833	0.0138992
879.911	0.0139008
879.989	0.0138645
880.068	0.0137534
880.146	0.0138412
880.224	0.0137906
880.302	0.0138564
880.380	0.0140229
880.458	0.0138201
880.536	0.0138489
880.614	0.0138855
880.693	0.0137656
880.771	0.0136723
880.849	0.0136409
880.927	0.0136006
881.005	0.0137124
881.083	0.0135963
881.161	0.0136284
881.239	0.0135789
881.318	0.0135260
881.396	0.0136022
881.474	0.0135745
881.552	0.0134806
881.630	0.0135435
881.708	0.0136166
881.786	0.0136364
881.864	0.0136429
881.943	0.0136044
882.021	0.0136216
882.099	0.0136234
882.177	0.0135217
882.255	0.0136739
882.333	0.0136370
882.411	0.0135497
882.489	0.0136391
882.568	0.0135609
882.646	0.0135101
882.724	0.0135732
882.802	0.0136077
882.880	0.0137508
882.958	0.0137876
883.036	0.0136997
883.114	0.0137130
883.193	0.0138463
883.271	0.0137781
883.349	0.0138165
883.427	0.0138653
883.505	0.0139416
883.583	0.0139337
883.661	0.0138996
883.739	0.0139133
883.818	0.0139230
883.896	0.0138874
883.974	0.0137877
884.052	0.0138814
884.130	0.0138157
884.208	0.0138514
884.286	0.0139645
884.364	0.0138978
884.443	0.0138950
884.521	0.0138723
884.599	0.0137399
884.677	0.0138111
884.755	0.0137583
884.833	0.0138582
884.911	0.0138699
884.989	0.0136579
885.068	0.0137019
885.146	0.0137958
885.224	0.0139082
885.302	0.0138078
885.380	0.0137026
885.458	0.0135595
885.536	0.0136566
885.614	0.0135795
885.693	0.0136943
885.771	0.0136906
885.849	0.0136156
885.927	0.0135775
886.005	0.0135619
886.083	0.0136184
886.161	0.0136523
886.239	0.0135487
886.318	0.0136852
886.396	0.0136612
886.474	0.0135179
886.552	0.0137484
886.630	0.0136546
886.708	0.0136727
886.786	0.0137620
886.864	0.0135438
886.943	0.0139352
887.021	0.0137817
887.099	0.0138799
887.177	0.0138878
887.255	0.0138572
887.333	0.0138599
887.411	0.0139769
887.489	0.0140378
887.568	0.0140678
887.646	0.0140231
887.724	0.0140926
887.802	0.0139033
887.880	0.0139889
887.958	0.0138864
888.036	0.0138713
888.114	0.0137547
888.193	0.0139412
888.271	0.0139330
888.349	0.0139297
888.427	0.0138133
888.505	0.0138961
888.583	0.0138850
888.661	0.0138871
888.739	0.0137939
888.818	0.0138425
888.896	0.0138100
888.974	0.0139510
889.052	0.0141297
889.130	0.0139741
889.208	0.0139175
889.286	0.0138832
889.364	0.0139539
889.443	0.0139635
889.521	0.0139983
889.599	0.0139380
889.677	0.0138896
889.755	0.0139525
889.833	0.0138189
889.911	0.0138235
889.989	0.0138408
890.068	0.0137639
890.146	0.0136854
890.224	0.0136101
890.302	0.0136155
890.380	0.0136004
890.458	0.0135116
890.536	0.0134420
890.614	0.0134000
890.693	0.0133772
890.771	0.0134008
890.849	0.0133207
890.927	0.0134631
891.005	0.0133868
891.083	0.0132491
891.161	0.0133822
891.239	0.0135178
891.318	0.0135516
891.396	0.0135347
891.474	0.0136505
891.552	0.0137271
891.630	0.0137748
891.708	0.0137686
891.786	0.0140224
891.864	0.0140607
891.943	0.0140105
892.021	0.0140823
892.099	0.0142669
892.177	0.0141273
892.255	0.0142554
892.333	0.0142723
892.411	0.0142406
892.489	0.0143253
892.568	0.0143619
892.646	0.0142525
892.724	0.0141069
892.802	0.0141732
892.880	0.0141943
892.958	0.0140968
893.036	0.0139811
893.114	0.0139797
893.193	0.0139680
893.271	0.0139483
893.349	0.0138377
893.427	0.0137926
893.505	0.0136093
893.583	0.0135439
893.661	0.0135530
893.739	0.0135592
893.818	0.0136008
893.896	0.0135862
893.974	0.0136107
894.052	0.0133241
894.130	0.0133350
894.208	0.0133592
894.286	0.0134294
894.364	0.0133873
894.443	0.0132391
894.521	0.0132545
894.599	0.0133491
894.677	0.0134675
894.755	0.0133160
894.833	0.0133747
894.911	0.0135200
894.989	0.0134041
895.068	0.0134888
895.146	0.0136874
895.224	0.0136357
895.302	0.0137545
895.380	0.0139130
895.458	0.0138958
895.536	0.0137696
895.614	0.0138965
895.693	0.0138490
895.771	0.0139606
895.849	0.0139515
895.927	0.0142339
896.005	0.0141217
896.083	0.0140929
896.161	0.0139864
896.239	0.0139906
896.318	0.0139807
896.396	0.0139105
896.474	0.0140273
896.552	0.0140627
896.630	0.0140810
896.708	0.0139490
896.786	0.0139780
896.864	0.0139468
896.943	0.0138970
897.021	0.0137916
897.099	0.0137575
897.177	0.0137096
897.255	0.0137404
897.333	0.0136375
897.411	0.0136277
897.489	0.0136578
897.568	0.0135436
897.646	0.0135458
897.724	0.0134151
897.802	0.0135771
897.880	0.0135203
897.958	0.0135010
898.036	0.0135587
898.114	0.0134679
898.193	0.0135464
898.271	0.0135211
898.349	0.0133630
898.427	0.0135317
898.505	0.0134754
898.583	0.0136303
898.661	0.0137065
898.739	0.0137426
898.818	0.0138608
898.896	0.0138579
898.974	0.0140010
899.052	0.0138890
899.130	0.0139841
899.208	0.0140046
899.286	0.0142003
899.364	0.0142365
899.443	0.0141956
899.521	0.0143510
899.599	0.0142184
899.677	0.0143179
899.755	0.0143835
899.833	0.0142010
899.911	0.0142007
899.989	0.0142809
900.068	0.0141016
900.146	0.0142499
900.224	0.0141535
900.302	0.0139271
900.380	0.0139818
900.458	0.0140339
900.536	0.0140468
900.614	0.0139309
900.693	0.0138251
900.771	0.0138560
900.849	0.0138091
900.927	0.0137144
901.005	0.0137336
901.083	0.0136145
901.161	0.0137138
901.239	0.0136577
901.318	0.0136690
901.396	0.0134908
901.474	0.0135193
901.552	0.0135377
901.630	0.0133591
901.708	0.0134531
901.786	0.0134547
901.864	0.0135693
901.943	0.0135484
902.021	0.0134945
902.099	0.0133330
902.177	0.0135583
902.255	0.0135537
902.333	0.0134306
902.411	0.0135976
902.489	0.0137196
902.568	0.0135739
902.646	0.0136452
902.724	0.0138003
902.802	0.0136864
902.880	0.0136979
902.958	0.0138789
903.036	0.0138908
903.114	0.0138802
903.193	0.0138194
903.271	0.0139915
903.349	0.0140208
903.427	0.0139886
903.505	0.0138712
903.583	0.0140406
903.661	0.0140386
903.739	0.0141460
903.818	0.0141500
903.896	0.0139956
903.974	0.0140984
904.052	0.0141070
904.130	0.0141248
904.208	0.0141257
904.286	0.0141611
904.364	0.0139377
904.443	0.0140332
904.521	0.0139271
904.599	0.0140668
904.677	0.0138969
904.755	0.0138470
904.833	0.0138538
904.911	0.0137570
904.989	0.0137903
905.068	0.0136021
905.146	0.0137544
905.224	0.0137559
905.302	0.0135403
905.380	0.0136221
905.458	0.0136812
905.536	0.0135841
905.614	0.0136008
905.693	0.0134818
905.771	0.0135199
905.849	0.0136370
905.927	0.0135906
906.005	0.0134937
906.083	0.0136372
906.161	0.0136499
906.239	0.0135130
906.318	0.0137431
906.396	0.0136472
906.474	0.0136811
906.552	0.0137968
906.630	0.0138170
906.708	0.0138205
906.786	0.0137707
906.864	0.0137532
906.943	0.0137737
907.021	0.0138782
907.099	0.0138076
907.177	0.0138284
907.255	0.0138567
907.333	0.0138161
907.411	0.0136395
907.489	0.0137843
907.568	0.0136546
907.646	0.0136079
907.724	0.0137146
907.802	0.0137106
907.880	0.0135328
907.958	0.0137370
908.036	0.0134764
908.114	0.0136510
908.193	0.0133910
908.271	0.0135635
908.349	0.0135306
908.427	0.0135355
908.505	0.0135559
908.583	0.0135438
908.661	0.0135653
908.739	0.0136012
908.818	0.0135187
908.896	0.0135217
908.974	0.0135851
909.052	0.0136465
909.130	0.0137173
909.208	0.0136683
909.286	0.0138412
909.364	0.0137192
909.443	0.0137202
909.521	0.0137686
909.599	0.0137952
909.677	0.0138421
909.755	0.0139036
909.833	0.0139342
909.911	0.0138886
909.989	0.0139468
910.068	0.0139408
910.146	0.0139383
910.224	0.0138954
910.302	0.0139635
910.380	0.0139777
910.458	0.0139299
910.536	0.0138192
910.614	0.0139328
910.693	0.0138791
910.771	0.0139760
910.849	0.0138623
910.927	0.0139627
911.005	0.0139239
911.083	0.0139091
911.161	0.0136584
911.239	0.0136420
911.318	0.0137965
911.396	0.0136427
911.474	0.0137253
911.552	0.0137095
911.630	0.0136080
911.708	0.0134344
911.786	0.0135285
911.864	0.0135602
911.943	0.0135494
912.021	0.0135865
912.099	0.0136063
912.177	0.0134788
912.255	0.0135620
912.333	0.0137333
912.411	0.0136491
912.489	0.0136852
912.568	0.0135783
912.646	0.0138780
912.724	0.0137810
912.802	0.0138115
912.880	0.0136953
912.958	0.0138120
913.036	0.0138634
913.114	0.0138239
913.193	0.0138073
913.271	0.0137660
913.349	0.0137310
913.427	0.0138732
913.505	0.0136805
913.583	0.0136076
913.661	0.0136518
913.739	0.0137218
913.818	0.0136454
913.896	0.0136517
913.974	0.0135188
914.052	0.0136839
914.130	0.0135674
914.208	0.0135520
914.286	0.0136153
914.364	0.0136728
914.443	0.0138106
914.521	0.0137276
914.599	0.0137219
914.677	0.0137243
914.755	0.0137137
914.833	0.0137319
914.911	0.0138860
914.989	0.0138557
915.068	0.0138802
915.146	0.0138841
915.224	0.0138187
915.302	0.0139896
915.380	0.0139050
915.458	0.0139208
915.536	0.0139096
915.614	0.0138468
915.693	0.0137305
915.771	0.0137875
915.849	0.0136435
915.927	0.0137167
916.005	0.0136781
916.083	0.0137372
916.161	0.0137451
916.239	0.0136948
916.318	0.0136509
916.396	0.0138064
916.474	0.0135678
916.552	0.0137099
916.630	0.0136826
916.708	0.0137457
916.786	0.0137562
916.864	0.0138663
916.943	0.0138716
917.021	0.0137912
917.099	0.0137444
917.177	0.0138371
917.255	0.0139131
917.333	0.0140262
917.411	0.0136794
917.489	0.0138171
917.568	0.0136987
917.646	0.0138412
917.724	0.0138480
917.802	0.0139001
917.880	0.0138147
917.958	0.0138157
918.036	0.0138852
918.114	0.0138548
918.193	0.0139927
918.271	0.0138778
918.349	0.0137666
918.427	0.0136906
918.505	0.0138108
918.583	0.0136535
918.661	0.0137970
918.739	0.0137218
918.818	0.0137512
918.896	0.0138362
918.974	0.0136728
919.052	0.0138213
919.130	0.0137198
919.208	0.0135387
919.286	0.0136646
919.364	0.0135538
919.443	0.0135176
919.521	0.0136224
919.599	0.0136909
919.677	0.0136949
919.755	0.0135613
919.833	0.0136871
919.911	0.0137818
919.989	0.0136788
920.068	0.0136959
920.146	0.0138369
920.224	0.0137671
920.302	0.0137319
920.380	0.0139429
920.458	0.0138013
920.536	0.0137150
920.614	0.0137806
920.693	0.0139313
920.771	0.0138528
920.849	0.0136785
920.927	0.0138657
921.005	0.0137544
921.083	0.0138200
921.161	0.0136686
921.239	0.0137221
921.318	0.0138509
921.396	0.0136719
921.474	0.0136282
921.552	0.0137724
921.630	0.0137716
921.708	0.0137246
921.786	0.0138716
921.864	0.0137750
921.943	0.0137220
922.021	0.0137599
922.099	0.0139324
922.177	0.0136314
922.255	0.0137823
922.333	0.0139191
922.411	0.0136668
922.489	0.0138303
922.568	0.0139059
922.646	0.0138762
922.724	0.0139934
922.802	0.0138937
922.880	0.0139398
922.958	0.0138831
923.036	0.0138902
923.114	0.0139314
923.193	0.0138469
923.271	0.0139421
923.349	0.0138996
923.427	0.0139275
923.505	0.0140539
923.583	0.0139447
923.661	0.0138728
923.739	0.0139235
923.818	0.0139191
923.896	0.0138757
923.974	0.0138655
924.052	0.0138612
924.130	0.0138262
924.208	0.0138855
924.286	0.0137661
924.364	0.0137552
924.443	0.0139581
924.521	0.0137859
924.599	0.0138372
924.677	0.0137656
924.755	0.0138260
924.833	0.0138349
924.911	0.0138019
924.989	0.0137490
925.068	0.0137737
925.146	0.0138104
925.224	0.0137262
925.302	0.0137012
925.380	0.0136134
925.458	0.0136729
925.536	0.0136823
925.614	0.0135727
925.693	0.0135309
925.771	0.0134869
925.849	0.0134937
925.927	0.0135509
926.005	0.0135752
926.083	0.0134611
926.161	0.0135654
926.239	0.0136059
926.318	0.0136137
926.396	0.0136482
926.474	0.0135401
926.552	0.0135367
926.630	0.0135949
926.708	0.0136906
926.786	0.0136573
926.864	0.0137372
926.943	0.0136375
927.021	0.0136066
927.099	0.0135801
927.177	0.0137495
927.255	0.0137907
927.333	0.0138503
927.411	0.0138418
927.489	0.0138182
927.568	0.0137417
927.646	0.0138836
927.724	0.0138351
927.802	0.0139396
927.880	0.0139208
927.958	0.0139206
928.036	0.0139910
928.114	0.0139959
928.193	0.0140661
928.271	0.0138770
928.349	0.0139308
928.427	0.0140609
928.505	0.0139568
928.583	0.0139756
928.661	0.0140581
928.739	0.0140101
928.818	0.0140426
928.896	0.0140272
928.974	0.0139951
929.052	0.0140696
929.130	0.0140466
929.208	0.0139560
929.286	0.0140542
929.364	0.0138335
929.443	0.0137873
929.521	0.0138137
929.599	0.0138792
929.677	0.0139114
929.755	0.0137357
929.833	0.0137582
929.911	0.0137303
929.989	0.0135677
930.068	0.0135963
930.146	0.0137137
930.224	0.0136432
930.302	0.0135091
930.380	0.0136212
930.458	0.0135699
930.536	0.0135410
930.614	0.0135117
930.693	0.0135118
930.771	0.0135069
930.849	0.0133911
930.927	0.0133957
931.005	0.0134544
931.083	0.0134709
931.161	0.0135458
931.239	0.0135352
931.318	0.0134899
931.396	0.0135269
931.474	0.0134004
931.552	0.0135338
931.630	0.0135844
931.708	0.0134158
931.786	0.0135722
931.864	0.0137063
931.943	0.0137260
932.021	0.0136866
932.099	0.0137601
932.177	0.0137886
932.255	0.0137994
932.333	0.0139314
932.411	0.0137926
932.489	0.0140202
932.568	0.0138554
932.646	0.0138093
932.724	0.0139548
932.802	0.0140915
932.880	0.0140158
932.958	0.0139694
933.036	0.0140015
933.114	0.0139032
933.193	0.0138378
933.271	0.0140029
933.349	0.0139309
933.427	0.0138007
933.505	0.0138318
933.583	0.0137666
933.661	0.0136880
933.739	0.0136630
933.818	0.0138107
933.896	0.0136385
933.974	0.0135491
934.052	0.0136198
934.130	0.0136125
934.208	0.0136230
934.286	0.0134937
934.364	0.0136352
934.443	0.0136962
934.521	0.0133875
934.599	0.0134898
934.677	0.0136445
934.755	0.0137777
934.833	0.0137114
934.911	0.0136446
934.989	0.0136926
935.068	0.0137127
935.146	0.0135937
935.224	0.0136538
935.302	0.0137263
935.380	0.0137088
935.458	0.0137885
935.536	0.0136862
935.614	0.0135934
935.693	0.0135612
935.771	0.0137085
935.849	0.0138115
935.927	0.0136349
936.005	0.0136703
936.083	0.0136575
936.161	0.0137509
936.239	0.0135802
936.318	0.0136594
936.396	0.0138028
936.474	0.0137449
936.552	0.0137392
936.630	0.0137300
936.708	0.0137452
936.786	0.0137342
936.864	0.0136939
936.943	0.0136139
937.021	0.0136086
937.099	0.0135187
937.177	0.0136000
937.255	0.0136275
937.333	0.0135792
937.411	0.0136057
937.489	0.0134850
937.568	0.0133488
937.646	0.0133351
937.724	0.0134311
937.802	0.0134155
937.880	0.0134576
937.958	0.0133363
938.036	0.0134931
938.114	0.0135036
938.193	0.0134804
938.271	0.0134769
938.349	0.0135180
938.427	0.0134392
938.505	0.0134750
938.583	0.0134989
938.661	0.0136678
938.739	0.0136442
938.818	0.0137101
938.896	0.0136295
938.974	0.0137170
939.052	0.0137908
939.130	0.0137693
939.208	0.0137982
939.286	0.0136205
939.364	0.0139021
939.443	0.0137457
939.521	0.0138380
939.599	0.0137402
939.677	0.0137280
939.755	0.0138272
939.833	0.0137267
939.911	0.0136675
939.989	0.0136837
940.068	0.0136632
940.146	0.0137882
940.224	0.0137212
940.302	0.0135752
940.380	0.0136182
940.458	0.0136726
940.536	0.0136472
940.614	0.0137600
940.693	0.0138440
940.771	0.0136586
940.849	0.0137440
940.927	0.0138665
941.005	0.0138792
941.083	0.0139025
941.161	0.0136552
941.239	0.0136805
941.318	0.0137492
941.396	0.0136636
941.474	0.0136993
941.552	0.0137465
941.630	0.0139005
941.708	0.0137386
941.786	0.0136275
941.864	0.0135859
941.943	0.0136263
942.021	0.0136612
942.099	0.0136736
942.177	0.0137476
942.255	0.0136633
942.333	0.0136291
942.411	0.0137282
942.489	0.0136671
942.568	0.0137041
942.646	0.0135225
942.724	0.0135000
942.802	0.0135372
942.880	0.0137012
942.958	0.0135950
943.036	0.0136674
943.114	0.0137007
943.193	0.0137582
943.271	0.0137406
943.349	0.0135330
943.427	0.0135722
943.505	0.0136964
943.583	0.0136697
943.661	0.0136797
943.739	0.0136699
943.818	0.0137063
943.896	0.0136698
943.974	0.0136291
944.052	0.0138441
944.130	0.0137148
944.208	0.0137250
944.286	0.0136798
944.364	0.0136935
944.443	0.0137261
944.521	0.0138057
944.599	0.0137160
944.677	0.0136777
944.755	0.0136839
944.833	0.0137508
944.911	0.0136557
944.989	0.0137144
945.068	0.0137540
945.146	0.0137505
945.224	0.0137578
945.302	0.0137440
945.380	0.0137525
945.458	0.0137749
945.536	0.0137852
945.614	0.0138480
945.693	0.0137418
945.771	0.0137146
945.849	0.0137601
945.927	0.0138152
946.005	0.0138244
946.083	0.0137479
946.161	0.0138161
946.239	0.0138730
946.318	0.0138863
946.396	0.0137684
946.474	0.0139016
946.552	0.0138415
946.630	0.0137973
946.708	0.0139261
946.786	0.0139340
946.864	0.0139872
946.943	0.0140118
947.021	0.0140968
947.099	0.0140391
947.177	0.0139487
947.255	0.0140125
947.333	0.0140540
947.411	0.0139550
947.489	0.0139385
947.568	0.0140478
947.646	0.0139938
947.724	0.0139494
947.802	0.0139878
947.880	0.0138542
947.958	0.0139192
948.036	0.0139725
948.114	0.0139250
948.193	0.0138307
948.271	0.0137854
948.349	0.0138293
948.427	0.0136700
948.505	0.0138286
948.583	0.0139458
948.661	0.0138087
948.739	0.0138514
948.818	0.0136492
948.896	0.0137075
948.974	0.0136903
949.052	0.0136987
949.130	0.0136083
949.208	0.0135126
949.286	0.0135564
949.364	0.0134776
949.443	0.0137595
949.521	0.0134919
949.599	0.0135307
949.677	0.0136450
949.755	0.0135701
949.833	0.0136124
949.911	0.0136702
949.989	0.0137005
950.068	0.0135925
950.146	0.0136317
950.224	0.0138036
950.302	0.0137384
950.380	0.0137740
950.458	0.0136337
950.536	0.0137603
950.614	0.0139002
950.693	0.0137859
950.771	0.0137559
950.849	0.0138597
950.927	0.0138290
951.005	0.0139494
951.083	0.0140082
951.161	0.0140182
951.239	0.0138203
951.318	0.0138376
951.396	0.0138303
951.474	0.0139004
951.552	0.0139365
951.630	0.0139802
951.708	0.0138383
951.786	0.0139418
951.864	0.0138988
951.943	0.0138754
952.021	0.0139733
952.099	0.0138262
952.177	0.0139400
952.255	0.0139231
952.333	0.0137405
952.411	0.0137941
952.489	0.0137678
952.568	0.0138654
952.646	0.0137212
952.724	0.0137589
952.802	0.0137405
952.880	0.0138351
952.958	0.0137920
953.036	0.0135585
953.114	0.0137875
953.193	0.0138343
953.271	0.0136815
953.349	0.0137759
953.427	0.0136954
953.505	0.0137016
953.583	0.0137905
953.661	0.0136514
953.739	0.0136903
953.818	0.0138084
953.896	0.0137823
953.974	0.0137148
954.052	0.0137608
954.130	0.0136305
954.208	0.0138095
954.286	0.0136066
954.364	0.0135920
954.443	0.0136362
954.521	0.0136681
954.599	0.0135951
954.677	0.0135181
954.755	0.0134857
954.833	0.0135909
954.911	0.0134922
954.989	0.0135720
955.068	0.0136115
955.146	0.0135748
955.224	0.0136425
955.302	0.0135948
955.380	0.0136108
955.458	0.0136643
955.536	0.0135835
955.614	0.0135316
955.693	0.0136723
955.771	0.0137492
955.849	0.0137487
955.927	0.0137278
956.005	0.0137628
956.083	0.0137521
956.161	0.0136456
956.239	0.0137453
956.318	0.0137724
956.396	0.0137842
956.474	0.0137151
956.552	0.0136684
956.630	0.0136932
956.708	0.0136540
956.786	0.0136652
956.864	0.0136144
956.943	0.0136940
957.021	0.0137418
957.099	0.0136454
957.177	0.0136988
957.255	0.0137704
957.333	0.0136568
957.411	0.0136185
957.489	0.0137492
957.568	0.0137289
957.646	0.0137229
957.724	0.0137140
957.802	0.0137355
957.880	0.0138209
957.958	0.0137503
958.036	0.0138099
958.114	0.0137556
958.193	0.0138123
958.271	0.0138235
958.349	0.0138186
958.427	0.0139124
958.505	0.0138358
958.583	0.0138103
958.661	0.0137505
958.739	0.0138064
958.818	0.0138455
958.896	0.0137138
958.974	0.0137272
959.052	0.0137667
959.130	0.0138142
959.208	0.0138380
959.286	0.0137358
959.364	0.0140229
959.443	0.0139448
959.521	0.0138728
959.599	0.0138966
959.677	0.0138108
959.755	0.0138943
959.833	0.0137544
959.911	0.0138758
