05/14/2022	16:38:42	Ver.	4.1	UNKNOWN
Optical Delay	639.989416	Delta X		0.078125	Sweeps	1	Scan Rate	0/0
Coordinates	Axis 1	NaN	Axis 2	NaN	Axis 3	NaN	Axis 4	NaN	Axis 5	NaN	Axis 6	0.000000
TX Power	0.000000	RX Power	0.000000

639.989	0.0137565
640.068	0.0137320
640.146	0.0138584
640.224	0.0137000
640.302	0.0136533
640.380	0.0137823
640.458	0.0136995
640.536	0.0135587
640.614	0.0137688
640.693	0.0136475
640.771	0.0136614
640.849	0.0137256
640.927	0.0137445
641.005	0.0138360
641.083	0.0136296
641.161	0.0137489
641.239	0.0136674
641.318	0.0137704
641.396	0.0137309
641.474	0.0137847
641.552	0.0136514
641.630	0.0137612
641.708	0.0137589
641.786	0.0138078
641.864	0.0138802
641.943	0.0137379
642.021	0.0136646
642.099	0.0136459
642.177	0.0138789
642.255	0.0138478
642.333	0.0138844
642.411	0.0138228
642.489	0.0138484
642.568	0.0138527
642.646	0.0138306
642.724	0.0137431
642.802	0.0139310
642.880	0.0136202
642.958	0.0138196
643.036	0.0137008
643.114	0.0137408
643.193	0.0137124
643.271	0.0138206
643.349	0.0138336
643.427	0.0138307
643.505	0.0138052
643.583	0.0137964
643.661	0.0137014
643.739	0.0137732
643.818	0.0137001
643.896	0.0138503
643.974	0.0137383
644.052	0.0137704
644.130	0.0137520
644.208	0.0137319
644.286	0.0138508
644.364	0.0136768
644.443	0.0138504
644.521	0.0138006
644.599	0.0138853
644.677	0.0136618
644.755	0.0136425
644.833	0.0137792
644.911	0.0138300
644.989	0.0138591
645.068	0.0137852
645.146	0.0137635
645.224	0.0139008
645.302	0.0138024
645.380	0.0138657
645.458	0.0138774
645.536	0.0138340
645.614	0.0137618
645.693	0.0136875
645.771	0.0136587
645.849	0.0137125
645.927	0.0136025
646.005	0.0137166
646.083	0.0137656
646.161	0.0137278
646.239	0.0136695
646.318	0.0136243
646.396	0.0137817
646.474	0.0137818
646.552	0.0136399
646.630	0.0136517
646.708	0.0139424
646.786	0.0137393
646.864	0.0137427
646.943	0.0136639
647.021	0.0137653
647.099	0.0138103
647.177	0.0136993
647.255	0.0137815
647.333	0.0137923
647.411	0.0136673
647.489	0.0137263
647.568	0.0137944
647.646	0.0136060
647.724	0.0137366
647.802	0.0137873
647.880	0.0137746
647.958	0.0138305
648.036	0.0136397
648.114	0.0135287
648.193	0.0136672
648.271	0.0136166
648.349	0.0137621
648.427	0.0136774
648.505	0.0137341
648.583	0.0138506
648.661	0.0136608
648.739	0.0136790
648.818	0.0137135
648.896	0.0135758
648.974	0.0137957
649.052	0.0138276
649.130	0.0137933
649.208	0.0136047
649.286	0.0137444
649.364	0.0137185
649.443	0.0136427
649.521	0.0135788
649.599	0.0136422
649.677	0.0136750
649.755	0.0137216
649.833	0.0136077
649.911	0.0135596
649.989	0.0137230
650.068	0.0136909
650.146	0.0136910
650.224	0.0138034
650.302	0.0137967
650.380	0.0137043
650.458	0.0135709
650.536	0.0137757
650.614	0.0136980
650.693	0.0136893
650.771	0.0137442
650.849	0.0137683
650.927	0.0136020
651.005	0.0137238
651.083	0.0136656
651.161	0.0137708
651.239	0.0136488
651.318	0.0136721
651.396	0.0135873
651.474	0.0135496
651.552	0.0136160
651.630	0.0137442
651.708	0.0137493
651.786	0.0135944
651.864	0.0136945
651.943	0.0136526
652.021	0.0137370
652.099	0.0135622
652.177	0.0135494
652.255	0.0136591
652.333	0.0136967
652.411	0.0136265
652.489	0.0136517
652.568	0.0136968
652.646	0.0135597
652.724	0.0136469
652.802	0.0136432
652.880	0.0136487
652.958	0.0136559
653.036	0.0135156
653.114	0.0135305
653.193	0.0135890
653.271	0.0135663
653.349	0.0137815
653.427	0.0136116
653.505	0.0137262
653.583	0.0135135
653.661	0.0135369
653.739	0.0136519
653.818	0.0137121
653.896	0.0136122
653.974	0.0136302
654.052	0.0134909
654.130	0.0136546
654.208	0.0136063
654.286	0.0135594
654.364	0.0136280
654.443	0.0136968
654.521	0.0136845
654.599	0.0135155
654.677	0.0137904
654.755	0.0135750
654.833	0.0136848
654.911	0.0136795
654.989	0.0137417
655.068	0.0135835
655.146	0.0137180
655.224	0.0136369
655.302	0.0137221
655.380	0.0136662
655.458	0.0136150
655.536	0.0135705
655.614	0.0137087
655.693	0.0138509
655.771	0.0136674
655.849	0.0135477
655.927	0.0137574
656.005	0.0136856
656.083	0.0136755
656.161	0.0136109
656.239	0.0135925
656.318	0.0136920
656.396	0.0136441
656.474	0.0136592
656.552	0.0136641
656.630	0.0138445
656.708	0.0136739
656.786	0.0136938
656.864	0.0136027
656.943	0.0137137
657.021	0.0138512
657.099	0.0138211
657.177	0.0137001
657.255	0.0135735
657.333	0.0136807
657.411	0.0136844
657.489	0.0137810
657.568	0.0136681
657.646	0.0137207
657.724	0.0136816
657.802	0.0137395
657.880	0.0136790
657.958	0.0136169
658.036	0.0137429
658.114	0.0136622
658.193	0.0135793
658.271	0.0137142
658.349	0.0138140
658.427	0.0137087
658.505	0.0136837
658.583	0.0136295
658.661	0.0136748
658.739	0.0136350
658.818	0.0137145
658.896	0.0137877
658.974	0.0138427
659.052	0.0138599
659.130	0.0137402
659.208	0.0138344
659.286	0.0136378
659.364	0.0137683
659.443	0.0136638
659.521	0.0137769
659.599	0.0138327
659.677	0.0137408
659.755	0.0136351
659.833	0.0136472
659.911	0.0139169
659.989	0.0138380
660.068	0.0136405
660.146	0.0137669
660.224	0.0137857
660.302	0.0137938
660.380	0.0138115
660.458	0.0137097
660.536	0.0137879
660.614	0.0137578
660.693	0.0135708
660.771	0.0136671
660.849	0.0136395
660.927	0.0137457
661.005	0.0137405
661.083	0.0135627
661.161	0.0138023
661.239	0.0138165
661.318	0.0136803
661.396	0.0138030
661.474	0.0136536
661.552	0.0137472
661.630	0.0138387
661.708	0.0138682
661.786	0.0137403
661.864	0.0137876
661.943	0.0138338
662.021	0.0136955
662.099	0.0136957
662.177	0.0136290
662.255	0.0137726
662.333	0.0136881
662.411	0.0137695
662.489	0.0137868
662.568	0.0135610
662.646	0.0135851
662.724	0.0136412
662.802	0.0136951
662.880	0.0137234
662.958	0.0137222
663.036	0.0137151
663.114	0.0136648
663.193	0.0137125
663.271	0.0136031
663.349	0.0138499
663.427	0.0137664
663.505	0.0137300
663.583	0.0138381
663.661	0.0137901
663.739	0.0137439
663.818	0.0136392
663.896	0.0137041
663.974	0.0137590
664.052	0.0136346
664.130	0.0135438
664.208	0.0135320
664.286	0.0134232
664.364	0.0136526
664.443	0.0136245
664.521	0.0137444
664.599	0.0134927
664.677	0.0135569
664.755	0.0136397
664.833	0.0136680
664.911	0.0136611
664.989	0.0137407
665.068	0.0136684
665.146	0.0137794
665.224	0.0137211
665.302	0.0137074
665.380	0.0136460
665.458	0.0137163
665.536	0.0136800
665.614	0.0137400
665.693	0.0137981
665.771	0.0137908
665.849	0.0136700
665.927	0.0137831
666.005	0.0137088
666.083	0.0138211
666.161	0.0136031
666.239	0.0137177
666.318	0.0137405
666.396	0.0137228
666.474	0.0136475
666.552	0.0137785
666.630	0.0136262
666.708	0.0137209
666.786	0.0137719
666.864	0.0136665
666.943	0.0138172
667.021	0.0137946
667.099	0.0137314
667.177	0.0136827
667.255	0.0138263
667.333	0.0138676
667.411	0.0138169
667.489	0.0137952
667.568	0.0137125
667.646	0.0136858
667.724	0.0136697
667.802	0.0137614
667.880	0.0138348
667.958	0.0136729
668.036	0.0137064
668.114	0.0137235
668.193	0.0137407
668.271	0.0137486
668.349	0.0138189
668.427	0.0136498
668.505	0.0136827
668.583	0.0136868
668.661	0.0137067
668.739	0.0136692
668.818	0.0136541
668.896	0.0135762
668.974	0.0137280
669.052	0.0137027
669.130	0.0134848
669.208	0.0137062
669.286	0.0137681
669.364	0.0135280
669.443	0.0135860
669.521	0.0136777
669.599	0.0136316
669.677	0.0135900
669.755	0.0137154
669.833	0.0135964
669.911	0.0135612
669.989	0.0136047
670.068	0.0136298
670.146	0.0135244
670.224	0.0135033
670.302	0.0136563
670.380	0.0135732
670.458	0.0136607
670.536	0.0136729
670.614	0.0136357
670.693	0.0136617
670.771	0.0135088
670.849	0.0136438
670.927	0.0135859
671.005	0.0135201
671.083	0.0136211
671.161	0.0136699
671.239	0.0137324
671.318	0.0137283
671.396	0.0137756
671.474	0.0137884
671.552	0.0137612
671.630	0.0137206
671.708	0.0137059
671.786	0.0137360
671.864	0.0138383
671.943	0.0137318
672.021	0.0138264
672.099	0.0136781
672.177	0.0136952
672.255	0.0137620
672.333	0.0137547
672.411	0.0136429
672.489	0.0136987
672.568	0.0136671
672.646	0.0137367
672.724	0.0137578
672.802	0.0137746
672.880	0.0136584
672.958	0.0135841
673.036	0.0136855
673.114	0.0137378
673.193	0.0134580
673.271	0.0135432
673.349	0.0135114
673.427	0.0135371
673.505	0.0134586
673.583	0.0135468
673.661	0.0136159
673.739	0.0135832
673.818	0.0136327
673.896	0.0134691
673.974	0.0135358
674.052	0.0136486
674.130	0.0136047
674.208	0.0138406
674.286	0.0138277
674.364	0.0137764
674.443	0.0138308
674.521	0.0138532
674.599	0.0138596
674.677	0.0139941
674.755	0.0138674
674.833	0.0140089
674.911	0.0139702
674.989	0.0142042
675.068	0.0139173
675.146	0.0138247
675.224	0.0138520
675.302	0.0137791
675.380	0.0137775
675.458	0.0136135
675.536	0.0134939
675.614	0.0134261
675.693	0.0133442
675.771	0.0132313
675.849	0.0131329
675.927	0.0131453
676.005	0.0131048
676.083	0.0130151
676.161	0.0131706
676.239	0.0129986
676.318	0.0129624
676.396	0.0129356
676.474	0.0129285
676.552	0.0129933
676.630	0.0132782
676.708	0.0134043
676.786	0.0132784
676.864	0.0134267
676.943	0.0134216
677.021	0.0137676
677.099	0.0139508
677.177	0.0141045
677.255	0.0142106
677.333	0.0144394
677.411	0.0146735
677.489	0.0148125
677.568	0.0147935
677.646	0.0149579
677.724	0.0149947
677.802	0.0152054
677.880	0.0150787
677.958	0.0149222
678.036	0.0148784
678.114	0.0148635
678.193	0.0147198
678.271	0.0146303
678.349	0.0142245
678.427	0.0140997
678.505	0.0139890
678.583	0.0136740
678.661	0.0134973
678.739	0.0131776
678.818	0.0128369
678.896	0.0126415
678.974	0.0122379
679.052	0.0122275
679.130	0.0120164
679.208	0.0117535
679.286	0.0114859
679.364	0.0114478
679.443	0.0114413
679.521	0.0114414
679.599	0.0116578
679.677	0.0118147
679.755	0.0120043
679.833	0.0121662
679.911	0.0124689
679.989	0.0127747
680.068	0.0131253
680.146	0.0134664
680.224	0.0140144
680.302	0.0142922
680.380	0.0147252
680.458	0.0151038
680.536	0.0154450
680.614	0.0159145
680.693	0.0161022
680.771	0.0163423
680.849	0.0167193
680.927	0.0168084
681.005	0.0168975
681.083	0.0169318
681.161	0.0166436
681.239	0.0166068
681.318	0.0164570
681.396	0.0162228
681.474	0.0156630
681.552	0.0154225
681.630	0.0149702
681.708	0.0144627
681.786	0.0139246
681.864	0.0134118
681.943	0.0129842
682.021	0.0125109
682.099	0.0119815
682.177	0.0114100
682.255	0.0111826
682.333	0.0106174
682.411	0.0104498
682.489	0.0102720
682.568	0.00993134
682.646	0.00990295
682.724	0.00994461
682.802	0.00994118
682.880	0.00992577
682.958	0.0102629
683.036	0.0104713
683.114	0.0108504
683.193	0.0111306
683.271	0.0116096
683.349	0.0122047
683.427	0.0126872
683.505	0.0132575
683.583	0.0139403
683.661	0.0144545
683.739	0.0152428
683.818	0.0158021
683.896	0.0161921
683.974	0.0168325
684.052	0.0172957
684.130	0.0177019
684.208	0.0179153
684.286	0.0182656
684.364	0.0183891
684.443	0.0183791
684.521	0.0183713
684.599	0.0182388
684.677	0.0181215
684.755	0.0177161
684.833	0.0172625
684.911	0.0168363
684.989	0.0162744
685.068	0.0157867
685.146	0.0150632
685.224	0.0143140
685.302	0.0137463
685.380	0.0130358
685.458	0.0122593
685.536	0.0117782
685.614	0.0111948
685.693	0.0107220
685.771	0.0101848
685.849	0.00988434
685.927	0.00958549
686.005	0.00948990
686.083	0.00927101
686.161	0.00932220
686.239	0.00930000
686.318	0.00953583
686.396	0.00974167
686.474	0.00998466
686.552	0.0104224
686.630	0.0106026
686.708	0.0112016
686.786	0.0117446
686.864	0.0122308
686.943	0.0128982
687.021	0.0132638
687.099	0.0138092
687.177	0.0142297
687.255	0.0148299
687.333	0.0151664
687.411	0.0158338
687.489	0.0159056
687.568	0.0163202
687.646	0.0164957
687.724	0.0165247
687.802	0.0166380
687.880	0.0167362
687.958	0.0168155
688.036	0.0166260
688.114	0.0166026
688.193	0.0164421
688.271	0.0162607
688.349	0.0161057
688.427	0.0158069
688.505	0.0155450
688.583	0.0153032
688.661	0.0149934
688.739	0.0147091
688.818	0.0145859
688.896	0.0144902
688.974	0.0141683
689.052	0.0137115
689.130	0.0137094
689.208	0.0134909
689.286	0.0132077
689.364	0.0129154
689.443	0.0127727
689.521	0.0126302
689.599	0.0125540
689.677	0.0123179
689.755	0.0123134
689.833	0.0121597
689.911	0.0120212
689.989	0.0120023
690.068	0.0121253
690.146	0.0120933
690.224	0.0119740
690.302	0.0121353
690.380	0.0120975
690.458	0.0120635
690.536	0.0121484
690.614	0.0122640
690.693	0.0123001
690.771	0.0123531
690.849	0.0125004
690.927	0.0127383
691.005	0.0129359
691.083	0.0130803
691.161	0.0133171
691.239	0.0136888
691.318	0.0138307
691.396	0.0140604
691.474	0.0144186
691.552	0.0144796
691.630	0.0147797
691.708	0.0149840
691.786	0.0152306
691.864	0.0153575
691.943	0.0154001
692.021	0.0153401
692.099	0.0152885
692.177	0.0152792
692.255	0.0150968
692.333	0.0150354
692.411	0.0148567
692.489	0.0146196
692.568	0.0144105
692.646	0.0143509
692.724	0.0140828
692.802	0.0139016
692.880	0.0137132
692.958	0.0135201
693.036	0.0134339
693.114	0.0132186
693.193	0.0130878
693.271	0.0129758
693.349	0.0131669
693.427	0.0130380
693.505	0.0127710
693.583	0.0129581
693.661	0.0130641
693.739	0.0131989
693.818	0.0130527
693.896	0.0132777
693.974	0.0134399
694.052	0.0136271
694.130	0.0139648
694.208	0.0140524
694.286	0.0143373
694.364	0.0143870
694.443	0.0145476
694.521	0.0146677
694.599	0.0147796
694.677	0.0146686
694.755	0.0146098
694.833	0.0145847
694.911	0.0144786
694.989	0.0143015
695.068	0.0141008
695.146	0.0137304
695.224	0.0134187
695.302	0.0132791
695.380	0.0130653
695.458	0.0127700
695.536	0.0126293
695.614	0.0123517
695.693	0.0121306
695.771	0.0120795
695.849	0.0119423
695.927	0.0119466
696.005	0.0118081
696.083	0.0118349
696.161	0.0118535
696.239	0.0120950
696.318	0.0122601
696.396	0.0124974
696.474	0.0127292
696.552	0.0129334
696.630	0.0132698
696.708	0.0134438
696.786	0.0138177
696.864	0.0140884
696.943	0.0142900
697.021	0.0144466
697.099	0.0147240
697.177	0.0149568
697.255	0.0150818
697.333	0.0153112
697.411	0.0154755
697.489	0.0154430
697.568	0.0154464
697.646	0.0154940
697.724	0.0155766
697.802	0.0155424
697.880	0.0153981
697.958	0.0153321
698.036	0.0150641
698.114	0.0148988
698.193	0.0147182
698.271	0.0145306
698.349	0.0143115
698.427	0.0140083
698.505	0.0137513
698.583	0.0134768
698.661	0.0134023
698.739	0.0130344
698.818	0.0130099
698.896	0.0127455
698.974	0.0126508
699.052	0.0126620
699.130	0.0126269
699.208	0.0125230
699.286	0.0123615
699.364	0.0124483
699.443	0.0125784
699.521	0.0126064
699.599	0.0126755
699.677	0.0130160
699.755	0.0129800
699.833	0.0130910
699.911	0.0132931
699.989	0.0133216
700.068	0.0135018
700.146	0.0137340
700.224	0.0136805
700.302	0.0138599
700.380	0.0138383
700.458	0.0141122
700.536	0.0141660
700.614	0.0141824
700.693	0.0141570
700.771	0.0141100
700.849	0.0139993
700.927	0.0140578
701.005	0.0140974
701.083	0.0141290
701.161	0.0141497
701.239	0.0139949
701.318	0.0140651
701.396	0.0140670
701.474	0.0143180
701.552	0.0143772
701.630	0.0143398
701.708	0.0144608
701.786	0.0144465
701.864	0.0146931
701.943	0.0146342
702.021	0.0146182
702.099	0.0146534
702.177	0.0146921
702.255	0.0146304
702.333	0.0143449
702.411	0.0143837
702.489	0.0142169
702.568	0.0137949
702.646	0.0138388
702.724	0.0136653
702.802	0.0131564
702.880	0.0127945
702.958	0.0127000
703.036	0.0123376
703.114	0.0120123
703.193	0.0118524
703.271	0.0116385
703.349	0.0115761
703.427	0.0114652
703.505	0.0113863
703.583	0.0114902
703.661	0.0117156
703.739	0.0118747
703.818	0.0120917
703.896	0.0123986
703.974	0.0125668
704.052	0.0129315
704.130	0.0133864
704.208	0.0137668
704.286	0.0140298
704.364	0.0144676
704.443	0.0147292
704.521	0.0150679
704.599	0.0153835
704.677	0.0156776
704.755	0.0158318
704.833	0.0161018
704.911	0.0163013
704.989	0.0162683
705.068	0.0164671
705.146	0.0163667
705.224	0.0163482
705.302	0.0162843
705.380	0.0161214
705.458	0.0158280
705.536	0.0156588
705.614	0.0152523
705.693	0.0150519
705.771	0.0145773
705.849	0.0141805
705.927	0.0137939
706.005	0.0135876
706.083	0.0131145
706.161	0.0126839
706.239	0.0124180
706.318	0.0119832
706.396	0.0119714
706.474	0.0118156
706.552	0.0115137
706.630	0.0114489
706.708	0.0116052
706.786	0.0114240
706.864	0.0115707
706.943	0.0116096
707.021	0.0119612
707.099	0.0121057
707.177	0.0121815
707.255	0.0125210
707.333	0.0127838
707.411	0.0130310
707.489	0.0132734
707.568	0.0135029
707.646	0.0137254
707.724	0.0138200
707.802	0.0140605
707.880	0.0143427
707.958	0.0143309
708.036	0.0144444
708.114	0.0145064
708.193	0.0146479
708.271	0.0144520
708.349	0.0142636
708.427	0.0142162
708.505	0.0140125
708.583	0.0139266
708.661	0.0137022
708.739	0.0137126
708.818	0.0137331
708.896	0.0136156
708.974	0.0136581
709.052	0.0136055
709.130	0.0137277
709.208	0.0137968
709.286	0.0137000
709.364	0.0138136
709.443	0.0139994
709.521	0.0140694
709.599	0.0140572
709.677	0.0140123
709.755	0.0137965
709.833	0.0138828
709.911	0.0140048
709.989	0.0137679
710.068	0.0137875
710.146	0.0137015
710.224	0.0135033
710.302	0.0135438
710.380	0.0134259
710.458	0.0132713
710.536	0.0134526
710.614	0.0134050
710.693	0.0135453
710.771	0.0134057
710.849	0.0134383
710.927	0.0135799
711.005	0.0135227
711.083	0.0135253
711.161	0.0136140
711.239	0.0137490
711.318	0.0139310
711.396	0.0140086
711.474	0.0141106
711.552	0.0141616
711.630	0.0143170
711.708	0.0143665
711.786	0.0143969
711.864	0.0146248
711.943	0.0146300
712.021	0.0146562
712.099	0.0148055
712.177	0.0148157
712.255	0.0148994
712.333	0.0149650
712.411	0.0149701
712.489	0.0149858
712.568	0.0149802
712.646	0.0149498
712.724	0.0148484
712.802	0.0147142
712.880	0.0148309
712.958	0.0146506
713.036	0.0142561
713.114	0.0142562
713.193	0.0140119
713.271	0.0137690
713.349	0.0135330
713.427	0.0130144
713.505	0.0127386
713.583	0.0125698
713.661	0.0121365
713.739	0.0119102
713.818	0.0115186
713.896	0.0111890
713.974	0.0109820
714.052	0.0107632
714.130	0.0106157
714.208	0.0105975
714.286	0.0105141
714.364	0.0106093
714.443	0.0105371
714.521	0.0108537
714.599	0.0112309
714.677	0.0113824
714.755	0.0117636
714.833	0.0122047
714.911	0.0124654
714.989	0.0127951
715.068	0.0133171
715.146	0.0136625
715.224	0.0141322
715.302	0.0144279
715.380	0.0147439
715.458	0.0150941
715.536	0.0152473
715.614	0.0155057
715.693	0.0158327
715.771	0.0160364
715.849	0.0160932
715.927	0.0161308
716.005	0.0162563
716.083	0.0163477
716.161	0.0164234
716.239	0.0163049
716.318	0.0162191
716.396	0.0161404
716.474	0.0162896
716.552	0.0162867
716.630	0.0161502
716.708	0.0160572
716.786	0.0161090
716.864	0.0160620
716.943	0.0158441
717.021	0.0155115
717.099	0.0153497
717.177	0.0152359
717.255	0.0149911
717.333	0.0147234
717.411	0.0145249
717.489	0.0141951
717.568	0.0137657
717.646	0.0134484
717.724	0.0131933
717.802	0.0128240
717.880	0.0126838
717.958	0.0122048
718.036	0.0119411
718.114	0.0119180
718.193	0.0115770
718.271	0.0114082
718.349	0.0113011
718.427	0.0111913
718.505	0.0110326
718.583	0.0108234
718.661	0.0108788
718.739	0.0109249
718.818	0.0109147
718.896	0.0108512
718.974	0.0109299
719.052	0.0111828
719.130	0.0111215
719.208	0.0113359
719.286	0.0114674
719.364	0.0117377
719.443	0.0117724
719.521	0.0120833
719.599	0.0124714
719.677	0.0127814
719.755	0.0131499
719.833	0.0134804
719.911	0.0138380
719.989	0.0142474
720.068	0.0145914
720.146	0.0148771
720.224	0.0153152
720.302	0.0155051
720.380	0.0156986
720.458	0.0159672
720.536	0.0161309
720.614	0.0161090
720.693	0.0161318
720.771	0.0162550
720.849	0.0162308
720.927	0.0159978
721.005	0.0158482
721.083	0.0157006
721.161	0.0155691
721.239	0.0154261
721.318	0.0152744
721.396	0.0151369
721.474	0.0147796
721.552	0.0146096
721.630	0.0143564
721.708	0.0141595
721.786	0.0139669
721.864	0.0137469
721.943	0.0136935
722.021	0.0136880
722.099	0.0134270
722.177	0.0134363
722.255	0.0134576
722.333	0.0133294
722.411	0.0133791
722.489	0.0133605
722.568	0.0134023
722.646	0.0134270
722.724	0.0133853
722.802	0.0135063
722.880	0.0136570
722.958	0.0137323
723.036	0.0136136
723.114	0.0135881
723.193	0.0136465
723.271	0.0137041
723.349	0.0137574
723.427	0.0136014
723.505	0.0134797
723.583	0.0135374
723.661	0.0134912
723.739	0.0134289
723.818	0.0132257
723.896	0.0132766
723.974	0.0132362
724.052	0.0131969
724.130	0.0131741
724.208	0.0130089
724.286	0.0128487
724.364	0.0129623
724.443	0.0129375
724.521	0.0128517
724.599	0.0131216
724.677	0.0130299
724.755	0.0128736
724.833	0.0131961
724.911	0.0131266
724.989	0.0131673
725.068	0.0130124
725.146	0.0130663
725.224	0.0130618
725.302	0.0131123
725.380	0.0132962
725.458	0.0134492
725.536	0.0133801
725.614	0.0134697
725.693	0.0134655
725.771	0.0135864
725.849	0.0138493
725.927	0.0138342
726.005	0.0138140
726.083	0.0139038
726.161	0.0139328
726.239	0.0139996
726.318	0.0140024
726.396	0.0139472
726.474	0.0140305
726.552	0.0138812
726.630	0.0140295
726.708	0.0138971
726.786	0.0137354
726.864	0.0139288
726.943	0.0138507
727.021	0.0140160
727.099	0.0139672
727.177	0.0139288
727.255	0.0141280
727.333	0.0141425
727.411	0.0142504
727.489	0.0145049
727.568	0.0144213
727.646	0.0145953
727.724	0.0147873
727.802	0.0148596
727.880	0.0151192
727.958	0.0151109
728.036	0.0151616
728.114	0.0150286
728.193	0.0151144
728.271	0.0151608
728.349	0.0149454
728.427	0.0149327
728.505	0.0146923
728.583	0.0145434
728.661	0.0142272
728.739	0.0139712
728.818	0.0138491
728.896	0.0135683
728.974	0.0132318
729.052	0.0130091
729.130	0.0126949
729.208	0.0125699
729.286	0.0123775
729.364	0.0120952
729.443	0.0120331
729.521	0.0120981
729.599	0.0121255
729.677	0.0121580
729.755	0.0120598
729.833	0.0122592
729.911	0.0123495
729.989	0.0123215
730.068	0.0124793
730.146	0.0125377
730.224	0.0126257
730.302	0.0126772
730.380	0.0126485
730.458	0.0128021
730.536	0.0128912
730.614	0.0130999
730.693	0.0130637
730.771	0.0131061
730.849	0.0130871
730.927	0.0131621
731.005	0.0133000
731.083	0.0134547
731.161	0.0135932
731.239	0.0135196
731.318	0.0136325
731.396	0.0136629
731.474	0.0139543
731.552	0.0140060
731.630	0.0139700
731.708	0.0141694
731.786	0.0143964
731.864	0.0145052
731.943	0.0144369
732.021	0.0146709
732.099	0.0147768
732.177	0.0147195
732.255	0.0146943
732.333	0.0147571
732.411	0.0147277
732.489	0.0147174
732.568	0.0145943
732.646	0.0144599
732.724	0.0145164
732.802	0.0143282
732.880	0.0142042
732.958	0.0139500
733.036	0.0138501
733.114	0.0137237
733.193	0.0137632
733.271	0.0138073
733.349	0.0136565
733.427	0.0134241
733.505	0.0135245
733.583	0.0132730
733.661	0.0132466
733.739	0.0133997
733.818	0.0133270
733.896	0.0132705
733.974	0.0133484
734.052	0.0133011
734.130	0.0131097
734.208	0.0130820
734.286	0.0132219
734.364	0.0131770
734.443	0.0131288
734.521	0.0131346
734.599	0.0131865
734.677	0.0132487
734.755	0.0130378
734.833	0.0130740
734.911	0.0129595
734.989	0.0130598
735.068	0.0130831
735.146	0.0129273
735.224	0.0128868
735.302	0.0129767
735.380	0.0129924
735.458	0.0130909
735.536	0.0131083
735.614	0.0133357
735.693	0.0132442
735.771	0.0133933
735.849	0.0135324
735.927	0.0135469
736.005	0.0138289
736.083	0.0137999
736.161	0.0139281
736.239	0.0141388
736.318	0.0141676
736.396	0.0140672
736.474	0.0140576
736.552	0.0141663
736.630	0.0142672
736.708	0.0142796
736.786	0.0143232
736.864	0.0142298
736.943	0.0141122
737.021	0.0141676
737.099	0.0142295
737.177	0.0142144
737.255	0.0142466
737.333	0.0141818
737.411	0.0141198
737.489	0.0142588
737.568	0.0143990
737.646	0.0140762
737.724	0.0141218
737.802	0.0140257
737.880	0.0139210
737.958	0.0138716
738.036	0.0138948
738.114	0.0139799
738.193	0.0138087
738.271	0.0137611
738.349	0.0137035
738.427	0.0136689
738.505	0.0137161
738.583	0.0136279
738.661	0.0137476
738.739	0.0135330
738.818	0.0135409
738.896	0.0134352
738.974	0.0132232
739.052	0.0132200
739.130	0.0131555
739.208	0.0130291
739.286	0.0129967
739.364	0.0129213
739.443	0.0127362
739.521	0.0128501
739.599	0.0128299
739.677	0.0127386
739.755	0.0127173
739.833	0.0127003
739.911	0.0127952
739.989	0.0127351
740.068	0.0128214
740.146	0.0129290
740.224	0.0130685
740.302	0.0131531
740.380	0.0134575
740.458	0.0136158
740.536	0.0136795
740.614	0.0138698
740.693	0.0139986
740.771	0.0142498
740.849	0.0143492
740.927	0.0142479
741.005	0.0143219
741.083	0.0144076
741.161	0.0144801
741.239	0.0144080
741.318	0.0144247
741.396	0.0141953
741.474	0.0142662
741.552	0.0142295
741.630	0.0140479
741.708	0.0138299
741.786	0.0138848
741.864	0.0137734
741.943	0.0137072
742.021	0.0137309
742.099	0.0136511
742.177	0.0136671
742.255	0.0137698
742.333	0.0137614
742.411	0.0140260
742.489	0.0139359
742.568	0.0141520
742.646	0.0140781
742.724	0.0143407
742.802	0.0142538
742.880	0.0144064
742.958	0.0143550
743.036	0.0144669
743.114	0.0145472
743.193	0.0145763
743.271	0.0143275
743.349	0.0142400
743.427	0.0143645
743.505	0.0140566
743.583	0.0139388
743.661	0.0138680
743.739	0.0137006
743.818	0.0136597
743.896	0.0136297
743.974	0.0134468
744.052	0.0132818
744.130	0.0131898
744.208	0.0133130
744.286	0.0132870
744.364	0.0131831
744.443	0.0132288
744.521	0.0131977
744.599	0.0132455
744.677	0.0133101
744.755	0.0133846
744.833	0.0133810
744.911	0.0133737
744.989	0.0133779
745.068	0.0133829
745.146	0.0134558
745.224	0.0133336
745.302	0.0134813
745.380	0.0133656
745.458	0.0135625
745.536	0.0134076
745.614	0.0133098
745.693	0.0135305
745.771	0.0135014
745.849	0.0133839
745.927	0.0134595
746.005	0.0135925
746.083	0.0134892
746.161	0.0134742
746.239	0.0135565
746.318	0.0135229
746.396	0.0136429
746.474	0.0134895
746.552	0.0136092
746.630	0.0136496
746.708	0.0135963
746.786	0.0138247
746.864	0.0137322
746.943	0.0137750
747.021	0.0138765
747.099	0.0136625
747.177	0.0138515
747.255	0.0139355
747.333	0.0137904
747.411	0.0138808
747.489	0.0137414
747.568	0.0138258
747.646	0.0139348
747.724	0.0138967
747.802	0.0139553
747.880	0.0139292
747.958	0.0137724
748.036	0.0139568
748.114	0.0139729
748.193	0.0140040
748.271	0.0142269
748.349	0.0141301
748.427	0.0141979
748.505	0.0142942
748.583	0.0143295
748.661	0.0142792
748.739	0.0143132
748.818	0.0143129
748.896	0.0143586
748.974	0.0142321
749.052	0.0141232
749.130	0.0141238
749.208	0.0140504
749.286	0.0138606
749.364	0.0139622
749.443	0.0137840
749.521	0.0137116
749.599	0.0136816
749.677	0.0134834
749.755	0.0135677
749.833	0.0135253
749.911	0.0134273
749.989	0.0133298
750.068	0.0133982
750.146	0.0133767
750.224	0.0134622
750.302	0.0133704
750.380	0.0134116
750.458	0.0133521
750.536	0.0133818
750.614	0.0133709
750.693	0.0134135
750.771	0.0132896
750.849	0.0134563
750.927	0.0134049
751.005	0.0135133
751.083	0.0135575
751.161	0.0135171
751.239	0.0135325
751.318	0.0137123
751.396	0.0136874
751.474	0.0134885
751.552	0.0135090
751.630	0.0135984
751.708	0.0133844
751.786	0.0135126
751.864	0.0134626
751.943	0.0132730
752.021	0.0131935
752.099	0.0132369
752.177	0.0132031
752.255	0.0129615
752.333	0.0130794
752.411	0.0130685
752.489	0.0129357
752.568	0.0130003
752.646	0.0128918
752.724	0.0129040
752.802	0.0128518
752.880	0.0131125
752.958	0.0132789
753.036	0.0132614
753.114	0.0133714
753.193	0.0134570
753.271	0.0134397
753.349	0.0134904
753.427	0.0137291
753.505	0.0139096
753.583	0.0139580
753.661	0.0142405
753.739	0.0141502
753.818	0.0143480
753.896	0.0144626
753.974	0.0144129
754.052	0.0144859
754.130	0.0144706
754.208	0.0145097
754.286	0.0147179
754.364	0.0145878
754.443	0.0144910
754.521	0.0144474
754.599	0.0144018
754.677	0.0143594
754.755	0.0142903
754.833	0.0143213
754.911	0.0142519
754.989	0.0143197
755.068	0.0140533
755.146	0.0142317
755.224	0.0140595
755.302	0.0140099
755.380	0.0138943
755.458	0.0137924
755.536	0.0138487
755.614	0.0138023
755.693	0.0136874
755.771	0.0135412
755.849	0.0135221
755.927	0.0133511
756.005	0.0134400
756.083	0.0133569
756.161	0.0132589
756.239	0.0133649
756.318	0.0133468
756.396	0.0133147
756.474	0.0131794
756.552	0.0132494
756.630	0.0132980
756.708	0.0131624
756.786	0.0132163
756.864	0.0130904
756.943	0.0131095
757.021	0.0131325
757.099	0.0130592
757.177	0.0131915
757.255	0.0130762
757.333	0.0131580
757.411	0.0132298
757.489	0.0131120
757.568	0.0128872
757.646	0.0130473
757.724	0.0129935
757.802	0.0130682
757.880	0.0130563
757.958	0.0131777
758.036	0.0133001
758.114	0.0133424
758.193	0.0132619
758.271	0.0135229
758.349	0.0135168
758.427	0.0136015
758.505	0.0137289
758.583	0.0137371
758.661	0.0139507
758.739	0.0138721
758.818	0.0140413
758.896	0.0141295
758.974	0.0142034
759.052	0.0142409
759.130	0.0142802
759.208	0.0141544
759.286	0.0143810
759.364	0.0144447
759.443	0.0143914
759.521	0.0143107
759.599	0.0142953
759.677	0.0141801
759.755	0.0141874
759.833	0.0143481
759.911	0.0141663
759.989	0.0141595
760.068	0.0140898
760.146	0.0141620
760.224	0.0141749
760.302	0.0140437
760.380	0.0139362
760.458	0.0139429
760.536	0.0137941
760.614	0.0137457
760.693	0.0137485
760.771	0.0136933
760.849	0.0136127
760.927	0.0135183
761.005	0.0132823
761.083	0.0133006
761.161	0.0131686
761.239	0.0132685
761.318	0.0131656
761.396	0.0132590
761.474	0.0133248
761.552	0.0132071
761.630	0.0131995
761.708	0.0131869
761.786	0.0131619
761.864	0.0130840
761.943	0.0132601
762.021	0.0133462
762.099	0.0133391
762.177	0.0134314
762.255	0.0133677
762.333	0.0135478
762.411	0.0135309
762.489	0.0135696
762.568	0.0137543
762.646	0.0136476
762.724	0.0137315
762.802	0.0138269
762.880	0.0138122
762.958	0.0138557
763.036	0.0138548
763.114	0.0139972
763.193	0.0140456
763.271	0.0139324
763.349	0.0139090
763.427	0.0139496
763.505	0.0140253
763.583	0.0140150
763.661	0.0140416
763.739	0.0139510
763.818	0.0139680
763.896	0.0138692
763.974	0.0138492
764.052	0.0138461
764.130	0.0139351
764.208	0.0139689
764.286	0.0137249
764.364	0.0136691
764.443	0.0137061
764.521	0.0137650
764.599	0.0136598
764.677	0.0136367
764.755	0.0134820
764.833	0.0134695
764.911	0.0134679
764.989	0.0135822
765.068	0.0135462
765.146	0.0133772
765.224	0.0133478
765.302	0.0133102
765.380	0.0133240
765.458	0.0133045
765.536	0.0133494
765.614	0.0130578
765.693	0.0132701
765.771	0.0132089
765.849	0.0132490
765.927	0.0131760
766.005	0.0133802
766.083	0.0132881
766.161	0.0133847
766.239	0.0133379
766.318	0.0135214
766.396	0.0133617
766.474	0.0135149
766.552	0.0135023
766.630	0.0136011
766.708	0.0137970
766.786	0.0137268
766.864	0.0137718
766.943	0.0138240
767.021	0.0137546
767.099	0.0137725
767.177	0.0140057
767.255	0.0139567
767.333	0.0140053
767.411	0.0140276
767.489	0.0141167
767.568	0.0141284
767.646	0.0142064
767.724	0.0141812
767.802	0.0141446
767.880	0.0141737
767.958	0.0142319
768.036	0.0142996
768.114	0.0142552
768.193	0.0143578
768.271	0.0141621
768.349	0.0141832
768.427	0.0142087
768.505	0.0142608
768.583	0.0142673
768.661	0.0139184
768.739	0.0138726
768.818	0.0138951
768.896	0.0138531
768.974	0.0137572
769.052	0.0138234
769.130	0.0135596
769.208	0.0135857
769.286	0.0134771
769.364	0.0134675
769.443	0.0134289
769.521	0.0132777
769.599	0.0132727
769.677	0.0132495
769.755	0.0132334
769.833	0.0132311
769.911	0.0129233
769.989	0.0129306
770.068	0.0129720
770.146	0.0129750
770.224	0.0130881
770.302	0.0129546
770.380	0.0130433
770.458	0.0130874
770.536	0.0130103
770.614	0.0130492
770.693	0.0133195
770.771	0.0134853
770.849	0.0134571
770.927	0.0134861
771.005	0.0135446
771.083	0.0137113
771.161	0.0137498
771.239	0.0138204
771.318	0.0139838
771.396	0.0140563
771.474	0.0140379
771.552	0.0141940
771.630	0.0142504
771.708	0.0141953
771.786	0.0140440
771.864	0.0141753
771.943	0.0141466
772.021	0.0141920
772.099	0.0140144
772.177	0.0140183
772.255	0.0140666
772.333	0.0140978
772.411	0.0139947
772.489	0.0139833
772.568	0.0139665
772.646	0.0139655
772.724	0.0139492
772.802	0.0139265
772.880	0.0138128
772.958	0.0137341
773.036	0.0137691
773.114	0.0137961
773.193	0.0136929
773.271	0.0136881
773.349	0.0136227
773.427	0.0135830
773.505	0.0135298
773.583	0.0136677
773.661	0.0134844
773.739	0.0136326
773.818	0.0136978
773.896	0.0136371
773.974	0.0134490
774.052	0.0136219
774.130	0.0135437
774.208	0.0134747
774.286	0.0136166
774.364	0.0135843
774.443	0.0134679
774.521	0.0135152
774.599	0.0134388
774.677	0.0133713
774.755	0.0135117
774.833	0.0134825
774.911	0.0134190
774.989	0.0134760
775.068	0.0136365
775.146	0.0135754
775.224	0.0134211
775.302	0.0135053
775.380	0.0134859
775.458	0.0136388
775.536	0.0137251
775.614	0.0136729
775.693	0.0136620
775.771	0.0136219
775.849	0.0136978
775.927	0.0137982
776.005	0.0138060
776.083	0.0138216
776.161	0.0139260
776.239	0.0138351
776.318	0.0139445
776.396	0.0139375
776.474	0.0139404
776.552	0.0140888
776.630	0.0141176
776.708	0.0142476
776.786	0.0143422
776.864	0.0141658
776.943	0.0141933
777.021	0.0142793
777.099	0.0141701
777.177	0.0143550
777.255	0.0144180
777.333	0.0142957
777.411	0.0142442
777.489	0.0144114
777.568	0.0142963
777.646	0.0142108
777.724	0.0141322
777.802	0.0141043
777.880	0.0138997
777.958	0.0140437
778.036	0.0138647
778.114	0.0139510
778.193	0.0136995
778.271	0.0135080
778.349	0.0134341
778.427	0.0134868
778.505	0.0134052
778.583	0.0132232
778.661	0.0132883
778.739	0.0132346
778.818	0.0129783
778.896	0.0130400
778.974	0.0129587
779.052	0.0129620
779.130	0.0129275
779.208	0.0128699
779.286	0.0128794
779.364	0.0129115
779.443	0.0130180
779.521	0.0129871
779.599	0.0131202
779.677	0.0130647
779.755	0.0132602
779.833	0.0133175
779.911	0.0134810
779.989	0.0136125
780.068	0.0137577
780.146	0.0138122
780.224	0.0139069
780.302	0.0140470
780.380	0.0143718
780.458	0.0142290
780.536	0.0145104
780.614	0.0145073
780.693	0.0145405
780.771	0.0146011
780.849	0.0145740
780.927	0.0147633
781.005	0.0147459
781.083	0.0146566
781.161	0.0146339
781.239	0.0145399
781.318	0.0145891
781.396	0.0145851
781.474	0.0144801
781.552	0.0144704
781.630	0.0142646
781.708	0.0142278
781.786	0.0140292
781.864	0.0139892
781.943	0.0140704
782.021	0.0139077
782.099	0.0137971
782.177	0.0136982
782.255	0.0135530
782.333	0.0135703
782.411	0.0134912
782.489	0.0132508
782.568	0.0132206
782.646	0.0130736
782.724	0.0131089
782.802	0.0129502
782.880	0.0130316
782.958	0.0129056
783.036	0.0129846
783.114	0.0130018
783.193	0.0129674
783.271	0.0128817
783.349	0.0130439
783.427	0.0130489
783.505	0.0129928
783.583	0.0131810
783.661	0.0132858
783.739	0.0133896
783.818	0.0133653
783.896	0.0135838
783.974	0.0136588
784.052	0.0138345
784.130	0.0137625
784.208	0.0137664
784.286	0.0141314
784.364	0.0141382
784.443	0.0143404
784.521	0.0144569
784.599	0.0143192
784.677	0.0142893
784.755	0.0143936
784.833	0.0142415
784.911	0.0143959
784.989	0.0144706
785.068	0.0143896
785.146	0.0143528
785.224	0.0141946
785.302	0.0142683
785.380	0.0141130
785.458	0.0141351
785.536	0.0141196
785.614	0.0139520
785.693	0.0140311
785.771	0.0139526
785.849	0.0138814
785.927	0.0137363
786.005	0.0136726
786.083	0.0135066
786.161	0.0136678
786.239	0.0135822
786.318	0.0133775
786.396	0.0135610
786.474	0.0133823
786.552	0.0131837
786.630	0.0133736
786.708	0.0133903
786.786	0.0133445
786.864	0.0132983
786.943	0.0134560
787.021	0.0134029
787.099	0.0133788
787.177	0.0134232
787.255	0.0135012
787.333	0.0134692
787.411	0.0133044
787.489	0.0133650
787.568	0.0134500
787.646	0.0135128
787.724	0.0132644
787.802	0.0133072
787.880	0.0133889
787.958	0.0134437
788.036	0.0135964
788.114	0.0136286
788.193	0.0134963
788.271	0.0136616
788.349	0.0137952
788.427	0.0138957
788.505	0.0138036
788.583	0.0137270
788.661	0.0138992
788.739	0.0140501
788.818	0.0139582
788.896	0.0140146
788.974	0.0139302
789.052	0.0140246
789.130	0.0139545
789.208	0.0139896
789.286	0.0140099
789.364	0.0138364
789.443	0.0139243
789.521	0.0139670
789.599	0.0138837
789.677	0.0138336
789.755	0.0137885
789.833	0.0137656
789.911	0.0136710
789.989	0.0136568
790.068	0.0137418
790.146	0.0136768
790.224	0.0137946
790.302	0.0136684
790.380	0.0136367
790.458	0.0137604
790.536	0.0137104
790.614	0.0138069
790.693	0.0137491
790.771	0.0137836
790.849	0.0138673
790.927	0.0138059
791.005	0.0137228
791.083	0.0139356
791.161	0.0138545
791.239	0.0138396
791.318	0.0138511
791.396	0.0136599
791.474	0.0136501
791.552	0.0137338
791.630	0.0136234
791.708	0.0135023
791.786	0.0135577
791.864	0.0135160
791.943	0.0134148
792.021	0.0132561
792.099	0.0132657
792.177	0.0132825
792.255	0.0132133
792.333	0.0132129
792.411	0.0132795
792.489	0.0133092
792.568	0.0133573
792.646	0.0133431
792.724	0.0132714
792.802	0.0134002
792.880	0.0132965
792.958	0.0135225
793.036	0.0135937
793.114	0.0136265
793.193	0.0137415
793.271	0.0137412
793.349	0.0137281
793.427	0.0139327
793.505	0.0138702
793.583	0.0139678
793.661	0.0140411
793.739	0.0138847
793.818	0.0141542
793.896	0.0139758
793.974	0.0141393
794.052	0.0140912
794.130	0.0140105
794.208	0.0141129
794.286	0.0140286
794.364	0.0141298
794.443	0.0141209
794.521	0.0139540
794.599	0.0139899
794.677	0.0139453
794.755	0.0138937
794.833	0.0138335
794.911	0.0138949
794.989	0.0137742
795.068	0.0136978
795.146	0.0139110
795.224	0.0138139
795.302	0.0136782
795.380	0.0137411
795.458	0.0137128
795.536	0.0136928
795.614	0.0138083
795.693	0.0137354
795.771	0.0137018
795.849	0.0135913
795.927	0.0136169
796.005	0.0137673
796.083	0.0136128
796.161	0.0135715
796.239	0.0136286
796.318	0.0136766
796.396	0.0137146
796.474	0.0136710
796.552	0.0137711
796.630	0.0136565
796.708	0.0136588
796.786	0.0137017
796.864	0.0137323
796.943	0.0137252
797.021	0.0137675
797.099	0.0137841
797.177	0.0136917
797.255	0.0137265
797.333	0.0137679
797.411	0.0137840
797.489	0.0138205
797.568	0.0137051
797.646	0.0137286
797.724	0.0137461
797.802	0.0138406
797.880	0.0137672
797.958	0.0138844
798.036	0.0138068
798.114	0.0137685
798.193	0.0138173
798.271	0.0136362
798.349	0.0136364
798.427	0.0137034
798.505	0.0137420
798.583	0.0138544
798.661	0.0136164
798.739	0.0139386
798.818	0.0138871
798.896	0.0137649
798.974	0.0138427
799.052	0.0138683
799.130	0.0138661
799.208	0.0136459
799.286	0.0138054
799.364	0.0139166
799.443	0.0137842
799.521	0.0137149
799.599	0.0136815
799.677	0.0137460
799.755	0.0136404
799.833	0.0134772
799.911	0.0134763
799.989	0.0135241
800.068	0.0134008
800.146	0.0135236
800.224	0.0135762
800.302	0.0136295
800.380	0.0134846
800.458	0.0135567
800.536	0.0135888
800.614	0.0135918
800.693	0.0134732
800.771	0.0137437
800.849	0.0138170
800.927	0.0137045
801.005	0.0138036
801.083	0.0138328
801.161	0.0138121
801.239	0.0138432
801.318	0.0141534
801.396	0.0142722
801.474	0.0141328
801.552	0.0141763
801.630	0.0141589
801.708	0.0141496
801.786	0.0141463
801.864	0.0141657
801.943	0.0140150
802.021	0.0140972
802.099	0.0140141
802.177	0.0139378
802.255	0.0139535
802.333	0.0138467
802.411	0.0136319
802.489	0.0136298
802.568	0.0137673
802.646	0.0135252
802.724	0.0135015
802.802	0.0136130
802.880	0.0135980
802.958	0.0134804
803.036	0.0134837
803.114	0.0135456
803.193	0.0135247
803.271	0.0134291
803.349	0.0135121
803.427	0.0134544
803.505	0.0135828
803.583	0.0135151
803.661	0.0136674
803.739	0.0135881
803.818	0.0136775
803.896	0.0138525
803.974	0.0138820
804.052	0.0138389
804.130	0.0138918
804.208	0.0138717
804.286	0.0138080
804.364	0.0138284
804.443	0.0139460
804.521	0.0136811
804.599	0.0138651
804.677	0.0137264
804.755	0.0137105
804.833	0.0137556
804.911	0.0135896
804.989	0.0136317
805.068	0.0135742
805.146	0.0135628
805.224	0.0135220
805.302	0.0136159
805.380	0.0135509
805.458	0.0135500
805.536	0.0136057
805.614	0.0134415
805.693	0.0135433
805.771	0.0135109
805.849	0.0135857
805.927	0.0134753
806.005	0.0135015
806.083	0.0134930
806.161	0.0135844
806.239	0.0137590
806.318	0.0137572
806.396	0.0135663
806.474	0.0138589
806.552	0.0138146
806.630	0.0137844
806.708	0.0138727
806.786	0.0138123
806.864	0.0138202
806.943	0.0137160
807.021	0.0137468
807.099	0.0137639
807.177	0.0137522
807.255	0.0138039
807.333	0.0137092
807.411	0.0136746
807.489	0.0136340
807.568	0.0136145
807.646	0.0136843
807.724	0.0136044
807.802	0.0136916
807.880	0.0137081
807.958	0.0137852
808.036	0.0138180
808.114	0.0137511
808.193	0.0137260
808.271	0.0137840
808.349	0.0137907
808.427	0.0138280
808.505	0.0138636
808.583	0.0139053
808.661	0.0138348
808.739	0.0138557
808.818	0.0137205
808.896	0.0138681
808.974	0.0138364
809.052	0.0135900
809.130	0.0138110
809.208	0.0137901
809.286	0.0136507
809.364	0.0135886
809.443	0.0136391
809.521	0.0135593
809.599	0.0135569
809.677	0.0135088
809.755	0.0134633
809.833	0.0133527
809.911	0.0134335
809.989	0.0134053
810.068	0.0135284
810.146	0.0135101
810.224	0.0136568
810.302	0.0135236
810.380	0.0134710
810.458	0.0135388
810.536	0.0134332
810.614	0.0134415
810.693	0.0134917
810.771	0.0132996
810.849	0.0134223
810.927	0.0135149
811.005	0.0134064
811.083	0.0134079
811.161	0.0133429
811.239	0.0135608
811.318	0.0134077
811.396	0.0135027
811.474	0.0135046
811.552	0.0134296
811.630	0.0134653
811.708	0.0135478
811.786	0.0135386
811.864	0.0135527
811.943	0.0135422
812.021	0.0135748
812.099	0.0136848
812.177	0.0136996
812.255	0.0137885
812.333	0.0137203
812.411	0.0137875
812.489	0.0139616
812.568	0.0139937
812.646	0.0140871
812.724	0.0141717
812.802	0.0142025
812.880	0.0142909
812.958	0.0141338
813.036	0.0142495
813.114	0.0143660
813.193	0.0142669
813.271	0.0142808
813.349	0.0142345
813.427	0.0142545
813.505	0.0141828
813.583	0.0140202
813.661	0.0140567
813.739	0.0139562
813.818	0.0139296
813.896	0.0138525
813.974	0.0137599
814.052	0.0136605
814.130	0.0137808
814.208	0.0136727
814.286	0.0134444
814.364	0.0133818
814.443	0.0132333
814.521	0.0132690
814.599	0.0133339
814.677	0.0132491
814.755	0.0131414
814.833	0.0131506
814.911	0.0131956
814.989	0.0131425
815.068	0.0130977
815.146	0.0132695
815.224	0.0132262
815.302	0.0133563
815.380	0.0132458
815.458	0.0133648
815.536	0.0133258
815.614	0.0133700
815.693	0.0133640
815.771	0.0134907
815.849	0.0136528
815.927	0.0135358
816.005	0.0134789
816.083	0.0136290
816.161	0.0135403
816.239	0.0136539
816.318	0.0137936
816.396	0.0137772
816.474	0.0138813
816.552	0.0140359
816.630	0.0140692
816.708	0.0139291
816.786	0.0140065
816.864	0.0140570
816.943	0.0140225
817.021	0.0141256
817.099	0.0140199
817.177	0.0140686
817.255	0.0142341
817.333	0.0140709
817.411	0.0141563
817.489	0.0141431
817.568	0.0140768
817.646	0.0140612
817.724	0.0139725
817.802	0.0139575
817.880	0.0139999
817.958	0.0140406
818.036	0.0139850
818.114	0.0139219
818.193	0.0138065
818.271	0.0137940
818.349	0.0137423
818.427	0.0136254
818.505	0.0138882
818.583	0.0138756
818.661	0.0139116
818.739	0.0140633
818.818	0.0139196
818.896	0.0138650
818.974	0.0137762
819.052	0.0137580
819.130	0.0138817
819.208	0.0138798
819.286	0.0139222
819.364	0.0136677
819.443	0.0137994
819.521	0.0138313
819.599	0.0138309
819.677	0.0137583
819.755	0.0136884
819.833	0.0137983
819.911	0.0137367
819.989	0.0137361
820.068	0.0135998
820.146	0.0135979
820.224	0.0134759
820.302	0.0134094
820.380	0.0134521
820.458	0.0135691
820.536	0.0134747
820.614	0.0133762
820.693	0.0133489
820.771	0.0134083
820.849	0.0135960
820.927	0.0134954
821.005	0.0134469
821.083	0.0135683
821.161	0.0135249
821.239	0.0135528
821.318	0.0137130
821.396	0.0137831
821.474	0.0140063
821.552	0.0138573
821.630	0.0138000
821.708	0.0140112
821.786	0.0139889
821.864	0.0140580
821.943	0.0139753
822.021	0.0138813
822.099	0.0138543
822.177	0.0139354
822.255	0.0138318
822.333	0.0137525
822.411	0.0137719
822.489	0.0138216
822.568	0.0139146
822.646	0.0137970
822.724	0.0136183
822.802	0.0135999
822.880	0.0136130
822.958	0.0136602
823.036	0.0135493
823.114	0.0136159
823.193	0.0137415
823.271	0.0134527
823.349	0.0137103
823.427	0.0138226
823.505	0.0137630
823.583	0.0138225
823.661	0.0137946
823.739	0.0136836
823.818	0.0137917
823.896	0.0137373
823.974	0.0136191
824.052	0.0139063
824.130	0.0139531
824.208	0.0138408
824.286	0.0138811
824.364	0.0139033
824.443	0.0139243
824.521	0.0139294
824.599	0.0139805
824.677	0.0139922
824.755	0.0138587
824.833	0.0138926
824.911	0.0140154
824.989	0.0139907
825.068	0.0137902
825.146	0.0139491
825.224	0.0139527
825.302	0.0138934
825.380	0.0138161
825.458	0.0138330
825.536	0.0136794
825.614	0.0136243
825.693	0.0138470
825.771	0.0138547
825.849	0.0136258
825.927	0.0136398
826.005	0.0136368
826.083	0.0136607
826.161	0.0135921
826.239	0.0134976
826.318	0.0135239
826.396	0.0134444
826.474	0.0135399
826.552	0.0133891
826.630	0.0133159
826.708	0.0132871
826.786	0.0134425
826.864	0.0133877
826.943	0.0132758
827.021	0.0134348
827.099	0.0134145
827.177	0.0132662
827.255	0.0133582
827.333	0.0132845
827.411	0.0135493
827.489	0.0135134
827.568	0.0135482
827.646	0.0135010
827.724	0.0135538
827.802	0.0134473
827.880	0.0133929
827.958	0.0135642
828.036	0.0136819
828.114	0.0137251
828.193	0.0137295
828.271	0.0137640
828.349	0.0137728
828.427	0.0138599
828.505	0.0138373
828.583	0.0137829
828.661	0.0137941
828.739	0.0138361
828.818	0.0137489
828.896	0.0137450
828.974	0.0138293
829.052	0.0137439
829.130	0.0138131
829.208	0.0138192
829.286	0.0137897
829.364	0.0137994
829.443	0.0137090
829.521	0.0137337
829.599	0.0137851
829.677	0.0135995
829.755	0.0136166
829.833	0.0136012
829.911	0.0135510
829.989	0.0136340
830.068	0.0137000
830.146	0.0137003
830.224	0.0136975
830.302	0.0138062
830.380	0.0135966
830.458	0.0137485
830.536	0.0137351
830.614	0.0136459
830.693	0.0136480
830.771	0.0135986
830.849	0.0136922
830.927	0.0137150
831.005	0.0135833
831.083	0.0134418
831.161	0.0135282
831.239	0.0136562
831.318	0.0134317
831.396	0.0134978
831.474	0.0134915
831.552	0.0135545
831.630	0.0134669
831.708	0.0134891
831.786	0.0135533
831.864	0.0135739
831.943	0.0134234
832.021	0.0134763
832.099	0.0135922
832.177	0.0136411
832.255	0.0135171
832.333	0.0135378
832.411	0.0136185
832.489	0.0136405
832.568	0.0136972
832.646	0.0136069
832.724	0.0136168
832.802	0.0135386
832.880	0.0135291
832.958	0.0135023
833.036	0.0136206
833.114	0.0135900
833.193	0.0134560
833.271	0.0135887
833.349	0.0137119
833.427	0.0136485
833.505	0.0135992
833.583	0.0136449
833.661	0.0136726
833.739	0.0136894
833.818	0.0136048
833.896	0.0137970
833.974	0.0136848
834.052	0.0138317
834.130	0.0138326
834.208	0.0138268
834.286	0.0139411
834.364	0.0138387
834.443	0.0139275
834.521	0.0138932
834.599	0.0138269
834.677	0.0138937
834.755	0.0140469
834.833	0.0139497
834.911	0.0138995
834.989	0.0138859
835.068	0.0138508
835.146	0.0137254
835.224	0.0139330
835.302	0.0137922
835.380	0.0137402
835.458	0.0136114
835.536	0.0136440
835.614	0.0135677
835.693	0.0134788
835.771	0.0134340
835.849	0.0132900
835.927	0.0134019
836.005	0.0133353
836.083	0.0133083
836.161	0.0133081
836.239	0.0131886
836.318	0.0133476
836.396	0.0132648
836.474	0.0133018
836.552	0.0134023
836.630	0.0134399
836.708	0.0133161
836.786	0.0132898
836.864	0.0135361
836.943	0.0135165
837.021	0.0134557
837.099	0.0136710
837.177	0.0137747
837.255	0.0137035
837.333	0.0137061
837.411	0.0138939
837.489	0.0139034
837.568	0.0138956
837.646	0.0138702
837.724	0.0139404
837.802	0.0137789
837.880	0.0139385
837.958	0.0138745
838.036	0.0138725
838.114	0.0138789
838.193	0.0138649
838.271	0.0138130
838.349	0.0139049
838.427	0.0139262
838.505	0.0138139
838.583	0.0138637
838.661	0.0137024
838.739	0.0137629
838.818	0.0136572
838.896	0.0137883
838.974	0.0138808
839.052	0.0137950
839.130	0.0138390
839.208	0.0137482
839.286	0.0137897
839.364	0.0137863
839.443	0.0138677
839.521	0.0138121
839.599	0.0138722
839.677	0.0139149
839.755	0.0139066
839.833	0.0138772
839.911	0.0139050
839.989	0.0138474
840.068	0.0137225
840.146	0.0139035
840.224	0.0139324
840.302	0.0138023
840.380	0.0138178
840.458	0.0137957
840.536	0.0136400
840.614	0.0135117
840.693	0.0134986
840.771	0.0136535
840.849	0.0137366
840.927	0.0134593
841.005	0.0134698
841.083	0.0136684
841.161	0.0135660
841.239	0.0135527
841.318	0.0135012
841.396	0.0133994
841.474	0.0135020
841.552	0.0133391
841.630	0.0135360
841.708	0.0135867
841.786	0.0135001
841.864	0.0134923
841.943	0.0134628
842.021	0.0135252
842.099	0.0137421
842.177	0.0136922
842.255	0.0136768
842.333	0.0136880
842.411	0.0136663
842.489	0.0138262
842.568	0.0138007
842.646	0.0137225
842.724	0.0137100
842.802	0.0137964
842.880	0.0137983
842.958	0.0137364
843.036	0.0138978
843.114	0.0137900
843.193	0.0139479
843.271	0.0139280
843.349	0.0140557
843.427	0.0139257
843.505	0.0138630
843.583	0.0141318
843.661	0.0142019
843.739	0.0141695
843.818	0.0140736
843.896	0.0141094
843.974	0.0142485
844.052	0.0142461
844.130	0.0139705
844.208	0.0140705
844.286	0.0139552
844.364	0.0140119
844.443	0.0138864
844.521	0.0137741
844.599	0.0138620
844.677	0.0138174
844.755	0.0138000
844.833	0.0139178
844.911	0.0138259
844.989	0.0139268
845.068	0.0137928
845.146	0.0136570
845.224	0.0136924
845.302	0.0137297
845.380	0.0138247
845.458	0.0138717
845.536	0.0138110
845.614	0.0137227
845.693	0.0136913
845.771	0.0138983
845.849	0.0138287
845.927	0.0136428
846.005	0.0137503
846.083	0.0135983
846.161	0.0137550
846.239	0.0136434
846.318	0.0135586
846.396	0.0135488
846.474	0.0136189
846.552	0.0135770
846.630	0.0135085
846.708	0.0137513
846.786	0.0136728
846.864	0.0135797
846.943	0.0134928
847.021	0.0136266
847.099	0.0136266
847.177	0.0135666
847.255	0.0134636
847.333	0.0135198
847.411	0.0135751
847.489	0.0136701
847.568	0.0136346
847.646	0.0136501
847.724	0.0136830
847.802	0.0135461
847.880	0.0137247
847.958	0.0136721
848.036	0.0137492
848.114	0.0136417
848.193	0.0136359
848.271	0.0137518
848.349	0.0137146
848.427	0.0137794
848.505	0.0137833
848.583	0.0137148
848.661	0.0138856
848.739	0.0136167
848.818	0.0139747
848.896	0.0138292
848.974	0.0137834
849.052	0.0139216
849.130	0.0138775
849.208	0.0138718
849.286	0.0138617
849.364	0.0137255
849.443	0.0138593
849.521	0.0138876
849.599	0.0139033
849.677	0.0137334
849.755	0.0137577
849.833	0.0138145
849.911	0.0137554
849.989	0.0136875
850.068	0.0136468
850.146	0.0137462
850.224	0.0137389
850.302	0.0138268
850.380	0.0138368
850.458	0.0137807
850.536	0.0136246
850.614	0.0135808
850.693	0.0137155
850.771	0.0136253
850.849	0.0135483
850.927	0.0137866
851.005	0.0135516
851.083	0.0136452
851.161	0.0135530
851.239	0.0135441
851.318	0.0136461
851.396	0.0135710
851.474	0.0135318
851.552	0.0135763
851.630	0.0134310
851.708	0.0135865
851.786	0.0134481
851.864	0.0135014
851.943	0.0135075
852.021	0.0134471
852.099	0.0136272
852.177	0.0135444
852.255	0.0135176
852.333	0.0134483
852.411	0.0136037
852.489	0.0135362
852.568	0.0135470
852.646	0.0134856
852.724	0.0136176
852.802	0.0136340
852.880	0.0135065
852.958	0.0134741
853.036	0.0134417
853.114	0.0136825
853.193	0.0136272
853.271	0.0135072
853.349	0.0135577
853.427	0.0134898
853.505	0.0135732
853.583	0.0134924
853.661	0.0134827
853.739	0.0136638
853.818	0.0135986
853.896	0.0135264
853.974	0.0134541
854.052	0.0134129
854.130	0.0135316
854.208	0.0136801
854.286	0.0135624
854.364	0.0136176
854.443	0.0136602
854.521	0.0135572
854.599	0.0135236
854.677	0.0135997
854.755	0.0137222
854.833	0.0136620
854.911	0.0137009
854.989	0.0138280
855.068	0.0138167
855.146	0.0137376
855.224	0.0137234
855.302	0.0138600
855.380	0.0138504
855.458	0.0138938
855.536	0.0138160
855.614	0.0139245
855.693	0.0139133
855.771	0.0138979
855.849	0.0139615
855.927	0.0138598
856.005	0.0138304
856.083	0.0138054
856.161	0.0138679
856.239	0.0138237
856.318	0.0138173
856.396	0.0136364
856.474	0.0136887
856.552	0.0137086
856.630	0.0136543
856.708	0.0134923
856.786	0.0135464
856.864	0.0134882
856.943	0.0136201
857.021	0.0133070
857.099	0.0133884
857.177	0.0134241
857.255	0.0133759
857.333	0.0133588
857.411	0.0134976
857.489	0.0132130
857.568	0.0133381
857.646	0.0135742
857.724	0.0133418
857.802	0.0134617
857.880	0.0134631
857.958	0.0135867
858.036	0.0136203
858.114	0.0134761
858.193	0.0136486
858.271	0.0135638
858.349	0.0137083
858.427	0.0136702
858.505	0.0136526
858.583	0.0137732
858.661	0.0137823
858.739	0.0136069
858.818	0.0137492
858.896	0.0137577
858.974	0.0137737
859.052	0.0137203
859.130	0.0137620
859.208	0.0137132
859.286	0.0138854
859.364	0.0136958
859.443	0.0139155
859.521	0.0137315
859.599	0.0137331
859.677	0.0138820
859.755	0.0136566
859.833	0.0137564
859.911	0.0138061
859.989	0.0138331
860.068	0.0138283
860.146	0.0137881
860.224	0.0139233
860.302	0.0138828
860.380	0.0137747
860.458	0.0138123
860.536	0.0141022
860.614	0.0138245
860.693	0.0139238
860.771	0.0136942
860.849	0.0138367
860.927	0.0139637
861.005	0.0137501
861.083	0.0138134
861.161	0.0136807
861.239	0.0136092
861.318	0.0136701
861.396	0.0136354
861.474	0.0137142
861.552	0.0136686
861.630	0.0136506
861.708	0.0135582
861.786	0.0134756
861.864	0.0137261
861.943	0.0135002
862.021	0.0134821
862.099	0.0134753
862.177	0.0134584
862.255	0.0134988
862.333	0.0135635
862.411	0.0135649
862.489	0.0135424
862.568	0.0136329
862.646	0.0136102
862.724	0.0135670
862.802	0.0134747
862.880	0.0135654
862.958	0.0135033
863.036	0.0136802
863.114	0.0135897
863.193	0.0136842
863.271	0.0137119
863.349	0.0136432
863.427	0.0136530
863.505	0.0136369
863.583	0.0137222
863.661	0.0136048
863.739	0.0137334
863.818	0.0137242
863.896	0.0138097
863.974	0.0136835
864.052	0.0136938
864.130	0.0138591
864.208	0.0138860
864.286	0.0138821
864.364	0.0139129
864.443	0.0137842
864.521	0.0138743
864.599	0.0139192
864.677	0.0138494
864.755	0.0138602
864.833	0.0138427
864.911	0.0138730
864.989	0.0138924
865.068	0.0139106
865.146	0.0138735
865.224	0.0139450
865.302	0.0137193
865.380	0.0138309
865.458	0.0137887
865.536	0.0136893
865.614	0.0137283
865.693	0.0137259
865.771	0.0136803
865.849	0.0136463
865.927	0.0137071
866.005	0.0136222
866.083	0.0137410
866.161	0.0137274
866.239	0.0136162
866.318	0.0135968
866.396	0.0136678
866.474	0.0135966
866.552	0.0135709
866.630	0.0136644
866.708	0.0136368
866.786	0.0136720
866.864	0.0137283
866.943	0.0135614
867.021	0.0135870
867.099	0.0134869
867.177	0.0136592
867.255	0.0135630
867.333	0.0135879
867.411	0.0137179
867.489	0.0136987
867.568	0.0137493
867.646	0.0136521
867.724	0.0136525
867.802	0.0136287
867.880	0.0137736
867.958	0.0138177
868.036	0.0136792
868.114	0.0137366
868.193	0.0137945
868.271	0.0137228
868.349	0.0138105
868.427	0.0138200
868.505	0.0138926
868.583	0.0139140
868.661	0.0139126
868.739	0.0139925
868.818	0.0139197
868.896	0.0139693
868.974	0.0139378
869.052	0.0139401
869.130	0.0139529
869.208	0.0139442
869.286	0.0139464
869.364	0.0138676
869.443	0.0140099
869.521	0.0138454
869.599	0.0138823
869.677	0.0138230
869.755	0.0138697
869.833	0.0138129
869.911	0.0136405
869.989	0.0139007
870.068	0.0138603
870.146	0.0137086
870.224	0.0136649
870.302	0.0136066
870.380	0.0136334
870.458	0.0135744
870.536	0.0135140
870.614	0.0135123
870.693	0.0135035
870.771	0.0135611
870.849	0.0135367
870.927	0.0135705
871.005	0.0136666
871.083	0.0135850
871.161	0.0135450
871.239	0.0136340
871.318	0.0135882
871.396	0.0135010
871.474	0.0135415
871.552	0.0136904
871.630	0.0137233
871.708	0.0136308
871.786	0.0137945
871.864	0.0138668
871.943	0.0136788
872.021	0.0137765
872.099	0.0140463
872.177	0.0139359
872.255	0.0139565
872.333	0.0139209
872.411	0.0139180
872.489	0.0138863
872.568	0.0139890
872.646	0.0139924
872.724	0.0139250
872.802	0.0139948
872.880	0.0139771
872.958	0.0138978
873.036	0.0139833
873.114	0.0139334
873.193	0.0137401
873.271	0.0137769
873.349	0.0137881
873.427	0.0138656
873.505	0.0137069
873.583	0.0137542
873.661	0.0138162
873.739	0.0136628
873.818	0.0137109
873.896	0.0135985
873.974	0.0135048
874.052	0.0135526
874.130	0.0134688
874.208	0.0134635
874.286	0.0135719
874.364	0.0134920
874.443	0.0137509
874.521	0.0137302
874.599	0.0135618
874.677	0.0137135
874.755	0.0136853
874.833	0.0137551
874.911	0.0138003
874.989	0.0136987
875.068	0.0136565
875.146	0.0138985
875.224	0.0138449
875.302	0.0140412
875.380	0.0139169
875.458	0.0138988
875.536	0.0140154
875.614	0.0139962
875.693	0.0140167
875.771	0.0140394
875.849	0.0139581
875.927	0.0139633
876.005	0.0140502
876.083	0.0140717
876.161	0.0139875
876.239	0.0140021
876.318	0.0140147
876.396	0.0139468
876.474	0.0137884
876.552	0.0139791
876.630	0.0138237
876.708	0.0136853
876.786	0.0137837
876.864	0.0136720
876.943	0.0137271
877.021	0.0136247
877.099	0.0135910
877.177	0.0134985
877.255	0.0135602
877.333	0.0134717
877.411	0.0133712
877.489	0.0134822
877.568	0.0134640
877.646	0.0134003
877.724	0.0135329
877.802	0.0135429
877.880	0.0136089
877.958	0.0136473
878.036	0.0135773
878.114	0.0136921
878.193	0.0136702
878.271	0.0138202
878.349	0.0138619
878.427	0.0137872
878.505	0.0139143
878.583	0.0139452
878.661	0.0140715
878.739	0.0139300
878.818	0.0140179
878.896	0.0139996
878.974	0.0138535
879.052	0.0140909
879.130	0.0141093
879.208	0.0139307
879.286	0.0139279
879.364	0.0139127
879.443	0.0139882
879.521	0.0139269
879.599	0.0137859
879.677	0.0139250
879.755	0.0138734
879.833	0.0137505
879.911	0.0136927
879.989	0.0136126
880.068	0.0137382
880.146	0.0137042
880.224	0.0135871
880.302	0.0135493
880.380	0.0135599
880.458	0.0135415
880.536	0.0137393
880.614	0.0135633
880.693	0.0135729
880.771	0.0135670
880.849	0.0136389
880.927	0.0136366
881.005	0.0137455
881.083	0.0136185
881.161	0.0138229
881.239	0.0137751
881.318	0.0137695
881.396	0.0138317
881.474	0.0136613
881.552	0.0137005
881.630	0.0139767
881.708	0.0140176
881.786	0.0138307
881.864	0.0138002
881.943	0.0138146
882.021	0.0139224
882.099	0.0138717
882.177	0.0138345
882.255	0.0136822
882.333	0.0138283
882.411	0.0136668
882.489	0.0136701
882.568	0.0138460
882.646	0.0138165
882.724	0.0137919
882.802	0.0136590
882.880	0.0137621
882.958	0.0137684
883.036	0.0135775
883.114	0.0137273
883.193	0.0137321
883.271	0.0137101
883.349	0.0136044
883.427	0.0136624
883.505	0.0136897
883.583	0.0137534
883.661	0.0136705
883.739	0.0135738
883.818	0.0136632
883.896	0.0138452
883.974	0.0135670
884.052	0.0136901
884.130	0.0135771
884.208	0.0136398
884.286	0.0135441
884.364	0.0135029
884.443	0.0135610
884.521	0.0135704
884.599	0.0135714
884.677	0.0135499
884.755	0.0133972
884.833	0.0133035
884.911	0.0134378
884.989	0.0134455
885.068	0.0135066
885.146	0.0136657
885.224	0.0136745
885.302	0.0135667
885.380	0.0135591
885.458	0.0136707
885.536	0.0137105
885.614	0.0137188
885.693	0.0137185
885.771	0.0138207
885.849	0.0139099
885.927	0.0137998
886.005	0.0138806
886.083	0.0139039
886.161	0.0137347
886.239	0.0139272
886.318	0.0138334
886.396	0.0138869
886.474	0.0138030
886.552	0.0137758
886.630	0.0138699
886.708	0.0137070
886.786	0.0136937
886.864	0.0137440
886.943	0.0135979
887.021	0.0136539
887.099	0.0136030
887.177	0.0136231
887.255	0.0136553
887.333	0.0136182
887.411	0.0136147
887.489	0.0137451
887.568	0.0136732
887.646	0.0137313
887.724	0.0136751
887.802	0.0136443
887.880	0.0136800
887.958	0.0137819
888.036	0.0138197
888.114	0.0139153
888.193	0.0138290
888.271	0.0138216
888.349	0.0139297
888.427	0.0138693
888.505	0.0138101
888.583	0.0138235
888.661	0.0138323
888.739	0.0137827
888.818	0.0136950
888.896	0.0136105
888.974	0.0137782
889.052	0.0136562
889.130	0.0136233
889.208	0.0135799
889.286	0.0135755
889.364	0.0136308
889.443	0.0135520
889.521	0.0134262
889.599	0.0134798
889.677	0.0135204
889.755	0.0133819
889.833	0.0133768
889.911	0.0133903
889.989	0.0135040
890.068	0.0133514
890.146	0.0133418
890.224	0.0134314
890.302	0.0134528
890.380	0.0135285
890.458	0.0134663
890.536	0.0134422
890.614	0.0135585
890.693	0.0136304
890.771	0.0136588
890.849	0.0137551
890.927	0.0136812
891.005	0.0137549
891.083	0.0136371
891.161	0.0137236
891.239	0.0140053
891.318	0.0138758
891.396	0.0139170
891.474	0.0139996
891.552	0.0139339
891.630	0.0139204
891.708	0.0140125
891.786	0.0139388
891.864	0.0139832
891.943	0.0139138
892.021	0.0138344
892.099	0.0138828
892.177	0.0137663
892.255	0.0138197
892.333	0.0137682
892.411	0.0136978
892.489	0.0136481
892.568	0.0137151
892.646	0.0137576
892.724	0.0136135
892.802	0.0135749
892.880	0.0135009
892.958	0.0135687
893.036	0.0136188
893.114	0.0134889
893.193	0.0135866
893.271	0.0136778
893.349	0.0135898
893.427	0.0136452
893.505	0.0137510
893.583	0.0137686
893.661	0.0139043
893.739	0.0138263
893.818	0.0136443
893.896	0.0139176
893.974	0.0137332
894.052	0.0137409
894.130	0.0137918
894.208	0.0138491
894.286	0.0137981
894.364	0.0136433
894.443	0.0136523
894.521	0.0137142
894.599	0.0136924
894.677	0.0137096
894.755	0.0137471
894.833	0.0136419
894.911	0.0135658
894.989	0.0135240
895.068	0.0135986
895.146	0.0135815
895.224	0.0137579
895.302	0.0136035
895.380	0.0136642
895.458	0.0137727
895.536	0.0136956
895.614	0.0138602
895.693	0.0136865
895.771	0.0138392
895.849	0.0138380
895.927	0.0138687
896.005	0.0139265
896.083	0.0140488
896.161	0.0140599
896.239	0.0140051
896.318	0.0139626
896.396	0.0139999
896.474	0.0139817
896.552	0.0140771
896.630	0.0140882
896.708	0.0140461
896.786	0.0139909
896.864	0.0140020
896.943	0.0139762
897.021	0.0139977
897.099	0.0137988
897.177	0.0137582
897.255	0.0138852
897.333	0.0138702
897.411	0.0138496
897.489	0.0138529
897.568	0.0137529
897.646	0.0137679
897.724	0.0135450
897.802	0.0136432
897.880	0.0135278
897.958	0.0136961
898.036	0.0136360
898.114	0.0137532
898.193	0.0136958
898.271	0.0136727
898.349	0.0137032
898.427	0.0138007
898.505	0.0137430
898.583	0.0136855
898.661	0.0138759
898.739	0.0137920
898.818	0.0136472
898.896	0.0137624
898.974	0.0137865
899.052	0.0138653
899.130	0.0138378
899.208	0.0138446
899.286	0.0138347
899.364	0.0138223
899.443	0.0137807
899.521	0.0136739
899.599	0.0137698
899.677	0.0137736
899.755	0.0136457
899.833	0.0137634
899.911	0.0138083
899.989	0.0136815
900.068	0.0135891
900.146	0.0136139
900.224	0.0135747
900.302	0.0135720
900.380	0.0136218
900.458	0.0134959
900.536	0.0136321
900.614	0.0135574
900.693	0.0135571
900.771	0.0136642
900.849	0.0136511
900.927	0.0137138
901.005	0.0139702
901.083	0.0138284
901.161	0.0138799
901.239	0.0139142
901.318	0.0139011
901.396	0.0139629
901.474	0.0140092
901.552	0.0141264
901.630	0.0140408
901.708	0.0139783
901.786	0.0140384
901.864	0.0139533
901.943	0.0140665
902.021	0.0141265
902.099	0.0139848
902.177	0.0139041
902.255	0.0139413
902.333	0.0140072
902.411	0.0139684
902.489	0.0138485
902.568	0.0138830
902.646	0.0139501
902.724	0.0137019
902.802	0.0138697
902.880	0.0138979
902.958	0.0137281
903.036	0.0137877
903.114	0.0138293
903.193	0.0138858
903.271	0.0137760
903.349	0.0138317
903.427	0.0137996
903.505	0.0137454
903.583	0.0138316
903.661	0.0137183
903.739	0.0137975
903.818	0.0137672
903.896	0.0137771
903.974	0.0138064
904.052	0.0137973
904.130	0.0137888
904.208	0.0138754
904.286	0.0136686
904.364	0.0136738
904.443	0.0137650
904.521	0.0138258
904.599	0.0136173
904.677	0.0138010
904.755	0.0136832
904.833	0.0139208
904.911	0.0136474
904.989	0.0135960
905.068	0.0137238
905.146	0.0137712
905.224	0.0136547
905.302	0.0134742
905.380	0.0135164
905.458	0.0135585
905.536	0.0137401
905.614	0.0135180
905.693	0.0135624
905.771	0.0136040
905.849	0.0137090
905.927	0.0135856
906.005	0.0135198
906.083	0.0137675
906.161	0.0136391
906.239	0.0135545
906.318	0.0135812
906.396	0.0136216
906.474	0.0136001
906.552	0.0138187
906.630	0.0138535
906.708	0.0138379
906.786	0.0137733
906.864	0.0138537
906.943	0.0139367
907.021	0.0138719
907.099	0.0138194
907.177	0.0138172
907.255	0.0137834
907.333	0.0137178
907.411	0.0139052
907.489	0.0139099
907.568	0.0139699
907.646	0.0137604
907.724	0.0137149
907.802	0.0138216
907.880	0.0137607
907.958	0.0138462
908.036	0.0139347
908.114	0.0138384
908.193	0.0137271
908.271	0.0137048
908.349	0.0136266
908.427	0.0138609
908.505	0.0137778
908.583	0.0136121
908.661	0.0137532
908.739	0.0138336
908.818	0.0136566
908.896	0.0137665
908.974	0.0138381
909.052	0.0135771
909.130	0.0135902
909.208	0.0136664
909.286	0.0137083
909.364	0.0136721
909.443	0.0134928
909.521	0.0136145
909.599	0.0136797
909.677	0.0135727
909.755	0.0134146
909.833	0.0135915
909.911	0.0136822
909.989	0.0135222
910.068	0.0134995
910.146	0.0135924
910.224	0.0136800
910.302	0.0135861
910.380	0.0135514
910.458	0.0135545
910.536	0.0135551
910.614	0.0136253
910.693	0.0134756
910.771	0.0135838
910.849	0.0135347
910.927	0.0136381
911.005	0.0135314
911.083	0.0134872
911.161	0.0135442
911.239	0.0136175
911.318	0.0135461
911.396	0.0135625
911.474	0.0137139
911.552	0.0137729
911.630	0.0137401
911.708	0.0137618
911.786	0.0138177
911.864	0.0137592
911.943	0.0137830
912.021	0.0137626
912.099	0.0138585
912.177	0.0136590
912.255	0.0138008
912.333	0.0136693
912.411	0.0137962
912.489	0.0137245
912.568	0.0137396
912.646	0.0136633
912.724	0.0135455
912.802	0.0135435
912.880	0.0133744
912.958	0.0134830
913.036	0.0134740
913.114	0.0134980
913.193	0.0134990
913.271	0.0134094
913.349	0.0134270
913.427	0.0133958
913.505	0.0134861
913.583	0.0134064
913.661	0.0132880
913.739	0.0133679
913.818	0.0132621
913.896	0.0134470
913.974	0.0133980
914.052	0.0134318
914.130	0.0133951
914.208	0.0133927
914.286	0.0135612
914.364	0.0134106
914.443	0.0135298
914.521	0.0135947
914.599	0.0136088
914.677	0.0135520
914.755	0.0136218
914.833	0.0135591
914.911	0.0135762
914.989	0.0136822
915.068	0.0137317
915.146	0.0136587
915.224	0.0136927
915.302	0.0137237
915.380	0.0136803
915.458	0.0136036
915.536	0.0137592
915.614	0.0136283
915.693	0.0137029
915.771	0.0136688
915.849	0.0137447
915.927	0.0137077
916.005	0.0137137
916.083	0.0136757
916.161	0.0136525
916.239	0.0136393
916.318	0.0137547
916.396	0.0135746
916.474	0.0135252
916.552	0.0135843
916.630	0.0137151
916.708	0.0136903
916.786	0.0136256
916.864	0.0137029
916.943	0.0136752
917.021	0.0134989
917.099	0.0136574
917.177	0.0135550
917.255	0.0136194
917.333	0.0136324
917.411	0.0135355
917.489	0.0135072
917.568	0.0135575
917.646	0.0137129
917.724	0.0134898
917.802	0.0134624
917.880	0.0135082
917.958	0.0135053
918.036	0.0134087
918.114	0.0135644
918.193	0.0136269
918.271	0.0135426
918.349	0.0134513
918.427	0.0136224
918.505	0.0137361
918.583	0.0135608
918.661	0.0135921
918.739	0.0134567
918.818	0.0135439
918.896	0.0136134
918.974	0.0135356
919.052	0.0135010
919.130	0.0135725
919.208	0.0135257
919.286	0.0137166
919.364	0.0136382
919.443	0.0136813
919.521	0.0138471
919.599	0.0136148
919.677	0.0137234
919.755	0.0138033
919.833	0.0137621
919.911	0.0138271
919.989	0.0138932
920.068	0.0138826
920.146	0.0137128
920.224	0.0137755
920.302	0.0136600
920.380	0.0137239
920.458	0.0137477
920.536	0.0135534
920.614	0.0136900
920.693	0.0135326
920.771	0.0135732
920.849	0.0138477
920.927	0.0135545
921.005	0.0135120
921.083	0.0136115
921.161	0.0136440
921.239	0.0135200
921.318	0.0135026
921.396	0.0134966
921.474	0.0136343
921.552	0.0138099
921.630	0.0136816
921.708	0.0138625
921.786	0.0137276
921.864	0.0137108
921.943	0.0138112
922.021	0.0138743
922.099	0.0137988
922.177	0.0137598
922.255	0.0137920
922.333	0.0137298
922.411	0.0138851
922.489	0.0139610
922.568	0.0138714
922.646	0.0139211
922.724	0.0139441
922.802	0.0138564
922.880	0.0137928
922.958	0.0138180
923.036	0.0138497
923.114	0.0137646
923.193	0.0137485
923.271	0.0138257
923.349	0.0138239
923.427	0.0138325
923.505	0.0138873
923.583	0.0138876
923.661	0.0137843
923.739	0.0138277
923.818	0.0137726
923.896	0.0136963
923.974	0.0137845
924.052	0.0136566
924.130	0.0137778
924.208	0.0137302
924.286	0.0136640
924.364	0.0136960
924.443	0.0135851
924.521	0.0136743
924.599	0.0137081
924.677	0.0136720
924.755	0.0135298
924.833	0.0135386
924.911	0.0136148
924.989	0.0135342
925.068	0.0136951
925.146	0.0134540
925.224	0.0135096
925.302	0.0136076
925.380	0.0136405
925.458	0.0136013
925.536	0.0135287
925.614	0.0136505
925.693	0.0137051
925.771	0.0137889
925.849	0.0138412
925.927	0.0136803
926.005	0.0137965
926.083	0.0137372
926.161	0.0137938
926.239	0.0138387
926.318	0.0137989
926.396	0.0138168
926.474	0.0137827
926.552	0.0137689
926.630	0.0138953
926.708	0.0137337
926.786	0.0138268
926.864	0.0138567
926.943	0.0138422
927.021	0.0139537
927.099	0.0139481
927.177	0.0138548
927.255	0.0138068
927.333	0.0139000
927.411	0.0138648
927.489	0.0138479
927.568	0.0138007
927.646	0.0138712
927.724	0.0138941
927.802	0.0137674
927.880	0.0138102
927.958	0.0139184
928.036	0.0137324
928.114	0.0138202
928.193	0.0138911
928.271	0.0139386
928.349	0.0138299
928.427	0.0136913
928.505	0.0136903
928.583	0.0137070
928.661	0.0137492
928.739	0.0136891
928.818	0.0136635
928.896	0.0137198
928.974	0.0136083
929.052	0.0136021
929.130	0.0136444
929.208	0.0135387
929.286	0.0134428
929.364	0.0135550
929.443	0.0134119
929.521	0.0134921
929.599	0.0135623
929.677	0.0133681
929.755	0.0133910
929.833	0.0133801
929.911	0.0135370
929.989	0.0135291
930.068	0.0136633
930.146	0.0136483
930.224	0.0136073
930.302	0.0136770
930.380	0.0136996
930.458	0.0136533
930.536	0.0137637
930.614	0.0138376
930.693	0.0138113
930.771	0.0136596
930.849	0.0137502
930.927	0.0137672
931.005	0.0138038
931.083	0.0139605
931.161	0.0139462
931.239	0.0140011
931.318	0.0139463
931.396	0.0139846
931.474	0.0140005
931.552	0.0138976
931.630	0.0138732
931.708	0.0137906
931.786	0.0138024
931.864	0.0137669
931.943	0.0138872
932.021	0.0138027
932.099	0.0136575
932.177	0.0136723
932.255	0.0135981
932.333	0.0137049
932.411	0.0136612
932.489	0.0135960
932.568	0.0135581
932.646	0.0135490
932.724	0.0135192
932.802	0.0134746
932.880	0.0135156
932.958	0.0134071
933.036	0.0134611
933.114	0.0133894
933.193	0.0134260
933.271	0.0133379
933.349	0.0133284
933.427	0.0134747
933.505	0.0135524
933.583	0.0134705
933.661	0.0135899
933.739	0.0136225
933.818	0.0135441
933.896	0.0136288
933.974	0.0136150
934.052	0.0136970
934.130	0.0137345
934.208	0.0138329
934.286	0.0137811
934.364	0.0136874
934.443	0.0138128
934.521	0.0138586
934.599	0.0138632
934.677	0.0137919
934.755	0.0136946
934.833	0.0138766
934.911	0.0138180
934.989	0.0136982
935.068	0.0138113
935.146	0.0139055
935.224	0.0136784
935.302	0.0136554
935.380	0.0136274
935.458	0.0137953
935.536	0.0135863
935.614	0.0135924
935.693	0.0134982
935.771	0.0136286
935.849	0.0134528
935.927	0.0134828
936.005	0.0135667
936.083	0.0134630
936.161	0.0134428
936.239	0.0135777
936.318	0.0134673
936.396	0.0133220
936.474	0.0135281
936.552	0.0133788
936.630	0.0135453
936.708	0.0134768
936.786	0.0135435
936.864	0.0136231
936.943	0.0135300
937.021	0.0134509
937.099	0.0134595
937.177	0.0137228
937.255	0.0136260
937.333	0.0136909
937.411	0.0135728
937.489	0.0137032
937.568	0.0136945
937.646	0.0136105
937.724	0.0136481
937.802	0.0135666
937.880	0.0136838
937.958	0.0136903
938.036	0.0136939
938.114	0.0135892
938.193	0.0137536
938.271	0.0135325
938.349	0.0137245
938.427	0.0137303
938.505	0.0137360
938.583	0.0136992
938.661	0.0135446
938.739	0.0137312
938.818	0.0135937
938.896	0.0136860
938.974	0.0137812
939.052	0.0137768
939.130	0.0137292
939.208	0.0136973
939.286	0.0136673
939.364	0.0136403
939.443	0.0138393
939.521	0.0136823
939.599	0.0137656
939.677	0.0137498
939.755	0.0136274
939.833	0.0137099
939.911	0.0136939
939.989	0.0136440
940.068	0.0136108
940.146	0.0136832
940.224	0.0136164
940.302	0.0136614
940.380	0.0136272
940.458	0.0136421
940.536	0.0137053
940.614	0.0136810
940.693	0.0136317
940.771	0.0136644
940.849	0.0137815
940.927	0.0135676
941.005	0.0135941
941.083	0.0135447
941.161	0.0135392
941.239	0.0135651
941.318	0.0135924
941.396	0.0134971
941.474	0.0134567
941.552	0.0134978
941.630	0.0134253
941.708	0.0135896
941.786	0.0134227
941.864	0.0135258
941.943	0.0134219
942.021	0.0134366
942.099	0.0135484
942.177	0.0135329
942.255	0.0134631
942.333	0.0135439
942.411	0.0135941
942.489	0.0136111
942.568	0.0136011
942.646	0.0134952
942.724	0.0137667
942.802	0.0136545
942.880	0.0136362
942.958	0.0136642
943.036	0.0137400
943.114	0.0137137
943.193	0.0136736
943.271	0.0137097
943.349	0.0137863
943.427	0.0137993
943.505	0.0138057
943.583	0.0139304
943.661	0.0137555
943.739	0.0138374
943.818	0.0139370
943.896	0.0137157
943.974	0.0137740
944.052	0.0138351
944.130	0.0137977
944.208	0.0138869
944.286	0.0138716
944.364	0.0138487
944.443	0.0138430
944.521	0.0138256
944.599	0.0138155
944.677	0.0138486
944.755	0.0138699
944.833	0.0136525
944.911	0.0136537
944.989	0.0136918
945.068	0.0137723
945.146	0.0137731
945.224	0.0135841
945.302	0.0137025
945.380	0.0137168
945.458	0.0137189
945.536	0.0136288
945.614	0.0136986
945.693	0.0137743
945.771	0.0136285
945.849	0.0135509
945.927	0.0136147
946.005	0.0136549
946.083	0.0137330
946.161	0.0136847
946.239	0.0136726
946.318	0.0136926
946.396	0.0135920
946.474	0.0136912
946.552	0.0135426
946.630	0.0135812
946.708	0.0136591
946.786	0.0134499
946.864	0.0138190
946.943	0.0136754
947.021	0.0137045
947.099	0.0136553
947.177	0.0136463
947.255	0.0137860
947.333	0.0136184
947.411	0.0137157
947.489	0.0135969
947.568	0.0137164
947.646	0.0136158
947.724	0.0136577
947.802	0.0136110
947.880	0.0136017
947.958	0.0136762
948.036	0.0136407
948.114	0.0136900
948.193	0.0137123
948.271	0.0137035
948.349	0.0137256
948.427	0.0137798
948.505	0.0137085
948.583	0.0137215
948.661	0.0137292
948.739	0.0136752
948.818	0.0137405
948.896	0.0136608
948.974	0.0137508
949.052	0.0136468
949.130	0.0136475
949.208	0.0136064
949.286	0.0136150
949.364	0.0135957
949.443	0.0137334
949.521	0.0137000
949.599	0.0136330
949.677	0.0135563
949.755	0.0135883
949.833	0.0136346
949.911	0.0135953
949.989	0.0136370
950.068	0.0136108
950.146	0.0138844
950.224	0.0138134
950.302	0.0138085
950.380	0.0139461
950.458	0.0138734
950.536	0.0138435
950.614	0.0138846
950.693	0.0139714
950.771	0.0138702
950.849	0.0139093
950.927	0.0139355
951.005	0.0140127
951.083	0.0138843
951.161	0.0139420
951.239	0.0138333
951.318	0.0138762
951.396	0.0139648
951.474	0.0138239
951.552	0.0138471
951.630	0.0138203
951.708	0.0137402
951.786	0.0137087
951.864	0.0137438
951.943	0.0138333
952.021	0.0136227
952.099	0.0137376
952.177	0.0135614
952.255	0.0136032
952.333	0.0136176
952.411	0.0137557
952.489	0.0136936
952.568	0.0137195
952.646	0.0136274
952.724	0.0136255
952.802	0.0135155
952.880	0.0137326
952.958	0.0136776
953.036	0.0136349
953.114	0.0136137
953.193	0.0136401
953.271	0.0137042
953.349	0.0137045
953.427	0.0135990
953.505	0.0137156
953.583	0.0136550
953.661	0.0138985
953.739	0.0137839
953.818	0.0137093
953.896	0.0138318
953.974	0.0138452
954.052	0.0138943
954.130	0.0137585
954.208	0.0138876
954.286	0.0139055
954.364	0.0138391
954.443	0.0137760
954.521	0.0139709
954.599	0.0138614
954.677	0.0138817
954.755	0.0141294
954.833	0.0138914
954.911	0.0137722
954.989	0.0137951
955.068	0.0138535
955.146	0.0138062
955.224	0.0138271
955.302	0.0138953
955.380	0.0136629
955.458	0.0137373
955.536	0.0137668
955.614	0.0138614
955.693	0.0136947
955.771	0.0136395
955.849	0.0137499
955.927	0.0136977
956.005	0.0136626
956.083	0.0138193
956.161	0.0137717
956.239	0.0135384
956.318	0.0136169
956.396	0.0137140
956.474	0.0137255
956.552	0.0136330
956.630	0.0137136
956.708	0.0136012
956.786	0.0135786
956.864	0.0137666
956.943	0.0137695
957.021	0.0135024
957.099	0.0136639
957.177	0.0135956
957.255	0.0136857
957.333	0.0136291
957.411	0.0137489
957.489	0.0137043
957.568	0.0136245
957.646	0.0138017
957.724	0.0138248
957.802	0.0136842
957.880	0.0136253
957.958	0.0136625
958.036	0.0137420
958.114	0.0137121
958.193	0.0136437
958.271	0.0136363
958.349	0.0137306
958.427	0.0136578
958.505	0.0136785
958.583	0.0137508
958.661	0.0137215
958.739	0.0136320
958.818	0.0136025
958.896	0.0136552
958.974	0.0136098
959.052	0.0136015
959.130	0.0136392
959.208	0.0136723
959.286	0.0136171
959.364	0.0136750
959.443	0.0138146
959.521	0.0135145
959.599	0.0137511
959.677	0.0137357
959.755	0.0137498
959.833	0.0136010
959.911	0.0136163
