05/14/2022	16:39:02	Ver.	4.1	UNKNOWN
Optical Delay	639.989416	Delta X		0.078125	Sweeps	1	Scan Rate	0/0
Coordinates	Axis 1	NaN	Axis 2	NaN	Axis 3	NaN	Axis 4	NaN	Axis 5	NaN	Axis 6	0.000000
TX Power	0.000000	RX Power	0.000000

639.989	0.0134756
640.068	0.0134930
640.146	0.0135094
640.224	0.0133584
640.302	0.0132315
640.380	0.0135069
640.458	0.0133623
640.536	0.0133598
640.614	0.0134703
640.693	0.0135017
640.771	0.0134159
640.849	0.0135370
640.927	0.0134787
641.005	0.0133173
641.083	0.0132300
641.161	0.0134098
641.239	0.0134035
641.318	0.0133620
641.396	0.0134450
641.474	0.0133627
641.552	0.0133217
641.630	0.0135851
641.708	0.0135292
641.786	0.0133329
641.864	0.0132845
641.943	0.0132927
642.021	0.0133501
642.099	0.0132291
642.177	0.0134068
642.255	0.0132494
642.333	0.0132328
642.411	0.0133404
642.489	0.0133275
642.568	0.0133121
642.646	0.0132207
642.724	0.0133079
642.802	0.0134446
642.880	0.0132447
642.958	0.0131698
643.036	0.0131877
643.114	0.0133848
643.193	0.0133376
643.271	0.0134578
643.349	0.0134383
643.427	0.0132797
643.505	0.0132265
643.583	0.0133636
643.661	0.0133507
643.739	0.0134941
643.818	0.0133047
643.896	0.0132716
643.974	0.0133327
644.052	0.0134340
644.130	0.0133466
644.208	0.0134634
644.286	0.0134348
644.364	0.0133237
644.443	0.0133809
644.521	0.0133945
644.599	0.0133877
644.677	0.0132703
644.755	0.0133546
644.833	0.0134730
644.911	0.0133449
644.989	0.0133091
645.068	0.0134159
645.146	0.0134500
645.224	0.0134747
645.302	0.0134176
645.380	0.0133857
645.458	0.0133780
645.536	0.0133738
645.614	0.0133911
645.693	0.0134528
645.771	0.0134094
645.849	0.0135329
645.927	0.0133656
646.005	0.0134181
646.083	0.0134029
646.161	0.0134539
646.239	0.0134822
646.318	0.0134483
646.396	0.0134676
646.474	0.0134251
646.552	0.0134576
646.630	0.0134592
646.708	0.0134914
646.786	0.0135788
646.864	0.0134285
646.943	0.0133919
647.021	0.0135019
647.099	0.0135996
647.177	0.0134618
647.255	0.0135703
647.333	0.0134681
647.411	0.0135477
647.489	0.0135257
647.568	0.0135378
647.646	0.0134014
647.724	0.0134274
647.802	0.0133367
647.880	0.0133900
647.958	0.0132911
648.036	0.0134684
648.114	0.0134529
648.193	0.0134854
648.271	0.0134876
648.349	0.0135387
648.427	0.0134589
648.505	0.0134565
648.583	0.0135164
648.661	0.0134118
648.739	0.0134290
648.818	0.0134433
648.896	0.0133742
648.974	0.0135054
649.052	0.0135241
649.130	0.0133820
649.208	0.0134567
649.286	0.0135367
649.364	0.0133544
649.443	0.0135175
649.521	0.0134251
649.599	0.0134264
649.677	0.0132402
649.755	0.0132197
649.833	0.0133588
649.911	0.0134279
649.989	0.0134255
650.068	0.0133228
650.146	0.0134209
650.224	0.0135553
650.302	0.0133925
650.380	0.0133859
650.458	0.0134447
650.536	0.0135825
650.614	0.0134106
650.693	0.0133425
650.771	0.0132549
650.849	0.0134341
650.927	0.0135564
651.005	0.0133675
651.083	0.0134869
651.161	0.0134394
651.239	0.0134877
651.318	0.0135711
651.396	0.0136593
651.474	0.0134602
651.552	0.0134056
651.630	0.0134979
651.708	0.0134435
651.786	0.0135458
651.864	0.0134426
651.943	0.0133887
652.021	0.0133511
652.099	0.0135411
652.177	0.0135312
652.255	0.0135828
652.333	0.0134227
652.411	0.0133967
652.489	0.0135334
652.568	0.0133811
652.646	0.0133860
652.724	0.0135311
652.802	0.0134580
652.880	0.0133954
652.958	0.0133897
653.036	0.0135112
653.114	0.0134518
653.193	0.0134366
653.271	0.0132689
653.349	0.0134705
653.427	0.0133707
653.505	0.0134381
653.583	0.0135344
653.661	0.0133727
653.739	0.0134158
653.818	0.0134039
653.896	0.0133100
653.974	0.0133697
654.052	0.0133517
654.130	0.0134188
654.208	0.0134226
654.286	0.0134038
654.364	0.0134319
654.443	0.0134157
654.521	0.0133026
654.599	0.0133608
654.677	0.0134239
654.755	0.0134328
654.833	0.0133389
654.911	0.0133228
654.989	0.0134084
655.068	0.0133865
655.146	0.0134207
655.224	0.0133800
655.302	0.0133405
655.380	0.0134216
655.458	0.0133797
655.536	0.0134327
655.614	0.0135160
655.693	0.0134342
655.771	0.0134615
655.849	0.0134029
655.927	0.0134100
656.005	0.0132600
656.083	0.0134041
656.161	0.0133612
656.239	0.0133591
656.318	0.0134666
656.396	0.0133285
656.474	0.0133213
656.552	0.0133744
656.630	0.0133820
656.708	0.0133664
656.786	0.0132978
656.864	0.0133743
656.943	0.0133149
657.021	0.0132814
657.099	0.0134412
657.177	0.0134433
657.255	0.0133515
657.333	0.0133299
657.411	0.0133428
657.489	0.0135652
657.568	0.0133694
657.646	0.0133838
657.724	0.0133745
657.802	0.0133936
657.880	0.0134014
657.958	0.0133391
658.036	0.0132675
658.114	0.0133203
658.193	0.0134243
658.271	0.0134338
658.349	0.0133652
658.427	0.0133497
658.505	0.0134069
658.583	0.0134588
658.661	0.0134885
658.739	0.0134664
658.818	0.0135002
658.896	0.0132766
658.974	0.0133424
659.052	0.0133128
659.130	0.0132715
659.208	0.0133437
659.286	0.0133895
659.364	0.0132458
659.443	0.0131525
659.521	0.0132251
659.599	0.0134254
659.677	0.0133360
659.755	0.0134096
659.833	0.0133662
659.911	0.0134666
659.989	0.0134573
660.068	0.0134863
660.146	0.0133967
660.224	0.0134266
660.302	0.0133795
660.380	0.0132716
660.458	0.0134896
660.536	0.0133419
660.614	0.0133741
660.693	0.0133311
660.771	0.0134374
660.849	0.0133607
660.927	0.0134291
661.005	0.0134068
661.083	0.0133469
661.161	0.0133474
661.239	0.0133887
661.318	0.0134786
661.396	0.0132703
661.474	0.0133719
661.552	0.0133938
661.630	0.0133794
661.708	0.0132947
661.786	0.0134399
661.864	0.0134641
661.943	0.0134444
662.021	0.0134134
662.099	0.0133736
662.177	0.0134453
662.255	0.0133366
662.333	0.0134401
662.411	0.0134458
662.489	0.0134490
662.568	0.0132883
662.646	0.0134035
662.724	0.0134146
662.802	0.0134569
662.880	0.0134189
662.958	0.0133315
663.036	0.0133567
663.114	0.0134035
663.193	0.0134763
663.271	0.0133224
663.349	0.0133857
663.427	0.0133462
663.505	0.0134106
663.583	0.0134177
663.661	0.0133253
663.739	0.0133135
663.818	0.0133813
663.896	0.0132880
663.974	0.0133240
664.052	0.0133749
664.130	0.0133466
664.208	0.0133550
664.286	0.0133319
664.364	0.0132602
664.443	0.0134170
664.521	0.0133238
664.599	0.0132359
664.677	0.0132744
664.755	0.0131692
664.833	0.0131200
664.911	0.0132214
664.989	0.0132468
665.068	0.0132233
665.146	0.0133658
665.224	0.0133515
665.302	0.0131529
665.380	0.0133442
665.458	0.0133201
665.536	0.0133078
665.614	0.0133769
665.693	0.0134428
665.771	0.0132257
665.849	0.0133802
665.927	0.0132996
666.005	0.0134090
666.083	0.0133130
666.161	0.0132079
666.239	0.0133613
666.318	0.0134022
666.396	0.0135056
666.474	0.0134123
666.552	0.0133530
666.630	0.0133694
666.708	0.0133220
666.786	0.0134641
666.864	0.0134310
666.943	0.0134050
667.021	0.0133416
667.099	0.0133290
667.177	0.0133900
667.255	0.0133694
667.333	0.0132981
667.411	0.0133871
667.489	0.0134586
667.568	0.0133596
667.646	0.0133989
667.724	0.0132467
667.802	0.0133972
667.880	0.0133491
667.958	0.0134023
668.036	0.0134332
668.114	0.0134593
668.193	0.0133671
668.271	0.0134328
668.349	0.0134777
668.427	0.0134726
668.505	0.0133632
668.583	0.0134338
668.661	0.0136663
668.739	0.0134709
668.818	0.0134387
668.896	0.0133591
668.974	0.0133029
669.052	0.0135282
669.130	0.0134261
669.208	0.0134326
669.286	0.0132948
669.364	0.0133329
669.443	0.0133790
669.521	0.0134073
669.599	0.0134320
669.677	0.0134361
669.755	0.0133344
669.833	0.0134451
669.911	0.0135235
669.989	0.0133902
670.068	0.0134628
670.146	0.0134258
670.224	0.0133789
670.302	0.0134055
670.380	0.0134075
670.458	0.0135952
670.536	0.0136730
670.614	0.0134254
670.693	0.0134483
670.771	0.0134392
670.849	0.0134438
670.927	0.0133376
671.005	0.0133891
671.083	0.0134054
671.161	0.0133652
671.239	0.0133955
671.318	0.0133028
671.396	0.0133399
671.474	0.0133269
671.552	0.0134189
671.630	0.0133237
671.708	0.0134790
671.786	0.0133877
671.864	0.0133281
671.943	0.0132238
672.021	0.0133544
672.099	0.0133515
672.177	0.0133816
672.255	0.0134366
672.333	0.0133430
672.411	0.0133189
672.489	0.0132169
672.568	0.0133193
672.646	0.0132400
672.724	0.0133965
672.802	0.0133698
672.880	0.0134097
672.958	0.0134251
673.036	0.0134132
673.114	0.0134586
673.193	0.0134348
673.271	0.0136114
673.349	0.0135628
673.427	0.0136253
673.505	0.0136236
673.583	0.0136976
673.661	0.0137089
673.739	0.0136994
673.818	0.0136813
673.896	0.0139083
673.974	0.0137154
674.052	0.0138461
674.130	0.0137878
674.208	0.0137726
674.286	0.0138072
674.364	0.0136174
674.443	0.0135580
674.521	0.0135786
674.599	0.0133956
674.677	0.0133743
674.755	0.0132539
674.833	0.0131469
674.911	0.0129025
674.989	0.0128982
675.068	0.0128558
675.146	0.0128056
675.224	0.0129629
675.302	0.0128682
675.380	0.0127515
675.458	0.0127288
675.536	0.0127462
675.614	0.0128545
675.693	0.0127613
675.771	0.0128518
675.849	0.0129883
675.927	0.0128992
676.005	0.0132298
676.083	0.0133914
676.161	0.0134261
676.239	0.0135809
676.318	0.0137131
676.396	0.0139577
676.474	0.0140374
676.552	0.0143161
676.630	0.0144323
676.708	0.0144158
676.786	0.0146419
676.864	0.0145647
676.943	0.0146912
677.021	0.0146079
677.099	0.0146300
677.177	0.0145998
677.255	0.0145876
677.333	0.0143085
677.411	0.0142156
677.489	0.0140702
677.568	0.0137903
677.646	0.0135516
677.724	0.0133789
677.802	0.0132581
677.880	0.0128342
677.958	0.0126260
678.036	0.0122504
678.114	0.0119824
678.193	0.0118456
678.271	0.0116115
678.349	0.0115476
678.427	0.0114604
678.505	0.0114153
678.583	0.0116259
678.661	0.0114501
678.739	0.0115339
678.818	0.0116241
678.896	0.0118880
678.974	0.0122158
679.052	0.0122933
679.130	0.0126089
679.208	0.0129728
679.286	0.0133263
679.364	0.0136843
679.443	0.0140500
679.521	0.0144111
679.599	0.0148327
679.677	0.0151347
679.755	0.0154936
679.833	0.0159900
679.911	0.0161521
679.989	0.0163496
680.068	0.0165388
680.146	0.0166940
680.224	0.0166270
680.302	0.0164902
680.380	0.0163997
680.458	0.0162077
680.536	0.0159232
680.614	0.0155672
680.693	0.0151078
680.771	0.0147059
680.849	0.0142595
680.927	0.0138210
681.005	0.0132322
681.083	0.0126996
681.161	0.0122147
681.239	0.0116615
681.318	0.0112148
681.396	0.0107391
681.474	0.0104462
681.552	0.00996468
681.630	0.00963089
681.708	0.00958694
681.786	0.00956078
681.864	0.00938133
681.943	0.00947952
682.021	0.00967041
682.099	0.00987320
682.177	0.00992340
682.255	0.0103123
682.333	0.0107042
682.411	0.0111092
682.489	0.0116096
682.568	0.0121950
682.646	0.0126086
682.724	0.0132106
682.802	0.0138582
682.880	0.0144826
682.958	0.0150569
683.036	0.0154242
683.114	0.0160902
683.193	0.0164904
683.271	0.0168351
683.349	0.0171423
683.427	0.0172421
683.505	0.0178582
683.583	0.0179746
683.661	0.0178994
683.739	0.0178036
683.818	0.0177395
683.896	0.0176851
683.974	0.0173093
684.052	0.0170374
684.130	0.0165321
684.208	0.0159901
684.286	0.0154161
684.364	0.0148524
684.443	0.0140938
684.521	0.0132136
684.599	0.0127776
684.677	0.0119646
684.755	0.0113393
684.833	0.0107914
684.911	0.0103291
684.989	0.00966187
685.068	0.00931847
685.146	0.00898376
685.224	0.00882729
685.302	0.00839943
685.380	0.00833321
685.458	0.00865555
685.536	0.00874840
685.614	0.00881668
685.693	0.00910553
685.771	0.00949638
685.849	0.0100553
685.927	0.0103869
686.005	0.0109571
686.083	0.0113814
686.161	0.0120956
686.239	0.0128487
686.318	0.0132766
686.396	0.0138127
686.474	0.0144919
686.552	0.0150137
686.630	0.0153659
686.708	0.0159180
686.786	0.0163779
686.864	0.0164120
686.943	0.0168810
687.021	0.0170534
687.099	0.0172250
687.177	0.0171973
687.255	0.0171957
687.333	0.0171243
687.411	0.0170161
687.489	0.0166314
687.568	0.0165640
687.646	0.0163741
687.724	0.0159515
687.802	0.0156242
687.880	0.0152754
687.958	0.0147925
688.036	0.0145400
688.114	0.0141383
688.193	0.0138638
688.271	0.0134878
688.349	0.0130528
688.427	0.0126732
688.505	0.0122791
688.583	0.0119411
688.661	0.0117389
688.739	0.0115179
688.818	0.0112003
688.896	0.0111512
688.974	0.0108761
689.052	0.0108603
689.130	0.0109825
689.208	0.0107985
689.286	0.0109734
689.364	0.0110319
689.443	0.0110009
689.521	0.0111803
689.599	0.0113402
689.677	0.0115203
689.755	0.0117087
689.833	0.0118271
689.911	0.0119446
689.989	0.0123479
690.068	0.0125334
690.146	0.0127541
690.224	0.0130763
690.302	0.0132579
690.380	0.0135275
690.458	0.0137878
690.536	0.0139529
690.614	0.0142851
690.693	0.0146830
690.771	0.0148725
690.849	0.0150009
690.927	0.0151038
691.005	0.0152948
691.083	0.0153751
691.161	0.0154258
691.239	0.0154356
691.318	0.0153812
691.396	0.0152732
691.474	0.0151035
691.552	0.0148556
691.630	0.0147870
691.708	0.0145174
691.786	0.0144162
691.864	0.0141496
691.943	0.0140334
692.021	0.0138041
692.099	0.0136005
692.177	0.0134424
692.255	0.0134039
692.333	0.0132378
692.411	0.0130418
692.489	0.0130318
692.568	0.0127504
692.646	0.0127226
692.724	0.0126605
692.802	0.0124001
692.880	0.0125741
692.958	0.0126144
693.036	0.0127261
693.114	0.0127775
693.193	0.0127747
693.271	0.0129216
693.349	0.0132986
693.427	0.0132584
693.505	0.0133714
693.583	0.0135473
693.661	0.0138611
693.739	0.0139879
693.818	0.0140721
693.896	0.0142323
693.974	0.0142361
694.052	0.0143405
694.130	0.0145267
694.208	0.0143519
694.286	0.0141249
694.364	0.0142007
694.443	0.0140110
694.521	0.0140630
694.599	0.0138300
694.677	0.0135201
694.755	0.0132739
694.833	0.0131819
694.911	0.0130987
694.989	0.0128234
695.068	0.0127702
695.146	0.0123831
695.224	0.0123712
695.302	0.0123402
695.380	0.0122103
695.458	0.0121461
695.536	0.0120641
695.614	0.0119092
695.693	0.0120064
695.771	0.0120772
695.849	0.0122118
695.927	0.0122118
696.005	0.0123178
696.083	0.0125824
696.161	0.0124564
696.239	0.0126878
696.318	0.0130006
696.396	0.0131884
696.474	0.0133344
696.552	0.0135361
696.630	0.0137550
696.708	0.0138987
696.786	0.0141999
696.864	0.0144849
696.943	0.0148287
697.021	0.0150086
697.099	0.0150424
697.177	0.0153445
697.255	0.0155150
697.333	0.0154498
697.411	0.0155450
697.489	0.0155256
697.568	0.0153847
697.646	0.0151568
697.724	0.0152361
697.802	0.0150501
697.880	0.0147161
697.958	0.0146747
698.036	0.0144755
698.114	0.0142004
698.193	0.0138303
698.271	0.0139648
698.349	0.0136074
698.427	0.0134423
698.505	0.0131950
698.583	0.0130857
698.661	0.0129886
698.739	0.0126888
698.818	0.0124358
698.896	0.0122662
698.974	0.0121284
699.052	0.0118539
699.130	0.0116605
699.208	0.0115301
699.286	0.0113910
699.364	0.0113597
699.443	0.0110886
699.521	0.0109981
699.599	0.0112732
699.677	0.0111800
699.755	0.0113590
699.833	0.0115456
699.911	0.0116821
699.989	0.0116650
700.068	0.0120152
700.146	0.0123240
700.224	0.0125615
700.302	0.0128265
700.380	0.0131679
700.458	0.0133733
700.536	0.0136154
700.614	0.0139046
700.693	0.0140859
700.771	0.0144746
700.849	0.0146767
700.927	0.0151186
701.005	0.0151832
701.083	0.0153249
701.161	0.0154139
701.239	0.0155472
701.318	0.0155807
701.396	0.0154831
701.474	0.0154060
701.552	0.0153346
701.630	0.0151489
701.708	0.0150265
701.786	0.0147266
701.864	0.0144978
701.943	0.0142714
702.021	0.0141933
702.099	0.0138851
702.177	0.0135385
702.255	0.0132763
702.333	0.0129115
702.411	0.0127691
702.489	0.0125515
702.568	0.0122729
702.646	0.0121290
702.724	0.0118939
702.802	0.0116762
702.880	0.0114967
702.958	0.0114310
703.036	0.0114838
703.114	0.0114109
703.193	0.0114275
703.271	0.0114160
703.349	0.0116800
703.427	0.0118330
703.505	0.0119199
703.583	0.0121664
703.661	0.0123282
703.739	0.0125677
703.818	0.0128178
703.896	0.0132076
703.974	0.0133719
704.052	0.0135902
704.130	0.0138510
704.208	0.0141987
704.286	0.0145264
704.364	0.0144935
704.443	0.0146137
704.521	0.0147326
704.599	0.0149361
704.677	0.0148943
704.755	0.0148085
704.833	0.0150820
704.911	0.0150516
704.989	0.0148505
705.068	0.0147814
705.146	0.0146169
705.224	0.0145331
705.302	0.0142389
705.380	0.0141189
705.458	0.0137498
705.536	0.0134267
705.614	0.0133225
705.693	0.0130930
705.771	0.0129386
705.849	0.0127565
705.927	0.0125837
706.005	0.0125883
706.083	0.0126914
706.161	0.0126881
706.239	0.0127191
706.318	0.0128210
706.396	0.0128268
706.474	0.0129233
706.552	0.0130122
706.630	0.0131065
706.708	0.0132058
706.786	0.0131902
706.864	0.0131342
706.943	0.0133025
707.021	0.0132344
707.099	0.0131420
707.177	0.0131855
707.255	0.0131113
707.333	0.0130737
707.411	0.0130671
707.489	0.0128948
707.568	0.0126536
707.646	0.0126194
707.724	0.0125805
707.802	0.0125217
707.880	0.0124660
707.958	0.0123682
708.036	0.0124961
708.114	0.0125481
708.193	0.0127126
708.271	0.0127969
708.349	0.0128040
708.427	0.0130860
708.505	0.0134048
708.583	0.0136266
708.661	0.0138193
708.739	0.0141598
708.818	0.0144823
708.896	0.0145794
708.974	0.0146907
709.052	0.0148383
709.130	0.0149384
709.208	0.0149510
709.286	0.0148666
709.364	0.0149183
709.443	0.0147080
709.521	0.0147196
709.599	0.0144400
709.677	0.0144431
709.755	0.0143043
709.833	0.0140909
709.911	0.0139199
709.989	0.0136753
710.068	0.0135779
710.146	0.0134893
710.224	0.0136427
710.302	0.0134911
710.380	0.0133908
710.458	0.0134003
710.536	0.0134164
710.614	0.0132406
710.693	0.0132239
710.771	0.0131039
710.849	0.0131660
710.927	0.0129410
711.005	0.0129431
711.083	0.0129138
711.161	0.0128700
711.239	0.0128053
711.318	0.0129250
711.396	0.0129251
711.474	0.0130178
711.552	0.0130527
711.630	0.0131316
711.708	0.0131987
711.786	0.0133153
711.864	0.0134848
711.943	0.0137463
712.021	0.0137389
712.099	0.0138342
712.177	0.0140228
712.255	0.0141323
712.333	0.0141822
712.411	0.0141311
712.489	0.0141700
712.568	0.0141717
712.646	0.0140889
712.724	0.0140305
712.802	0.0139376
712.880	0.0137257
712.958	0.0135578
713.036	0.0133839
713.114	0.0131956
713.193	0.0127651
713.271	0.0126382
713.349	0.0124085
713.427	0.0121745
713.505	0.0117706
713.583	0.0118243
713.661	0.0114999
713.739	0.0115096
713.818	0.0115908
713.896	0.0116528
713.974	0.0116949
714.052	0.0117994
714.130	0.0120393
714.208	0.0121526
714.286	0.0123215
714.364	0.0126766
714.443	0.0129281
714.521	0.0131604
714.599	0.0135306
714.677	0.0136381
714.755	0.0138167
714.833	0.0141326
714.911	0.0143710
714.989	0.0143979
715.068	0.0147504
715.146	0.0146690
715.224	0.0148064
715.302	0.0149147
715.380	0.0149074
715.458	0.0150549
715.536	0.0150242
715.614	0.0149715
715.693	0.0149059
715.771	0.0150423
715.849	0.0150837
715.927	0.0150912
716.005	0.0151497
716.083	0.0150654
716.161	0.0150713
716.239	0.0152498
716.318	0.0152025
716.396	0.0152310
716.474	0.0151585
716.552	0.0151458
716.630	0.0150665
716.708	0.0149673
716.786	0.0147295
716.864	0.0147340
716.943	0.0145747
717.021	0.0143381
717.099	0.0141409
717.177	0.0138383
717.255	0.0135062
717.333	0.0132867
717.411	0.0130827
717.489	0.0127963
717.568	0.0126331
717.646	0.0124463
717.724	0.0122308
717.802	0.0120170
717.880	0.0118580
717.958	0.0116100
718.036	0.0114346
718.114	0.0111747
718.193	0.0111015
718.271	0.0109089
718.349	0.0109023
718.427	0.0108570
718.505	0.0106123
718.583	0.0105683
718.661	0.0107648
718.739	0.0107688
718.818	0.0108373
718.896	0.0110045
718.974	0.0109917
719.052	0.0112685
719.130	0.0115129
719.208	0.0116527
719.286	0.0118654
719.364	0.0121507
719.443	0.0126992
719.521	0.0129517
719.599	0.0134722
719.677	0.0137545
719.755	0.0140505
719.833	0.0145883
719.911	0.0148782
719.989	0.0153420
720.068	0.0156420
720.146	0.0159525
720.224	0.0162103
720.302	0.0164633
720.380	0.0166875
720.458	0.0165919
720.536	0.0166671
720.614	0.0167125
720.693	0.0165020
720.771	0.0163666
720.849	0.0161028
720.927	0.0157072
721.005	0.0154639
721.083	0.0151476
721.161	0.0147166
721.239	0.0144182
721.318	0.0141359
721.396	0.0138536
721.474	0.0134775
721.552	0.0132857
721.630	0.0130927
721.708	0.0130008
721.786	0.0128025
721.864	0.0127434
721.943	0.0127452
722.021	0.0126855
722.099	0.0125985
722.177	0.0126481
722.255	0.0127039
722.333	0.0125970
722.411	0.0127588
722.489	0.0126724
722.568	0.0126683
722.646	0.0125555
722.724	0.0126099
722.802	0.0125791
722.880	0.0125079
722.958	0.0124935
723.036	0.0123070
723.114	0.0123327
723.193	0.0121979
723.271	0.0119918
723.349	0.0121232
723.427	0.0121545
723.505	0.0120061
723.583	0.0121571
723.661	0.0121851
723.739	0.0122512
723.818	0.0122474
723.896	0.0123257
723.974	0.0124475
724.052	0.0123877
724.130	0.0126785
724.208	0.0127216
724.286	0.0127078
724.364	0.0128939
724.443	0.0128397
724.521	0.0130927
724.599	0.0131667
724.677	0.0130360
724.755	0.0133085
724.833	0.0134022
724.911	0.0133728
724.989	0.0135032
725.068	0.0135715
725.146	0.0135742
725.224	0.0138180
725.302	0.0138641
725.380	0.0139895
725.458	0.0141864
725.536	0.0142585
725.614	0.0143641
725.693	0.0143682
725.771	0.0143174
725.849	0.0145000
725.927	0.0143128
726.005	0.0144068
726.083	0.0141667
726.161	0.0141196
726.239	0.0140566
726.318	0.0139223
726.396	0.0137643
726.474	0.0137681
726.552	0.0137021
726.630	0.0136603
726.708	0.0135919
726.786	0.0137158
726.864	0.0138299
726.943	0.0137183
727.021	0.0139005
727.099	0.0137337
727.177	0.0138490
727.255	0.0139108
727.333	0.0138383
727.411	0.0139661
727.489	0.0138935
727.568	0.0140363
727.646	0.0140858
727.724	0.0139893
727.802	0.0139072
727.880	0.0140497
727.958	0.0138515
728.036	0.0139121
728.114	0.0138160
728.193	0.0138899
728.271	0.0138197
728.349	0.0135707
728.427	0.0133813
728.505	0.0131709
728.583	0.0130874
728.661	0.0128104
728.739	0.0125481
728.818	0.0124977
728.896	0.0123569
728.974	0.0122160
729.052	0.0120880
729.130	0.0120522
729.208	0.0120768
729.286	0.0120639
729.364	0.0121801
729.443	0.0122141
729.521	0.0123194
729.599	0.0123478
729.677	0.0124771
729.755	0.0125293
729.833	0.0126043
729.911	0.0125744
729.989	0.0126969
730.068	0.0127124
730.146	0.0125650
730.224	0.0126491
730.302	0.0127395
730.380	0.0126807
730.458	0.0126006
730.536	0.0128168
730.614	0.0129160
730.693	0.0129050
730.771	0.0130588
730.849	0.0131236
730.927	0.0131975
731.005	0.0132972
731.083	0.0134827
731.161	0.0136832
731.239	0.0137013
731.318	0.0139223
731.396	0.0142187
731.474	0.0143764
731.552	0.0143752
731.630	0.0145492
731.708	0.0145850
731.786	0.0147774
731.864	0.0148012
731.943	0.0149204
732.021	0.0148275
732.099	0.0148699
732.177	0.0147636
732.255	0.0147076
732.333	0.0147319
732.411	0.0144949
732.489	0.0145426
732.568	0.0144290
732.646	0.0142233
732.724	0.0140997
732.802	0.0139559
732.880	0.0138029
732.958	0.0138863
733.036	0.0136641
733.114	0.0136428
733.193	0.0136137
733.271	0.0136818
733.349	0.0136055
733.427	0.0135252
733.505	0.0135568
733.583	0.0134981
733.661	0.0133853
733.739	0.0133042
733.818	0.0131281
733.896	0.0132290
733.974	0.0133324
734.052	0.0129677
734.130	0.0129105
734.208	0.0129343
734.286	0.0128080
734.364	0.0127593
734.443	0.0125760
734.521	0.0125278
734.599	0.0124512
734.677	0.0123324
734.755	0.0121139
734.833	0.0123209
734.911	0.0122394
734.989	0.0122168
735.068	0.0123344
735.146	0.0124663
735.224	0.0125155
735.302	0.0127045
735.380	0.0126076
735.458	0.0126417
735.536	0.0128666
735.614	0.0129329
735.693	0.0132059
735.771	0.0132500
735.849	0.0132703
735.927	0.0134332
736.005	0.0136886
736.083	0.0137282
736.161	0.0137154
736.239	0.0139391
736.318	0.0140496
736.396	0.0139347
736.474	0.0139496
736.552	0.0139596
736.630	0.0140440
736.708	0.0141038
736.786	0.0141488
736.864	0.0141647
736.943	0.0142486
737.021	0.0141939
737.099	0.0140860
737.177	0.0141914
737.255	0.0142352
737.333	0.0143361
737.411	0.0142419
737.489	0.0143957
737.568	0.0142692
737.646	0.0142549
737.724	0.0141711
737.802	0.0142384
737.880	0.0140837
737.958	0.0139415
738.036	0.0139401
738.114	0.0136669
738.193	0.0138766
738.271	0.0137138
738.349	0.0135127
738.427	0.0133588
738.505	0.0133079
738.583	0.0134050
738.661	0.0133677
738.739	0.0132114
738.818	0.0131493
738.896	0.0130852
738.974	0.0130247
739.052	0.0129612
739.130	0.0129082
739.208	0.0129516
739.286	0.0130490
739.364	0.0130319
739.443	0.0130675
739.521	0.0130043
739.599	0.0129695
739.677	0.0130797
739.755	0.0132094
739.833	0.0131721
739.911	0.0132395
739.989	0.0132779
740.068	0.0132543
740.146	0.0133430
740.224	0.0133790
740.302	0.0133807
740.380	0.0132510
740.458	0.0134776
740.536	0.0133478
740.614	0.0133856
740.693	0.0133897
740.771	0.0134627
740.849	0.0135081
740.927	0.0134881
741.005	0.0134413
741.083	0.0133545
741.161	0.0133787
741.239	0.0132644
741.318	0.0134325
741.396	0.0132652
741.474	0.0131493
741.552	0.0133484
741.630	0.0131127
741.708	0.0131829
741.786	0.0131853
741.864	0.0131406
741.943	0.0132667
742.021	0.0132638
742.099	0.0134309
742.177	0.0134379
742.255	0.0135262
742.333	0.0135052
742.411	0.0136234
742.489	0.0137460
742.568	0.0139201
742.646	0.0139016
742.724	0.0138737
742.802	0.0139142
742.880	0.0137786
742.958	0.0139579
743.036	0.0139678
743.114	0.0138901
743.193	0.0138609
743.271	0.0137592
743.349	0.0139153
743.427	0.0137410
743.505	0.0136699
743.583	0.0136060
743.661	0.0136306
743.739	0.0134809
743.818	0.0135474
743.896	0.0133997
743.974	0.0133728
744.052	0.0134016
744.130	0.0133484
744.208	0.0133002
744.286	0.0132340
744.364	0.0132304
744.443	0.0132640
744.521	0.0130201
744.599	0.0131300
744.677	0.0130412
744.755	0.0130383
744.833	0.0130499
744.911	0.0131974
744.989	0.0130251
745.068	0.0131262
745.146	0.0129911
745.224	0.0130537
745.302	0.0129669
745.380	0.0129900
745.458	0.0128891
745.536	0.0127363
745.614	0.0128774
745.693	0.0129820
745.771	0.0129642
745.849	0.0129416
745.927	0.0129707
746.005	0.0130627
746.083	0.0132345
746.161	0.0131013
746.239	0.0131248
746.318	0.0133875
746.396	0.0134555
746.474	0.0133439
746.552	0.0134494
746.630	0.0134662
746.708	0.0135737
746.786	0.0134195
746.864	0.0135651
746.943	0.0135700
747.021	0.0135747
747.099	0.0137322
747.177	0.0136797
747.255	0.0135658
747.333	0.0135840
747.411	0.0134511
747.489	0.0134541
747.568	0.0136160
747.646	0.0136864
747.724	0.0136561
747.802	0.0137980
747.880	0.0137805
747.958	0.0138150
748.036	0.0138620
748.114	0.0139965
748.193	0.0139947
748.271	0.0141491
748.349	0.0140714
748.427	0.0141674
748.505	0.0141254
748.583	0.0140752
748.661	0.0140622
748.739	0.0138401
748.818	0.0138957
748.896	0.0138669
748.974	0.0136898
749.052	0.0137027
749.130	0.0136990
749.208	0.0135551
749.286	0.0134371
749.364	0.0132968
749.443	0.0134285
749.521	0.0133048
749.599	0.0132726
749.677	0.0132442
749.755	0.0132627
749.833	0.0132724
749.911	0.0131811
749.989	0.0131956
750.068	0.0132666
750.146	0.0132928
750.224	0.0131165
750.302	0.0132256
750.380	0.0131301
750.458	0.0129944
750.536	0.0130540
750.614	0.0130939
750.693	0.0131368
750.771	0.0131081
750.849	0.0129840
750.927	0.0129696
751.005	0.0129663
751.083	0.0130348
751.161	0.0131011
751.239	0.0131013
751.318	0.0130124
751.396	0.0129765
751.474	0.0130167
751.552	0.0128861
751.630	0.0128542
751.708	0.0128555
751.786	0.0128611
751.864	0.0127310
751.943	0.0126089
752.021	0.0127934
752.099	0.0126711
752.177	0.0127100
752.255	0.0127686
752.333	0.0127325
752.411	0.0129565
752.489	0.0131075
752.568	0.0132139
752.646	0.0132047
752.724	0.0133591
752.802	0.0133512
752.880	0.0134655
752.958	0.0133825
753.036	0.0135327
753.114	0.0136830
753.193	0.0136674
753.271	0.0136530
753.349	0.0137891
753.427	0.0137685
753.505	0.0138260
753.583	0.0138367
753.661	0.0138295
753.739	0.0140141
753.818	0.0139400
753.896	0.0139716
753.974	0.0139671
754.052	0.0141087
754.130	0.0140966
754.208	0.0140976
754.286	0.0140598
754.364	0.0140378
754.443	0.0140232
754.521	0.0138878
754.599	0.0139954
754.677	0.0138558
754.755	0.0137885
754.833	0.0137968
754.911	0.0137000
754.989	0.0137191
755.068	0.0137809
755.146	0.0136478
755.224	0.0134358
755.302	0.0134342
755.380	0.0134633
755.458	0.0135339
755.536	0.0135334
755.614	0.0134033
755.693	0.0133839
755.771	0.0134133
755.849	0.0133916
755.927	0.0133590
756.005	0.0132979
756.083	0.0132085
756.161	0.0132787
756.239	0.0131040
756.318	0.0131417
756.396	0.0131210
756.474	0.0129272
756.552	0.0128459
756.630	0.0129119
756.708	0.0128806
756.786	0.0128225
756.864	0.0127322
756.943	0.0126814
757.021	0.0127451
757.099	0.0127164
757.177	0.0127287
757.255	0.0128009
757.333	0.0127453
757.411	0.0126741
757.489	0.0127079
757.568	0.0127765
757.646	0.0129813
757.724	0.0129398
757.802	0.0128406
757.880	0.0130067
757.958	0.0130744
758.036	0.0130717
758.114	0.0130953
758.193	0.0132800
758.271	0.0132612
758.349	0.0132395
758.427	0.0132328
758.505	0.0132520
758.583	0.0135178
758.661	0.0136266
758.739	0.0136732
758.818	0.0135887
758.896	0.0137222
758.974	0.0138089
759.052	0.0137819
759.130	0.0138644
759.208	0.0139717
759.286	0.0140109
759.364	0.0140163
759.443	0.0141294
759.521	0.0141286
759.599	0.0138806
759.677	0.0139446
759.755	0.0140531
759.833	0.0138928
759.911	0.0138359
759.989	0.0138437
760.068	0.0137301
760.146	0.0136147
760.224	0.0136160
760.302	0.0136606
760.380	0.0134827
760.458	0.0134475
760.536	0.0134742
760.614	0.0132232
760.693	0.0132052
760.771	0.0132793
760.849	0.0131599
760.927	0.0131548
761.005	0.0131892
761.083	0.0130501
761.161	0.0131786
761.239	0.0133917
761.318	0.0132014
761.396	0.0132695
761.474	0.0132202
761.552	0.0131516
761.630	0.0131662
761.708	0.0132233
761.786	0.0131488
761.864	0.0131349
761.943	0.0132275
762.021	0.0130798
762.099	0.0129115
762.177	0.0128481
762.255	0.0129987
762.333	0.0131168
762.411	0.0132311
762.489	0.0130894
762.568	0.0131780
762.646	0.0132178
762.724	0.0134306
762.802	0.0133855
762.880	0.0134115
762.958	0.0135526
763.036	0.0136789
763.114	0.0136341
763.193	0.0137190
763.271	0.0137621
763.349	0.0139597
763.427	0.0138512
763.505	0.0137782
763.583	0.0140462
763.661	0.0138300
763.739	0.0138350
763.818	0.0138638
763.896	0.0138068
763.974	0.0136031
764.052	0.0134792
764.130	0.0134303
764.208	0.0134236
764.286	0.0133981
764.364	0.0133048
764.443	0.0132079
764.521	0.0131059
764.599	0.0131856
764.677	0.0130648
764.755	0.0129837
764.833	0.0131228
764.911	0.0129804
764.989	0.0129549
765.068	0.0129478
765.146	0.0131484
765.224	0.0130527
765.302	0.0130473
765.380	0.0132397
765.458	0.0132618
765.536	0.0133891
765.614	0.0131707
765.693	0.0132331
765.771	0.0132479
765.849	0.0133614
765.927	0.0133878
766.005	0.0132515
766.083	0.0132612
766.161	0.0134325
766.239	0.0132732
766.318	0.0134046
766.396	0.0134866
766.474	0.0134998
766.552	0.0133940
766.630	0.0135021
766.708	0.0134985
766.786	0.0136087
766.864	0.0137630
766.943	0.0136105
767.021	0.0138737
767.099	0.0136886
767.177	0.0137546
767.255	0.0137976
767.333	0.0137325
767.411	0.0137073
767.489	0.0138575
767.568	0.0138958
767.646	0.0138442
767.724	0.0139525
767.802	0.0138257
767.880	0.0137873
767.958	0.0139819
768.036	0.0137086
768.114	0.0138589
768.193	0.0136953
768.271	0.0136079
768.349	0.0137293
768.427	0.0136243
768.505	0.0135963
768.583	0.0135381
768.661	0.0134666
768.739	0.0133723
768.818	0.0133377
768.896	0.0133574
768.974	0.0133080
769.052	0.0131962
769.130	0.0132272
769.208	0.0133028
769.286	0.0132085
769.364	0.0132199
769.443	0.0132256
769.521	0.0131021
769.599	0.0131345
769.677	0.0131115
769.755	0.0131671
769.833	0.0131992
769.911	0.0130156
769.989	0.0131495
770.068	0.0132547
770.146	0.0132304
770.224	0.0131212
770.302	0.0132825
770.380	0.0134199
770.458	0.0132587
770.536	0.0131898
770.614	0.0135348
770.693	0.0133399
770.771	0.0135752
770.849	0.0137637
770.927	0.0137956
771.005	0.0138859
771.083	0.0137139
771.161	0.0137444
771.239	0.0137734
771.318	0.0138400
771.396	0.0138890
771.474	0.0139194
771.552	0.0139102
771.630	0.0136707
771.708	0.0136310
771.786	0.0138503
771.864	0.0137235
771.943	0.0136920
772.021	0.0135802
772.099	0.0135748
772.177	0.0136329
772.255	0.0136406
772.333	0.0136184
772.411	0.0136874
772.489	0.0135181
772.568	0.0135937
772.646	0.0134833
772.724	0.0135410
772.802	0.0136122
772.880	0.0135602
772.958	0.0135280
773.036	0.0136150
773.114	0.0136329
773.193	0.0135534
773.271	0.0135251
773.349	0.0134361
773.427	0.0133752
773.505	0.0133447
773.583	0.0133665
773.661	0.0132388
773.739	0.0134431
773.818	0.0132346
773.896	0.0132331
773.974	0.0132809
774.052	0.0133753
774.130	0.0133071
774.208	0.0132055
774.286	0.0131787
774.364	0.0131691
774.443	0.0131677
774.521	0.0131244
774.599	0.0130356
774.677	0.0130296
774.755	0.0130214
774.833	0.0130239
774.911	0.0129630
774.989	0.0130182
775.068	0.0130755
775.146	0.0130311
775.224	0.0131744
775.302	0.0130067
775.380	0.0130971
775.458	0.0132577
775.536	0.0132717
775.614	0.0133385
775.693	0.0134686
775.771	0.0134473
775.849	0.0136351
775.927	0.0137283
776.005	0.0137705
776.083	0.0136919
776.161	0.0136636
776.239	0.0139744
776.318	0.0138922
776.396	0.0138702
776.474	0.0137563
776.552	0.0139111
776.630	0.0140166
776.708	0.0140934
776.786	0.0139699
776.864	0.0138541
776.943	0.0139375
777.021	0.0139256
777.099	0.0137535
777.177	0.0137534
777.255	0.0137576
777.333	0.0136073
777.411	0.0134190
777.489	0.0133785
777.568	0.0132193
777.646	0.0131867
777.724	0.0130122
777.802	0.0129176
777.880	0.0129982
777.958	0.0126994
778.036	0.0125668
778.114	0.0125626
778.193	0.0125916
778.271	0.0125216
778.349	0.0123501
778.427	0.0123703
778.505	0.0123962
778.583	0.0124914
778.661	0.0124211
778.739	0.0123568
778.818	0.0123228
778.896	0.0123798
778.974	0.0125761
779.052	0.0125414
779.130	0.0127419
779.208	0.0128958
779.286	0.0128865
779.364	0.0131133
779.443	0.0132203
779.521	0.0133685
779.599	0.0135318
779.677	0.0135191
779.755	0.0137871
779.833	0.0138866
779.911	0.0138390
779.989	0.0140775
780.068	0.0140266
780.146	0.0141521
780.224	0.0142158
780.302	0.0141868
780.380	0.0142228
780.458	0.0143670
780.536	0.0143790
780.614	0.0143641
780.693	0.0143004
780.771	0.0141918
780.849	0.0142487
780.927	0.0140648
781.005	0.0139157
781.083	0.0140607
781.161	0.0139291
781.239	0.0139719
781.318	0.0137177
781.396	0.0136398
781.474	0.0134869
781.552	0.0133690
781.630	0.0133356
781.708	0.0132185
781.786	0.0132185
781.864	0.0131747
781.943	0.0130461
782.021	0.0129607
782.099	0.0128436
782.177	0.0128040
782.255	0.0129433
782.333	0.0127206
782.411	0.0126451
782.489	0.0127317
782.568	0.0126440
782.646	0.0127564
782.724	0.0128651
782.802	0.0128646
782.880	0.0128684
782.958	0.0128335
783.036	0.0131613
783.114	0.0130080
783.193	0.0131705
783.271	0.0133331
783.349	0.0133115
783.427	0.0133315
783.505	0.0133685
783.583	0.0135409
783.661	0.0136567
783.739	0.0135818
783.818	0.0137016
783.896	0.0137375
783.974	0.0137916
784.052	0.0137514
784.130	0.0139532
784.208	0.0138219
784.286	0.0138049
784.364	0.0138039
784.443	0.0139310
784.521	0.0137383
784.599	0.0138708
784.677	0.0137165
784.755	0.0135189
784.833	0.0137196
784.911	0.0135369
784.989	0.0135048
785.068	0.0135616
785.146	0.0133442
785.224	0.0133888
785.302	0.0133276
785.380	0.0133873
785.458	0.0132983
785.536	0.0133066
785.614	0.0131837
785.693	0.0132533
785.771	0.0133517
785.849	0.0131555
785.927	0.0131696
786.005	0.0130938
786.083	0.0131119
786.161	0.0129745
786.239	0.0131410
786.318	0.0131178
786.396	0.0132254
786.474	0.0130849
786.552	0.0130491
786.630	0.0131365
786.708	0.0130644
786.786	0.0130704
786.864	0.0131951
786.943	0.0130274
787.021	0.0131567
787.099	0.0131358
787.177	0.0133102
787.255	0.0133115
787.333	0.0134160
787.411	0.0133545
787.489	0.0135210
787.568	0.0134454
787.646	0.0134929
787.724	0.0136673
787.802	0.0137058
787.880	0.0137448
787.958	0.0137733
788.036	0.0138196
788.114	0.0137569
788.193	0.0138425
788.271	0.0137475
788.349	0.0139291
788.427	0.0138264
788.505	0.0138277
788.583	0.0137354
788.661	0.0138260
788.739	0.0137634
788.818	0.0137535
788.896	0.0137972
788.974	0.0136061
789.052	0.0136714
789.130	0.0137350
789.208	0.0135955
789.286	0.0135096
789.364	0.0137465
789.443	0.0136932
789.521	0.0135724
789.599	0.0136794
789.677	0.0137348
789.755	0.0136349
789.833	0.0136417
789.911	0.0136608
789.989	0.0136391
790.068	0.0136489
790.146	0.0135987
790.224	0.0135659
790.302	0.0136657
790.380	0.0136865
790.458	0.0136180
790.536	0.0137531
790.614	0.0136700
790.693	0.0135261
790.771	0.0135498
790.849	0.0134873
790.927	0.0133685
791.005	0.0134193
791.083	0.0133517
791.161	0.0133340
791.239	0.0131254
791.318	0.0133153
791.396	0.0133008
791.474	0.0132069
791.552	0.0133630
791.630	0.0132423
791.708	0.0129913
791.786	0.0130810
791.864	0.0130309
791.943	0.0130712
792.021	0.0131577
792.099	0.0129423
792.177	0.0130608
792.255	0.0130409
792.333	0.0132350
792.411	0.0132724
792.489	0.0132578
792.568	0.0132982
792.646	0.0132572
792.724	0.0134155
792.802	0.0133529
792.880	0.0135344
792.958	0.0133741
793.036	0.0135358
793.114	0.0135895
793.193	0.0136037
793.271	0.0136109
793.349	0.0136949
793.427	0.0137154
793.505	0.0136671
793.583	0.0137765
793.661	0.0137864
793.739	0.0138020
793.818	0.0139805
793.896	0.0139557
793.974	0.0139059
794.052	0.0138567
794.130	0.0139831
794.208	0.0139674
794.286	0.0138475
794.364	0.0137386
794.443	0.0138360
794.521	0.0137189
794.599	0.0137880
794.677	0.0137358
794.755	0.0136925
794.833	0.0136580
794.911	0.0136347
794.989	0.0134126
795.068	0.0134015
795.146	0.0134115
795.224	0.0134396
795.302	0.0133095
795.380	0.0131207
795.458	0.0132282
795.536	0.0131089
795.614	0.0131628
795.693	0.0130810
795.771	0.0128484
795.849	0.0129377
795.927	0.0129882
796.005	0.0129472
796.083	0.0128980
796.161	0.0130692
796.239	0.0131949
796.318	0.0130479
796.396	0.0130529
796.474	0.0131432
796.552	0.0131210
796.630	0.0131944
796.708	0.0133110
796.786	0.0133799
796.864	0.0134544
796.943	0.0132812
797.021	0.0133636
797.099	0.0132911
797.177	0.0133855
797.255	0.0133490
797.333	0.0135276
797.411	0.0134528
797.489	0.0134225
797.568	0.0134033
797.646	0.0133736
797.724	0.0135010
797.802	0.0134742
797.880	0.0133856
797.958	0.0132977
798.036	0.0134126
798.114	0.0134776
798.193	0.0134353
798.271	0.0134755
798.349	0.0134597
798.427	0.0135490
798.505	0.0134193
798.583	0.0135715
798.661	0.0135379
798.739	0.0133926
798.818	0.0136335
798.896	0.0135579
798.974	0.0134402
799.052	0.0133552
799.130	0.0132727
799.208	0.0131504
799.286	0.0131521
799.364	0.0131212
799.443	0.0130683
799.521	0.0130602
799.599	0.0129939
799.677	0.0130638
799.755	0.0129559
799.833	0.0127786
799.911	0.0128320
799.989	0.0130773
800.068	0.0129620
800.146	0.0131189
800.224	0.0130799
800.302	0.0130093
800.380	0.0130664
800.458	0.0131638
800.536	0.0132483
800.614	0.0134538
800.693	0.0133803
800.771	0.0134601
800.849	0.0135183
800.927	0.0135589
801.005	0.0136060
801.083	0.0135471
801.161	0.0137268
801.239	0.0137168
801.318	0.0138122
801.396	0.0137875
801.474	0.0136543
801.552	0.0135687
801.630	0.0135504
801.708	0.0135398
801.786	0.0133729
801.864	0.0135601
801.943	0.0133059
802.021	0.0132634
802.099	0.0133527
802.177	0.0131826
802.255	0.0132854
802.333	0.0131289
802.411	0.0131682
802.489	0.0132599
802.568	0.0130810
802.646	0.0129958
802.724	0.0129748
802.802	0.0131599
802.880	0.0130821
802.958	0.0131443
803.036	0.0132382
803.114	0.0134583
803.193	0.0133381
803.271	0.0133609
803.349	0.0134805
803.427	0.0135123
803.505	0.0133996
803.583	0.0134403
803.661	0.0136839
803.739	0.0135328
803.818	0.0136382
803.896	0.0136744
803.974	0.0135705
804.052	0.0135074
804.130	0.0134971
804.208	0.0133453
804.286	0.0135168
804.364	0.0133949
804.443	0.0133374
804.521	0.0134120
804.599	0.0132960
804.677	0.0132481
804.755	0.0132517
804.833	0.0133604
804.911	0.0131354
804.989	0.0131924
805.068	0.0131950
805.146	0.0132322
805.224	0.0132527
805.302	0.0133150
805.380	0.0133176
805.458	0.0134126
805.536	0.0134727
805.614	0.0132461
805.693	0.0133290
805.771	0.0135112
805.849	0.0135407
805.927	0.0134914
806.005	0.0135847
806.083	0.0136201
806.161	0.0135539
806.239	0.0136250
806.318	0.0135628
806.396	0.0136680
806.474	0.0135838
806.552	0.0135156
806.630	0.0135760
806.708	0.0134528
806.786	0.0134517
806.864	0.0133627
806.943	0.0133471
807.021	0.0134383
807.099	0.0133984
807.177	0.0134194
807.255	0.0135021
807.333	0.0134454
807.411	0.0133887
807.489	0.0133503
807.568	0.0132545
807.646	0.0133474
807.724	0.0133520
807.802	0.0133588
807.880	0.0133735
807.958	0.0133475
808.036	0.0132625
808.114	0.0132976
808.193	0.0132381
808.271	0.0133720
808.349	0.0132912
808.427	0.0133573
808.505	0.0133077
808.583	0.0133947
808.661	0.0134134
808.739	0.0135385
808.818	0.0133778
808.896	0.0134988
808.974	0.0134624
809.052	0.0132787
809.130	0.0135059
809.208	0.0134212
809.286	0.0133826
809.364	0.0134654
809.443	0.0134016
809.521	0.0134775
809.599	0.0133762
809.677	0.0134267
809.755	0.0133073
809.833	0.0133903
809.911	0.0135391
809.989	0.0133311
810.068	0.0134265
810.146	0.0131926
810.224	0.0132467
810.302	0.0133495
810.380	0.0133607
810.458	0.0132319
810.536	0.0132143
810.614	0.0134029
810.693	0.0130752
810.771	0.0132175
810.849	0.0133149
810.927	0.0132076
811.005	0.0133603
811.083	0.0134486
811.161	0.0133161
811.239	0.0134441
811.318	0.0135154
811.396	0.0135384
811.474	0.0134952
811.552	0.0136076
811.630	0.0136960
811.708	0.0137231
811.786	0.0138023
811.864	0.0138114
811.943	0.0137583
812.021	0.0137123
812.099	0.0138560
812.177	0.0140021
812.255	0.0138514
812.333	0.0138876
812.411	0.0139137
812.489	0.0139549
812.568	0.0138783
812.646	0.0139445
812.724	0.0140203
812.802	0.0138750
812.880	0.0139705
812.958	0.0138342
813.036	0.0137803
813.114	0.0136935
813.193	0.0138329
813.271	0.0136824
813.349	0.0135897
813.427	0.0136025
813.505	0.0135063
813.583	0.0134067
813.661	0.0135092
813.739	0.0133968
813.818	0.0133092
813.896	0.0131656
813.974	0.0131614
814.052	0.0129703
814.130	0.0130520
814.208	0.0131214
814.286	0.0130274
814.364	0.0130678
814.443	0.0129229
814.521	0.0128954
814.599	0.0130132
814.677	0.0129544
814.755	0.0130225
814.833	0.0130373
814.911	0.0131227
814.989	0.0131889
815.068	0.0131007
815.146	0.0132572
815.224	0.0132014
815.302	0.0133472
815.380	0.0132521
815.458	0.0133017
815.536	0.0133177
815.614	0.0134061
815.693	0.0135693
815.771	0.0135240
815.849	0.0137156
815.927	0.0136581
816.005	0.0135612
816.083	0.0137014
816.161	0.0137903
816.239	0.0136891
816.318	0.0138345
816.396	0.0136584
816.474	0.0136948
816.552	0.0136624
816.630	0.0135572
816.708	0.0137421
816.786	0.0135927
816.864	0.0135851
816.943	0.0136934
817.021	0.0135802
817.099	0.0135058
817.177	0.0135110
817.255	0.0135758
817.333	0.0133815
817.411	0.0135371
817.489	0.0134184
817.568	0.0134172
817.646	0.0135783
817.724	0.0135523
817.802	0.0134873
817.880	0.0135396
817.958	0.0134743
818.036	0.0134584
818.114	0.0133979
818.193	0.0134355
818.271	0.0134119
818.349	0.0133949
818.427	0.0134119
818.505	0.0133270
818.583	0.0133361
818.661	0.0132096
818.739	0.0132857
818.818	0.0133137
818.896	0.0132327
818.974	0.0132211
819.052	0.0131760
819.130	0.0132462
819.208	0.0131915
819.286	0.0130823
819.364	0.0131393
819.443	0.0133335
819.521	0.0132374
819.599	0.0132916
819.677	0.0131464
819.755	0.0132224
819.833	0.0134164
819.911	0.0131187
819.989	0.0131479
820.068	0.0130999
820.146	0.0131424
820.224	0.0131635
820.302	0.0131081
820.380	0.0131549
820.458	0.0131893
820.536	0.0130640
820.614	0.0130487
820.693	0.0130409
820.771	0.0129657
820.849	0.0129696
820.927	0.0130714
821.005	0.0131062
821.083	0.0130991
821.161	0.0131913
821.239	0.0132082
821.318	0.0133508
821.396	0.0133114
821.474	0.0133876
821.552	0.0135461
821.630	0.0134479
821.708	0.0135485
821.786	0.0134969
821.864	0.0134773
821.943	0.0135632
822.021	0.0135506
822.099	0.0134608
822.177	0.0134947
822.255	0.0135686
822.333	0.0133943
822.411	0.0133134
822.489	0.0133151
822.568	0.0133750
822.646	0.0134631
822.724	0.0133941
822.802	0.0132813
822.880	0.0132217
822.958	0.0133417
823.036	0.0133285
823.114	0.0133565
823.193	0.0133173
823.271	0.0132809
823.349	0.0134382
823.427	0.0133360
823.505	0.0132433
823.583	0.0133575
823.661	0.0133647
823.739	0.0133009
823.818	0.0135055
823.896	0.0135835
823.974	0.0133967
824.052	0.0134770
824.130	0.0134748
824.208	0.0136132
824.286	0.0135976
824.364	0.0133537
824.443	0.0135288
824.521	0.0134124
824.599	0.0135472
824.677	0.0135368
824.755	0.0134911
824.833	0.0135102
824.911	0.0135178
824.989	0.0134608
825.068	0.0133617
825.146	0.0133047
825.224	0.0133261
825.302	0.0133355
825.380	0.0130955
825.458	0.0132958
825.536	0.0132045
825.614	0.0129430
825.693	0.0129517
825.771	0.0128963
825.849	0.0130354
825.927	0.0128486
826.005	0.0128861
826.083	0.0127554
826.161	0.0129398
826.239	0.0129602
826.318	0.0129419
826.396	0.0129789
826.474	0.0129498
826.552	0.0131423
826.630	0.0131036
826.708	0.0131522
826.786	0.0132282
826.864	0.0131235
826.943	0.0131251
827.021	0.0131448
827.099	0.0131866
827.177	0.0133363
827.255	0.0132623
827.333	0.0132630
827.411	0.0133619
827.489	0.0134177
827.568	0.0133669
827.646	0.0133706
827.724	0.0134335
827.802	0.0135380
827.880	0.0134504
827.958	0.0133728
828.036	0.0134731
828.114	0.0136411
828.193	0.0136343
828.271	0.0137560
828.349	0.0135295
828.427	0.0135828
828.505	0.0136888
828.583	0.0138125
828.661	0.0138255
828.739	0.0137301
828.818	0.0138058
828.896	0.0137415
828.974	0.0133945
829.052	0.0135854
829.130	0.0136077
829.208	0.0135532
829.286	0.0135841
829.364	0.0134219
829.443	0.0134348
829.521	0.0134656
829.599	0.0132980
829.677	0.0132315
829.755	0.0133224
829.833	0.0133967
829.911	0.0133080
829.989	0.0133166
830.068	0.0132804
830.146	0.0133034
830.224	0.0132087
830.302	0.0132305
830.380	0.0133930
830.458	0.0133018
830.536	0.0131887
830.614	0.0133057
830.693	0.0133464
830.771	0.0133752
830.849	0.0133082
830.927	0.0132462
831.005	0.0133920
831.083	0.0133788
831.161	0.0132534
831.239	0.0133047
831.318	0.0134382
831.396	0.0132974
831.474	0.0133149
831.552	0.0133543
831.630	0.0131597
831.708	0.0131886
831.786	0.0132003
831.864	0.0133247
831.943	0.0133923
832.021	0.0131342
832.099	0.0132957
832.177	0.0134669
832.255	0.0133564
832.333	0.0132838
832.411	0.0131187
832.489	0.0133605
832.568	0.0133479
832.646	0.0133612
832.724	0.0133721
832.802	0.0134969
832.880	0.0135299
832.958	0.0136841
833.036	0.0135835
833.114	0.0135966
833.193	0.0136906
833.271	0.0137081
833.349	0.0137051
833.427	0.0137416
833.505	0.0137189
833.583	0.0136810
833.661	0.0136943
833.739	0.0137792
833.818	0.0137423
833.896	0.0138255
833.974	0.0138168
834.052	0.0136971
834.130	0.0136823
834.208	0.0136672
834.286	0.0136928
834.364	0.0136691
834.443	0.0137263
834.521	0.0137788
834.599	0.0136443
834.677	0.0137006
834.755	0.0136353
834.833	0.0136134
834.911	0.0134987
834.989	0.0135998
835.068	0.0134825
835.146	0.0134097
835.224	0.0134381
835.302	0.0134337
835.380	0.0133613
835.458	0.0134328
835.536	0.0133247
835.614	0.0132720
835.693	0.0132154
835.771	0.0132526
835.849	0.0134515
835.927	0.0132366
836.005	0.0133109
836.083	0.0132274
836.161	0.0132829
836.239	0.0133238
836.318	0.0132925
836.396	0.0133990
836.474	0.0133799
836.552	0.0132729
836.630	0.0134678
836.708	0.0136029
836.786	0.0136272
836.864	0.0136586
836.943	0.0136138
837.021	0.0136459
837.099	0.0136237
837.177	0.0138432
837.255	0.0136333
837.333	0.0137270
837.411	0.0137790
837.489	0.0137697
837.568	0.0137226
837.646	0.0136825
837.724	0.0136855
837.802	0.0138825
837.880	0.0137144
837.958	0.0135851
838.036	0.0137090
838.114	0.0135505
838.193	0.0134398
838.271	0.0136680
838.349	0.0135339
838.427	0.0135551
838.505	0.0136067
838.583	0.0135333
838.661	0.0136695
838.739	0.0136138
838.818	0.0136015
838.896	0.0135242
838.974	0.0133963
839.052	0.0135828
839.130	0.0136436
839.208	0.0135161
839.286	0.0135612
839.364	0.0135115
839.443	0.0136540
839.521	0.0135691
839.599	0.0134998
839.677	0.0135329
839.755	0.0137545
839.833	0.0133347
839.911	0.0134697
839.989	0.0134708
840.068	0.0133561
840.146	0.0132998
840.224	0.0133598
840.302	0.0132886
840.380	0.0133119
840.458	0.0132305
840.536	0.0131947
840.614	0.0131719
840.693	0.0132264
840.771	0.0130566
840.849	0.0130647
840.927	0.0131797
841.005	0.0131126
841.083	0.0129449
841.161	0.0129137
841.239	0.0130865
841.318	0.0129717
841.396	0.0131104
841.474	0.0130526
841.552	0.0131529
841.630	0.0131728
841.708	0.0130203
841.786	0.0131919
841.864	0.0131567
841.943	0.0131072
842.021	0.0131973
842.099	0.0131342
842.177	0.0131039
842.255	0.0133675
842.333	0.0133360
842.411	0.0133567
842.489	0.0134652
842.568	0.0132838
842.646	0.0134007
842.724	0.0133635
842.802	0.0132812
842.880	0.0133358
842.958	0.0133286
843.036	0.0134071
843.114	0.0132858
843.193	0.0131876
843.271	0.0132549
843.349	0.0133945
843.427	0.0133575
843.505	0.0134395
843.583	0.0133411
843.661	0.0133341
843.739	0.0131995
843.818	0.0133723
843.896	0.0133006
843.974	0.0132303
844.052	0.0134234
844.130	0.0132404
844.208	0.0131966
844.286	0.0133018
844.364	0.0133494
844.443	0.0133012
844.521	0.0134158
844.599	0.0134193
844.677	0.0134293
844.755	0.0134482
844.833	0.0134561
844.911	0.0133929
844.989	0.0135576
845.068	0.0135113
845.146	0.0134660
845.224	0.0135347
845.302	0.0135402
845.380	0.0134850
845.458	0.0134026
845.536	0.0133542
845.614	0.0134396
845.693	0.0133324
845.771	0.0132064
845.849	0.0132519
845.927	0.0132214
846.005	0.0131012
846.083	0.0133012
846.161	0.0131493
846.239	0.0131245
846.318	0.0131785
846.396	0.0132850
846.474	0.0132253
846.552	0.0129779
846.630	0.0132317
846.708	0.0130078
846.786	0.0131115
846.864	0.0129992
846.943	0.0131163
847.021	0.0130598
847.099	0.0130916
847.177	0.0131250
847.255	0.0131204
847.333	0.0131393
847.411	0.0132648
847.489	0.0131909
847.568	0.0133208
847.646	0.0133036
847.724	0.0133862
847.802	0.0132333
847.880	0.0133852
847.958	0.0133788
848.036	0.0132707
848.114	0.0133096
848.193	0.0133280
848.271	0.0135944
848.349	0.0134714
848.427	0.0134041
848.505	0.0133750
848.583	0.0134332
848.661	0.0133545
848.739	0.0132879
848.818	0.0133588
848.896	0.0133603
848.974	0.0134122
849.052	0.0133657
849.130	0.0134219
849.208	0.0132347
849.286	0.0134059
849.364	0.0134472
849.443	0.0133797
849.521	0.0131929
849.599	0.0132600
849.677	0.0133013
849.755	0.0134352
849.833	0.0133228
849.911	0.0132574
849.989	0.0132877
850.068	0.0133203
850.146	0.0134080
850.224	0.0133080
850.302	0.0134291
850.380	0.0135149
850.458	0.0135521
850.536	0.0134418
850.614	0.0134602
850.693	0.0134726
850.771	0.0133699
850.849	0.0135237
850.927	0.0135414
851.005	0.0134663
851.083	0.0134430
851.161	0.0134755
851.239	0.0135461
851.318	0.0133858
851.396	0.0134656
851.474	0.0132985
851.552	0.0134303
851.630	0.0134476
851.708	0.0133521
851.786	0.0132442
851.864	0.0132761
851.943	0.0133131
852.021	0.0134277
852.099	0.0133382
852.177	0.0131741
852.255	0.0132815
852.333	0.0134068
852.411	0.0133365
852.489	0.0133472
852.568	0.0132123
852.646	0.0133140
852.724	0.0132599
852.802	0.0132321
852.880	0.0133826
852.958	0.0133347
853.036	0.0134152
853.114	0.0132436
853.193	0.0132291
853.271	0.0131948
853.349	0.0133392
853.427	0.0132647
853.505	0.0133211
853.583	0.0133401
853.661	0.0133529
853.739	0.0132360
853.818	0.0133973
853.896	0.0131936
853.974	0.0132171
854.052	0.0133589
854.130	0.0133163
854.208	0.0132837
854.286	0.0133885
854.364	0.0133439
854.443	0.0133215
854.521	0.0132832
854.599	0.0135291
854.677	0.0134705
854.755	0.0134461
854.833	0.0135585
854.911	0.0135385
854.989	0.0136385
855.068	0.0137307
855.146	0.0137486
855.224	0.0135401
855.302	0.0136951
855.380	0.0135911
855.458	0.0136248
855.536	0.0136460
855.614	0.0135718
855.693	0.0135329
855.771	0.0134335
855.849	0.0135122
855.927	0.0135345
856.005	0.0135274
856.083	0.0134093
856.161	0.0134299
856.239	0.0133772
856.318	0.0133189
856.396	0.0132618
856.474	0.0132854
856.552	0.0133049
856.630	0.0133176
856.708	0.0131734
856.786	0.0131238
856.864	0.0132865
856.943	0.0132254
857.021	0.0132211
857.099	0.0129192
857.177	0.0131311
857.255	0.0130943
857.333	0.0131873
857.411	0.0131313
857.489	0.0131256
857.568	0.0131646
857.646	0.0131675
857.724	0.0132253
857.802	0.0131378
857.880	0.0132920
857.958	0.0133547
858.036	0.0134832
858.114	0.0133822
858.193	0.0134243
858.271	0.0135537
858.349	0.0134611
858.427	0.0135003
858.505	0.0136591
858.583	0.0136929
858.661	0.0135405
858.739	0.0135137
858.818	0.0135398
858.896	0.0135563
858.974	0.0135792
859.052	0.0136267
859.130	0.0135909
859.208	0.0135253
859.286	0.0137348
859.364	0.0136323
859.443	0.0135215
859.521	0.0135946
859.599	0.0135478
859.677	0.0134770
859.755	0.0135782
859.833	0.0135961
859.911	0.0135147
859.989	0.0135895
860.068	0.0135645
860.146	0.0136440
860.224	0.0137938
860.302	0.0135880
860.380	0.0134886
860.458	0.0135979
860.536	0.0134486
860.614	0.0134585
860.693	0.0133761
860.771	0.0133038
860.849	0.0134870
860.927	0.0134363
861.005	0.0134072
861.083	0.0134344
861.161	0.0133356
861.239	0.0133913
861.318	0.0133990
861.396	0.0133006
861.474	0.0133335
861.552	0.0133151
861.630	0.0132436
861.708	0.0132977
861.786	0.0132294
861.864	0.0133247
861.943	0.0132434
862.021	0.0133339
862.099	0.0133061
862.177	0.0131761
862.255	0.0131940
862.333	0.0133203
862.411	0.0132188
862.489	0.0132892
862.568	0.0134111
862.646	0.0132629
862.724	0.0132365
862.802	0.0132983
862.880	0.0132599
862.958	0.0134010
863.036	0.0133368
863.114	0.0134087
863.193	0.0134950
863.271	0.0134530
863.349	0.0133768
863.427	0.0134340
863.505	0.0135359
863.583	0.0136205
863.661	0.0137463
863.739	0.0137157
863.818	0.0136146
863.896	0.0136690
863.974	0.0137856
864.052	0.0137558
864.130	0.0137679
864.208	0.0139035
864.286	0.0138486
864.364	0.0137797
864.443	0.0137072
864.521	0.0136211
864.599	0.0136661
864.677	0.0136157
864.755	0.0136791
864.833	0.0135058
864.911	0.0134773
864.989	0.0134489
865.068	0.0134949
865.146	0.0134663
865.224	0.0134766
865.302	0.0133382
865.380	0.0134417
865.458	0.0134452
865.536	0.0133920
865.614	0.0132368
865.693	0.0133958
865.771	0.0133089
865.849	0.0131529
865.927	0.0132655
866.005	0.0133583
866.083	0.0133147
866.161	0.0132316
866.239	0.0132046
866.318	0.0132268
866.396	0.0132095
866.474	0.0129591
866.552	0.0130850
866.630	0.0131038
866.708	0.0131715
866.786	0.0131361
866.864	0.0129869
866.943	0.0131757
867.021	0.0132356
867.099	0.0131290
867.177	0.0132314
867.255	0.0132516
867.333	0.0132414
867.411	0.0133716
867.489	0.0134149
867.568	0.0133961
867.646	0.0133579
867.724	0.0135167
867.802	0.0134511
867.880	0.0134901
867.958	0.0133860
868.036	0.0135136
868.114	0.0135888
868.193	0.0135813
868.271	0.0134739
868.349	0.0135152
868.427	0.0136738
868.505	0.0136403
868.583	0.0137310
868.661	0.0136216
868.739	0.0136349
868.818	0.0136966
868.896	0.0135886
868.974	0.0135675
869.052	0.0135999
869.130	0.0134673
869.208	0.0134303
869.286	0.0136889
869.364	0.0135673
869.443	0.0136951
869.521	0.0134884
869.599	0.0133044
869.677	0.0133959
869.755	0.0133377
869.833	0.0133475
869.911	0.0134458
869.989	0.0133198
870.068	0.0132639
870.146	0.0134060
870.224	0.0134908
870.302	0.0133947
870.380	0.0134068
870.458	0.0134389
870.536	0.0133937
870.614	0.0133401
870.693	0.0134589
870.771	0.0134020
870.849	0.0134944
870.927	0.0134207
871.005	0.0133628
871.083	0.0133481
871.161	0.0134266
871.239	0.0135041
871.318	0.0135184
871.396	0.0135056
871.474	0.0136174
871.552	0.0134971
871.630	0.0135493
871.708	0.0134193
871.786	0.0135590
871.864	0.0134774
871.943	0.0134633
872.021	0.0134470
872.099	0.0134035
872.177	0.0133736
872.255	0.0133981
872.333	0.0132713
872.411	0.0132209
872.489	0.0133851
872.568	0.0133322
872.646	0.0133063
872.724	0.0130476
872.802	0.0132607
872.880	0.0132689
872.958	0.0131860
873.036	0.0131557
873.114	0.0132665
873.193	0.0131696
873.271	0.0131993
873.349	0.0132462
873.427	0.0132336
873.505	0.0131664
873.583	0.0131474
873.661	0.0132497
873.739	0.0132512
873.818	0.0133940
873.896	0.0134664
873.974	0.0133154
874.052	0.0133559
874.130	0.0134663
874.208	0.0135390
874.286	0.0134609
874.364	0.0135374
874.443	0.0136574
874.521	0.0134492
874.599	0.0136007
874.677	0.0136027
874.755	0.0136541
874.833	0.0136044
874.911	0.0137469
874.989	0.0137216
875.068	0.0137105
875.146	0.0136465
875.224	0.0138776
875.302	0.0136998
875.380	0.0137225
875.458	0.0136921
875.536	0.0135760
875.614	0.0136107
875.693	0.0136983
875.771	0.0135147
875.849	0.0133409
875.927	0.0133459
876.005	0.0134566
876.083	0.0132895
876.161	0.0133856
876.239	0.0132961
876.318	0.0133369
876.396	0.0132581
876.474	0.0131788
876.552	0.0132074
876.630	0.0132160
876.708	0.0131647
876.786	0.0130683
876.864	0.0131528
876.943	0.0132117
877.021	0.0131020
877.099	0.0131065
877.177	0.0130679
877.255	0.0131991
877.333	0.0131741
877.411	0.0132120
877.489	0.0133232
877.568	0.0132931
877.646	0.0132442
877.724	0.0132485
877.802	0.0131149
877.880	0.0132421
877.958	0.0133507
878.036	0.0133875
878.114	0.0133540
878.193	0.0134324
878.271	0.0135291
878.349	0.0135146
878.427	0.0133625
878.505	0.0134995
878.583	0.0134180
878.661	0.0133688
878.739	0.0134925
878.818	0.0133601
878.896	0.0134113
878.974	0.0133326
879.052	0.0132493
879.130	0.0133037
879.208	0.0132864
879.286	0.0132616
879.364	0.0130389
879.443	0.0131218
879.521	0.0130423
879.599	0.0130863
879.677	0.0129773
879.755	0.0129820
879.833	0.0132069
879.911	0.0132178
879.989	0.0129883
880.068	0.0130994
880.146	0.0131470
880.224	0.0129671
880.302	0.0131255
880.380	0.0132187
880.458	0.0132254
880.536	0.0133924
880.614	0.0132889
880.693	0.0132055
880.771	0.0133070
880.849	0.0133868
880.927	0.0136358
881.005	0.0136050
881.083	0.0135086
881.161	0.0134918
881.239	0.0135497
881.318	0.0136499
881.396	0.0135330
881.474	0.0135065
881.552	0.0136040
881.630	0.0136211
881.708	0.0136746
881.786	0.0134919
881.864	0.0135379
881.943	0.0136072
882.021	0.0135378
882.099	0.0136472
882.177	0.0135468
882.255	0.0135563
882.333	0.0136158
882.411	0.0136200
882.489	0.0133807
882.568	0.0134737
882.646	0.0135622
882.724	0.0134105
882.802	0.0135783
882.880	0.0134313
882.958	0.0133234
883.036	0.0135419
883.114	0.0132939
883.193	0.0132549
883.271	0.0133115
883.349	0.0133831
883.427	0.0132513
883.505	0.0133009
883.583	0.0132430
883.661	0.0133781
883.739	0.0133144
883.818	0.0133195
883.896	0.0133592
883.974	0.0133434
884.052	0.0134631
884.130	0.0134505
884.208	0.0134148
884.286	0.0133930
884.364	0.0134991
884.443	0.0134438
884.521	0.0134783
884.599	0.0134982
884.677	0.0136456
884.755	0.0134122
884.833	0.0135630
884.911	0.0135751
884.989	0.0134352
885.068	0.0135889
885.146	0.0136606
885.224	0.0136233
885.302	0.0136295
885.380	0.0136819
885.458	0.0134960
885.536	0.0135865
885.614	0.0135452
885.693	0.0135916
885.771	0.0135489
885.849	0.0134480
885.927	0.0134858
886.005	0.0134629
886.083	0.0134700
886.161	0.0134611
886.239	0.0135126
886.318	0.0134750
886.396	0.0135265
886.474	0.0133442
886.552	0.0133864
886.630	0.0132556
886.708	0.0134599
886.786	0.0133997
886.864	0.0132660
886.943	0.0133724
887.021	0.0134276
887.099	0.0133204
887.177	0.0132770
887.255	0.0133646
887.333	0.0134078
887.411	0.0134975
887.489	0.0134013
887.568	0.0134100
887.646	0.0133947
887.724	0.0135431
887.802	0.0135720
887.880	0.0135836
887.958	0.0135120
888.036	0.0134180
888.114	0.0135864
888.193	0.0135913
888.271	0.0133253
888.349	0.0134405
888.427	0.0134225
888.505	0.0134033
888.583	0.0134892
888.661	0.0134516
888.739	0.0133138
888.818	0.0134193
888.896	0.0134991
888.974	0.0135036
889.052	0.0133844
889.130	0.0134145
889.208	0.0132700
889.286	0.0133832
889.364	0.0134534
889.443	0.0134885
889.521	0.0132942
889.599	0.0134338
889.677	0.0135586
889.755	0.0134055
889.833	0.0133579
889.911	0.0133647
889.989	0.0134444
890.068	0.0134111
890.146	0.0135228
890.224	0.0135464
890.302	0.0136044
890.380	0.0134834
890.458	0.0134278
890.536	0.0136000
890.614	0.0135085
890.693	0.0133494
890.771	0.0133846
890.849	0.0135126
890.927	0.0134293
891.005	0.0133424
891.083	0.0134284
891.161	0.0133916
891.239	0.0133951
891.318	0.0133377
891.396	0.0134409
891.474	0.0135687
891.552	0.0135786
891.630	0.0134164
891.708	0.0134296
891.786	0.0135621
891.864	0.0134960
891.943	0.0133780
892.021	0.0134490
892.099	0.0134968
892.177	0.0135753
892.255	0.0135134
892.333	0.0134500
892.411	0.0134898
892.489	0.0133112
892.568	0.0134505
892.646	0.0135776
892.724	0.0136134
892.802	0.0135908
892.880	0.0135225
892.958	0.0136787
893.036	0.0136738
893.114	0.0138139
893.193	0.0137890
893.271	0.0135770
893.349	0.0135091
893.427	0.0135930
893.505	0.0137109
893.583	0.0137018
893.661	0.0135458
893.739	0.0134254
893.818	0.0134575
893.896	0.0135152
893.974	0.0134585
894.052	0.0134709
894.130	0.0134492
894.208	0.0133878
894.286	0.0133611
894.364	0.0133157
894.443	0.0133923
894.521	0.0133624
894.599	0.0132956
894.677	0.0132581
894.755	0.0133242
894.833	0.0133025
894.911	0.0133330
894.989	0.0133687
895.068	0.0135415
895.146	0.0133952
895.224	0.0135720
895.302	0.0134800
895.380	0.0135200
895.458	0.0134930
895.536	0.0135384
895.614	0.0134234
895.693	0.0136285
895.771	0.0136662
895.849	0.0136619
895.927	0.0136466
896.005	0.0135662
896.083	0.0134405
896.161	0.0134464
896.239	0.0135176
896.318	0.0135360
896.396	0.0134802
896.474	0.0133428
896.552	0.0134018
896.630	0.0133363
896.708	0.0134653
896.786	0.0134327
896.864	0.0133940
896.943	0.0133109
897.021	0.0133247
897.099	0.0134013
897.177	0.0134545
897.255	0.0133047
897.333	0.0135168
897.411	0.0135140
897.489	0.0134154
897.568	0.0135955
897.646	0.0133640
897.724	0.0135139
897.802	0.0135822
897.880	0.0136268
897.958	0.0133099
898.036	0.0136717
898.114	0.0133849
898.193	0.0134428
898.271	0.0134164
898.349	0.0134676
898.427	0.0134785
898.505	0.0135594
898.583	0.0134126
898.661	0.0133876
898.739	0.0133015
898.818	0.0133689
898.896	0.0132778
898.974	0.0134166
899.052	0.0132962
899.130	0.0131866
899.208	0.0133352
899.286	0.0132337
899.364	0.0131890
899.443	0.0132856
899.521	0.0132787
899.599	0.0132298
899.677	0.0132659
899.755	0.0131273
899.833	0.0132140
899.911	0.0132259
899.989	0.0133173
900.068	0.0134045
900.146	0.0133283
900.224	0.0134512
900.302	0.0134602
900.380	0.0134844
900.458	0.0135468
900.536	0.0136549
900.614	0.0135654
900.693	0.0135807
900.771	0.0136840
900.849	0.0137177
900.927	0.0136771
901.005	0.0136303
901.083	0.0136036
901.161	0.0135857
901.239	0.0135520
901.318	0.0135404
901.396	0.0133983
901.474	0.0134906
901.552	0.0134058
901.630	0.0133017
901.708	0.0132806
901.786	0.0132463
901.864	0.0132984
901.943	0.0132167
902.021	0.0133269
902.099	0.0132062
902.177	0.0132274
902.255	0.0131959
902.333	0.0132347
902.411	0.0133540
902.489	0.0133276
902.568	0.0132446
902.646	0.0132160
902.724	0.0131673
902.802	0.0132305
902.880	0.0132791
902.958	0.0130882
903.036	0.0130710
903.114	0.0131324
903.193	0.0130897
903.271	0.0132126
903.349	0.0132249
903.427	0.0130562
903.505	0.0130723
903.583	0.0131306
903.661	0.0132397
903.739	0.0133166
903.818	0.0131166
903.896	0.0132578
903.974	0.0132870
904.052	0.0133483
904.130	0.0134486
904.208	0.0132561
904.286	0.0133197
904.364	0.0132639
904.443	0.0133055
904.521	0.0133244
904.599	0.0133001
904.677	0.0135093
904.755	0.0133727
904.833	0.0133508
904.911	0.0134986
904.989	0.0134063
905.068	0.0132590
905.146	0.0133047
905.224	0.0134149
905.302	0.0133257
905.380	0.0131578
905.458	0.0131262
905.536	0.0131647
905.614	0.0132649
905.693	0.0132104
905.771	0.0132886
905.849	0.0133050
905.927	0.0132079
906.005	0.0133577
906.083	0.0134069
906.161	0.0132993
906.239	0.0132511
906.318	0.0133302
906.396	0.0132177
906.474	0.0134469
906.552	0.0134053
906.630	0.0134521
906.708	0.0133959
906.786	0.0134561
906.864	0.0133692
906.943	0.0135403
907.021	0.0133172
907.099	0.0133256
907.177	0.0133055
907.255	0.0133509
907.333	0.0132648
907.411	0.0132487
907.489	0.0132914
907.568	0.0133070
907.646	0.0132419
907.724	0.0132709
907.802	0.0133695
907.880	0.0132085
907.958	0.0132539
908.036	0.0132742
908.114	0.0133101
908.193	0.0133907
908.271	0.0133787
908.349	0.0135307
908.427	0.0133863
908.505	0.0133369
908.583	0.0133331
908.661	0.0132420
908.739	0.0132563
908.818	0.0133337
908.896	0.0133361
908.974	0.0134167
909.052	0.0133014
909.130	0.0134178
909.208	0.0134332
909.286	0.0134041
909.364	0.0134162
909.443	0.0133910
909.521	0.0134116
909.599	0.0132834
909.677	0.0134466
909.755	0.0134589
909.833	0.0133246
909.911	0.0132926
909.989	0.0133042
910.068	0.0133057
910.146	0.0133654
910.224	0.0133951
910.302	0.0133090
910.380	0.0132377
910.458	0.0131821
910.536	0.0132775
910.614	0.0134727
910.693	0.0131551
910.771	0.0133913
910.849	0.0133612
910.927	0.0134529
911.005	0.0134615
911.083	0.0133438
911.161	0.0133931
911.239	0.0134467
911.318	0.0134451
911.396	0.0135517
911.474	0.0134978
911.552	0.0134193
911.630	0.0134202
911.708	0.0134035
911.786	0.0134784
911.864	0.0136398
911.943	0.0134560
912.021	0.0134164
912.099	0.0136257
912.177	0.0136302
912.255	0.0135611
912.333	0.0135537
912.411	0.0135709
912.489	0.0134721
912.568	0.0134830
912.646	0.0134513
912.724	0.0133230
912.802	0.0134534
912.880	0.0132603
912.958	0.0134369
913.036	0.0132689
913.114	0.0133805
913.193	0.0134103
913.271	0.0132677
913.349	0.0131776
913.427	0.0132882
913.505	0.0134480
913.583	0.0133100
913.661	0.0133087
913.739	0.0133455
913.818	0.0134192
913.896	0.0132227
913.974	0.0133243
914.052	0.0134662
914.130	0.0134479
914.208	0.0134832
914.286	0.0134987
914.364	0.0134955
914.443	0.0136480
914.521	0.0134277
914.599	0.0135490
914.677	0.0135709
914.755	0.0136072
914.833	0.0136293
914.911	0.0135324
914.989	0.0134673
915.068	0.0134322
915.146	0.0135387
915.224	0.0135440
915.302	0.0136722
915.380	0.0133613
915.458	0.0135944
915.536	0.0134814
915.614	0.0135413
915.693	0.0135839
915.771	0.0136135
915.849	0.0135042
915.927	0.0135927
916.005	0.0134815
916.083	0.0135081
916.161	0.0135126
916.239	0.0135497
916.318	0.0135263
916.396	0.0134422
916.474	0.0133877
916.552	0.0134735
916.630	0.0132866
916.708	0.0134737
916.786	0.0134567
916.864	0.0134333
916.943	0.0134519
917.021	0.0135725
917.099	0.0133633
917.177	0.0134556
917.255	0.0135055
917.333	0.0134466
917.411	0.0133525
917.489	0.0134782
917.568	0.0134317
917.646	0.0135159
917.724	0.0134647
917.802	0.0134250
917.880	0.0133578
917.958	0.0134562
918.036	0.0134543
918.114	0.0135831
918.193	0.0135022
918.271	0.0134673
918.349	0.0134864
918.427	0.0134518
918.505	0.0134434
918.583	0.0134602
918.661	0.0133722
918.739	0.0134686
918.818	0.0135436
918.896	0.0133143
918.974	0.0134885
919.052	0.0134693
919.130	0.0134556
919.208	0.0134665
919.286	0.0134594
919.364	0.0134813
919.443	0.0133444
919.521	0.0132856
919.599	0.0134049
919.677	0.0134019
919.755	0.0135300
919.833	0.0133177
919.911	0.0133051
919.989	0.0134116
920.068	0.0133620
920.146	0.0132668
920.224	0.0133411
920.302	0.0132377
920.380	0.0132895
920.458	0.0132558
920.536	0.0132104
920.614	0.0133230
920.693	0.0132164
920.771	0.0131725
920.849	0.0132773
920.927	0.0131675
921.005	0.0133181
921.083	0.0133511
921.161	0.0134418
921.239	0.0133299
921.318	0.0134374
921.396	0.0134051
921.474	0.0135347
921.552	0.0134398
921.630	0.0134965
921.708	0.0134915
921.786	0.0135018
921.864	0.0134754
921.943	0.0135258
922.021	0.0135859
922.099	0.0135675
922.177	0.0134113
922.255	0.0135361
922.333	0.0136273
922.411	0.0136457
922.489	0.0135278
922.568	0.0133990
922.646	0.0135077
922.724	0.0133018
922.802	0.0135134
922.880	0.0134476
922.958	0.0133932
923.036	0.0133245
923.114	0.0134393
923.193	0.0135282
923.271	0.0134892
923.349	0.0135300
923.427	0.0133346
923.505	0.0134411
923.583	0.0135482
923.661	0.0133850
923.739	0.0132476
923.818	0.0131846
923.896	0.0133316
923.974	0.0132632
924.052	0.0133933
924.130	0.0134203
924.208	0.0133650
924.286	0.0132926
924.364	0.0132345
924.443	0.0133009
924.521	0.0131990
924.599	0.0132632
924.677	0.0132361
924.755	0.0133116
924.833	0.0133076
924.911	0.0132921
924.989	0.0133428
925.068	0.0132364
925.146	0.0132073
925.224	0.0132628
925.302	0.0133169
925.380	0.0133696
925.458	0.0133615
925.536	0.0132596
925.614	0.0133450
925.693	0.0134770
925.771	0.0135200
925.849	0.0133669
925.927	0.0133221
926.005	0.0132746
926.083	0.0132621
926.161	0.0134834
926.239	0.0134338
926.318	0.0132394
926.396	0.0133136
926.474	0.0134068
926.552	0.0133907
926.630	0.0133733
926.708	0.0132960
926.786	0.0133320
926.864	0.0133837
926.943	0.0134202
927.021	0.0134824
927.099	0.0134028
927.177	0.0134668
927.255	0.0136511
927.333	0.0133611
927.411	0.0133791
927.489	0.0134640
927.568	0.0134657
927.646	0.0133640
927.724	0.0132706
927.802	0.0134001
927.880	0.0132793
927.958	0.0133925
928.036	0.0135250
928.114	0.0133562
928.193	0.0134221
928.271	0.0132507
928.349	0.0133869
928.427	0.0133824
928.505	0.0132241
928.583	0.0132631
928.661	0.0132286
928.739	0.0131979
928.818	0.0131149
928.896	0.0130489
928.974	0.0131294
929.052	0.0130621
929.130	0.0131502
929.208	0.0131590
929.286	0.0132582
929.364	0.0131281
929.443	0.0131996
929.521	0.0132183
929.599	0.0133387
929.677	0.0133192
929.755	0.0133389
929.833	0.0133845
929.911	0.0132272
929.989	0.0133307
930.068	0.0134405
930.146	0.0134229
930.224	0.0134985
930.302	0.0135056
930.380	0.0135316
930.458	0.0135781
930.536	0.0136047
930.614	0.0135378
930.693	0.0135782
930.771	0.0135091
930.849	0.0134671
930.927	0.0136198
931.005	0.0134722
931.083	0.0134585
931.161	0.0135046
931.239	0.0134998
931.318	0.0134795
931.396	0.0133392
931.474	0.0133012
931.552	0.0133894
931.630	0.0134118
931.708	0.0132674
931.786	0.0133146
931.864	0.0131645
931.943	0.0131090
932.021	0.0132605
932.099	0.0133212
932.177	0.0132795
932.255	0.0131756
932.333	0.0132127
932.411	0.0132265
932.489	0.0131930
932.568	0.0131808
932.646	0.0132380
932.724	0.0131818
932.802	0.0131719
932.880	0.0132639
932.958	0.0132893
933.036	0.0131921
933.114	0.0133595
933.193	0.0132658
933.271	0.0134193
933.349	0.0135327
933.427	0.0134004
933.505	0.0135596
933.583	0.0134847
933.661	0.0136256
933.739	0.0134858
933.818	0.0135845
933.896	0.0135273
933.974	0.0136550
934.052	0.0136070
934.130	0.0136293
934.208	0.0136305
934.286	0.0137024
934.364	0.0136364
934.443	0.0134386
934.521	0.0133960
934.599	0.0134618
934.677	0.0133839
934.755	0.0132610
934.833	0.0134285
934.911	0.0133582
934.989	0.0131744
935.068	0.0131699
935.146	0.0133250
935.224	0.0131721
935.302	0.0132765
935.380	0.0131416
935.458	0.0131661
935.536	0.0132368
935.614	0.0131881
935.693	0.0130886
935.771	0.0131473
935.849	0.0132612
935.927	0.0132713
936.005	0.0133559
936.083	0.0133704
936.161	0.0131557
936.239	0.0133243
936.318	0.0134067
936.396	0.0134453
936.474	0.0134005
936.552	0.0134480
936.630	0.0137421
936.708	0.0135288
936.786	0.0135476
936.864	0.0133722
936.943	0.0134939
937.021	0.0136190
937.099	0.0135035
937.177	0.0135958
937.255	0.0134851
937.333	0.0134409
937.411	0.0134482
937.489	0.0133718
937.568	0.0135029
937.646	0.0133213
937.724	0.0134223
937.802	0.0134365
937.880	0.0134196
937.958	0.0134705
938.036	0.0134625
938.114	0.0134288
938.193	0.0135225
938.271	0.0134240
938.349	0.0135455
938.427	0.0133224
938.505	0.0132780
938.583	0.0135210
938.661	0.0134811
938.739	0.0133958
938.818	0.0134358
938.896	0.0132945
938.974	0.0132939
939.052	0.0134117
939.130	0.0133984
939.208	0.0132447
939.286	0.0133028
939.364	0.0131876
939.443	0.0134241
939.521	0.0134342
939.599	0.0132583
939.677	0.0132131
939.755	0.0131721
939.833	0.0133340
939.911	0.0133740
939.989	0.0131841
940.068	0.0132687
940.146	0.0133356
940.224	0.0132909
940.302	0.0133599
940.380	0.0133458
940.458	0.0133652
940.536	0.0133517
940.614	0.0132901
940.693	0.0133469
940.771	0.0133015
940.849	0.0132786
940.927	0.0134297
941.005	0.0133714
941.083	0.0133559
941.161	0.0133789
941.239	0.0133755
941.318	0.0132469
941.396	0.0133778
941.474	0.0134435
941.552	0.0133831
941.630	0.0134055
941.708	0.0133727
941.786	0.0136024
941.864	0.0134895
941.943	0.0137276
942.021	0.0135569
942.099	0.0134586
942.177	0.0135449
942.255	0.0135321
942.333	0.0134824
942.411	0.0134255
942.489	0.0135725
942.568	0.0135943
942.646	0.0135447
942.724	0.0135648
942.802	0.0135193
942.880	0.0135378
942.958	0.0136386
943.036	0.0135041
943.114	0.0135867
943.193	0.0136032
943.271	0.0135765
943.349	0.0135722
943.427	0.0134942
943.505	0.0135795
943.583	0.0133804
943.661	0.0135329
943.739	0.0135789
943.818	0.0135225
943.896	0.0133820
943.974	0.0135072
944.052	0.0134286
944.130	0.0133665
944.208	0.0135526
944.286	0.0134685
944.364	0.0133799
944.443	0.0135509
944.521	0.0136438
944.599	0.0135732
944.677	0.0135205
944.755	0.0134874
944.833	0.0134717
944.911	0.0135616
944.989	0.0137013
945.068	0.0134887
945.146	0.0134850
945.224	0.0135596
945.302	0.0136600
945.380	0.0136582
945.458	0.0134824
945.536	0.0135040
945.614	0.0134541
945.693	0.0134312
945.771	0.0134734
945.849	0.0135667
945.927	0.0133799
946.005	0.0135042
946.083	0.0133132
946.161	0.0133770
946.239	0.0132979
946.318	0.0134193
946.396	0.0133637
946.474	0.0132855
946.552	0.0132839
946.630	0.0133824
946.708	0.0133578
946.786	0.0133309
946.864	0.0133421
946.943	0.0134691
947.021	0.0133369
947.099	0.0134237
947.177	0.0134846
947.255	0.0134836
947.333	0.0135035
947.411	0.0134789
947.489	0.0134577
947.568	0.0133792
947.646	0.0133256
947.724	0.0134946
947.802	0.0134244
947.880	0.0133791
947.958	0.0133002
948.036	0.0133518
948.114	0.0133980
948.193	0.0132656
948.271	0.0133359
948.349	0.0132430
948.427	0.0132545
948.505	0.0133317
948.583	0.0132323
948.661	0.0131598
948.739	0.0132133
948.818	0.0132728
948.896	0.0133025
948.974	0.0132598
949.052	0.0132959
949.130	0.0131703
949.208	0.0132011
949.286	0.0132915
949.364	0.0133076
949.443	0.0133974
949.521	0.0133164
949.599	0.0134153
949.677	0.0134816
949.755	0.0134119
949.833	0.0135191
949.911	0.0134671
949.989	0.0135112
950.068	0.0134686
950.146	0.0135970
950.224	0.0134753
950.302	0.0135045
950.380	0.0136295
950.458	0.0135074
950.536	0.0135857
950.614	0.0134949
950.693	0.0135358
950.771	0.0135599
950.849	0.0134908
950.927	0.0135468
951.005	0.0134456
951.083	0.0135126
951.161	0.0135382
951.239	0.0135442
951.318	0.0134837
951.396	0.0133677
951.474	0.0133466
951.552	0.0135462
951.630	0.0134999
951.708	0.0134283
951.786	0.0134526
951.864	0.0133871
951.943	0.0135542
952.021	0.0134007
952.099	0.0133400
952.177	0.0135365
952.255	0.0132186
952.333	0.0133066
952.411	0.0134262
952.489	0.0132676
952.568	0.0133824
952.646	0.0132407
952.724	0.0134543
952.802	0.0133083
952.880	0.0134588
952.958	0.0134760
953.036	0.0132427
953.114	0.0133004
953.193	0.0133881
953.271	0.0133794
953.349	0.0134732
953.427	0.0135160
953.505	0.0133878
953.583	0.0135258
953.661	0.0135266
953.739	0.0134612
953.818	0.0135593
953.896	0.0135951
953.974	0.0134102
954.052	0.0134235
954.130	0.0135232
954.208	0.0134221
954.286	0.0134235
954.364	0.0134200
954.443	0.0135695
954.521	0.0134423
954.599	0.0134083
954.677	0.0133899
954.755	0.0133618
954.833	0.0134341
954.911	0.0133528
954.989	0.0133829
955.068	0.0134517
955.146	0.0133884
955.224	0.0133966
955.302	0.0133681
955.380	0.0133376
955.458	0.0131262
955.536	0.0132629
955.614	0.0132124
955.693	0.0130930
955.771	0.0132285
955.849	0.0133187
955.927	0.0132961
956.005	0.0133047
956.083	0.0131189
956.161	0.0132355
956.239	0.0132816
956.318	0.0133928
956.396	0.0133308
956.474	0.0134136
956.552	0.0134389
956.630	0.0133303
956.708	0.0134450
956.786	0.0135043
956.864	0.0134357
956.943	0.0135641
957.021	0.0134269
957.099	0.0135354
957.177	0.0136254
957.255	0.0135403
957.333	0.0135041
957.411	0.0135219
957.489	0.0134183
957.568	0.0135723
957.646	0.0133425
957.724	0.0133796
957.802	0.0134047
957.880	0.0134293
957.958	0.0134895
958.036	0.0132943
958.114	0.0133718
958.193	0.0133429
958.271	0.0134591
958.349	0.0133167
958.427	0.0133537
958.505	0.0133456
958.583	0.0134334
958.661	0.0134068
958.739	0.0133974
958.818	0.0133707
958.896	0.0134367
958.974	0.0133596
959.052	0.0136193
959.130	0.0136302
959.208	0.0135461
959.286	0.0135255
959.364	0.0135855
959.443	0.0136139
959.521	0.0134262
959.599	0.0135805
959.677	0.0135195
959.755	0.0134740
959.833	0.0135381
959.911	0.0136362
