05/14/2022	16:39:17	Ver.	4.1	UNKNOWN
Optical Delay	639.989416	Delta X		0.078125	Sweeps	1	Scan Rate	0/0
Coordinates	Axis 1	NaN	Axis 2	NaN	Axis 3	NaN	Axis 4	NaN	Axis 5	NaN	Axis 6	0.000000
TX Power	0.000000	RX Power	0.000000

639.989	0.0135043
640.068	0.0135324
640.146	0.0134755
640.224	0.0134006
640.302	0.0133952
640.380	0.0135352
640.458	0.0134673
640.536	0.0134991
640.614	0.0135375
640.693	0.0133920
640.771	0.0134740
640.849	0.0134619
640.927	0.0134991
641.005	0.0134444
641.083	0.0135085
641.161	0.0135217
641.239	0.0134697
641.318	0.0134826
641.396	0.0135767
641.474	0.0135056
641.552	0.0133745
641.630	0.0134641
641.708	0.0135422
641.786	0.0135221
641.864	0.0135703
641.943	0.0135693
642.021	0.0135284
642.099	0.0135993
642.177	0.0136732
642.255	0.0136313
642.333	0.0134972
642.411	0.0135889
642.489	0.0135841
642.568	0.0135576
642.646	0.0135155
642.724	0.0136797
642.802	0.0136314
642.880	0.0135320
642.958	0.0136592
643.036	0.0135326
643.114	0.0136349
643.193	0.0136922
643.271	0.0136021
643.349	0.0136195
643.427	0.0136023
643.505	0.0136317
643.583	0.0135253
643.661	0.0134073
643.739	0.0137138
643.818	0.0135915
643.896	0.0136884
643.974	0.0137108
644.052	0.0134974
644.130	0.0136348
644.208	0.0135520
644.286	0.0137180
644.364	0.0136192
644.443	0.0135161
644.521	0.0135287
644.599	0.0134760
644.677	0.0135226
644.755	0.0135712
644.833	0.0137495
644.911	0.0136041
644.989	0.0135279
645.068	0.0135600
645.146	0.0135304
645.224	0.0135464
645.302	0.0135758
645.380	0.0136957
645.458	0.0134178
645.536	0.0133546
645.614	0.0136002
645.693	0.0136219
645.771	0.0135950
645.849	0.0136247
645.927	0.0135680
646.005	0.0135052
646.083	0.0135690
646.161	0.0135778
646.239	0.0136346
646.318	0.0136021
646.396	0.0134663
646.474	0.0135878
646.552	0.0136139
646.630	0.0136211
646.708	0.0135868
646.786	0.0136180
646.864	0.0135735
646.943	0.0135123
647.021	0.0136821
647.099	0.0134750
647.177	0.0135030
647.255	0.0135643
647.333	0.0135342
647.411	0.0133999
647.489	0.0134379
647.568	0.0135905
647.646	0.0135503
647.724	0.0134800
647.802	0.0136282
647.880	0.0136038
647.958	0.0135935
648.036	0.0135264
648.114	0.0136337
648.193	0.0136053
648.271	0.0135567
648.349	0.0136670
648.427	0.0136431
648.505	0.0135095
648.583	0.0134964
648.661	0.0136131
648.739	0.0135635
648.818	0.0136337
648.896	0.0135574
648.974	0.0136282
649.052	0.0135829
649.130	0.0135184
649.208	0.0134792
649.286	0.0136174
649.364	0.0134010
649.443	0.0133889
649.521	0.0136248
649.599	0.0136607
649.677	0.0134965
649.755	0.0133811
649.833	0.0136337
649.911	0.0135109
649.989	0.0135730
650.068	0.0136676
650.146	0.0135350
650.224	0.0135551
650.302	0.0135456
650.380	0.0136517
650.458	0.0136441
650.536	0.0135059
650.614	0.0134888
650.693	0.0136207
650.771	0.0135882
650.849	0.0136084
650.927	0.0135044
651.005	0.0135438
651.083	0.0136686
651.161	0.0136013
651.239	0.0136106
651.318	0.0136056
651.396	0.0136322
651.474	0.0134763
651.552	0.0135452
651.630	0.0136313
651.708	0.0137749
651.786	0.0135661
651.864	0.0135345
651.943	0.0136057
652.021	0.0136561
652.099	0.0134476
652.177	0.0135162
652.255	0.0135632
652.333	0.0135140
652.411	0.0136200
652.489	0.0135787
652.568	0.0136225
652.646	0.0136980
652.724	0.0137138
652.802	0.0134896
652.880	0.0134671
652.958	0.0136387
653.036	0.0135764
653.114	0.0135738
653.193	0.0135765
653.271	0.0135574
653.349	0.0136640
653.427	0.0136536
653.505	0.0135377
653.583	0.0135332
653.661	0.0135015
653.739	0.0135333
653.818	0.0134839
653.896	0.0135419
653.974	0.0134187
654.052	0.0135361
654.130	0.0135818
654.208	0.0134785
654.286	0.0134035
654.364	0.0135015
654.443	0.0134907
654.521	0.0136082
654.599	0.0135036
654.677	0.0134387
654.755	0.0135812
654.833	0.0137000
654.911	0.0134500
654.989	0.0136520
655.068	0.0135806
655.146	0.0136363
655.224	0.0136168
655.302	0.0135136
655.380	0.0135424
655.458	0.0136314
655.536	0.0136230
655.614	0.0135662
655.693	0.0136556
655.771	0.0135514
655.849	0.0135166
655.927	0.0135449
656.005	0.0135461
656.083	0.0135845
656.161	0.0136022
656.239	0.0134462
656.318	0.0134846
656.396	0.0136270
656.474	0.0134717
656.552	0.0135613
656.630	0.0135257
656.708	0.0135337
656.786	0.0134515
656.864	0.0135544
656.943	0.0135966
657.021	0.0134399
657.099	0.0134544
657.177	0.0135351
657.255	0.0135371
657.333	0.0134425
657.411	0.0134961
657.489	0.0135147
657.568	0.0136222
657.646	0.0136165
657.724	0.0134900
657.802	0.0134456
657.880	0.0135252
657.958	0.0135550
658.036	0.0134067
658.114	0.0135133
658.193	0.0135823
658.271	0.0136693
658.349	0.0136449
658.427	0.0134538
658.505	0.0135049
658.583	0.0136263
658.661	0.0135670
658.739	0.0135165
658.818	0.0133943
658.896	0.0135760
658.974	0.0135268
659.052	0.0135223
659.130	0.0135578
659.208	0.0134021
659.286	0.0135754
659.364	0.0136575
659.443	0.0134851
659.521	0.0134916
659.599	0.0135561
659.677	0.0135346
659.755	0.0136000
659.833	0.0135555
659.911	0.0135020
659.989	0.0134524
660.068	0.0134669
660.146	0.0133271
660.224	0.0133917
660.302	0.0135339
660.380	0.0134096
660.458	0.0133394
660.536	0.0134271
660.614	0.0133228
660.693	0.0134589
660.771	0.0132927
660.849	0.0134082
660.927	0.0134596
661.005	0.0134644
661.083	0.0133030
661.161	0.0133162
661.239	0.0134243
661.318	0.0133993
661.396	0.0132912
661.474	0.0133201
661.552	0.0134315
661.630	0.0132930
661.708	0.0134182
661.786	0.0133913
661.864	0.0133356
661.943	0.0133865
662.021	0.0135502
662.099	0.0134861
662.177	0.0134161
662.255	0.0133348
662.333	0.0135635
662.411	0.0134198
662.489	0.0135408
662.568	0.0135399
662.646	0.0133852
662.724	0.0134442
662.802	0.0133408
662.880	0.0133897
662.958	0.0135451
663.036	0.0135456
663.114	0.0134825
663.193	0.0133608
663.271	0.0135652
663.349	0.0134982
663.427	0.0134217
663.505	0.0134708
663.583	0.0133910
663.661	0.0133625
663.739	0.0133656
663.818	0.0134831
663.896	0.0134335
663.974	0.0134000
664.052	0.0133862
664.130	0.0134203
664.208	0.0133313
664.286	0.0134306
664.364	0.0134753
664.443	0.0133409
664.521	0.0134518
664.599	0.0134817
664.677	0.0133858
664.755	0.0136373
664.833	0.0136424
664.911	0.0135896
664.989	0.0134373
665.068	0.0134951
665.146	0.0135177
665.224	0.0135526
665.302	0.0135065
665.380	0.0135802
665.458	0.0136184
665.536	0.0136086
665.614	0.0135041
665.693	0.0137454
665.771	0.0135773
665.849	0.0135917
665.927	0.0137617
666.005	0.0134973
666.083	0.0136405
666.161	0.0136560
666.239	0.0136607
666.318	0.0136717
666.396	0.0136742
666.474	0.0135812
666.552	0.0134039
666.630	0.0136744
666.708	0.0135941
666.786	0.0134790
666.864	0.0137643
666.943	0.0134687
667.021	0.0135842
667.099	0.0136873
667.177	0.0135606
667.255	0.0135578
667.333	0.0134618
667.411	0.0135725
667.489	0.0135580
667.568	0.0134163
667.646	0.0135733
667.724	0.0135147
667.802	0.0135070
667.880	0.0134914
667.958	0.0134412
668.036	0.0135153
668.114	0.0135558
668.193	0.0135070
668.271	0.0135968
668.349	0.0133881
668.427	0.0135003
668.505	0.0135347
668.583	0.0136588
668.661	0.0135136
668.739	0.0136685
668.818	0.0135594
668.896	0.0135265
668.974	0.0135925
669.052	0.0136325
669.130	0.0135320
669.208	0.0136553
669.286	0.0135497
669.364	0.0135680
669.443	0.0135047
669.521	0.0136282
669.599	0.0136954
669.677	0.0134738
669.755	0.0135541
669.833	0.0136935
669.911	0.0135612
669.989	0.0135231
670.068	0.0134895
670.146	0.0134638
670.224	0.0134982
670.302	0.0134783
670.380	0.0135480
670.458	0.0136087
670.536	0.0135013
670.614	0.0134323
670.693	0.0135784
670.771	0.0135458
670.849	0.0135824
670.927	0.0136900
671.005	0.0137574
671.083	0.0135804
671.161	0.0136588
671.239	0.0136785
671.318	0.0135740
671.396	0.0135433
671.474	0.0134983
671.552	0.0133744
671.630	0.0136746
671.708	0.0135690
671.786	0.0135799
671.864	0.0135584
671.943	0.0135612
672.021	0.0135349
672.099	0.0134835
672.177	0.0134778
672.255	0.0133736
672.333	0.0135071
672.411	0.0134945
672.489	0.0134435
672.568	0.0133273
672.646	0.0135087
672.724	0.0133535
672.802	0.0134480
672.880	0.0134243
672.958	0.0134570
673.036	0.0133801
673.114	0.0135217
673.193	0.0135133
673.271	0.0136349
673.349	0.0134677
673.427	0.0135451
673.505	0.0137875
673.583	0.0136632
673.661	0.0136677
673.739	0.0137302
673.818	0.0136654
673.896	0.0138224
673.974	0.0139419
674.052	0.0138882
674.130	0.0138052
674.208	0.0138187
674.286	0.0140041
674.364	0.0139861
674.443	0.0140699
674.521	0.0140371
674.599	0.0138599
674.677	0.0139484
674.755	0.0137445
674.833	0.0137469
674.911	0.0136615
674.989	0.0135011
675.068	0.0135712
675.146	0.0134407
675.224	0.0132393
675.302	0.0132833
675.380	0.0132089
675.458	0.0131731
675.536	0.0129618
675.614	0.0130428
675.693	0.0130424
675.771	0.0130455
675.849	0.0130994
675.927	0.0130899
676.005	0.0131404
676.083	0.0130522
676.161	0.0131881
676.239	0.0131996
676.318	0.0133067
676.396	0.0133562
676.474	0.0134943
676.552	0.0136653
676.630	0.0138294
676.708	0.0140090
676.786	0.0142402
676.864	0.0144887
676.943	0.0144691
677.021	0.0145851
677.099	0.0145946
677.177	0.0147311
677.255	0.0147040
677.333	0.0146462
677.411	0.0147742
677.489	0.0146986
677.568	0.0146329
677.646	0.0143313
677.724	0.0142972
677.802	0.0141061
677.880	0.0139086
677.958	0.0137881
678.036	0.0135220
678.114	0.0133885
678.193	0.0130090
678.271	0.0127540
678.349	0.0124013
678.427	0.0122123
678.505	0.0120016
678.583	0.0117270
678.661	0.0116370
678.739	0.0115868
678.818	0.0114608
678.896	0.0115113
678.974	0.0115295
679.052	0.0113922
679.130	0.0115498
679.208	0.0117304
679.286	0.0120480
679.364	0.0121876
679.443	0.0124277
679.521	0.0127380
679.599	0.0131002
679.677	0.0134964
679.755	0.0136543
679.833	0.0141214
679.911	0.0146952
679.989	0.0149516
680.068	0.0151884
680.146	0.0156527
680.224	0.0159610
680.302	0.0162366
680.380	0.0162057
680.458	0.0164160
680.536	0.0164653
680.614	0.0165704
680.693	0.0164082
680.771	0.0162385
680.849	0.0160787
680.927	0.0157378
681.005	0.0155434
681.083	0.0150437
681.161	0.0146965
681.239	0.0142407
681.318	0.0135815
681.396	0.0131846
681.474	0.0126289
681.552	0.0121213
681.630	0.0116650
681.708	0.0112452
681.786	0.0109609
681.864	0.0105489
681.943	0.0101868
682.021	0.00980133
682.099	0.00972710
682.177	0.00966202
682.255	0.00958717
682.333	0.00959198
682.411	0.00972496
682.489	0.0100903
682.568	0.0102924
682.646	0.0105419
682.724	0.0110491
682.802	0.0115477
682.880	0.0120378
682.958	0.0125677
683.036	0.0130048
683.114	0.0136627
683.193	0.0142784
683.271	0.0147897
683.349	0.0152831
683.427	0.0157329
683.505	0.0161744
683.583	0.0166721
683.661	0.0170414
683.739	0.0175677
683.818	0.0178325
683.896	0.0178987
683.974	0.0180477
684.052	0.0181852
684.130	0.0180399
684.208	0.0178699
684.286	0.0177624
684.364	0.0173509
684.443	0.0168975
684.521	0.0165965
684.599	0.0159782
684.677	0.0155049
684.755	0.0148926
684.833	0.0143726
684.911	0.0135626
684.989	0.0128165
685.068	0.0122408
685.146	0.0117318
685.224	0.0109908
685.302	0.0104550
685.380	0.00990662
685.458	0.00971252
685.536	0.00918404
685.614	0.00892097
685.693	0.00886322
685.771	0.00867813
685.849	0.00860626
685.927	0.00871796
686.005	0.00893761
686.083	0.00907684
686.161	0.00957672
686.239	0.00981178
686.318	0.0103815
686.396	0.0109470
686.474	0.0115656
686.552	0.0122196
686.630	0.0127633
686.708	0.0133797
686.786	0.0139288
686.864	0.0146427
686.943	0.0151868
687.021	0.0156028
687.099	0.0162080
687.177	0.0166760
687.255	0.0170514
687.333	0.0173102
687.411	0.0175283
687.489	0.0177022
687.568	0.0177114
687.646	0.0178934
687.724	0.0177555
687.802	0.0177422
687.880	0.0176086
687.958	0.0173759
688.036	0.0171201
688.114	0.0166634
688.193	0.0165142
688.271	0.0161836
688.349	0.0156351
688.427	0.0151856
688.505	0.0148106
688.583	0.0143002
688.661	0.0138146
688.739	0.0132771
688.818	0.0130179
688.896	0.0124542
688.974	0.0120617
689.052	0.0117387
689.130	0.0113034
689.208	0.0110507
689.286	0.0107377
689.364	0.0106454
689.443	0.0107037
689.521	0.0105100
689.599	0.0104449
689.677	0.0105461
689.755	0.0108420
689.833	0.0108150
689.911	0.0109591
689.989	0.0112285
690.068	0.0115924
690.146	0.0116780
690.224	0.0119946
690.302	0.0121920
690.380	0.0124058
690.458	0.0129686
690.536	0.0130970
690.614	0.0131635
690.693	0.0135703
690.771	0.0140302
690.849	0.0142542
690.927	0.0145104
691.005	0.0147863
691.083	0.0151913
691.161	0.0154517
691.239	0.0154665
691.318	0.0154852
691.396	0.0157150
691.474	0.0158238
691.552	0.0157283
691.630	0.0158104
691.708	0.0155764
691.786	0.0155338
691.864	0.0153758
691.943	0.0152307
692.021	0.0149684
692.099	0.0147507
692.177	0.0147780
692.255	0.0144562
692.333	0.0143736
692.411	0.0139199
692.489	0.0136452
692.568	0.0135564
692.646	0.0134238
692.724	0.0133011
692.802	0.0130347
692.880	0.0130173
692.958	0.0129291
693.036	0.0127588
693.114	0.0127885
693.193	0.0126756
693.271	0.0126561
693.349	0.0127222
693.427	0.0126414
693.505	0.0127915
693.583	0.0127830
693.661	0.0128078
693.739	0.0129330
693.818	0.0131638
693.896	0.0131916
693.974	0.0134196
694.052	0.0137056
694.130	0.0136105
694.208	0.0138741
694.286	0.0137913
694.364	0.0139001
694.443	0.0142595
694.521	0.0142659
694.599	0.0142822
694.677	0.0142696
694.755	0.0141003
694.833	0.0140808
694.911	0.0140666
694.989	0.0139388
695.068	0.0137548
695.146	0.0136526
695.224	0.0135645
695.302	0.0134824
695.380	0.0132335
695.458	0.0130412
695.536	0.0131718
695.614	0.0128843
695.693	0.0128408
695.771	0.0126932
695.849	0.0125179
695.927	0.0124249
696.005	0.0124439
696.083	0.0123096
696.161	0.0123158
696.239	0.0121704
696.318	0.0123367
696.396	0.0122902
696.474	0.0123696
696.552	0.0123369
696.630	0.0125972
696.708	0.0124876
696.786	0.0126012
696.864	0.0128347
696.943	0.0129454
697.021	0.0131823
697.099	0.0133118
697.177	0.0136085
697.255	0.0138618
697.333	0.0142181
697.411	0.0145052
697.489	0.0146898
697.568	0.0150077
697.646	0.0151722
697.724	0.0154408
697.802	0.0154008
697.880	0.0154227
697.958	0.0157762
698.036	0.0157617
698.114	0.0157314
698.193	0.0156216
698.271	0.0158445
698.349	0.0156499
698.427	0.0153842
698.505	0.0153522
698.583	0.0151331
698.661	0.0149424
698.739	0.0149293
698.818	0.0145226
698.896	0.0143694
698.974	0.0141681
699.052	0.0139603
699.130	0.0137370
699.208	0.0132764
699.286	0.0129869
699.364	0.0126811
699.443	0.0122366
699.521	0.0118024
699.599	0.0116734
699.677	0.0114209
699.755	0.0110507
699.833	0.0108281
699.911	0.0107820
699.989	0.0106941
700.068	0.0105325
700.146	0.0106641
700.224	0.0106927
700.302	0.0108582
700.380	0.0109601
700.458	0.0110989
700.536	0.0113290
700.614	0.0115287
700.693	0.0120502
700.771	0.0122313
700.849	0.0125733
700.927	0.0129503
701.005	0.0133837
701.083	0.0137516
701.161	0.0141947
701.239	0.0145068
701.318	0.0149429
701.396	0.0153737
701.474	0.0156977
701.552	0.0160181
701.630	0.0161012
701.708	0.0163432
701.786	0.0164587
701.864	0.0164132
701.943	0.0163481
702.021	0.0162059
702.099	0.0161414
702.177	0.0158932
702.255	0.0157653
702.333	0.0154151
702.411	0.0150641
702.489	0.0147703
702.568	0.0144919
702.646	0.0143536
702.724	0.0138605
702.802	0.0136853
702.880	0.0133946
702.958	0.0131655
703.036	0.0129265
703.114	0.0126601
703.193	0.0123235
703.271	0.0122281
703.349	0.0121330
703.427	0.0119487
703.505	0.0118895
703.583	0.0117403
703.661	0.0116745
703.739	0.0117322
703.818	0.0118069
703.896	0.0117496
703.974	0.0119282
704.052	0.0120731
704.130	0.0124026
704.208	0.0124613
704.286	0.0126187
704.364	0.0129658
704.443	0.0131567
704.521	0.0133488
704.599	0.0137144
704.677	0.0138969
704.755	0.0139517
704.833	0.0140822
704.911	0.0143532
704.989	0.0144624
705.068	0.0144579
705.146	0.0145058
705.224	0.0146697
705.302	0.0147447
705.380	0.0146975
705.458	0.0147517
705.536	0.0146682
705.614	0.0143697
705.693	0.0143015
705.771	0.0143633
705.849	0.0141602
705.927	0.0141709
706.005	0.0140594
706.083	0.0138240
706.161	0.0137868
706.239	0.0136003
706.318	0.0137447
706.396	0.0137138
706.474	0.0135651
706.552	0.0136613
706.630	0.0137420
706.708	0.0136186
706.786	0.0139314
706.864	0.0139077
706.943	0.0139289
707.021	0.0138663
707.099	0.0137872
707.177	0.0140150
707.255	0.0140138
707.333	0.0138861
707.411	0.0138094
707.489	0.0136094
707.568	0.0133050
707.646	0.0133018
707.724	0.0131950
707.802	0.0128543
707.880	0.0126998
707.958	0.0123911
708.036	0.0123673
708.114	0.0122644
708.193	0.0121778
708.271	0.0121343
708.349	0.0119585
708.427	0.0121177
708.505	0.0121908
708.583	0.0121738
708.661	0.0122824
708.739	0.0123250
708.818	0.0126463
708.896	0.0127151
708.974	0.0129147
709.052	0.0131818
709.130	0.0134556
709.208	0.0137000
709.286	0.0139859
709.364	0.0141354
709.443	0.0144180
709.521	0.0145070
709.599	0.0148679
709.677	0.0150326
709.755	0.0151109
709.833	0.0153520
709.911	0.0153335
709.989	0.0152418
710.068	0.0151665
710.146	0.0151968
710.224	0.0150218
710.302	0.0149731
710.380	0.0148376
710.458	0.0145615
710.536	0.0144055
710.614	0.0143477
710.693	0.0143600
710.771	0.0140635
710.849	0.0139024
710.927	0.0138162
711.005	0.0137239
711.083	0.0137090
711.161	0.0136681
711.239	0.0134351
711.318	0.0133087
711.396	0.0132204
711.474	0.0133399
711.552	0.0131822
711.630	0.0130749
711.708	0.0128133
711.786	0.0127962
711.864	0.0128013
711.943	0.0129979
712.021	0.0131110
712.099	0.0130482
712.177	0.0130862
712.255	0.0131202
712.333	0.0132911
712.411	0.0136113
712.489	0.0135612
712.568	0.0136862
712.646	0.0136464
712.724	0.0137810
712.802	0.0137920
712.880	0.0138361
712.958	0.0138030
713.036	0.0139035
713.114	0.0136329
713.193	0.0136262
713.271	0.0136848
713.349	0.0134869
713.427	0.0133279
713.505	0.0133173
713.583	0.0132483
713.661	0.0130131
713.739	0.0130634
713.818	0.0129038
713.896	0.0128142
713.974	0.0127998
714.052	0.0127338
714.130	0.0127859
714.208	0.0127717
714.286	0.0127984
714.364	0.0127712
714.443	0.0129592
714.521	0.0131081
714.599	0.0131500
714.677	0.0131087
714.755	0.0133218
714.833	0.0135495
714.911	0.0134870
714.989	0.0135735
715.068	0.0138473
715.146	0.0139455
715.224	0.0140632
715.302	0.0139097
715.380	0.0142329
715.458	0.0141129
715.536	0.0141280
715.614	0.0142873
715.693	0.0142842
715.771	0.0143693
715.849	0.0144051
715.927	0.0143954
716.005	0.0143194
716.083	0.0144376
716.161	0.0143893
716.239	0.0143877
716.318	0.0144732
716.396	0.0144917
716.474	0.0145585
716.552	0.0144531
716.630	0.0144781
716.708	0.0145891
716.786	0.0145918
716.864	0.0146851
716.943	0.0146501
717.021	0.0145280
717.099	0.0145165
717.177	0.0143513
717.255	0.0143913
717.333	0.0142037
717.411	0.0141309
717.489	0.0139281
717.568	0.0138963
717.646	0.0136954
717.724	0.0135280
717.802	0.0133997
717.880	0.0132691
717.958	0.0131472
718.036	0.0130438
718.114	0.0129276
718.193	0.0127960
718.271	0.0126893
718.349	0.0124920
718.427	0.0125617
718.505	0.0124452
718.583	0.0122250
718.661	0.0120585
718.739	0.0118591
718.818	0.0116646
718.896	0.0115684
718.974	0.0115005
719.052	0.0112232
719.130	0.0110171
719.208	0.0110014
719.286	0.0110095
719.364	0.0109354
719.443	0.0110258
719.521	0.0111273
719.599	0.0112473
719.677	0.0113297
719.755	0.0115176
719.833	0.0118410
719.911	0.0119336
719.989	0.0122626
720.068	0.0127258
720.146	0.0129536
720.224	0.0133733
720.302	0.0137191
720.380	0.0141589
720.458	0.0145183
720.536	0.0148473
720.614	0.0151818
720.693	0.0156498
720.771	0.0160411
720.849	0.0161475
720.927	0.0165033
721.005	0.0167499
721.083	0.0168056
721.161	0.0168343
721.239	0.0168195
721.318	0.0168468
721.396	0.0166039
721.474	0.0163607
721.552	0.0161988
721.630	0.0159756
721.708	0.0156937
721.786	0.0152585
721.864	0.0148219
721.943	0.0146171
722.021	0.0142665
722.099	0.0140874
722.177	0.0136619
722.255	0.0134817
722.333	0.0134229
722.411	0.0132881
722.489	0.0128988
722.568	0.0127779
722.646	0.0128474
722.724	0.0127794
722.802	0.0127952
722.880	0.0127275
722.958	0.0126045
723.036	0.0126253
723.114	0.0126420
723.193	0.0124335
723.271	0.0125762
723.349	0.0125346
723.427	0.0123624
723.505	0.0121969
723.583	0.0122230
723.661	0.0121246
723.739	0.0121332
723.818	0.0120147
723.896	0.0121086
723.974	0.0121276
724.052	0.0120193
724.130	0.0119439
724.208	0.0120766
724.286	0.0120538
724.364	0.0121465
724.443	0.0122935
724.521	0.0122310
724.599	0.0123725
724.677	0.0126077
724.755	0.0126678
724.833	0.0128260
724.911	0.0127706
724.989	0.0130756
725.068	0.0132787
725.146	0.0133796
725.224	0.0134734
725.302	0.0135659
725.380	0.0136124
725.458	0.0136063
725.536	0.0137690
725.614	0.0138789
725.693	0.0138908
725.771	0.0139842
725.849	0.0140727
725.927	0.0142455
726.005	0.0143070
726.083	0.0143524
726.161	0.0144582
726.239	0.0147045
726.318	0.0146756
726.396	0.0148640
726.474	0.0150021
726.552	0.0148638
726.630	0.0149039
726.708	0.0148019
726.786	0.0147739
726.864	0.0146637
726.943	0.0146431
727.021	0.0143657
727.099	0.0142655
727.177	0.0142567
727.255	0.0139744
727.333	0.0137611
727.411	0.0138097
727.489	0.0138082
727.568	0.0135867
727.646	0.0135870
727.724	0.0136507
727.802	0.0136781
727.880	0.0134361
727.958	0.0135351
728.036	0.0137079
728.114	0.0134934
728.193	0.0135643
728.271	0.0136250
728.349	0.0135794
728.427	0.0135108
728.505	0.0138546
728.583	0.0137405
728.661	0.0135743
728.739	0.0137099
728.818	0.0136443
728.896	0.0136377
728.974	0.0136567
729.052	0.0134759
729.130	0.0133484
729.208	0.0133671
729.286	0.0133469
729.364	0.0131898
729.443	0.0129903
729.521	0.0129808
729.599	0.0127583
729.677	0.0128582
729.755	0.0126688
729.833	0.0127013
729.911	0.0126699
729.989	0.0127603
730.068	0.0128755
730.146	0.0128839
730.224	0.0129252
730.302	0.0129218
730.380	0.0128664
730.458	0.0130139
730.536	0.0129350
730.614	0.0128201
730.693	0.0130080
730.771	0.0129961
730.849	0.0128520
730.927	0.0128658
731.005	0.0127834
731.083	0.0128017
731.161	0.0129509
731.239	0.0129588
731.318	0.0130259
731.396	0.0131390
731.474	0.0132785
731.552	0.0132732
731.630	0.0134273
731.708	0.0134416
731.786	0.0136650
731.864	0.0137558
731.943	0.0140286
732.021	0.0139660
732.099	0.0143769
732.177	0.0143209
732.255	0.0145278
732.333	0.0146165
732.411	0.0147771
732.489	0.0148303
732.568	0.0148514
732.646	0.0148299
732.724	0.0148624
732.802	0.0147867
732.880	0.0148128
732.958	0.0146517
733.036	0.0145968
733.114	0.0146315
733.193	0.0143909
733.271	0.0143481
733.349	0.0142287
733.427	0.0141303
733.505	0.0140800
733.583	0.0141301
733.661	0.0138388
733.739	0.0138674
733.818	0.0138396
733.896	0.0139056
733.974	0.0139925
734.052	0.0138686
734.130	0.0139882
734.208	0.0140328
734.286	0.0138751
734.364	0.0138690
734.443	0.0136767
734.521	0.0137431
734.599	0.0136637
734.677	0.0136234
734.755	0.0133925
734.833	0.0131926
734.911	0.0131053
734.989	0.0130212
735.068	0.0127316
735.146	0.0127753
735.224	0.0126846
735.302	0.0126216
735.380	0.0125327
735.458	0.0123949
735.536	0.0124712
735.614	0.0123130
735.693	0.0123771
735.771	0.0125125
735.849	0.0124653
735.927	0.0125706
736.005	0.0126674
736.083	0.0127724
736.161	0.0129624
736.239	0.0130557
736.318	0.0130710
736.396	0.0133083
736.474	0.0133256
736.552	0.0133941
736.630	0.0134875
736.708	0.0135700
736.786	0.0136761
736.864	0.0137463
736.943	0.0137780
737.021	0.0138505
737.099	0.0139257
737.177	0.0138638
737.255	0.0139543
737.333	0.0139754
737.411	0.0140402
737.489	0.0141349
737.568	0.0141227
737.646	0.0141225
737.724	0.0141678
737.802	0.0141582
737.880	0.0141309
737.958	0.0142190
738.036	0.0143599
738.114	0.0142561
738.193	0.0143456
738.271	0.0141989
738.349	0.0141950
738.427	0.0141538
738.505	0.0141998
738.583	0.0140182
738.661	0.0139651
738.739	0.0138150
738.818	0.0136987
738.896	0.0137482
738.974	0.0135029
739.052	0.0133746
739.130	0.0132568
739.208	0.0133389
739.286	0.0132574
739.364	0.0131380
739.443	0.0132052
739.521	0.0132768
739.599	0.0130283
739.677	0.0130261
739.755	0.0129954
739.833	0.0131478
739.911	0.0130565
739.989	0.0131287
740.068	0.0131797
740.146	0.0133294
740.224	0.0132176
740.302	0.0132640
740.380	0.0132629
740.458	0.0133074
740.536	0.0133749
740.614	0.0134849
740.693	0.0133798
740.771	0.0130655
740.849	0.0132999
740.927	0.0132256
741.005	0.0130148
741.083	0.0130650
741.161	0.0130839
741.239	0.0129878
741.318	0.0129816
741.396	0.0130112
741.474	0.0131785
741.552	0.0131339
741.630	0.0132701
741.708	0.0134060
741.786	0.0133490
741.864	0.0135029
741.943	0.0135308
742.021	0.0135601
742.099	0.0135784
742.177	0.0138210
742.255	0.0135977
742.333	0.0136135
742.411	0.0135464
742.489	0.0136313
742.568	0.0137066
742.646	0.0136327
742.724	0.0136600
742.802	0.0136089
742.880	0.0138281
742.958	0.0138262
743.036	0.0138740
743.114	0.0136987
743.193	0.0138993
743.271	0.0140161
743.349	0.0140432
743.427	0.0140874
743.505	0.0140986
743.583	0.0139972
743.661	0.0141882
743.739	0.0140982
743.818	0.0140224
743.896	0.0141600
743.974	0.0141611
744.052	0.0140590
744.130	0.0140514
744.208	0.0139990
744.286	0.0140971
744.364	0.0139095
744.443	0.0139731
744.521	0.0139507
744.599	0.0135935
744.677	0.0137256
744.755	0.0136049
744.833	0.0135217
744.911	0.0135054
744.989	0.0134363
745.068	0.0134669
745.146	0.0131791
745.224	0.0132324
745.302	0.0133826
745.380	0.0132970
745.458	0.0133308
745.536	0.0131046
745.614	0.0131566
745.693	0.0133169
745.771	0.0130654
745.849	0.0130992
745.927	0.0131777
746.005	0.0131501
746.083	0.0131643
746.161	0.0130737
746.239	0.0129642
746.318	0.0131150
746.396	0.0131723
746.474	0.0129300
746.552	0.0130114
746.630	0.0131836
746.708	0.0130905
746.786	0.0130856
746.864	0.0131477
746.943	0.0131731
747.021	0.0133534
747.099	0.0133076
747.177	0.0134081
747.255	0.0133120
747.333	0.0134736
747.411	0.0134841
747.489	0.0133799
747.568	0.0133583
747.646	0.0134613
747.724	0.0134563
747.802	0.0135419
747.880	0.0135508
747.958	0.0136716
748.036	0.0134932
748.114	0.0136369
748.193	0.0137105
748.271	0.0136964
748.349	0.0136100
748.427	0.0136075
748.505	0.0138135
748.583	0.0138227
748.661	0.0137510
748.739	0.0138194
748.818	0.0138626
748.896	0.0138314
748.974	0.0137782
749.052	0.0138496
749.130	0.0139050
749.208	0.0139603
749.286	0.0140244
749.364	0.0140194
749.443	0.0138005
749.521	0.0138690
749.599	0.0139279
749.677	0.0139217
749.755	0.0138400
749.833	0.0137017
749.911	0.0137776
749.989	0.0137350
750.068	0.0136803
750.146	0.0135612
750.224	0.0135555
750.302	0.0134828
750.380	0.0134840
750.458	0.0133041
750.536	0.0134269
750.614	0.0133942
750.693	0.0133057
750.771	0.0133436
750.849	0.0133839
750.927	0.0133015
751.005	0.0133483
751.083	0.0133317
751.161	0.0132609
751.239	0.0132066
751.318	0.0132178
751.396	0.0133755
751.474	0.0132241
751.552	0.0130869
751.630	0.0131186
751.708	0.0131960
751.786	0.0131905
751.864	0.0132273
751.943	0.0131469
752.021	0.0130599
752.099	0.0131061
752.177	0.0131584
752.255	0.0130828
752.333	0.0130376
752.411	0.0129681
752.489	0.0130920
752.568	0.0130097
752.646	0.0131049
752.724	0.0130266
752.802	0.0130334
752.880	0.0129562
752.958	0.0131351
753.036	0.0130753
753.114	0.0132800
753.193	0.0133726
753.271	0.0134863
753.349	0.0136104
753.427	0.0135099
753.505	0.0136339
753.583	0.0137118
753.661	0.0137235
753.739	0.0138494
753.818	0.0139240
753.896	0.0138464
753.974	0.0138668
754.052	0.0139983
754.130	0.0138672
754.208	0.0138577
754.286	0.0137999
754.364	0.0138218
754.443	0.0139288
754.521	0.0139153
754.599	0.0138872
754.677	0.0139902
754.755	0.0139140
754.833	0.0139614
754.911	0.0139529
754.989	0.0140347
755.068	0.0140072
755.146	0.0139632
755.224	0.0140180
755.302	0.0141160
755.380	0.0138774
755.458	0.0138174
755.536	0.0138797
755.614	0.0137795
755.693	0.0136324
755.771	0.0137301
755.849	0.0136646
755.927	0.0135744
756.005	0.0136119
756.083	0.0136385
756.161	0.0135271
756.239	0.0135702
756.318	0.0135587
756.396	0.0134164
756.474	0.0135751
756.552	0.0134366
756.630	0.0134241
756.708	0.0135102
756.786	0.0134218
756.864	0.0134015
756.943	0.0134180
757.021	0.0133234
757.099	0.0132703
757.177	0.0130617
757.255	0.0131150
757.333	0.0131342
757.411	0.0130363
757.489	0.0130278
757.568	0.0129259
757.646	0.0128954
757.724	0.0127616
757.802	0.0129323
757.880	0.0128472
757.958	0.0129290
758.036	0.0128474
758.114	0.0129353
758.193	0.0129900
758.271	0.0130180
758.349	0.0132133
758.427	0.0132505
758.505	0.0131910
758.583	0.0133555
758.661	0.0134061
758.739	0.0134023
758.818	0.0134132
758.896	0.0136363
758.974	0.0136736
759.052	0.0136470
759.130	0.0136402
759.208	0.0137524
759.286	0.0138322
759.364	0.0137073
759.443	0.0137037
759.521	0.0139907
759.599	0.0139410
759.677	0.0139925
759.755	0.0141463
759.833	0.0141908
759.911	0.0141137
759.989	0.0140490
760.068	0.0142643
760.146	0.0142205
760.224	0.0141249
760.302	0.0140993
760.380	0.0139531
760.458	0.0140454
760.536	0.0139696
760.614	0.0138135
760.693	0.0138101
760.771	0.0138526
760.849	0.0137596
760.927	0.0137964
761.005	0.0137560
761.083	0.0135657
761.161	0.0137132
761.239	0.0136561
761.318	0.0135632
761.396	0.0137046
761.474	0.0135639
761.552	0.0134696
761.630	0.0133016
761.708	0.0134899
761.786	0.0134846
761.864	0.0135133
761.943	0.0135901
762.021	0.0133604
762.099	0.0134612
762.177	0.0133349
762.255	0.0133385
762.333	0.0133827
762.411	0.0134144
762.489	0.0132744
762.568	0.0133078
762.646	0.0133066
762.724	0.0132705
762.802	0.0132430
762.880	0.0133115
762.958	0.0133138
763.036	0.0132455
763.114	0.0132867
763.193	0.0134337
763.271	0.0133340
763.349	0.0133978
763.427	0.0134195
763.505	0.0133813
763.583	0.0135643
763.661	0.0136578
763.739	0.0136607
763.818	0.0137138
763.896	0.0137827
763.974	0.0136897
764.052	0.0139066
764.130	0.0139703
764.208	0.0138393
764.286	0.0137967
764.364	0.0139213
764.443	0.0139615
764.521	0.0138005
764.599	0.0137917
764.677	0.0138223
764.755	0.0138396
764.833	0.0137311
764.911	0.0137457
764.989	0.0136437
765.068	0.0134991
765.146	0.0134845
765.224	0.0135281
765.302	0.0133241
765.380	0.0131789
765.458	0.0133614
765.536	0.0134471
765.614	0.0133816
765.693	0.0134256
765.771	0.0134222
765.849	0.0135445
765.927	0.0135541
766.005	0.0135842
766.083	0.0135756
766.161	0.0137659
766.239	0.0136591
766.318	0.0137680
766.396	0.0136426
766.474	0.0137030
766.552	0.0136043
766.630	0.0135688
766.708	0.0137227
766.786	0.0137264
766.864	0.0135862
766.943	0.0137277
767.021	0.0137218
767.099	0.0137341
767.177	0.0138040
767.255	0.0136940
767.333	0.0137429
767.411	0.0140044
767.489	0.0139843
767.568	0.0139168
767.646	0.0138197
767.724	0.0139878
767.802	0.0140620
767.880	0.0139018
767.958	0.0138733
768.036	0.0140017
768.114	0.0139812
768.193	0.0140382
768.271	0.0139735
768.349	0.0139223
768.427	0.0138789
768.505	0.0140141
768.583	0.0139545
768.661	0.0139668
768.739	0.0139723
768.818	0.0139546
768.896	0.0139191
768.974	0.0139099
769.052	0.0139262
769.130	0.0136488
769.208	0.0137729
769.286	0.0136263
769.364	0.0136349
769.443	0.0136274
769.521	0.0136285
769.599	0.0134225
769.677	0.0134187
769.755	0.0133539
769.833	0.0133357
769.911	0.0133439
769.989	0.0133358
770.068	0.0132904
770.146	0.0134000
770.224	0.0132272
770.302	0.0134631
770.380	0.0134661
770.458	0.0134329
770.536	0.0132594
770.614	0.0133828
770.693	0.0132458
770.771	0.0132747
770.849	0.0131416
770.927	0.0131739
771.005	0.0130917
771.083	0.0132797
771.161	0.0132000
771.239	0.0132471
771.318	0.0131466
771.396	0.0132834
771.474	0.0132006
771.552	0.0133259
771.630	0.0132552
771.708	0.0134320
771.786	0.0136097
771.864	0.0134469
771.943	0.0135542
772.021	0.0135946
772.099	0.0136113
772.177	0.0134702
772.255	0.0136559
772.333	0.0137512
772.411	0.0137206
772.489	0.0136339
772.568	0.0138498
772.646	0.0137812
772.724	0.0137667
772.802	0.0137829
772.880	0.0138403
772.958	0.0138085
773.036	0.0137402
773.114	0.0137138
773.193	0.0138270
773.271	0.0137737
773.349	0.0137413
773.427	0.0138313
773.505	0.0137001
773.583	0.0135423
773.661	0.0136371
773.739	0.0137012
773.818	0.0136548
773.896	0.0136344
773.974	0.0135178
774.052	0.0134617
774.130	0.0133553
774.208	0.0134706
774.286	0.0133616
774.364	0.0133937
774.443	0.0133712
774.521	0.0133723
774.599	0.0132614
774.677	0.0133564
774.755	0.0133328
774.833	0.0131989
774.911	0.0132614
774.989	0.0131692
775.068	0.0131250
775.146	0.0131416
775.224	0.0132774
775.302	0.0131320
775.380	0.0131096
775.458	0.0131447
775.536	0.0130160
775.614	0.0132847
775.693	0.0131809
775.771	0.0131403
775.849	0.0132140
775.927	0.0130630
776.005	0.0134503
776.083	0.0134346
776.161	0.0134396
776.239	0.0134187
776.318	0.0135644
776.396	0.0137863
776.474	0.0137079
776.552	0.0138292
776.630	0.0139476
776.708	0.0139592
776.786	0.0140385
776.864	0.0141109
776.943	0.0141705
777.021	0.0142268
777.099	0.0142137
777.177	0.0143365
777.255	0.0143038
777.333	0.0143534
777.411	0.0142948
777.489	0.0142478
777.568	0.0142213
777.646	0.0140783
777.724	0.0140874
777.802	0.0140387
777.880	0.0139690
777.958	0.0136658
778.036	0.0137985
778.114	0.0137374
778.193	0.0136423
778.271	0.0134737
778.349	0.0132719
778.427	0.0134011
778.505	0.0131042
778.583	0.0130597
778.661	0.0129380
778.739	0.0128048
778.818	0.0126158
778.896	0.0128931
778.974	0.0127877
779.052	0.0126386
779.130	0.0125616
779.208	0.0126724
779.286	0.0127505
779.364	0.0127470
779.443	0.0127431
779.521	0.0128642
779.599	0.0128206
779.677	0.0130296
779.755	0.0131808
779.833	0.0132456
779.911	0.0133546
779.989	0.0133727
780.068	0.0135777
780.146	0.0136253
780.224	0.0138564
780.302	0.0138096
780.380	0.0138705
780.458	0.0138908
780.536	0.0141115
780.614	0.0140652
780.693	0.0140772
780.771	0.0142059
780.849	0.0140855
780.927	0.0141976
781.005	0.0141776
781.083	0.0141926
781.161	0.0142214
781.239	0.0142052
781.318	0.0142583
781.396	0.0141002
781.474	0.0140058
781.552	0.0139989
781.630	0.0138733
781.708	0.0137762
781.786	0.0137897
781.864	0.0136526
781.943	0.0135717
782.021	0.0134924
782.099	0.0133215
782.177	0.0134286
782.255	0.0132990
782.333	0.0131472
782.411	0.0130571
782.489	0.0131780
782.568	0.0130534
782.646	0.0130473
782.724	0.0130700
782.802	0.0129802
782.880	0.0129173
782.958	0.0131104
783.036	0.0130208
783.114	0.0131403
783.193	0.0131290
783.271	0.0131727
783.349	0.0131949
783.427	0.0131872
783.505	0.0134527
783.583	0.0135363
783.661	0.0135506
783.739	0.0133926
783.818	0.0136457
783.896	0.0137128
783.974	0.0138577
784.052	0.0138578
784.130	0.0138441
784.208	0.0139661
784.286	0.0140932
784.364	0.0141250
784.443	0.0141452
784.521	0.0139575
784.599	0.0141738
784.677	0.0141357
784.755	0.0139743
784.833	0.0141899
784.911	0.0142206
784.989	0.0141538
785.068	0.0141303
785.146	0.0139163
785.224	0.0139578
785.302	0.0139635
785.380	0.0138531
785.458	0.0137855
785.536	0.0136754
785.614	0.0136581
785.693	0.0137914
785.771	0.0137725
785.849	0.0136016
785.927	0.0135677
786.005	0.0134427
786.083	0.0135493
786.161	0.0135612
786.239	0.0134473
786.318	0.0134097
786.396	0.0134350
786.474	0.0135528
786.552	0.0135484
786.630	0.0134726
786.708	0.0136102
786.786	0.0135081
786.864	0.0134589
786.943	0.0135036
787.021	0.0135593
787.099	0.0134512
787.177	0.0134818
787.255	0.0133994
787.333	0.0134010
787.411	0.0133034
787.489	0.0134953
787.568	0.0134892
787.646	0.0134486
787.724	0.0131614
787.802	0.0134403
787.880	0.0134247
787.958	0.0134010
788.036	0.0135480
788.114	0.0135695
788.193	0.0136886
788.271	0.0137118
788.349	0.0137090
788.427	0.0137652
788.505	0.0138881
788.583	0.0139308
788.661	0.0139568
788.739	0.0139542
788.818	0.0140765
788.896	0.0139576
788.974	0.0140573
789.052	0.0140456
789.130	0.0140234
789.208	0.0139556
789.286	0.0139919
789.364	0.0140537
789.443	0.0140252
789.521	0.0138966
789.599	0.0137385
789.677	0.0137569
789.755	0.0137096
789.833	0.0137699
789.911	0.0138908
789.989	0.0137644
790.068	0.0137437
790.146	0.0138486
790.224	0.0138317
790.302	0.0137334
790.380	0.0137411
790.458	0.0138368
790.536	0.0138114
790.614	0.0138609
790.693	0.0136741
790.771	0.0138467
790.849	0.0138611
790.927	0.0136893
791.005	0.0136475
791.083	0.0136555
791.161	0.0136571
791.239	0.0137148
791.318	0.0135664
791.396	0.0134965
791.474	0.0133213
791.552	0.0134568
791.630	0.0133736
791.708	0.0133643
791.786	0.0134702
791.864	0.0133504
791.943	0.0131734
792.021	0.0132224
792.099	0.0130846
792.177	0.0130582
792.255	0.0132040
792.333	0.0130841
792.411	0.0131748
792.489	0.0130215
792.568	0.0130730
792.646	0.0131231
792.724	0.0131433
792.802	0.0133749
792.880	0.0132594
792.958	0.0132026
793.036	0.0133368
793.114	0.0134062
793.193	0.0133635
793.271	0.0135335
793.349	0.0135290
793.427	0.0136182
793.505	0.0135413
793.583	0.0134820
793.661	0.0136131
793.739	0.0136698
793.818	0.0135235
793.896	0.0135432
793.974	0.0136272
794.052	0.0136217
794.130	0.0135557
794.208	0.0136666
794.286	0.0138177
794.364	0.0137575
794.443	0.0137981
794.521	0.0138024
794.599	0.0138830
794.677	0.0138520
794.755	0.0138541
794.833	0.0139625
794.911	0.0139590
794.989	0.0140239
795.068	0.0138660
795.146	0.0139899
795.224	0.0139626
795.302	0.0137956
795.380	0.0138380
795.458	0.0137653
795.536	0.0136559
795.614	0.0135561
795.693	0.0137189
795.771	0.0135674
795.849	0.0133150
795.927	0.0133490
796.005	0.0133583
796.083	0.0133158
796.161	0.0131181
796.239	0.0129007
796.318	0.0130749
796.396	0.0131636
796.474	0.0130336
796.552	0.0128310
796.630	0.0129136
796.708	0.0129723
796.786	0.0130211
796.864	0.0131582
796.943	0.0132005
797.021	0.0131652
797.099	0.0132069
797.177	0.0134106
797.255	0.0134322
797.333	0.0132971
797.411	0.0134283
797.489	0.0133518
797.568	0.0135057
797.646	0.0135091
797.724	0.0136085
797.802	0.0135941
797.880	0.0136190
797.958	0.0135553
798.036	0.0137563
798.114	0.0136877
798.193	0.0136240
798.271	0.0137784
798.349	0.0137382
798.427	0.0135875
798.505	0.0135299
798.583	0.0137114
798.661	0.0136981
798.739	0.0135590
798.818	0.0136485
798.896	0.0136714
798.974	0.0137341
799.052	0.0138251
799.130	0.0137115
799.208	0.0137265
799.286	0.0137761
799.364	0.0138126
799.443	0.0136432
799.521	0.0138241
799.599	0.0137695
799.677	0.0136449
799.755	0.0136340
799.833	0.0134095
799.911	0.0135709
799.989	0.0135540
800.068	0.0135301
800.146	0.0133401
800.224	0.0134168
800.302	0.0133282
800.380	0.0133772
800.458	0.0132993
800.536	0.0132203
800.614	0.0134027
800.693	0.0132820
800.771	0.0132494
800.849	0.0134624
800.927	0.0133501
801.005	0.0134268
801.083	0.0134648
801.161	0.0134373
801.239	0.0135733
801.318	0.0136134
801.396	0.0135935
801.474	0.0135970
801.552	0.0135529
801.630	0.0139735
801.708	0.0139028
801.786	0.0137170
801.864	0.0139111
801.943	0.0138569
802.021	0.0137711
802.099	0.0137978
802.177	0.0139074
802.255	0.0138538
802.333	0.0137489
802.411	0.0136974
802.489	0.0136487
802.568	0.0137424
802.646	0.0137010
802.724	0.0136030
802.802	0.0136438
802.880	0.0135604
802.958	0.0134788
803.036	0.0133730
803.114	0.0134242
803.193	0.0134665
803.271	0.0134267
803.349	0.0134152
803.427	0.0134582
803.505	0.0134827
803.583	0.0135136
803.661	0.0135430
803.739	0.0134415
803.818	0.0133548
803.896	0.0135805
803.974	0.0136405
804.052	0.0135715
804.130	0.0137152
804.208	0.0137443
804.286	0.0138138
804.364	0.0137703
804.443	0.0137115
804.521	0.0136507
804.599	0.0136299
804.677	0.0136128
804.755	0.0136813
804.833	0.0136569
804.911	0.0135098
804.989	0.0135960
805.068	0.0134636
805.146	0.0134215
805.224	0.0133508
805.302	0.0132623
805.380	0.0133931
805.458	0.0132222
805.536	0.0132812
805.614	0.0133733
805.693	0.0134048
805.771	0.0133536
805.849	0.0133776
805.927	0.0133521
806.005	0.0134966
806.083	0.0134383
806.161	0.0135376
806.239	0.0136316
806.318	0.0137465
806.396	0.0135987
806.474	0.0137251
806.552	0.0137108
806.630	0.0137306
806.708	0.0137824
806.786	0.0137727
806.864	0.0138493
806.943	0.0140429
807.021	0.0138344
807.099	0.0139615
807.177	0.0139390
807.255	0.0137914
807.333	0.0139678
807.411	0.0137933
807.489	0.0138979
807.568	0.0138254
807.646	0.0139130
807.724	0.0137455
807.802	0.0138860
807.880	0.0137348
807.958	0.0137698
808.036	0.0136983
808.114	0.0136713
808.193	0.0137778
808.271	0.0137313
808.349	0.0137502
808.427	0.0136375
808.505	0.0136053
808.583	0.0136624
808.661	0.0135721
808.739	0.0133381
808.818	0.0135194
808.896	0.0138093
808.974	0.0134382
809.052	0.0135363
809.130	0.0135291
809.208	0.0135271
809.286	0.0134922
809.364	0.0137137
809.443	0.0136314
809.521	0.0136961
809.599	0.0136417
809.677	0.0137939
809.755	0.0136540
809.833	0.0136842
809.911	0.0137859
809.989	0.0136192
810.068	0.0135670
810.146	0.0136059
810.224	0.0137504
810.302	0.0136468
810.380	0.0138078
810.458	0.0137653
810.536	0.0136159
810.614	0.0135336
810.693	0.0137227
810.771	0.0135094
810.849	0.0135797
810.927	0.0135715
811.005	0.0134820
811.083	0.0133823
811.161	0.0134704
811.239	0.0136391
811.318	0.0135410
811.396	0.0133936
811.474	0.0133957
811.552	0.0134092
811.630	0.0136059
811.708	0.0134170
811.786	0.0135522
811.864	0.0134162
811.943	0.0135503
812.021	0.0135360
812.099	0.0137954
812.177	0.0137624
812.255	0.0137807
812.333	0.0138229
812.411	0.0139114
812.489	0.0138137
812.568	0.0137623
812.646	0.0139520
812.724	0.0139569
812.802	0.0137389
812.880	0.0137309
812.958	0.0139097
813.036	0.0138093
813.114	0.0137881
813.193	0.0138766
813.271	0.0138411
813.349	0.0138162
813.427	0.0136953
813.505	0.0138624
813.583	0.0138102
813.661	0.0138297
813.739	0.0136222
813.818	0.0136381
813.896	0.0137571
813.974	0.0136838
814.052	0.0135127
814.130	0.0134177
814.208	0.0133971
814.286	0.0134396
814.364	0.0133823
814.443	0.0133752
814.521	0.0132294
814.599	0.0132700
814.677	0.0131686
814.755	0.0129681
814.833	0.0129836
814.911	0.0130818
814.989	0.0129543
815.068	0.0130296
815.146	0.0131825
815.224	0.0130500
815.302	0.0130176
815.380	0.0130894
815.458	0.0130482
815.536	0.0131860
815.614	0.0131886
815.693	0.0132355
815.771	0.0132890
815.849	0.0133371
815.927	0.0133927
816.005	0.0132946
816.083	0.0134333
816.161	0.0136204
816.239	0.0134249
816.318	0.0134929
816.396	0.0133804
816.474	0.0137245
816.552	0.0136580
816.630	0.0136829
816.708	0.0137703
816.786	0.0136710
816.864	0.0137769
816.943	0.0137176
817.021	0.0136836
817.099	0.0136689
817.177	0.0137830
817.255	0.0137621
817.333	0.0137392
817.411	0.0137535
817.489	0.0137451
817.568	0.0138481
817.646	0.0136941
817.724	0.0137016
817.802	0.0138252
817.880	0.0137809
817.958	0.0137628
818.036	0.0137019
818.114	0.0137416
818.193	0.0137833
818.271	0.0136577
818.349	0.0136710
818.427	0.0136322
818.505	0.0137019
818.583	0.0136818
818.661	0.0136317
818.739	0.0136316
818.818	0.0135480
818.896	0.0134550
818.974	0.0134912
819.052	0.0134660
819.130	0.0133467
819.208	0.0134377
819.286	0.0134734
819.364	0.0132956
819.443	0.0133659
819.521	0.0135003
819.599	0.0133856
819.677	0.0133262
819.755	0.0133543
819.833	0.0132908
819.911	0.0134056
819.989	0.0132759
820.068	0.0134663
820.146	0.0134381
820.224	0.0133940
820.302	0.0133530
820.380	0.0134072
820.458	0.0133469
820.536	0.0133076
820.614	0.0132905
820.693	0.0132963
820.771	0.0132395
820.849	0.0132603
820.927	0.0132377
821.005	0.0132624
821.083	0.0131446
821.161	0.0131606
821.239	0.0131512
821.318	0.0131920
821.396	0.0130110
821.474	0.0131973
821.552	0.0131959
821.630	0.0131811
821.708	0.0131635
821.786	0.0132541
821.864	0.0133224
821.943	0.0135441
822.021	0.0133565
822.099	0.0134583
822.177	0.0134612
822.255	0.0135474
822.333	0.0135870
822.411	0.0134538
822.489	0.0134528
822.568	0.0135553
822.646	0.0136979
822.724	0.0136520
822.802	0.0135239
822.880	0.0135137
822.958	0.0134862
823.036	0.0135447
823.114	0.0135361
823.193	0.0135002
823.271	0.0136548
823.349	0.0137061
823.427	0.0136056
823.505	0.0136415
823.583	0.0135652
823.661	0.0135085
823.739	0.0136409
823.818	0.0135357
823.896	0.0137295
823.974	0.0137783
824.052	0.0135387
824.130	0.0137827
824.208	0.0137378
824.286	0.0137102
824.364	0.0137748
824.443	0.0135804
824.521	0.0139612
824.599	0.0138556
824.677	0.0138227
824.755	0.0138670
824.833	0.0139774
824.911	0.0138371
824.989	0.0139838
825.068	0.0140388
825.146	0.0138400
825.224	0.0138856
825.302	0.0137856
825.380	0.0137450
825.458	0.0139104
825.536	0.0138683
825.614	0.0137041
825.693	0.0137537
825.771	0.0137117
825.849	0.0135867
825.927	0.0134579
826.005	0.0134933
826.083	0.0132943
826.161	0.0133573
826.239	0.0131641
826.318	0.0130215
826.396	0.0131378
826.474	0.0129813
826.552	0.0130428
826.630	0.0129578
826.708	0.0131684
826.786	0.0129981
826.864	0.0131309
826.943	0.0130801
827.021	0.0131814
827.099	0.0131010
827.177	0.0131805
827.255	0.0133206
827.333	0.0131750
827.411	0.0132170
827.489	0.0132865
827.568	0.0133566
827.646	0.0135325
827.724	0.0133965
827.802	0.0134465
827.880	0.0134930
827.958	0.0136344
828.036	0.0137096
828.114	0.0134903
828.193	0.0136135
828.271	0.0137544
828.349	0.0136917
828.427	0.0138438
828.505	0.0138966
828.583	0.0138390
828.661	0.0137624
828.739	0.0137650
828.818	0.0140089
828.896	0.0140436
828.974	0.0140356
829.052	0.0141232
829.130	0.0139616
829.208	0.0139143
829.286	0.0140797
829.364	0.0140906
829.443	0.0140215
829.521	0.0138282
829.599	0.0139316
829.677	0.0139014
829.755	0.0137811
829.833	0.0139259
829.911	0.0137960
829.989	0.0137601
830.068	0.0137461
830.146	0.0135948
830.224	0.0136460
830.302	0.0137909
830.380	0.0136681
830.458	0.0136224
830.536	0.0136100
830.614	0.0136349
830.693	0.0136246
830.771	0.0136048
830.849	0.0136698
830.927	0.0136901
831.005	0.0136456
831.083	0.0135241
831.161	0.0135761
831.239	0.0137738
831.318	0.0134006
831.396	0.0134708
831.474	0.0136298
831.552	0.0136470
831.630	0.0136089
831.708	0.0136147
831.786	0.0135677
831.864	0.0134804
831.943	0.0134906
832.021	0.0136629
832.099	0.0136134
832.177	0.0136246
832.255	0.0135382
832.333	0.0136162
832.411	0.0136413
832.489	0.0137192
832.568	0.0135680
832.646	0.0135447
832.724	0.0135450
832.802	0.0136025
832.880	0.0136160
832.958	0.0136172
833.036	0.0136265
833.114	0.0136831
833.193	0.0137043
833.271	0.0137640
833.349	0.0137132
833.427	0.0136489
833.505	0.0138419
833.583	0.0138731
833.661	0.0137833
833.739	0.0137820
833.818	0.0140624
833.896	0.0140511
833.974	0.0139102
834.052	0.0141210
834.130	0.0139649
834.208	0.0140057
834.286	0.0140435
834.364	0.0140243
834.443	0.0140349
834.521	0.0138226
834.599	0.0138134
834.677	0.0139486
834.755	0.0138654
834.833	0.0136766
834.911	0.0138451
834.989	0.0138354
835.068	0.0137736
835.146	0.0137675
835.224	0.0138144
835.302	0.0137457
835.380	0.0135851
835.458	0.0135350
835.536	0.0136093
835.614	0.0135017
835.693	0.0136899
835.771	0.0133877
835.849	0.0135215
835.927	0.0133360
836.005	0.0132869
836.083	0.0132918
836.161	0.0132420
836.239	0.0132398
836.318	0.0131330
836.396	0.0133441
836.474	0.0132675
836.552	0.0132246
836.630	0.0132258
836.708	0.0131892
836.786	0.0132062
836.864	0.0133746
836.943	0.0131734
837.021	0.0133710
837.099	0.0132465
837.177	0.0132560
837.255	0.0132969
837.333	0.0134352
837.411	0.0132758
837.489	0.0132175
837.568	0.0134636
837.646	0.0134644
837.724	0.0133683
837.802	0.0134395
837.880	0.0134767
837.958	0.0134727
838.036	0.0135034
838.114	0.0134499
838.193	0.0134720
838.271	0.0134962
838.349	0.0135854
838.427	0.0135826
838.505	0.0133880
838.583	0.0135698
838.661	0.0135288
838.739	0.0134876
838.818	0.0135174
838.896	0.0134773
838.974	0.0135055
839.052	0.0135239
839.130	0.0134996
839.208	0.0133930
839.286	0.0136372
839.364	0.0135902
839.443	0.0134396
839.521	0.0134818
839.599	0.0134459
839.677	0.0134471
839.755	0.0135476
839.833	0.0136288
839.911	0.0135124
839.989	0.0135373
840.068	0.0135905
840.146	0.0135993
840.224	0.0135284
840.302	0.0135814
840.380	0.0135963
840.458	0.0135124
840.536	0.0134509
840.614	0.0135427
840.693	0.0135242
840.771	0.0133665
840.849	0.0135152
840.927	0.0135276
841.005	0.0134304
841.083	0.0134434
841.161	0.0133359
841.239	0.0131260
841.318	0.0133606
841.396	0.0133123
841.474	0.0132276
841.552	0.0133633
841.630	0.0133616
841.708	0.0133228
841.786	0.0133327
841.864	0.0133805
841.943	0.0133963
842.021	0.0133840
842.099	0.0133497
842.177	0.0134854
842.255	0.0134667
842.333	0.0133823
842.411	0.0135287
842.489	0.0135146
842.568	0.0135604
842.646	0.0136559
842.724	0.0134623
842.802	0.0135859
842.880	0.0135450
842.958	0.0135576
843.036	0.0135767
843.114	0.0133913
843.193	0.0135453
843.271	0.0135605
843.349	0.0133955
843.427	0.0134070
843.505	0.0135962
843.583	0.0134569
843.661	0.0133602
843.739	0.0133805
843.818	0.0133851
843.896	0.0133016
843.974	0.0132912
844.052	0.0133938
844.130	0.0133567
844.208	0.0132699
844.286	0.0133839
844.364	0.0132542
844.443	0.0134971
844.521	0.0133802
844.599	0.0133384
844.677	0.0133675
844.755	0.0134502
844.833	0.0136004
844.911	0.0136819
844.989	0.0136855
845.068	0.0137360
845.146	0.0136758
845.224	0.0135471
845.302	0.0136005
845.380	0.0137833
845.458	0.0137863
845.536	0.0137408
845.614	0.0137359
845.693	0.0136525
845.771	0.0137307
845.849	0.0138227
845.927	0.0137799
846.005	0.0137315
846.083	0.0136136
846.161	0.0135678
846.239	0.0137165
846.318	0.0136400
846.396	0.0135460
846.474	0.0134502
846.552	0.0135258
846.630	0.0136131
846.708	0.0134528
846.786	0.0133675
846.864	0.0133726
846.943	0.0135901
847.021	0.0133827
847.099	0.0133604
847.177	0.0133880
847.255	0.0134393
847.333	0.0133550
847.411	0.0134033
847.489	0.0135265
847.568	0.0134264
847.646	0.0135392
847.724	0.0133698
847.802	0.0133448
847.880	0.0134557
847.958	0.0134743
848.036	0.0135455
848.114	0.0135570
848.193	0.0135620
848.271	0.0134607
848.349	0.0136268
848.427	0.0137012
848.505	0.0135411
848.583	0.0137093
848.661	0.0135483
848.739	0.0136753
848.818	0.0135493
848.896	0.0134787
848.974	0.0135791
849.052	0.0135443
849.130	0.0133600
849.208	0.0135867
849.286	0.0134252
849.364	0.0134622
849.443	0.0134893
849.521	0.0134650
849.599	0.0134489
849.677	0.0134193
849.755	0.0135043
849.833	0.0135041
849.911	0.0135193
849.989	0.0135815
850.068	0.0135333
850.146	0.0134917
850.224	0.0134460
850.302	0.0135848
850.380	0.0135821
850.458	0.0135897
850.536	0.0134450
850.614	0.0135683
850.693	0.0136430
850.771	0.0136077
850.849	0.0136015
850.927	0.0137146
851.005	0.0137347
851.083	0.0137262
851.161	0.0136670
851.239	0.0137535
851.318	0.0137296
851.396	0.0137814
851.474	0.0137455
851.552	0.0136531
851.630	0.0137151
851.708	0.0136127
851.786	0.0135697
851.864	0.0137208
851.943	0.0137313
852.021	0.0135705
852.099	0.0135027
852.177	0.0135940
852.255	0.0135385
852.333	0.0135090
852.411	0.0136091
852.489	0.0136398
852.568	0.0136409
852.646	0.0135439
852.724	0.0134985
852.802	0.0134589
852.880	0.0135700
852.958	0.0136179
853.036	0.0137061
853.114	0.0135760
853.193	0.0136308
853.271	0.0137038
853.349	0.0136692
853.427	0.0136552
853.505	0.0136989
853.583	0.0136896
853.661	0.0136240
853.739	0.0136333
853.818	0.0136533
853.896	0.0136031
853.974	0.0136086
854.052	0.0136172
854.130	0.0136347
854.208	0.0135085
854.286	0.0136707
854.364	0.0135588
854.443	0.0134831
854.521	0.0134927
854.599	0.0135416
854.677	0.0136172
854.755	0.0134805
854.833	0.0134680
854.911	0.0135627
854.989	0.0136585
855.068	0.0136233
855.146	0.0136768
855.224	0.0137477
855.302	0.0137087
855.380	0.0137860
855.458	0.0138833
855.536	0.0140240
855.614	0.0140209
855.693	0.0137199
855.771	0.0139659
855.849	0.0139601
855.927	0.0138450
856.005	0.0139017
856.083	0.0138696
856.161	0.0139714
856.239	0.0140076
856.318	0.0137891
856.396	0.0137759
856.474	0.0136810
856.552	0.0136759
856.630	0.0137500
856.708	0.0137476
856.786	0.0136839
856.864	0.0135149
856.943	0.0134457
857.021	0.0135105
857.099	0.0133491
857.177	0.0135579
857.255	0.0133454
857.333	0.0135077
857.411	0.0134528
857.489	0.0134168
857.568	0.0133891
857.646	0.0132532
857.724	0.0134418
857.802	0.0134924
857.880	0.0133938
857.958	0.0134218
858.036	0.0134171
858.114	0.0134679
858.193	0.0135378
858.271	0.0134972
858.349	0.0134438
858.427	0.0135458
858.505	0.0135876
858.583	0.0136395
858.661	0.0134714
858.739	0.0137276
858.818	0.0138369
858.896	0.0138420
858.974	0.0138185
859.052	0.0139011
859.130	0.0138374
859.208	0.0137280
859.286	0.0137517
859.364	0.0138630
859.443	0.0138596
859.521	0.0137830
859.599	0.0137666
859.677	0.0137568
859.755	0.0138309
859.833	0.0138434
859.911	0.0137749
859.989	0.0137187
860.068	0.0138181
860.146	0.0137492
860.224	0.0137531
860.302	0.0136987
860.380	0.0138144
860.458	0.0137980
860.536	0.0137846
860.614	0.0137991
860.693	0.0137992
860.771	0.0137440
860.849	0.0138280
860.927	0.0138254
861.005	0.0137880
861.083	0.0138035
861.161	0.0137363
861.239	0.0137369
861.318	0.0137327
861.396	0.0136596
861.474	0.0136750
861.552	0.0136176
861.630	0.0135464
861.708	0.0135658
861.786	0.0134383
861.864	0.0136195
861.943	0.0135490
862.021	0.0135600
862.099	0.0134885
862.177	0.0135087
862.255	0.0134151
862.333	0.0135491
862.411	0.0133423
862.489	0.0134594
862.568	0.0135577
862.646	0.0133521
862.724	0.0135052
862.802	0.0134327
862.880	0.0133999
862.958	0.0134347
863.036	0.0132943
863.114	0.0134653
863.193	0.0134093
863.271	0.0133619
863.349	0.0134964
863.427	0.0134107
863.505	0.0133286
863.583	0.0133248
863.661	0.0135613
863.739	0.0136098
863.818	0.0135359
863.896	0.0137093
863.974	0.0136393
864.052	0.0136797
864.130	0.0138268
864.208	0.0136707
864.286	0.0138142
864.364	0.0139004
864.443	0.0139673
864.521	0.0138490
864.599	0.0139084
864.677	0.0139780
864.755	0.0139439
864.833	0.0139225
864.911	0.0139616
864.989	0.0137498
865.068	0.0139867
865.146	0.0139153
865.224	0.0138330
865.302	0.0139142
865.380	0.0138726
865.458	0.0138499
865.536	0.0137788
865.614	0.0138518
865.693	0.0138220
865.771	0.0137576
865.849	0.0136967
865.927	0.0136996
866.005	0.0136047
866.083	0.0136515
866.161	0.0137099
866.239	0.0135780
866.318	0.0136731
866.396	0.0136867
866.474	0.0136041
866.552	0.0136696
866.630	0.0136188
866.708	0.0135011
866.786	0.0135056
866.864	0.0137573
866.943	0.0135493
867.021	0.0134102
867.099	0.0134452
867.177	0.0133991
867.255	0.0133562
867.333	0.0134258
867.411	0.0134077
867.489	0.0133612
867.568	0.0133504
867.646	0.0133170
867.724	0.0133250
867.802	0.0134187
867.880	0.0134951
867.958	0.0134538
868.036	0.0134064
868.114	0.0135063
868.193	0.0134370
868.271	0.0135576
868.349	0.0134611
868.427	0.0135079
868.505	0.0135522
868.583	0.0136906
868.661	0.0136055
868.739	0.0137519
868.818	0.0137414
868.896	0.0136275
868.974	0.0135139
869.052	0.0136402
869.130	0.0137012
869.208	0.0136731
869.286	0.0135614
869.364	0.0136972
869.443	0.0135210
869.521	0.0134950
869.599	0.0137038
869.677	0.0137151
869.755	0.0135238
869.833	0.0136214
869.911	0.0136109
869.989	0.0134933
870.068	0.0136909
870.146	0.0136523
870.224	0.0135885
870.302	0.0136774
870.380	0.0136862
870.458	0.0135679
870.536	0.0136298
870.614	0.0135146
870.693	0.0134528
870.771	0.0135054
870.849	0.0135589
870.927	0.0135960
871.005	0.0137600
871.083	0.0136258
871.161	0.0137251
871.239	0.0136699
871.318	0.0136709
871.396	0.0136180
871.474	0.0138011
871.552	0.0138223
871.630	0.0136797
871.708	0.0138039
871.786	0.0135768
871.864	0.0137512
871.943	0.0136721
872.021	0.0137315
872.099	0.0135823
872.177	0.0137006
872.255	0.0138116
872.333	0.0135433
872.411	0.0135263
872.489	0.0136442
872.568	0.0134727
872.646	0.0133955
872.724	0.0134069
872.802	0.0132737
872.880	0.0134922
872.958	0.0134250
873.036	0.0132760
873.114	0.0131454
873.193	0.0132139
873.271	0.0133357
873.349	0.0131048
873.427	0.0129826
873.505	0.0131419
873.583	0.0132836
873.661	0.0132854
873.739	0.0131434
873.818	0.0130966
873.896	0.0131644
873.974	0.0133138
874.052	0.0134866
874.130	0.0132901
874.208	0.0133016
874.286	0.0132652
874.364	0.0134547
874.443	0.0135296
874.521	0.0135284
874.599	0.0135896
874.677	0.0134481
874.755	0.0136059
874.833	0.0134866
874.911	0.0136143
874.989	0.0136912
875.068	0.0136491
875.146	0.0136119
875.224	0.0136482
875.302	0.0137982
875.380	0.0136855
875.458	0.0137254
875.536	0.0138158
875.614	0.0136571
875.693	0.0137506
875.771	0.0136326
875.849	0.0135837
875.927	0.0137140
876.005	0.0136653
876.083	0.0136960
876.161	0.0135558
876.239	0.0135236
876.318	0.0134418
876.396	0.0134879
876.474	0.0135085
876.552	0.0135159
876.630	0.0133912
876.708	0.0133624
876.786	0.0133483
876.864	0.0133728
876.943	0.0133762
877.021	0.0134271
877.099	0.0133267
877.177	0.0133056
877.255	0.0133305
877.333	0.0134530
877.411	0.0134164
877.489	0.0133635
877.568	0.0135258
877.646	0.0135995
877.724	0.0134312
877.802	0.0135935
877.880	0.0136963
877.958	0.0135271
878.036	0.0135690
878.114	0.0135903
878.193	0.0138582
878.271	0.0137357
878.349	0.0138612
878.427	0.0138165
878.505	0.0137032
878.583	0.0137957
878.661	0.0138340
878.739	0.0140347
878.818	0.0137273
878.896	0.0137473
878.974	0.0138723
879.052	0.0138687
879.130	0.0137495
879.208	0.0136353
879.286	0.0137461
879.364	0.0137621
879.443	0.0136240
879.521	0.0137179
879.599	0.0136366
879.677	0.0136631
879.755	0.0136299
879.833	0.0135336
879.911	0.0133440
879.989	0.0135757
880.068	0.0133248
880.146	0.0134173
880.224	0.0132716
880.302	0.0132933
880.380	0.0135223
880.458	0.0133351
880.536	0.0132493
880.614	0.0133841
880.693	0.0134863
880.771	0.0133681
880.849	0.0133722
880.927	0.0135045
881.005	0.0134632
881.083	0.0136828
881.161	0.0136372
881.239	0.0137142
881.318	0.0138753
881.396	0.0138744
881.474	0.0138802
881.552	0.0138535
881.630	0.0137721
881.708	0.0139655
881.786	0.0140739
881.864	0.0139900
881.943	0.0140618
882.021	0.0139783
882.099	0.0139230
882.177	0.0138919
882.255	0.0139445
882.333	0.0140134
882.411	0.0139675
882.489	0.0138434
882.568	0.0139310
882.646	0.0138604
882.724	0.0137725
882.802	0.0138434
882.880	0.0138354
882.958	0.0137449
883.036	0.0136805
883.114	0.0136823
883.193	0.0135941
883.271	0.0136547
883.349	0.0136353
883.427	0.0134891
883.505	0.0135283
883.583	0.0136012
883.661	0.0133862
883.739	0.0134435
883.818	0.0135208
883.896	0.0135279
883.974	0.0133911
884.052	0.0134866
884.130	0.0134137
884.208	0.0134825
884.286	0.0134795
884.364	0.0134746
884.443	0.0136166
884.521	0.0135184
884.599	0.0135156
884.677	0.0135026
884.755	0.0136379
884.833	0.0135690
884.911	0.0137267
884.989	0.0136611
885.068	0.0136110
885.146	0.0136465
885.224	0.0137269
885.302	0.0136300
885.380	0.0137083
885.458	0.0137708
885.536	0.0137283
885.614	0.0137191
885.693	0.0137385
885.771	0.0137697
885.849	0.0137108
885.927	0.0136842
886.005	0.0136845
886.083	0.0137950
886.161	0.0136108
886.239	0.0136919
886.318	0.0134957
886.396	0.0136926
886.474	0.0135835
886.552	0.0134043
886.630	0.0137135
886.708	0.0135276
886.786	0.0135516
886.864	0.0136533
886.943	0.0134378
887.021	0.0135691
887.099	0.0135641
887.177	0.0136089
887.255	0.0135249
887.333	0.0135365
887.411	0.0136505
887.489	0.0134174
887.568	0.0134953
887.646	0.0136637
887.724	0.0135513
887.802	0.0136101
887.880	0.0136922
887.958	0.0137484
888.036	0.0136596
888.114	0.0135680
888.193	0.0136823
888.271	0.0136324
888.349	0.0137029
888.427	0.0136252
888.505	0.0137077
888.583	0.0137370
888.661	0.0137855
888.739	0.0137163
888.818	0.0137003
888.896	0.0136615
888.974	0.0136256
889.052	0.0137964
889.130	0.0137797
889.208	0.0137984
889.286	0.0137570
889.364	0.0137787
889.443	0.0136902
889.521	0.0136388
889.599	0.0137896
889.677	0.0138316
889.755	0.0138663
889.833	0.0137248
889.911	0.0136989
889.989	0.0137618
890.068	0.0137428
890.146	0.0137163
890.224	0.0137073
890.302	0.0135395
890.380	0.0135806
890.458	0.0137711
890.536	0.0136607
890.614	0.0136240
890.693	0.0137609
890.771	0.0136552
890.849	0.0137006
890.927	0.0136477
891.005	0.0135429
891.083	0.0135165
891.161	0.0134556
891.239	0.0134337
891.318	0.0134007
891.396	0.0134429
891.474	0.0134196
891.552	0.0134726
891.630	0.0133985
891.708	0.0134391
891.786	0.0135137
891.864	0.0135627
891.943	0.0134435
892.021	0.0135270
892.099	0.0136303
892.177	0.0136002
892.255	0.0135895
892.333	0.0136546
892.411	0.0136430
892.489	0.0135753
892.568	0.0136704
892.646	0.0134971
892.724	0.0135555
892.802	0.0136407
892.880	0.0135748
892.958	0.0135553
893.036	0.0136136
893.114	0.0136893
893.193	0.0138302
893.271	0.0138553
893.349	0.0137416
893.427	0.0137628
893.505	0.0137991
893.583	0.0138380
893.661	0.0136760
893.739	0.0136048
893.818	0.0136670
893.896	0.0137473
893.974	0.0136432
894.052	0.0136134
894.130	0.0137140
894.208	0.0136395
894.286	0.0136647
894.364	0.0136314
894.443	0.0136681
894.521	0.0135783
894.599	0.0135426
894.677	0.0135542
894.755	0.0135872
894.833	0.0135969
894.911	0.0136615
894.989	0.0135393
895.068	0.0134597
895.146	0.0137395
895.224	0.0134672
895.302	0.0136133
895.380	0.0135966
895.458	0.0135172
895.536	0.0135477
895.614	0.0136395
895.693	0.0136128
895.771	0.0134314
895.849	0.0135976
895.927	0.0137655
896.005	0.0137581
896.083	0.0135977
896.161	0.0136619
896.239	0.0136475
896.318	0.0137479
896.396	0.0135610
896.474	0.0136040
896.552	0.0136856
896.630	0.0135921
896.708	0.0136749
896.786	0.0136077
896.864	0.0135057
896.943	0.0135406
897.021	0.0135060
897.099	0.0135164
897.177	0.0135291
897.255	0.0134267
897.333	0.0134306
897.411	0.0134979
897.489	0.0135323
897.568	0.0134271
897.646	0.0135302
897.724	0.0135841
897.802	0.0134647
897.880	0.0135403
897.958	0.0135712
898.036	0.0137559
898.114	0.0136864
898.193	0.0136269
898.271	0.0137278
898.349	0.0137498
898.427	0.0136550
898.505	0.0137740
898.583	0.0137548
898.661	0.0135464
898.739	0.0136093
898.818	0.0136472
898.896	0.0135756
898.974	0.0133079
899.052	0.0135294
899.130	0.0135066
899.208	0.0133636
899.286	0.0133023
899.364	0.0135177
899.443	0.0133527
899.521	0.0131795
899.599	0.0131308
899.677	0.0131162
899.755	0.0130417
899.833	0.0132426
899.911	0.0133277
899.989	0.0131312
900.068	0.0130850
900.146	0.0131826
900.224	0.0132733
900.302	0.0131576
900.380	0.0131572
900.458	0.0132774
900.536	0.0133025
900.614	0.0134136
900.693	0.0134891
900.771	0.0134762
900.849	0.0134628
900.927	0.0136571
901.005	0.0136174
901.083	0.0136906
901.161	0.0136674
901.239	0.0137814
901.318	0.0137945
901.396	0.0137301
901.474	0.0137350
901.552	0.0137663
901.630	0.0138586
901.708	0.0138295
901.786	0.0137202
901.864	0.0138274
901.943	0.0137672
902.021	0.0136871
902.099	0.0135391
902.177	0.0135607
902.255	0.0133907
902.333	0.0133574
902.411	0.0133596
902.489	0.0132894
902.568	0.0134330
902.646	0.0134445
902.724	0.0132622
902.802	0.0133444
902.880	0.0133848
902.958	0.0135320
903.036	0.0133781
903.114	0.0132649
903.193	0.0132982
903.271	0.0133730
903.349	0.0133637
903.427	0.0134567
903.505	0.0134910
903.583	0.0134949
903.661	0.0135139
903.739	0.0134361
903.818	0.0134415
903.896	0.0134088
903.974	0.0136419
904.052	0.0134239
904.130	0.0133901
904.208	0.0135464
904.286	0.0134773
904.364	0.0136974
904.443	0.0136253
904.521	0.0135662
904.599	0.0136067
904.677	0.0136340
904.755	0.0138191
904.833	0.0136797
904.911	0.0136245
904.989	0.0136268
905.068	0.0135615
905.146	0.0136510
905.224	0.0136446
905.302	0.0135233
905.380	0.0135069
905.458	0.0135315
905.536	0.0135805
905.614	0.0137100
905.693	0.0135403
905.771	0.0135286
905.849	0.0133907
905.927	0.0133577
906.005	0.0134702
906.083	0.0134985
906.161	0.0134846
906.239	0.0133257
906.318	0.0134732
906.396	0.0134998
906.474	0.0135496
906.552	0.0135024
906.630	0.0134454
906.708	0.0134953
906.786	0.0135446
906.864	0.0136761
906.943	0.0135826
907.021	0.0136234
907.099	0.0135779
907.177	0.0135197
907.255	0.0134639
907.333	0.0135513
907.411	0.0136904
907.489	0.0136175
907.568	0.0136131
907.646	0.0135183
907.724	0.0135374
907.802	0.0135770
907.880	0.0135054
907.958	0.0135595
908.036	0.0134519
908.114	0.0135664
908.193	0.0135536
908.271	0.0136247
908.349	0.0135622
908.427	0.0135697
908.505	0.0136443
908.583	0.0134919
908.661	0.0134915
908.739	0.0136356
908.818	0.0137299
908.896	0.0135733
908.974	0.0136298
909.052	0.0137624
909.130	0.0137357
909.208	0.0136760
909.286	0.0138211
909.364	0.0135785
909.443	0.0137869
909.521	0.0139170
909.599	0.0138400
909.677	0.0138184
909.755	0.0136240
909.833	0.0138107
909.911	0.0138701
909.989	0.0136469
910.068	0.0135462
910.146	0.0136140
910.224	0.0135786
910.302	0.0137119
910.380	0.0134869
910.458	0.0135652
910.536	0.0136530
910.614	0.0135196
910.693	0.0134747
910.771	0.0136026
910.849	0.0135551
910.927	0.0135996
911.005	0.0135448
911.083	0.0134552
911.161	0.0133852
911.239	0.0135148
911.318	0.0136321
911.396	0.0134033
911.474	0.0134777
911.552	0.0133895
911.630	0.0134440
911.708	0.0134667
911.786	0.0134334
911.864	0.0134956
911.943	0.0134459
912.021	0.0134499
912.099	0.0135408
912.177	0.0135995
912.255	0.0136307
912.333	0.0137785
912.411	0.0136205
912.489	0.0137331
912.568	0.0137344
912.646	0.0137659
912.724	0.0137385
912.802	0.0137233
912.880	0.0136742
912.958	0.0138627
913.036	0.0136472
913.114	0.0137022
913.193	0.0135541
913.271	0.0135616
913.349	0.0134948
913.427	0.0134648
913.505	0.0136171
913.583	0.0135109
913.661	0.0134586
913.739	0.0132891
913.818	0.0133796
913.896	0.0133243
913.974	0.0134084
914.052	0.0135182
914.130	0.0133647
914.208	0.0135016
914.286	0.0134749
914.364	0.0133099
914.443	0.0135062
914.521	0.0135069
914.599	0.0134743
914.677	0.0135686
914.755	0.0134992
914.833	0.0135663
914.911	0.0135515
914.989	0.0134660
915.068	0.0135297
915.146	0.0134474
915.224	0.0136743
915.302	0.0134412
915.380	0.0136256
915.458	0.0136897
915.536	0.0135701
915.614	0.0135772
915.693	0.0136477
915.771	0.0135320
915.849	0.0135811
915.927	0.0136359
916.005	0.0136658
916.083	0.0137123
916.161	0.0134874
916.239	0.0135177
916.318	0.0135840
916.396	0.0135706
916.474	0.0136298
916.552	0.0135642
916.630	0.0136165
916.708	0.0135460
916.786	0.0134894
916.864	0.0134602
916.943	0.0135106
917.021	0.0134397
917.099	0.0134717
917.177	0.0134875
917.255	0.0134934
917.333	0.0134576
917.411	0.0133352
917.489	0.0135046
917.568	0.0135397
917.646	0.0135647
917.724	0.0134515
917.802	0.0134630
917.880	0.0136479
917.958	0.0134988
918.036	0.0135507
918.114	0.0135672
918.193	0.0134668
918.271	0.0135501
918.349	0.0136584
918.427	0.0136687
918.505	0.0136722
918.583	0.0137057
918.661	0.0136055
918.739	0.0137461
918.818	0.0136118
918.896	0.0137024
918.974	0.0136447
919.052	0.0135155
919.130	0.0136134
919.208	0.0135110
919.286	0.0137033
919.364	0.0135284
919.443	0.0135877
919.521	0.0135556
919.599	0.0135288
919.677	0.0135746
919.755	0.0133840
919.833	0.0133453
919.911	0.0134303
919.989	0.0135331
920.068	0.0134547
920.146	0.0133638
920.224	0.0133945
920.302	0.0133445
920.380	0.0134414
920.458	0.0134288
920.536	0.0132152
920.614	0.0133477
920.693	0.0133109
920.771	0.0132316
920.849	0.0133868
920.927	0.0132713
921.005	0.0132982
921.083	0.0133483
921.161	0.0132811
921.239	0.0133828
921.318	0.0131983
921.396	0.0133768
921.474	0.0132703
921.552	0.0133821
921.630	0.0135447
921.708	0.0135358
921.786	0.0135332
921.864	0.0136541
921.943	0.0135337
922.021	0.0137620
922.099	0.0137464
922.177	0.0136829
922.255	0.0136997
922.333	0.0137660
922.411	0.0137346
922.489	0.0136086
922.568	0.0137782
922.646	0.0137442
922.724	0.0137536
922.802	0.0137184
922.880	0.0136658
922.958	0.0136189
923.036	0.0136107
923.114	0.0135513
923.193	0.0135914
923.271	0.0134379
923.349	0.0136334
923.427	0.0135406
923.505	0.0134484
923.583	0.0135441
923.661	0.0135324
923.739	0.0134407
923.818	0.0134553
923.896	0.0135632
923.974	0.0134952
924.052	0.0135089
924.130	0.0135693
924.208	0.0136126
924.286	0.0134490
924.364	0.0135551
924.443	0.0133683
924.521	0.0133997
924.599	0.0135625
924.677	0.0135466
924.755	0.0134315
924.833	0.0133617
924.911	0.0133494
924.989	0.0133766
925.068	0.0134258
925.146	0.0133514
925.224	0.0134556
925.302	0.0133724
925.380	0.0133789
925.458	0.0133758
925.536	0.0133701
925.614	0.0133837
925.693	0.0133547
925.771	0.0134947
925.849	0.0135804
925.927	0.0134241
926.005	0.0135584
926.083	0.0134455
926.161	0.0133891
926.239	0.0134774
926.318	0.0134422
926.396	0.0133997
926.474	0.0134991
926.552	0.0133629
926.630	0.0135081
926.708	0.0133994
926.786	0.0134303
926.864	0.0135037
926.943	0.0135783
927.021	0.0135683
927.099	0.0135129
927.177	0.0134870
927.255	0.0135408
927.333	0.0135265
927.411	0.0135831
927.489	0.0136299
927.568	0.0136328
927.646	0.0136318
927.724	0.0134988
927.802	0.0137306
927.880	0.0138205
927.958	0.0135371
928.036	0.0136811
928.114	0.0135983
928.193	0.0135869
928.271	0.0136769
928.349	0.0136118
928.427	0.0136282
928.505	0.0136337
928.583	0.0135255
928.661	0.0136369
928.739	0.0136440
928.818	0.0136009
928.896	0.0135485
928.974	0.0135321
929.052	0.0133939
929.130	0.0134911
929.208	0.0134314
929.286	0.0134981
929.364	0.0135360
929.443	0.0135104
929.521	0.0134842
929.599	0.0135643
929.677	0.0136460
929.755	0.0136301
929.833	0.0136906
929.911	0.0135977
929.989	0.0136525
930.068	0.0136121
930.146	0.0137327
930.224	0.0136742
930.302	0.0137173
930.380	0.0137181
930.458	0.0136553
930.536	0.0137283
930.614	0.0136664
930.693	0.0137191
930.771	0.0137332
930.849	0.0137109
930.927	0.0138500
931.005	0.0137479
931.083	0.0137240
931.161	0.0137432
931.239	0.0138071
931.318	0.0137705
931.396	0.0138279
931.474	0.0136446
931.552	0.0135686
931.630	0.0136193
931.708	0.0135743
931.786	0.0135008
931.864	0.0134378
931.943	0.0133333
932.021	0.0134750
932.099	0.0134397
932.177	0.0134941
932.255	0.0134660
932.333	0.0133467
932.411	0.0134198
932.489	0.0133710
932.568	0.0134720
932.646	0.0135052
932.724	0.0135596
932.802	0.0132945
932.880	0.0133160
932.958	0.0133306
933.036	0.0135525
933.114	0.0134842
933.193	0.0133208
933.271	0.0134066
933.349	0.0134482
933.427	0.0133895
933.505	0.0135155
933.583	0.0135265
933.661	0.0136059
933.739	0.0136293
933.818	0.0136242
933.896	0.0136466
933.974	0.0135507
934.052	0.0136001
934.130	0.0137020
934.208	0.0137234
934.286	0.0136669
934.364	0.0137305
934.443	0.0137411
934.521	0.0137707
934.599	0.0137568
934.677	0.0136629
934.755	0.0137193
934.833	0.0138619
934.911	0.0137650
934.989	0.0136360
935.068	0.0135792
935.146	0.0136884
935.224	0.0136047
935.302	0.0136713
935.380	0.0134588
935.458	0.0136556
935.536	0.0134749
935.614	0.0134161
935.693	0.0134052
935.771	0.0132604
935.849	0.0131885
935.927	0.0132014
936.005	0.0133122
936.083	0.0132170
936.161	0.0131453
936.239	0.0133893
936.318	0.0132851
936.396	0.0133272
936.474	0.0133171
936.552	0.0134341
936.630	0.0134188
936.708	0.0135669
936.786	0.0135725
936.864	0.0133907
936.943	0.0136382
937.021	0.0136201
937.099	0.0134350
937.177	0.0136401
937.255	0.0137078
937.333	0.0137299
937.411	0.0138012
937.489	0.0137516
937.568	0.0137093
937.646	0.0138838
937.724	0.0136884
937.802	0.0136738
937.880	0.0138020
937.958	0.0137543
938.036	0.0136970
938.114	0.0138363
938.193	0.0136757
938.271	0.0136427
938.349	0.0137749
938.427	0.0136345
938.505	0.0136333
938.583	0.0136714
938.661	0.0136324
938.739	0.0135867
938.818	0.0136456
938.896	0.0136898
938.974	0.0135287
939.052	0.0137852
939.130	0.0135741
939.208	0.0136605
939.286	0.0135822
939.364	0.0135564
939.443	0.0135889
939.521	0.0135171
939.599	0.0135283
939.677	0.0135179
939.755	0.0135581
939.833	0.0134039
939.911	0.0134375
939.989	0.0133837
940.068	0.0135643
940.146	0.0135923
940.224	0.0134438
940.302	0.0136932
940.380	0.0134658
940.458	0.0134591
940.536	0.0135528
940.614	0.0136310
940.693	0.0135641
940.771	0.0136374
940.849	0.0135664
940.927	0.0135817
941.005	0.0137793
941.083	0.0137468
941.161	0.0137196
941.239	0.0135965
941.318	0.0135923
941.396	0.0135345
941.474	0.0137793
941.552	0.0136557
941.630	0.0137474
941.708	0.0137350
941.786	0.0136057
941.864	0.0136284
941.943	0.0135674
942.021	0.0137334
942.099	0.0136005
942.177	0.0134687
942.255	0.0137710
942.333	0.0136758
942.411	0.0137092
942.489	0.0135961
942.568	0.0135436
942.646	0.0135486
942.724	0.0136964
942.802	0.0137420
942.880	0.0135625
942.958	0.0135390
943.036	0.0137674
943.114	0.0135835
943.193	0.0137037
943.271	0.0136817
943.349	0.0134492
943.427	0.0137510
943.505	0.0137118
943.583	0.0136079
943.661	0.0134823
943.739	0.0135331
943.818	0.0135632
943.896	0.0136232
943.974	0.0136834
944.052	0.0134391
944.130	0.0134420
944.208	0.0134796
944.286	0.0133671
944.364	0.0134792
944.443	0.0133293
944.521	0.0133257
944.599	0.0134157
944.677	0.0133547
944.755	0.0133891
944.833	0.0133117
944.911	0.0133846
944.989	0.0132658
945.068	0.0134743
945.146	0.0135499
945.224	0.0134565
945.302	0.0134776
945.380	0.0134189
945.458	0.0134531
945.536	0.0135360
945.614	0.0136569
945.693	0.0134842
945.771	0.0134406
945.849	0.0135543
945.927	0.0134513
946.005	0.0135466
946.083	0.0135193
946.161	0.0134224
946.239	0.0134980
946.318	0.0134996
946.396	0.0135897
946.474	0.0135805
946.552	0.0136138
946.630	0.0135104
946.708	0.0135822
946.786	0.0136298
946.864	0.0134520
946.943	0.0135450
947.021	0.0135955
947.099	0.0135479
947.177	0.0136204
947.255	0.0133774
947.333	0.0136283
947.411	0.0135844
947.489	0.0135519
947.568	0.0136777
947.646	0.0135022
947.724	0.0135558
947.802	0.0136327
947.880	0.0135072
947.958	0.0134972
948.036	0.0134808
948.114	0.0135694
948.193	0.0136814
948.271	0.0135584
948.349	0.0134153
948.427	0.0136481
948.505	0.0135519
948.583	0.0135447
948.661	0.0136618
948.739	0.0135191
948.818	0.0135220
948.896	0.0133712
948.974	0.0136128
949.052	0.0135099
949.130	0.0135345
949.208	0.0136015
949.286	0.0135358
949.364	0.0134657
949.443	0.0134430
949.521	0.0134300
949.599	0.0134425
949.677	0.0136229
949.755	0.0135574
949.833	0.0134801
949.911	0.0136640
949.989	0.0135428
950.068	0.0137075
950.146	0.0136546
950.224	0.0136415
950.302	0.0136632
950.380	0.0137265
950.458	0.0137216
950.536	0.0136404
950.614	0.0138336
950.693	0.0137260
950.771	0.0135348
950.849	0.0137223
950.927	0.0137367
951.005	0.0135863
951.083	0.0137900
951.161	0.0137101
951.239	0.0137171
951.318	0.0136253
951.396	0.0136937
951.474	0.0136989
951.552	0.0137094
951.630	0.0136664
951.708	0.0137507
951.786	0.0136345
951.864	0.0134413
951.943	0.0135989
952.021	0.0135515
952.099	0.0134893
952.177	0.0134578
952.255	0.0133268
952.333	0.0135020
952.411	0.0134243
952.489	0.0134174
952.568	0.0133756
952.646	0.0133479
952.724	0.0132573
952.802	0.0132504
952.880	0.0132288
952.958	0.0133395
953.036	0.0134543
953.114	0.0134431
953.193	0.0134097
953.271	0.0135591
953.349	0.0135262
953.427	0.0135034
953.505	0.0135170
953.583	0.0136043
953.661	0.0136797
953.739	0.0135624
953.818	0.0136044
953.896	0.0136817
953.974	0.0136652
954.052	0.0135929
954.130	0.0137827
954.208	0.0138126
954.286	0.0137466
954.364	0.0137958
954.443	0.0137474
954.521	0.0138671
954.599	0.0136652
954.677	0.0137823
954.755	0.0137040
954.833	0.0136853
954.911	0.0136447
954.989	0.0136158
955.068	0.0134925
955.146	0.0136423
955.224	0.0136685
955.302	0.0134177
955.380	0.0134670
955.458	0.0135463
955.536	0.0135596
955.614	0.0135645
955.693	0.0136391
955.771	0.0135950
955.849	0.0134313
955.927	0.0135152
956.005	0.0135894
956.083	0.0136028
956.161	0.0136694
956.239	0.0136060
956.318	0.0137363
956.396	0.0137888
956.474	0.0135863
956.552	0.0136795
956.630	0.0137801
956.708	0.0136920
956.786	0.0136774
956.864	0.0136066
956.943	0.0138841
957.021	0.0136471
957.099	0.0136805
957.177	0.0137720
957.255	0.0137337
957.333	0.0136501
957.411	0.0136647
957.489	0.0136637
957.568	0.0137409
957.646	0.0137273
957.724	0.0135625
957.802	0.0136235
957.880	0.0137154
957.958	0.0136665
958.036	0.0135752
958.114	0.0135334
958.193	0.0135752
958.271	0.0134760
958.349	0.0134674
958.427	0.0135155
958.505	0.0133612
958.583	0.0134212
958.661	0.0134442
958.739	0.0134127
958.818	0.0132568
958.896	0.0133752
958.974	0.0133572
959.052	0.0134016
959.130	0.0134308
959.208	0.0133910
959.286	0.0134776
959.364	0.0132845
959.443	0.0134010
959.521	0.0134523
959.599	0.0134673
959.677	0.0134264
959.755	0.0134462
959.833	0.0134977
959.911	0.0136849
