05/14/2022	16:40:07	Ver.	4.1	UNKNOWN
Optical Delay	639.989416	Delta X		0.078125	Sweeps	1	Scan Rate	0/0
Coordinates	Axis 1	NaN	Axis 2	NaN	Axis 3	NaN	Axis 4	NaN	Axis 5	NaN	Axis 6	0.000000
TX Power	0.000000	RX Power	0.000000

639.989	0.0136190
640.068	0.0136237
640.146	0.0136230
640.224	0.0135641
640.302	0.0136406
640.380	0.0136491
640.458	0.0134684
640.536	0.0135390
640.614	0.0136681
640.693	0.0136009
640.771	0.0136880
640.849	0.0136020
640.927	0.0136681
641.005	0.0137357
641.083	0.0136536
641.161	0.0135580
641.239	0.0137797
641.318	0.0136619
641.396	0.0135548
641.474	0.0134560
641.552	0.0136344
641.630	0.0136414
641.708	0.0135953
641.786	0.0136206
641.864	0.0136223
641.943	0.0136142
642.021	0.0136928
642.099	0.0136279
642.177	0.0135043
642.255	0.0136865
642.333	0.0136889
642.411	0.0135184
642.489	0.0136676
642.568	0.0136291
642.646	0.0136082
642.724	0.0135586
642.802	0.0136710
642.880	0.0136132
642.958	0.0133833
643.036	0.0136614
643.114	0.0137703
643.193	0.0136043
643.271	0.0135505
643.349	0.0136849
643.427	0.0136921
643.505	0.0136200
643.583	0.0137005
643.661	0.0134995
643.739	0.0134808
643.818	0.0136447
643.896	0.0134473
643.974	0.0135938
644.052	0.0135502
644.130	0.0135146
644.208	0.0136733
644.286	0.0136657
644.364	0.0136295
644.443	0.0136179
644.521	0.0136838
644.599	0.0136054
644.677	0.0135999
644.755	0.0137039
644.833	0.0135896
644.911	0.0137283
644.989	0.0135413
645.068	0.0136669
645.146	0.0136479
645.224	0.0136668
645.302	0.0135591
645.380	0.0135304
645.458	0.0136266
645.536	0.0135578
645.614	0.0136018
645.693	0.0135480
645.771	0.0135805
645.849	0.0135487
645.927	0.0134865
646.005	0.0136100
646.083	0.0137055
646.161	0.0135461
646.239	0.0135559
646.318	0.0135708
646.396	0.0136042
646.474	0.0135461
646.552	0.0137473
646.630	0.0136562
646.708	0.0135109
646.786	0.0136321
646.864	0.0135737
646.943	0.0135867
647.021	0.0135056
647.099	0.0134793
647.177	0.0135318
647.255	0.0136082
647.333	0.0135793
647.411	0.0136793
647.489	0.0137344
647.568	0.0135684
647.646	0.0135851
647.724	0.0135802
647.802	0.0135710
647.880	0.0136666
647.958	0.0136370
648.036	0.0135788
648.114	0.0136201
648.193	0.0136550
648.271	0.0136537
648.349	0.0136377
648.427	0.0134621
648.505	0.0137574
648.583	0.0135973
648.661	0.0135325
648.739	0.0134728
648.818	0.0135647
648.896	0.0137610
648.974	0.0134595
649.052	0.0136546
649.130	0.0137175
649.208	0.0136244
649.286	0.0136069
649.364	0.0135811
649.443	0.0135697
649.521	0.0135451
649.599	0.0136262
649.677	0.0134776
649.755	0.0135104
649.833	0.0135999
649.911	0.0135986
649.989	0.0135421
650.068	0.0135999
650.146	0.0136644
650.224	0.0136326
650.302	0.0135955
650.380	0.0136778
650.458	0.0135752
650.536	0.0135226
650.614	0.0136474
650.693	0.0137465
650.771	0.0137958
650.849	0.0136812
650.927	0.0136150
651.005	0.0136311
651.083	0.0136958
651.161	0.0136378
651.239	0.0137013
651.318	0.0136057
651.396	0.0137302
651.474	0.0137032
651.552	0.0137120
651.630	0.0137579
651.708	0.0135524
651.786	0.0136417
651.864	0.0137533
651.943	0.0137333
652.021	0.0136263
652.099	0.0136133
652.177	0.0136089
652.255	0.0136862
652.333	0.0137392
652.411	0.0136798
652.489	0.0137337
652.568	0.0136593
652.646	0.0136992
652.724	0.0138295
652.802	0.0135159
652.880	0.0136308
652.958	0.0138049
653.036	0.0137148
653.114	0.0136260
653.193	0.0136813
653.271	0.0137919
653.349	0.0138106
653.427	0.0136138
653.505	0.0135512
653.583	0.0137039
653.661	0.0136174
653.739	0.0136261
653.818	0.0136894
653.896	0.0136964
653.974	0.0137267
654.052	0.0135841
654.130	0.0136513
654.208	0.0136578
654.286	0.0137753
654.364	0.0136072
654.443	0.0135854
654.521	0.0137895
654.599	0.0136078
654.677	0.0135622
654.755	0.0137405
654.833	0.0137097
654.911	0.0137059
654.989	0.0136825
655.068	0.0136511
655.146	0.0137575
655.224	0.0136420
655.302	0.0136582
655.380	0.0137004
655.458	0.0137052
655.536	0.0137508
655.614	0.0137715
655.693	0.0137754
655.771	0.0135892
655.849	0.0137180
655.927	0.0137565
656.005	0.0136705
656.083	0.0136306
656.161	0.0137334
656.239	0.0138802
656.318	0.0137219
656.396	0.0136132
656.474	0.0138243
656.552	0.0137584
656.630	0.0135947
656.708	0.0137732
656.786	0.0137213
656.864	0.0137369
656.943	0.0137294
657.021	0.0136147
657.099	0.0135303
657.177	0.0136902
657.255	0.0136815
657.333	0.0136370
657.411	0.0136607
657.489	0.0136297
657.568	0.0135060
657.646	0.0136410
657.724	0.0136617
657.802	0.0137093
657.880	0.0137029
657.958	0.0137530
658.036	0.0136017
658.114	0.0135909
658.193	0.0136639
658.271	0.0137689
658.349	0.0135826
658.427	0.0136938
658.505	0.0138337
658.583	0.0137528
658.661	0.0136916
658.739	0.0137347
658.818	0.0136310
658.896	0.0137867
658.974	0.0136182
659.052	0.0136711
659.130	0.0136018
659.208	0.0136493
659.286	0.0137331
659.364	0.0137043
659.443	0.0136195
659.521	0.0135883
659.599	0.0134971
659.677	0.0137861
659.755	0.0138976
659.833	0.0136929
659.911	0.0137315
659.989	0.0135777
660.068	0.0137592
660.146	0.0139004
660.224	0.0137070
660.302	0.0136036
660.380	0.0136663
660.458	0.0136333
660.536	0.0136469
660.614	0.0137387
660.693	0.0136867
660.771	0.0137508
660.849	0.0135823
660.927	0.0136436
661.005	0.0135937
661.083	0.0136348
661.161	0.0136558
661.239	0.0135956
661.318	0.0135333
661.396	0.0135474
661.474	0.0135223
661.552	0.0137077
661.630	0.0136845
661.708	0.0136496
661.786	0.0136021
661.864	0.0136065
661.943	0.0135410
662.021	0.0136812
662.099	0.0137093
662.177	0.0136868
662.255	0.0136588
662.333	0.0135882
662.411	0.0136665
662.489	0.0136182
662.568	0.0137189
662.646	0.0135342
662.724	0.0135121
662.802	0.0137176
662.880	0.0137336
662.958	0.0136488
663.036	0.0135487
663.114	0.0136582
663.193	0.0136863
663.271	0.0137268
663.349	0.0136051
663.427	0.0134624
663.505	0.0136227
663.583	0.0138089
663.661	0.0137186
663.739	0.0135979
663.818	0.0136977
663.896	0.0136200
663.974	0.0136571
664.052	0.0136669
664.130	0.0136669
664.208	0.0136327
664.286	0.0134230
664.364	0.0135706
664.443	0.0136562
664.521	0.0137150
664.599	0.0136748
664.677	0.0136274
664.755	0.0138081
664.833	0.0135860
664.911	0.0136163
664.989	0.0136743
665.068	0.0136634
665.146	0.0137124
665.224	0.0135857
665.302	0.0136107
665.380	0.0135358
665.458	0.0136164
665.536	0.0136662
665.614	0.0137904
665.693	0.0134932
665.771	0.0136626
665.849	0.0137058
665.927	0.0135786
666.005	0.0136172
666.083	0.0136657
666.161	0.0137137
666.239	0.0136172
666.318	0.0135210
666.396	0.0136476
666.474	0.0136027
666.552	0.0134984
666.630	0.0136406
666.708	0.0135989
666.786	0.0137759
666.864	0.0136983
666.943	0.0136900
667.021	0.0136431
667.099	0.0136093
667.177	0.0137164
667.255	0.0137344
667.333	0.0136721
667.411	0.0136560
667.489	0.0136324
667.568	0.0135812
667.646	0.0136351
667.724	0.0138061
667.802	0.0136913
667.880	0.0136852
667.958	0.0136758
668.036	0.0137537
668.114	0.0134689
668.193	0.0137265
668.271	0.0136253
668.349	0.0136117
668.427	0.0135585
668.505	0.0136831
668.583	0.0136530
668.661	0.0136491
668.739	0.0136398
668.818	0.0136985
668.896	0.0137433
668.974	0.0137002
669.052	0.0138114
669.130	0.0138092
669.208	0.0139072
669.286	0.0137779
669.364	0.0137972
669.443	0.0140054
669.521	0.0138116
669.599	0.0137870
669.677	0.0137213
669.755	0.0136079
669.833	0.0137489
669.911	0.0137239
669.989	0.0138073
670.068	0.0136996
670.146	0.0136940
670.224	0.0136859
670.302	0.0137115
670.380	0.0136120
670.458	0.0137048
670.536	0.0137397
670.614	0.0137051
670.693	0.0136413
670.771	0.0136702
670.849	0.0136477
670.927	0.0137594
671.005	0.0136568
671.083	0.0137067
671.161	0.0137010
671.239	0.0136954
671.318	0.0139137
671.396	0.0138879
671.474	0.0138343
671.552	0.0137093
671.630	0.0137219
671.708	0.0137575
671.786	0.0137804
671.864	0.0137023
671.943	0.0139258
672.021	0.0136977
672.099	0.0139165
672.177	0.0138505
672.255	0.0136835
672.333	0.0139409
672.411	0.0139239
672.489	0.0138481
672.568	0.0137954
672.646	0.0139007
672.724	0.0138247
672.802	0.0139544
672.880	0.0138004
672.958	0.0139936
673.036	0.0139459
673.114	0.0138348
673.193	0.0137645
673.271	0.0136710
673.349	0.0137312
673.427	0.0136732
673.505	0.0135754
673.583	0.0135871
673.661	0.0135020
673.739	0.0135409
673.818	0.0134662
673.896	0.0133192
673.974	0.0133874
674.052	0.0133727
674.130	0.0134499
674.208	0.0134071
674.286	0.0132177
674.364	0.0132905
674.443	0.0133553
674.521	0.0134303
674.599	0.0134888
674.677	0.0135556
674.755	0.0135841
674.833	0.0138323
674.911	0.0137428
674.989	0.0138908
675.068	0.0140372
675.146	0.0139397
675.224	0.0142001
675.302	0.0140849
675.380	0.0142391
675.458	0.0144238
675.536	0.0144184
675.614	0.0145772
675.693	0.0144788
675.771	0.0145200
675.849	0.0143382
675.927	0.0144091
676.005	0.0143662
676.083	0.0143140
676.161	0.0141855
676.239	0.0139959
676.318	0.0139880
676.396	0.0136248
676.474	0.0135168
676.552	0.0133792
676.630	0.0131860
676.708	0.0130128
676.786	0.0128741
676.864	0.0128381
676.943	0.0127221
677.021	0.0125707
677.099	0.0123589
677.177	0.0123590
677.255	0.0123039
677.333	0.0122933
677.411	0.0122424
677.489	0.0125111
677.568	0.0125896
677.646	0.0126398
677.724	0.0128662
677.802	0.0131155
677.880	0.0131207
677.958	0.0132888
678.036	0.0137152
678.114	0.0139407
678.193	0.0142182
678.271	0.0145123
678.349	0.0146941
678.427	0.0148335
678.505	0.0151424
678.583	0.0153101
678.661	0.0154203
678.739	0.0156246
678.818	0.0156274
678.896	0.0156651
678.974	0.0157259
679.052	0.0156883
679.130	0.0156749
679.208	0.0155534
679.286	0.0154673
679.364	0.0150938
679.443	0.0149710
679.521	0.0146707
679.599	0.0143748
679.677	0.0141367
679.755	0.0137697
679.833	0.0132395
679.911	0.0130687
679.989	0.0127023
680.068	0.0124170
680.146	0.0121135
680.224	0.0118043
680.302	0.0114488
680.380	0.0112418
680.458	0.0110080
680.536	0.0108966
680.614	0.0107079
680.693	0.0106487
680.771	0.0107926
680.849	0.0109148
680.927	0.0110709
681.005	0.0110226
681.083	0.0113480
681.161	0.0116459
681.239	0.0119989
681.318	0.0122470
681.396	0.0126983
681.474	0.0131731
681.552	0.0136119
681.630	0.0140173
681.708	0.0143654
681.786	0.0148999
681.864	0.0153314
681.943	0.0157494
682.021	0.0160433
682.099	0.0163876
682.177	0.0167734
682.255	0.0170506
682.333	0.0171767
682.411	0.0172388
682.489	0.0172566
682.568	0.0173299
682.646	0.0172095
682.724	0.0169552
682.802	0.0168023
682.880	0.0164947
682.958	0.0161868
683.036	0.0157824
683.114	0.0152745
683.193	0.0149356
683.271	0.0145712
683.349	0.0141061
683.427	0.0136122
683.505	0.0129802
683.583	0.0126707
683.661	0.0121360
683.739	0.0118365
683.818	0.0113573
683.896	0.0109882
683.974	0.0106095
684.052	0.0104107
684.130	0.0102271
684.208	0.00989937
684.286	0.00977539
684.364	0.00978737
684.443	0.00983055
684.521	0.0100392
684.599	0.0100125
684.677	0.0101559
684.755	0.0103532
684.833	0.0107776
684.911	0.0113275
684.989	0.0115183
685.068	0.0120841
685.146	0.0125535
685.224	0.0130663
685.302	0.0134872
685.380	0.0140604
685.458	0.0145959
685.536	0.0150672
685.614	0.0156247
685.693	0.0159678
685.771	0.0164791
685.849	0.0167195
685.927	0.0169737
686.005	0.0173023
686.083	0.0175053
686.161	0.0175431
686.239	0.0178355
686.318	0.0178131
686.396	0.0176924
686.474	0.0176343
686.552	0.0174140
686.630	0.0172052
686.708	0.0169688
686.786	0.0165592
686.864	0.0163377
686.943	0.0159946
687.021	0.0153838
687.099	0.0150012
687.177	0.0144747
687.255	0.0139633
687.333	0.0134560
687.411	0.0130171
687.489	0.0126256
687.568	0.0120200
687.646	0.0115847
687.724	0.0112176
687.802	0.0108839
687.880	0.0107807
687.958	0.0104372
688.036	0.0102299
688.114	0.0102260
688.193	0.0101881
688.271	0.0100646
688.349	0.0102286
688.427	0.0103541
688.505	0.0105842
688.583	0.0106305
688.661	0.0109705
688.739	0.0113477
688.818	0.0117988
688.896	0.0120999
688.974	0.0123344
689.052	0.0129599
689.130	0.0133253
689.208	0.0138023
689.286	0.0142728
689.364	0.0145770
689.443	0.0150089
689.521	0.0153989
689.599	0.0155334
689.677	0.0157144
689.755	0.0160716
689.833	0.0162148
689.911	0.0163258
689.989	0.0163043
690.068	0.0164963
690.146	0.0164603
690.224	0.0163898
690.302	0.0161922
690.380	0.0160391
690.458	0.0158336
690.536	0.0158315
690.614	0.0156169
690.693	0.0151530
690.771	0.0149386
690.849	0.0147752
690.927	0.0143973
691.005	0.0141948
691.083	0.0140652
691.161	0.0138174
691.239	0.0134150
691.318	0.0131223
691.396	0.0131593
691.474	0.0128040
691.552	0.0127412
691.630	0.0125628
691.708	0.0123381
691.786	0.0124850
691.864	0.0124036
691.943	0.0123513
692.021	0.0124969
692.099	0.0126469
692.177	0.0125310
692.255	0.0127578
692.333	0.0129050
692.411	0.0128770
692.489	0.0131601
692.568	0.0132753
692.646	0.0132804
692.724	0.0134691
692.802	0.0135747
692.880	0.0137934
692.958	0.0139190
693.036	0.0139650
693.114	0.0140097
693.193	0.0140958
693.271	0.0139589
693.349	0.0141916
693.427	0.0140057
693.505	0.0140626
693.583	0.0139520
693.661	0.0138046
693.739	0.0137624
693.818	0.0139070
693.896	0.0139297
693.974	0.0138713
694.052	0.0135722
694.130	0.0136559
694.208	0.0135004
694.286	0.0134984
694.364	0.0135801
694.443	0.0135242
694.521	0.0134522
694.599	0.0134761
694.677	0.0132874
694.755	0.0133636
694.833	0.0133451
694.911	0.0134654
694.989	0.0133443
695.068	0.0132899
695.146	0.0133214
695.224	0.0133043
695.302	0.0135771
695.380	0.0133051
695.458	0.0132330
695.536	0.0134006
695.614	0.0134617
695.693	0.0134986
695.771	0.0136384
695.849	0.0136396
695.927	0.0136295
696.005	0.0136748
696.083	0.0138642
696.161	0.0139845
696.239	0.0140664
696.318	0.0142472
696.396	0.0143260
696.474	0.0145692
696.552	0.0146640
696.630	0.0147323
696.708	0.0147945
696.786	0.0150201
696.864	0.0150208
696.943	0.0152644
697.021	0.0153111
697.099	0.0153999
697.177	0.0155313
697.255	0.0156293
697.333	0.0154427
697.411	0.0153648
697.489	0.0152958
697.568	0.0150298
697.646	0.0151082
697.724	0.0148560
697.802	0.0146877
697.880	0.0144925
697.958	0.0143682
698.036	0.0140579
698.114	0.0135696
698.193	0.0132940
698.271	0.0130478
698.349	0.0127448
698.427	0.0123778
698.505	0.0121831
698.583	0.0119286
698.661	0.0116767
698.739	0.0114029
698.818	0.0114455
698.896	0.0113889
698.974	0.0112098
699.052	0.0109534
699.130	0.0111567
699.208	0.0109805
699.286	0.0110397
699.364	0.0112759
699.443	0.0113916
699.521	0.0116061
699.599	0.0115828
699.677	0.0118489
699.755	0.0122131
699.833	0.0125001
699.911	0.0128046
699.989	0.0130297
700.068	0.0135111
700.146	0.0137031
700.224	0.0140530
700.302	0.0145705
700.380	0.0147733
700.458	0.0149802
700.536	0.0152909
700.614	0.0156740
700.693	0.0157682
700.771	0.0158569
700.849	0.0160212
700.927	0.0163043
701.005	0.0164203
701.083	0.0163557
701.161	0.0163362
701.239	0.0164104
701.318	0.0162881
701.396	0.0161889
701.474	0.0160530
701.552	0.0158917
701.630	0.0156442
701.708	0.0156466
701.786	0.0152291
701.864	0.0149369
701.943	0.0147361
702.021	0.0144282
702.099	0.0141780
702.177	0.0138178
702.255	0.0135538
702.333	0.0132977
702.411	0.0129585
702.489	0.0126319
702.568	0.0126189
702.646	0.0122792
702.724	0.0119557
702.802	0.0118919
702.880	0.0116566
702.958	0.0115645
703.036	0.0115455
703.114	0.0114507
703.193	0.0112991
703.271	0.0113239
703.349	0.0113667
703.427	0.0114804
703.505	0.0115919
703.583	0.0115700
703.661	0.0117052
703.739	0.0119081
703.818	0.0118961
703.896	0.0121468
703.974	0.0122431
704.052	0.0125127
704.130	0.0127585
704.208	0.0129342
704.286	0.0130153
704.364	0.0132555
704.443	0.0135212
704.521	0.0137057
704.599	0.0138380
704.677	0.0140833
704.755	0.0143560
704.833	0.0145322
704.911	0.0147021
704.989	0.0148731
705.068	0.0151595
705.146	0.0151675
705.224	0.0154390
705.302	0.0155149
705.380	0.0155817
705.458	0.0155709
705.536	0.0156641
705.614	0.0157559
705.693	0.0157747
705.771	0.0156227
705.849	0.0155038
705.927	0.0155508
706.005	0.0152823
706.083	0.0151047
706.161	0.0151068
706.239	0.0147665
706.318	0.0145263
706.396	0.0144321
706.474	0.0140646
706.552	0.0137411
706.630	0.0136288
706.708	0.0133320
706.786	0.0131634
706.864	0.0129224
706.943	0.0126414
707.021	0.0124742
707.099	0.0123338
707.177	0.0121341
707.255	0.0120426
707.333	0.0119625
707.411	0.0118900
707.489	0.0118385
707.568	0.0117429
707.646	0.0117194
707.724	0.0117022
707.802	0.0118039
707.880	0.0118906
707.958	0.0119460
708.036	0.0119930
708.114	0.0123694
708.193	0.0123441
708.271	0.0126933
708.349	0.0128436
708.427	0.0132507
708.505	0.0132304
708.583	0.0136006
708.661	0.0138132
708.739	0.0139042
708.818	0.0141805
708.896	0.0143729
708.974	0.0144955
709.052	0.0146011
709.130	0.0147663
709.208	0.0148479
709.286	0.0149953
709.364	0.0150554
709.443	0.0151374
709.521	0.0151251
709.599	0.0149370
709.677	0.0150428
709.755	0.0148479
709.833	0.0147929
709.911	0.0146912
709.989	0.0145908
710.068	0.0144540
710.146	0.0143375
710.224	0.0140697
710.302	0.0140759
710.380	0.0138887
710.458	0.0137861
710.536	0.0138369
710.614	0.0136682
710.693	0.0136541
710.771	0.0136086
710.849	0.0135789
710.927	0.0135216
711.005	0.0134734
711.083	0.0134772
711.161	0.0135968
711.239	0.0134600
711.318	0.0133218
711.396	0.0133994
711.474	0.0133269
711.552	0.0132060
711.630	0.0130934
711.708	0.0129682
711.786	0.0129004
711.864	0.0127038
711.943	0.0125980
712.021	0.0125062
712.099	0.0125621
712.177	0.0124883
712.255	0.0123789
712.333	0.0123850
712.411	0.0121197
712.489	0.0123730
712.568	0.0124137
712.646	0.0123677
712.724	0.0125338
712.802	0.0125210
712.880	0.0126137
712.958	0.0128735
713.036	0.0131002
713.114	0.0133854
713.193	0.0134633
713.271	0.0136623
713.349	0.0138060
713.427	0.0141331
713.505	0.0142871
713.583	0.0144981
713.661	0.0145591
713.739	0.0146783
713.818	0.0148812
713.896	0.0149584
713.974	0.0151378
714.052	0.0151935
714.130	0.0151292
714.208	0.0150541
714.286	0.0152246
714.364	0.0150805
714.443	0.0149509
714.521	0.0149534
714.599	0.0147404
714.677	0.0146584
714.755	0.0146294
714.833	0.0145981
714.911	0.0144949
714.989	0.0142833
715.068	0.0139825
715.146	0.0136809
715.224	0.0136308
715.302	0.0135036
715.380	0.0135115
715.458	0.0132764
715.536	0.0133048
715.614	0.0131570
715.693	0.0130163
715.771	0.0130775
715.849	0.0128891
715.927	0.0128680
716.005	0.0128992
716.083	0.0128222
716.161	0.0127824
716.239	0.0129503
716.318	0.0129977
716.396	0.0129389
716.474	0.0131150
716.552	0.0131530
716.630	0.0131861
716.708	0.0134222
716.786	0.0133022
716.864	0.0134753
716.943	0.0135632
717.021	0.0136395
717.099	0.0136547
717.177	0.0136067
717.255	0.0135738
717.333	0.0137868
717.411	0.0139180
717.489	0.0138255
717.568	0.0137761
717.646	0.0138322
717.724	0.0137642
717.802	0.0136988
717.880	0.0135811
717.958	0.0137398
718.036	0.0135931
718.114	0.0136258
718.193	0.0134984
718.271	0.0132350
718.349	0.0134514
718.427	0.0134885
718.505	0.0133816
718.583	0.0131889
718.661	0.0132410
718.739	0.0132927
718.818	0.0133942
718.896	0.0132637
718.974	0.0132883
719.052	0.0134722
719.130	0.0135696
719.208	0.0135511
719.286	0.0136018
719.364	0.0136646
719.443	0.0138418
719.521	0.0140231
719.599	0.0140878
719.677	0.0140644
719.755	0.0142422
719.833	0.0145422
719.911	0.0144321
719.989	0.0145282
720.068	0.0145815
720.146	0.0146553
720.224	0.0146430
720.302	0.0147852
720.380	0.0147194
720.458	0.0147729
720.536	0.0149191
720.614	0.0146606
720.693	0.0147151
720.771	0.0147145
720.849	0.0145766
720.927	0.0145346
721.005	0.0146029
721.083	0.0145016
721.161	0.0142725
721.239	0.0142393
721.318	0.0142158
721.396	0.0141628
721.474	0.0140319
721.552	0.0137938
721.630	0.0138205
721.708	0.0136654
721.786	0.0135021
721.864	0.0133915
721.943	0.0135110
722.021	0.0134232
722.099	0.0132011
722.177	0.0131319
722.255	0.0129370
722.333	0.0129306
722.411	0.0129186
722.489	0.0128449
722.568	0.0128631
722.646	0.0126917
722.724	0.0126331
722.802	0.0126205
722.880	0.0127242
722.958	0.0126472
723.036	0.0125739
723.114	0.0126014
723.193	0.0127242
723.271	0.0127781
723.349	0.0126893
723.427	0.0125945
723.505	0.0125555
723.583	0.0125861
723.661	0.0127646
723.739	0.0127232
723.818	0.0128313
723.896	0.0128362
723.974	0.0129414
724.052	0.0128547
724.130	0.0129962
724.208	0.0131405
724.286	0.0130023
724.364	0.0134071
724.443	0.0133681
724.521	0.0134820
724.599	0.0136198
724.677	0.0139542
724.755	0.0137846
724.833	0.0139967
724.911	0.0141598
724.989	0.0142606
725.068	0.0143702
725.146	0.0145751
725.224	0.0147556
725.302	0.0147363
725.380	0.0150425
725.458	0.0151012
725.536	0.0151399
725.614	0.0151167
725.693	0.0152076
725.771	0.0151699
725.849	0.0152583
725.927	0.0152486
726.005	0.0151974
726.083	0.0150220
726.161	0.0149075
726.239	0.0148559
726.318	0.0146336
726.396	0.0146490
726.474	0.0144682
726.552	0.0142412
726.630	0.0141259
726.708	0.0140639
726.786	0.0137363
726.864	0.0136861
726.943	0.0135177
727.021	0.0134158
727.099	0.0134652
727.177	0.0132111
727.255	0.0130699
727.333	0.0131077
727.411	0.0130592
727.489	0.0128870
727.568	0.0129518
727.646	0.0129502
727.724	0.0128712
727.802	0.0128221
727.880	0.0128716
727.958	0.0128097
728.036	0.0127071
728.114	0.0127058
728.193	0.0127126
728.271	0.0126091
728.349	0.0127577
728.427	0.0127760
728.505	0.0127139
728.583	0.0127180
728.661	0.0127243
728.739	0.0126620
728.818	0.0128101
728.896	0.0127354
728.974	0.0128901
729.052	0.0129720
729.130	0.0131319
729.208	0.0130773
729.286	0.0131620
729.364	0.0133808
729.443	0.0133295
729.521	0.0134978
729.599	0.0136662
729.677	0.0137157
729.755	0.0137099
729.833	0.0137993
729.911	0.0139130
729.989	0.0140334
730.068	0.0138992
730.146	0.0137964
730.224	0.0140444
730.302	0.0141397
730.380	0.0139548
730.458	0.0140825
730.536	0.0140515
730.614	0.0140884
730.693	0.0141815
730.771	0.0140521
730.849	0.0140922
730.927	0.0141945
731.005	0.0141081
731.083	0.0140607
731.161	0.0142454
731.239	0.0141622
731.318	0.0140884
731.396	0.0143242
731.474	0.0140646
731.552	0.0140328
731.630	0.0141116
731.708	0.0141541
731.786	0.0139456
731.864	0.0140243
731.943	0.0139649
732.021	0.0139350
732.099	0.0139368
732.177	0.0136884
732.255	0.0138226
732.333	0.0137617
732.411	0.0136544
732.489	0.0134673
732.568	0.0135130
732.646	0.0135071
732.724	0.0135216
732.802	0.0134883
732.880	0.0134655
732.958	0.0133009
733.036	0.0134232
733.114	0.0134697
733.193	0.0136138
733.271	0.0136238
733.349	0.0134012
733.427	0.0134633
733.505	0.0136476
733.583	0.0136012
733.661	0.0136221
733.739	0.0138035
733.818	0.0136027
733.896	0.0136542
733.974	0.0136797
734.052	0.0136190
734.130	0.0135133
734.208	0.0135601
734.286	0.0134274
734.364	0.0133686
734.443	0.0132343
734.521	0.0132838
734.599	0.0130790
734.677	0.0130940
734.755	0.0131304
734.833	0.0131329
734.911	0.0129179
734.989	0.0127867
735.068	0.0128648
735.146	0.0129298
735.224	0.0129255
735.302	0.0129338
735.380	0.0128626
735.458	0.0131175
735.536	0.0131033
735.614	0.0130112
735.693	0.0130328
735.771	0.0132686
735.849	0.0133731
735.927	0.0132586
736.005	0.0133258
736.083	0.0134175
736.161	0.0135462
736.239	0.0135674
736.318	0.0136783
736.396	0.0136249
736.474	0.0136774
736.552	0.0137065
736.630	0.0137639
736.708	0.0139068
736.786	0.0138886
736.864	0.0139699
736.943	0.0140404
737.021	0.0139018
737.099	0.0140478
737.177	0.0139703
737.255	0.0140543
737.333	0.0141425
737.411	0.0141898
737.489	0.0139722
737.568	0.0140694
737.646	0.0140610
737.724	0.0139790
737.802	0.0140356
737.880	0.0139034
737.958	0.0139416
738.036	0.0138770
738.114	0.0137432
738.193	0.0139058
738.271	0.0137886
738.349	0.0137965
738.427	0.0138836
738.505	0.0139896
738.583	0.0137789
738.661	0.0138318
738.739	0.0138926
738.818	0.0138515
738.896	0.0139425
738.974	0.0138272
739.052	0.0138329
739.130	0.0140129
739.208	0.0138779
739.286	0.0138250
739.364	0.0138355
739.443	0.0137677
739.521	0.0137890
739.599	0.0137947
739.677	0.0137114
739.755	0.0135733
739.833	0.0136859
739.911	0.0136246
739.989	0.0133102
740.068	0.0134366
740.146	0.0133340
740.224	0.0134019
740.302	0.0130621
740.380	0.0130634
740.458	0.0130318
740.536	0.0130580
740.614	0.0129196
740.693	0.0130324
740.771	0.0128916
740.849	0.0128363
740.927	0.0128281
741.005	0.0128537
741.083	0.0127396
741.161	0.0127754
741.239	0.0129641
741.318	0.0131016
741.396	0.0130766
741.474	0.0131405
741.552	0.0133355
741.630	0.0133375
741.708	0.0135076
741.786	0.0135767
741.864	0.0135883
741.943	0.0137251
742.021	0.0137546
742.099	0.0140272
742.177	0.0139753
742.255	0.0139788
742.333	0.0139079
742.411	0.0141508
742.489	0.0139030
742.568	0.0141010
742.646	0.0140649
742.724	0.0139653
742.802	0.0140183
742.880	0.0140523
742.958	0.0139298
743.036	0.0138583
743.114	0.0139129
743.193	0.0140094
743.271	0.0140018
743.349	0.0138895
743.427	0.0138413
743.505	0.0139861
743.583	0.0139337
743.661	0.0138078
743.739	0.0138580
743.818	0.0138878
743.896	0.0139186
743.974	0.0138902
744.052	0.0138492
744.130	0.0138650
744.208	0.0138064
744.286	0.0138571
744.364	0.0139249
744.443	0.0139459
744.521	0.0138548
744.599	0.0137167
744.677	0.0137691
744.755	0.0138309
744.833	0.0138335
744.911	0.0138326
744.989	0.0138559
745.068	0.0138281
745.146	0.0135434
745.224	0.0136899
745.302	0.0137566
745.380	0.0135269
745.458	0.0134869
745.536	0.0135173
745.614	0.0135371
745.693	0.0134500
745.771	0.0135052
745.849	0.0134722
745.927	0.0132838
746.005	0.0132964
746.083	0.0134309
746.161	0.0132605
746.239	0.0133614
746.318	0.0133990
746.396	0.0132666
746.474	0.0132436
746.552	0.0132134
746.630	0.0131856
746.708	0.0132823
746.786	0.0131970
746.864	0.0132839
746.943	0.0133059
747.021	0.0133569
747.099	0.0133044
747.177	0.0133640
747.255	0.0134509
747.333	0.0135021
747.411	0.0134909
747.489	0.0135027
747.568	0.0136868
747.646	0.0138006
747.724	0.0137511
747.802	0.0138879
747.880	0.0139255
747.958	0.0140321
748.036	0.0139702
748.114	0.0139742
748.193	0.0141381
748.271	0.0141599
748.349	0.0140451
748.427	0.0141096
748.505	0.0139907
748.583	0.0140133
748.661	0.0140629
748.739	0.0139408
748.818	0.0140154
748.896	0.0138905
748.974	0.0139821
749.052	0.0139155
749.130	0.0139497
749.208	0.0139053
749.286	0.0138191
749.364	0.0138573
749.443	0.0138383
749.521	0.0138535
749.599	0.0138787
749.677	0.0140508
749.755	0.0138863
749.833	0.0139243
749.911	0.0139392
749.989	0.0137847
750.068	0.0137251
750.146	0.0138766
750.224	0.0139104
750.302	0.0139098
750.380	0.0139399
750.458	0.0137717
750.536	0.0137330
750.614	0.0137154
750.693	0.0136288
750.771	0.0138028
750.849	0.0136684
750.927	0.0136915
751.005	0.0138210
751.083	0.0137287
751.161	0.0136021
751.239	0.0135799
751.318	0.0135297
751.396	0.0135258
751.474	0.0135590
751.552	0.0135349
751.630	0.0135443
751.708	0.0135342
751.786	0.0136015
751.864	0.0134731
751.943	0.0134555
752.021	0.0135047
752.099	0.0135580
752.177	0.0134721
752.255	0.0133163
752.333	0.0133792
752.411	0.0134242
752.489	0.0134514
752.568	0.0135379
752.646	0.0134911
752.724	0.0134134
752.802	0.0133801
752.880	0.0135056
752.958	0.0135920
753.036	0.0136621
753.114	0.0135622
753.193	0.0135308
753.271	0.0135580
753.349	0.0136098
753.427	0.0136313
753.505	0.0135813
753.583	0.0136578
753.661	0.0138255
753.739	0.0138925
753.818	0.0137941
753.896	0.0138481
753.974	0.0139426
754.052	0.0139721
754.130	0.0139806
754.208	0.0139815
754.286	0.0140904
754.364	0.0140176
754.443	0.0141272
754.521	0.0140528
754.599	0.0142554
754.677	0.0140143
754.755	0.0141775
754.833	0.0140389
754.911	0.0140066
754.989	0.0140913
755.068	0.0141328
755.146	0.0139322
755.224	0.0140164
755.302	0.0138540
755.380	0.0138434
755.458	0.0138243
755.536	0.0137263
755.614	0.0135968
755.693	0.0136306
755.771	0.0135536
755.849	0.0136363
755.927	0.0136346
756.005	0.0136397
756.083	0.0135637
756.161	0.0135229
756.239	0.0135124
756.318	0.0135111
756.396	0.0133920
756.474	0.0135827
756.552	0.0134960
756.630	0.0136008
756.708	0.0135301
756.786	0.0135107
756.864	0.0135910
756.943	0.0135545
757.021	0.0136230
757.099	0.0135784
757.177	0.0136658
757.255	0.0136954
757.333	0.0134438
757.411	0.0135205
757.489	0.0136239
757.568	0.0136762
757.646	0.0135686
757.724	0.0135890
757.802	0.0134251
757.880	0.0135257
757.958	0.0134441
758.036	0.0132858
758.114	0.0135647
758.193	0.0133967
758.271	0.0134897
758.349	0.0134910
758.427	0.0135375
758.505	0.0134153
758.583	0.0134279
758.661	0.0134336
758.739	0.0134900
758.818	0.0135297
758.896	0.0134415
758.974	0.0133536
759.052	0.0133643
759.130	0.0134064
759.208	0.0136205
759.286	0.0134872
759.364	0.0134425
759.443	0.0134141
759.521	0.0135966
759.599	0.0136897
759.677	0.0135404
759.755	0.0136525
759.833	0.0135962
759.911	0.0136342
759.989	0.0136887
760.068	0.0135995
760.146	0.0139071
760.224	0.0137043
760.302	0.0136406
760.380	0.0137108
760.458	0.0139352
760.536	0.0137561
760.614	0.0137756
760.693	0.0139574
760.771	0.0137782
760.849	0.0138183
760.927	0.0138168
761.005	0.0138325
761.083	0.0138124
761.161	0.0140636
761.239	0.0140245
761.318	0.0138078
761.396	0.0139677
761.474	0.0139415
761.552	0.0139874
761.630	0.0139028
761.708	0.0139487
761.786	0.0138487
761.864	0.0139789
761.943	0.0139063
762.021	0.0138625
762.099	0.0136903
762.177	0.0138138
762.255	0.0138956
762.333	0.0137415
762.411	0.0136306
762.489	0.0137451
762.568	0.0136704
762.646	0.0138012
762.724	0.0137206
762.802	0.0136362
762.880	0.0136651
762.958	0.0136550
763.036	0.0135070
763.114	0.0135356
763.193	0.0135400
763.271	0.0136021
763.349	0.0134782
763.427	0.0135324
763.505	0.0132560
763.583	0.0133017
763.661	0.0133380
763.739	0.0133426
763.818	0.0132222
763.896	0.0132328
763.974	0.0132002
764.052	0.0132744
764.130	0.0132760
764.208	0.0132175
764.286	0.0133452
764.364	0.0132565
764.443	0.0132263
764.521	0.0133158
764.599	0.0135356
764.677	0.0134760
764.755	0.0134358
764.833	0.0135550
764.911	0.0134667
764.989	0.0136771
765.068	0.0136279
765.146	0.0136105
765.224	0.0137347
765.302	0.0136618
765.380	0.0137389
765.458	0.0137061
765.536	0.0139041
765.614	0.0137103
765.693	0.0137582
765.771	0.0137373
765.849	0.0138885
765.927	0.0137627
766.005	0.0138741
766.083	0.0138860
766.161	0.0138791
766.239	0.0138328
766.318	0.0138349
766.396	0.0139203
766.474	0.0137151
766.552	0.0137444
766.630	0.0139208
766.708	0.0138184
766.786	0.0137867
766.864	0.0138991
766.943	0.0138335
767.021	0.0136903
767.099	0.0137611
767.177	0.0137056
767.255	0.0138351
767.333	0.0138797
767.411	0.0137933
767.489	0.0138654
767.568	0.0138223
767.646	0.0139220
767.724	0.0138653
767.802	0.0139326
767.880	0.0139233
767.958	0.0138116
768.036	0.0137436
768.114	0.0137470
768.193	0.0138989
768.271	0.0137359
768.349	0.0137495
768.427	0.0139104
768.505	0.0140372
768.583	0.0138142
768.661	0.0138846
768.739	0.0138871
768.818	0.0139673
768.896	0.0138616
768.974	0.0138920
769.052	0.0137757
769.130	0.0139133
769.208	0.0139322
769.286	0.0139394
769.364	0.0138628
769.443	0.0137218
769.521	0.0136691
769.599	0.0136107
769.677	0.0135600
769.755	0.0136462
769.833	0.0135618
769.911	0.0135310
769.989	0.0135979
770.068	0.0132947
770.146	0.0133839
770.224	0.0133981
770.302	0.0133925
770.380	0.0132858
770.458	0.0133155
770.536	0.0132538
770.614	0.0134294
770.693	0.0134428
770.771	0.0133549
770.849	0.0134114
770.927	0.0134505
771.005	0.0133864
771.083	0.0135687
771.161	0.0137056
771.239	0.0135519
771.318	0.0136696
771.396	0.0136659
771.474	0.0135836
771.552	0.0138328
771.630	0.0137349
771.708	0.0137747
771.786	0.0138535
771.864	0.0139688
771.943	0.0138476
772.021	0.0138115
772.099	0.0138860
772.177	0.0138818
772.255	0.0138941
772.333	0.0139587
772.411	0.0138943
772.489	0.0138892
772.568	0.0137856
772.646	0.0139643
772.724	0.0137951
772.802	0.0138936
772.880	0.0139645
772.958	0.0137870
773.036	0.0139185
773.114	0.0138169
773.193	0.0138490
773.271	0.0137777
773.349	0.0139916
773.427	0.0139262
773.505	0.0138223
773.583	0.0137991
773.661	0.0137594
773.739	0.0138313
773.818	0.0137185
773.896	0.0138864
773.974	0.0136491
774.052	0.0136914
774.130	0.0137075
774.208	0.0137923
774.286	0.0136722
774.364	0.0136713
774.443	0.0137081
774.521	0.0136515
774.599	0.0137583
774.677	0.0137115
774.755	0.0138418
774.833	0.0138128
774.911	0.0136977
774.989	0.0137981
775.068	0.0138349
775.146	0.0137953
775.224	0.0138915
775.302	0.0139591
775.380	0.0139056
775.458	0.0140047
775.536	0.0139478
775.614	0.0139619
775.693	0.0139117
775.771	0.0140052
775.849	0.0139660
775.927	0.0138896
776.005	0.0139883
776.083	0.0139526
776.161	0.0138435
776.239	0.0136729
776.318	0.0136985
776.396	0.0135907
776.474	0.0136397
776.552	0.0136203
776.630	0.0134839
776.708	0.0134315
776.786	0.0133024
776.864	0.0133208
776.943	0.0132391
777.021	0.0131069
777.099	0.0132337
777.177	0.0131799
777.255	0.0132257
777.333	0.0132366
777.411	0.0132353
777.489	0.0131345
777.568	0.0132978
777.646	0.0132748
777.724	0.0132014
777.802	0.0133769
777.880	0.0134009
777.958	0.0134856
778.036	0.0135724
778.114	0.0135425
778.193	0.0136410
778.271	0.0136691
778.349	0.0136424
778.427	0.0137067
778.505	0.0138889
778.583	0.0138460
778.661	0.0139199
778.739	0.0139793
778.818	0.0139545
778.896	0.0139742
778.974	0.0139465
779.052	0.0139859
779.130	0.0140016
779.208	0.0141637
779.286	0.0139385
779.364	0.0139203
779.443	0.0139499
779.521	0.0140749
779.599	0.0140287
779.677	0.0139625
779.755	0.0138247
779.833	0.0137829
779.911	0.0138212
779.989	0.0138348
780.068	0.0137904
780.146	0.0135928
780.224	0.0134669
780.302	0.0136748
780.380	0.0135949
780.458	0.0134860
780.536	0.0133481
780.614	0.0134488
780.693	0.0133056
780.771	0.0132613
780.849	0.0131893
780.927	0.0131290
781.005	0.0131702
781.083	0.0130983
781.161	0.0131790
781.239	0.0131827
781.318	0.0132375
781.396	0.0130715
781.474	0.0132569
781.552	0.0132625
781.630	0.0132816
781.708	0.0133921
781.786	0.0134115
781.864	0.0133591
781.943	0.0134964
782.021	0.0136300
782.099	0.0135908
782.177	0.0136674
782.255	0.0137108
782.333	0.0138510
782.411	0.0138260
782.489	0.0139896
782.568	0.0138509
782.646	0.0139706
782.724	0.0140142
782.802	0.0139858
782.880	0.0140324
782.958	0.0138872
783.036	0.0138376
783.114	0.0139935
783.193	0.0139642
783.271	0.0139766
783.349	0.0138647
783.427	0.0138465
783.505	0.0137124
783.583	0.0136433
783.661	0.0136716
783.739	0.0135284
783.818	0.0135538
783.896	0.0134942
783.974	0.0135811
784.052	0.0134008
784.130	0.0133410
784.208	0.0131532
784.286	0.0132117
784.364	0.0130806
784.443	0.0131920
784.521	0.0132146
784.599	0.0131389
784.677	0.0132813
784.755	0.0132314
784.833	0.0132614
784.911	0.0133332
784.989	0.0134042
785.068	0.0133039
785.146	0.0133944
785.224	0.0134908
785.302	0.0134004
785.380	0.0135870
785.458	0.0137052
785.536	0.0136787
785.614	0.0137020
785.693	0.0138116
785.771	0.0137780
785.849	0.0137865
785.927	0.0138974
786.005	0.0138406
786.083	0.0138235
786.161	0.0139994
786.239	0.0140197
786.318	0.0140738
786.396	0.0139204
786.474	0.0139885
786.552	0.0140308
786.630	0.0139483
786.708	0.0138669
786.786	0.0139079
786.864	0.0138548
786.943	0.0138543
787.021	0.0137612
787.099	0.0138210
787.177	0.0137904
787.255	0.0138087
787.333	0.0137823
787.411	0.0138041
787.489	0.0136402
787.568	0.0136269
787.646	0.0137167
787.724	0.0137720
787.802	0.0136369
787.880	0.0135172
787.958	0.0137142
788.036	0.0135770
788.114	0.0136930
788.193	0.0136450
788.271	0.0137197
788.349	0.0135416
788.427	0.0135024
788.505	0.0135802
788.583	0.0135917
788.661	0.0137431
788.739	0.0136522
788.818	0.0136624
788.896	0.0138215
788.974	0.0137424
789.052	0.0136398
789.130	0.0137458
789.208	0.0138280
789.286	0.0136516
789.364	0.0138773
789.443	0.0137743
789.521	0.0137354
789.599	0.0137565
789.677	0.0139207
789.755	0.0138777
789.833	0.0138519
789.911	0.0137636
789.989	0.0138042
790.068	0.0138799
790.146	0.0138841
790.224	0.0137309
790.302	0.0136897
790.380	0.0137297
790.458	0.0137315
790.536	0.0135765
790.614	0.0136069
790.693	0.0136088
790.771	0.0137645
790.849	0.0136082
790.927	0.0136571
791.005	0.0136989
791.083	0.0137036
791.161	0.0134905
791.239	0.0136565
791.318	0.0134965
791.396	0.0135491
791.474	0.0135342
791.552	0.0135482
791.630	0.0135048
791.708	0.0135477
791.786	0.0134496
791.864	0.0136101
791.943	0.0135995
792.021	0.0135062
792.099	0.0136342
792.177	0.0137007
792.255	0.0137021
792.333	0.0136380
792.411	0.0136441
792.489	0.0136530
792.568	0.0136873
792.646	0.0136575
792.724	0.0135751
792.802	0.0138486
792.880	0.0138822
792.958	0.0138056
793.036	0.0137711
793.114	0.0139216
793.193	0.0137265
793.271	0.0138527
793.349	0.0138356
793.427	0.0138995
793.505	0.0139892
793.583	0.0138548
793.661	0.0141734
793.739	0.0141256
793.818	0.0140161
793.896	0.0139579
793.974	0.0140520
794.052	0.0139501
794.130	0.0140154
794.208	0.0142757
794.286	0.0141984
794.364	0.0140725
794.443	0.0138789
794.521	0.0139790
794.599	0.0141515
794.677	0.0139278
794.755	0.0139477
794.833	0.0137942
794.911	0.0137703
794.989	0.0136098
795.068	0.0136668
795.146	0.0136447
795.224	0.0135696
795.302	0.0134908
795.380	0.0133895
795.458	0.0132928
795.536	0.0131340
795.614	0.0133233
795.693	0.0132285
795.771	0.0131821
795.849	0.0132510
795.927	0.0131730
796.005	0.0132073
796.083	0.0132363
796.161	0.0132410
796.239	0.0132703
796.318	0.0133080
796.396	0.0134092
796.474	0.0133625
796.552	0.0133031
796.630	0.0134662
796.708	0.0135464
796.786	0.0136668
796.864	0.0138332
796.943	0.0136974
797.021	0.0136472
797.099	0.0136213
797.177	0.0138651
797.255	0.0138508
797.333	0.0137344
797.411	0.0138255
797.489	0.0139022
797.568	0.0137698
797.646	0.0138744
797.724	0.0138148
797.802	0.0137907
797.880	0.0137702
797.958	0.0137479
798.036	0.0138847
798.114	0.0137663
798.193	0.0139227
798.271	0.0138042
798.349	0.0138503
798.427	0.0137767
798.505	0.0138022
798.583	0.0138471
798.661	0.0138634
798.739	0.0136869
798.818	0.0136811
798.896	0.0137881
798.974	0.0137364
799.052	0.0136117
799.130	0.0137417
799.208	0.0138181
799.286	0.0136179
799.364	0.0134888
799.443	0.0136295
799.521	0.0135590
799.599	0.0135239
799.677	0.0134655
799.755	0.0134004
799.833	0.0133777
799.911	0.0132962
799.989	0.0132587
800.068	0.0132880
800.146	0.0132433
800.224	0.0132269
800.302	0.0132761
800.380	0.0132187
800.458	0.0131834
800.536	0.0131625
800.614	0.0131639
800.693	0.0132059
800.771	0.0132175
800.849	0.0133263
800.927	0.0133202
801.005	0.0134697
801.083	0.0132887
801.161	0.0132590
801.239	0.0134573
801.318	0.0133986
801.396	0.0134628
801.474	0.0135433
801.552	0.0135022
801.630	0.0135028
801.708	0.0137694
801.786	0.0137113
801.864	0.0137197
801.943	0.0137317
802.021	0.0138519
802.099	0.0138595
802.177	0.0138414
802.255	0.0138734
802.333	0.0139380
802.411	0.0138405
802.489	0.0138602
802.568	0.0138918
802.646	0.0139040
802.724	0.0139125
802.802	0.0138018
802.880	0.0138941
802.958	0.0137901
803.036	0.0138701
803.114	0.0138185
803.193	0.0136674
803.271	0.0136504
803.349	0.0136927
803.427	0.0137225
803.505	0.0135536
803.583	0.0135690
803.661	0.0134164
803.739	0.0135294
803.818	0.0133952
803.896	0.0132851
803.974	0.0133099
804.052	0.0134611
804.130	0.0135062
804.208	0.0133048
804.286	0.0133725
804.364	0.0133086
804.443	0.0133174
804.521	0.0131705
804.599	0.0131220
804.677	0.0130908
804.755	0.0132707
804.833	0.0133312
804.911	0.0132047
804.989	0.0133132
805.068	0.0132549
805.146	0.0133205
805.224	0.0132871
805.302	0.0133289
805.380	0.0134124
805.458	0.0135031
805.536	0.0133221
805.614	0.0135748
805.693	0.0134987
805.771	0.0135501
805.849	0.0135458
805.927	0.0135512
806.005	0.0137736
806.083	0.0136493
806.161	0.0136379
806.239	0.0137282
806.318	0.0136646
806.396	0.0136967
806.474	0.0138453
806.552	0.0137871
806.630	0.0137448
806.708	0.0137510
806.786	0.0137144
806.864	0.0137836
806.943	0.0137013
807.021	0.0137590
807.099	0.0136676
807.177	0.0137595
807.255	0.0137612
807.333	0.0137981
807.411	0.0137042
807.489	0.0137487
807.568	0.0137517
807.646	0.0135404
807.724	0.0135691
807.802	0.0135940
807.880	0.0136417
807.958	0.0135039
808.036	0.0134908
808.114	0.0134279
808.193	0.0134305
808.271	0.0134876
808.349	0.0135125
808.427	0.0133771
808.505	0.0135474
808.583	0.0134368
808.661	0.0134908
808.739	0.0133562
808.818	0.0134070
808.896	0.0132639
808.974	0.0134821
809.052	0.0133413
809.130	0.0133534
809.208	0.0133519
809.286	0.0133976
809.364	0.0133855
809.443	0.0134422
809.521	0.0136423
809.599	0.0135885
809.677	0.0136573
809.755	0.0137667
809.833	0.0135467
809.911	0.0137336
809.989	0.0135880
810.068	0.0137577
810.146	0.0138136
810.224	0.0137763
810.302	0.0138519
810.380	0.0139375
810.458	0.0138573
810.536	0.0138121
810.614	0.0138998
810.693	0.0138264
810.771	0.0138156
810.849	0.0138863
810.927	0.0139271
811.005	0.0138379
811.083	0.0139726
811.161	0.0137971
811.239	0.0138313
811.318	0.0138312
811.396	0.0135457
811.474	0.0135471
811.552	0.0137649
811.630	0.0137057
811.708	0.0137246
811.786	0.0136447
811.864	0.0135933
811.943	0.0133965
812.021	0.0135323
812.099	0.0135571
812.177	0.0135738
812.255	0.0135011
812.333	0.0136328
812.411	0.0137279
812.489	0.0136385
812.568	0.0135152
812.646	0.0136497
812.724	0.0136336
812.802	0.0137659
812.880	0.0137161
812.958	0.0137573
813.036	0.0137226
813.114	0.0137965
813.193	0.0138235
813.271	0.0136909
813.349	0.0136980
813.427	0.0138052
813.505	0.0138341
813.583	0.0137853
813.661	0.0137935
813.739	0.0137362
813.818	0.0137740
813.896	0.0136802
813.974	0.0136304
814.052	0.0135690
814.130	0.0135375
814.208	0.0134225
814.286	0.0135074
814.364	0.0135564
814.443	0.0135303
814.521	0.0134385
814.599	0.0134702
814.677	0.0135017
814.755	0.0134386
814.833	0.0134023
814.911	0.0134129
814.989	0.0134422
815.068	0.0136258
815.146	0.0133964
815.224	0.0136658
815.302	0.0135028
815.380	0.0137061
815.458	0.0136737
815.536	0.0136164
815.614	0.0139017
815.693	0.0137303
815.771	0.0136777
815.849	0.0138730
815.927	0.0138741
816.005	0.0139520
816.083	0.0140277
816.161	0.0139192
816.239	0.0140631
816.318	0.0141345
816.396	0.0140618
816.474	0.0140503
816.552	0.0141544
816.630	0.0142095
816.708	0.0141521
816.786	0.0139524
816.864	0.0140691
816.943	0.0139729
817.021	0.0139752
817.099	0.0140607
817.177	0.0139993
817.255	0.0139770
817.333	0.0139106
817.411	0.0138257
817.489	0.0139413
817.568	0.0140232
817.646	0.0138483
817.724	0.0138352
817.802	0.0138623
817.880	0.0136898
817.958	0.0138627
818.036	0.0137608
818.114	0.0137719
818.193	0.0138480
818.271	0.0136811
818.349	0.0137251
818.427	0.0137106
818.505	0.0137296
818.583	0.0138689
818.661	0.0138571
818.739	0.0137884
818.818	0.0137125
818.896	0.0136400
818.974	0.0135857
819.052	0.0136846
819.130	0.0136109
819.208	0.0136289
819.286	0.0135266
819.364	0.0135702
819.443	0.0136355
819.521	0.0135636
819.599	0.0133726
819.677	0.0134492
819.755	0.0135429
819.833	0.0135066
819.911	0.0135725
819.989	0.0134859
820.068	0.0134743
820.146	0.0135440
820.224	0.0135474
820.302	0.0132883
820.380	0.0135430
820.458	0.0135722
820.536	0.0135725
820.614	0.0135612
820.693	0.0135698
820.771	0.0134603
820.849	0.0137234
820.927	0.0137129
821.005	0.0136654
821.083	0.0136366
821.161	0.0136719
821.239	0.0137159
821.318	0.0136671
821.396	0.0138395
821.474	0.0137661
821.552	0.0135871
821.630	0.0138013
821.708	0.0137794
821.786	0.0137791
821.864	0.0136964
821.943	0.0135787
822.021	0.0136609
822.099	0.0137334
822.177	0.0137704
822.255	0.0137019
822.333	0.0136488
822.411	0.0136389
822.489	0.0136275
822.568	0.0134907
822.646	0.0134923
822.724	0.0135479
822.802	0.0135286
822.880	0.0134789
822.958	0.0135208
823.036	0.0135582
823.114	0.0134792
823.193	0.0136681
823.271	0.0133903
823.349	0.0134167
823.427	0.0134808
823.505	0.0136313
823.583	0.0135703
823.661	0.0136214
823.739	0.0137030
823.818	0.0136412
823.896	0.0136089
823.974	0.0136693
824.052	0.0137154
824.130	0.0136897
824.208	0.0137045
824.286	0.0136896
824.364	0.0137700
824.443	0.0136693
824.521	0.0136045
824.599	0.0136284
824.677	0.0135239
824.755	0.0136396
824.833	0.0136619
824.911	0.0136295
824.989	0.0135719
825.068	0.0135020
825.146	0.0134545
825.224	0.0134987
825.302	0.0132735
825.380	0.0132973
825.458	0.0132774
825.536	0.0133942
825.614	0.0132121
825.693	0.0131321
825.771	0.0131903
825.849	0.0131818
825.927	0.0132171
826.005	0.0131677
826.083	0.0131203
826.161	0.0131489
826.239	0.0132530
826.318	0.0131534
826.396	0.0132676
826.474	0.0133261
826.552	0.0133458
826.630	0.0132648
826.708	0.0133887
826.786	0.0133275
826.864	0.0134529
826.943	0.0135294
827.021	0.0135234
827.099	0.0134653
827.177	0.0134136
827.255	0.0136456
827.333	0.0136695
827.411	0.0137241
827.489	0.0136621
827.568	0.0136923
827.646	0.0137603
827.724	0.0137272
827.802	0.0139024
827.880	0.0138818
827.958	0.0139795
828.036	0.0139402
828.114	0.0138369
828.193	0.0139139
828.271	0.0137894
828.349	0.0139365
828.427	0.0138747
828.505	0.0138926
828.583	0.0137089
828.661	0.0138117
828.739	0.0138380
828.818	0.0138809
828.896	0.0137825
828.974	0.0137264
829.052	0.0136850
829.130	0.0137800
829.208	0.0137220
829.286	0.0137169
829.364	0.0136700
829.443	0.0136446
829.521	0.0136426
829.599	0.0135744
829.677	0.0137858
829.755	0.0136462
829.833	0.0136529
829.911	0.0135623
829.989	0.0136375
830.068	0.0136382
830.146	0.0135899
830.224	0.0135667
830.302	0.0134704
830.380	0.0135768
830.458	0.0136003
830.536	0.0134783
830.614	0.0134743
830.693	0.0133852
830.771	0.0134389
830.849	0.0133923
830.927	0.0133678
831.005	0.0133852
831.083	0.0133297
831.161	0.0132700
831.239	0.0133097
831.318	0.0133830
831.396	0.0132924
831.474	0.0132387
831.552	0.0133947
831.630	0.0134291
831.708	0.0134007
831.786	0.0135141
831.864	0.0135640
831.943	0.0134875
832.021	0.0136861
832.099	0.0136385
832.177	0.0137147
832.255	0.0137180
832.333	0.0137244
832.411	0.0138039
832.489	0.0137471
832.568	0.0137151
832.646	0.0138429
832.724	0.0139074
832.802	0.0138881
832.880	0.0139381
832.958	0.0138563
833.036	0.0138370
833.114	0.0138124
833.193	0.0138924
833.271	0.0137569
833.349	0.0136239
833.427	0.0138080
833.505	0.0137031
833.583	0.0136337
833.661	0.0136977
833.739	0.0136642
833.818	0.0136820
833.896	0.0136645
833.974	0.0135602
834.052	0.0136492
834.130	0.0136263
834.208	0.0135653
834.286	0.0136115
834.364	0.0137553
834.443	0.0136452
834.521	0.0136485
834.599	0.0134853
834.677	0.0137563
834.755	0.0136787
834.833	0.0135687
834.911	0.0136390
834.989	0.0136314
835.068	0.0137462
835.146	0.0135896
835.224	0.0136427
835.302	0.0138593
835.380	0.0137025
835.458	0.0136231
835.536	0.0138547
835.614	0.0136047
835.693	0.0136182
835.771	0.0138276
835.849	0.0137231
835.927	0.0136568
836.005	0.0136346
836.083	0.0136333
836.161	0.0135313
836.239	0.0135513
836.318	0.0135727
836.396	0.0135608
836.474	0.0134480
836.552	0.0133258
836.630	0.0133088
836.708	0.0132624
836.786	0.0132906
836.864	0.0133396
836.943	0.0132827
837.021	0.0132195
837.099	0.0133061
837.177	0.0132938
837.255	0.0134412
837.333	0.0134048
837.411	0.0133910
837.489	0.0135153
837.568	0.0136089
837.646	0.0135638
837.724	0.0136568
837.802	0.0136211
837.880	0.0136485
837.958	0.0137370
838.036	0.0136515
838.114	0.0137718
838.193	0.0139719
838.271	0.0140410
838.349	0.0140768
838.427	0.0139684
838.505	0.0139084
838.583	0.0140147
838.661	0.0140105
838.739	0.0140795
838.818	0.0139493
838.896	0.0139741
838.974	0.0139645
839.052	0.0138693
839.130	0.0139350
839.208	0.0139092
839.286	0.0139185
839.364	0.0139387
839.443	0.0137968
839.521	0.0136777
839.599	0.0137449
839.677	0.0137434
839.755	0.0138103
839.833	0.0137940
839.911	0.0137347
839.989	0.0135871
840.068	0.0137473
840.146	0.0136494
840.224	0.0135413
840.302	0.0136825
840.380	0.0136508
840.458	0.0135457
840.536	0.0135666
840.614	0.0136092
840.693	0.0136707
840.771	0.0136914
840.849	0.0135905
840.927	0.0137608
841.005	0.0137260
841.083	0.0138342
841.161	0.0137466
841.239	0.0137417
841.318	0.0137166
841.396	0.0135444
841.474	0.0138049
841.552	0.0136427
841.630	0.0137015
841.708	0.0136865
841.786	0.0136160
841.864	0.0136094
841.943	0.0137955
842.021	0.0138346
842.099	0.0137383
842.177	0.0136769
842.255	0.0136754
842.333	0.0137891
842.411	0.0136406
842.489	0.0137251
842.568	0.0137828
842.646	0.0135561
842.724	0.0136774
842.802	0.0137143
842.880	0.0137060
842.958	0.0136738
843.036	0.0136849
843.114	0.0136582
843.193	0.0135708
843.271	0.0138298
843.349	0.0137470
843.427	0.0138396
843.505	0.0138954
843.583	0.0141058
843.661	0.0138733
843.739	0.0138079
843.818	0.0138486
843.896	0.0139507
843.974	0.0139192
844.052	0.0138484
844.130	0.0138102
844.208	0.0138199
844.286	0.0137833
844.364	0.0139255
844.443	0.0138674
844.521	0.0137198
844.599	0.0138300
844.677	0.0137572
844.755	0.0138948
844.833	0.0138532
844.911	0.0136271
844.989	0.0136678
845.068	0.0136692
845.146	0.0138317
845.224	0.0136534
845.302	0.0134612
845.380	0.0135418
845.458	0.0134470
845.536	0.0134792
845.614	0.0136555
845.693	0.0136585
845.771	0.0135950
845.849	0.0135674
845.927	0.0136547
846.005	0.0136958
846.083	0.0136680
846.161	0.0137871
846.239	0.0136027
846.318	0.0136620
846.396	0.0137094
846.474	0.0138526
846.552	0.0137289
846.630	0.0139575
846.708	0.0138206
846.786	0.0139003
846.864	0.0139255
846.943	0.0138601
847.021	0.0138798
847.099	0.0140246
847.177	0.0139165
847.255	0.0138784
847.333	0.0139089
847.411	0.0138963
847.489	0.0138231
847.568	0.0138109
847.646	0.0138231
847.724	0.0137828
847.802	0.0136216
847.880	0.0137249
847.958	0.0136091
848.036	0.0136473
848.114	0.0137074
848.193	0.0136633
848.271	0.0136027
848.349	0.0135557
848.427	0.0136150
848.505	0.0134891
848.583	0.0135957
848.661	0.0136211
848.739	0.0135576
848.818	0.0136497
848.896	0.0136140
848.974	0.0136389
849.052	0.0136609
849.130	0.0135373
849.208	0.0136265
849.286	0.0136307
849.364	0.0137165
849.443	0.0136281
849.521	0.0136414
849.599	0.0136797
849.677	0.0137321
849.755	0.0137381
849.833	0.0136597
849.911	0.0135838
849.989	0.0136890
850.068	0.0138775
850.146	0.0137518
850.224	0.0136650
850.302	0.0137395
850.380	0.0136813
850.458	0.0138212
850.536	0.0136970
850.614	0.0137507
850.693	0.0137491
850.771	0.0137463
850.849	0.0137172
850.927	0.0138159
851.005	0.0137577
851.083	0.0138244
851.161	0.0138085
851.239	0.0136370
851.318	0.0137097
851.396	0.0137583
851.474	0.0136923
851.552	0.0138192
851.630	0.0137035
851.708	0.0138199
851.786	0.0136359
851.864	0.0136962
851.943	0.0136665
852.021	0.0136852
852.099	0.0137344
852.177	0.0137368
852.255	0.0136880
852.333	0.0137581
852.411	0.0136728
852.489	0.0137552
852.568	0.0137343
852.646	0.0137160
852.724	0.0137722
852.802	0.0135970
852.880	0.0137390
852.958	0.0136837
853.036	0.0136379
853.114	0.0136167
853.193	0.0137963
853.271	0.0135174
853.349	0.0137287
853.427	0.0137370
853.505	0.0136484
853.583	0.0136938
853.661	0.0137927
853.739	0.0137446
853.818	0.0137029
853.896	0.0136213
853.974	0.0134554
854.052	0.0135547
854.130	0.0135499
854.208	0.0137029
854.286	0.0135801
854.364	0.0135590
854.443	0.0135719
854.521	0.0135963
854.599	0.0134648
854.677	0.0136076
854.755	0.0137550
854.833	0.0136449
854.911	0.0134946
854.989	0.0135596
855.068	0.0136160
855.146	0.0135482
855.224	0.0135579
855.302	0.0135374
855.380	0.0135099
855.458	0.0135596
855.536	0.0135130
855.614	0.0137480
855.693	0.0135172
855.771	0.0135456
855.849	0.0135120
855.927	0.0134005
856.005	0.0135571
856.083	0.0135728
856.161	0.0135744
856.239	0.0134506
856.318	0.0135764
856.396	0.0136071
856.474	0.0136203
856.552	0.0136732
856.630	0.0135821
856.708	0.0136558
856.786	0.0137212
856.864	0.0135889
856.943	0.0136559
857.021	0.0136620
857.099	0.0136264
857.177	0.0137653
857.255	0.0137482
857.333	0.0136166
857.411	0.0137515
857.489	0.0136935
857.568	0.0136290
857.646	0.0137552
857.724	0.0137600
857.802	0.0134765
857.880	0.0137235
857.958	0.0136338
858.036	0.0135881
858.114	0.0137444
858.193	0.0137032
858.271	0.0135731
858.349	0.0135653
858.427	0.0136795
858.505	0.0136510
858.583	0.0135310
858.661	0.0136195
858.739	0.0135376
858.818	0.0135204
858.896	0.0134370
858.974	0.0134657
859.052	0.0135153
859.130	0.0136013
859.208	0.0135667
859.286	0.0135418
859.364	0.0134957
859.443	0.0135424
859.521	0.0135713
859.599	0.0134877
859.677	0.0136699
859.755	0.0135518
859.833	0.0136091
859.911	0.0135337
859.989	0.0135247
860.068	0.0136433
860.146	0.0135838
860.224	0.0137996
860.302	0.0136578
860.380	0.0136146
860.458	0.0135836
860.536	0.0137329
860.614	0.0136157
860.693	0.0137086
860.771	0.0137181
860.849	0.0135695
860.927	0.0135432
861.005	0.0135933
861.083	0.0137246
861.161	0.0135371
861.239	0.0134719
861.318	0.0135394
861.396	0.0136703
861.474	0.0134785
861.552	0.0136083
861.630	0.0136153
861.708	0.0136730
861.786	0.0134276
861.864	0.0136535
861.943	0.0137315
862.021	0.0136063
862.099	0.0137015
862.177	0.0136576
862.255	0.0137899
862.333	0.0136879
862.411	0.0136893
862.489	0.0136242
862.568	0.0136928
862.646	0.0137332
862.724	0.0137593
862.802	0.0137189
862.880	0.0135271
862.958	0.0137264
863.036	0.0136482
863.114	0.0136932
863.193	0.0137879
863.271	0.0136799
863.349	0.0137393
863.427	0.0136899
863.505	0.0136383
863.583	0.0136530
863.661	0.0136379
863.739	0.0135712
863.818	0.0137096
863.896	0.0136827
863.974	0.0135658
864.052	0.0136205
864.130	0.0136875
864.208	0.0137172
864.286	0.0136346
864.364	0.0137479
864.443	0.0137181
864.521	0.0136787
864.599	0.0137778
864.677	0.0137851
864.755	0.0137653
864.833	0.0139725
864.911	0.0140289
864.989	0.0140263
865.068	0.0137760
865.146	0.0137763
865.224	0.0137337
865.302	0.0138036
865.380	0.0140217
865.458	0.0138573
865.536	0.0139029
865.614	0.0140562
865.693	0.0138602
865.771	0.0138395
865.849	0.0138318
865.927	0.0139314
866.005	0.0137955
866.083	0.0137760
866.161	0.0137923
866.239	0.0137707
866.318	0.0136498
866.396	0.0137495
866.474	0.0138584
866.552	0.0137935
866.630	0.0137434
866.708	0.0137476
866.786	0.0137709
866.864	0.0136946
866.943	0.0135410
867.021	0.0136019
867.099	0.0137166
867.177	0.0135600
867.255	0.0136530
867.333	0.0137859
867.411	0.0136930
867.489	0.0135336
867.568	0.0135476
867.646	0.0135826
867.724	0.0135542
867.802	0.0136991
867.880	0.0135825
867.958	0.0136036
868.036	0.0135969
868.114	0.0136317
868.193	0.0137870
868.271	0.0136772
868.349	0.0136581
868.427	0.0137412
868.505	0.0137415
868.583	0.0136219
868.661	0.0139157
868.739	0.0137631
868.818	0.0138507
868.896	0.0137651
868.974	0.0138557
869.052	0.0138549
869.130	0.0137666
869.208	0.0137270
869.286	0.0139096
869.364	0.0138197
869.443	0.0139464
869.521	0.0140654
869.599	0.0139196
869.677	0.0138094
869.755	0.0138805
869.833	0.0139474
869.911	0.0139769
869.989	0.0140196
870.068	0.0139092
870.146	0.0138200
870.224	0.0138194
870.302	0.0138868
870.380	0.0137493
870.458	0.0139808
870.536	0.0138053
870.614	0.0137934
870.693	0.0137994
870.771	0.0138197
870.849	0.0138203
870.927	0.0138282
871.005	0.0136924
871.083	0.0137081
871.161	0.0135522
871.239	0.0135888
871.318	0.0136969
871.396	0.0136044
871.474	0.0134396
871.552	0.0135577
871.630	0.0135258
871.708	0.0135521
871.786	0.0134653
871.864	0.0135163
871.943	0.0134776
872.021	0.0135001
872.099	0.0135607
872.177	0.0135301
872.255	0.0135837
872.333	0.0137231
872.411	0.0135157
872.489	0.0135691
872.568	0.0137843
872.646	0.0137738
872.724	0.0137728
872.802	0.0136333
872.880	0.0137323
872.958	0.0137855
873.036	0.0137366
873.114	0.0138286
873.193	0.0137931
873.271	0.0140022
873.349	0.0139316
873.427	0.0138540
873.505	0.0138783
873.583	0.0139554
873.661	0.0140170
873.739	0.0139617
873.818	0.0139760
873.896	0.0140545
873.974	0.0140955
874.052	0.0139759
874.130	0.0139248
874.208	0.0138573
874.286	0.0138589
874.364	0.0138551
874.443	0.0139179
874.521	0.0140383
874.599	0.0138012
874.677	0.0137240
874.755	0.0137430
874.833	0.0137290
874.911	0.0136349
874.989	0.0136207
875.068	0.0137223
875.146	0.0137660
875.224	0.0136940
875.302	0.0135687
875.380	0.0135445
875.458	0.0136404
875.536	0.0135835
875.614	0.0135176
875.693	0.0135684
875.771	0.0136340
875.849	0.0135384
875.927	0.0136420
876.005	0.0135023
876.083	0.0135493
876.161	0.0136275
876.239	0.0134953
876.318	0.0136176
876.396	0.0135976
876.474	0.0136151
876.552	0.0137309
876.630	0.0138169
876.708	0.0137104
876.786	0.0138480
876.864	0.0140131
876.943	0.0138541
877.021	0.0138783
877.099	0.0139869
877.177	0.0139509
877.255	0.0139246
877.333	0.0139010
877.411	0.0140484
877.489	0.0137946
877.568	0.0140175
877.646	0.0140357
877.724	0.0138499
877.802	0.0138316
877.880	0.0138619
877.958	0.0138725
878.036	0.0137029
878.114	0.0138061
878.193	0.0136320
878.271	0.0136687
878.349	0.0136439
878.427	0.0135955
878.505	0.0136292
878.583	0.0133974
878.661	0.0133072
878.739	0.0134933
878.818	0.0134185
878.896	0.0133217
878.974	0.0133237
879.052	0.0131944
879.130	0.0132088
879.208	0.0131519
879.286	0.0132456
879.364	0.0132722
879.443	0.0133820
879.521	0.0132238
879.599	0.0133045
879.677	0.0133684
879.755	0.0134287
879.833	0.0134229
879.911	0.0133710
879.989	0.0134825
880.068	0.0134133
880.146	0.0135252
880.224	0.0136250
880.302	0.0135193
880.380	0.0134629
880.458	0.0137766
880.536	0.0136747
880.614	0.0136578
880.693	0.0136678
880.771	0.0139284
880.849	0.0138365
880.927	0.0136703
881.005	0.0138269
881.083	0.0139042
881.161	0.0139240
881.239	0.0138589
881.318	0.0138373
881.396	0.0138097
881.474	0.0137906
881.552	0.0137428
881.630	0.0138980
881.708	0.0137619
881.786	0.0137036
881.864	0.0137486
881.943	0.0136609
882.021	0.0135014
882.099	0.0135246
882.177	0.0135438
882.255	0.0135990
882.333	0.0133974
882.411	0.0133436
882.489	0.0134789
882.568	0.0134425
882.646	0.0134493
882.724	0.0134061
882.802	0.0135962
882.880	0.0132125
882.958	0.0133748
883.036	0.0136279
883.114	0.0134600
883.193	0.0133191
883.271	0.0135059
883.349	0.0135028
883.427	0.0135091
883.505	0.0135970
883.583	0.0134222
883.661	0.0135793
883.739	0.0135316
883.818	0.0135596
883.896	0.0136484
883.974	0.0135049
884.052	0.0136974
884.130	0.0136565
884.208	0.0135332
884.286	0.0136022
884.364	0.0134705
884.443	0.0136189
884.521	0.0135810
884.599	0.0134728
884.677	0.0135013
884.755	0.0136806
884.833	0.0133842
884.911	0.0134596
884.989	0.0136118
885.068	0.0135052
885.146	0.0134641
885.224	0.0136404
885.302	0.0134511
885.380	0.0135745
885.458	0.0134112
885.536	0.0134679
885.614	0.0135189
885.693	0.0136626
885.771	0.0135802
885.849	0.0136285
885.927	0.0135621
886.005	0.0136871
886.083	0.0136732
886.161	0.0137327
886.239	0.0135464
886.318	0.0136217
886.396	0.0137801
886.474	0.0137266
886.552	0.0136873
886.630	0.0135885
886.708	0.0137466
886.786	0.0136057
886.864	0.0135616
886.943	0.0135290
887.021	0.0136147
887.099	0.0136029
887.177	0.0134872
887.255	0.0135420
887.333	0.0136275
887.411	0.0134808
887.489	0.0135963
887.568	0.0136757
887.646	0.0134954
887.724	0.0135249
887.802	0.0134360
887.880	0.0136451
887.958	0.0135817
888.036	0.0135601
888.114	0.0135559
888.193	0.0136932
888.271	0.0137228
888.349	0.0137794
888.427	0.0137795
888.505	0.0137383
888.583	0.0138754
888.661	0.0138859
888.739	0.0138314
888.818	0.0136641
888.896	0.0137925
888.974	0.0138438
889.052	0.0138696
889.130	0.0138176
889.208	0.0137180
889.286	0.0136952
889.364	0.0137341
889.443	0.0137222
889.521	0.0136973
889.599	0.0137769
889.677	0.0136703
889.755	0.0136458
889.833	0.0135510
889.911	0.0134325
889.989	0.0135948
890.068	0.0134478
890.146	0.0134575
890.224	0.0134000
890.302	0.0133714
890.380	0.0134303
890.458	0.0132984
890.536	0.0133662
890.614	0.0133630
890.693	0.0133292
890.771	0.0133879
890.849	0.0133747
890.927	0.0133276
891.005	0.0134064
891.083	0.0134103
891.161	0.0133183
891.239	0.0135703
891.318	0.0135188
891.396	0.0135120
891.474	0.0136585
891.552	0.0137001
891.630	0.0137330
891.708	0.0136781
891.786	0.0136299
891.864	0.0138815
891.943	0.0138109
892.021	0.0137985
892.099	0.0140548
892.177	0.0139809
892.255	0.0138872
892.333	0.0141039
892.411	0.0139235
892.489	0.0140163
892.568	0.0139691
892.646	0.0141327
892.724	0.0140135
892.802	0.0140144
892.880	0.0140277
892.958	0.0140182
893.036	0.0140342
893.114	0.0138527
893.193	0.0139426
893.271	0.0139215
893.349	0.0139951
893.427	0.0138168
893.505	0.0139040
893.583	0.0139364
893.661	0.0138983
893.739	0.0138381
893.818	0.0137640
893.896	0.0137988
893.974	0.0137309
894.052	0.0137690
894.130	0.0137156
894.208	0.0135683
894.286	0.0135397
894.364	0.0135607
894.443	0.0136012
894.521	0.0135401
894.599	0.0135516
894.677	0.0134988
894.755	0.0135085
894.833	0.0133101
894.911	0.0133594
894.989	0.0135729
895.068	0.0133839
895.146	0.0134943
895.224	0.0134073
895.302	0.0133714
895.380	0.0134021
895.458	0.0134599
895.536	0.0135484
895.614	0.0136954
895.693	0.0135637
895.771	0.0136239
895.849	0.0136634
895.927	0.0136928
896.005	0.0136843
896.083	0.0136558
896.161	0.0138606
896.239	0.0138407
896.318	0.0138010
896.396	0.0139117
896.474	0.0138712
896.552	0.0139881
896.630	0.0138860
896.708	0.0139298
896.786	0.0139370
896.864	0.0139806
896.943	0.0139364
897.021	0.0139043
897.099	0.0139521
897.177	0.0140440
897.255	0.0140073
897.333	0.0138460
897.411	0.0140285
897.489	0.0137813
897.568	0.0138417
897.646	0.0138096
897.724	0.0137908
897.802	0.0137901
897.880	0.0137198
897.958	0.0137058
898.036	0.0137439
898.114	0.0135641
898.193	0.0136828
898.271	0.0135380
898.349	0.0136066
898.427	0.0135561
898.505	0.0134649
898.583	0.0135371
898.661	0.0133768
898.739	0.0135600
898.818	0.0134487
898.896	0.0134298
898.974	0.0134131
899.052	0.0134196
899.130	0.0134040
899.208	0.0135199
899.286	0.0134779
899.364	0.0133820
899.443	0.0135210
899.521	0.0133668
899.599	0.0133908
899.677	0.0135627
899.755	0.0135339
899.833	0.0135628
899.911	0.0135136
899.989	0.0133995
900.068	0.0135121
900.146	0.0135645
900.224	0.0137012
900.302	0.0136318
900.380	0.0135751
900.458	0.0136046
900.536	0.0136243
900.614	0.0137733
900.693	0.0137180
900.771	0.0134183
900.849	0.0136412
900.927	0.0136080
901.005	0.0136081
901.083	0.0137222
901.161	0.0134653
901.239	0.0135681
901.318	0.0135157
901.396	0.0134958
901.474	0.0135963
901.552	0.0136743
901.630	0.0134978
901.708	0.0135751
901.786	0.0136111
901.864	0.0134342
901.943	0.0134219
902.021	0.0134338
902.099	0.0134064
902.177	0.0136610
902.255	0.0135477
902.333	0.0135510
902.411	0.0134828
902.489	0.0135881
902.568	0.0136850
902.646	0.0136852
902.724	0.0136204
902.802	0.0136636
902.880	0.0135918
902.958	0.0137320
903.036	0.0137371
903.114	0.0137634
903.193	0.0137737
903.271	0.0138315
903.349	0.0138042
903.427	0.0136988
903.505	0.0137730
903.583	0.0136985
903.661	0.0138059
903.739	0.0137326
903.818	0.0137183
903.896	0.0136816
903.974	0.0134407
904.052	0.0135917
904.130	0.0135239
904.208	0.0134395
904.286	0.0133731
904.364	0.0135554
904.443	0.0136040
904.521	0.0134912
904.599	0.0134769
904.677	0.0135984
904.755	0.0135765
904.833	0.0134918
904.911	0.0135162
904.989	0.0133636
905.068	0.0134286
905.146	0.0135023
905.224	0.0134606
905.302	0.0135786
905.380	0.0134532
905.458	0.0135400
905.536	0.0134246
905.614	0.0133666
905.693	0.0133368
905.771	0.0135605
905.849	0.0134068
905.927	0.0134097
906.005	0.0134322
906.083	0.0135115
906.161	0.0133745
906.239	0.0133607
906.318	0.0133190
906.396	0.0132769
906.474	0.0133409
906.552	0.0134214
906.630	0.0133471
906.708	0.0134649
906.786	0.0135132
906.864	0.0135510
906.943	0.0136366
907.021	0.0134778
907.099	0.0136269
907.177	0.0136490
907.255	0.0135614
907.333	0.0136597
907.411	0.0135500
907.489	0.0136931
907.568	0.0137638
907.646	0.0136758
907.724	0.0136407
907.802	0.0136456
907.880	0.0135985
907.958	0.0136536
908.036	0.0136014
908.114	0.0137349
908.193	0.0136611
908.271	0.0136424
908.349	0.0136134
908.427	0.0135266
908.505	0.0136471
908.583	0.0135489
908.661	0.0136683
908.739	0.0137639
908.818	0.0136613
908.896	0.0135632
908.974	0.0135854
909.052	0.0138660
909.130	0.0138140
909.208	0.0136361
909.286	0.0134970
909.364	0.0136356
909.443	0.0135909
909.521	0.0136990
909.599	0.0136891
909.677	0.0136001
909.755	0.0136082
909.833	0.0135184
909.911	0.0135695
909.989	0.0136964
910.068	0.0136614
910.146	0.0135232
910.224	0.0135484
910.302	0.0136537
910.380	0.0134862
910.458	0.0136295
910.536	0.0136813
910.614	0.0135455
910.693	0.0136100
910.771	0.0136314
910.849	0.0136836
910.927	0.0134880
911.005	0.0135887
911.083	0.0135242
911.161	0.0137388
911.239	0.0136623
911.318	0.0136416
911.396	0.0136738
911.474	0.0135682
911.552	0.0136636
911.630	0.0135585
911.708	0.0135558
911.786	0.0136526
911.864	0.0135529
911.943	0.0134720
912.021	0.0136038
912.099	0.0134814
912.177	0.0134922
912.255	0.0134177
912.333	0.0135047
912.411	0.0135608
912.489	0.0134700
912.568	0.0134406
912.646	0.0134473
912.724	0.0135744
912.802	0.0134786
912.880	0.0135609
912.958	0.0135529
913.036	0.0136098
913.114	0.0135809
913.193	0.0135806
913.271	0.0137093
913.349	0.0137600
913.427	0.0135500
913.505	0.0135857
913.583	0.0137366
913.661	0.0137962
913.739	0.0137433
913.818	0.0137339
913.896	0.0137739
913.974	0.0137723
914.052	0.0137125
914.130	0.0137838
914.208	0.0139324
914.286	0.0137511
914.364	0.0136967
914.443	0.0137803
914.521	0.0136771
914.599	0.0137018
914.677	0.0137742
914.755	0.0138287
914.833	0.0136078
914.911	0.0138111
914.989	0.0138242
915.068	0.0137379
915.146	0.0137316
915.224	0.0136950
915.302	0.0135249
915.380	0.0136824
915.458	0.0134827
915.536	0.0137186
915.614	0.0136365
915.693	0.0136587
915.771	0.0135191
915.849	0.0137215
915.927	0.0136831
916.005	0.0136592
916.083	0.0136545
916.161	0.0137334
916.239	0.0137613
916.318	0.0137237
916.396	0.0137102
916.474	0.0135831
916.552	0.0136896
916.630	0.0138162
916.708	0.0137329
916.786	0.0138792
916.864	0.0136643
916.943	0.0137292
917.021	0.0139027
917.099	0.0138580
917.177	0.0137721
917.255	0.0137408
917.333	0.0137851
917.411	0.0137400
917.489	0.0140434
917.568	0.0138136
917.646	0.0138496
917.724	0.0137805
917.802	0.0138758
917.880	0.0137085
917.958	0.0138021
918.036	0.0137431
918.114	0.0137157
918.193	0.0137627
918.271	0.0137011
918.349	0.0136629
918.427	0.0136961
918.505	0.0136230
918.583	0.0136002
918.661	0.0135714
918.739	0.0135795
918.818	0.0134549
918.896	0.0135708
918.974	0.0137019
919.052	0.0134650
919.130	0.0135300
919.208	0.0134395
919.286	0.0134284
919.364	0.0134941
919.443	0.0134705
919.521	0.0135198
919.599	0.0135134
919.677	0.0135093
919.755	0.0134584
919.833	0.0134791
919.911	0.0135663
919.989	0.0135986
920.068	0.0134898
920.146	0.0135198
920.224	0.0136020
920.302	0.0136102
920.380	0.0135075
920.458	0.0136327
920.536	0.0136214
920.614	0.0136836
920.693	0.0136784
920.771	0.0135873
920.849	0.0136523
920.927	0.0137254
921.005	0.0136393
921.083	0.0137879
921.161	0.0138432
921.239	0.0138239
921.318	0.0138654
921.396	0.0138063
921.474	0.0139043
921.552	0.0138832
921.630	0.0140040
921.708	0.0138574
921.786	0.0137914
921.864	0.0138501
921.943	0.0139648
922.021	0.0139903
922.099	0.0139394
922.177	0.0138834
922.255	0.0138685
922.333	0.0138003
922.411	0.0139407
922.489	0.0139193
922.568	0.0137007
922.646	0.0138198
922.724	0.0137215
922.802	0.0136826
922.880	0.0136431
922.958	0.0136341
923.036	0.0138332
923.114	0.0137630
923.193	0.0136264
923.271	0.0136700
923.349	0.0137621
923.427	0.0135841
923.505	0.0135583
923.583	0.0135638
923.661	0.0136917
923.739	0.0135616
923.818	0.0134656
923.896	0.0136185
923.974	0.0134602
924.052	0.0135740
924.130	0.0134992
924.208	0.0134422
924.286	0.0135500
924.364	0.0134058
924.443	0.0135270
924.521	0.0136642
924.599	0.0136359
924.677	0.0135639
924.755	0.0136257
924.833	0.0136425
924.911	0.0136458
924.989	0.0136246
925.068	0.0136694
925.146	0.0137645
925.224	0.0139159
925.302	0.0137172
925.380	0.0138619
925.458	0.0137471
925.536	0.0137312
925.614	0.0137200
925.693	0.0138568
925.771	0.0139538
925.849	0.0137454
925.927	0.0138101
926.005	0.0138225
926.083	0.0138094
926.161	0.0138043
926.239	0.0137641
926.318	0.0138163
926.396	0.0137753
926.474	0.0137208
926.552	0.0137303
926.630	0.0136961
926.708	0.0138474
926.786	0.0136466
926.864	0.0136013
926.943	0.0137244
927.021	0.0136696
927.099	0.0136411
927.177	0.0136289
927.255	0.0135697
927.333	0.0137288
927.411	0.0136877
927.489	0.0136660
927.568	0.0136796
927.646	0.0136053
927.724	0.0134416
927.802	0.0134296
927.880	0.0136030
927.958	0.0135651
928.036	0.0136079
928.114	0.0135811
928.193	0.0135844
928.271	0.0135194
928.349	0.0135587
928.427	0.0136857
928.505	0.0135377
928.583	0.0134805
928.661	0.0134656
928.739	0.0135322
928.818	0.0135291
928.896	0.0137425
928.974	0.0136986
929.052	0.0135713
929.130	0.0135699
929.208	0.0137325
929.286	0.0138238
929.364	0.0137782
929.443	0.0136772
929.521	0.0137105
929.599	0.0137304
929.677	0.0137205
929.755	0.0139062
929.833	0.0138437
929.911	0.0138671
929.989	0.0138368
930.068	0.0138120
930.146	0.0136266
930.224	0.0137482
930.302	0.0137408
930.380	0.0137405
930.458	0.0137328
930.536	0.0138274
930.614	0.0136618
930.693	0.0136301
930.771	0.0137263
930.849	0.0136896
930.927	0.0136995
931.005	0.0137737
931.083	0.0135332
931.161	0.0134872
931.239	0.0134917
931.318	0.0135471
931.396	0.0137090
931.474	0.0135946
931.552	0.0134186
931.630	0.0136439
931.708	0.0134746
931.786	0.0134665
931.864	0.0135149
931.943	0.0135516
932.021	0.0135925
932.099	0.0135723
932.177	0.0134906
932.255	0.0135396
932.333	0.0135928
932.411	0.0134846
932.489	0.0135940
932.568	0.0136584
932.646	0.0137719
932.724	0.0135931
932.802	0.0136353
932.880	0.0136255
932.958	0.0136024
933.036	0.0135824
933.114	0.0136746
933.193	0.0135628
933.271	0.0137431
933.349	0.0136086
933.427	0.0135972
933.505	0.0137564
933.583	0.0136229
933.661	0.0136175
933.739	0.0135014
933.818	0.0136726
933.896	0.0136504
933.974	0.0136350
934.052	0.0135500
934.130	0.0135919
934.208	0.0134985
934.286	0.0134927
934.364	0.0133401
934.443	0.0134741
934.521	0.0135369
934.599	0.0136298
934.677	0.0135880
934.755	0.0135759
934.833	0.0135558
934.911	0.0135866
934.989	0.0134976
935.068	0.0135696
935.146	0.0136627
935.224	0.0137466
935.302	0.0136076
935.380	0.0136624
935.458	0.0134671
935.536	0.0136452
935.614	0.0137454
935.693	0.0136481
935.771	0.0136918
935.849	0.0137473
935.927	0.0138098
936.005	0.0138234
936.083	0.0137676
936.161	0.0137428
936.239	0.0138026
936.318	0.0136475
936.396	0.0139639
936.474	0.0137869
936.552	0.0136698
936.630	0.0138456
936.708	0.0135712
936.786	0.0136020
936.864	0.0137567
936.943	0.0137322
937.021	0.0137297
937.099	0.0137674
937.177	0.0137061
937.255	0.0136382
937.333	0.0135426
937.411	0.0135561
937.489	0.0135036
937.568	0.0135446
937.646	0.0135877
937.724	0.0135596
937.802	0.0135183
937.880	0.0134862
937.958	0.0134885
938.036	0.0133659
938.114	0.0133554
938.193	0.0134857
938.271	0.0134566
938.349	0.0134429
938.427	0.0134531
938.505	0.0134187
938.583	0.0134531
938.661	0.0134797
938.739	0.0135033
938.818	0.0133919
938.896	0.0134833
938.974	0.0134347
939.052	0.0135519
939.130	0.0135461
939.208	0.0135216
939.286	0.0135233
939.364	0.0135761
939.443	0.0136504
939.521	0.0135937
939.599	0.0135278
939.677	0.0135807
939.755	0.0136663
939.833	0.0136052
939.911	0.0137034
939.989	0.0138153
940.068	0.0138631
940.146	0.0137432
940.224	0.0137096
940.302	0.0138738
940.380	0.0138015
940.458	0.0137988
940.536	0.0138251
940.614	0.0138466
940.693	0.0136907
940.771	0.0137693
940.849	0.0138292
940.927	0.0137372
941.005	0.0138290
941.083	0.0136773
941.161	0.0137636
941.239	0.0136885
941.318	0.0136145
941.396	0.0137331
941.474	0.0136906
941.552	0.0137554
941.630	0.0137201
941.708	0.0137447
941.786	0.0135923
941.864	0.0135912
941.943	0.0137756
942.021	0.0136805
942.099	0.0136742
942.177	0.0137309
942.255	0.0137550
942.333	0.0137541
942.411	0.0136705
942.489	0.0136381
942.568	0.0136340
942.646	0.0135358
942.724	0.0137274
942.802	0.0136408
942.880	0.0134566
942.958	0.0136611
943.036	0.0136703
943.114	0.0136857
943.193	0.0137614
943.271	0.0137500
943.349	0.0135354
943.427	0.0136610
943.505	0.0136279
943.583	0.0137538
943.661	0.0137125
943.739	0.0136936
943.818	0.0136208
943.896	0.0136898
943.974	0.0135984
944.052	0.0136225
944.130	0.0136230
944.208	0.0136173
944.286	0.0137361
944.364	0.0136763
944.443	0.0136742
944.521	0.0136298
944.599	0.0136716
944.677	0.0135146
944.755	0.0135954
944.833	0.0136926
944.911	0.0136263
944.989	0.0135368
945.068	0.0136917
945.146	0.0137563
945.224	0.0137192
945.302	0.0136573
945.380	0.0135555
945.458	0.0135969
945.536	0.0136408
945.614	0.0137090
945.693	0.0136411
945.771	0.0137186
945.849	0.0137391
945.927	0.0137806
946.005	0.0137147
946.083	0.0138123
946.161	0.0139887
946.239	0.0136361
946.318	0.0136031
946.396	0.0135753
946.474	0.0136192
946.552	0.0136990
946.630	0.0138218
946.708	0.0137637
946.786	0.0136863
946.864	0.0135831
946.943	0.0136078
947.021	0.0138033
947.099	0.0137335
947.177	0.0136157
947.255	0.0138004
947.333	0.0137570
947.411	0.0136379
947.489	0.0136486
947.568	0.0135959
947.646	0.0136475
947.724	0.0136271
947.802	0.0137663
947.880	0.0137857
947.958	0.0138029
948.036	0.0137296
948.114	0.0137450
948.193	0.0137165
948.271	0.0136943
948.349	0.0137638
948.427	0.0138045
948.505	0.0138829
948.583	0.0137345
948.661	0.0137363
948.739	0.0137705
948.818	0.0137852
948.896	0.0137885
948.974	0.0138116
949.052	0.0138068
949.130	0.0138030
949.208	0.0136825
949.286	0.0138291
949.364	0.0137665
949.443	0.0137167
949.521	0.0136425
949.599	0.0137815
949.677	0.0136682
949.755	0.0136979
949.833	0.0137676
949.911	0.0136942
949.989	0.0137001
950.068	0.0136794
950.146	0.0137337
950.224	0.0136117
950.302	0.0137595
950.380	0.0138393
950.458	0.0137822
950.536	0.0137639
950.614	0.0137085
950.693	0.0138283
950.771	0.0136472
950.849	0.0137637
950.927	0.0137366
951.005	0.0136055
951.083	0.0135936
951.161	0.0136496
951.239	0.0137107
951.318	0.0137754
951.396	0.0137486
951.474	0.0137133
951.552	0.0136595
951.630	0.0135988
951.708	0.0137607
951.786	0.0135972
951.864	0.0138602
951.943	0.0138224
952.021	0.0137061
952.099	0.0137820
952.177	0.0138090
952.255	0.0136925
952.333	0.0138381
952.411	0.0138190
952.489	0.0138556
952.568	0.0137088
952.646	0.0137556
952.724	0.0136642
952.802	0.0136433
952.880	0.0138950
952.958	0.0136909
953.036	0.0138705
953.114	0.0137993
953.193	0.0137725
953.271	0.0136272
953.349	0.0137953
953.427	0.0137820
953.505	0.0138322
953.583	0.0137840
953.661	0.0136647
953.739	0.0137243
953.818	0.0136564
953.896	0.0138155
953.974	0.0136653
954.052	0.0134921
954.130	0.0135133
954.208	0.0137775
954.286	0.0136694
954.364	0.0136937
954.443	0.0136054
954.521	0.0135194
954.599	0.0135468
954.677	0.0135898
954.755	0.0135930
954.833	0.0136109
954.911	0.0136099
954.989	0.0135262
955.068	0.0136958
955.146	0.0138354
955.224	0.0135858
955.302	0.0135721
955.380	0.0136025
955.458	0.0136691
955.536	0.0136959
955.614	0.0137323
955.693	0.0136334
955.771	0.0134637
955.849	0.0136649
955.927	0.0137865
956.005	0.0138639
956.083	0.0136858
956.161	0.0136884
956.239	0.0136123
956.318	0.0137761
956.396	0.0136449
956.474	0.0137981
956.552	0.0138387
956.630	0.0138317
956.708	0.0139547
956.786	0.0137560
956.864	0.0136468
956.943	0.0137663
957.021	0.0138490
957.099	0.0138070
957.177	0.0137779
957.255	0.0136945
957.333	0.0136543
957.411	0.0136996
957.489	0.0137312
957.568	0.0136806
957.646	0.0136433
957.724	0.0137756
957.802	0.0137080
957.880	0.0136335
957.958	0.0134779
958.036	0.0136345
958.114	0.0135452
958.193	0.0136704
958.271	0.0136695
958.349	0.0136142
958.427	0.0135404
958.505	0.0136826
958.583	0.0137375
958.661	0.0134602
958.739	0.0136391
958.818	0.0135088
958.896	0.0135957
958.974	0.0136524
959.052	0.0134533
959.130	0.0135344
959.208	0.0136823
959.286	0.0137522
959.364	0.0137270
959.443	0.0137337
959.521	0.0138487
959.599	0.0138167
959.677	0.0138329
959.755	0.0137369
959.833	0.0137978
959.911	0.0137471
