05/14/2022	16:40:22	Ver.	4.1	UNKNOWN
Optical Delay	639.989416	Delta X		0.078125	Sweeps	1	Scan Rate	0/0
Coordinates	Axis 1	NaN	Axis 2	NaN	Axis 3	NaN	Axis 4	NaN	Axis 5	NaN	Axis 6	0.000000
TX Power	0.000000	RX Power	0.000000

639.989	0.0133452
640.068	0.0133761
640.146	0.0132530
640.224	0.0130743
640.302	0.0133039
640.380	0.0133781
640.458	0.0132928
640.536	0.0133053
640.614	0.0132675
640.693	0.0132157
640.771	0.0132616
640.849	0.0132840
640.927	0.0133908
641.005	0.0133525
641.083	0.0133827
641.161	0.0132937
641.239	0.0133846
641.318	0.0134441
641.396	0.0132986
641.474	0.0133346
641.552	0.0133226
641.630	0.0132103
641.708	0.0133432
641.786	0.0133004
641.864	0.0132318
641.943	0.0132689
642.021	0.0133284
642.099	0.0133478
642.177	0.0132535
642.255	0.0132241
642.333	0.0133810
642.411	0.0133614
642.489	0.0133325
642.568	0.0133411
642.646	0.0133381
642.724	0.0132922
642.802	0.0133805
642.880	0.0133795
642.958	0.0132634
643.036	0.0131875
643.114	0.0133395
643.193	0.0134030
643.271	0.0133234
643.349	0.0132726
643.427	0.0133799
643.505	0.0133189
643.583	0.0133165
643.661	0.0133136
643.739	0.0133549
643.818	0.0133607
643.896	0.0133186
643.974	0.0133857
644.052	0.0133401
644.130	0.0132993
644.208	0.0132648
644.286	0.0133926
644.364	0.0132629
644.443	0.0132815
644.521	0.0132709
644.599	0.0132332
644.677	0.0133411
644.755	0.0132087
644.833	0.0132402
644.911	0.0133397
644.989	0.0133524
645.068	0.0134272
645.146	0.0133980
645.224	0.0133802
645.302	0.0133520
645.380	0.0133115
645.458	0.0133810
645.536	0.0133891
645.614	0.0134590
645.693	0.0134609
645.771	0.0134406
645.849	0.0134897
645.927	0.0133937
646.005	0.0135449
646.083	0.0134532
646.161	0.0134905
646.239	0.0134485
646.318	0.0134581
646.396	0.0135133
646.474	0.0134373
646.552	0.0132843
646.630	0.0135834
646.708	0.0133858
646.786	0.0135207
646.864	0.0134679
646.943	0.0132850
647.021	0.0133649
647.099	0.0134183
647.177	0.0134196
647.255	0.0134190
647.333	0.0132941
647.411	0.0133957
647.489	0.0132550
647.568	0.0134296
647.646	0.0133631
647.724	0.0132180
647.802	0.0133638
647.880	0.0132436
647.958	0.0132888
648.036	0.0133257
648.114	0.0133929
648.193	0.0134197
648.271	0.0133140
648.349	0.0133028
648.427	0.0133500
648.505	0.0133618
648.583	0.0133083
648.661	0.0132358
648.739	0.0131733
648.818	0.0132520
648.896	0.0132381
648.974	0.0134742
649.052	0.0132614
649.130	0.0134183
649.208	0.0134306
649.286	0.0134323
649.364	0.0133464
649.443	0.0133787
649.521	0.0134380
649.599	0.0133533
649.677	0.0133563
649.755	0.0134170
649.833	0.0136042
649.911	0.0133821
649.989	0.0133672
650.068	0.0134241
650.146	0.0134328
650.224	0.0133829
650.302	0.0133691
650.380	0.0133581
650.458	0.0134972
650.536	0.0133907
650.614	0.0134612
650.693	0.0134823
650.771	0.0134197
650.849	0.0133983
650.927	0.0134342
651.005	0.0134396
651.083	0.0133753
651.161	0.0134061
651.239	0.0133943
651.318	0.0134566
651.396	0.0134179
651.474	0.0132475
651.552	0.0134157
651.630	0.0134169
651.708	0.0134749
651.786	0.0133624
651.864	0.0133390
651.943	0.0133820
652.021	0.0133957
652.099	0.0133894
652.177	0.0132470
652.255	0.0133666
652.333	0.0133189
652.411	0.0133866
652.489	0.0132967
652.568	0.0133504
652.646	0.0134190
652.724	0.0133401
652.802	0.0133382
652.880	0.0133856
652.958	0.0135037
653.036	0.0133005
653.114	0.0132899
653.193	0.0133952
653.271	0.0133547
653.349	0.0133212
653.427	0.0132592
653.505	0.0133517
653.583	0.0133734
653.661	0.0133783
653.739	0.0132802
653.818	0.0133241
653.896	0.0133437
653.974	0.0133879
654.052	0.0134999
654.130	0.0133496
654.208	0.0134428
654.286	0.0134575
654.364	0.0135081
654.443	0.0134513
654.521	0.0133385
654.599	0.0134416
654.677	0.0134062
654.755	0.0133575
654.833	0.0133698
654.911	0.0134541
654.989	0.0135011
655.068	0.0133813
655.146	0.0133389
655.224	0.0132177
655.302	0.0133859
655.380	0.0135245
655.458	0.0133498
655.536	0.0133419
655.614	0.0132029
655.693	0.0134831
655.771	0.0133933
655.849	0.0134788
655.927	0.0134953
656.005	0.0134840
656.083	0.0133640
656.161	0.0132558
656.239	0.0133185
656.318	0.0133874
656.396	0.0134190
656.474	0.0135004
656.552	0.0134085
656.630	0.0134033
656.708	0.0134480
656.786	0.0132616
656.864	0.0133006
656.943	0.0132635
657.021	0.0133308
657.099	0.0133914
657.177	0.0133161
657.255	0.0133760
657.333	0.0133391
657.411	0.0132039
657.489	0.0132791
657.568	0.0133790
657.646	0.0132316
657.724	0.0133858
657.802	0.0133817
657.880	0.0132944
657.958	0.0132944
658.036	0.0133641
658.114	0.0134274
658.193	0.0133429
658.271	0.0132932
658.349	0.0131319
658.427	0.0132980
658.505	0.0134532
658.583	0.0132912
658.661	0.0131690
658.739	0.0133242
658.818	0.0133511
658.896	0.0133499
658.974	0.0133945
659.052	0.0134011
659.130	0.0134473
659.208	0.0132869
659.286	0.0134503
659.364	0.0132815
659.443	0.0134427
659.521	0.0134679
659.599	0.0133331
659.677	0.0133498
659.755	0.0133153
659.833	0.0133418
659.911	0.0132249
659.989	0.0132131
660.068	0.0133709
660.146	0.0134262
660.224	0.0133300
660.302	0.0132555
660.380	0.0132819
660.458	0.0131956
660.536	0.0131881
660.614	0.0132825
660.693	0.0133052
660.771	0.0132566
660.849	0.0133351
660.927	0.0132696
661.005	0.0133517
661.083	0.0133385
661.161	0.0133543
661.239	0.0133486
661.318	0.0133498
661.396	0.0133692
661.474	0.0133029
661.552	0.0132323
661.630	0.0134104
661.708	0.0133847
661.786	0.0134968
661.864	0.0133839
661.943	0.0133980
662.021	0.0133205
662.099	0.0134372
662.177	0.0134258
662.255	0.0131988
662.333	0.0134255
662.411	0.0133827
662.489	0.0134034
662.568	0.0133564
662.646	0.0133540
662.724	0.0133577
662.802	0.0132807
662.880	0.0133170
662.958	0.0134628
663.036	0.0133292
663.114	0.0133106
663.193	0.0132790
663.271	0.0134659
663.349	0.0135863
663.427	0.0133453
663.505	0.0133955
663.583	0.0134166
663.661	0.0134569
663.739	0.0133890
663.818	0.0133580
663.896	0.0133675
663.974	0.0134924
664.052	0.0134182
664.130	0.0134954
664.208	0.0134758
664.286	0.0133276
664.364	0.0132965
664.443	0.0133619
664.521	0.0133247
664.599	0.0133562
664.677	0.0133579
664.755	0.0134262
664.833	0.0133007
664.911	0.0133693
664.989	0.0133565
665.068	0.0135039
665.146	0.0133810
665.224	0.0134975
665.302	0.0133542
665.380	0.0132676
665.458	0.0133866
665.536	0.0135616
665.614	0.0135039
665.693	0.0133665
665.771	0.0133312
665.849	0.0134255
665.927	0.0134451
666.005	0.0135272
666.083	0.0134576
666.161	0.0134134
666.239	0.0134802
666.318	0.0134576
666.396	0.0134118
666.474	0.0134248
666.552	0.0134798
666.630	0.0133776
666.708	0.0134225
666.786	0.0134406
666.864	0.0134856
666.943	0.0133556
667.021	0.0134738
667.099	0.0135164
667.177	0.0133804
667.255	0.0132819
667.333	0.0133281
667.411	0.0133887
667.489	0.0134296
667.568	0.0134621
667.646	0.0134110
667.724	0.0134699
667.802	0.0135341
667.880	0.0133730
667.958	0.0135252
668.036	0.0134136
668.114	0.0134073
668.193	0.0134973
668.271	0.0134861
668.349	0.0134856
668.427	0.0133971
668.505	0.0134057
668.583	0.0133882
668.661	0.0134144
668.739	0.0134739
668.818	0.0133604
668.896	0.0134978
668.974	0.0135510
669.052	0.0136164
669.130	0.0134468
669.208	0.0134542
669.286	0.0135545
669.364	0.0135271
669.443	0.0135501
669.521	0.0135759
669.599	0.0132636
669.677	0.0134926
669.755	0.0135856
669.833	0.0136319
669.911	0.0134789
669.989	0.0133755
670.068	0.0134991
670.146	0.0134184
670.224	0.0133530
670.302	0.0134857
670.380	0.0133142
670.458	0.0134258
670.536	0.0133306
670.614	0.0134017
670.693	0.0133665
670.771	0.0135215
670.849	0.0135635
670.927	0.0135827
671.005	0.0134938
671.083	0.0133022
671.161	0.0133916
671.239	0.0135667
671.318	0.0134943
671.396	0.0134270
671.474	0.0134275
671.552	0.0134256
671.630	0.0136040
671.708	0.0133855
671.786	0.0134954
671.864	0.0135672
671.943	0.0136147
672.021	0.0133974
672.099	0.0133915
672.177	0.0133784
672.255	0.0135757
672.333	0.0134418
672.411	0.0132934
672.489	0.0136012
672.568	0.0134592
672.646	0.0135298
672.724	0.0134596
672.802	0.0135075
672.880	0.0135261
672.958	0.0134886
673.036	0.0135344
673.114	0.0134975
673.193	0.0134765
673.271	0.0134381
673.349	0.0133208
673.427	0.0132710
673.505	0.0132555
673.583	0.0133150
673.661	0.0131988
673.739	0.0132119
673.818	0.0130254
673.896	0.0129743
673.974	0.0129064
674.052	0.0128986
674.130	0.0128704
674.208	0.0128531
674.286	0.0127763
674.364	0.0127754
674.443	0.0127036
674.521	0.0129899
674.599	0.0128806
674.677	0.0129375
674.755	0.0131484
674.833	0.0131431
674.911	0.0131466
674.989	0.0133694
675.068	0.0135030
675.146	0.0136277
675.224	0.0136863
675.302	0.0139113
675.380	0.0139803
675.458	0.0141814
675.536	0.0141645
675.614	0.0142336
675.693	0.0142844
675.771	0.0143678
675.849	0.0142992
675.927	0.0143229
676.005	0.0141741
676.083	0.0140832
676.161	0.0142319
676.239	0.0141243
676.318	0.0138418
676.396	0.0136492
676.474	0.0133662
676.552	0.0132444
676.630	0.0128574
676.708	0.0129855
676.786	0.0127571
676.864	0.0124918
676.943	0.0122549
677.021	0.0120660
677.099	0.0120251
677.177	0.0118710
677.255	0.0118724
677.333	0.0118230
677.411	0.0116906
677.489	0.0117397
677.568	0.0118681
677.646	0.0119666
677.724	0.0119122
677.802	0.0122295
677.880	0.0124081
677.958	0.0126071
678.036	0.0130071
678.114	0.0132732
678.193	0.0134885
678.271	0.0137222
678.349	0.0142858
678.427	0.0143906
678.505	0.0146594
678.583	0.0149636
678.661	0.0151713
678.739	0.0153392
678.818	0.0155228
678.896	0.0156818
678.974	0.0157407
679.052	0.0158120
679.130	0.0156835
679.208	0.0156722
679.286	0.0154855
679.364	0.0152214
679.443	0.0149802
679.521	0.0147851
679.599	0.0145006
679.677	0.0143330
679.755	0.0138908
679.833	0.0134458
679.911	0.0130816
679.989	0.0127601
680.068	0.0123661
680.146	0.0119458
680.224	0.0117505
680.302	0.0113306
680.380	0.0109893
680.458	0.0107874
680.536	0.0105108
680.614	0.0105048
680.693	0.0103593
680.771	0.0101640
680.849	0.0103677
680.927	0.0104235
681.005	0.0105535
681.083	0.0106706
681.161	0.0107781
681.239	0.0111998
681.318	0.0116167
681.396	0.0118899
681.474	0.0122608
681.552	0.0127034
681.630	0.0131113
681.708	0.0135303
681.786	0.0140541
681.864	0.0145898
681.943	0.0151311
682.021	0.0157156
682.099	0.0159656
682.177	0.0164666
682.255	0.0167431
682.333	0.0172396
682.411	0.0174852
682.489	0.0175739
682.568	0.0176974
682.646	0.0178185
682.724	0.0176064
682.802	0.0173781
682.880	0.0170841
682.958	0.0168539
683.036	0.0166599
683.114	0.0161840
683.193	0.0155626
683.271	0.0149966
683.349	0.0145582
683.427	0.0139291
683.505	0.0134645
683.583	0.0130920
683.661	0.0122976
683.739	0.0116827
683.818	0.0113852
683.896	0.0107830
683.974	0.0103220
684.052	0.0101789
684.130	0.00984108
684.208	0.00952538
684.286	0.00944992
684.364	0.00930229
684.443	0.00916275
684.521	0.00911934
684.599	0.00918541
684.677	0.00931763
684.755	0.00951904
684.833	0.00983109
684.911	0.0101860
684.989	0.0104821
685.068	0.0109077
685.146	0.0114408
685.224	0.0117982
685.302	0.0124523
685.380	0.0130859
685.458	0.0136418
685.536	0.0141048
685.614	0.0147155
685.693	0.0153087
685.771	0.0159295
685.849	0.0162627
685.927	0.0166665
686.005	0.0170743
686.083	0.0175429
686.161	0.0175961
686.239	0.0177840
686.318	0.0178848
686.396	0.0180034
686.474	0.0180744
686.552	0.0179473
686.630	0.0176360
686.708	0.0175904
686.786	0.0172535
686.864	0.0167653
686.943	0.0164035
687.021	0.0160500
687.099	0.0157262
687.177	0.0151624
687.255	0.0144666
687.333	0.0138523
687.411	0.0134461
687.489	0.0128028
687.568	0.0123161
687.646	0.0115069
687.724	0.0110123
687.802	0.0105614
687.880	0.0102225
687.958	0.00964500
688.036	0.00940918
688.114	0.00915901
688.193	0.00904999
688.271	0.00896622
688.349	0.00883904
688.427	0.00892593
688.505	0.00905533
688.583	0.00949997
688.661	0.00955948
688.739	0.00990593
688.818	0.0102603
688.896	0.0106161
688.974	0.0111835
689.052	0.0114998
689.130	0.0121083
689.208	0.0127362
689.286	0.0131821
689.364	0.0137282
689.443	0.0141232
689.521	0.0146709
689.599	0.0153227
689.677	0.0156380
689.755	0.0159293
689.833	0.0162350
689.911	0.0165874
689.989	0.0167328
690.068	0.0168674
690.146	0.0168250
690.224	0.0167010
690.302	0.0167625
690.380	0.0167399
690.458	0.0165475
690.536	0.0163357
690.614	0.0162342
690.693	0.0159148
690.771	0.0154968
690.849	0.0152858
690.927	0.0150270
691.005	0.0145173
691.083	0.0142545
691.161	0.0138541
691.239	0.0136568
691.318	0.0131971
691.396	0.0130650
691.474	0.0127890
691.552	0.0124031
691.630	0.0121695
691.708	0.0120083
691.786	0.0118610
691.864	0.0118402
691.943	0.0116161
692.021	0.0115959
692.099	0.0116526
692.177	0.0116704
692.255	0.0117574
692.333	0.0117915
692.411	0.0119235
692.489	0.0121352
692.568	0.0122762
692.646	0.0124899
692.724	0.0126983
692.802	0.0130121
692.880	0.0132025
692.958	0.0134402
693.036	0.0134882
693.114	0.0136686
693.193	0.0139311
693.271	0.0139596
693.349	0.0141572
693.427	0.0140283
693.505	0.0141368
693.583	0.0140186
693.661	0.0139397
693.739	0.0140482
693.818	0.0139070
693.896	0.0137144
693.974	0.0136252
694.052	0.0134940
694.130	0.0135267
694.208	0.0133021
694.286	0.0132971
694.364	0.0130877
694.443	0.0132131
694.521	0.0131975
694.599	0.0130952
694.677	0.0130093
694.755	0.0130451
694.833	0.0131374
694.911	0.0131779
694.989	0.0131683
695.068	0.0131335
695.146	0.0131720
695.224	0.0131612
695.302	0.0130708
695.380	0.0130375
695.458	0.0131744
695.536	0.0132199
695.614	0.0130835
695.693	0.0131436
695.771	0.0131458
695.849	0.0132354
695.927	0.0133114
696.005	0.0133759
696.083	0.0134081
696.161	0.0134732
696.239	0.0135629
696.318	0.0136346
696.396	0.0137148
696.474	0.0137130
696.552	0.0137278
696.630	0.0139375
696.708	0.0139285
696.786	0.0138935
696.864	0.0140816
696.943	0.0141256
697.021	0.0143587
697.099	0.0145119
697.177	0.0146217
697.255	0.0148194
697.333	0.0149716
697.411	0.0149421
697.489	0.0149797
697.568	0.0149796
697.646	0.0150703
697.724	0.0149390
697.802	0.0148407
697.880	0.0146867
697.958	0.0144512
698.036	0.0140737
698.114	0.0138324
698.193	0.0136268
698.271	0.0133057
698.349	0.0130559
698.427	0.0126717
698.505	0.0123872
698.583	0.0121290
698.661	0.0119967
698.739	0.0117299
698.818	0.0116365
698.896	0.0112500
698.974	0.0110927
699.052	0.0109754
699.130	0.0110652
699.208	0.0109328
699.286	0.0109125
699.364	0.0108649
699.443	0.0107690
699.521	0.0110488
699.599	0.0109886
699.677	0.0111501
699.755	0.0112202
699.833	0.0113470
699.911	0.0116039
699.989	0.0119626
700.068	0.0122026
700.146	0.0124219
700.224	0.0127688
700.302	0.0130537
700.380	0.0133302
700.458	0.0135988
700.536	0.0139006
700.614	0.0141454
700.693	0.0145003
700.771	0.0145830
700.849	0.0148560
700.927	0.0151203
701.005	0.0154309
701.083	0.0155200
701.161	0.0157925
701.239	0.0159037
701.318	0.0161513
701.396	0.0162060
701.474	0.0163976
701.552	0.0164127
701.630	0.0163611
701.708	0.0164077
701.786	0.0161723
701.864	0.0162114
701.943	0.0160832
702.021	0.0157625
702.099	0.0155098
702.177	0.0151756
702.255	0.0149658
702.333	0.0146661
702.411	0.0141981
702.489	0.0140421
702.568	0.0138286
702.646	0.0132262
702.724	0.0128972
702.802	0.0125628
702.880	0.0122785
702.958	0.0119473
703.036	0.0115508
703.114	0.0113813
703.193	0.0108369
703.271	0.0107320
703.349	0.0103436
703.427	0.0102876
703.505	0.0100637
703.583	0.00992477
703.661	0.00993629
703.739	0.00996010
703.818	0.00998222
703.896	0.0100660
703.974	0.0102486
704.052	0.0104273
704.130	0.0108138
704.208	0.0110043
704.286	0.0113179
704.364	0.0115913
704.443	0.0117882
704.521	0.0122750
704.599	0.0125356
704.677	0.0130429
704.755	0.0134074
704.833	0.0136590
704.911	0.0139516
704.989	0.0142566
705.068	0.0145686
705.146	0.0149810
705.224	0.0150406
705.302	0.0153184
705.380	0.0157243
705.458	0.0160099
705.536	0.0159513
705.614	0.0160704
705.693	0.0162709
705.771	0.0164359
705.849	0.0162654
705.927	0.0163705
706.005	0.0161452
706.083	0.0159777
706.161	0.0159471
706.239	0.0157966
706.318	0.0153938
706.396	0.0151354
706.474	0.0147631
706.552	0.0144549
706.630	0.0141843
706.708	0.0140240
706.786	0.0134779
706.864	0.0131544
706.943	0.0130424
707.021	0.0127391
707.099	0.0124772
707.177	0.0122645
707.255	0.0120144
707.333	0.0116666
707.411	0.0117594
707.489	0.0116955
707.568	0.0114744
707.646	0.0113924
707.724	0.0112382
707.802	0.0113053
707.880	0.0113364
707.958	0.0110855
708.036	0.0111137
708.114	0.0111092
708.193	0.0111552
708.271	0.0112727
708.349	0.0115949
708.427	0.0115105
708.505	0.0118024
708.583	0.0121349
708.661	0.0122782
708.739	0.0125674
708.818	0.0129617
708.896	0.0132399
708.974	0.0133795
709.052	0.0136977
709.130	0.0139627
709.208	0.0140603
709.286	0.0142930
709.364	0.0145389
709.443	0.0147564
709.521	0.0146684
709.599	0.0148438
709.677	0.0148919
709.755	0.0149662
709.833	0.0148075
709.911	0.0148233
709.989	0.0146898
710.068	0.0146720
710.146	0.0144858
710.224	0.0144769
710.302	0.0144341
710.380	0.0141569
710.458	0.0139510
710.536	0.0140622
710.614	0.0139465
710.693	0.0137912
710.771	0.0136256
710.849	0.0136746
710.927	0.0136658
711.005	0.0136167
711.083	0.0134896
711.161	0.0134853
711.239	0.0135952
711.318	0.0136124
711.396	0.0135437
711.474	0.0134167
711.552	0.0134370
711.630	0.0134460
711.708	0.0132692
711.786	0.0131537
711.864	0.0130661
711.943	0.0130963
712.021	0.0129481
712.099	0.0128983
712.177	0.0127134
712.255	0.0124819
712.333	0.0125294
712.411	0.0123144
712.489	0.0124004
712.568	0.0121667
712.646	0.0122387
712.724	0.0121820
712.802	0.0120715
712.880	0.0121745
712.958	0.0122998
713.036	0.0122704
713.114	0.0122714
713.193	0.0124718
713.271	0.0125951
713.349	0.0127432
713.427	0.0129200
713.505	0.0131166
713.583	0.0132915
713.661	0.0133807
713.739	0.0138184
713.818	0.0139232
713.896	0.0141666
713.974	0.0143067
714.052	0.0143724
714.130	0.0145454
714.208	0.0146439
714.286	0.0147337
714.364	0.0149741
714.443	0.0148557
714.521	0.0150031
714.599	0.0149289
714.677	0.0149146
714.755	0.0148625
714.833	0.0148512
714.911	0.0149078
714.989	0.0149060
715.068	0.0146084
715.146	0.0144866
715.224	0.0142615
715.302	0.0140131
715.380	0.0139848
715.458	0.0138116
715.536	0.0134817
715.614	0.0132156
715.693	0.0132085
715.771	0.0129294
715.849	0.0128445
715.927	0.0127918
716.005	0.0124210
716.083	0.0125668
716.161	0.0125228
716.239	0.0126270
716.318	0.0125088
716.396	0.0124710
716.474	0.0125272
716.552	0.0125298
716.630	0.0126073
716.708	0.0126315
716.786	0.0126515
716.864	0.0128629
716.943	0.0127733
717.021	0.0126828
717.099	0.0128677
717.177	0.0131078
717.255	0.0130583
717.333	0.0129060
717.411	0.0131007
717.489	0.0129159
717.568	0.0130024
717.646	0.0131627
717.724	0.0132106
717.802	0.0133440
717.880	0.0133713
717.958	0.0133971
718.036	0.0134795
718.114	0.0133621
718.193	0.0133351
718.271	0.0134274
718.349	0.0134769
718.427	0.0134225
718.505	0.0134630
718.583	0.0135623
718.661	0.0134227
718.739	0.0133974
718.818	0.0134306
718.896	0.0135449
718.974	0.0134661
719.052	0.0134117
719.130	0.0134483
719.208	0.0133965
719.286	0.0133429
719.364	0.0132655
719.443	0.0133644
719.521	0.0132900
719.599	0.0133495
719.677	0.0133440
719.755	0.0135278
719.833	0.0135606
719.911	0.0136349
719.989	0.0137714
720.068	0.0137151
720.146	0.0137990
720.224	0.0137600
720.302	0.0139332
720.380	0.0140522
720.458	0.0140153
720.536	0.0139548
720.614	0.0140699
720.693	0.0139777
720.771	0.0137371
720.849	0.0138470
720.927	0.0138586
721.005	0.0138979
721.083	0.0140310
721.161	0.0138363
721.239	0.0139160
721.318	0.0139290
721.396	0.0138652
721.474	0.0139927
721.552	0.0138544
721.630	0.0137664
721.708	0.0137975
721.786	0.0136768
721.864	0.0137331
721.943	0.0134993
722.021	0.0134557
722.099	0.0132696
722.177	0.0131931
722.255	0.0130987
722.333	0.0130582
722.411	0.0129778
722.489	0.0129231
722.568	0.0127985
722.646	0.0127685
722.724	0.0126373
722.802	0.0126742
722.880	0.0126655
722.958	0.0126412
723.036	0.0124342
723.114	0.0124409
723.193	0.0126647
723.271	0.0124338
723.349	0.0124673
723.427	0.0123109
723.505	0.0123291
723.583	0.0125235
723.661	0.0126014
723.739	0.0125786
723.818	0.0126720
723.896	0.0127438
723.974	0.0126868
724.052	0.0127816
724.130	0.0129476
724.208	0.0128739
724.286	0.0129114
724.364	0.0129971
724.443	0.0130732
724.521	0.0130698
724.599	0.0130221
724.677	0.0132038
724.755	0.0132159
724.833	0.0133205
724.911	0.0132925
724.989	0.0133440
725.068	0.0135172
725.146	0.0136018
725.224	0.0137461
725.302	0.0139675
725.380	0.0138615
725.458	0.0142242
725.536	0.0143798
725.614	0.0143219
725.693	0.0143490
725.771	0.0145005
725.849	0.0146063
725.927	0.0147516
726.005	0.0147589
726.083	0.0146605
726.161	0.0146968
726.239	0.0147694
726.318	0.0147134
726.396	0.0145260
726.474	0.0146096
726.552	0.0144244
726.630	0.0143063
726.708	0.0140786
726.786	0.0140845
726.864	0.0138063
726.943	0.0135324
727.021	0.0135878
727.099	0.0133005
727.177	0.0133720
727.255	0.0132098
727.333	0.0131395
727.411	0.0130786
727.489	0.0130392
727.568	0.0129500
727.646	0.0128493
727.724	0.0127702
727.802	0.0127516
727.880	0.0128699
727.958	0.0126850
728.036	0.0126498
728.114	0.0126543
728.193	0.0126079
728.271	0.0125696
728.349	0.0125278
728.427	0.0124203
728.505	0.0124245
728.583	0.0123441
728.661	0.0124220
728.739	0.0123733
728.818	0.0122269
728.896	0.0121385
728.974	0.0122078
729.052	0.0122137
729.130	0.0123125
729.208	0.0122925
729.286	0.0123625
729.364	0.0122839
729.443	0.0124252
729.521	0.0125040
729.599	0.0126376
729.677	0.0128671
729.755	0.0130424
729.833	0.0131499
729.911	0.0132334
729.989	0.0134145
730.068	0.0136576
730.146	0.0138522
730.224	0.0137806
730.302	0.0140048
730.380	0.0139761
730.458	0.0139117
730.536	0.0138960
730.614	0.0140055
730.693	0.0139442
730.771	0.0139912
730.849	0.0138084
730.927	0.0139426
731.005	0.0139971
731.083	0.0137835
731.161	0.0138676
731.239	0.0138852
731.318	0.0139103
731.396	0.0137573
731.474	0.0139376
731.552	0.0138821
731.630	0.0137658
731.708	0.0138094
731.786	0.0138119
731.864	0.0137495
731.943	0.0135458
732.021	0.0135777
732.099	0.0137032
732.177	0.0136393
732.255	0.0134049
732.333	0.0134149
732.411	0.0134787
732.489	0.0133121
732.568	0.0132432
732.646	0.0132520
732.724	0.0131813
732.802	0.0130560
732.880	0.0130688
732.958	0.0130315
733.036	0.0128969
733.114	0.0128248
733.193	0.0127514
733.271	0.0126933
733.349	0.0127666
733.427	0.0128529
733.505	0.0129315
733.583	0.0128648
733.661	0.0129366
733.739	0.0130176
733.818	0.0130988
733.896	0.0130438
733.974	0.0132554
734.052	0.0131712
734.130	0.0132397
734.208	0.0132865
734.286	0.0132538
734.364	0.0132333
734.443	0.0134380
734.521	0.0133164
734.599	0.0132882
734.677	0.0133228
734.755	0.0132627
734.833	0.0132985
734.911	0.0132763
734.989	0.0132716
735.068	0.0130894
735.146	0.0130876
735.224	0.0130933
735.302	0.0130168
735.380	0.0131950
735.458	0.0130416
735.536	0.0131158
735.614	0.0130736
735.693	0.0131762
735.771	0.0130812
735.849	0.0130891
735.927	0.0132405
736.005	0.0131070
736.083	0.0131709
736.161	0.0132289
736.239	0.0134514
736.318	0.0133911
736.396	0.0133080
736.474	0.0133779
736.552	0.0133043
736.630	0.0134423
736.708	0.0134611
736.786	0.0137477
736.864	0.0136023
736.943	0.0135239
737.021	0.0134327
737.099	0.0135397
737.177	0.0137081
737.255	0.0136171
737.333	0.0137096
737.411	0.0137328
737.489	0.0136807
737.568	0.0136811
737.646	0.0135366
737.724	0.0135629
737.802	0.0133245
737.880	0.0134402
737.958	0.0134490
738.036	0.0134397
738.114	0.0133781
738.193	0.0135373
738.271	0.0134165
738.349	0.0133182
738.427	0.0134680
738.505	0.0134658
738.583	0.0134999
738.661	0.0133679
738.739	0.0134508
738.818	0.0134714
738.896	0.0134637
738.974	0.0134632
739.052	0.0133381
739.130	0.0134911
739.208	0.0134465
739.286	0.0134686
739.364	0.0135004
739.443	0.0134737
739.521	0.0135938
739.599	0.0136360
739.677	0.0137704
739.755	0.0137613
739.833	0.0137058
739.911	0.0137337
739.989	0.0135661
740.068	0.0136018
740.146	0.0135824
740.224	0.0135926
740.302	0.0133680
740.380	0.0134095
740.458	0.0133958
740.536	0.0133009
740.614	0.0132756
740.693	0.0132017
740.771	0.0130464
740.849	0.0130019
740.927	0.0128548
741.005	0.0127349
741.083	0.0128471
741.161	0.0128048
741.239	0.0127467
741.318	0.0124884
741.396	0.0125681
741.474	0.0124811
741.552	0.0126471
741.630	0.0126665
741.708	0.0127766
741.786	0.0129127
741.864	0.0129411
741.943	0.0129958
742.021	0.0131733
742.099	0.0132670
742.177	0.0133240
742.255	0.0134664
742.333	0.0133789
742.411	0.0135130
742.489	0.0136452
742.568	0.0136934
742.646	0.0136785
742.724	0.0137735
742.802	0.0137396
742.880	0.0136378
742.958	0.0137901
743.036	0.0138387
743.114	0.0137704
743.193	0.0138167
743.271	0.0137785
743.349	0.0136416
743.427	0.0135213
743.505	0.0135093
743.583	0.0136417
743.661	0.0135040
743.739	0.0135695
743.818	0.0134880
743.896	0.0134866
743.974	0.0138326
744.052	0.0136382
744.130	0.0137831
744.208	0.0136438
744.286	0.0136121
744.364	0.0137177
744.443	0.0136521
744.521	0.0137350
744.599	0.0137044
744.677	0.0136540
744.755	0.0136277
744.833	0.0136420
744.911	0.0137954
744.989	0.0137093
745.068	0.0137051
745.146	0.0136702
745.224	0.0138098
745.302	0.0137906
745.380	0.0138069
745.458	0.0137206
745.536	0.0136971
745.614	0.0135863
745.693	0.0135440
745.771	0.0135625
745.849	0.0136027
745.927	0.0134306
746.005	0.0134073
746.083	0.0133963
746.161	0.0132164
746.239	0.0131410
746.318	0.0132275
746.396	0.0131715
746.474	0.0130511
746.552	0.0129358
746.630	0.0129050
746.708	0.0128990
746.786	0.0128387
746.864	0.0127502
746.943	0.0127742
747.021	0.0127086
747.099	0.0126789
747.177	0.0128259
747.255	0.0127681
747.333	0.0127982
747.411	0.0128992
747.489	0.0129289
747.568	0.0130149
747.646	0.0130161
747.724	0.0130384
747.802	0.0131693
747.880	0.0133232
747.958	0.0133431
748.036	0.0134248
748.114	0.0135358
748.193	0.0136925
748.271	0.0137043
748.349	0.0136768
748.427	0.0137423
748.505	0.0139271
748.583	0.0139079
748.661	0.0138956
748.739	0.0139329
748.818	0.0140008
748.896	0.0138392
748.974	0.0137344
749.052	0.0135999
749.130	0.0136556
749.208	0.0136995
749.286	0.0135948
749.364	0.0134400
749.443	0.0134290
749.521	0.0133553
749.599	0.0134637
749.677	0.0134555
749.755	0.0133724
749.833	0.0132835
749.911	0.0131801
749.989	0.0133862
750.068	0.0134293
750.146	0.0132960
750.224	0.0131672
750.302	0.0135146
750.380	0.0134811
750.458	0.0133533
750.536	0.0133575
750.614	0.0134441
750.693	0.0134409
750.771	0.0134814
750.849	0.0134306
750.927	0.0134384
751.005	0.0134544
751.083	0.0133495
751.161	0.0134595
751.239	0.0134786
751.318	0.0133537
751.396	0.0133259
751.474	0.0134100
751.552	0.0132714
751.630	0.0133839
751.708	0.0133957
751.786	0.0132811
751.864	0.0132060
751.943	0.0131963
752.021	0.0131625
752.099	0.0131086
752.177	0.0132244
752.255	0.0131718
752.333	0.0131194
752.411	0.0131268
752.489	0.0130321
752.568	0.0131546
752.646	0.0130553
752.724	0.0130000
752.802	0.0129465
752.880	0.0131264
752.958	0.0131420
753.036	0.0132578
753.114	0.0132027
753.193	0.0130968
753.271	0.0129813
753.349	0.0130437
753.427	0.0131517
753.505	0.0131624
753.583	0.0130276
753.661	0.0132000
753.739	0.0131165
753.818	0.0130981
753.896	0.0133318
753.974	0.0132099
754.052	0.0132362
754.130	0.0133710
754.208	0.0134077
754.286	0.0133957
754.364	0.0135368
754.443	0.0134670
754.521	0.0136008
754.599	0.0136903
754.677	0.0137028
754.755	0.0138237
754.833	0.0137054
754.911	0.0138001
754.989	0.0137119
755.068	0.0138152
755.146	0.0135947
755.224	0.0137438
755.302	0.0135705
755.380	0.0135306
755.458	0.0136274
755.536	0.0133744
755.614	0.0134296
755.693	0.0133609
755.771	0.0132880
755.849	0.0132353
755.927	0.0132391
756.005	0.0132374
756.083	0.0132435
756.161	0.0131189
756.239	0.0132729
756.318	0.0132404
756.396	0.0131411
756.474	0.0130781
756.552	0.0132362
756.630	0.0133770
756.708	0.0132952
756.786	0.0132951
756.864	0.0134509
756.943	0.0133971
757.021	0.0134409
757.099	0.0134315
757.177	0.0135797
757.255	0.0135626
757.333	0.0135171
757.411	0.0134380
757.489	0.0134170
757.568	0.0133723
757.646	0.0134381
757.724	0.0133664
757.802	0.0134882
757.880	0.0135157
757.958	0.0134630
758.036	0.0135121
758.114	0.0134073
758.193	0.0133151
758.271	0.0135016
758.349	0.0134499
758.427	0.0133589
758.505	0.0133562
758.583	0.0134613
758.661	0.0132600
758.739	0.0133438
758.818	0.0133289
758.896	0.0132339
758.974	0.0132681
759.052	0.0132942
759.130	0.0132523
759.208	0.0131538
759.286	0.0131313
759.364	0.0132186
759.443	0.0131406
759.521	0.0131027
759.599	0.0129233
759.677	0.0129459
759.755	0.0130305
759.833	0.0129436
759.911	0.0128110
759.989	0.0128264
760.068	0.0129723
760.146	0.0128699
760.224	0.0129966
760.302	0.0130830
760.380	0.0130309
760.458	0.0130437
760.536	0.0131972
760.614	0.0130939
760.693	0.0130008
760.771	0.0131780
760.849	0.0132305
760.927	0.0132330
761.005	0.0133749
761.083	0.0133517
761.161	0.0134516
761.239	0.0134493
761.318	0.0134892
761.396	0.0136147
761.474	0.0135391
761.552	0.0136523
761.630	0.0135665
761.708	0.0137651
761.786	0.0136925
761.864	0.0136749
761.943	0.0138112
762.021	0.0138627
762.099	0.0140424
762.177	0.0138358
762.255	0.0138046
762.333	0.0138343
762.411	0.0139764
762.489	0.0138609
762.568	0.0137550
762.646	0.0138286
762.724	0.0138254
762.802	0.0135825
762.880	0.0137059
762.958	0.0138737
763.036	0.0137587
763.114	0.0136776
763.193	0.0136326
763.271	0.0136582
763.349	0.0136673
763.427	0.0134299
763.505	0.0133893
763.583	0.0135012
763.661	0.0132642
763.739	0.0134578
763.818	0.0133147
763.896	0.0130783
763.974	0.0132397
764.052	0.0132222
764.130	0.0132959
764.208	0.0131724
764.286	0.0130782
764.364	0.0131439
764.443	0.0131352
764.521	0.0131306
764.599	0.0131137
764.677	0.0131530
764.755	0.0130480
764.833	0.0130862
764.911	0.0132308
764.989	0.0131938
765.068	0.0131947
765.146	0.0131736
765.224	0.0132248
765.302	0.0132021
765.380	0.0133334
765.458	0.0134423
765.536	0.0133286
765.614	0.0134081
765.693	0.0135409
765.771	0.0134727
765.849	0.0134386
765.927	0.0135535
766.005	0.0133388
766.083	0.0134523
766.161	0.0135369
766.239	0.0133351
766.318	0.0135069
766.396	0.0133640
766.474	0.0133389
766.552	0.0134107
766.630	0.0135226
766.708	0.0133246
766.786	0.0134755
766.864	0.0133640
766.943	0.0135110
767.021	0.0134165
767.099	0.0135143
767.177	0.0134827
767.255	0.0134398
767.333	0.0135085
767.411	0.0133744
767.489	0.0134338
767.568	0.0133768
767.646	0.0134831
767.724	0.0134863
767.802	0.0135801
767.880	0.0134588
767.958	0.0134478
768.036	0.0134362
768.114	0.0135877
768.193	0.0134717
768.271	0.0135609
768.349	0.0135832
768.427	0.0135295
768.505	0.0136552
768.583	0.0135431
768.661	0.0136775
768.739	0.0136572
768.818	0.0136286
768.896	0.0137059
768.974	0.0137018
769.052	0.0137796
769.130	0.0138206
769.208	0.0136477
769.286	0.0137311
769.364	0.0138372
769.443	0.0136150
769.521	0.0138076
769.599	0.0137106
769.677	0.0135883
769.755	0.0135731
769.833	0.0135939
769.911	0.0134788
769.989	0.0134147
770.068	0.0132935
770.146	0.0132967
770.224	0.0131907
770.302	0.0130120
770.380	0.0131973
770.458	0.0128973
770.536	0.0129134
770.614	0.0130405
770.693	0.0129811
770.771	0.0130327
770.849	0.0129025
770.927	0.0128896
771.005	0.0130501
771.083	0.0130881
771.161	0.0130792
771.239	0.0131434
771.318	0.0131701
771.396	0.0133579
771.474	0.0132929
771.552	0.0133186
771.630	0.0133215
771.708	0.0134631
771.786	0.0134734
771.864	0.0133047
771.943	0.0134552
772.021	0.0136025
772.099	0.0134669
772.177	0.0134480
772.255	0.0135230
772.333	0.0133171
772.411	0.0134375
772.489	0.0133150
772.568	0.0133271
772.646	0.0134716
772.724	0.0133842
772.802	0.0134270
772.880	0.0134020
772.958	0.0134065
773.036	0.0132974
773.114	0.0133924
773.193	0.0134178
773.271	0.0134732
773.349	0.0134812
773.427	0.0133925
773.505	0.0133925
773.583	0.0133503
773.661	0.0133591
773.739	0.0133001
773.818	0.0133709
773.896	0.0134156
773.974	0.0133302
774.052	0.0134023
774.130	0.0133719
774.208	0.0134079
774.286	0.0132481
774.364	0.0132902
774.443	0.0133627
774.521	0.0132957
774.599	0.0133488
774.677	0.0135954
774.755	0.0133314
774.833	0.0134422
774.911	0.0134741
774.989	0.0133543
775.068	0.0133863
775.146	0.0135805
775.224	0.0135656
775.302	0.0135599
775.380	0.0134967
775.458	0.0134996
775.536	0.0134229
775.614	0.0134665
775.693	0.0135200
775.771	0.0136797
775.849	0.0136338
775.927	0.0135351
776.005	0.0135513
776.083	0.0134924
776.161	0.0133504
776.239	0.0133743
776.318	0.0134354
776.396	0.0132636
776.474	0.0132703
776.552	0.0131173
776.630	0.0130673
776.708	0.0129276
776.786	0.0129562
776.864	0.0128767
776.943	0.0128440
777.021	0.0126173
777.099	0.0125918
777.177	0.0125507
777.255	0.0126620
777.333	0.0126444
777.411	0.0124503
777.489	0.0124591
777.568	0.0126004
777.646	0.0124471
777.724	0.0125779
777.802	0.0126557
777.880	0.0127662
777.958	0.0127992
778.036	0.0129813
778.114	0.0130211
778.193	0.0130389
778.271	0.0131532
778.349	0.0132565
778.427	0.0134464
778.505	0.0135752
778.583	0.0137257
778.661	0.0137724
778.739	0.0137090
778.818	0.0138360
778.896	0.0137187
778.974	0.0139432
779.052	0.0140403
779.130	0.0139052
779.208	0.0139668
779.286	0.0139471
779.364	0.0137981
779.443	0.0139134
779.521	0.0138202
779.599	0.0139161
779.677	0.0139187
779.755	0.0137162
779.833	0.0137527
779.911	0.0138172
779.989	0.0137405
780.068	0.0136254
780.146	0.0136001
780.224	0.0135107
780.302	0.0134319
780.380	0.0133867
780.458	0.0133860
780.536	0.0132533
780.614	0.0132418
780.693	0.0132286
780.771	0.0129791
780.849	0.0130110
780.927	0.0130052
781.005	0.0129331
781.083	0.0127370
781.161	0.0128402
781.239	0.0129009
781.318	0.0128282
781.396	0.0128789
781.474	0.0129137
781.552	0.0129412
781.630	0.0130683
781.708	0.0131976
781.786	0.0131822
781.864	0.0132133
781.943	0.0132418
782.021	0.0133152
782.099	0.0135210
782.177	0.0135176
782.255	0.0134493
782.333	0.0137528
782.411	0.0137894
782.489	0.0137276
782.568	0.0137874
782.646	0.0138358
782.724	0.0138988
782.802	0.0139080
782.880	0.0139632
782.958	0.0139248
783.036	0.0140286
783.114	0.0139134
783.193	0.0139133
783.271	0.0138630
783.349	0.0138815
783.427	0.0138812
783.505	0.0137466
783.583	0.0136155
783.661	0.0135493
783.739	0.0135526
783.818	0.0134167
783.896	0.0133228
783.974	0.0132994
784.052	0.0131690
784.130	0.0132378
784.208	0.0129996
784.286	0.0130178
784.364	0.0129967
784.443	0.0129727
784.521	0.0129392
784.599	0.0130003
784.677	0.0130190
784.755	0.0130148
784.833	0.0130003
784.911	0.0129385
784.989	0.0130728
785.068	0.0130514
785.146	0.0131187
785.224	0.0129200
785.302	0.0130722
785.380	0.0131855
785.458	0.0132083
785.536	0.0131616
785.614	0.0132355
785.693	0.0133836
785.771	0.0133393
785.849	0.0134148
785.927	0.0134832
786.005	0.0135577
786.083	0.0136300
786.161	0.0137148
786.239	0.0137827
786.318	0.0137401
786.396	0.0137898
786.474	0.0138452
786.552	0.0139332
786.630	0.0139315
786.708	0.0138815
786.786	0.0139286
786.864	0.0139854
786.943	0.0139312
787.021	0.0137565
787.099	0.0138110
787.177	0.0139351
787.255	0.0138460
787.333	0.0137316
787.411	0.0136700
787.489	0.0137337
787.568	0.0135972
787.646	0.0134411
787.724	0.0134335
787.802	0.0134436
787.880	0.0134814
787.958	0.0133528
788.036	0.0133892
788.114	0.0133630
788.193	0.0131682
788.271	0.0133139
788.349	0.0131549
788.427	0.0131539
788.505	0.0132134
788.583	0.0133261
788.661	0.0133039
788.739	0.0130775
788.818	0.0132524
788.896	0.0132836
788.974	0.0133618
789.052	0.0132767
789.130	0.0132915
789.208	0.0134027
789.286	0.0133280
789.364	0.0134226
789.443	0.0134383
789.521	0.0134821
789.599	0.0135950
789.677	0.0135074
789.755	0.0135371
789.833	0.0136897
789.911	0.0137193
789.989	0.0135883
790.068	0.0136324
790.146	0.0136776
790.224	0.0134322
790.302	0.0135670
790.380	0.0136293
790.458	0.0135669
790.536	0.0136240
790.614	0.0134772
790.693	0.0135260
790.771	0.0134214
790.849	0.0134045
790.927	0.0135878
791.005	0.0134375
791.083	0.0132232
791.161	0.0134440
791.239	0.0134467
791.318	0.0134225
791.396	0.0133819
791.474	0.0134007
791.552	0.0133373
791.630	0.0134009
791.708	0.0133298
791.786	0.0132162
791.864	0.0131716
791.943	0.0132885
792.021	0.0131398
792.099	0.0132121
792.177	0.0131857
792.255	0.0130872
792.333	0.0133004
792.411	0.0133463
792.489	0.0130972
792.568	0.0132485
792.646	0.0131223
792.724	0.0131213
792.802	0.0134301
792.880	0.0133842
792.958	0.0131995
793.036	0.0131792
793.114	0.0132214
793.193	0.0132366
793.271	0.0132774
793.349	0.0134695
793.427	0.0133454
793.505	0.0134038
793.583	0.0134356
793.661	0.0134580
793.739	0.0134855
793.818	0.0134792
793.896	0.0132983
793.974	0.0133381
794.052	0.0135890
794.130	0.0134766
794.208	0.0134891
794.286	0.0134669
794.364	0.0134606
794.443	0.0132797
794.521	0.0136725
794.599	0.0134781
794.677	0.0134044
794.755	0.0136546
794.833	0.0136262
794.911	0.0134940
794.989	0.0134318
795.068	0.0134897
795.146	0.0134162
795.224	0.0135035
795.302	0.0132586
795.380	0.0130743
795.458	0.0134388
795.536	0.0133974
795.614	0.0131944
795.693	0.0131097
795.771	0.0130340
795.849	0.0130462
795.927	0.0130526
796.005	0.0130031
796.083	0.0128317
796.161	0.0130198
796.239	0.0129420
796.318	0.0128597
796.396	0.0128204
796.474	0.0129263
796.552	0.0129889
796.630	0.0128284
796.708	0.0129533
796.786	0.0129606
796.864	0.0130066
796.943	0.0131256
797.021	0.0131337
797.099	0.0132131
797.177	0.0131878
797.255	0.0133999
797.333	0.0133812
797.411	0.0133533
797.489	0.0133335
797.568	0.0134162
797.646	0.0135016
797.724	0.0134935
797.802	0.0133855
797.880	0.0134374
797.958	0.0135268
798.036	0.0135843
798.114	0.0135107
798.193	0.0135223
798.271	0.0134492
798.349	0.0135091
798.427	0.0134382
798.505	0.0135941
798.583	0.0135788
798.661	0.0135742
798.739	0.0134526
798.818	0.0134992
798.896	0.0135021
798.974	0.0134164
799.052	0.0134013
799.130	0.0134571
799.208	0.0136626
799.286	0.0134729
799.364	0.0132570
799.443	0.0133759
799.521	0.0133256
799.599	0.0132313
799.677	0.0132011
799.755	0.0131130
799.833	0.0133170
799.911	0.0130878
799.989	0.0131206
800.068	0.0130567
800.146	0.0128839
800.224	0.0129884
800.302	0.0129222
800.380	0.0128984
800.458	0.0127605
800.536	0.0127327
800.614	0.0127575
800.693	0.0128029
800.771	0.0127138
800.849	0.0125460
800.927	0.0127007
801.005	0.0126813
801.083	0.0126601
801.161	0.0126334
801.239	0.0127490
801.318	0.0127664
801.396	0.0126945
801.474	0.0129477
801.552	0.0129628
801.630	0.0128768
801.708	0.0131813
801.786	0.0131636
801.864	0.0133073
801.943	0.0134027
802.021	0.0134701
802.099	0.0135526
802.177	0.0137584
802.255	0.0138039
802.333	0.0137673
802.411	0.0138300
802.489	0.0139053
802.568	0.0139742
802.646	0.0140277
802.724	0.0140197
802.802	0.0140522
802.880	0.0139766
802.958	0.0138171
803.036	0.0138097
803.114	0.0139298
803.193	0.0138341
803.271	0.0137140
803.349	0.0137408
803.427	0.0137868
803.505	0.0138860
803.583	0.0136731
803.661	0.0136128
803.739	0.0136235
803.818	0.0135357
803.896	0.0133150
803.974	0.0134933
804.052	0.0134827
804.130	0.0133023
804.208	0.0132485
804.286	0.0132502
804.364	0.0131973
804.443	0.0131127
804.521	0.0130445
804.599	0.0131004
804.677	0.0128809
804.755	0.0129604
804.833	0.0131692
804.911	0.0130088
804.989	0.0130790
805.068	0.0130219
805.146	0.0130491
805.224	0.0132305
805.302	0.0131251
805.380	0.0130135
805.458	0.0129962
805.536	0.0130071
805.614	0.0131238
805.693	0.0131151
805.771	0.0132082
805.849	0.0131691
805.927	0.0133031
806.005	0.0132774
806.083	0.0132901
806.161	0.0132576
806.239	0.0133429
806.318	0.0134320
806.396	0.0134402
806.474	0.0133755
806.552	0.0135690
806.630	0.0136143
806.708	0.0136379
806.786	0.0136062
806.864	0.0138044
806.943	0.0136169
807.021	0.0137442
807.099	0.0138238
807.177	0.0137466
807.255	0.0136749
807.333	0.0138235
807.411	0.0138647
807.489	0.0136874
807.568	0.0136298
807.646	0.0137399
807.724	0.0136961
807.802	0.0136684
807.880	0.0135875
807.958	0.0136410
808.036	0.0136547
808.114	0.0134991
808.193	0.0134967
808.271	0.0135064
808.349	0.0135217
808.427	0.0134129
808.505	0.0133808
808.583	0.0133711
808.661	0.0132648
808.739	0.0132968
808.818	0.0132424
808.896	0.0130891
808.974	0.0132175
809.052	0.0131208
809.130	0.0130251
809.208	0.0129581
809.286	0.0131290
809.364	0.0128870
809.443	0.0128903
809.521	0.0129864
809.599	0.0131214
809.677	0.0129015
809.755	0.0130309
809.833	0.0130489
809.911	0.0131493
809.989	0.0131711
810.068	0.0132430
810.146	0.0134409
810.224	0.0133726
810.302	0.0135560
810.380	0.0137395
810.458	0.0135606
810.536	0.0135825
810.614	0.0138718
810.693	0.0138583
810.771	0.0138396
810.849	0.0139086
810.927	0.0138409
811.005	0.0139381
811.083	0.0138840
811.161	0.0138926
811.239	0.0138252
811.318	0.0138770
811.396	0.0138391
811.474	0.0136968
811.552	0.0136935
811.630	0.0136730
811.708	0.0136656
811.786	0.0137381
811.864	0.0135315
811.943	0.0135904
812.021	0.0135912
812.099	0.0133399
812.177	0.0135168
812.255	0.0134689
812.333	0.0134240
812.411	0.0135113
812.489	0.0134853
812.568	0.0135328
812.646	0.0134208
812.724	0.0134196
812.802	0.0134651
812.880	0.0135180
812.958	0.0135757
813.036	0.0135780
813.114	0.0135780
813.193	0.0134071
813.271	0.0135001
813.349	0.0136506
813.427	0.0137511
813.505	0.0136846
813.583	0.0134402
813.661	0.0136150
813.739	0.0137530
813.818	0.0136707
813.896	0.0135979
813.974	0.0135623
814.052	0.0134667
814.130	0.0134286
814.208	0.0135563
814.286	0.0134454
814.364	0.0133596
814.443	0.0133524
814.521	0.0132756
814.599	0.0132307
814.677	0.0131852
814.755	0.0131609
814.833	0.0130775
814.911	0.0132550
814.989	0.0132361
815.068	0.0131214
815.146	0.0129440
815.224	0.0129491
815.302	0.0131599
815.380	0.0130275
815.458	0.0130141
815.536	0.0131471
815.614	0.0132024
815.693	0.0130567
815.771	0.0131126
815.849	0.0132318
815.927	0.0131442
816.005	0.0132610
816.083	0.0132796
816.161	0.0133778
816.239	0.0133655
816.318	0.0135220
816.396	0.0135931
816.474	0.0134636
816.552	0.0134229
816.630	0.0134982
816.708	0.0135891
816.786	0.0136337
816.864	0.0135242
816.943	0.0136236
817.021	0.0135719
817.099	0.0135136
817.177	0.0134838
817.255	0.0135622
817.333	0.0135863
817.411	0.0135717
817.489	0.0135519
817.568	0.0134585
817.646	0.0134202
817.724	0.0134258
817.802	0.0134727
817.880	0.0133160
817.958	0.0133908
818.036	0.0133469
818.114	0.0133940
818.193	0.0134583
818.271	0.0133705
818.349	0.0132839
818.427	0.0132980
818.505	0.0132192
818.583	0.0132139
818.661	0.0133066
818.739	0.0134461
818.818	0.0134551
818.896	0.0133606
818.974	0.0132980
819.052	0.0133405
819.130	0.0132603
819.208	0.0131785
819.286	0.0131538
819.364	0.0130420
819.443	0.0129921
819.521	0.0130312
819.599	0.0130829
819.677	0.0130813
819.755	0.0129639
819.833	0.0129607
819.911	0.0129813
819.989	0.0129492
820.068	0.0130489
820.146	0.0130817
820.224	0.0129893
820.302	0.0129215
820.380	0.0128898
820.458	0.0130117
820.536	0.0131166
820.614	0.0131321
820.693	0.0129996
820.771	0.0131386
820.849	0.0129761
820.927	0.0132715
821.005	0.0132436
821.083	0.0132934
821.161	0.0132537
821.239	0.0131496
821.318	0.0133675
821.396	0.0133102
821.474	0.0132992
821.552	0.0133900
821.630	0.0132285
821.708	0.0133670
821.786	0.0133686
821.864	0.0133808
821.943	0.0132993
822.021	0.0133394
822.099	0.0133913
822.177	0.0133599
822.255	0.0133583
822.333	0.0132586
822.411	0.0134355
822.489	0.0133412
822.568	0.0133272
822.646	0.0132026
822.724	0.0132139
822.802	0.0132600
822.880	0.0131931
822.958	0.0132465
823.036	0.0132079
823.114	0.0132724
823.193	0.0133371
823.271	0.0132118
823.349	0.0132581
823.427	0.0132323
823.505	0.0132226
823.583	0.0132073
823.661	0.0131616
823.739	0.0132238
823.818	0.0132423
823.896	0.0134064
823.974	0.0134695
824.052	0.0134429
824.130	0.0133587
824.208	0.0134055
824.286	0.0134992
824.364	0.0134290
824.443	0.0134443
824.521	0.0134148
824.599	0.0135476
824.677	0.0133929
824.755	0.0134006
824.833	0.0133888
824.911	0.0132364
824.989	0.0133694
825.068	0.0133347
825.146	0.0132156
825.224	0.0132388
825.302	0.0132674
825.380	0.0130874
825.458	0.0130833
825.536	0.0132104
825.614	0.0131666
825.693	0.0129972
825.771	0.0130473
825.849	0.0130038
825.927	0.0129504
826.005	0.0131786
826.083	0.0130966
826.161	0.0130003
826.239	0.0131870
826.318	0.0129640
826.396	0.0129953
826.474	0.0131683
826.552	0.0131007
826.630	0.0129877
826.708	0.0132128
826.786	0.0132603
826.864	0.0131809
826.943	0.0130666
827.021	0.0132304
827.099	0.0133836
827.177	0.0132886
827.255	0.0133785
827.333	0.0133332
827.411	0.0133034
827.489	0.0133347
827.568	0.0134647
827.646	0.0134087
827.724	0.0135121
827.802	0.0134977
827.880	0.0136216
827.958	0.0134808
828.036	0.0135829
828.114	0.0135312
828.193	0.0135484
828.271	0.0136016
828.349	0.0135949
828.427	0.0136264
828.505	0.0135174
828.583	0.0136166
828.661	0.0135709
828.739	0.0135510
828.818	0.0136079
828.896	0.0135548
828.974	0.0136700
829.052	0.0135666
829.130	0.0135227
829.208	0.0134486
829.286	0.0136228
829.364	0.0135387
829.443	0.0135464
829.521	0.0134498
829.599	0.0133679
829.677	0.0133833
829.755	0.0133838
829.833	0.0133337
829.911	0.0133277
829.989	0.0134252
830.068	0.0132968
830.146	0.0133900
830.224	0.0133663
830.302	0.0133291
830.380	0.0132904
830.458	0.0133376
830.536	0.0132050
830.614	0.0132770
830.693	0.0132765
830.771	0.0132172
830.849	0.0132705
830.927	0.0132595
831.005	0.0131318
831.083	0.0131807
831.161	0.0131769
831.239	0.0130965
831.318	0.0129761
831.396	0.0130698
831.474	0.0131288
831.552	0.0129153
831.630	0.0130432
831.708	0.0129112
831.786	0.0130231
831.864	0.0130199
831.943	0.0129889
832.021	0.0129871
832.099	0.0130721
832.177	0.0130181
832.255	0.0131295
832.333	0.0132767
832.411	0.0132386
832.489	0.0131535
832.568	0.0133876
832.646	0.0134669
832.724	0.0133794
832.802	0.0135394
832.880	0.0134763
832.958	0.0135172
833.036	0.0135834
833.114	0.0135210
833.193	0.0136111
833.271	0.0135485
833.349	0.0134934
833.427	0.0137164
833.505	0.0136401
833.583	0.0134518
833.661	0.0134156
833.739	0.0134978
833.818	0.0133719
833.896	0.0133699
833.974	0.0134331
834.052	0.0134618
834.130	0.0134011
834.208	0.0134566
834.286	0.0134553
834.364	0.0133623
834.443	0.0134093
834.521	0.0133905
834.599	0.0134544
834.677	0.0134444
834.755	0.0134190
834.833	0.0135303
834.911	0.0135105
834.989	0.0136592
835.068	0.0134514
835.146	0.0136833
835.224	0.0135297
835.302	0.0136664
835.380	0.0136878
835.458	0.0135648
835.536	0.0135871
835.614	0.0135291
835.693	0.0135372
835.771	0.0135594
835.849	0.0134831
835.927	0.0134011
836.005	0.0134622
836.083	0.0134296
836.161	0.0133792
836.239	0.0133718
836.318	0.0133580
836.396	0.0133197
836.474	0.0134380
836.552	0.0132598
836.630	0.0133649
836.708	0.0134586
836.786	0.0132077
836.864	0.0130730
836.943	0.0132546
837.021	0.0130442
837.099	0.0132439
837.177	0.0132471
837.255	0.0131592
837.333	0.0131169
837.411	0.0132311
837.489	0.0132501
837.568	0.0132500
837.646	0.0132803
837.724	0.0133251
837.802	0.0133717
837.880	0.0131784
837.958	0.0133982
838.036	0.0135166
838.114	0.0134533
838.193	0.0135484
838.271	0.0134645
838.349	0.0136599
838.427	0.0135773
838.505	0.0136556
838.583	0.0135663
838.661	0.0135759
838.739	0.0136542
838.818	0.0136980
838.896	0.0137668
838.974	0.0137698
839.052	0.0136839
839.130	0.0137262
839.208	0.0136217
839.286	0.0136829
839.364	0.0136420
839.443	0.0136741
839.521	0.0136722
839.599	0.0137247
839.677	0.0135519
839.755	0.0136451
839.833	0.0135596
839.911	0.0135125
839.989	0.0135353
840.068	0.0134280
840.146	0.0135160
840.224	0.0134617
840.302	0.0134119
840.380	0.0134180
840.458	0.0134312
840.536	0.0133670
840.614	0.0133467
840.693	0.0133211
840.771	0.0132834
840.849	0.0132442
840.927	0.0132431
841.005	0.0132081
841.083	0.0132798
841.161	0.0131213
841.239	0.0133722
841.318	0.0132298
841.396	0.0133721
841.474	0.0133411
841.552	0.0132466
841.630	0.0132802
841.708	0.0133086
841.786	0.0133788
841.864	0.0132568
841.943	0.0133126
842.021	0.0132919
842.099	0.0133956
842.177	0.0133408
842.255	0.0133191
842.333	0.0133334
842.411	0.0134427
842.489	0.0133743
842.568	0.0131594
842.646	0.0132146
842.724	0.0134769
842.802	0.0134112
842.880	0.0132150
842.958	0.0134097
843.036	0.0134584
843.114	0.0134132
843.193	0.0135469
843.271	0.0133548
843.349	0.0133635
843.427	0.0134328
843.505	0.0133929
843.583	0.0134948
843.661	0.0134627
843.739	0.0133914
843.818	0.0136308
843.896	0.0135107
843.974	0.0135665
844.052	0.0134830
844.130	0.0134779
844.208	0.0136033
844.286	0.0134765
844.364	0.0135421
844.443	0.0137035
844.521	0.0134331
844.599	0.0134199
844.677	0.0135646
844.755	0.0135925
844.833	0.0134074
844.911	0.0132737
844.989	0.0135080
845.068	0.0134205
845.146	0.0131588
845.224	0.0134416
845.302	0.0135558
845.380	0.0134208
845.458	0.0135245
845.536	0.0132064
845.614	0.0133195
845.693	0.0133971
845.771	0.0132086
845.849	0.0133448
845.927	0.0134116
846.005	0.0133139
846.083	0.0133146
846.161	0.0131725
846.239	0.0133878
846.318	0.0132558
846.396	0.0133685
846.474	0.0133206
846.552	0.0133536
846.630	0.0133863
846.708	0.0135345
846.786	0.0135576
846.864	0.0134756
846.943	0.0135455
847.021	0.0135199
847.099	0.0135682
847.177	0.0134403
847.255	0.0136377
847.333	0.0133936
847.411	0.0134949
847.489	0.0134236
847.568	0.0134473
847.646	0.0135226
847.724	0.0134099
847.802	0.0134079
847.880	0.0135192
847.958	0.0134183
848.036	0.0134442
848.114	0.0134663
848.193	0.0133954
848.271	0.0133151
848.349	0.0133920
848.427	0.0131968
848.505	0.0133408
848.583	0.0133205
848.661	0.0132425
848.739	0.0132850
848.818	0.0131926
848.896	0.0131755
848.974	0.0131600
849.052	0.0130795
849.130	0.0132073
849.208	0.0132136
849.286	0.0131474
849.364	0.0132954
849.443	0.0133112
849.521	0.0132484
849.599	0.0132091
849.677	0.0132795
849.755	0.0132783
849.833	0.0132341
849.911	0.0133271
849.989	0.0132587
850.068	0.0131589
850.146	0.0132739
850.224	0.0133557
850.302	0.0132784
850.380	0.0134010
850.458	0.0131901
850.536	0.0134299
850.614	0.0133598
850.693	0.0134125
850.771	0.0133389
850.849	0.0133746
850.927	0.0134000
851.005	0.0134689
851.083	0.0133889
851.161	0.0133530
851.239	0.0134118
851.318	0.0132867
851.396	0.0132388
851.474	0.0131870
851.552	0.0133685
851.630	0.0133376
851.708	0.0132105
851.786	0.0134259
851.864	0.0132705
851.943	0.0132841
852.021	0.0133432
852.099	0.0133273
852.177	0.0132002
852.255	0.0132564
852.333	0.0132242
852.411	0.0133956
852.489	0.0131864
852.568	0.0131552
852.646	0.0131454
852.724	0.0132230
852.802	0.0133134
852.880	0.0132550
852.958	0.0132793
853.036	0.0133350
853.114	0.0133334
853.193	0.0132315
853.271	0.0134137
853.349	0.0134029
853.427	0.0133209
853.505	0.0134329
853.583	0.0134351
853.661	0.0133443
853.739	0.0134608
853.818	0.0133599
853.896	0.0133810
853.974	0.0133391
854.052	0.0133025
854.130	0.0133489
854.208	0.0132443
854.286	0.0132920
854.364	0.0133951
854.443	0.0132045
854.521	0.0131671
854.599	0.0133570
854.677	0.0131868
854.755	0.0131387
854.833	0.0130597
854.911	0.0131544
854.989	0.0130949
855.068	0.0131891
855.146	0.0131609
855.224	0.0130747
855.302	0.0131132
855.380	0.0131477
855.458	0.0130662
855.536	0.0130637
855.614	0.0131872
855.693	0.0130172
855.771	0.0129954
855.849	0.0132663
855.927	0.0131002
856.005	0.0131016
856.083	0.0131752
856.161	0.0130704
856.239	0.0130510
856.318	0.0131004
856.396	0.0131528
856.474	0.0132841
856.552	0.0132935
856.630	0.0132148
856.708	0.0131075
856.786	0.0132537
856.864	0.0132946
856.943	0.0133582
857.021	0.0133562
857.099	0.0132732
857.177	0.0134120
857.255	0.0133830
857.333	0.0134910
857.411	0.0133915
857.489	0.0134568
857.568	0.0133672
857.646	0.0134199
857.724	0.0134212
857.802	0.0133447
857.880	0.0134270
857.958	0.0135349
858.036	0.0135155
858.114	0.0134088
858.193	0.0132746
858.271	0.0134982
858.349	0.0134916
858.427	0.0133020
858.505	0.0134444
858.583	0.0135909
858.661	0.0133675
858.739	0.0133445
858.818	0.0133896
858.896	0.0132899
858.974	0.0133144
859.052	0.0133794
859.130	0.0132652
859.208	0.0133299
859.286	0.0133501
859.364	0.0133867
859.443	0.0132642
859.521	0.0134726
859.599	0.0133611
859.677	0.0134132
859.755	0.0133988
859.833	0.0134264
859.911	0.0135114
859.989	0.0133157
860.068	0.0133266
860.146	0.0135281
860.224	0.0135030
860.302	0.0134397
860.380	0.0135400
860.458	0.0134720
860.536	0.0136385
860.614	0.0134744
860.693	0.0135292
860.771	0.0135430
860.849	0.0135803
860.927	0.0134705
861.005	0.0135765
861.083	0.0134267
861.161	0.0135703
861.239	0.0135248
861.318	0.0133955
861.396	0.0135497
861.474	0.0135905
861.552	0.0134756
861.630	0.0133855
861.708	0.0134065
861.786	0.0134060
861.864	0.0134653
861.943	0.0133582
862.021	0.0132996
862.099	0.0134270
862.177	0.0134282
862.255	0.0134965
862.333	0.0135770
862.411	0.0134168
862.489	0.0135589
862.568	0.0135957
862.646	0.0135004
862.724	0.0135631
862.802	0.0135371
862.880	0.0134156
862.958	0.0135727
863.036	0.0135923
863.114	0.0134439
863.193	0.0133979
863.271	0.0133929
863.349	0.0133251
863.427	0.0133769
863.505	0.0132797
863.583	0.0132568
863.661	0.0132439
863.739	0.0134532
863.818	0.0132443
863.896	0.0132746
863.974	0.0132613
864.052	0.0133757
864.130	0.0134327
864.208	0.0132814
864.286	0.0133132
864.364	0.0134571
864.443	0.0133926
864.521	0.0133543
864.599	0.0133362
864.677	0.0135033
864.755	0.0134212
864.833	0.0135581
864.911	0.0135687
864.989	0.0134769
865.068	0.0135646
865.146	0.0135619
865.224	0.0136346
865.302	0.0135802
865.380	0.0135467
865.458	0.0137127
865.536	0.0135441
865.614	0.0134668
865.693	0.0134814
865.771	0.0135323
865.849	0.0137039
865.927	0.0136498
866.005	0.0135046
866.083	0.0134929
866.161	0.0136281
866.239	0.0135827
866.318	0.0135201
866.396	0.0135619
866.474	0.0135661
866.552	0.0135239
866.630	0.0134836
866.708	0.0134295
866.786	0.0134198
866.864	0.0133824
866.943	0.0133837
867.021	0.0132991
867.099	0.0132051
867.177	0.0133150
867.255	0.0131348
867.333	0.0130919
867.411	0.0131686
867.489	0.0132756
867.568	0.0131724
867.646	0.0131555
867.724	0.0131042
867.802	0.0130689
867.880	0.0130098
867.958	0.0130892
868.036	0.0131043
868.114	0.0130418
868.193	0.0131418
868.271	0.0131463
868.349	0.0132233
868.427	0.0133100
868.505	0.0133104
868.583	0.0132088
868.661	0.0133972
868.739	0.0133624
868.818	0.0133922
868.896	0.0136482
868.974	0.0135818
869.052	0.0135842
869.130	0.0135233
869.208	0.0135776
869.286	0.0137135
869.364	0.0137312
869.443	0.0137719
869.521	0.0138533
869.599	0.0137084
869.677	0.0137179
869.755	0.0136899
869.833	0.0137103
869.911	0.0138507
869.989	0.0136721
870.068	0.0137265
870.146	0.0136791
870.224	0.0136995
870.302	0.0138371
870.380	0.0137125
870.458	0.0135585
870.536	0.0136914
870.614	0.0137856
870.693	0.0137469
870.771	0.0136583
870.849	0.0136245
870.927	0.0134828
871.005	0.0133604
871.083	0.0134237
871.161	0.0134754
871.239	0.0133189
871.318	0.0132726
871.396	0.0131879
871.474	0.0132165
871.552	0.0130978
871.630	0.0132678
871.708	0.0131121
871.786	0.0131262
871.864	0.0131667
871.943	0.0131608
872.021	0.0130257
872.099	0.0131420
872.177	0.0131506
872.255	0.0132877
872.333	0.0131643
872.411	0.0131060
872.489	0.0131512
872.568	0.0132361
872.646	0.0132465
872.724	0.0133624
872.802	0.0135085
872.880	0.0132793
872.958	0.0134534
873.036	0.0133782
873.114	0.0133940
873.193	0.0133926
873.271	0.0135733
873.349	0.0134586
873.427	0.0134892
873.505	0.0137157
873.583	0.0136194
873.661	0.0136616
873.739	0.0135908
873.818	0.0136302
873.896	0.0136691
873.974	0.0137357
874.052	0.0136488
874.130	0.0136475
874.208	0.0133826
874.286	0.0134263
874.364	0.0135669
874.443	0.0135397
874.521	0.0135420
874.599	0.0134312
874.677	0.0132291
874.755	0.0133122
874.833	0.0133112
874.911	0.0133720
874.989	0.0131754
875.068	0.0131045
875.146	0.0131966
875.224	0.0130432
875.302	0.0130391
875.380	0.0131847
875.458	0.0131362
875.536	0.0130836
875.614	0.0131027
875.693	0.0130575
875.771	0.0130990
875.849	0.0129975
875.927	0.0128844
876.005	0.0131051
876.083	0.0130729
876.161	0.0131236
876.239	0.0131695
876.318	0.0130543
876.396	0.0130846
876.474	0.0132362
876.552	0.0132358
876.630	0.0131483
876.708	0.0133385
876.786	0.0132610
876.864	0.0132482
876.943	0.0133764
877.021	0.0132376
877.099	0.0133748
877.177	0.0134682
877.255	0.0135358
877.333	0.0134967
877.411	0.0134254
877.489	0.0136441
877.568	0.0136179
877.646	0.0136288
877.724	0.0136331
877.802	0.0135802
877.880	0.0134701
877.958	0.0136800
878.036	0.0136209
878.114	0.0134720
878.193	0.0133891
878.271	0.0134176
878.349	0.0133370
878.427	0.0133918
878.505	0.0133352
878.583	0.0132365
878.661	0.0130505
878.739	0.0129932
878.818	0.0130045
878.896	0.0130574
878.974	0.0129221
879.052	0.0130097
879.130	0.0129810
879.208	0.0130092
879.286	0.0129877
879.364	0.0128783
879.443	0.0128634
879.521	0.0128984
879.599	0.0128481
879.677	0.0129539
879.755	0.0129378
879.833	0.0130283
879.911	0.0129826
879.989	0.0129778
880.068	0.0130643
880.146	0.0131809
880.224	0.0130166
880.302	0.0131567
880.380	0.0132225
880.458	0.0133223
880.536	0.0133636
880.614	0.0133262
880.693	0.0134406
880.771	0.0134307
880.849	0.0135468
880.927	0.0135860
881.005	0.0135307
881.083	0.0136034
881.161	0.0134964
881.239	0.0135423
881.318	0.0136610
881.396	0.0135975
881.474	0.0135622
881.552	0.0135597
881.630	0.0135493
881.708	0.0136702
881.786	0.0136677
881.864	0.0135252
881.943	0.0133833
882.021	0.0134438
882.099	0.0133746
882.177	0.0134901
882.255	0.0133820
882.333	0.0133238
882.411	0.0132734
882.489	0.0133121
882.568	0.0131838
882.646	0.0132945
882.724	0.0132560
882.802	0.0133040
882.880	0.0131604
882.958	0.0133349
883.036	0.0130116
883.114	0.0132269
883.193	0.0132514
883.271	0.0132633
883.349	0.0131330
883.427	0.0133499
883.505	0.0132825
883.583	0.0132088
883.661	0.0133134
883.739	0.0133794
883.818	0.0133452
883.896	0.0134357
883.974	0.0132562
884.052	0.0133775
884.130	0.0134715
884.208	0.0134634
884.286	0.0134235
884.364	0.0134197
884.443	0.0133779
884.521	0.0133582
884.599	0.0134793
884.677	0.0133627
884.755	0.0133713
884.833	0.0134010
884.911	0.0133859
884.989	0.0133528
885.068	0.0133765
885.146	0.0130969
885.224	0.0132245
885.302	0.0133140
885.380	0.0131844
885.458	0.0132502
885.536	0.0133578
885.614	0.0132941
885.693	0.0133392
885.771	0.0132642
885.849	0.0132751
885.927	0.0134068
886.005	0.0133091
886.083	0.0133813
886.161	0.0133556
886.239	0.0133990
886.318	0.0134305
886.396	0.0133963
886.474	0.0133895
886.552	0.0134007
886.630	0.0134082
886.708	0.0134253
886.786	0.0133149
886.864	0.0134472
886.943	0.0133369
887.021	0.0134065
887.099	0.0132880
887.177	0.0133186
887.255	0.0132465
887.333	0.0134567
887.411	0.0132376
887.489	0.0132856
887.568	0.0134267
887.646	0.0131960
887.724	0.0133463
887.802	0.0133069
887.880	0.0133015
887.958	0.0132644
888.036	0.0133346
888.114	0.0133725
888.193	0.0133977
888.271	0.0134777
888.349	0.0134090
888.427	0.0135603
888.505	0.0135014
888.583	0.0135837
888.661	0.0135886
888.739	0.0135902
888.818	0.0136311
888.896	0.0136024
888.974	0.0137637
889.052	0.0136667
889.130	0.0137435
889.208	0.0137115
889.286	0.0137729
889.364	0.0138622
889.443	0.0137193
889.521	0.0136549
889.599	0.0137369
889.677	0.0136484
889.755	0.0135976
889.833	0.0134963
889.911	0.0134017
889.989	0.0135406
890.068	0.0133748
890.146	0.0133232
890.224	0.0131564
890.302	0.0132908
890.380	0.0132445
890.458	0.0131250
890.536	0.0131626
890.614	0.0131003
890.693	0.0130075
890.771	0.0131828
890.849	0.0131336
890.927	0.0131634
891.005	0.0131375
891.083	0.0130683
891.161	0.0130325
891.239	0.0131781
891.318	0.0130950
891.396	0.0131756
891.474	0.0133748
891.552	0.0131767
891.630	0.0131987
891.708	0.0133270
891.786	0.0133759
891.864	0.0134008
891.943	0.0134893
892.021	0.0134222
892.099	0.0135410
892.177	0.0135651
892.255	0.0135728
892.333	0.0135558
892.411	0.0136961
892.489	0.0136815
892.568	0.0136849
892.646	0.0137084
892.724	0.0136893
892.802	0.0138290
892.880	0.0137046
892.958	0.0136903
893.036	0.0136760
893.114	0.0136479
893.193	0.0135481
893.271	0.0136671
893.349	0.0135023
893.427	0.0135594
893.505	0.0134156
893.583	0.0133995
893.661	0.0133794
893.739	0.0134850
893.818	0.0132913
893.896	0.0132320
893.974	0.0132519
894.052	0.0133588
894.130	0.0132009
894.208	0.0132452
894.286	0.0132866
894.364	0.0131731
894.443	0.0131513
894.521	0.0129785
894.599	0.0130505
894.677	0.0129401
894.755	0.0128571
894.833	0.0129873
894.911	0.0128539
894.989	0.0128503
895.068	0.0128675
895.146	0.0129643
895.224	0.0128065
895.302	0.0128493
895.380	0.0129564
895.458	0.0128262
895.536	0.0127672
895.614	0.0129648
895.693	0.0131365
895.771	0.0130325
895.849	0.0130491
895.927	0.0132520
896.005	0.0131700
896.083	0.0131959
896.161	0.0132352
896.239	0.0133843
896.318	0.0133592
896.396	0.0134592
896.474	0.0135133
896.552	0.0136344
896.630	0.0135690
896.708	0.0135739
896.786	0.0136849
896.864	0.0137206
896.943	0.0136086
897.021	0.0135876
897.099	0.0135602
897.177	0.0135403
897.255	0.0136295
897.333	0.0137659
897.411	0.0136307
897.489	0.0135089
897.568	0.0135774
897.646	0.0135503
897.724	0.0134657
897.802	0.0133598
897.880	0.0135473
897.958	0.0133920
898.036	0.0132323
898.114	0.0132326
898.193	0.0131931
898.271	0.0132408
898.349	0.0131173
898.427	0.0131823
898.505	0.0130853
898.583	0.0131304
898.661	0.0131833
898.739	0.0130653
898.818	0.0131841
898.896	0.0130570
898.974	0.0131345
899.052	0.0130016
899.130	0.0132107
899.208	0.0130425
899.286	0.0131370
899.364	0.0132126
899.443	0.0131782
899.521	0.0130337
899.599	0.0131860
899.677	0.0131419
899.755	0.0130890
899.833	0.0129922
899.911	0.0131364
899.989	0.0132566
900.068	0.0133140
900.146	0.0132310
900.224	0.0132613
900.302	0.0130003
900.380	0.0133230
900.458	0.0132709
900.536	0.0131935
900.614	0.0132788
900.693	0.0132559
900.771	0.0131911
900.849	0.0133411
900.927	0.0134512
901.005	0.0133298
901.083	0.0132854
901.161	0.0133568
901.239	0.0133199
901.318	0.0133994
901.396	0.0132788
901.474	0.0134651
901.552	0.0132500
901.630	0.0132988
901.708	0.0132210
901.786	0.0132526
901.864	0.0132740
901.943	0.0132264
902.021	0.0131136
902.099	0.0130942
902.177	0.0130749
902.255	0.0131327
902.333	0.0131307
902.411	0.0132183
902.489	0.0131952
902.568	0.0132238
902.646	0.0132709
902.724	0.0132539
902.802	0.0134084
902.880	0.0133736
902.958	0.0133476
903.036	0.0134043
903.114	0.0134325
903.193	0.0134901
903.271	0.0135840
903.349	0.0135308
903.427	0.0136551
903.505	0.0135886
903.583	0.0136639
903.661	0.0134800
903.739	0.0134888
903.818	0.0135930
903.896	0.0134585
903.974	0.0133159
904.052	0.0134198
904.130	0.0133753
904.208	0.0133852
904.286	0.0132971
904.364	0.0132350
904.443	0.0132947
904.521	0.0131781
904.599	0.0132504
904.677	0.0131918
904.755	0.0130413
904.833	0.0130724
904.911	0.0131342
904.989	0.0130843
905.068	0.0131838
905.146	0.0130722
905.224	0.0131134
905.302	0.0131367
905.380	0.0132915
905.458	0.0131871
905.536	0.0132472
905.614	0.0132845
905.693	0.0133064
905.771	0.0132758
905.849	0.0132369
905.927	0.0132911
906.005	0.0131238
906.083	0.0131876
906.161	0.0132392
906.239	0.0132760
906.318	0.0132240
906.396	0.0133190
906.474	0.0132693
906.552	0.0132110
906.630	0.0133000
906.708	0.0132330
906.786	0.0131855
906.864	0.0132426
906.943	0.0130915
907.021	0.0132316
907.099	0.0131662
907.177	0.0133234
907.255	0.0133332
907.333	0.0134135
907.411	0.0131636
907.489	0.0133277
907.568	0.0134295
907.646	0.0133654
907.724	0.0133118
907.802	0.0134187
907.880	0.0134151
907.958	0.0133676
908.036	0.0134499
908.114	0.0134321
908.193	0.0133766
908.271	0.0134673
908.349	0.0134257
908.427	0.0134132
908.505	0.0133994
908.583	0.0133958
908.661	0.0133816
908.739	0.0133596
908.818	0.0132584
908.896	0.0133718
908.974	0.0132796
909.052	0.0132894
909.130	0.0133642
909.208	0.0133415
909.286	0.0133076
909.364	0.0134166
909.443	0.0133364
909.521	0.0132195
909.599	0.0131770
909.677	0.0134119
909.755	0.0133243
909.833	0.0132696
909.911	0.0133037
909.989	0.0132722
910.068	0.0134226
910.146	0.0133096
910.224	0.0133122
910.302	0.0132714
910.380	0.0133781
910.458	0.0132515
910.536	0.0134159
910.614	0.0133426
910.693	0.0134884
910.771	0.0135351
910.849	0.0135206
910.927	0.0134543
911.005	0.0133652
911.083	0.0134389
911.161	0.0133881
911.239	0.0134737
911.318	0.0134190
911.396	0.0133404
911.474	0.0133597
911.552	0.0133321
911.630	0.0134013
911.708	0.0132604
911.786	0.0132713
911.864	0.0133154
911.943	0.0133147
912.021	0.0132526
912.099	0.0132303
912.177	0.0132354
912.255	0.0131556
912.333	0.0132434
912.411	0.0133195
912.489	0.0131721
912.568	0.0132294
912.646	0.0132106
912.724	0.0133267
912.802	0.0132800
912.880	0.0132903
912.958	0.0133433
913.036	0.0133233
913.114	0.0133128
913.193	0.0134640
913.271	0.0135175
913.349	0.0134029
913.427	0.0135541
913.505	0.0134005
913.583	0.0134948
913.661	0.0136224
913.739	0.0135056
913.818	0.0135036
913.896	0.0134524
913.974	0.0134447
914.052	0.0134032
914.130	0.0135281
914.208	0.0134491
914.286	0.0135046
914.364	0.0136648
914.443	0.0135743
914.521	0.0134913
914.599	0.0134269
914.677	0.0133039
914.755	0.0134473
914.833	0.0135232
914.911	0.0134233
914.989	0.0133913
915.068	0.0133302
915.146	0.0133547
915.224	0.0134383
915.302	0.0134361
915.380	0.0133064
915.458	0.0133708
915.536	0.0132918
915.614	0.0133224
915.693	0.0133974
915.771	0.0134473
915.849	0.0134589
915.927	0.0133062
916.005	0.0133701
916.083	0.0134720
916.161	0.0132895
916.239	0.0132886
916.318	0.0134496
916.396	0.0134708
916.474	0.0134108
916.552	0.0133855
916.630	0.0133246
916.708	0.0132352
916.786	0.0134923
916.864	0.0134318
916.943	0.0135767
917.021	0.0134596
917.099	0.0135596
917.177	0.0135172
917.255	0.0135482
917.333	0.0135069
917.411	0.0135931
917.489	0.0134847
917.568	0.0134285
917.646	0.0136515
917.724	0.0135191
917.802	0.0134740
917.880	0.0135526
917.958	0.0135802
918.036	0.0134834
918.114	0.0136417
918.193	0.0136320
918.271	0.0133740
918.349	0.0133290
918.427	0.0133347
918.505	0.0134710
918.583	0.0133265
918.661	0.0132925
918.739	0.0132912
918.818	0.0131503
918.896	0.0132880
918.974	0.0133048
919.052	0.0132196
919.130	0.0132044
919.208	0.0131834
919.286	0.0131413
919.364	0.0130360
919.443	0.0131311
919.521	0.0132750
919.599	0.0131981
919.677	0.0132365
919.755	0.0132264
919.833	0.0131978
919.911	0.0133281
919.989	0.0131937
920.068	0.0131380
920.146	0.0131911
920.224	0.0132533
920.302	0.0132403
920.380	0.0131735
920.458	0.0133898
920.536	0.0133260
920.614	0.0134036
920.693	0.0132964
920.771	0.0133591
920.849	0.0134541
920.927	0.0133777
921.005	0.0134176
921.083	0.0134229
921.161	0.0134618
921.239	0.0134976
921.318	0.0134873
921.396	0.0134064
921.474	0.0135331
921.552	0.0134665
921.630	0.0134845
921.708	0.0134638
921.786	0.0135656
921.864	0.0134711
921.943	0.0134776
922.021	0.0134947
922.099	0.0134048
922.177	0.0133583
922.255	0.0134119
922.333	0.0135033
922.411	0.0135487
922.489	0.0133878
922.568	0.0132430
922.646	0.0133946
922.724	0.0134952
922.802	0.0133033
922.880	0.0132708
922.958	0.0134084
923.036	0.0135339
923.114	0.0133954
923.193	0.0132320
923.271	0.0133263
923.349	0.0134251
923.427	0.0134372
923.505	0.0132973
923.583	0.0134339
923.661	0.0134704
923.739	0.0133910
923.818	0.0133390
923.896	0.0134019
923.974	0.0132816
924.052	0.0134576
924.130	0.0133068
924.208	0.0133732
924.286	0.0133430
924.364	0.0134452
924.443	0.0132985
924.521	0.0133182
924.599	0.0132557
924.677	0.0133680
924.755	0.0133365
924.833	0.0132882
924.911	0.0134011
924.989	0.0134463
925.068	0.0132906
925.146	0.0133293
925.224	0.0132441
925.302	0.0134660
925.380	0.0134513
925.458	0.0134445
925.536	0.0134858
925.614	0.0134666
925.693	0.0134787
925.771	0.0134164
925.849	0.0133500
925.927	0.0134222
926.005	0.0133933
926.083	0.0134873
926.161	0.0134335
926.239	0.0134743
926.318	0.0134119
926.396	0.0133578
926.474	0.0133840
926.552	0.0133548
926.630	0.0133575
926.708	0.0132296
926.786	0.0134133
926.864	0.0133487
926.943	0.0133421
927.021	0.0133419
927.099	0.0132878
927.177	0.0133072
927.255	0.0133827
927.333	0.0133047
927.411	0.0132555
927.489	0.0133177
927.568	0.0132735
927.646	0.0131657
927.724	0.0132751
927.802	0.0132496
927.880	0.0131168
927.958	0.0130766
928.036	0.0131167
928.114	0.0130798
928.193	0.0131108
928.271	0.0131449
928.349	0.0131832
928.427	0.0131306
928.505	0.0131928
928.583	0.0131506
928.661	0.0132465
928.739	0.0132404
928.818	0.0132075
928.896	0.0131574
928.974	0.0132866
929.052	0.0134061
929.130	0.0132716
929.208	0.0133018
929.286	0.0133466
929.364	0.0132317
929.443	0.0132728
929.521	0.0133801
929.599	0.0133703
929.677	0.0134929
929.755	0.0133660
929.833	0.0134075
929.911	0.0134732
929.989	0.0135389
930.068	0.0135142
930.146	0.0134644
930.224	0.0134281
930.302	0.0133947
930.380	0.0134781
930.458	0.0132922
930.536	0.0133636
930.614	0.0132930
930.693	0.0133570
930.771	0.0132514
930.849	0.0133998
930.927	0.0133614
931.005	0.0133118
931.083	0.0133000
931.161	0.0132257
931.239	0.0134348
931.318	0.0132951
931.396	0.0133134
931.474	0.0134454
931.552	0.0131973
931.630	0.0132619
931.708	0.0134361
931.786	0.0134560
931.864	0.0131892
931.943	0.0133900
932.021	0.0131516
932.099	0.0132961
932.177	0.0133142
932.255	0.0132867
932.333	0.0132399
932.411	0.0132942
932.489	0.0133287
932.568	0.0132298
932.646	0.0132155
932.724	0.0131823
932.802	0.0131470
932.880	0.0132092
932.958	0.0131406
933.036	0.0131309
933.114	0.0132161
933.193	0.0131725
933.271	0.0132020
933.349	0.0131940
933.427	0.0132500
933.505	0.0132475
933.583	0.0131691
933.661	0.0132596
933.739	0.0132216
933.818	0.0132690
933.896	0.0133108
933.974	0.0131960
934.052	0.0132293
934.130	0.0133443
934.208	0.0133284
934.286	0.0132641
934.364	0.0132111
934.443	0.0133713
934.521	0.0132574
934.599	0.0133547
934.677	0.0132375
934.755	0.0131289
934.833	0.0132893
934.911	0.0132793
934.989	0.0132640
935.068	0.0133639
935.146	0.0134259
935.224	0.0132961
935.302	0.0132875
935.380	0.0134162
935.458	0.0134491
935.536	0.0134586
935.614	0.0134214
935.693	0.0136217
935.771	0.0136973
935.849	0.0135915
935.927	0.0135899
936.005	0.0135193
936.083	0.0136212
936.161	0.0135746
936.239	0.0137146
936.318	0.0134896
936.396	0.0136263
936.474	0.0137408
936.552	0.0135499
936.630	0.0137691
936.708	0.0135480
936.786	0.0135188
936.864	0.0133093
936.943	0.0134457
937.021	0.0135011
937.099	0.0134387
937.177	0.0135526
937.255	0.0135090
937.333	0.0132970
937.411	0.0133939
937.489	0.0131991
937.568	0.0132491
937.646	0.0132073
937.724	0.0130502
937.802	0.0130175
937.880	0.0131198
937.958	0.0130874
938.036	0.0130621
938.114	0.0129105
938.193	0.0130233
938.271	0.0130492
938.349	0.0130080
938.427	0.0129804
938.505	0.0130550
938.583	0.0129737
938.661	0.0131222
938.739	0.0131049
938.818	0.0131596
938.896	0.0131845
938.974	0.0131620
939.052	0.0131337
939.130	0.0131218
939.208	0.0131668
939.286	0.0130595
939.364	0.0132214
939.443	0.0132652
939.521	0.0132880
939.599	0.0133608
939.677	0.0134981
939.755	0.0133862
939.833	0.0134605
939.911	0.0133765
939.989	0.0135346
940.068	0.0136361
940.146	0.0135155
940.224	0.0136721
940.302	0.0135805
940.380	0.0135459
940.458	0.0136263
940.536	0.0136603
940.614	0.0136073
940.693	0.0135024
940.771	0.0137059
940.849	0.0134370
940.927	0.0135105
941.005	0.0134546
941.083	0.0135838
941.161	0.0134850
941.239	0.0134151
941.318	0.0134464
941.396	0.0134258
941.474	0.0135668
941.552	0.0134584
941.630	0.0135617
941.708	0.0133287
941.786	0.0132296
941.864	0.0134132
941.943	0.0134398
942.021	0.0134444
942.099	0.0134556
942.177	0.0133406
942.255	0.0133133
942.333	0.0134120
942.411	0.0133865
942.489	0.0133542
942.568	0.0135408
942.646	0.0133997
942.724	0.0133039
942.802	0.0132828
942.880	0.0133673
942.958	0.0133325
943.036	0.0133482
943.114	0.0134031
943.193	0.0132896
943.271	0.0132569
943.349	0.0132108
943.427	0.0132764
943.505	0.0133306
943.583	0.0133086
943.661	0.0133355
943.739	0.0134397
943.818	0.0133751
943.896	0.0132390
943.974	0.0133907
944.052	0.0134289
944.130	0.0134339
944.208	0.0136132
944.286	0.0133552
944.364	0.0135042
944.443	0.0133345
944.521	0.0134178
944.599	0.0134679
944.677	0.0135207
944.755	0.0135309
944.833	0.0134010
944.911	0.0133805
944.989	0.0134437
945.068	0.0134901
945.146	0.0134726
945.224	0.0133495
945.302	0.0133192
945.380	0.0133745
945.458	0.0133772
945.536	0.0132134
945.614	0.0132556
945.693	0.0132961
945.771	0.0134921
945.849	0.0133837
945.927	0.0133836
946.005	0.0133649
946.083	0.0134882
946.161	0.0132964
946.239	0.0133820
946.318	0.0134548
946.396	0.0133971
946.474	0.0134576
946.552	0.0133833
946.630	0.0134463
946.708	0.0134959
946.786	0.0133439
946.864	0.0134141
946.943	0.0134472
947.021	0.0134068
947.099	0.0134524
947.177	0.0134161
947.255	0.0133992
947.333	0.0133672
947.411	0.0133142
947.489	0.0133953
947.568	0.0134131
947.646	0.0133283
947.724	0.0134207
947.802	0.0133440
947.880	0.0133639
947.958	0.0135411
948.036	0.0133723
948.114	0.0133588
948.193	0.0134245
948.271	0.0134928
948.349	0.0133480
948.427	0.0135058
948.505	0.0135252
948.583	0.0135094
948.661	0.0133974
948.739	0.0134491
948.818	0.0135059
948.896	0.0134929
948.974	0.0135215
949.052	0.0134628
949.130	0.0134472
949.208	0.0133212
949.286	0.0132710
949.364	0.0133322
949.443	0.0134673
949.521	0.0132858
949.599	0.0133131
949.677	0.0131920
949.755	0.0132340
949.833	0.0132042
949.911	0.0132889
949.989	0.0132559
950.068	0.0132838
950.146	0.0131498
950.224	0.0131351
950.302	0.0133214
950.380	0.0132233
950.458	0.0132817
950.536	0.0131814
950.614	0.0131903
950.693	0.0134524
950.771	0.0133883
950.849	0.0133601
950.927	0.0133125
951.005	0.0131815
951.083	0.0131898
951.161	0.0132119
951.239	0.0132985
951.318	0.0133456
951.396	0.0131900
951.474	0.0131973
951.552	0.0133358
951.630	0.0132916
951.708	0.0132413
951.786	0.0133620
951.864	0.0133502
951.943	0.0132548
952.021	0.0133458
952.099	0.0133403
952.177	0.0134093
952.255	0.0134032
952.333	0.0136030
952.411	0.0135827
952.489	0.0134061
952.568	0.0136242
952.646	0.0135600
952.724	0.0134752
952.802	0.0134740
952.880	0.0135406
952.958	0.0134918
953.036	0.0133487
953.114	0.0134858
953.193	0.0136290
953.271	0.0134197
953.349	0.0134405
953.427	0.0133659
953.505	0.0134274
953.583	0.0133559
953.661	0.0134183
953.739	0.0133488
953.818	0.0133694
953.896	0.0134452
953.974	0.0133575
954.052	0.0132471
954.130	0.0131958
954.208	0.0132852
954.286	0.0133381
954.364	0.0131860
954.443	0.0132496
954.521	0.0132275
954.599	0.0132527
954.677	0.0132523
954.755	0.0132291
954.833	0.0134219
954.911	0.0132510
954.989	0.0132287
955.068	0.0134148
955.146	0.0133214
955.224	0.0132841
955.302	0.0133612
955.380	0.0132564
955.458	0.0133052
955.536	0.0132510
955.614	0.0132619
955.693	0.0133809
955.771	0.0133209
955.849	0.0132987
955.927	0.0132462
956.005	0.0132675
956.083	0.0133363
956.161	0.0132691
956.239	0.0133767
956.318	0.0131905
956.396	0.0133175
956.474	0.0132584
956.552	0.0133761
956.630	0.0134661
956.708	0.0133623
956.786	0.0133252
956.864	0.0134048
956.943	0.0133279
957.021	0.0132219
957.099	0.0134911
957.177	0.0133570
957.255	0.0135210
957.333	0.0134304
957.411	0.0133704
957.489	0.0132803
957.568	0.0134644
957.646	0.0134512
957.724	0.0133976
957.802	0.0134038
957.880	0.0132847
957.958	0.0133512
958.036	0.0133506
958.114	0.0131930
958.193	0.0132888
958.271	0.0133448
958.349	0.0131663
958.427	0.0134164
958.505	0.0132463
958.583	0.0132941
958.661	0.0133488
958.739	0.0132260
958.818	0.0133284
958.896	0.0133414
958.974	0.0133917
959.052	0.0134016
959.130	0.0134437
959.208	0.0134366
959.286	0.0132643
959.364	0.0133583
959.443	0.0133334
959.521	0.0132976
959.599	0.0132924
959.677	0.0134249
959.755	0.0134750
959.833	0.0133360
959.911	0.0133586
