05/14/2022	16:41:22	Ver.	4.1	UNKNOWN
Optical Delay	639.989416	Delta X		0.078125	Sweeps	1	Scan Rate	0/0
Coordinates	Axis 1	NaN	Axis 2	NaN	Axis 3	NaN	Axis 4	NaN	Axis 5	NaN	Axis 6	0.000000
TX Power	0.000000	RX Power	0.000000

639.989	0.0137196
640.068	0.0137863
640.146	0.0137570
640.224	0.0137741
640.302	0.0138029
640.380	0.0136942
640.458	0.0137295
640.536	0.0138785
640.614	0.0136379
640.693	0.0137129
640.771	0.0137469
640.849	0.0136710
640.927	0.0138826
641.005	0.0137644
641.083	0.0137196
641.161	0.0137335
641.239	0.0137952
641.318	0.0137257
641.396	0.0137253
641.474	0.0137509
641.552	0.0137611
641.630	0.0136741
641.708	0.0136523
641.786	0.0135800
641.864	0.0137563
641.943	0.0136880
642.021	0.0137815
642.099	0.0137464
642.177	0.0137231
642.255	0.0137076
642.333	0.0138869
642.411	0.0138090
642.489	0.0136913
642.568	0.0138052
642.646	0.0137598
642.724	0.0136458
642.802	0.0136562
642.880	0.0137202
642.958	0.0136729
643.036	0.0137740
643.114	0.0137785
643.193	0.0138175
643.271	0.0137101
643.349	0.0136157
643.427	0.0136617
643.505	0.0137652
643.583	0.0137886
643.661	0.0136725
643.739	0.0136903
643.818	0.0136307
643.896	0.0137197
643.974	0.0137430
644.052	0.0136947
644.130	0.0137733
644.208	0.0138458
644.286	0.0136385
644.364	0.0136826
644.443	0.0136642
644.521	0.0138235
644.599	0.0138725
644.677	0.0139268
644.755	0.0137964
644.833	0.0138244
644.911	0.0138263
644.989	0.0137996
645.068	0.0137897
645.146	0.0138064
645.224	0.0138630
645.302	0.0137206
645.380	0.0139059
645.458	0.0137599
645.536	0.0138382
645.614	0.0138536
645.693	0.0137749
645.771	0.0138741
645.849	0.0138242
645.927	0.0138583
646.005	0.0137553
646.083	0.0139473
646.161	0.0138148
646.239	0.0138753
646.318	0.0138896
646.396	0.0137747
646.474	0.0138304
646.552	0.0139428
646.630	0.0136846
646.708	0.0138178
646.786	0.0136883
646.864	0.0137936
646.943	0.0138755
647.021	0.0139618
647.099	0.0137573
647.177	0.0137656
647.255	0.0137722
647.333	0.0139764
647.411	0.0137880
647.489	0.0138210
647.568	0.0137982
647.646	0.0137844
647.724	0.0138079
647.802	0.0137653
647.880	0.0138948
647.958	0.0138817
648.036	0.0138485
648.114	0.0136699
648.193	0.0136739
648.271	0.0136957
648.349	0.0136544
648.427	0.0137627
648.505	0.0137666
648.583	0.0137987
648.661	0.0137569
648.739	0.0138666
648.818	0.0138876
648.896	0.0138874
648.974	0.0139581
649.052	0.0138565
649.130	0.0138148
649.208	0.0138040
649.286	0.0136878
649.364	0.0138028
649.443	0.0137831
649.521	0.0138109
649.599	0.0137942
649.677	0.0137714
649.755	0.0138464
649.833	0.0136809
649.911	0.0136737
649.989	0.0137908
650.068	0.0136567
650.146	0.0136831
650.224	0.0136927
650.302	0.0137196
650.380	0.0138554
650.458	0.0136999
650.536	0.0139156
650.614	0.0138426
650.693	0.0137415
650.771	0.0138197
650.849	0.0139001
650.927	0.0138528
651.005	0.0138131
651.083	0.0136593
651.161	0.0137359
651.239	0.0137225
651.318	0.0139000
651.396	0.0137564
651.474	0.0137449
651.552	0.0138329
651.630	0.0138327
651.708	0.0137620
651.786	0.0136681
651.864	0.0137313
651.943	0.0135956
652.021	0.0137866
652.099	0.0137369
652.177	0.0137442
652.255	0.0136147
652.333	0.0139146
652.411	0.0136866
652.489	0.0136240
652.568	0.0136568
652.646	0.0138303
652.724	0.0137453
652.802	0.0136118
652.880	0.0136701
652.958	0.0137882
653.036	0.0137036
653.114	0.0136153
653.193	0.0136005
653.271	0.0137302
653.349	0.0137751
653.427	0.0137250
653.505	0.0137147
653.583	0.0137634
653.661	0.0138824
653.739	0.0137894
653.818	0.0137179
653.896	0.0138082
653.974	0.0137767
654.052	0.0136957
654.130	0.0137815
654.208	0.0138153
654.286	0.0137394
654.364	0.0137425
654.443	0.0138342
654.521	0.0138051
654.599	0.0138810
654.677	0.0137467
654.755	0.0137230
654.833	0.0139371
654.911	0.0138277
654.989	0.0138912
655.068	0.0138252
655.146	0.0139099
655.224	0.0136971
655.302	0.0137674
655.380	0.0138317
655.458	0.0136882
655.536	0.0137438
655.614	0.0138413
655.693	0.0137895
655.771	0.0137671
655.849	0.0137830
655.927	0.0137486
656.005	0.0136714
656.083	0.0137328
656.161	0.0138577
656.239	0.0138213
656.318	0.0136797
656.396	0.0136584
656.474	0.0137977
656.552	0.0136613
656.630	0.0137202
656.708	0.0137017
656.786	0.0137770
656.864	0.0137097
656.943	0.0136362
657.021	0.0137123
657.099	0.0137589
657.177	0.0137315
657.255	0.0136999
657.333	0.0138187
657.411	0.0138712
657.489	0.0137860
657.568	0.0136890
657.646	0.0136057
657.724	0.0138424
657.802	0.0138601
657.880	0.0137181
657.958	0.0136375
658.036	0.0137521
658.114	0.0138325
658.193	0.0137509
658.271	0.0136404
658.349	0.0137035
658.427	0.0138257
658.505	0.0137472
658.583	0.0136975
658.661	0.0136806
658.739	0.0138174
658.818	0.0136922
658.896	0.0138192
658.974	0.0137662
659.052	0.0137820
659.130	0.0137767
659.208	0.0137057
659.286	0.0137310
659.364	0.0137691
659.443	0.0136310
659.521	0.0138107
659.599	0.0137973
659.677	0.0138277
659.755	0.0137709
659.833	0.0137009
659.911	0.0138122
659.989	0.0137529
660.068	0.0137079
660.146	0.0137827
660.224	0.0140101
660.302	0.0138264
660.380	0.0138430
660.458	0.0138482
660.536	0.0139513
660.614	0.0138638
660.693	0.0139523
660.771	0.0139971
660.849	0.0139295
660.927	0.0140255
661.005	0.0136986
661.083	0.0137500
661.161	0.0138477
661.239	0.0137666
661.318	0.0138734
661.396	0.0138111
661.474	0.0137818
661.552	0.0138538
661.630	0.0136618
661.708	0.0138486
661.786	0.0137625
661.864	0.0136954
661.943	0.0138174
662.021	0.0136684
662.099	0.0135720
662.177	0.0137349
662.255	0.0137849
662.333	0.0138760
662.411	0.0138631
662.489	0.0138413
662.568	0.0138172
662.646	0.0138902
662.724	0.0138165
662.802	0.0138370
662.880	0.0138970
662.958	0.0138663
663.036	0.0138393
663.114	0.0138035
663.193	0.0138699
663.271	0.0137650
663.349	0.0137181
663.427	0.0137363
663.505	0.0138763
663.583	0.0137115
663.661	0.0138790
663.739	0.0137848
663.818	0.0137650
663.896	0.0136743
663.974	0.0137956
664.052	0.0138266
664.130	0.0138950
664.208	0.0138344
664.286	0.0137733
664.364	0.0138660
664.443	0.0138087
664.521	0.0138618
664.599	0.0139875
664.677	0.0137855
664.755	0.0137132
664.833	0.0138199
664.911	0.0138955
664.989	0.0136612
665.068	0.0137569
665.146	0.0137943
665.224	0.0137650
665.302	0.0136060
665.380	0.0137008
665.458	0.0138205
665.536	0.0137465
665.614	0.0137598
665.693	0.0137661
665.771	0.0138551
665.849	0.0137132
665.927	0.0137296
666.005	0.0138019
666.083	0.0138557
666.161	0.0138091
666.239	0.0138441
666.318	0.0137083
666.396	0.0138389
666.474	0.0137742
666.552	0.0138034
666.630	0.0136997
666.708	0.0138128
666.786	0.0137074
666.864	0.0138151
666.943	0.0137025
667.021	0.0138094
667.099	0.0136997
667.177	0.0136911
667.255	0.0136827
667.333	0.0136874
667.411	0.0137969
667.489	0.0137633
667.568	0.0135736
667.646	0.0136453
667.724	0.0136830
667.802	0.0138315
667.880	0.0136700
667.958	0.0136603
668.036	0.0137508
668.114	0.0137260
668.193	0.0136293
668.271	0.0137343
668.349	0.0136604
668.427	0.0136115
668.505	0.0136097
668.583	0.0135381
668.661	0.0135867
668.739	0.0135547
668.818	0.0135847
668.896	0.0136179
668.974	0.0136009
669.052	0.0136317
669.130	0.0136193
669.208	0.0135178
669.286	0.0136231
669.364	0.0136986
669.443	0.0137531
669.521	0.0137666
669.599	0.0137608
669.677	0.0137347
669.755	0.0138936
669.833	0.0138905
669.911	0.0137466
669.989	0.0138169
670.068	0.0138452
670.146	0.0137685
670.224	0.0137763
670.302	0.0137905
670.380	0.0137447
670.458	0.0139184
670.536	0.0138847
670.614	0.0138536
670.693	0.0136110
670.771	0.0137189
670.849	0.0137190
670.927	0.0136974
671.005	0.0137029
671.083	0.0136320
671.161	0.0136683
671.239	0.0137778
671.318	0.0137225
671.396	0.0135964
671.474	0.0136955
671.552	0.0137813
671.630	0.0139139
671.708	0.0139294
671.786	0.0137418
671.864	0.0137802
671.943	0.0138123
672.021	0.0137849
672.099	0.0137578
672.177	0.0138985
672.255	0.0138348
672.333	0.0138428
672.411	0.0136409
672.489	0.0136153
672.568	0.0135940
672.646	0.0135506
672.724	0.0134491
672.802	0.0133212
672.880	0.0132227
672.958	0.0133787
673.036	0.0133625
673.114	0.0133324
673.193	0.0133356
673.271	0.0134203
673.349	0.0134840
673.427	0.0135831
673.505	0.0134890
673.583	0.0137682
673.661	0.0138204
673.739	0.0138532
673.818	0.0140717
673.896	0.0142713
673.974	0.0143447
674.052	0.0142718
674.130	0.0143233
674.208	0.0145285
674.286	0.0146358
674.364	0.0144553
674.443	0.0144894
674.521	0.0145456
674.599	0.0145588
674.677	0.0143616
674.755	0.0142430
674.833	0.0140344
674.911	0.0140532
674.989	0.0139092
675.068	0.0135864
675.146	0.0134279
675.224	0.0132757
675.302	0.0131287
675.380	0.0130550
675.458	0.0128401
675.536	0.0126543
675.614	0.0126949
675.693	0.0124583
675.771	0.0124021
675.849	0.0123805
675.927	0.0124687
676.005	0.0123969
676.083	0.0124999
676.161	0.0126291
676.239	0.0126868
676.318	0.0128659
676.396	0.0131324
676.474	0.0132455
676.552	0.0133569
676.630	0.0135747
676.708	0.0138436
676.786	0.0140080
676.864	0.0143393
676.943	0.0145429
677.021	0.0148158
677.099	0.0149998
677.177	0.0152095
677.255	0.0153680
677.333	0.0154218
677.411	0.0155521
677.489	0.0156199
677.568	0.0155631
677.646	0.0156064
677.724	0.0155876
677.802	0.0154723
677.880	0.0153888
677.958	0.0152302
678.036	0.0148098
678.114	0.0147523
678.193	0.0145451
678.271	0.0141284
678.349	0.0138685
678.427	0.0136908
678.505	0.0134509
678.583	0.0131111
678.661	0.0127467
678.739	0.0125616
678.818	0.0123515
678.896	0.0121008
678.974	0.0119176
679.052	0.0117741
679.130	0.0117266
679.208	0.0115805
679.286	0.0115750
679.364	0.0114896
679.443	0.0115726
679.521	0.0117029
679.599	0.0117288
679.677	0.0117991
679.755	0.0120795
679.833	0.0122079
679.911	0.0123582
679.989	0.0126562
680.068	0.0129008
680.146	0.0129888
680.224	0.0133626
680.302	0.0137036
680.380	0.0141275
680.458	0.0145190
680.536	0.0148129
680.614	0.0150251
680.693	0.0154821
680.771	0.0158277
680.849	0.0162484
680.927	0.0163647
681.005	0.0166567
681.083	0.0169524
681.161	0.0171072
681.239	0.0171807
681.318	0.0173004
681.396	0.0172590
681.474	0.0171334
681.552	0.0169677
681.630	0.0166760
681.708	0.0166885
681.786	0.0161459
681.864	0.0157576
681.943	0.0153872
682.021	0.0150343
682.099	0.0144347
682.177	0.0139162
682.255	0.0134635
682.333	0.0129196
682.411	0.0125208
682.489	0.0118148
682.568	0.0113759
682.646	0.0111064
682.724	0.0106383
682.802	0.0101613
682.880	0.00993149
682.958	0.00964096
683.036	0.00969215
683.114	0.00964134
683.193	0.00946709
683.271	0.00952332
683.349	0.00971878
683.427	0.0101733
683.505	0.0104096
683.583	0.0105829
683.661	0.0109995
683.739	0.0115692
683.818	0.0121074
683.896	0.0127737
683.974	0.0132057
684.052	0.0137134
684.130	0.0141587
684.208	0.0146856
684.286	0.0151759
684.364	0.0154815
684.443	0.0159144
684.521	0.0165099
684.599	0.0168656
684.677	0.0170771
684.755	0.0172952
684.833	0.0175912
684.911	0.0176524
684.989	0.0178685
685.068	0.0180186
685.146	0.0178291
685.224	0.0176872
685.302	0.0177245
685.380	0.0175987
685.458	0.0173421
685.536	0.0169018
685.614	0.0165314
685.693	0.0160754
685.771	0.0157430
685.849	0.0151842
685.927	0.0148480
686.005	0.0144040
686.083	0.0138079
686.161	0.0133018
686.239	0.0127335
686.318	0.0122350
686.396	0.0117723
686.474	0.0115093
686.552	0.0110078
686.630	0.0106651
686.708	0.0105318
686.786	0.0102155
686.864	0.00995796
686.943	0.00990456
687.021	0.00976685
687.099	0.00971771
687.177	0.00975868
687.255	0.00975266
687.333	0.00995644
687.411	0.0100396
687.489	0.0103378
687.568	0.0107703
687.646	0.0108872
687.724	0.0111636
687.802	0.0115285
687.880	0.0119749
687.958	0.0124014
688.036	0.0127469
688.114	0.0132165
688.193	0.0136798
688.271	0.0142500
688.349	0.0145472
688.427	0.0150075
688.505	0.0155573
688.583	0.0157965
688.661	0.0160684
688.739	0.0164000
688.818	0.0166935
688.896	0.0167623
688.974	0.0168209
689.052	0.0170410
689.130	0.0170736
689.208	0.0170882
689.286	0.0170758
689.364	0.0169662
689.443	0.0166557
689.521	0.0165044
689.599	0.0163053
689.677	0.0158980
689.755	0.0156450
689.833	0.0153971
689.911	0.0149500
689.989	0.0144606
690.068	0.0143758
690.146	0.0138934
690.224	0.0136165
690.302	0.0132932
690.380	0.0130384
690.458	0.0127856
690.536	0.0124982
690.614	0.0122497
690.693	0.0121041
690.771	0.0118684
690.849	0.0118071
690.927	0.0117004
691.005	0.0115781
691.083	0.0113557
691.161	0.0113416
691.239	0.0113191
691.318	0.0113505
691.396	0.0115348
691.474	0.0116496
691.552	0.0118154
691.630	0.0118701
691.708	0.0121246
691.786	0.0124661
691.864	0.0126141
691.943	0.0128585
692.021	0.0131048
692.099	0.0133698
692.177	0.0134935
692.255	0.0136598
692.333	0.0139716
692.411	0.0139503
692.489	0.0140868
692.568	0.0141328
692.646	0.0142699
692.724	0.0144925
692.802	0.0145119
692.880	0.0144525
692.958	0.0146039
693.036	0.0146726
693.114	0.0147661
693.193	0.0146292
693.271	0.0144973
693.349	0.0144876
693.427	0.0145571
693.505	0.0144798
693.583	0.0143127
693.661	0.0142722
693.739	0.0141444
693.818	0.0140691
693.896	0.0140337
693.974	0.0137472
694.052	0.0137411
694.130	0.0137713
694.208	0.0137366
694.286	0.0137224
694.364	0.0135880
694.443	0.0134569
694.521	0.0134309
694.599	0.0134303
694.677	0.0136002
694.755	0.0136167
694.833	0.0135924
694.911	0.0136845
694.989	0.0137054
695.068	0.0137862
695.146	0.0139003
695.224	0.0139354
695.302	0.0141578
695.380	0.0142955
695.458	0.0143069
695.536	0.0142139
695.614	0.0144019
695.693	0.0145055
695.771	0.0145817
695.849	0.0145720
695.927	0.0144210
696.005	0.0145982
696.083	0.0147205
696.161	0.0146548
696.239	0.0144891
696.318	0.0143792
696.396	0.0143675
696.474	0.0142667
696.552	0.0141058
696.630	0.0139150
696.708	0.0138343
696.786	0.0137411
696.864	0.0134638
696.943	0.0132796
697.021	0.0130018
697.099	0.0128345
697.177	0.0126390
697.255	0.0126796
697.333	0.0123775
697.411	0.0122723
697.489	0.0121983
697.568	0.0120512
697.646	0.0120842
697.724	0.0118778
697.802	0.0120069
697.880	0.0120647
697.958	0.0121819
698.036	0.0122424
698.114	0.0122478
698.193	0.0125353
698.271	0.0126380
698.349	0.0128033
698.427	0.0129638
698.505	0.0132018
698.583	0.0134111
698.661	0.0137412
698.739	0.0139025
698.818	0.0140847
698.896	0.0145154
698.974	0.0144630
699.052	0.0148167
699.130	0.0148170
699.208	0.0148994
699.286	0.0149028
699.364	0.0148986
699.443	0.0150558
699.521	0.0149497
699.599	0.0148816
699.677	0.0147939
699.755	0.0147000
699.833	0.0144207
699.911	0.0144173
699.989	0.0143791
700.068	0.0142123
700.146	0.0141618
700.224	0.0140901
700.302	0.0141392
700.380	0.0140878
700.458	0.0140115
700.536	0.0140494
700.614	0.0142681
700.693	0.0142581
700.771	0.0142237
700.849	0.0143803
700.927	0.0144013
701.005	0.0146767
701.083	0.0147232
701.161	0.0149187
701.239	0.0150739
701.318	0.0151490
701.396	0.0153584
701.474	0.0152196
701.552	0.0153098
701.630	0.0152447
701.708	0.0151726
701.786	0.0149284
701.864	0.0149355
701.943	0.0146102
702.021	0.0142951
702.099	0.0140661
702.177	0.0137611
702.255	0.0132872
702.333	0.0130317
702.411	0.0127731
702.489	0.0124718
702.568	0.0120187
702.646	0.0117548
702.724	0.0115929
702.802	0.0112637
702.880	0.0111201
702.958	0.0109388
703.036	0.0107241
703.114	0.0107452
703.193	0.0104938
703.271	0.0105626
703.349	0.0106486
703.427	0.0107224
703.505	0.0110194
703.583	0.0111649
703.661	0.0114122
703.739	0.0116361
703.818	0.0120927
703.896	0.0123599
703.974	0.0126009
704.052	0.0129788
704.130	0.0134849
704.208	0.0139000
704.286	0.0143516
704.364	0.0145683
704.443	0.0150254
704.521	0.0152460
704.599	0.0154942
704.677	0.0157632
704.755	0.0160094
704.833	0.0161141
704.911	0.0163618
704.989	0.0166241
705.068	0.0167254
705.146	0.0168222
705.224	0.0169090
705.302	0.0171105
705.380	0.0168861
705.458	0.0168735
705.536	0.0168134
705.614	0.0167885
705.693	0.0167161
705.771	0.0165036
705.849	0.0162140
705.927	0.0160486
706.005	0.0157335
706.083	0.0154635
706.161	0.0151898
706.239	0.0150352
706.318	0.0147308
706.396	0.0142621
706.474	0.0139217
706.552	0.0136082
706.630	0.0132893
706.708	0.0128766
706.786	0.0124864
706.864	0.0121458
706.943	0.0119596
707.021	0.0115034
707.099	0.0112445
707.177	0.0109586
707.255	0.0107228
707.333	0.0105576
707.411	0.0104980
707.489	0.0104088
707.568	0.0104233
707.646	0.0104651
707.724	0.0105577
707.802	0.0107263
707.880	0.0107843
707.958	0.0109714
708.036	0.0112740
708.114	0.0115073
708.193	0.0117723
708.271	0.0121048
708.349	0.0125371
708.427	0.0128150
708.505	0.0131958
708.583	0.0134843
708.661	0.0137826
708.739	0.0139838
708.818	0.0144439
708.896	0.0146374
708.974	0.0148659
709.052	0.0151175
709.130	0.0152888
709.208	0.0155203
709.286	0.0154987
709.364	0.0154919
709.443	0.0155659
709.521	0.0157175
709.599	0.0157191
709.677	0.0155480
709.755	0.0155430
709.833	0.0155636
709.911	0.0153666
709.989	0.0152788
710.068	0.0151962
710.146	0.0149178
710.224	0.0147894
710.302	0.0146484
710.380	0.0143494
710.458	0.0142606
710.536	0.0140495
710.614	0.0138978
710.693	0.0136110
710.771	0.0135220
710.849	0.0133991
710.927	0.0131531
711.005	0.0131348
711.083	0.0131298
711.161	0.0130625
711.239	0.0128500
711.318	0.0129705
711.396	0.0130363
711.474	0.0128412
711.552	0.0130281
711.630	0.0131726
711.708	0.0132093
711.786	0.0131589
711.864	0.0132871
711.943	0.0135386
712.021	0.0136740
712.099	0.0137366
712.177	0.0137630
712.255	0.0138771
712.333	0.0137782
712.411	0.0137697
712.489	0.0138534
712.568	0.0137913
712.646	0.0136643
712.724	0.0134883
712.802	0.0133048
712.880	0.0131917
712.958	0.0130612
713.036	0.0129828
713.114	0.0129002
713.193	0.0127357
713.271	0.0126823
713.349	0.0126202
713.427	0.0124378
713.505	0.0125912
713.583	0.0127220
713.661	0.0127446
713.739	0.0127659
713.818	0.0127624
713.896	0.0129183
713.974	0.0129327
714.052	0.0129854
714.130	0.0131551
714.208	0.0132137
714.286	0.0134518
714.364	0.0135460
714.443	0.0134475
714.521	0.0135979
714.599	0.0137856
714.677	0.0138150
714.755	0.0139178
714.833	0.0138098
714.911	0.0139550
714.989	0.0139372
715.068	0.0141698
715.146	0.0140392
715.224	0.0139579
715.302	0.0140419
715.380	0.0140657
715.458	0.0141650
715.536	0.0141441
715.614	0.0143048
715.693	0.0142406
715.771	0.0141348
715.849	0.0144066
715.927	0.0144788
716.005	0.0145072
716.083	0.0143928
716.161	0.0143895
716.239	0.0143272
716.318	0.0143768
716.396	0.0143507
716.474	0.0142810
716.552	0.0142767
716.630	0.0141820
716.708	0.0142200
716.786	0.0141277
716.864	0.0139532
716.943	0.0141294
717.021	0.0139651
717.099	0.0137729
717.177	0.0137601
717.255	0.0137225
717.333	0.0135484
717.411	0.0134902
717.489	0.0133807
717.568	0.0132456
717.646	0.0130322
717.724	0.0128700
717.802	0.0127634
717.880	0.0126881
717.958	0.0125648
718.036	0.0125332
718.114	0.0122394
718.193	0.0124277
718.271	0.0123492
718.349	0.0124207
718.427	0.0124143
718.505	0.0125436
718.583	0.0124358
718.661	0.0127935
718.739	0.0128476
718.818	0.0129819
718.896	0.0132294
718.974	0.0133060
719.052	0.0134650
719.130	0.0137009
719.208	0.0139314
719.286	0.0141383
719.364	0.0144496
719.443	0.0144617
719.521	0.0146236
719.599	0.0148298
719.677	0.0147940
719.755	0.0148896
719.833	0.0150720
719.911	0.0150922
719.989	0.0150385
720.068	0.0150369
720.146	0.0148402
720.224	0.0148375
720.302	0.0147736
720.380	0.0146188
720.458	0.0146215
720.536	0.0144189
720.614	0.0143349
720.693	0.0139711
720.771	0.0138155
720.849	0.0138451
720.927	0.0135391
721.005	0.0133966
721.083	0.0134698
721.161	0.0131837
721.239	0.0131459
721.318	0.0132336
721.396	0.0132123
721.474	0.0133315
721.552	0.0132406
721.630	0.0132433
721.708	0.0133266
721.786	0.0135268
721.864	0.0134973
721.943	0.0134318
722.021	0.0136838
722.099	0.0137067
722.177	0.0137885
722.255	0.0136792
722.333	0.0137124
722.411	0.0138377
722.489	0.0137315
722.568	0.0138942
722.646	0.0141244
722.724	0.0140607
722.802	0.0138831
722.880	0.0138675
722.958	0.0137575
723.036	0.0137337
723.114	0.0137890
723.193	0.0135806
723.271	0.0137341
723.349	0.0136344
723.427	0.0133936
723.505	0.0135510
723.583	0.0133679
723.661	0.0136108
723.739	0.0134337
723.818	0.0133330
723.896	0.0134229
723.974	0.0134875
724.052	0.0136224
724.130	0.0135999
724.208	0.0136459
724.286	0.0138078
724.364	0.0138895
724.443	0.0138983
724.521	0.0140452
724.599	0.0140161
724.677	0.0141769
724.755	0.0142720
724.833	0.0142472
724.911	0.0143628
724.989	0.0144194
725.068	0.0144381
725.146	0.0144927
725.224	0.0145585
725.302	0.0145681
725.380	0.0145703
725.458	0.0145712
725.536	0.0146174
725.614	0.0145375
725.693	0.0144685
725.771	0.0143718
725.849	0.0142492
725.927	0.0141225
726.005	0.0139614
726.083	0.0138340
726.161	0.0135677
726.239	0.0135531
726.318	0.0132548
726.396	0.0132601
726.474	0.0130854
726.552	0.0128653
726.630	0.0128153
726.708	0.0130367
726.786	0.0129189
726.864	0.0130753
726.943	0.0131613
727.021	0.0131586
727.099	0.0133659
727.177	0.0135243
727.255	0.0137178
727.333	0.0137845
727.411	0.0137682
727.489	0.0140657
727.568	0.0142769
727.646	0.0141312
727.724	0.0142645
727.802	0.0141916
727.880	0.0141302
727.958	0.0141407
728.036	0.0140575
728.114	0.0140385
728.193	0.0140363
728.271	0.0138702
728.349	0.0138366
728.427	0.0137139
728.505	0.0135954
728.583	0.0133403
728.661	0.0134991
728.739	0.0134112
728.818	0.0132210
728.896	0.0130809
728.974	0.0132021
729.052	0.0130378
729.130	0.0130736
729.208	0.0129914
729.286	0.0129990
729.364	0.0131169
729.443	0.0132211
729.521	0.0134356
729.599	0.0134161
729.677	0.0135419
729.755	0.0137585
729.833	0.0139532
729.911	0.0139454
729.989	0.0141175
730.068	0.0141302
730.146	0.0140568
730.224	0.0140910
730.302	0.0141911
730.380	0.0141152
730.458	0.0141772
730.536	0.0140846
730.614	0.0140205
730.693	0.0140526
730.771	0.0138338
730.849	0.0139671
730.927	0.0140064
731.005	0.0137153
731.083	0.0139713
731.161	0.0138060
731.239	0.0139420
731.318	0.0137759
731.396	0.0137325
731.474	0.0139000
731.552	0.0137780
731.630	0.0137006
731.708	0.0136679
731.786	0.0137294
731.864	0.0136852
731.943	0.0135242
732.021	0.0135246
732.099	0.0135473
732.177	0.0135123
732.255	0.0135277
732.333	0.0135357
732.411	0.0136823
732.489	0.0133687
732.568	0.0134834
732.646	0.0135501
732.724	0.0135909
732.802	0.0135553
732.880	0.0135440
732.958	0.0135735
733.036	0.0137414
733.114	0.0136017
733.193	0.0134698
733.271	0.0135609
733.349	0.0136040
733.427	0.0135330
733.505	0.0134890
733.583	0.0133649
733.661	0.0134010
733.739	0.0134540
733.818	0.0134602
733.896	0.0134769
733.974	0.0134331
734.052	0.0132930
734.130	0.0133748
734.208	0.0135268
734.286	0.0135382
734.364	0.0135311
734.443	0.0135883
734.521	0.0136974
734.599	0.0138029
734.677	0.0137798
734.755	0.0137627
734.833	0.0139057
734.911	0.0139226
734.989	0.0139141
735.068	0.0139393
735.146	0.0138235
735.224	0.0140473
735.302	0.0139108
735.380	0.0138416
735.458	0.0140512
735.536	0.0139495
735.614	0.0139899
735.693	0.0139612
735.771	0.0140590
735.849	0.0140381
735.927	0.0140514
736.005	0.0140772
736.083	0.0140163
736.161	0.0139912
736.239	0.0141167
736.318	0.0140434
736.396	0.0139871
736.474	0.0140014
736.552	0.0138991
736.630	0.0138982
736.708	0.0139587
736.786	0.0139571
736.864	0.0139454
736.943	0.0137035
737.021	0.0137241
737.099	0.0138483
737.177	0.0137505
737.255	0.0137782
737.333	0.0138588
737.411	0.0138960
737.489	0.0138996
737.568	0.0139035
737.646	0.0139410
737.724	0.0138562
737.802	0.0138080
737.880	0.0138829
737.958	0.0137979
738.036	0.0137321
738.114	0.0136823
738.193	0.0136006
738.271	0.0136579
738.349	0.0136108
738.427	0.0134723
738.505	0.0134566
738.583	0.0134131
738.661	0.0133804
738.739	0.0134142
738.818	0.0133802
738.896	0.0133414
738.974	0.0131062
739.052	0.0133121
739.130	0.0132350
739.208	0.0134696
739.286	0.0136420
739.364	0.0135931
739.443	0.0136817
739.521	0.0137105
739.599	0.0139726
739.677	0.0139557
739.755	0.0141215
739.833	0.0141216
739.911	0.0142850
739.989	0.0140984
740.068	0.0141360
740.146	0.0142326
740.224	0.0140525
740.302	0.0140803
740.380	0.0141598
740.458	0.0141074
740.536	0.0140121
740.614	0.0140144
740.693	0.0139832
740.771	0.0140229
740.849	0.0141106
740.927	0.0141081
741.005	0.0139214
741.083	0.0140036
741.161	0.0141098
741.239	0.0140125
741.318	0.0138750
741.396	0.0137302
741.474	0.0136540
741.552	0.0136207
741.630	0.0135765
741.708	0.0135940
741.786	0.0135247
741.864	0.0133395
741.943	0.0133112
742.021	0.0131051
742.099	0.0131677
742.177	0.0132159
742.255	0.0130791
742.333	0.0129852
742.411	0.0131206
742.489	0.0132021
742.568	0.0130083
742.646	0.0131808
742.724	0.0131317
742.802	0.0133030
742.880	0.0132956
742.958	0.0133368
743.036	0.0133153
743.114	0.0134025
743.193	0.0136253
743.271	0.0135664
743.349	0.0136993
743.427	0.0138213
743.505	0.0139024
743.583	0.0138617
743.661	0.0140888
743.739	0.0141685
743.818	0.0140137
743.896	0.0141788
743.974	0.0141859
744.052	0.0142326
744.130	0.0144178
744.208	0.0143736
744.286	0.0143047
744.364	0.0143285
744.443	0.0142486
744.521	0.0143152
744.599	0.0144132
744.677	0.0143477
744.755	0.0142834
744.833	0.0143547
744.911	0.0143280
744.989	0.0141788
745.068	0.0141909
745.146	0.0142995
745.224	0.0142751
745.302	0.0142544
745.380	0.0141389
745.458	0.0140578
745.536	0.0141351
745.614	0.0141014
745.693	0.0140999
745.771	0.0140518
745.849	0.0138947
745.927	0.0140466
746.005	0.0139449
746.083	0.0137775
746.161	0.0138383
746.239	0.0138609
746.318	0.0137240
746.396	0.0136560
746.474	0.0137020
746.552	0.0134467
746.630	0.0134489
746.708	0.0136002
746.786	0.0136044
746.864	0.0135085
746.943	0.0134254
747.021	0.0134426
747.099	0.0135695
747.177	0.0135525
747.255	0.0134590
747.333	0.0135690
747.411	0.0135423
747.489	0.0135179
747.568	0.0137270
747.646	0.0137134
747.724	0.0136292
747.802	0.0135330
747.880	0.0137476
747.958	0.0136463
748.036	0.0137311
748.114	0.0137730
748.193	0.0137559
748.271	0.0135732
748.349	0.0135366
748.427	0.0136514
748.505	0.0136868
748.583	0.0136471
748.661	0.0137939
748.739	0.0139063
748.818	0.0137360
748.896	0.0137767
748.974	0.0138504
749.052	0.0139906
749.130	0.0139873
749.208	0.0139308
749.286	0.0139562
749.364	0.0142417
749.443	0.0142472
749.521	0.0142029
749.599	0.0142935
749.677	0.0143678
749.755	0.0143124
749.833	0.0144468
749.911	0.0145267
749.989	0.0146716
750.068	0.0146166
750.146	0.0144403
750.224	0.0146342
750.302	0.0145103
750.380	0.0144551
750.458	0.0142932
750.536	0.0142959
750.614	0.0142313
750.693	0.0142126
750.771	0.0140772
750.849	0.0140056
750.927	0.0140276
751.005	0.0138925
751.083	0.0138680
751.161	0.0137574
751.239	0.0136809
751.318	0.0136327
751.396	0.0136030
751.474	0.0135279
751.552	0.0133958
751.630	0.0134377
751.708	0.0132309
751.786	0.0132793
751.864	0.0132364
751.943	0.0134363
752.021	0.0131583
752.099	0.0131744
752.177	0.0131845
752.255	0.0131612
752.333	0.0131244
752.411	0.0133131
752.489	0.0133491
752.568	0.0132250
752.646	0.0133256
752.724	0.0133138
752.802	0.0132970
752.880	0.0134241
752.958	0.0134629
753.036	0.0134498
753.114	0.0135851
753.193	0.0135018
753.271	0.0135729
753.349	0.0136684
753.427	0.0138611
753.505	0.0138389
753.583	0.0138024
753.661	0.0140971
753.739	0.0139723
753.818	0.0140702
753.896	0.0140041
753.974	0.0141438
754.052	0.0140926
754.130	0.0140969
754.208	0.0140466
754.286	0.0139899
754.364	0.0140621
754.443	0.0139115
754.521	0.0139227
754.599	0.0137924
754.677	0.0137100
754.755	0.0137641
754.833	0.0137245
754.911	0.0137431
754.989	0.0136558
755.068	0.0135378
755.146	0.0136618
755.224	0.0136301
755.302	0.0137383
755.380	0.0136443
755.458	0.0135268
755.536	0.0137908
755.614	0.0137639
755.693	0.0135846
755.771	0.0136783
755.849	0.0136429
755.927	0.0136849
756.005	0.0135388
756.083	0.0137122
756.161	0.0137776
756.239	0.0136024
756.318	0.0135136
756.396	0.0136902
756.474	0.0136988
756.552	0.0136408
756.630	0.0136355
756.708	0.0135436
756.786	0.0136494
756.864	0.0137877
756.943	0.0138271
757.021	0.0137939
757.099	0.0138546
757.177	0.0138364
757.255	0.0138562
757.333	0.0139433
757.411	0.0138750
757.489	0.0139568
757.568	0.0140836
757.646	0.0140461
757.724	0.0139805
757.802	0.0141236
757.880	0.0139977
757.958	0.0140605
758.036	0.0139771
758.114	0.0139816
758.193	0.0141857
758.271	0.0139246
758.349	0.0138600
758.427	0.0139090
758.505	0.0138885
758.583	0.0138153
758.661	0.0138426
758.739	0.0136993
758.818	0.0137450
758.896	0.0137820
758.974	0.0137923
759.052	0.0135959
759.130	0.0135286
759.208	0.0134361
759.286	0.0135438
759.364	0.0133885
759.443	0.0133512
759.521	0.0133158
759.599	0.0134842
759.677	0.0131822
759.755	0.0133114
759.833	0.0133192
759.911	0.0132615
759.989	0.0132256
760.068	0.0133703
760.146	0.0134514
760.224	0.0133454
760.302	0.0133611
760.380	0.0133872
760.458	0.0132926
760.536	0.0134065
760.614	0.0133368
760.693	0.0134098
760.771	0.0134294
760.849	0.0134641
760.927	0.0133109
761.005	0.0135081
761.083	0.0135363
761.161	0.0135319
761.239	0.0135966
761.318	0.0136179
761.396	0.0136578
761.474	0.0136788
761.552	0.0138213
761.630	0.0137282
761.708	0.0139063
761.786	0.0138068
761.864	0.0138302
761.943	0.0139634
762.021	0.0141080
762.099	0.0140326
762.177	0.0139548
762.255	0.0139469
762.333	0.0140048
762.411	0.0142251
762.489	0.0140360
762.568	0.0140916
762.646	0.0141313
762.724	0.0142113
762.802	0.0141348
762.880	0.0142592
762.958	0.0141819
763.036	0.0142612
763.114	0.0143256
763.193	0.0142255
763.271	0.0141717
763.349	0.0142583
763.427	0.0141853
763.505	0.0141708
763.583	0.0142050
763.661	0.0140952
763.739	0.0141000
763.818	0.0138856
763.896	0.0140242
763.974	0.0138196
764.052	0.0138907
764.130	0.0138649
764.208	0.0137695
764.286	0.0136009
764.364	0.0137814
764.443	0.0137018
764.521	0.0136403
764.599	0.0135606
764.677	0.0136420
764.755	0.0133228
764.833	0.0133354
764.911	0.0134740
764.989	0.0133679
765.068	0.0133496
765.146	0.0132775
765.224	0.0132660
765.302	0.0132245
765.380	0.0131491
765.458	0.0133513
765.536	0.0133591
765.614	0.0133488
765.693	0.0134521
765.771	0.0135228
765.849	0.0136513
765.927	0.0135656
766.005	0.0136594
766.083	0.0137477
766.161	0.0136464
766.239	0.0137277
766.318	0.0138462
766.396	0.0137637
766.474	0.0139578
766.552	0.0139021
766.630	0.0138499
766.708	0.0140314
766.786	0.0139993
766.864	0.0140265
766.943	0.0141509
767.021	0.0141208
767.099	0.0140390
767.177	0.0140854
767.255	0.0141579
767.333	0.0141219
767.411	0.0141643
767.489	0.0142577
767.568	0.0143085
767.646	0.0142626
767.724	0.0144702
767.802	0.0143230
767.880	0.0143402
767.958	0.0142352
768.036	0.0143405
768.114	0.0142638
768.193	0.0143550
768.271	0.0143616
768.349	0.0141559
768.427	0.0140424
768.505	0.0140903
768.583	0.0139893
768.661	0.0139133
768.739	0.0138684
768.818	0.0138686
768.896	0.0137208
768.974	0.0136700
769.052	0.0136205
769.130	0.0136800
769.208	0.0136015
769.286	0.0135334
769.364	0.0136086
769.443	0.0135220
769.521	0.0135348
769.599	0.0136148
769.677	0.0133194
769.755	0.0133215
769.833	0.0134077
769.911	0.0135347
769.989	0.0134000
770.068	0.0134917
770.146	0.0134873
770.224	0.0134371
770.302	0.0135368
770.380	0.0135683
770.458	0.0137359
770.536	0.0137463
770.614	0.0136616
770.693	0.0135267
770.771	0.0137859
770.849	0.0137960
770.927	0.0136988
771.005	0.0138699
771.083	0.0137641
771.161	0.0137492
771.239	0.0137896
771.318	0.0136740
771.396	0.0138562
771.474	0.0137840
771.552	0.0137428
771.630	0.0138486
771.708	0.0139044
771.786	0.0138729
771.864	0.0139342
771.943	0.0137830
772.021	0.0138139
772.099	0.0138772
772.177	0.0138032
772.255	0.0139188
772.333	0.0139436
772.411	0.0139322
772.489	0.0138867
772.568	0.0139426
772.646	0.0137566
772.724	0.0137823
772.802	0.0135862
772.880	0.0137202
772.958	0.0136886
773.036	0.0137421
773.114	0.0134975
773.193	0.0136911
773.271	0.0136855
773.349	0.0136401
773.427	0.0137038
773.505	0.0136835
773.583	0.0137298
773.661	0.0137345
773.739	0.0135586
773.818	0.0135834
773.896	0.0138811
773.974	0.0137017
774.052	0.0137492
774.130	0.0137576
774.208	0.0137694
774.286	0.0139698
774.364	0.0138792
774.443	0.0139010
774.521	0.0137566
774.599	0.0137369
774.677	0.0138264
774.755	0.0138252
774.833	0.0137190
774.911	0.0137576
774.989	0.0135939
775.068	0.0135452
775.146	0.0137405
775.224	0.0136808
775.302	0.0135612
775.380	0.0136770
775.458	0.0137347
775.536	0.0136630
775.614	0.0134805
775.693	0.0134451
775.771	0.0135542
775.849	0.0135863
775.927	0.0135141
776.005	0.0133573
776.083	0.0133087
776.161	0.0134426
776.239	0.0133882
776.318	0.0134027
776.396	0.0134102
776.474	0.0136052
776.552	0.0137714
776.630	0.0137444
776.708	0.0136327
776.786	0.0137074
776.864	0.0136362
776.943	0.0136182
777.021	0.0138496
777.099	0.0137952
777.177	0.0138155
777.255	0.0139751
777.333	0.0138554
777.411	0.0139641
777.489	0.0139449
777.568	0.0140224
777.646	0.0140262
777.724	0.0139780
777.802	0.0139512
777.880	0.0139674
777.958	0.0139354
778.036	0.0139137
778.114	0.0138457
778.193	0.0139033
778.271	0.0137687
778.349	0.0136872
778.427	0.0137972
778.505	0.0135696
778.583	0.0135572
778.661	0.0136647
778.739	0.0136939
778.818	0.0135176
778.896	0.0134530
778.974	0.0135812
779.052	0.0134787
779.130	0.0132555
779.208	0.0133945
779.286	0.0134229
779.364	0.0133027
779.443	0.0133695
779.521	0.0133291
779.599	0.0132507
779.677	0.0131855
779.755	0.0131905
779.833	0.0132990
779.911	0.0133167
779.989	0.0132594
780.068	0.0133151
780.146	0.0133109
780.224	0.0134383
780.302	0.0133539
780.380	0.0136455
780.458	0.0137577
780.536	0.0137312
780.614	0.0137592
780.693	0.0138606
780.771	0.0139737
780.849	0.0140289
780.927	0.0140776
781.005	0.0142841
781.083	0.0142588
781.161	0.0141058
781.239	0.0143771
781.318	0.0143201
781.396	0.0143409
781.474	0.0143266
781.552	0.0141755
781.630	0.0142249
781.708	0.0144283
781.786	0.0141814
781.864	0.0142992
781.943	0.0142662
782.021	0.0141862
782.099	0.0141464
782.177	0.0142220
782.255	0.0141515
782.333	0.0138675
782.411	0.0139084
782.489	0.0139059
782.568	0.0138059
782.646	0.0136343
782.724	0.0136939
782.802	0.0134578
782.880	0.0133389
782.958	0.0134528
783.036	0.0133025
783.114	0.0131783
783.193	0.0132429
783.271	0.0131188
783.349	0.0130638
783.427	0.0131149
783.505	0.0130461
783.583	0.0128629
783.661	0.0130692
783.739	0.0130278
783.818	0.0130489
783.896	0.0129846
783.974	0.0129810
784.052	0.0131849
784.130	0.0132059
784.208	0.0133965
784.286	0.0134084
784.364	0.0134553
784.443	0.0135033
784.521	0.0137199
784.599	0.0138726
784.677	0.0137547
784.755	0.0138864
784.833	0.0139851
784.911	0.0141299
784.989	0.0140456
785.068	0.0142296
785.146	0.0145243
785.224	0.0142054
785.302	0.0142594
785.380	0.0142898
785.458	0.0145775
785.536	0.0145441
785.614	0.0144269
785.693	0.0143212
785.771	0.0143327
785.849	0.0143554
785.927	0.0143794
786.005	0.0143073
786.083	0.0142120
786.161	0.0142634
786.239	0.0142844
786.318	0.0140518
786.396	0.0141161
786.474	0.0140916
786.552	0.0138530
786.630	0.0137661
786.708	0.0137644
786.786	0.0136989
786.864	0.0136733
786.943	0.0136519
787.021	0.0134686
787.099	0.0134383
787.177	0.0133574
787.255	0.0132870
787.333	0.0132468
787.411	0.0131372
787.489	0.0131467
787.568	0.0129660
787.646	0.0130666
787.724	0.0131301
787.802	0.0131000
787.880	0.0131335
787.958	0.0129554
788.036	0.0130935
788.114	0.0132980
788.193	0.0132547
788.271	0.0132331
788.349	0.0133114
788.427	0.0135705
788.505	0.0134839
788.583	0.0135287
788.661	0.0135829
788.739	0.0137112
788.818	0.0139037
788.896	0.0139318
788.974	0.0139036
789.052	0.0139334
789.130	0.0138921
789.208	0.0139070
789.286	0.0139822
789.364	0.0139336
789.443	0.0138992
789.521	0.0141180
789.599	0.0141489
789.677	0.0140092
789.755	0.0141238
789.833	0.0140190
789.911	0.0142101
789.989	0.0140938
790.068	0.0140115
790.146	0.0140973
790.224	0.0140700
790.302	0.0141456
790.380	0.0139790
790.458	0.0139539
790.536	0.0139490
790.614	0.0138972
790.693	0.0138413
790.771	0.0139180
790.849	0.0139281
790.927	0.0138448
791.005	0.0138664
791.083	0.0139289
791.161	0.0139558
791.239	0.0138058
791.318	0.0139257
791.396	0.0139007
791.474	0.0137600
791.552	0.0139979
791.630	0.0137695
791.708	0.0136977
791.786	0.0138005
791.864	0.0138374
791.943	0.0137377
792.021	0.0136488
792.099	0.0137232
792.177	0.0137413
792.255	0.0136922
792.333	0.0136271
792.411	0.0135960
792.489	0.0135707
792.568	0.0135868
792.646	0.0135078
792.724	0.0136654
792.802	0.0136206
792.880	0.0136263
792.958	0.0136943
793.036	0.0138521
793.114	0.0136995
793.193	0.0137321
793.271	0.0138704
793.349	0.0137265
793.427	0.0137433
793.505	0.0138734
793.583	0.0137933
793.661	0.0138781
793.739	0.0139147
793.818	0.0139886
793.896	0.0137051
793.974	0.0136395
794.052	0.0138574
794.130	0.0138322
794.208	0.0138039
794.286	0.0137742
794.364	0.0137659
794.443	0.0136911
794.521	0.0136295
794.599	0.0137489
794.677	0.0137067
794.755	0.0135647
794.833	0.0135994
794.911	0.0137635
794.989	0.0136798
795.068	0.0139349
795.146	0.0139212
795.224	0.0138679
795.302	0.0136395
795.380	0.0137042
795.458	0.0138427
795.536	0.0138636
795.614	0.0137476
795.693	0.0139150
795.771	0.0137146
795.849	0.0137930
795.927	0.0136343
796.005	0.0135961
796.083	0.0136375
796.161	0.0137287
796.239	0.0136449
796.318	0.0135024
796.396	0.0134744
796.474	0.0135799
796.552	0.0135229
796.630	0.0134854
796.708	0.0133841
796.786	0.0134092
796.864	0.0134733
796.943	0.0134934
797.021	0.0133720
797.099	0.0133612
797.177	0.0135524
797.255	0.0135314
797.333	0.0135463
797.411	0.0135907
797.489	0.0135642
797.568	0.0136872
797.646	0.0136990
797.724	0.0137994
797.802	0.0136911
797.880	0.0139307
797.958	0.0138839
798.036	0.0138838
798.114	0.0138206
798.193	0.0140606
798.271	0.0139687
798.349	0.0138367
798.427	0.0138610
798.505	0.0138458
798.583	0.0138911
798.661	0.0138306
798.739	0.0138696
798.818	0.0137312
798.896	0.0136837
798.974	0.0137249
799.052	0.0135677
799.130	0.0135328
799.208	0.0133992
799.286	0.0134886
799.364	0.0134023
799.443	0.0134383
799.521	0.0132853
799.599	0.0131487
799.677	0.0133237
799.755	0.0132394
799.833	0.0131032
799.911	0.0132095
799.989	0.0131763
800.068	0.0131819
800.146	0.0131081
800.224	0.0131887
800.302	0.0131239
800.380	0.0131192
800.458	0.0131475
800.536	0.0131532
800.614	0.0132831
800.693	0.0133002
800.771	0.0133546
800.849	0.0134628
800.927	0.0134599
801.005	0.0134708
801.083	0.0136420
801.161	0.0136330
801.239	0.0136803
801.318	0.0137346
801.396	0.0138593
801.474	0.0139387
801.552	0.0140926
801.630	0.0140690
801.708	0.0140173
801.786	0.0142486
801.864	0.0141869
801.943	0.0142293
802.021	0.0141811
802.099	0.0141963
802.177	0.0142662
802.255	0.0142473
802.333	0.0142677
802.411	0.0140887
802.489	0.0142326
802.568	0.0142712
802.646	0.0142089
802.724	0.0140349
802.802	0.0141241
802.880	0.0140057
802.958	0.0139496
803.036	0.0138853
803.114	0.0138869
803.193	0.0137820
803.271	0.0138671
803.349	0.0137885
803.427	0.0136289
803.505	0.0135350
803.583	0.0134633
803.661	0.0134256
803.739	0.0135580
803.818	0.0134278
803.896	0.0132819
803.974	0.0131478
804.052	0.0130277
804.130	0.0129767
804.208	0.0131226
804.286	0.0131940
804.364	0.0131451
804.443	0.0131596
804.521	0.0131954
804.599	0.0129929
804.677	0.0131601
804.755	0.0130987
804.833	0.0131773
804.911	0.0131143
804.989	0.0131884
805.068	0.0133047
805.146	0.0134142
805.224	0.0133636
805.302	0.0133640
805.380	0.0134575
805.458	0.0134936
805.536	0.0135019
805.614	0.0135436
805.693	0.0135574
805.771	0.0136580
805.849	0.0134356
805.927	0.0136015
806.005	0.0138012
806.083	0.0137976
806.161	0.0137809
806.239	0.0138921
806.318	0.0136742
806.396	0.0138878
806.474	0.0140279
806.552	0.0139243
806.630	0.0140689
806.708	0.0142645
806.786	0.0142372
806.864	0.0141519
806.943	0.0142470
807.021	0.0143250
807.099	0.0142518
807.177	0.0142495
807.255	0.0142409
807.333	0.0142570
807.411	0.0141553
807.489	0.0142530
807.568	0.0140266
807.646	0.0139835
807.724	0.0140860
807.802	0.0140658
807.880	0.0139204
807.958	0.0140215
808.036	0.0139375
808.114	0.0138895
808.193	0.0138746
808.271	0.0137610
808.349	0.0137657
808.427	0.0137349
808.505	0.0136802
808.583	0.0136573
808.661	0.0136084
808.739	0.0136189
808.818	0.0135921
808.896	0.0133002
808.974	0.0134398
809.052	0.0133607
809.130	0.0132628
809.208	0.0134371
809.286	0.0132059
809.364	0.0132784
809.443	0.0133834
809.521	0.0130913
809.599	0.0131541
809.677	0.0132192
809.755	0.0131649
809.833	0.0134073
809.911	0.0132980
809.989	0.0133094
810.068	0.0134327
810.146	0.0134029
810.224	0.0134128
810.302	0.0135510
810.380	0.0135419
810.458	0.0134998
810.536	0.0138251
810.614	0.0136905
810.693	0.0136485
810.771	0.0137610
810.849	0.0137650
810.927	0.0138232
811.005	0.0140271
811.083	0.0141663
811.161	0.0139594
811.239	0.0140221
811.318	0.0140639
811.396	0.0140893
811.474	0.0140639
811.552	0.0140625
811.630	0.0140852
811.708	0.0141846
811.786	0.0140980
811.864	0.0141686
811.943	0.0140337
812.021	0.0139584
812.099	0.0140491
812.177	0.0140503
812.255	0.0140290
812.333	0.0140180
812.411	0.0139840
812.489	0.0139086
812.568	0.0138532
812.646	0.0140304
812.724	0.0139742
812.802	0.0139338
812.880	0.0139411
812.958	0.0139094
813.036	0.0137766
813.114	0.0137980
813.193	0.0138354
813.271	0.0138536
813.349	0.0138001
813.427	0.0137495
813.505	0.0137578
813.583	0.0135818
813.661	0.0134734
813.739	0.0134364
813.818	0.0134918
813.896	0.0132861
813.974	0.0133095
814.052	0.0133124
814.130	0.0133480
814.208	0.0133722
814.286	0.0131109
814.364	0.0132748
814.443	0.0132663
814.521	0.0133290
814.599	0.0132009
814.677	0.0132352
814.755	0.0132107
814.833	0.0131406
814.911	0.0133902
814.989	0.0134116
815.068	0.0132963
815.146	0.0133170
815.224	0.0136172
815.302	0.0135506
815.380	0.0136687
815.458	0.0137016
815.536	0.0136975
815.614	0.0139648
815.693	0.0138129
815.771	0.0138203
815.849	0.0138076
815.927	0.0140567
816.005	0.0140726
816.083	0.0140588
816.161	0.0139914
816.239	0.0139983
816.318	0.0139926
816.396	0.0141596
816.474	0.0140515
816.552	0.0140109
816.630	0.0139519
816.708	0.0140434
816.786	0.0139828
816.864	0.0141918
816.943	0.0141737
817.021	0.0140706
817.099	0.0140813
817.177	0.0141068
817.255	0.0139042
817.333	0.0140155
817.411	0.0141271
817.489	0.0141237
817.568	0.0141145
817.646	0.0141069
817.724	0.0141541
817.802	0.0139944
817.880	0.0140661
817.958	0.0140205
818.036	0.0140414
818.114	0.0139481
818.193	0.0139071
818.271	0.0139060
818.349	0.0138731
818.427	0.0138261
818.505	0.0138146
818.583	0.0139058
818.661	0.0138506
818.739	0.0137144
818.818	0.0135437
818.896	0.0135759
818.974	0.0135033
819.052	0.0135188
819.130	0.0134863
819.208	0.0134674
819.286	0.0133568
819.364	0.0134426
819.443	0.0134993
819.521	0.0134486
819.599	0.0133775
819.677	0.0132796
819.755	0.0134652
819.833	0.0134767
819.911	0.0134631
819.989	0.0134695
820.068	0.0134727
820.146	0.0135238
820.224	0.0134007
820.302	0.0134853
820.380	0.0135189
820.458	0.0135477
820.536	0.0133423
820.614	0.0135313
820.693	0.0135844
820.771	0.0137320
820.849	0.0136655
820.927	0.0136140
821.005	0.0137260
821.083	0.0137276
821.161	0.0137957
821.239	0.0137868
821.318	0.0138691
821.396	0.0136860
821.474	0.0138876
821.552	0.0140211
821.630	0.0139115
821.708	0.0140037
821.786	0.0141301
821.864	0.0140012
821.943	0.0141049
822.021	0.0143122
822.099	0.0142834
822.177	0.0141090
822.255	0.0143533
822.333	0.0142893
822.411	0.0142009
822.489	0.0141651
822.568	0.0142222
822.646	0.0141338
822.724	0.0142496
822.802	0.0141302
822.880	0.0140088
822.958	0.0140611
823.036	0.0140866
823.114	0.0139021
823.193	0.0140244
823.271	0.0139182
823.349	0.0138831
823.427	0.0138097
823.505	0.0137998
823.583	0.0138168
823.661	0.0137000
823.739	0.0136292
823.818	0.0135873
823.896	0.0136711
823.974	0.0136739
824.052	0.0136367
824.130	0.0135966
824.208	0.0133739
824.286	0.0136085
824.364	0.0135259
824.443	0.0134013
824.521	0.0134413
824.599	0.0136012
824.677	0.0135325
824.755	0.0134502
824.833	0.0136330
824.911	0.0135387
824.989	0.0136161
825.068	0.0136353
825.146	0.0135215
825.224	0.0136595
825.302	0.0137351
825.380	0.0137798
825.458	0.0136738
825.536	0.0137405
825.614	0.0138227
825.693	0.0136736
825.771	0.0137909
825.849	0.0139510
825.927	0.0137206
826.005	0.0137464
826.083	0.0138702
826.161	0.0139635
826.239	0.0137393
826.318	0.0137351
826.396	0.0138170
826.474	0.0138754
826.552	0.0138581
826.630	0.0138671
826.708	0.0137643
826.786	0.0137526
826.864	0.0139418
826.943	0.0138602
827.021	0.0138428
827.099	0.0139538
827.177	0.0138252
827.255	0.0138895
827.333	0.0138752
827.411	0.0139204
827.489	0.0137967
827.568	0.0137742
827.646	0.0137758
827.724	0.0137821
827.802	0.0136053
827.880	0.0137468
827.958	0.0136745
828.036	0.0136268
828.114	0.0136546
828.193	0.0135023
828.271	0.0136172
828.349	0.0136804
828.427	0.0135555
828.505	0.0136437
828.583	0.0138100
828.661	0.0136147
828.739	0.0135211
828.818	0.0136335
828.896	0.0136482
828.974	0.0135750
829.052	0.0135658
829.130	0.0134676
829.208	0.0134985
829.286	0.0135495
829.364	0.0135090
829.443	0.0135290
829.521	0.0135516
829.599	0.0135979
829.677	0.0135040
829.755	0.0134754
829.833	0.0136011
829.911	0.0137761
829.989	0.0135697
830.068	0.0136275
830.146	0.0135902
830.224	0.0136594
830.302	0.0135943
830.380	0.0136071
830.458	0.0136872
830.536	0.0137070
830.614	0.0138751
830.693	0.0138670
830.771	0.0138646
830.849	0.0140025
830.927	0.0138711
831.005	0.0139623
831.083	0.0138898
831.161	0.0140010
831.239	0.0139677
831.318	0.0138385
831.396	0.0137910
831.474	0.0137911
831.552	0.0137941
831.630	0.0136658
831.708	0.0136722
831.786	0.0135970
831.864	0.0136505
831.943	0.0135545
832.021	0.0134750
832.099	0.0135092
832.177	0.0135382
832.255	0.0132671
832.333	0.0134313
832.411	0.0132636
832.489	0.0135172
832.568	0.0134834
832.646	0.0133636
832.724	0.0133489
832.802	0.0133585
832.880	0.0134116
832.958	0.0135351
833.036	0.0134891
833.114	0.0135355
833.193	0.0135732
833.271	0.0136728
833.349	0.0136592
833.427	0.0138564
833.505	0.0140385
833.583	0.0138938
833.661	0.0139068
833.739	0.0140041
833.818	0.0140364
833.896	0.0140567
833.974	0.0141600
834.052	0.0141486
834.130	0.0141698
834.208	0.0140372
834.286	0.0140245
834.364	0.0139462
834.443	0.0139780
834.521	0.0138257
834.599	0.0136876
834.677	0.0138927
834.755	0.0137062
834.833	0.0137330
834.911	0.0136478
834.989	0.0135383
835.068	0.0136796
835.146	0.0135312
835.224	0.0133793
835.302	0.0134174
835.380	0.0133386
835.458	0.0136265
835.536	0.0133539
835.614	0.0134197
835.693	0.0134583
835.771	0.0134412
835.849	0.0134705
835.927	0.0135778
836.005	0.0135773
836.083	0.0136662
836.161	0.0136964
836.239	0.0137381
836.318	0.0138221
836.396	0.0137246
836.474	0.0138214
836.552	0.0138857
836.630	0.0138593
836.708	0.0140289
836.786	0.0137777
836.864	0.0140298
836.943	0.0140160
837.021	0.0138259
837.099	0.0138986
837.177	0.0139717
837.255	0.0138160
837.333	0.0138499
837.411	0.0139936
837.489	0.0140329
837.568	0.0138994
837.646	0.0138177
837.724	0.0138219
837.802	0.0138239
837.880	0.0137823
837.958	0.0138015
838.036	0.0136880
838.114	0.0137475
838.193	0.0136260
838.271	0.0136507
838.349	0.0139007
838.427	0.0137058
838.505	0.0138651
838.583	0.0137846
838.661	0.0138653
838.739	0.0138260
838.818	0.0138509
838.896	0.0140321
838.974	0.0139443
839.052	0.0138234
839.130	0.0136806
839.208	0.0137760
839.286	0.0139536
839.364	0.0139561
839.443	0.0137508
839.521	0.0138145
839.599	0.0136723
839.677	0.0138071
839.755	0.0137209
839.833	0.0138333
839.911	0.0137511
839.989	0.0136216
840.068	0.0137904
840.146	0.0136674
840.224	0.0138505
840.302	0.0138354
840.380	0.0138354
840.458	0.0136285
840.536	0.0136969
840.614	0.0137437
840.693	0.0137905
840.771	0.0137296
840.849	0.0136959
840.927	0.0136909
841.005	0.0136128
841.083	0.0135696
841.161	0.0137857
841.239	0.0136344
841.318	0.0136900
841.396	0.0136544
841.474	0.0138108
841.552	0.0136467
841.630	0.0136224
841.708	0.0136884
841.786	0.0140099
841.864	0.0138530
841.943	0.0138221
842.021	0.0138476
842.099	0.0139024
842.177	0.0139331
842.255	0.0139153
842.333	0.0139888
842.411	0.0141003
842.489	0.0140913
842.568	0.0143203
842.646	0.0141811
842.724	0.0143005
842.802	0.0141145
842.880	0.0141346
842.958	0.0142782
843.036	0.0142625
843.114	0.0141943
843.193	0.0142281
843.271	0.0140920
843.349	0.0141216
843.427	0.0142371
843.505	0.0141562
843.583	0.0141693
843.661	0.0141798
843.739	0.0139318
843.818	0.0139642
843.896	0.0138810
843.974	0.0139086
844.052	0.0138944
844.130	0.0138685
844.208	0.0138219
844.286	0.0138162
844.364	0.0137618
844.443	0.0136161
844.521	0.0137656
844.599	0.0136459
844.677	0.0137199
844.755	0.0138289
844.833	0.0137499
844.911	0.0137286
844.989	0.0137247
845.068	0.0137907
845.146	0.0137721
845.224	0.0138126
845.302	0.0138220
845.380	0.0138406
845.458	0.0138252
845.536	0.0139157
845.614	0.0139420
845.693	0.0139666
845.771	0.0137732
845.849	0.0138243
845.927	0.0137366
846.005	0.0137070
846.083	0.0138373
846.161	0.0139629
846.239	0.0138756
846.318	0.0138142
846.396	0.0136726
846.474	0.0138137
846.552	0.0137695
846.630	0.0138602
846.708	0.0138502
846.786	0.0138602
846.864	0.0138235
846.943	0.0139037
847.021	0.0138751
847.099	0.0137802
847.177	0.0138655
847.255	0.0138347
847.333	0.0138160
847.411	0.0139342
847.489	0.0138308
847.568	0.0138279
847.646	0.0139349
847.724	0.0138995
847.802	0.0138921
847.880	0.0138421
847.958	0.0140650
848.036	0.0137511
848.114	0.0138452
848.193	0.0138095
848.271	0.0139345
848.349	0.0139188
848.427	0.0137331
848.505	0.0137634
848.583	0.0139781
848.661	0.0138230
848.739	0.0138396
848.818	0.0137518
848.896	0.0139094
848.974	0.0138353
849.052	0.0138569
849.130	0.0137393
849.208	0.0137228
849.286	0.0138710
849.364	0.0138672
849.443	0.0138532
849.521	0.0137510
849.599	0.0136604
849.677	0.0137091
849.755	0.0137727
849.833	0.0137550
849.911	0.0137179
849.989	0.0137784
850.068	0.0138004
850.146	0.0138159
850.224	0.0137372
850.302	0.0137109
850.380	0.0138076
850.458	0.0136812
850.536	0.0137815
850.614	0.0137345
850.693	0.0136393
850.771	0.0137603
850.849	0.0137904
850.927	0.0138224
851.005	0.0136393
851.083	0.0134792
851.161	0.0137331
851.239	0.0138647
851.318	0.0138975
851.396	0.0138432
851.474	0.0138561
851.552	0.0137250
851.630	0.0136848
851.708	0.0137598
851.786	0.0136982
851.864	0.0137122
851.943	0.0139392
852.021	0.0139081
852.099	0.0136815
852.177	0.0138192
852.255	0.0137682
852.333	0.0137517
852.411	0.0138137
852.489	0.0137553
852.568	0.0137753
852.646	0.0136499
852.724	0.0137504
852.802	0.0136803
852.880	0.0137424
852.958	0.0136019
853.036	0.0137241
853.114	0.0137426
853.193	0.0135276
853.271	0.0135828
853.349	0.0134507
853.427	0.0137098
853.505	0.0135722
853.583	0.0135590
853.661	0.0135548
853.739	0.0136264
853.818	0.0135854
853.896	0.0135134
853.974	0.0135666
854.052	0.0135506
854.130	0.0135308
854.208	0.0137771
854.286	0.0136160
854.364	0.0135629
854.443	0.0135598
854.521	0.0135828
854.599	0.0136320
854.677	0.0137801
854.755	0.0135944
854.833	0.0136556
854.911	0.0136687
854.989	0.0137256
855.068	0.0136268
855.146	0.0137376
855.224	0.0136613
855.302	0.0136591
855.380	0.0137866
855.458	0.0137628
855.536	0.0136969
855.614	0.0136301
855.693	0.0137462
855.771	0.0136630
855.849	0.0136320
855.927	0.0135796
856.005	0.0137355
856.083	0.0135632
856.161	0.0136057
856.239	0.0137072
856.318	0.0136368
856.396	0.0134220
856.474	0.0136865
856.552	0.0136327
856.630	0.0136749
856.708	0.0136294
856.786	0.0136373
856.864	0.0137254
856.943	0.0135616
857.021	0.0135927
857.099	0.0137056
857.177	0.0137509
857.255	0.0135991
857.333	0.0136742
857.411	0.0137565
857.489	0.0135976
857.568	0.0134794
857.646	0.0135265
857.724	0.0135925
857.802	0.0135973
857.880	0.0136626
857.958	0.0133296
858.036	0.0135337
858.114	0.0135606
858.193	0.0136064
858.271	0.0134416
858.349	0.0135123
858.427	0.0134901
858.505	0.0135265
858.583	0.0134478
858.661	0.0134148
858.739	0.0135405
858.818	0.0136160
858.896	0.0135756
858.974	0.0136528
859.052	0.0137923
859.130	0.0137099
859.208	0.0136282
859.286	0.0136016
859.364	0.0136589
859.443	0.0137084
859.521	0.0134747
859.599	0.0135445
859.677	0.0137427
859.755	0.0136028
859.833	0.0135854
859.911	0.0135915
859.989	0.0134586
860.068	0.0134299
860.146	0.0134352
860.224	0.0135039
860.302	0.0135106
860.380	0.0134261
860.458	0.0135021
860.536	0.0135579
860.614	0.0135913
860.693	0.0135157
860.771	0.0136777
860.849	0.0137033
860.927	0.0137701
861.005	0.0139761
861.083	0.0136732
861.161	0.0138129
861.239	0.0138477
861.318	0.0138658
861.396	0.0137717
861.474	0.0138683
861.552	0.0139772
861.630	0.0139197
861.708	0.0137840
861.786	0.0138097
861.864	0.0138961
861.943	0.0139518
862.021	0.0139183
862.099	0.0139365
862.177	0.0138525
862.255	0.0136985
862.333	0.0137421
862.411	0.0137863
862.489	0.0135799
862.568	0.0137490
862.646	0.0135420
862.724	0.0135255
862.802	0.0136478
862.880	0.0137339
862.958	0.0135368
863.036	0.0135625
863.114	0.0136663
863.193	0.0135366
863.271	0.0134615
863.349	0.0135503
863.427	0.0135979
863.505	0.0135928
863.583	0.0136549
863.661	0.0136340
863.739	0.0135374
863.818	0.0137950
863.896	0.0138471
863.974	0.0138630
864.052	0.0137033
864.130	0.0137923
864.208	0.0137760
864.286	0.0138131
864.364	0.0137880
864.443	0.0138373
864.521	0.0139211
864.599	0.0138470
864.677	0.0138403
864.755	0.0139731
864.833	0.0139071
864.911	0.0139653
864.989	0.0138273
865.068	0.0138553
865.146	0.0138832
865.224	0.0138023
865.302	0.0139783
865.380	0.0139467
865.458	0.0138706
865.536	0.0139748
865.614	0.0138470
865.693	0.0137964
865.771	0.0140606
865.849	0.0139139
865.927	0.0138612
866.005	0.0139196
866.083	0.0136839
866.161	0.0137237
866.239	0.0138058
866.318	0.0136799
866.396	0.0139264
866.474	0.0137724
866.552	0.0137421
866.630	0.0139174
866.708	0.0137959
866.786	0.0136792
866.864	0.0137117
866.943	0.0136650
867.021	0.0137895
867.099	0.0136867
867.177	0.0136213
867.255	0.0136627
867.333	0.0137275
867.411	0.0137560
867.489	0.0137487
867.568	0.0136858
867.646	0.0136985
867.724	0.0137350
867.802	0.0138442
867.880	0.0136428
867.958	0.0138255
868.036	0.0139153
868.114	0.0138329
868.193	0.0136132
868.271	0.0139087
868.349	0.0138379
868.427	0.0138323
868.505	0.0139407
868.583	0.0139865
868.661	0.0140791
868.739	0.0139555
868.818	0.0140014
868.896	0.0140508
868.974	0.0138652
869.052	0.0141735
869.130	0.0140234
869.208	0.0140652
869.286	0.0139787
869.364	0.0139426
869.443	0.0141152
869.521	0.0139304
869.599	0.0139211
869.677	0.0139156
869.755	0.0138319
869.833	0.0138350
869.911	0.0139095
869.989	0.0140297
870.068	0.0138429
870.146	0.0137941
870.224	0.0137952
870.302	0.0136522
870.380	0.0136366
870.458	0.0136646
870.536	0.0136553
870.614	0.0137396
870.693	0.0135753
870.771	0.0135333
870.849	0.0136318
870.927	0.0135725
871.005	0.0134415
871.083	0.0133999
871.161	0.0134861
871.239	0.0135456
871.318	0.0136092
871.396	0.0134087
871.474	0.0135497
871.552	0.0135840
871.630	0.0135432
871.708	0.0135730
871.786	0.0136030
871.864	0.0136205
871.943	0.0137065
872.021	0.0137767
872.099	0.0136700
872.177	0.0136788
872.255	0.0137215
872.333	0.0139157
872.411	0.0138969
872.489	0.0137970
872.568	0.0138377
872.646	0.0137724
872.724	0.0139246
872.802	0.0138577
872.880	0.0138628
872.958	0.0138401
873.036	0.0139866
873.114	0.0139657
873.193	0.0140239
873.271	0.0139524
873.349	0.0139353
873.427	0.0140346
873.505	0.0139789
873.583	0.0139345
873.661	0.0138159
873.739	0.0138771
873.818	0.0138686
873.896	0.0138285
873.974	0.0138953
874.052	0.0135657
874.130	0.0135780
874.208	0.0135192
874.286	0.0135023
874.364	0.0136350
874.443	0.0134160
874.521	0.0134218
874.599	0.0135566
874.677	0.0134864
874.755	0.0133582
874.833	0.0135695
874.911	0.0134314
874.989	0.0135680
875.068	0.0135236
875.146	0.0135255
875.224	0.0134489
875.302	0.0135438
875.380	0.0136389
875.458	0.0136196
875.536	0.0137992
875.614	0.0137064
875.693	0.0136993
875.771	0.0137833
875.849	0.0137882
875.927	0.0139062
876.005	0.0138930
876.083	0.0137383
876.161	0.0138125
876.239	0.0138864
876.318	0.0139766
876.396	0.0140212
876.474	0.0138971
876.552	0.0138632
876.630	0.0139103
876.708	0.0138058
876.786	0.0139851
876.864	0.0138129
876.943	0.0139278
877.021	0.0137267
877.099	0.0137277
877.177	0.0138976
877.255	0.0137659
877.333	0.0135686
877.411	0.0136218
877.489	0.0134971
877.568	0.0136234
877.646	0.0137145
877.724	0.0134680
877.802	0.0134882
877.880	0.0135655
877.958	0.0134390
878.036	0.0135847
878.114	0.0136031
878.193	0.0133962
878.271	0.0134384
878.349	0.0135297
878.427	0.0135084
878.505	0.0133889
878.583	0.0135504
878.661	0.0134904
878.739	0.0135552
878.818	0.0135235
878.896	0.0135828
878.974	0.0135881
879.052	0.0136994
879.130	0.0137217
879.208	0.0136426
879.286	0.0135547
879.364	0.0136028
879.443	0.0136552
879.521	0.0137069
879.599	0.0136898
879.677	0.0137133
879.755	0.0137514
879.833	0.0136392
879.911	0.0135940
879.989	0.0137216
880.068	0.0137289
880.146	0.0136681
880.224	0.0136237
880.302	0.0135702
880.380	0.0136397
880.458	0.0136482
880.536	0.0136912
880.614	0.0136426
880.693	0.0136208
880.771	0.0136385
880.849	0.0136078
880.927	0.0135164
881.005	0.0136472
881.083	0.0136591
881.161	0.0135337
881.239	0.0135793
881.318	0.0135084
881.396	0.0135635
881.474	0.0136078
881.552	0.0136636
881.630	0.0136378
881.708	0.0136238
881.786	0.0135213
881.864	0.0134803
881.943	0.0135677
882.021	0.0137022
882.099	0.0135900
882.177	0.0134941
882.255	0.0137048
882.333	0.0137748
882.411	0.0136108
882.489	0.0136124
882.568	0.0136897
882.646	0.0137264
882.724	0.0137309
882.802	0.0137434
882.880	0.0138012
882.958	0.0136580
883.036	0.0137402
883.114	0.0137045
883.193	0.0138088
883.271	0.0137210
883.349	0.0136955
883.427	0.0136463
883.505	0.0137399
883.583	0.0136089
883.661	0.0136543
883.739	0.0136180
883.818	0.0137598
883.896	0.0139248
883.974	0.0137002
884.052	0.0137022
884.130	0.0135460
884.208	0.0136778
884.286	0.0138210
884.364	0.0137331
884.443	0.0137227
884.521	0.0137884
884.599	0.0137501
884.677	0.0138487
884.755	0.0137666
884.833	0.0137454
884.911	0.0138326
884.989	0.0137085
885.068	0.0136372
885.146	0.0137468
885.224	0.0137679
885.302	0.0136420
885.380	0.0136458
885.458	0.0135825
885.536	0.0134991
885.614	0.0136346
885.693	0.0135250
885.771	0.0134157
885.849	0.0135192
885.927	0.0134734
886.005	0.0134975
886.083	0.0135102
886.161	0.0134921
886.239	0.0135966
886.318	0.0134792
886.396	0.0134174
886.474	0.0133997
886.552	0.0135667
886.630	0.0135162
886.708	0.0135873
886.786	0.0134872
886.864	0.0135726
886.943	0.0135577
887.021	0.0137914
887.099	0.0138580
887.177	0.0137943
887.255	0.0136788
887.333	0.0137399
887.411	0.0137492
887.489	0.0138272
887.568	0.0139545
887.646	0.0138850
887.724	0.0138848
887.802	0.0140506
887.880	0.0139498
887.958	0.0137966
888.036	0.0138873
888.114	0.0138113
888.193	0.0138293
888.271	0.0138793
888.349	0.0139456
888.427	0.0137605
888.505	0.0137531
888.583	0.0139063
888.661	0.0138377
888.739	0.0138328
888.818	0.0136919
888.896	0.0136730
888.974	0.0135686
889.052	0.0135992
889.130	0.0137495
889.208	0.0137296
889.286	0.0136777
889.364	0.0135652
889.443	0.0136002
889.521	0.0135978
889.599	0.0136222
889.677	0.0135011
889.755	0.0136066
889.833	0.0135815
889.911	0.0135059
889.989	0.0136115
890.068	0.0136366
890.146	0.0136938
890.224	0.0135831
890.302	0.0137440
890.380	0.0136527
890.458	0.0136085
890.536	0.0137576
890.614	0.0135670
890.693	0.0137184
890.771	0.0137052
890.849	0.0137249
890.927	0.0138472
891.005	0.0137544
891.083	0.0135957
891.161	0.0137364
891.239	0.0137445
891.318	0.0135946
891.396	0.0137541
891.474	0.0137821
891.552	0.0136452
891.630	0.0137799
891.708	0.0137430
891.786	0.0137645
891.864	0.0137453
891.943	0.0138023
892.021	0.0137923
892.099	0.0138324
892.177	0.0138178
892.255	0.0138744
892.333	0.0139086
892.411	0.0137854
892.489	0.0138223
892.568	0.0138630
892.646	0.0138280
892.724	0.0138984
892.802	0.0136543
892.880	0.0137376
892.958	0.0139353
893.036	0.0139410
893.114	0.0138860
893.193	0.0137974
893.271	0.0138026
893.349	0.0137902
893.427	0.0136253
893.505	0.0137219
893.583	0.0135434
893.661	0.0135499
893.739	0.0134853
893.818	0.0136268
893.896	0.0135333
893.974	0.0135831
894.052	0.0135452
894.130	0.0134604
894.208	0.0135814
894.286	0.0136673
894.364	0.0136531
894.443	0.0136828
894.521	0.0137116
894.599	0.0136378
894.677	0.0136982
894.755	0.0138638
894.833	0.0138096
894.911	0.0136940
894.989	0.0139478
895.068	0.0138195
895.146	0.0140025
895.224	0.0139595
895.302	0.0139013
895.380	0.0138973
895.458	0.0140442
895.536	0.0140836
895.614	0.0141364
895.693	0.0140121
895.771	0.0139617
895.849	0.0140357
895.927	0.0140195
896.005	0.0140691
896.083	0.0141599
896.161	0.0140069
896.239	0.0140080
896.318	0.0138983
896.396	0.0140061
896.474	0.0139642
896.552	0.0140391
896.630	0.0138179
896.708	0.0137836
896.786	0.0138585
896.864	0.0137225
896.943	0.0137479
897.021	0.0137063
897.099	0.0136044
897.177	0.0136385
897.255	0.0135758
897.333	0.0136092
897.411	0.0136159
897.489	0.0135697
897.568	0.0135965
897.646	0.0136175
897.724	0.0135750
897.802	0.0134223
897.880	0.0134860
897.958	0.0136343
898.036	0.0134667
898.114	0.0135842
898.193	0.0134640
898.271	0.0134766
898.349	0.0135494
898.427	0.0135823
898.505	0.0137009
898.583	0.0136397
898.661	0.0134597
898.739	0.0136181
898.818	0.0136246
898.896	0.0136218
898.974	0.0135589
899.052	0.0135268
899.130	0.0138194
899.208	0.0137558
899.286	0.0135547
899.364	0.0136019
899.443	0.0138405
899.521	0.0137508
899.599	0.0137764
899.677	0.0138807
899.755	0.0137926
899.833	0.0139301
899.911	0.0138561
899.989	0.0139693
900.068	0.0139385
900.146	0.0140214
900.224	0.0141334
900.302	0.0140663
900.380	0.0139900
900.458	0.0140967
900.536	0.0141061
900.614	0.0140562
900.693	0.0140823
900.771	0.0142040
900.849	0.0139824
900.927	0.0139000
901.005	0.0139906
901.083	0.0139249
901.161	0.0138593
901.239	0.0139525
901.318	0.0138102
901.396	0.0135922
901.474	0.0136777
901.552	0.0136810
901.630	0.0136650
901.708	0.0137136
901.786	0.0134996
901.864	0.0135235
901.943	0.0134140
902.021	0.0134449
902.099	0.0134835
902.177	0.0134525
902.255	0.0134496
902.333	0.0134438
902.411	0.0135527
902.489	0.0135695
902.568	0.0135006
902.646	0.0136687
902.724	0.0133814
902.802	0.0133635
902.880	0.0134221
902.958	0.0135554
903.036	0.0134907
903.114	0.0134979
903.193	0.0135168
903.271	0.0135764
903.349	0.0134590
903.427	0.0135391
903.505	0.0135786
903.583	0.0136391
903.661	0.0135916
903.739	0.0135110
903.818	0.0135854
903.896	0.0135690
903.974	0.0136179
904.052	0.0136707
904.130	0.0136253
904.208	0.0136205
904.286	0.0136188
904.364	0.0138365
904.443	0.0137124
904.521	0.0136812
904.599	0.0137767
904.677	0.0137863
904.755	0.0137450
904.833	0.0137875
904.911	0.0137357
904.989	0.0138110
905.068	0.0137872
905.146	0.0138992
905.224	0.0138127
905.302	0.0138670
905.380	0.0139822
905.458	0.0138457
905.536	0.0139384
905.614	0.0138515
905.693	0.0140097
905.771	0.0140247
905.849	0.0138977
905.927	0.0139382
906.005	0.0141148
906.083	0.0138921
906.161	0.0139415
906.239	0.0140720
906.318	0.0139278
906.396	0.0140883
906.474	0.0139726
906.552	0.0139949
906.630	0.0139758
906.708	0.0139291
906.786	0.0138551
906.864	0.0138532
906.943	0.0138239
907.021	0.0138862
907.099	0.0138475
907.177	0.0136355
907.255	0.0136892
907.333	0.0137769
907.411	0.0138863
907.489	0.0137094
907.568	0.0137199
907.646	0.0138171
907.724	0.0137081
907.802	0.0137560
907.880	0.0135593
907.958	0.0136340
908.036	0.0137172
908.114	0.0136044
908.193	0.0137499
908.271	0.0138721
908.349	0.0137328
908.427	0.0136998
908.505	0.0136939
908.583	0.0136449
908.661	0.0136794
908.739	0.0138059
908.818	0.0137889
908.896	0.0137844
908.974	0.0137068
909.052	0.0136662
909.130	0.0138504
909.208	0.0137302
909.286	0.0136662
909.364	0.0138167
909.443	0.0138448
909.521	0.0137357
909.599	0.0137001
909.677	0.0137893
909.755	0.0137724
909.833	0.0137201
909.911	0.0137450
909.989	0.0135591
910.068	0.0136569
910.146	0.0138244
910.224	0.0135204
910.302	0.0135184
910.380	0.0136638
910.458	0.0136060
910.536	0.0135468
910.614	0.0136839
910.693	0.0135107
910.771	0.0136092
910.849	0.0135868
910.927	0.0135352
911.005	0.0137126
911.083	0.0136136
911.161	0.0135436
911.239	0.0136908
911.318	0.0136027
911.396	0.0136948
911.474	0.0138116
911.552	0.0136495
911.630	0.0138112
911.708	0.0137075
911.786	0.0137458
911.864	0.0138464
911.943	0.0137295
912.021	0.0139751
912.099	0.0138775
912.177	0.0138457
912.255	0.0139543
912.333	0.0136661
912.411	0.0136691
912.489	0.0137342
912.568	0.0137733
912.646	0.0137676
912.724	0.0138453
912.802	0.0138518
912.880	0.0137587
912.958	0.0139127
913.036	0.0136485
913.114	0.0136440
913.193	0.0138701
913.271	0.0137886
913.349	0.0137887
913.427	0.0136994
913.505	0.0136517
913.583	0.0136824
913.661	0.0138282
913.739	0.0137620
913.818	0.0137486
913.896	0.0137093
913.974	0.0136048
914.052	0.0136746
914.130	0.0136497
914.208	0.0136089
914.286	0.0136218
914.364	0.0135392
914.443	0.0136308
914.521	0.0136773
914.599	0.0136655
914.677	0.0135653
914.755	0.0135087
914.833	0.0136452
914.911	0.0135646
914.989	0.0136305
915.068	0.0137518
915.146	0.0135606
915.224	0.0135822
915.302	0.0137099
915.380	0.0135526
915.458	0.0135910
915.536	0.0136667
915.614	0.0136496
915.693	0.0135865
915.771	0.0138570
915.849	0.0138852
915.927	0.0138467
916.005	0.0138372
916.083	0.0137495
916.161	0.0138124
916.239	0.0139299
916.318	0.0137999
916.396	0.0138565
916.474	0.0138177
916.552	0.0139057
916.630	0.0138464
916.708	0.0138593
916.786	0.0137254
916.864	0.0138032
916.943	0.0138675
917.021	0.0137285
917.099	0.0136768
917.177	0.0138586
917.255	0.0137404
917.333	0.0137496
917.411	0.0135927
917.489	0.0135412
917.568	0.0136256
917.646	0.0137098
917.724	0.0135368
917.802	0.0135622
917.880	0.0134111
917.958	0.0135637
918.036	0.0135719
918.114	0.0134663
918.193	0.0136529
918.271	0.0135696
918.349	0.0136395
918.427	0.0135770
918.505	0.0137711
918.583	0.0136531
918.661	0.0137498
918.739	0.0137203
918.818	0.0138008
918.896	0.0137409
918.974	0.0139192
919.052	0.0139993
919.130	0.0140299
919.208	0.0139484
919.286	0.0140365
919.364	0.0139432
919.443	0.0139967
919.521	0.0140341
919.599	0.0140508
919.677	0.0140029
919.755	0.0140134
919.833	0.0140961
919.911	0.0140520
919.989	0.0139739
920.068	0.0138905
920.146	0.0140170
920.224	0.0140278
920.302	0.0139449
920.380	0.0139422
920.458	0.0139822
920.536	0.0138306
920.614	0.0139043
920.693	0.0137997
920.771	0.0137383
920.849	0.0138622
920.927	0.0136790
921.005	0.0136837
921.083	0.0136797
921.161	0.0136670
921.239	0.0136369
921.318	0.0135293
921.396	0.0137255
921.474	0.0136339
921.552	0.0136338
921.630	0.0136318
921.708	0.0135947
921.786	0.0137371
921.864	0.0136623
921.943	0.0137630
922.021	0.0136497
922.099	0.0134460
922.177	0.0135568
922.255	0.0136134
922.333	0.0136379
922.411	0.0136548
922.489	0.0135345
922.568	0.0134954
922.646	0.0136398
922.724	0.0137176
922.802	0.0137471
922.880	0.0137247
922.958	0.0137784
923.036	0.0137571
923.114	0.0137304
923.193	0.0138712
923.271	0.0138537
923.349	0.0139126
923.427	0.0138970
923.505	0.0139006
923.583	0.0139904
923.661	0.0139443
923.739	0.0138142
923.818	0.0140137
923.896	0.0140283
923.974	0.0139759
924.052	0.0139466
924.130	0.0138551
924.208	0.0139048
924.286	0.0140810
924.364	0.0139774
924.443	0.0140699
924.521	0.0139069
924.599	0.0139575
924.677	0.0139648
924.755	0.0139468
924.833	0.0139456
924.911	0.0138121
924.989	0.0139383
925.068	0.0137937
925.146	0.0137536
925.224	0.0138529
925.302	0.0137595
925.380	0.0137183
925.458	0.0137688
925.536	0.0137135
925.614	0.0137387
925.693	0.0136430
925.771	0.0136078
925.849	0.0137299
925.927	0.0136189
926.005	0.0138179
926.083	0.0136877
926.161	0.0137371
926.239	0.0138074
926.318	0.0137022
926.396	0.0137585
926.474	0.0139228
926.552	0.0136212
926.630	0.0136808
926.708	0.0137607
926.786	0.0136736
926.864	0.0137024
926.943	0.0136222
927.021	0.0137150
927.099	0.0138040
927.177	0.0138013
927.255	0.0137531
927.333	0.0137077
927.411	0.0135847
927.489	0.0137281
927.568	0.0138527
927.646	0.0138132
927.724	0.0138277
927.802	0.0139746
927.880	0.0137437
927.958	0.0137425
928.036	0.0139058
928.114	0.0138132
928.193	0.0138866
928.271	0.0138605
928.349	0.0137517
928.427	0.0139046
928.505	0.0139141
928.583	0.0140298
928.661	0.0138653
928.739	0.0137687
928.818	0.0138720
928.896	0.0138564
928.974	0.0137049
929.052	0.0138470
929.130	0.0138469
929.208	0.0137572
929.286	0.0137588
929.364	0.0137879
929.443	0.0137991
929.521	0.0136632
929.599	0.0136515
929.677	0.0136486
929.755	0.0136665
929.833	0.0137627
929.911	0.0136134
929.989	0.0137508
930.068	0.0137439
930.146	0.0137304
930.224	0.0137304
930.302	0.0137376
930.380	0.0137373
930.458	0.0137913
930.536	0.0137659
930.614	0.0138132
930.693	0.0137431
930.771	0.0137995
930.849	0.0138316
930.927	0.0137402
931.005	0.0138374
931.083	0.0138641
931.161	0.0137631
931.239	0.0138406
931.318	0.0139410
931.396	0.0138269
931.474	0.0139290
931.552	0.0139310
931.630	0.0137298
931.708	0.0139611
931.786	0.0140216
931.864	0.0139441
931.943	0.0138579
932.021	0.0138358
932.099	0.0139626
932.177	0.0138628
932.255	0.0138218
932.333	0.0138282
932.411	0.0139381
932.489	0.0136678
932.568	0.0136386
932.646	0.0137485
932.724	0.0137690
932.802	0.0136449
932.880	0.0136189
932.958	0.0137833
933.036	0.0137240
933.114	0.0135752
933.193	0.0136282
933.271	0.0136422
933.349	0.0136906
933.427	0.0135599
933.505	0.0135852
933.583	0.0135830
933.661	0.0137070
933.739	0.0135847
933.818	0.0135227
933.896	0.0135710
933.974	0.0135425
934.052	0.0136846
934.130	0.0136241
934.208	0.0136157
934.286	0.0136683
934.364	0.0137453
934.443	0.0137006
934.521	0.0138141
934.599	0.0137416
934.677	0.0137628
934.755	0.0139413
934.833	0.0137876
934.911	0.0138544
934.989	0.0137966
935.068	0.0137827
935.146	0.0138979
935.224	0.0139103
935.302	0.0138831
935.380	0.0139584
935.458	0.0140131
935.536	0.0140242
935.614	0.0139881
935.693	0.0140523
935.771	0.0141276
935.849	0.0140292
935.927	0.0140575
936.005	0.0139458
936.083	0.0138545
936.161	0.0139811
936.239	0.0140466
936.318	0.0138875
936.396	0.0138589
936.474	0.0139568
936.552	0.0139008
936.630	0.0139317
936.708	0.0138480
936.786	0.0137549
936.864	0.0138467
936.943	0.0137128
937.021	0.0136488
937.099	0.0137353
937.177	0.0138109
937.255	0.0136826
937.333	0.0138358
937.411	0.0138554
937.489	0.0136787
937.568	0.0135732
937.646	0.0135910
937.724	0.0136852
937.802	0.0136555
937.880	0.0137326
937.958	0.0136554
938.036	0.0135966
938.114	0.0137137
938.193	0.0137241
938.271	0.0137777
938.349	0.0135407
938.427	0.0137423
938.505	0.0137437
938.583	0.0137582
938.661	0.0137710
938.739	0.0137653
938.818	0.0137627
938.896	0.0138136
938.974	0.0137540
939.052	0.0137356
939.130	0.0137214
939.208	0.0138644
939.286	0.0138398
939.364	0.0137032
939.443	0.0139063
939.521	0.0138618
939.599	0.0137983
939.677	0.0140062
939.755	0.0138882
939.833	0.0138206
939.911	0.0138919
939.989	0.0139089
940.068	0.0138737
940.146	0.0138509
940.224	0.0139318
940.302	0.0139547
940.380	0.0138978
940.458	0.0138788
940.536	0.0139758
940.614	0.0141171
940.693	0.0138963
940.771	0.0137427
940.849	0.0139375
940.927	0.0137027
941.005	0.0137666
941.083	0.0137537
941.161	0.0138754
941.239	0.0137724
941.318	0.0137561
941.396	0.0137534
941.474	0.0137687
941.552	0.0135564
941.630	0.0136002
941.708	0.0137444
941.786	0.0137103
941.864	0.0136819
941.943	0.0135968
942.021	0.0135434
942.099	0.0136275
942.177	0.0137336
942.255	0.0135459
942.333	0.0136261
942.411	0.0136499
942.489	0.0136897
942.568	0.0137379
942.646	0.0136485
942.724	0.0136899
942.802	0.0137029
942.880	0.0137915
942.958	0.0137078
943.036	0.0137395
943.114	0.0139985
943.193	0.0139468
943.271	0.0137794
943.349	0.0138526
943.427	0.0138699
943.505	0.0137431
943.583	0.0138453
943.661	0.0139449
943.739	0.0140179
943.818	0.0139362
943.896	0.0139249
943.974	0.0138584
944.052	0.0138323
944.130	0.0137901
944.208	0.0138200
944.286	0.0138659
944.364	0.0139704
944.443	0.0139194
944.521	0.0137823
944.599	0.0139146
944.677	0.0138792
944.755	0.0139263
944.833	0.0139382
944.911	0.0138927
944.989	0.0139576
945.068	0.0137914
945.146	0.0138622
945.224	0.0138719
945.302	0.0140143
945.380	0.0138652
945.458	0.0137926
945.536	0.0139461
945.614	0.0138964
945.693	0.0138826
945.771	0.0137603
945.849	0.0137604
945.927	0.0138038
946.005	0.0137753
946.083	0.0136259
946.161	0.0137281
946.239	0.0137400
946.318	0.0137228
946.396	0.0137416
946.474	0.0136893
946.552	0.0137223
946.630	0.0135148
946.708	0.0136657
946.786	0.0138970
946.864	0.0139053
946.943	0.0137160
947.021	0.0138551
947.099	0.0138497
947.177	0.0137848
947.255	0.0138342
947.333	0.0138161
947.411	0.0136241
947.489	0.0137919
947.568	0.0136607
947.646	0.0135646
947.724	0.0137567
947.802	0.0138524
947.880	0.0137379
947.958	0.0137951
948.036	0.0136314
948.114	0.0135501
948.193	0.0137108
948.271	0.0137254
948.349	0.0137164
948.427	0.0137254
948.505	0.0135858
948.583	0.0137241
948.661	0.0136894
948.739	0.0135723
948.818	0.0137720
948.896	0.0136635
948.974	0.0135034
949.052	0.0135522
949.130	0.0136544
949.208	0.0135673
949.286	0.0133501
949.364	0.0134572
949.443	0.0135512
949.521	0.0135010
949.599	0.0134715
949.677	0.0135622
949.755	0.0134331
949.833	0.0134461
949.911	0.0136216
949.989	0.0136243
950.068	0.0136365
950.146	0.0136030
950.224	0.0135961
950.302	0.0135665
950.380	0.0135460
950.458	0.0134850
950.536	0.0136163
950.614	0.0136047
950.693	0.0135167
950.771	0.0135954
950.849	0.0136502
950.927	0.0136035
951.005	0.0136180
951.083	0.0135860
951.161	0.0137012
951.239	0.0138364
951.318	0.0137791
951.396	0.0136897
951.474	0.0137810
951.552	0.0136976
951.630	0.0137914
951.708	0.0137622
951.786	0.0137576
951.864	0.0138268
951.943	0.0138987
952.021	0.0137544
952.099	0.0137653
952.177	0.0137518
952.255	0.0136559
952.333	0.0137551
952.411	0.0136876
952.489	0.0136420
952.568	0.0136519
952.646	0.0136594
952.724	0.0137126
952.802	0.0137315
952.880	0.0136395
952.958	0.0136478
953.036	0.0137249
953.114	0.0136478
953.193	0.0135706
953.271	0.0137126
953.349	0.0137851
953.427	0.0135729
953.505	0.0136147
953.583	0.0135652
953.661	0.0135041
953.739	0.0137093
953.818	0.0138700
953.896	0.0137778
953.974	0.0136833
954.052	0.0136590
954.130	0.0137447
954.208	0.0137749
954.286	0.0136825
954.364	0.0137806
954.443	0.0138417
954.521	0.0137123
954.599	0.0136258
954.677	0.0136523
954.755	0.0137125
954.833	0.0137939
954.911	0.0137959
954.989	0.0135700
955.068	0.0137088
955.146	0.0136900
955.224	0.0136236
955.302	0.0137224
955.380	0.0137045
955.458	0.0136575
955.536	0.0136440
955.614	0.0137230
955.693	0.0137939
955.771	0.0136432
955.849	0.0136849
955.927	0.0137067
956.005	0.0135628
956.083	0.0137695
956.161	0.0137643
956.239	0.0137156
956.318	0.0136915
956.396	0.0135870
956.474	0.0135822
956.552	0.0134969
956.630	0.0137444
956.708	0.0135322
956.786	0.0135968
956.864	0.0136311
956.943	0.0133910
957.021	0.0136251
957.099	0.0135888
957.177	0.0134702
957.255	0.0135379
957.333	0.0134251
957.411	0.0135770
957.489	0.0135572
957.568	0.0135160
957.646	0.0135814
957.724	0.0135722
957.802	0.0136008
957.880	0.0134415
957.958	0.0136348
958.036	0.0135956
958.114	0.0136761
958.193	0.0137341
958.271	0.0136440
958.349	0.0136938
958.427	0.0137695
958.505	0.0136511
958.583	0.0137598
958.661	0.0137585
958.739	0.0137752
958.818	0.0137518
958.896	0.0137605
958.974	0.0138087
959.052	0.0137748
959.130	0.0137231
959.208	0.0139590
959.286	0.0138248
959.364	0.0138476
959.443	0.0137198
959.521	0.0139904
959.599	0.0138499
959.677	0.0138601
959.755	0.0136617
959.833	0.0138049
959.911	0.0138392
