05/14/2022	16:42:27	Ver.	4.1	UNKNOWN
Optical Delay	639.989416	Delta X		0.078125	Sweeps	1	Scan Rate	0/0
Coordinates	Axis 1	NaN	Axis 2	NaN	Axis 3	NaN	Axis 4	NaN	Axis 5	NaN	Axis 6	0.000000
TX Power	0.000000	RX Power	0.000000

639.989	0.0136060
640.068	0.0136298
640.146	0.0136292
640.224	0.0137233
640.302	0.0138306
640.380	0.0137579
640.458	0.0136972
640.536	0.0136390
640.614	0.0135537
640.693	0.0137928
640.771	0.0135971
640.849	0.0135020
640.927	0.0136238
641.005	0.0136937
641.083	0.0136354
641.161	0.0135067
641.239	0.0135487
641.318	0.0136000
641.396	0.0136978
641.474	0.0137518
641.552	0.0135512
641.630	0.0135313
641.708	0.0136219
641.786	0.0136818
641.864	0.0137996
641.943	0.0136937
642.021	0.0136761
642.099	0.0136455
642.177	0.0137618
642.255	0.0136324
642.333	0.0135381
642.411	0.0136118
642.489	0.0136301
642.568	0.0137440
642.646	0.0136273
642.724	0.0135526
642.802	0.0136774
642.880	0.0135970
642.958	0.0136323
643.036	0.0137560
643.114	0.0135307
643.193	0.0135951
643.271	0.0136851
643.349	0.0137252
643.427	0.0137267
643.505	0.0137307
643.583	0.0135818
643.661	0.0137103
643.739	0.0137045
643.818	0.0136834
643.896	0.0137717
643.974	0.0134843
644.052	0.0134086
644.130	0.0136167
644.208	0.0136414
644.286	0.0135571
644.364	0.0136040
644.443	0.0135814
644.521	0.0135242
644.599	0.0134930
644.677	0.0136570
644.755	0.0136292
644.833	0.0136060
644.911	0.0136108
644.989	0.0136904
645.068	0.0136317
645.146	0.0136542
645.224	0.0136732
645.302	0.0136251
645.380	0.0135840
645.458	0.0135667
645.536	0.0135097
645.614	0.0135541
645.693	0.0135357
645.771	0.0136642
645.849	0.0136315
645.927	0.0134986
646.005	0.0136021
646.083	0.0134652
646.161	0.0134883
646.239	0.0135357
646.318	0.0136182
646.396	0.0135682
646.474	0.0134703
646.552	0.0136714
646.630	0.0135734
646.708	0.0134495
646.786	0.0135370
646.864	0.0135661
646.943	0.0134811
647.021	0.0135076
647.099	0.0134732
647.177	0.0135148
647.255	0.0136716
647.333	0.0134865
647.411	0.0135602
647.489	0.0135291
647.568	0.0135732
647.646	0.0135302
647.724	0.0136236
647.802	0.0136456
647.880	0.0136309
647.958	0.0135206
648.036	0.0134458
648.114	0.0134442
648.193	0.0136009
648.271	0.0135503
648.349	0.0135691
648.427	0.0135944
648.505	0.0135210
648.583	0.0136608
648.661	0.0134824
648.739	0.0135451
648.818	0.0133822
648.896	0.0134055
648.974	0.0136890
649.052	0.0134703
649.130	0.0134682
649.208	0.0135802
649.286	0.0134378
649.364	0.0134236
649.443	0.0135262
649.521	0.0133691
649.599	0.0134480
649.677	0.0134534
649.755	0.0134659
649.833	0.0134795
649.911	0.0134942
649.989	0.0135372
650.068	0.0134921
650.146	0.0135416
650.224	0.0134637
650.302	0.0135178
650.380	0.0136205
650.458	0.0135374
650.536	0.0135463
650.614	0.0133800
650.693	0.0135366
650.771	0.0136021
650.849	0.0135042
650.927	0.0137087
651.005	0.0136867
651.083	0.0135374
651.161	0.0135534
651.239	0.0136198
651.318	0.0135052
651.396	0.0134460
651.474	0.0136597
651.552	0.0135722
651.630	0.0136444
651.708	0.0135504
651.786	0.0135040
651.864	0.0134021
651.943	0.0134852
652.021	0.0134007
652.099	0.0134981
652.177	0.0134012
652.255	0.0134610
652.333	0.0135680
652.411	0.0134299
652.489	0.0135248
652.568	0.0134550
652.646	0.0134805
652.724	0.0134664
652.802	0.0136109
652.880	0.0135509
652.958	0.0135098
653.036	0.0134850
653.114	0.0134712
653.193	0.0135728
653.271	0.0134660
653.349	0.0133824
653.427	0.0133543
653.505	0.0135113
653.583	0.0135228
653.661	0.0134151
653.739	0.0135049
653.818	0.0133665
653.896	0.0134326
653.974	0.0135114
654.052	0.0135687
654.130	0.0136348
654.208	0.0133858
654.286	0.0134938
654.364	0.0134667
654.443	0.0135539
654.521	0.0136293
654.599	0.0135168
654.677	0.0134661
654.755	0.0134385
654.833	0.0135511
654.911	0.0135324
654.989	0.0134762
655.068	0.0134082
655.146	0.0135584
655.224	0.0134807
655.302	0.0135420
655.380	0.0135371
655.458	0.0135159
655.536	0.0135705
655.614	0.0135403
655.693	0.0134825
655.771	0.0135926
655.849	0.0134987
655.927	0.0135011
656.005	0.0136157
656.083	0.0135024
656.161	0.0135900
656.239	0.0135001
656.318	0.0135862
656.396	0.0135517
656.474	0.0135052
656.552	0.0136071
656.630	0.0135834
656.708	0.0137013
656.786	0.0134734
656.864	0.0135410
656.943	0.0136293
657.021	0.0135618
657.099	0.0137132
657.177	0.0135022
657.255	0.0134604
657.333	0.0135134
657.411	0.0134238
657.489	0.0135931
657.568	0.0135503
657.646	0.0135831
657.724	0.0134384
657.802	0.0135563
657.880	0.0136898
657.958	0.0136229
658.036	0.0134146
658.114	0.0135941
658.193	0.0135499
658.271	0.0133964
658.349	0.0135217
658.427	0.0134550
658.505	0.0135880
658.583	0.0135291
658.661	0.0134965
658.739	0.0135213
658.818	0.0136681
658.896	0.0135434
658.974	0.0135604
659.052	0.0134920
659.130	0.0135646
659.208	0.0135584
659.286	0.0135237
659.364	0.0135374
659.443	0.0136082
659.521	0.0135062
659.599	0.0134871
659.677	0.0136089
659.755	0.0135529
659.833	0.0136586
659.911	0.0134499
659.989	0.0135621
660.068	0.0135896
660.146	0.0136386
660.224	0.0136892
660.302	0.0135206
660.380	0.0136568
660.458	0.0136208
660.536	0.0134510
660.614	0.0135558
660.693	0.0136890
660.771	0.0136657
660.849	0.0136225
660.927	0.0136134
661.005	0.0135367
661.083	0.0135777
661.161	0.0136959
661.239	0.0135894
661.318	0.0136077
661.396	0.0136408
661.474	0.0136527
661.552	0.0135291
661.630	0.0136171
661.708	0.0135872
661.786	0.0136478
661.864	0.0135717
661.943	0.0135974
662.021	0.0135469
662.099	0.0135413
662.177	0.0135605
662.255	0.0135840
662.333	0.0136308
662.411	0.0136569
662.489	0.0136260
662.568	0.0135287
662.646	0.0136703
662.724	0.0135639
662.802	0.0136671
662.880	0.0136122
662.958	0.0135423
663.036	0.0136253
663.114	0.0136105
663.193	0.0136909
663.271	0.0137311
663.349	0.0137051
663.427	0.0137289
663.505	0.0136533
663.583	0.0136449
663.661	0.0135772
663.739	0.0137064
663.818	0.0134860
663.896	0.0137231
663.974	0.0136410
664.052	0.0136521
664.130	0.0137035
664.208	0.0136486
664.286	0.0135663
664.364	0.0136652
664.443	0.0135331
664.521	0.0135160
664.599	0.0138168
664.677	0.0136301
664.755	0.0136581
664.833	0.0136030
664.911	0.0136745
664.989	0.0136041
665.068	0.0136823
665.146	0.0137891
665.224	0.0136989
665.302	0.0135455
665.380	0.0136503
665.458	0.0137146
665.536	0.0136366
665.614	0.0137581
665.693	0.0136891
665.771	0.0136567
665.849	0.0138341
665.927	0.0136929
666.005	0.0136736
666.083	0.0137823
666.161	0.0136861
666.239	0.0137764
666.318	0.0137688
666.396	0.0136835
666.474	0.0135890
666.552	0.0136728
666.630	0.0134041
666.708	0.0134521
666.786	0.0134846
666.864	0.0134450
666.943	0.0135080
667.021	0.0135029
667.099	0.0134468
667.177	0.0133015
667.255	0.0134592
667.333	0.0134522
667.411	0.0134429
667.489	0.0136034
667.568	0.0135557
667.646	0.0134620
667.724	0.0133647
667.802	0.0136543
667.880	0.0135732
667.958	0.0136507
668.036	0.0136443
668.114	0.0134689
668.193	0.0136089
668.271	0.0135070
668.349	0.0136005
668.427	0.0135255
668.505	0.0134696
668.583	0.0134942
668.661	0.0135983
668.739	0.0134665
668.818	0.0134032
668.896	0.0132638
668.974	0.0134595
669.052	0.0134827
669.130	0.0133087
669.208	0.0132960
669.286	0.0133425
669.364	0.0133054
669.443	0.0132081
669.521	0.0132798
669.599	0.0133353
669.677	0.0134102
669.755	0.0135621
669.833	0.0133726
669.911	0.0134286
669.989	0.0133749
670.068	0.0135927
670.146	0.0135325
670.224	0.0136279
670.302	0.0135641
670.380	0.0136162
670.458	0.0136269
670.536	0.0137051
670.614	0.0136529
670.693	0.0136522
670.771	0.0135609
670.849	0.0136062
670.927	0.0133048
671.005	0.0133917
671.083	0.0134539
671.161	0.0131772
671.239	0.0132780
671.318	0.0132056
671.396	0.0131789
671.474	0.0131046
671.552	0.0131880
671.630	0.0132156
671.708	0.0130866
671.786	0.0132559
671.864	0.0133266
671.943	0.0132806
672.021	0.0135069
672.099	0.0135288
672.177	0.0136446
672.255	0.0137675
672.333	0.0138529
672.411	0.0140740
672.489	0.0142240
672.568	0.0140742
672.646	0.0140313
672.724	0.0143002
672.802	0.0142868
672.880	0.0142425
672.958	0.0142204
673.036	0.0141831
673.114	0.0139787
673.193	0.0140244
673.271	0.0138197
673.349	0.0136729
673.427	0.0135738
673.505	0.0134246
673.583	0.0132969
673.661	0.0131470
673.739	0.0130251
673.818	0.0128557
673.896	0.0128647
673.974	0.0125719
674.052	0.0124567
674.130	0.0124524
674.208	0.0123927
674.286	0.0124768
674.364	0.0123880
674.443	0.0125663
674.521	0.0124443
674.599	0.0126884
674.677	0.0128048
674.755	0.0130360
674.833	0.0130502
674.911	0.0131491
674.989	0.0134665
675.068	0.0137239
675.146	0.0138338
675.224	0.0140987
675.302	0.0142260
675.380	0.0144843
675.458	0.0146804
675.536	0.0147659
675.614	0.0147607
675.693	0.0149310
675.771	0.0148888
675.849	0.0151732
675.927	0.0151244
676.005	0.0149065
676.083	0.0149162
676.161	0.0148412
676.239	0.0146201
676.318	0.0143794
676.396	0.0142767
676.474	0.0141093
676.552	0.0137922
676.630	0.0136284
676.708	0.0133720
676.786	0.0130402
676.864	0.0128071
676.943	0.0126126
677.021	0.0125326
677.099	0.0123515
677.177	0.0120944
677.255	0.0120289
677.333	0.0118742
677.411	0.0118394
677.489	0.0117479
677.568	0.0116907
677.646	0.0117857
677.724	0.0117560
677.802	0.0119013
677.880	0.0120626
677.958	0.0121675
678.036	0.0123001
678.114	0.0124088
678.193	0.0124007
678.271	0.0126505
678.349	0.0128281
678.427	0.0130251
678.505	0.0132248
678.583	0.0135385
678.661	0.0137173
678.739	0.0138162
678.818	0.0139944
678.896	0.0140986
678.974	0.0143645
679.052	0.0146199
679.130	0.0147424
679.208	0.0149457
679.286	0.0151827
679.364	0.0153761
679.443	0.0153391
679.521	0.0156006
679.599	0.0155595
679.677	0.0157327
679.755	0.0158411
679.833	0.0158190
679.911	0.0156390
679.989	0.0157702
680.068	0.0156559
680.146	0.0153787
680.224	0.0152292
680.302	0.0149205
680.380	0.0147398
680.458	0.0143990
680.536	0.0140893
680.614	0.0138675
680.693	0.0133225
680.771	0.0130143
680.849	0.0126736
680.927	0.0122778
681.005	0.0120198
681.083	0.0116222
681.161	0.0113839
681.239	0.0109908
681.318	0.0106596
681.396	0.0105279
681.474	0.0103622
681.552	0.0101495
681.630	0.0101083
681.708	0.0100865
681.786	0.0101837
681.864	0.0101692
681.943	0.0104443
682.021	0.0106952
682.099	0.0109736
682.177	0.0113300
682.255	0.0117031
682.333	0.0120860
682.411	0.0127061
682.489	0.0130502
682.568	0.0133724
682.646	0.0139151
682.724	0.0143669
682.802	0.0147495
682.880	0.0152150
682.958	0.0158349
683.036	0.0160616
683.114	0.0164605
683.193	0.0169854
683.271	0.0170732
683.349	0.0172900
683.427	0.0174630
683.505	0.0173560
683.583	0.0174297
683.661	0.0175019
683.739	0.0171640
683.818	0.0170454
683.896	0.0168132
683.974	0.0164573
684.052	0.0160104
684.130	0.0157312
684.208	0.0152168
684.286	0.0147137
684.364	0.0143115
684.443	0.0137463
684.521	0.0132334
684.599	0.0128744
684.677	0.0126157
684.755	0.0122276
684.833	0.0118871
684.911	0.0115260
684.989	0.0113200
685.068	0.0109483
685.146	0.0107636
685.224	0.0106425
685.302	0.0105126
685.380	0.0104745
685.458	0.0104536
685.536	0.0104833
685.614	0.0105186
685.693	0.0105051
685.771	0.0105146
685.849	0.0107220
685.927	0.0111156
686.005	0.0111877
686.083	0.0115151
686.161	0.0117873
686.239	0.0118871
686.318	0.0122035
686.396	0.0126692
686.474	0.0129559
686.552	0.0133879
686.630	0.0135973
686.708	0.0137667
686.786	0.0140169
686.864	0.0144125
686.943	0.0145468
687.021	0.0148233
687.099	0.0150740
687.177	0.0151584
687.255	0.0153117
687.333	0.0155456
687.411	0.0157095
687.489	0.0157705
687.568	0.0159324
687.646	0.0159737
687.724	0.0159177
687.802	0.0160326
687.880	0.0159658
687.958	0.0158759
688.036	0.0157484
688.114	0.0157064
688.193	0.0156592
688.271	0.0155841
688.349	0.0154361
688.427	0.0151339
688.505	0.0149398
688.583	0.0148292
688.661	0.0144557
688.739	0.0142046
688.818	0.0140157
688.896	0.0137988
688.974	0.0135014
689.052	0.0132735
689.130	0.0129336
689.208	0.0126244
689.286	0.0124490
689.364	0.0125066
689.443	0.0123691
689.521	0.0121127
689.599	0.0120756
689.677	0.0119554
689.755	0.0118350
689.833	0.0117415
689.911	0.0117249
689.989	0.0117496
690.068	0.0116232
690.146	0.0116231
690.224	0.0116641
690.302	0.0117671
690.380	0.0118347
690.458	0.0117927
690.536	0.0117236
690.614	0.0119078
690.693	0.0120805
690.771	0.0120920
690.849	0.0120927
690.927	0.0122322
691.005	0.0123203
691.083	0.0125664
691.161	0.0126237
691.239	0.0128069
691.318	0.0131680
691.396	0.0133772
691.474	0.0135571
691.552	0.0137337
691.630	0.0137674
691.708	0.0141085
691.786	0.0141476
691.864	0.0143134
691.943	0.0145568
692.021	0.0148376
692.099	0.0147181
692.177	0.0147179
692.255	0.0148773
692.333	0.0147651
692.411	0.0148625
692.489	0.0148248
692.568	0.0148661
692.646	0.0148347
692.724	0.0148486
692.802	0.0147240
692.880	0.0146859
692.958	0.0146837
693.036	0.0146942
693.114	0.0145511
693.193	0.0144916
693.271	0.0144438
693.349	0.0142249
693.427	0.0142284
693.505	0.0140390
693.583	0.0139394
693.661	0.0139646
693.739	0.0138168
693.818	0.0135522
693.896	0.0137314
693.974	0.0136684
694.052	0.0134970
694.130	0.0133594
694.208	0.0133896
694.286	0.0131836
694.364	0.0131262
694.443	0.0131013
694.521	0.0130390
694.599	0.0129709
694.677	0.0129659
694.755	0.0129666
694.833	0.0127830
694.911	0.0127454
694.989	0.0127928
695.068	0.0127523
695.146	0.0127588
695.224	0.0127916
695.302	0.0128332
695.380	0.0127437
695.458	0.0127176
695.536	0.0127148
695.614	0.0127164
695.693	0.0127142
695.771	0.0125670
695.849	0.0124990
695.927	0.0125499
696.005	0.0126286
696.083	0.0124382
696.161	0.0123873
696.239	0.0123844
696.318	0.0123826
696.396	0.0125027
696.474	0.0122701
696.552	0.0123600
696.630	0.0125541
696.708	0.0126036
696.786	0.0126655
696.864	0.0127174
696.943	0.0126669
697.021	0.0128205
697.099	0.0130231
697.177	0.0131663
697.255	0.0133377
697.333	0.0134388
697.411	0.0136241
697.489	0.0137682
697.568	0.0141779
697.646	0.0142784
697.724	0.0145020
697.802	0.0147272
697.880	0.0149152
697.958	0.0149660
698.036	0.0150966
698.114	0.0152435
698.193	0.0152763
698.271	0.0154105
698.349	0.0154254
698.427	0.0152296
698.505	0.0153835
698.583	0.0152628
698.661	0.0151525
698.739	0.0151671
698.818	0.0150279
698.896	0.0149372
698.974	0.0148081
699.052	0.0147349
699.130	0.0144367
699.208	0.0144395
699.286	0.0142908
699.364	0.0140439
699.443	0.0139068
699.521	0.0136321
699.599	0.0134824
699.677	0.0133559
699.755	0.0131607
699.833	0.0130159
699.911	0.0129624
699.989	0.0128662
700.068	0.0129993
700.146	0.0127097
700.224	0.0126704
700.302	0.0126082
700.380	0.0125774
700.458	0.0125206
700.536	0.0124437
700.614	0.0124622
700.693	0.0122425
700.771	0.0123067
700.849	0.0123362
700.927	0.0121815
701.005	0.0121230
701.083	0.0121120
701.161	0.0120397
701.239	0.0120342
701.318	0.0120669
701.396	0.0120657
701.474	0.0121735
701.552	0.0121680
701.630	0.0121767
701.708	0.0122738
701.786	0.0123278
701.864	0.0124567
701.943	0.0124289
702.021	0.0126433
702.099	0.0129087
702.177	0.0130333
702.255	0.0131398
702.333	0.0132518
702.411	0.0135229
702.489	0.0137103
702.568	0.0139354
702.646	0.0140285
702.724	0.0142810
702.802	0.0144693
702.880	0.0146238
702.958	0.0149552
703.036	0.0149978
703.114	0.0151233
703.193	0.0150964
703.271	0.0152995
703.349	0.0152158
703.427	0.0153856
703.505	0.0152898
703.583	0.0153093
703.661	0.0150646
703.739	0.0151421
703.818	0.0148669
703.896	0.0147559
703.974	0.0145346
704.052	0.0144711
704.130	0.0143019
704.208	0.0140623
704.286	0.0141057
704.364	0.0139313
704.443	0.0136503
704.521	0.0136916
704.599	0.0136396
704.677	0.0137794
704.755	0.0136106
704.833	0.0136463
704.911	0.0136598
704.989	0.0136068
705.068	0.0136871
705.146	0.0136672
705.224	0.0140044
705.302	0.0139049
705.380	0.0138776
705.458	0.0139646
705.536	0.0139955
705.614	0.0138622
705.693	0.0140641
705.771	0.0140218
705.849	0.0139478
705.927	0.0138582
706.005	0.0138083
706.083	0.0136591
706.161	0.0136002
706.239	0.0136247
706.318	0.0134457
706.396	0.0133242
706.474	0.0130919
706.552	0.0129848
706.630	0.0126112
706.708	0.0125157
706.786	0.0124370
706.864	0.0120407
706.943	0.0117797
707.021	0.0115440
707.099	0.0113776
707.177	0.0112173
707.255	0.0110687
707.333	0.0108946
707.411	0.0108362
707.489	0.0106963
707.568	0.0107478
707.646	0.0107706
707.724	0.0109042
707.802	0.0111433
707.880	0.0114275
707.958	0.0116221
708.036	0.0118330
708.114	0.0123914
708.193	0.0127985
708.271	0.0130145
708.349	0.0134768
708.427	0.0139314
708.505	0.0143842
708.583	0.0147079
708.661	0.0151508
708.739	0.0154431
708.818	0.0156449
708.896	0.0159103
708.974	0.0162611
709.052	0.0164088
709.130	0.0164043
709.208	0.0165959
709.286	0.0166873
709.364	0.0166623
709.443	0.0165325
709.521	0.0164510
709.599	0.0163902
709.677	0.0160901
709.755	0.0159693
709.833	0.0157771
709.911	0.0154919
709.989	0.0152548
710.068	0.0149837
710.146	0.0146539
710.224	0.0143773
710.302	0.0141628
710.380	0.0138390
710.458	0.0137679
710.536	0.0135432
710.614	0.0133983
710.693	0.0131486
710.771	0.0129741
710.849	0.0126784
710.927	0.0124782
711.005	0.0123905
711.083	0.0122422
711.161	0.0120805
711.239	0.0119070
711.318	0.0117979
711.396	0.0119077
711.474	0.0117780
711.552	0.0117143
711.630	0.0117966
711.708	0.0118136
711.786	0.0117549
711.864	0.0118258
711.943	0.0119466
712.021	0.0120109
712.099	0.0121455
712.177	0.0121524
712.255	0.0122369
712.333	0.0122837
712.411	0.0122549
712.489	0.0123512
712.568	0.0125507
712.646	0.0125518
712.724	0.0125291
712.802	0.0125594
712.880	0.0126273
712.958	0.0128577
713.036	0.0128758
713.114	0.0130320
713.193	0.0130111
713.271	0.0132397
713.349	0.0133527
713.427	0.0133042
713.505	0.0134182
713.583	0.0134921
713.661	0.0137310
713.739	0.0137749
713.818	0.0137208
713.896	0.0139278
713.974	0.0140083
714.052	0.0142124
714.130	0.0141737
714.208	0.0143795
714.286	0.0144347
714.364	0.0145066
714.443	0.0145759
714.521	0.0146679
714.599	0.0147647
714.677	0.0146462
714.755	0.0146100
714.833	0.0144746
714.911	0.0144185
714.989	0.0144987
715.068	0.0143692
715.146	0.0141611
715.224	0.0142617
715.302	0.0141360
715.380	0.0141663
715.458	0.0141219
715.536	0.0140918
715.614	0.0139863
715.693	0.0140722
715.771	0.0139758
715.849	0.0139687
715.927	0.0140913
716.005	0.0141627
716.083	0.0140648
716.161	0.0140791
716.239	0.0141412
716.318	0.0141798
716.396	0.0141635
716.474	0.0141681
716.552	0.0142498
716.630	0.0143102
716.708	0.0142514
716.786	0.0142706
716.864	0.0141948
716.943	0.0140958
717.021	0.0138492
717.099	0.0137325
717.177	0.0135229
717.255	0.0133598
717.333	0.0131116
717.411	0.0128862
717.489	0.0123714
717.568	0.0121588
717.646	0.0120292
717.724	0.0117616
717.802	0.0114521
717.880	0.0112670
717.958	0.0111266
718.036	0.0110774
718.114	0.0111185
718.193	0.0109538
718.271	0.0111494
718.349	0.0111262
718.427	0.0113354
718.505	0.0113303
718.583	0.0116624
718.661	0.0118658
718.739	0.0121138
718.818	0.0124954
718.896	0.0127388
718.974	0.0130208
719.052	0.0133629
719.130	0.0135769
719.208	0.0138577
719.286	0.0142085
719.364	0.0146697
719.443	0.0146097
719.521	0.0146740
719.599	0.0149743
719.677	0.0151335
719.755	0.0150533
719.833	0.0151350
719.911	0.0151612
719.989	0.0151695
720.068	0.0151050
720.146	0.0151849
720.224	0.0152456
720.302	0.0151620
720.380	0.0151662
720.458	0.0150975
720.536	0.0150667
720.614	0.0148828
720.693	0.0148946
720.771	0.0149871
720.849	0.0149524
720.927	0.0148485
721.005	0.0145479
721.083	0.0145873
721.161	0.0145361
721.239	0.0143454
721.318	0.0143915
721.396	0.0144916
721.474	0.0143295
721.552	0.0141416
721.630	0.0141250
721.708	0.0140320
721.786	0.0139364
721.864	0.0139420
721.943	0.0136602
722.021	0.0136336
722.099	0.0134589
722.177	0.0135578
722.255	0.0132903
722.333	0.0132461
722.411	0.0130945
722.489	0.0127789
722.568	0.0126573
722.646	0.0125610
722.724	0.0124050
722.802	0.0122173
722.880	0.0120253
722.958	0.0119889
723.036	0.0120060
723.114	0.0117560
723.193	0.0116553
723.271	0.0119164
723.349	0.0118129
723.427	0.0116144
723.505	0.0117763
723.583	0.0118090
723.661	0.0118987
723.739	0.0120619
723.818	0.0121389
723.896	0.0122821
723.974	0.0124113
724.052	0.0125812
724.130	0.0127722
724.208	0.0130000
724.286	0.0131733
724.364	0.0132209
724.443	0.0135393
724.521	0.0136221
724.599	0.0138394
724.677	0.0139975
724.755	0.0142415
724.833	0.0144405
724.911	0.0144598
724.989	0.0146695
725.068	0.0148261
725.146	0.0148263
725.224	0.0148233
725.302	0.0148186
725.380	0.0148273
725.458	0.0147980
725.536	0.0149248
725.614	0.0148766
725.693	0.0145723
725.771	0.0145275
725.849	0.0145412
725.927	0.0146225
726.005	0.0145695
726.083	0.0143560
726.161	0.0143443
726.239	0.0144209
726.318	0.0143105
726.396	0.0141927
726.474	0.0143038
726.552	0.0143768
726.630	0.0142884
726.708	0.0143163
726.786	0.0143814
726.864	0.0142217
726.943	0.0140690
727.021	0.0139943
727.099	0.0141537
727.177	0.0139879
727.255	0.0138203
727.333	0.0136942
727.411	0.0135212
727.489	0.0135960
727.568	0.0134000
727.646	0.0135104
727.724	0.0132458
727.802	0.0131790
727.880	0.0130284
727.958	0.0128828
728.036	0.0129688
728.114	0.0128493
728.193	0.0126788
728.271	0.0126617
728.349	0.0125002
728.427	0.0125431
728.505	0.0125870
728.583	0.0124747
728.661	0.0125987
728.739	0.0125089
728.818	0.0125205
728.896	0.0125233
728.974	0.0126259
729.052	0.0126591
729.130	0.0126003
729.208	0.0126197
729.286	0.0126781
729.364	0.0127478
729.443	0.0128554
729.521	0.0130553
729.599	0.0131252
729.677	0.0131902
729.755	0.0133649
729.833	0.0136005
729.911	0.0135882
729.989	0.0138466
730.068	0.0138848
730.146	0.0140953
730.224	0.0143026
730.302	0.0144023
730.380	0.0145589
730.458	0.0146025
730.536	0.0145787
730.614	0.0145720
730.693	0.0146451
730.771	0.0145746
730.849	0.0146745
730.927	0.0144958
731.005	0.0145199
731.083	0.0143942
731.161	0.0143496
731.239	0.0142302
731.318	0.0140767
731.396	0.0138428
731.474	0.0137006
731.552	0.0136486
731.630	0.0135912
731.708	0.0133084
731.786	0.0133286
731.864	0.0133566
731.943	0.0133630
732.021	0.0133821
732.099	0.0132401
732.177	0.0133601
732.255	0.0135419
732.333	0.0133497
732.411	0.0134677
732.489	0.0137396
732.568	0.0135360
732.646	0.0135737
732.724	0.0136692
732.802	0.0137206
732.880	0.0137939
732.958	0.0136777
733.036	0.0137922
733.114	0.0136859
733.193	0.0135564
733.271	0.0136646
733.349	0.0137397
733.427	0.0135912
733.505	0.0134879
733.583	0.0133370
733.661	0.0133975
733.739	0.0132751
733.818	0.0132219
733.896	0.0131805
733.974	0.0130872
734.052	0.0129636
734.130	0.0128378
734.208	0.0127619
734.286	0.0129237
734.364	0.0128059
734.443	0.0129652
734.521	0.0128962
734.599	0.0127355
734.677	0.0128581
734.755	0.0129547
734.833	0.0128815
734.911	0.0130795
734.989	0.0132915
735.068	0.0131763
735.146	0.0133427
735.224	0.0134012
735.302	0.0134959
735.380	0.0135077
735.458	0.0136871
735.536	0.0138512
735.614	0.0139120
735.693	0.0138970
735.771	0.0138354
735.849	0.0139999
735.927	0.0139510
736.005	0.0139405
736.083	0.0140123
736.161	0.0139785
736.239	0.0138625
736.318	0.0139216
736.396	0.0138971
736.474	0.0139513
736.552	0.0138894
736.630	0.0135975
736.708	0.0136026
736.786	0.0136067
736.864	0.0134895
736.943	0.0136480
737.021	0.0135598
737.099	0.0133859
737.177	0.0133266
737.255	0.0134357
737.333	0.0134762
737.411	0.0133385
737.489	0.0133014
737.568	0.0133105
737.646	0.0134435
737.724	0.0134208
737.802	0.0134069
737.880	0.0134386
737.958	0.0134244
738.036	0.0136047
738.114	0.0135248
738.193	0.0134893
738.271	0.0136165
738.349	0.0136636
738.427	0.0137569
738.505	0.0137779
738.583	0.0138239
738.661	0.0139249
738.739	0.0138549
738.818	0.0140008
738.896	0.0139326
738.974	0.0140144
739.052	0.0139629
739.130	0.0137090
739.208	0.0138626
739.286	0.0137122
739.364	0.0136964
739.443	0.0137659
739.521	0.0135971
739.599	0.0136144
739.677	0.0135189
739.755	0.0133414
739.833	0.0135163
739.911	0.0132446
739.989	0.0133315
740.068	0.0132760
740.146	0.0133252
740.224	0.0132140
740.302	0.0131937
740.380	0.0131287
740.458	0.0130514
740.536	0.0132439
740.614	0.0133164
740.693	0.0132609
740.771	0.0132235
740.849	0.0133262
740.927	0.0133876
741.005	0.0132648
741.083	0.0134549
741.161	0.0135174
741.239	0.0135900
741.318	0.0135993
741.396	0.0136765
741.474	0.0135910
741.552	0.0136259
741.630	0.0136253
741.708	0.0136507
741.786	0.0135556
741.864	0.0135455
741.943	0.0134123
742.021	0.0133018
742.099	0.0132889
742.177	0.0132658
742.255	0.0131820
742.333	0.0131726
742.411	0.0131471
742.489	0.0132658
742.568	0.0131926
742.646	0.0131886
742.724	0.0132865
742.802	0.0134037
742.880	0.0134343
742.958	0.0133463
743.036	0.0135205
743.114	0.0136794
743.193	0.0136578
743.271	0.0137141
743.349	0.0136911
743.427	0.0138071
743.505	0.0138634
743.583	0.0137465
743.661	0.0138427
743.739	0.0138426
743.818	0.0138440
743.896	0.0140017
743.974	0.0139469
744.052	0.0137934
744.130	0.0139263
744.208	0.0139310
744.286	0.0139214
744.364	0.0138532
744.443	0.0139229
744.521	0.0137903
744.599	0.0139183
744.677	0.0140128
744.755	0.0138874
744.833	0.0137575
744.911	0.0138750
744.989	0.0139641
745.068	0.0137434
745.146	0.0138575
745.224	0.0139455
745.302	0.0138627
745.380	0.0137986
745.458	0.0139312
745.536	0.0137822
745.614	0.0136557
745.693	0.0135762
745.771	0.0135547
745.849	0.0134592
745.927	0.0133559
746.005	0.0132998
746.083	0.0130550
746.161	0.0131689
746.239	0.0130340
746.318	0.0130167
746.396	0.0129681
746.474	0.0130660
746.552	0.0129504
746.630	0.0129736
746.708	0.0129521
746.786	0.0129391
746.864	0.0130000
746.943	0.0131464
747.021	0.0131636
747.099	0.0132776
747.177	0.0134048
747.255	0.0134888
747.333	0.0134777
747.411	0.0134887
747.489	0.0135426
747.568	0.0137029
747.646	0.0134615
747.724	0.0135725
747.802	0.0136189
747.880	0.0133692
747.958	0.0136101
748.036	0.0136655
748.114	0.0136512
748.193	0.0135205
748.271	0.0135256
748.349	0.0135367
748.427	0.0135155
748.505	0.0135802
748.583	0.0135634
748.661	0.0136208
748.739	0.0136441
748.818	0.0136476
748.896	0.0137226
748.974	0.0137123
749.052	0.0138822
749.130	0.0138628
749.208	0.0139826
749.286	0.0140102
749.364	0.0142117
749.443	0.0140800
749.521	0.0141199
749.599	0.0141862
749.677	0.0143066
749.755	0.0141965
749.833	0.0141472
749.911	0.0142136
749.989	0.0141747
750.068	0.0143027
750.146	0.0141929
750.224	0.0142154
750.302	0.0140408
750.380	0.0139581
750.458	0.0139014
750.536	0.0138505
750.614	0.0138915
750.693	0.0138503
750.771	0.0137273
750.849	0.0137040
750.927	0.0135812
751.005	0.0137109
751.083	0.0133998
751.161	0.0134647
751.239	0.0134062
751.318	0.0132510
751.396	0.0131232
751.474	0.0133006
751.552	0.0132729
751.630	0.0131322
751.708	0.0132610
751.786	0.0131458
751.864	0.0130636
751.943	0.0131669
752.021	0.0131921
752.099	0.0131794
752.177	0.0130917
752.255	0.0132382
752.333	0.0133487
752.411	0.0131467
752.489	0.0133379
752.568	0.0132953
752.646	0.0133204
752.724	0.0134516
752.802	0.0135040
752.880	0.0132538
752.958	0.0132877
753.036	0.0133116
753.114	0.0132732
753.193	0.0131529
753.271	0.0131714
753.349	0.0131945
753.427	0.0131161
753.505	0.0131337
753.583	0.0132862
753.661	0.0131033
753.739	0.0129703
753.818	0.0131172
753.896	0.0131011
753.974	0.0133867
754.052	0.0133486
754.130	0.0134393
754.208	0.0135595
754.286	0.0135245
754.364	0.0136189
754.443	0.0137260
754.521	0.0138098
754.599	0.0138321
754.677	0.0137700
754.755	0.0139328
754.833	0.0140762
754.911	0.0139326
754.989	0.0138720
755.068	0.0137972
755.146	0.0139576
755.224	0.0139169
755.302	0.0139787
755.380	0.0138049
755.458	0.0138430
755.536	0.0137990
755.614	0.0137662
755.693	0.0137074
755.771	0.0137083
755.849	0.0137721
755.927	0.0135892
756.005	0.0134011
756.083	0.0133843
756.161	0.0132552
756.239	0.0132639
756.318	0.0132858
756.396	0.0132167
756.474	0.0132800
756.552	0.0132253
756.630	0.0130757
756.708	0.0131940
756.786	0.0132301
756.864	0.0131157
756.943	0.0131572
757.021	0.0130412
757.099	0.0131282
757.177	0.0131354
757.255	0.0130909
757.333	0.0130141
757.411	0.0131038
757.489	0.0131069
757.568	0.0131416
757.646	0.0132430
757.724	0.0133101
757.802	0.0134818
757.880	0.0133027
757.958	0.0135732
758.036	0.0135493
758.114	0.0135774
758.193	0.0136656
758.271	0.0135609
758.349	0.0136414
758.427	0.0138412
758.505	0.0138541
758.583	0.0136969
758.661	0.0136709
758.739	0.0136948
758.818	0.0137896
758.896	0.0137940
758.974	0.0138227
759.052	0.0137556
759.130	0.0136254
759.208	0.0136925
759.286	0.0134779
759.364	0.0133644
759.443	0.0134937
759.521	0.0134048
759.599	0.0133141
759.677	0.0131539
759.755	0.0130336
759.833	0.0130431
759.911	0.0131025
759.989	0.0131130
760.068	0.0129391
760.146	0.0128664
760.224	0.0130550
760.302	0.0129179
760.380	0.0129075
760.458	0.0129152
760.536	0.0129940
760.614	0.0131244
760.693	0.0131870
760.771	0.0131107
760.849	0.0130766
760.927	0.0131597
761.005	0.0132465
761.083	0.0133353
761.161	0.0133127
761.239	0.0132490
761.318	0.0132971
761.396	0.0133177
761.474	0.0136941
761.552	0.0135418
761.630	0.0134379
761.708	0.0136964
761.786	0.0137733
761.864	0.0137677
761.943	0.0137946
762.021	0.0139777
762.099	0.0139044
762.177	0.0138773
762.255	0.0139895
762.333	0.0140157
762.411	0.0140314
762.489	0.0140363
762.568	0.0141203
762.646	0.0139248
762.724	0.0141806
762.802	0.0141592
762.880	0.0140983
762.958	0.0142709
763.036	0.0141851
763.114	0.0141264
763.193	0.0140059
763.271	0.0139317
763.349	0.0138182
763.427	0.0137859
763.505	0.0137309
763.583	0.0136839
763.661	0.0134570
763.739	0.0133604
763.818	0.0135368
763.896	0.0133165
763.974	0.0132137
764.052	0.0133456
764.130	0.0131755
764.208	0.0133591
764.286	0.0131638
764.364	0.0130417
764.443	0.0130823
764.521	0.0131741
764.599	0.0132446
764.677	0.0131094
764.755	0.0131728
764.833	0.0131120
764.911	0.0132221
764.989	0.0132831
765.068	0.0132050
765.146	0.0132287
765.224	0.0133286
765.302	0.0133808
765.380	0.0132156
765.458	0.0132690
765.536	0.0133318
765.614	0.0134546
765.693	0.0134293
765.771	0.0132745
765.849	0.0134856
765.927	0.0133945
766.005	0.0135279
766.083	0.0135105
766.161	0.0134992
766.239	0.0135715
766.318	0.0134881
766.396	0.0136578
766.474	0.0137840
766.552	0.0136501
766.630	0.0136074
766.708	0.0136816
766.786	0.0137680
766.864	0.0137669
766.943	0.0137148
767.021	0.0139115
767.099	0.0138033
767.177	0.0137664
767.255	0.0137428
767.333	0.0137720
767.411	0.0136676
767.489	0.0137926
767.568	0.0137633
767.646	0.0137045
767.724	0.0137123
767.802	0.0136913
767.880	0.0137136
767.958	0.0136333
768.036	0.0135389
768.114	0.0137126
768.193	0.0136445
768.271	0.0135457
768.349	0.0136839
768.427	0.0136488
768.505	0.0137376
768.583	0.0138222
768.661	0.0136150
768.739	0.0135579
768.818	0.0134711
768.896	0.0135017
768.974	0.0134721
769.052	0.0136360
769.130	0.0134389
769.208	0.0133865
769.286	0.0134998
769.364	0.0134471
769.443	0.0133670
769.521	0.0133583
769.599	0.0132753
769.677	0.0132359
769.755	0.0132661
769.833	0.0131950
769.911	0.0132853
769.989	0.0131291
770.068	0.0129865
770.146	0.0131173
770.224	0.0130306
770.302	0.0131164
770.380	0.0131384
770.458	0.0130775
770.536	0.0131881
770.614	0.0131602
770.693	0.0132595
770.771	0.0134830
770.849	0.0135107
770.927	0.0135277
771.005	0.0136332
771.083	0.0136250
771.161	0.0137318
771.239	0.0137975
771.318	0.0138385
771.396	0.0138221
771.474	0.0138555
771.552	0.0139772
771.630	0.0139154
771.708	0.0139056
771.786	0.0140363
771.864	0.0139819
771.943	0.0138825
772.021	0.0138857
772.099	0.0139307
772.177	0.0138252
772.255	0.0136633
772.333	0.0136755
772.411	0.0139606
772.489	0.0138162
772.568	0.0136921
772.646	0.0136966
772.724	0.0135924
772.802	0.0135273
772.880	0.0135664
772.958	0.0134498
773.036	0.0135566
773.114	0.0134837
773.193	0.0132507
773.271	0.0134426
773.349	0.0133669
773.427	0.0133112
773.505	0.0131367
773.583	0.0130080
773.661	0.0129691
773.739	0.0129344
773.818	0.0129942
773.896	0.0130097
773.974	0.0129291
774.052	0.0128051
774.130	0.0128320
774.208	0.0129036
774.286	0.0127051
774.364	0.0128237
774.443	0.0128542
774.521	0.0129491
774.599	0.0130273
774.677	0.0130382
774.755	0.0129777
774.833	0.0131672
774.911	0.0132278
774.989	0.0132349
775.068	0.0135468
775.146	0.0135448
775.224	0.0136419
775.302	0.0136884
775.380	0.0137056
775.458	0.0137479
775.536	0.0138538
775.614	0.0138998
775.693	0.0139986
775.771	0.0140314
775.849	0.0140537
775.927	0.0138400
776.005	0.0140587
776.083	0.0141418
776.161	0.0140658
776.239	0.0140972
776.318	0.0140955
776.396	0.0140938
776.474	0.0140997
776.552	0.0139206
776.630	0.0138431
776.708	0.0139600
776.786	0.0140005
776.864	0.0137308
776.943	0.0137637
777.021	0.0137606
777.099	0.0135426
777.177	0.0135757
777.255	0.0136214
777.333	0.0134739
777.411	0.0133699
777.489	0.0134496
777.568	0.0132856
777.646	0.0132794
777.724	0.0132114
777.802	0.0128342
777.880	0.0128959
777.958	0.0129871
778.036	0.0127927
778.114	0.0128199
778.193	0.0126519
778.271	0.0127004
778.349	0.0125543
778.427	0.0125914
778.505	0.0126176
778.583	0.0126287
778.661	0.0126978
778.739	0.0126770
778.818	0.0127676
778.896	0.0127903
778.974	0.0128475
779.052	0.0130114
779.130	0.0130800
779.208	0.0132562
779.286	0.0132425
779.364	0.0133730
779.443	0.0135042
779.521	0.0135805
779.599	0.0136657
779.677	0.0137493
779.755	0.0137376
779.833	0.0140328
779.911	0.0140443
779.989	0.0141278
780.068	0.0140152
780.146	0.0140040
780.224	0.0140904
780.302	0.0141470
780.380	0.0140557
780.458	0.0139414
780.536	0.0140330
780.614	0.0140912
780.693	0.0138956
780.771	0.0138380
780.849	0.0136887
780.927	0.0136375
781.005	0.0135583
781.083	0.0133680
781.161	0.0135815
781.239	0.0134770
781.318	0.0134753
781.396	0.0133121
781.474	0.0132835
781.552	0.0132941
781.630	0.0132970
781.708	0.0132032
781.786	0.0131615
781.864	0.0131815
781.943	0.0131319
782.021	0.0130509
782.099	0.0129668
782.177	0.0129610
782.255	0.0129917
782.333	0.0129274
782.411	0.0128164
782.489	0.0129040
782.568	0.0129164
782.646	0.0130272
782.724	0.0129681
782.802	0.0130837
782.880	0.0129325
782.958	0.0129630
783.036	0.0130585
783.114	0.0131464
783.193	0.0132582
783.271	0.0132352
783.349	0.0131778
783.427	0.0133457
783.505	0.0134379
783.583	0.0135310
783.661	0.0135384
783.739	0.0134397
783.818	0.0135515
783.896	0.0136726
783.974	0.0136033
784.052	0.0136742
784.130	0.0139315
784.208	0.0137593
784.286	0.0139706
784.364	0.0140213
784.443	0.0138460
784.521	0.0140089
784.599	0.0141302
784.677	0.0140581
784.755	0.0140795
784.833	0.0141749
784.911	0.0142287
784.989	0.0139030
785.068	0.0142004
785.146	0.0142027
785.224	0.0140823
785.302	0.0139841
785.380	0.0138991
785.458	0.0137835
785.536	0.0138267
785.614	0.0137685
785.693	0.0136425
785.771	0.0136390
785.849	0.0134777
785.927	0.0135330
786.005	0.0134789
786.083	0.0132861
786.161	0.0133286
786.239	0.0131964
786.318	0.0133247
786.396	0.0131125
786.474	0.0131538
786.552	0.0131114
786.630	0.0130901
786.708	0.0130712
786.786	0.0128493
786.864	0.0130206
786.943	0.0131221
787.021	0.0128629
787.099	0.0128156
787.177	0.0129794
787.255	0.0128946
787.333	0.0129369
787.411	0.0130371
787.489	0.0130027
787.568	0.0132159
787.646	0.0131373
787.724	0.0130626
787.802	0.0131776
787.880	0.0132264
787.958	0.0134425
788.036	0.0134410
788.114	0.0134715
788.193	0.0134417
788.271	0.0136125
788.349	0.0136031
788.427	0.0137188
788.505	0.0139043
788.583	0.0138840
788.661	0.0138848
788.739	0.0138965
788.818	0.0140054
788.896	0.0140584
788.974	0.0141167
789.052	0.0141082
789.130	0.0141940
789.208	0.0141854
789.286	0.0141161
789.364	0.0142614
789.443	0.0141361
789.521	0.0143107
789.599	0.0142770
789.677	0.0141073
789.755	0.0141272
789.833	0.0140118
789.911	0.0141516
789.989	0.0140461
790.068	0.0139056
790.146	0.0138919
790.224	0.0138209
790.302	0.0138261
790.380	0.0136239
790.458	0.0136469
790.536	0.0135516
790.614	0.0134595
790.693	0.0133464
790.771	0.0133913
790.849	0.0132727
790.927	0.0131760
791.005	0.0131477
791.083	0.0132844
791.161	0.0130429
791.239	0.0129423
791.318	0.0129183
791.396	0.0128959
791.474	0.0129861
791.552	0.0129815
791.630	0.0129977
791.708	0.0127956
791.786	0.0129208
791.864	0.0128925
791.943	0.0128024
792.021	0.0127966
792.099	0.0129097
792.177	0.0129353
792.255	0.0129871
792.333	0.0130589
792.411	0.0130535
792.489	0.0130524
792.568	0.0130940
792.646	0.0130904
792.724	0.0132526
792.802	0.0132707
792.880	0.0132248
792.958	0.0133201
793.036	0.0134426
793.114	0.0134460
793.193	0.0136657
793.271	0.0135423
793.349	0.0137701
793.427	0.0136877
793.505	0.0137825
793.583	0.0139301
793.661	0.0139085
793.739	0.0139165
793.818	0.0140450
793.896	0.0139719
793.974	0.0139522
794.052	0.0140831
794.130	0.0140359
794.208	0.0139577
794.286	0.0140685
794.364	0.0139072
794.443	0.0139065
794.521	0.0139670
794.599	0.0139434
794.677	0.0139650
794.755	0.0137971
794.833	0.0138793
794.911	0.0139045
794.989	0.0136897
795.068	0.0136730
795.146	0.0136068
795.224	0.0136573
795.302	0.0136084
795.380	0.0136383
795.458	0.0135871
795.536	0.0135912
795.614	0.0136348
795.693	0.0136549
795.771	0.0136229
795.849	0.0135174
795.927	0.0136370
796.005	0.0134956
796.083	0.0133302
796.161	0.0136034
796.239	0.0135813
796.318	0.0134160
796.396	0.0134664
796.474	0.0134251
796.552	0.0135064
796.630	0.0134290
796.708	0.0135110
796.786	0.0133517
796.864	0.0134382
796.943	0.0134322
797.021	0.0134058
797.099	0.0133514
797.177	0.0133037
797.255	0.0133929
797.333	0.0133051
797.411	0.0133432
797.489	0.0133418
797.568	0.0132447
797.646	0.0132463
797.724	0.0134306
797.802	0.0133305
797.880	0.0134052
797.958	0.0134322
798.036	0.0132647
798.114	0.0132885
798.193	0.0132990
798.271	0.0134609
798.349	0.0132890
798.427	0.0135043
798.505	0.0133775
798.583	0.0132737
798.661	0.0134037
798.739	0.0133891
798.818	0.0134116
798.896	0.0135970
798.974	0.0134827
799.052	0.0134674
799.130	0.0137173
799.208	0.0136642
799.286	0.0136088
799.364	0.0135229
799.443	0.0135973
799.521	0.0135564
799.599	0.0136304
799.677	0.0136495
799.755	0.0136316
799.833	0.0136944
799.911	0.0135589
799.989	0.0136736
800.068	0.0137088
800.146	0.0137991
800.224	0.0138831
800.302	0.0137413
800.380	0.0138464
800.458	0.0137157
800.536	0.0137512
800.614	0.0136866
800.693	0.0138010
800.771	0.0139430
800.849	0.0139081
800.927	0.0137811
801.005	0.0137611
801.083	0.0138806
801.161	0.0137443
801.239	0.0138589
801.318	0.0138446
801.396	0.0137463
801.474	0.0137617
801.552	0.0138949
801.630	0.0139235
801.708	0.0138509
801.786	0.0137348
801.864	0.0137245
801.943	0.0138018
802.021	0.0136133
802.099	0.0136494
802.177	0.0135973
802.255	0.0137045
802.333	0.0137605
802.411	0.0137010
802.489	0.0135396
802.568	0.0135462
802.646	0.0135728
802.724	0.0134432
802.802	0.0134080
802.880	0.0133235
802.958	0.0132775
803.036	0.0131252
803.114	0.0132718
803.193	0.0132612
803.271	0.0131752
803.349	0.0131515
803.427	0.0130899
803.505	0.0130654
803.583	0.0128829
803.661	0.0129376
803.739	0.0130219
803.818	0.0129743
803.896	0.0129003
803.974	0.0130876
804.052	0.0130163
804.130	0.0130683
804.208	0.0130693
804.286	0.0132166
804.364	0.0132590
804.443	0.0132749
804.521	0.0134644
804.599	0.0136153
804.677	0.0135100
804.755	0.0136615
804.833	0.0138443
804.911	0.0138685
804.989	0.0139577
805.068	0.0138713
805.146	0.0140842
805.224	0.0140673
805.302	0.0141236
805.380	0.0141296
805.458	0.0141069
805.536	0.0142603
805.614	0.0140940
805.693	0.0141722
805.771	0.0141207
805.849	0.0139931
805.927	0.0140931
806.005	0.0140794
806.083	0.0139450
806.161	0.0138592
806.239	0.0138910
806.318	0.0136916
806.396	0.0136700
806.474	0.0136603
806.552	0.0137717
806.630	0.0136705
806.708	0.0137003
806.786	0.0135841
806.864	0.0136472
806.943	0.0135021
807.021	0.0135160
807.099	0.0136794
807.177	0.0136442
807.255	0.0135664
807.333	0.0136670
807.411	0.0136509
807.489	0.0135703
807.568	0.0135120
807.646	0.0135353
807.724	0.0134296
807.802	0.0134813
807.880	0.0133821
807.958	0.0134613
808.036	0.0132381
808.114	0.0132441
808.193	0.0131258
808.271	0.0131773
808.349	0.0130449
808.427	0.0131059
808.505	0.0130694
808.583	0.0130535
808.661	0.0130309
808.739	0.0127999
808.818	0.0129953
808.896	0.0129817
808.974	0.0128661
809.052	0.0127911
809.130	0.0128857
809.208	0.0128050
809.286	0.0129410
809.364	0.0128053
809.443	0.0129261
809.521	0.0131450
809.599	0.0130604
809.677	0.0129793
809.755	0.0129585
809.833	0.0130907
809.911	0.0132504
809.989	0.0133246
810.068	0.0132291
810.146	0.0132948
810.224	0.0133878
810.302	0.0134030
810.380	0.0135783
810.458	0.0135371
810.536	0.0137093
810.614	0.0138413
810.693	0.0136508
810.771	0.0138662
810.849	0.0136880
810.927	0.0138418
811.005	0.0138954
811.083	0.0139774
811.161	0.0138368
811.239	0.0140306
811.318	0.0140649
811.396	0.0140115
811.474	0.0138992
811.552	0.0140243
811.630	0.0139959
811.708	0.0139435
811.786	0.0138886
811.864	0.0140552
811.943	0.0140608
812.021	0.0139017
812.099	0.0139142
812.177	0.0139072
812.255	0.0138216
812.333	0.0138472
812.411	0.0138318
812.489	0.0136559
812.568	0.0135350
812.646	0.0136188
812.724	0.0134866
812.802	0.0134105
812.880	0.0133591
812.958	0.0132778
813.036	0.0133958
813.114	0.0130848
813.193	0.0131064
813.271	0.0130932
813.349	0.0130085
813.427	0.0128876
813.505	0.0129202
813.583	0.0130975
813.661	0.0130359
813.739	0.0128806
813.818	0.0127031
813.896	0.0129627
813.974	0.0129086
814.052	0.0129552
814.130	0.0129710
814.208	0.0130704
814.286	0.0131559
814.364	0.0132304
814.443	0.0131213
814.521	0.0131476
814.599	0.0131390
814.677	0.0133191
814.755	0.0134070
814.833	0.0133697
814.911	0.0135688
814.989	0.0133894
815.068	0.0134514
815.146	0.0136493
815.224	0.0136666
815.302	0.0137690
815.380	0.0137609
815.458	0.0138447
815.536	0.0139456
815.614	0.0138428
815.693	0.0136962
815.771	0.0139468
815.849	0.0137808
815.927	0.0138635
816.005	0.0138754
816.083	0.0138187
816.161	0.0138114
816.239	0.0138319
816.318	0.0139986
816.396	0.0138936
816.474	0.0139563
816.552	0.0137282
816.630	0.0137656
816.708	0.0137175
816.786	0.0138451
816.864	0.0138499
816.943	0.0137168
817.021	0.0138264
817.099	0.0137738
817.177	0.0137135
817.255	0.0136646
817.333	0.0139000
817.411	0.0137003
817.489	0.0136818
817.568	0.0134929
817.646	0.0136772
817.724	0.0136021
817.802	0.0134725
817.880	0.0135961
817.958	0.0135754
818.036	0.0136323
818.114	0.0137304
818.193	0.0135723
818.271	0.0135980
818.349	0.0134023
818.427	0.0134025
818.505	0.0135225
818.583	0.0134224
818.661	0.0134613
818.739	0.0133018
818.818	0.0133459
818.896	0.0133718
818.974	0.0131940
819.052	0.0132533
819.130	0.0132619
819.208	0.0132252
819.286	0.0133661
819.364	0.0133545
819.443	0.0131888
819.521	0.0132933
819.599	0.0131554
819.677	0.0133168
819.755	0.0133472
819.833	0.0133510
819.911	0.0132133
819.989	0.0134776
820.068	0.0133344
820.146	0.0134805
820.224	0.0134549
820.302	0.0133537
820.380	0.0135314
820.458	0.0135545
820.536	0.0134476
820.614	0.0135196
820.693	0.0136118
820.771	0.0136172
820.849	0.0137301
820.927	0.0136713
821.005	0.0138168
821.083	0.0138067
821.161	0.0138122
821.239	0.0138300
821.318	0.0138602
821.396	0.0139201
821.474	0.0139466
821.552	0.0138591
821.630	0.0138380
821.708	0.0139931
821.786	0.0138267
821.864	0.0139494
821.943	0.0138325
822.021	0.0137620
822.099	0.0138976
822.177	0.0138687
822.255	0.0137215
822.333	0.0137723
822.411	0.0136951
822.489	0.0135594
822.568	0.0138119
822.646	0.0137358
822.724	0.0137527
822.802	0.0137954
822.880	0.0136769
822.958	0.0136004
823.036	0.0135944
823.114	0.0134458
823.193	0.0135112
823.271	0.0134500
823.349	0.0134395
823.427	0.0134399
823.505	0.0135574
823.583	0.0134429
823.661	0.0134901
823.739	0.0135442
823.818	0.0134031
823.896	0.0133665
823.974	0.0135215
824.052	0.0134855
824.130	0.0135321
824.208	0.0135858
824.286	0.0135722
824.364	0.0135880
824.443	0.0135915
824.521	0.0134645
824.599	0.0136028
824.677	0.0135623
824.755	0.0134542
824.833	0.0135489
824.911	0.0133519
824.989	0.0134105
825.068	0.0136121
825.146	0.0136288
825.224	0.0136393
825.302	0.0136211
825.380	0.0134647
825.458	0.0136397
825.536	0.0134928
825.614	0.0136366
825.693	0.0137001
825.771	0.0137070
825.849	0.0136529
825.927	0.0136077
826.005	0.0137341
826.083	0.0138189
826.161	0.0137003
826.239	0.0136269
826.318	0.0137897
826.396	0.0136757
826.474	0.0137855
826.552	0.0137518
826.630	0.0137022
826.708	0.0137318
826.786	0.0136568
826.864	0.0137443
826.943	0.0136840
827.021	0.0137187
827.099	0.0134756
827.177	0.0135057
827.255	0.0136563
827.333	0.0136456
827.411	0.0135329
827.489	0.0135548
827.568	0.0136667
827.646	0.0134299
827.724	0.0135664
827.802	0.0135585
827.880	0.0136194
827.958	0.0136001
828.036	0.0134454
828.114	0.0136414
828.193	0.0134249
828.271	0.0134882
828.349	0.0136433
828.427	0.0136247
828.505	0.0135625
828.583	0.0135847
828.661	0.0135517
828.739	0.0135930
828.818	0.0134862
828.896	0.0137845
828.974	0.0137151
829.052	0.0137122
829.130	0.0137302
829.208	0.0136578
829.286	0.0138788
829.364	0.0138158
829.443	0.0138764
829.521	0.0138468
829.599	0.0139110
829.677	0.0139267
829.755	0.0139583
829.833	0.0140755
829.911	0.0137959
829.989	0.0139891
830.068	0.0139884
830.146	0.0138342
830.224	0.0137808
830.302	0.0137832
830.380	0.0136276
830.458	0.0137276
830.536	0.0135603
830.614	0.0134413
830.693	0.0134864
830.771	0.0134206
830.849	0.0135052
830.927	0.0132481
831.005	0.0133808
831.083	0.0133584
831.161	0.0132529
831.239	0.0133231
831.318	0.0135057
831.396	0.0132582
831.474	0.0131818
831.552	0.0133022
831.630	0.0132977
831.708	0.0135086
831.786	0.0136115
831.864	0.0135594
831.943	0.0135172
832.021	0.0136040
832.099	0.0137799
832.177	0.0137013
832.255	0.0136615
832.333	0.0136457
832.411	0.0136174
832.489	0.0137422
832.568	0.0135783
832.646	0.0135704
832.724	0.0135928
832.802	0.0136143
832.880	0.0136615
832.958	0.0136736
833.036	0.0137463
833.114	0.0136626
833.193	0.0135178
833.271	0.0134879
833.349	0.0134779
833.427	0.0134740
833.505	0.0134389
833.583	0.0133829
833.661	0.0134046
833.739	0.0134332
833.818	0.0133687
833.896	0.0131416
833.974	0.0132152
834.052	0.0132999
834.130	0.0131724
834.208	0.0132732
834.286	0.0130196
834.364	0.0131097
834.443	0.0132010
834.521	0.0130883
834.599	0.0132526
834.677	0.0132787
834.755	0.0131818
834.833	0.0131290
834.911	0.0130988
834.989	0.0133472
835.068	0.0132586
835.146	0.0134764
835.224	0.0134382
835.302	0.0132551
835.380	0.0132919
835.458	0.0133596
835.536	0.0133871
835.614	0.0134670
835.693	0.0133583
835.771	0.0134029
835.849	0.0135847
835.927	0.0136124
836.005	0.0135329
836.083	0.0134977
836.161	0.0134200
836.239	0.0134380
836.318	0.0134544
836.396	0.0133010
836.474	0.0133807
836.552	0.0133697
836.630	0.0133977
836.708	0.0133925
836.786	0.0133179
836.864	0.0133274
836.943	0.0131985
837.021	0.0133936
837.099	0.0134544
837.177	0.0134917
837.255	0.0136377
837.333	0.0135186
837.411	0.0135753
837.489	0.0135237
837.568	0.0134926
837.646	0.0136264
837.724	0.0136685
837.802	0.0136103
837.880	0.0136971
837.958	0.0135561
838.036	0.0136981
838.114	0.0135745
838.193	0.0135777
838.271	0.0135532
838.349	0.0137005
838.427	0.0135133
838.505	0.0135714
838.583	0.0136113
838.661	0.0135622
838.739	0.0134758
838.818	0.0134196
838.896	0.0133954
838.974	0.0132477
839.052	0.0132952
839.130	0.0131917
839.208	0.0131205
839.286	0.0132532
839.364	0.0132300
839.443	0.0133201
839.521	0.0133575
839.599	0.0132191
839.677	0.0131856
839.755	0.0132946
839.833	0.0133720
839.911	0.0133060
839.989	0.0134027
840.068	0.0134686
840.146	0.0135732
840.224	0.0135812
840.302	0.0135032
840.380	0.0135786
840.458	0.0136105
840.536	0.0136935
840.614	0.0137229
840.693	0.0136839
840.771	0.0136881
840.849	0.0136751
840.927	0.0137695
841.005	0.0136026
841.083	0.0136742
841.161	0.0137508
841.239	0.0138327
841.318	0.0135474
841.396	0.0136591
841.474	0.0134883
841.552	0.0135085
841.630	0.0136037
841.708	0.0134837
841.786	0.0135292
841.864	0.0135201
841.943	0.0135034
842.021	0.0134134
842.099	0.0135342
842.177	0.0136919
842.255	0.0135311
842.333	0.0136052
842.411	0.0134932
842.489	0.0136583
842.568	0.0136111
842.646	0.0135164
842.724	0.0134573
842.802	0.0135300
842.880	0.0136162
842.958	0.0135842
843.036	0.0136050
843.114	0.0135577
843.193	0.0135072
843.271	0.0135651
843.349	0.0135985
843.427	0.0135027
843.505	0.0135761
843.583	0.0134891
843.661	0.0133300
843.739	0.0134152
843.818	0.0134530
843.896	0.0131510
843.974	0.0134467
844.052	0.0134685
844.130	0.0132836
844.208	0.0132590
844.286	0.0132646
844.364	0.0131970
844.443	0.0132605
844.521	0.0133827
844.599	0.0134986
844.677	0.0133380
844.755	0.0134814
844.833	0.0134246
844.911	0.0133894
844.989	0.0134791
845.068	0.0133533
845.146	0.0133292
845.224	0.0134901
845.302	0.0136418
845.380	0.0137888
845.458	0.0135492
845.536	0.0136661
845.614	0.0137405
845.693	0.0137678
845.771	0.0137513
845.849	0.0138322
845.927	0.0137876
846.005	0.0139849
846.083	0.0139333
846.161	0.0138754
846.239	0.0138377
846.318	0.0138880
846.396	0.0138966
846.474	0.0138276
846.552	0.0139210
846.630	0.0136818
846.708	0.0137209
846.786	0.0136789
846.864	0.0136907
846.943	0.0137141
847.021	0.0136177
847.099	0.0136378
847.177	0.0135078
847.255	0.0135569
847.333	0.0137061
847.411	0.0135426
847.489	0.0134900
847.568	0.0135141
847.646	0.0133936
847.724	0.0134930
847.802	0.0134883
847.880	0.0135043
847.958	0.0135923
848.036	0.0136382
848.114	0.0136826
848.193	0.0136730
848.271	0.0136077
848.349	0.0137116
848.427	0.0137402
848.505	0.0137110
848.583	0.0137811
848.661	0.0138605
848.739	0.0136831
848.818	0.0138205
848.896	0.0137698
848.974	0.0137466
849.052	0.0137369
849.130	0.0136636
849.208	0.0137904
849.286	0.0136469
849.364	0.0135511
849.443	0.0136799
849.521	0.0136250
849.599	0.0134605
849.677	0.0134615
849.755	0.0135606
849.833	0.0135683
849.911	0.0133788
849.989	0.0134206
850.068	0.0133971
850.146	0.0133920
850.224	0.0133354
850.302	0.0133839
850.380	0.0134150
850.458	0.0133796
850.536	0.0134544
850.614	0.0132977
850.693	0.0134713
850.771	0.0134949
850.849	0.0134929
850.927	0.0134903
851.005	0.0136010
851.083	0.0137199
851.161	0.0137169
851.239	0.0136546
851.318	0.0136733
851.396	0.0136252
851.474	0.0137403
851.552	0.0137635
851.630	0.0137986
851.708	0.0137925
851.786	0.0137378
851.864	0.0137630
851.943	0.0138271
852.021	0.0136802
852.099	0.0137430
852.177	0.0138139
852.255	0.0136925
852.333	0.0136843
852.411	0.0136084
852.489	0.0137022
852.568	0.0136823
852.646	0.0134869
852.724	0.0134878
852.802	0.0135241
852.880	0.0135812
852.958	0.0133789
853.036	0.0135310
853.114	0.0134475
853.193	0.0135481
853.271	0.0133428
853.349	0.0134693
853.427	0.0135409
853.505	0.0135463
853.583	0.0135426
853.661	0.0136288
853.739	0.0134755
853.818	0.0134965
853.896	0.0135294
853.974	0.0135213
854.052	0.0135275
854.130	0.0134531
854.208	0.0134445
854.286	0.0134921
854.364	0.0134343
854.443	0.0134541
854.521	0.0133614
854.599	0.0134576
854.677	0.0132411
854.755	0.0133703
854.833	0.0133828
854.911	0.0132406
854.989	0.0134668
855.068	0.0133290
855.146	0.0132785
855.224	0.0132716
855.302	0.0132832
855.380	0.0132095
855.458	0.0134399
855.536	0.0133743
855.614	0.0132861
855.693	0.0133803
855.771	0.0132935
855.849	0.0133199
855.927	0.0133701
856.005	0.0134754
856.083	0.0133823
856.161	0.0135297
856.239	0.0134303
856.318	0.0133588
856.396	0.0134480
856.474	0.0135145
856.552	0.0134940
856.630	0.0134678
856.708	0.0134019
856.786	0.0134137
856.864	0.0135333
856.943	0.0135864
857.021	0.0134899
857.099	0.0133782
857.177	0.0135531
857.255	0.0133948
857.333	0.0135066
857.411	0.0135139
857.489	0.0134689
857.568	0.0134028
857.646	0.0134862
857.724	0.0135386
857.802	0.0134463
857.880	0.0134522
857.958	0.0135152
858.036	0.0135587
858.114	0.0134361
858.193	0.0134906
858.271	0.0135056
858.349	0.0134872
858.427	0.0135609
858.505	0.0134564
858.583	0.0134377
858.661	0.0135427
858.739	0.0134920
858.818	0.0135221
858.896	0.0135954
858.974	0.0135912
859.052	0.0135091
859.130	0.0134925
859.208	0.0135726
859.286	0.0136197
859.364	0.0136027
859.443	0.0135649
859.521	0.0135933
859.599	0.0136113
859.677	0.0134589
859.755	0.0134665
859.833	0.0135234
859.911	0.0135328
859.989	0.0135014
860.068	0.0134180
860.146	0.0134007
860.224	0.0134480
860.302	0.0133121
860.380	0.0133406
860.458	0.0133051
860.536	0.0132887
860.614	0.0133747
860.693	0.0133657
860.771	0.0133798
860.849	0.0132458
860.927	0.0132994
861.005	0.0132250
861.083	0.0132809
861.161	0.0132841
861.239	0.0133373
861.318	0.0133990
861.396	0.0134729
861.474	0.0134525
861.552	0.0134364
861.630	0.0134019
861.708	0.0134994
861.786	0.0135410
861.864	0.0135628
861.943	0.0134743
862.021	0.0134239
862.099	0.0136100
862.177	0.0135927
862.255	0.0135520
862.333	0.0135513
862.411	0.0135871
862.489	0.0135242
862.568	0.0135708
862.646	0.0133884
862.724	0.0134934
862.802	0.0135919
862.880	0.0134897
862.958	0.0135016
863.036	0.0134197
863.114	0.0134486
863.193	0.0136859
863.271	0.0136439
863.349	0.0134791
863.427	0.0134913
863.505	0.0135886
863.583	0.0134965
863.661	0.0136430
863.739	0.0136101
863.818	0.0135529
863.896	0.0137840
863.974	0.0137201
864.052	0.0137901
864.130	0.0137297
864.208	0.0138728
864.286	0.0137061
864.364	0.0136337
864.443	0.0136408
864.521	0.0137762
864.599	0.0135309
864.677	0.0135724
864.755	0.0134913
864.833	0.0136317
864.911	0.0135400
864.989	0.0133602
865.068	0.0135433
865.146	0.0134845
865.224	0.0132961
865.302	0.0133672
865.380	0.0134801
865.458	0.0134019
865.536	0.0134018
865.614	0.0133329
865.693	0.0132507
865.771	0.0132447
865.849	0.0132299
865.927	0.0132670
866.005	0.0132182
866.083	0.0131614
866.161	0.0133024
866.239	0.0132634
866.318	0.0133804
866.396	0.0132557
866.474	0.0133401
866.552	0.0132909
866.630	0.0134103
866.708	0.0133667
866.786	0.0135568
866.864	0.0135561
866.943	0.0135967
867.021	0.0136250
867.099	0.0134798
867.177	0.0135189
867.255	0.0136404
867.333	0.0135951
867.411	0.0135642
867.489	0.0136857
867.568	0.0137527
867.646	0.0135131
867.724	0.0136226
867.802	0.0137206
867.880	0.0136852
867.958	0.0136083
868.036	0.0135964
868.114	0.0134291
868.193	0.0135849
868.271	0.0135502
868.349	0.0134875
868.427	0.0134408
868.505	0.0134963
868.583	0.0133755
868.661	0.0134705
868.739	0.0134146
868.818	0.0134830
868.896	0.0134224
868.974	0.0135696
869.052	0.0135047
869.130	0.0133450
869.208	0.0134944
869.286	0.0135286
869.364	0.0134536
869.443	0.0134956
869.521	0.0133624
869.599	0.0134818
869.677	0.0135397
869.755	0.0135637
869.833	0.0135777
869.911	0.0137038
869.989	0.0135107
870.068	0.0135357
870.146	0.0135351
870.224	0.0136223
870.302	0.0135583
870.380	0.0136140
870.458	0.0136192
870.536	0.0138134
870.614	0.0137033
870.693	0.0135294
870.771	0.0134384
870.849	0.0135871
870.927	0.0138358
871.005	0.0136878
871.083	0.0135152
871.161	0.0136877
871.239	0.0136334
871.318	0.0135349
871.396	0.0135547
871.474	0.0136067
871.552	0.0136901
871.630	0.0135183
871.708	0.0135541
871.786	0.0135795
871.864	0.0135369
871.943	0.0136122
872.021	0.0134579
872.099	0.0135252
872.177	0.0136691
872.255	0.0134039
872.333	0.0134053
872.411	0.0134699
872.489	0.0134350
872.568	0.0134154
872.646	0.0133104
872.724	0.0134401
872.802	0.0132483
872.880	0.0130847
872.958	0.0132076
873.036	0.0131219
873.114	0.0131215
873.193	0.0132286
873.271	0.0132655
873.349	0.0131591
873.427	0.0132745
873.505	0.0133423
873.583	0.0134184
873.661	0.0133615
873.739	0.0135108
873.818	0.0134263
873.896	0.0135475
873.974	0.0136248
874.052	0.0137377
874.130	0.0137936
874.208	0.0138105
874.286	0.0137450
874.364	0.0139742
874.443	0.0137990
874.521	0.0138705
874.599	0.0138986
874.677	0.0137416
874.755	0.0139671
874.833	0.0140221
874.911	0.0139686
874.989	0.0138872
875.068	0.0138983
875.146	0.0138823
875.224	0.0138143
875.302	0.0138950
875.380	0.0138113
875.458	0.0137654
875.536	0.0137811
875.614	0.0137479
875.693	0.0137774
875.771	0.0136341
875.849	0.0136964
875.927	0.0135754
876.005	0.0135040
876.083	0.0135246
876.161	0.0133500
876.239	0.0134450
876.318	0.0133857
876.396	0.0134486
876.474	0.0133904
876.552	0.0133489
876.630	0.0133578
876.708	0.0133438
876.786	0.0133504
876.864	0.0134079
876.943	0.0133414
877.021	0.0133461
877.099	0.0134760
877.177	0.0134608
877.255	0.0134632
877.333	0.0133579
877.411	0.0133510
877.489	0.0134200
877.568	0.0134888
877.646	0.0135161
877.724	0.0134683
877.802	0.0133143
877.880	0.0134147
877.958	0.0135527
878.036	0.0134209
878.114	0.0135792
878.193	0.0135020
878.271	0.0134438
878.349	0.0133488
878.427	0.0134383
878.505	0.0134034
878.583	0.0134366
878.661	0.0135894
878.739	0.0135323
878.818	0.0134255
878.896	0.0135445
878.974	0.0135824
879.052	0.0134411
879.130	0.0135677
879.208	0.0135754
879.286	0.0135628
879.364	0.0135741
879.443	0.0136716
879.521	0.0135293
879.599	0.0136700
879.677	0.0135902
879.755	0.0135262
879.833	0.0136433
879.911	0.0135705
879.989	0.0134940
880.068	0.0134862
880.146	0.0134686
880.224	0.0133418
880.302	0.0134483
880.380	0.0135036
880.458	0.0135486
880.536	0.0134189
880.614	0.0135193
880.693	0.0134836
880.771	0.0134731
880.849	0.0135221
880.927	0.0135379
881.005	0.0136304
881.083	0.0134035
881.161	0.0135853
881.239	0.0136240
881.318	0.0136777
881.396	0.0134697
881.474	0.0134755
881.552	0.0135539
881.630	0.0134886
881.708	0.0136230
881.786	0.0136940
881.864	0.0136205
881.943	0.0136175
882.021	0.0136195
882.099	0.0135563
882.177	0.0137135
882.255	0.0136560
882.333	0.0135671
882.411	0.0137026
882.489	0.0136542
882.568	0.0135129
882.646	0.0137152
882.724	0.0136682
882.802	0.0135522
882.880	0.0137830
882.958	0.0135221
883.036	0.0137055
883.114	0.0135400
883.193	0.0134750
883.271	0.0136198
883.349	0.0135457
883.427	0.0134029
883.505	0.0133854
883.583	0.0135747
883.661	0.0135340
883.739	0.0134509
883.818	0.0135147
883.896	0.0134195
883.974	0.0134922
884.052	0.0134908
884.130	0.0135330
884.208	0.0134888
884.286	0.0134560
884.364	0.0134754
884.443	0.0134598
884.521	0.0135821
884.599	0.0134245
884.677	0.0134293
884.755	0.0135199
884.833	0.0134279
884.911	0.0135715
884.989	0.0134235
885.068	0.0134837
885.146	0.0134800
885.224	0.0135681
885.302	0.0136430
885.380	0.0137085
885.458	0.0135773
885.536	0.0136448
885.614	0.0136505
885.693	0.0136001
885.771	0.0137274
885.849	0.0136218
885.927	0.0135928
886.005	0.0137016
886.083	0.0138131
886.161	0.0138581
886.239	0.0136439
886.318	0.0137556
886.396	0.0138520
886.474	0.0139423
886.552	0.0137218
886.630	0.0138203
886.708	0.0137215
886.786	0.0138577
886.864	0.0137719
886.943	0.0137828
887.021	0.0138635
887.099	0.0137911
887.177	0.0137711
887.255	0.0137436
887.333	0.0136194
887.411	0.0138104
887.489	0.0136278
887.568	0.0135797
887.646	0.0136657
887.724	0.0135138
887.802	0.0134910
887.880	0.0136616
887.958	0.0134715
888.036	0.0135359
888.114	0.0135204
888.193	0.0135056
888.271	0.0134671
888.349	0.0134583
888.427	0.0135163
888.505	0.0135597
888.583	0.0135246
888.661	0.0133264
888.739	0.0135334
888.818	0.0135625
888.896	0.0132832
888.974	0.0134071
889.052	0.0135254
889.130	0.0135703
889.208	0.0136137
889.286	0.0136021
889.364	0.0136452
889.443	0.0134589
889.521	0.0135197
889.599	0.0137055
889.677	0.0134858
889.755	0.0134807
889.833	0.0136335
889.911	0.0137151
889.989	0.0134792
890.068	0.0135196
890.146	0.0137224
890.224	0.0136420
890.302	0.0137002
890.380	0.0136058
890.458	0.0135480
890.536	0.0136699
890.614	0.0137698
890.693	0.0136257
890.771	0.0136671
890.849	0.0136658
890.927	0.0136007
891.005	0.0135517
891.083	0.0135481
891.161	0.0136043
891.239	0.0134897
891.318	0.0136181
891.396	0.0135088
891.474	0.0135400
891.552	0.0135216
891.630	0.0133524
891.708	0.0134271
891.786	0.0132880
891.864	0.0133775
891.943	0.0134207
892.021	0.0134303
892.099	0.0133213
892.177	0.0133250
892.255	0.0133242
892.333	0.0133112
892.411	0.0135196
892.489	0.0134624
892.568	0.0132685
892.646	0.0132421
892.724	0.0133620
892.802	0.0133370
892.880	0.0133801
892.958	0.0132093
893.036	0.0132896
893.114	0.0133649
893.193	0.0134394
893.271	0.0133272
893.349	0.0133833
893.427	0.0133852
893.505	0.0135154
893.583	0.0135065
893.661	0.0134483
893.739	0.0134680
893.818	0.0135586
893.896	0.0136112
893.974	0.0135849
894.052	0.0136115
894.130	0.0136337
894.208	0.0136304
894.286	0.0137105
894.364	0.0137192
894.443	0.0137330
894.521	0.0137309
894.599	0.0137095
894.677	0.0137155
894.755	0.0135418
894.833	0.0137370
894.911	0.0136837
894.989	0.0134599
895.068	0.0134626
895.146	0.0134976
895.224	0.0133941
895.302	0.0133857
895.380	0.0134793
895.458	0.0131785
895.536	0.0132256
895.614	0.0131855
895.693	0.0132192
895.771	0.0131693
895.849	0.0132174
895.927	0.0131562
896.005	0.0130626
896.083	0.0130939
896.161	0.0128939
896.239	0.0131194
896.318	0.0132279
896.396	0.0130408
896.474	0.0131406
896.552	0.0130973
896.630	0.0131808
896.708	0.0132057
896.786	0.0133858
896.864	0.0134498
896.943	0.0133298
897.021	0.0134354
897.099	0.0135178
897.177	0.0135059
897.255	0.0135165
897.333	0.0135423
897.411	0.0135680
897.489	0.0136568
897.568	0.0135361
897.646	0.0137847
897.724	0.0136354
897.802	0.0135988
897.880	0.0135815
897.958	0.0136034
898.036	0.0137238
898.114	0.0136556
898.193	0.0135991
898.271	0.0135674
898.349	0.0135917
898.427	0.0136286
898.505	0.0136146
898.583	0.0135748
898.661	0.0135065
898.739	0.0135250
898.818	0.0134796
898.896	0.0135268
898.974	0.0135625
899.052	0.0135323
899.130	0.0135420
899.208	0.0135554
899.286	0.0135481
899.364	0.0135586
899.443	0.0136572
899.521	0.0136656
899.599	0.0134447
899.677	0.0136115
899.755	0.0135562
899.833	0.0136306
899.911	0.0138154
899.989	0.0138140
900.068	0.0137739
900.146	0.0137347
900.224	0.0138731
900.302	0.0138938
900.380	0.0137529
900.458	0.0137259
900.536	0.0138256
900.614	0.0137814
900.693	0.0139159
900.771	0.0138690
900.849	0.0138814
900.927	0.0137557
901.005	0.0136617
901.083	0.0137439
901.161	0.0136879
901.239	0.0134574
901.318	0.0136061
901.396	0.0135644
901.474	0.0134195
901.552	0.0134150
901.630	0.0135004
901.708	0.0135130
901.786	0.0133889
901.864	0.0133074
901.943	0.0133057
902.021	0.0133804
902.099	0.0133365
902.177	0.0133727
902.255	0.0134322
902.333	0.0135527
902.411	0.0134873
902.489	0.0134770
902.568	0.0134399
902.646	0.0134416
902.724	0.0137140
902.802	0.0134985
902.880	0.0134895
902.958	0.0135212
903.036	0.0135267
903.114	0.0137351
903.193	0.0135885
903.271	0.0136345
903.349	0.0139244
903.427	0.0137698
903.505	0.0137361
903.583	0.0136216
903.661	0.0135286
903.739	0.0135649
903.818	0.0135978
903.896	0.0137976
903.974	0.0137296
904.052	0.0138319
904.130	0.0137301
904.208	0.0136824
904.286	0.0136858
904.364	0.0138400
904.443	0.0137707
904.521	0.0137041
904.599	0.0136913
904.677	0.0137904
904.755	0.0137376
904.833	0.0137326
904.911	0.0137528
904.989	0.0137780
905.068	0.0137386
905.146	0.0138120
905.224	0.0135645
905.302	0.0136284
905.380	0.0136129
905.458	0.0137473
905.536	0.0137825
905.614	0.0137434
905.693	0.0136958
905.771	0.0136467
905.849	0.0135881
905.927	0.0136925
906.005	0.0135303
906.083	0.0135972
906.161	0.0134682
906.239	0.0134494
906.318	0.0135565
906.396	0.0135022
906.474	0.0134344
906.552	0.0133591
906.630	0.0134143
906.708	0.0135136
906.786	0.0134489
906.864	0.0133655
906.943	0.0134818
907.021	0.0135677
907.099	0.0134734
907.177	0.0135415
907.255	0.0134818
907.333	0.0135615
907.411	0.0136970
907.489	0.0136018
907.568	0.0135852
907.646	0.0136138
907.724	0.0139019
907.802	0.0138193
907.880	0.0137468
907.958	0.0136261
908.036	0.0138947
908.114	0.0138154
908.193	0.0138711
908.271	0.0138366
908.349	0.0138760
908.427	0.0139131
908.505	0.0139240
908.583	0.0139123
908.661	0.0139034
908.739	0.0138520
908.818	0.0137450
908.896	0.0138261
908.974	0.0137328
909.052	0.0136951
909.130	0.0136283
909.208	0.0135718
909.286	0.0136666
909.364	0.0134053
909.443	0.0133873
909.521	0.0134612
909.599	0.0134500
909.677	0.0134509
909.755	0.0134696
909.833	0.0135164
909.911	0.0134542
909.989	0.0134374
910.068	0.0135719
910.146	0.0135398
910.224	0.0135890
910.302	0.0134452
910.380	0.0135978
910.458	0.0135639
910.536	0.0134506
910.614	0.0136610
910.693	0.0137362
910.771	0.0136667
910.849	0.0136328
910.927	0.0136252
911.005	0.0135820
911.083	0.0136712
911.161	0.0137013
911.239	0.0137676
911.318	0.0136774
911.396	0.0136913
911.474	0.0134611
911.552	0.0134381
911.630	0.0134882
911.708	0.0134816
911.786	0.0134446
911.864	0.0133362
911.943	0.0131353
912.021	0.0134425
912.099	0.0132480
912.177	0.0131659
912.255	0.0132865
912.333	0.0133683
912.411	0.0132194
912.489	0.0132712
912.568	0.0133656
912.646	0.0135056
912.724	0.0134706
912.802	0.0134874
912.880	0.0134554
912.958	0.0134830
913.036	0.0132339
913.114	0.0134438
913.193	0.0135944
913.271	0.0134378
913.349	0.0135593
913.427	0.0136382
913.505	0.0135408
913.583	0.0134776
913.661	0.0133727
913.739	0.0136612
913.818	0.0135828
913.896	0.0136164
913.974	0.0136040
914.052	0.0136417
914.130	0.0134776
914.208	0.0134769
914.286	0.0136047
914.364	0.0137506
914.443	0.0138148
914.521	0.0135194
914.599	0.0135972
914.677	0.0136711
914.755	0.0136826
914.833	0.0136257
914.911	0.0136529
914.989	0.0135583
915.068	0.0137286
915.146	0.0137878
915.224	0.0137498
915.302	0.0137746
915.380	0.0137600
915.458	0.0136676
915.536	0.0136985
915.614	0.0137689
915.693	0.0135990
915.771	0.0138020
915.849	0.0136467
915.927	0.0137942
916.005	0.0136662
916.083	0.0137292
916.161	0.0136849
916.239	0.0136816
916.318	0.0137847
916.396	0.0136547
916.474	0.0136216
916.552	0.0136956
916.630	0.0136739
916.708	0.0135054
916.786	0.0137855
916.864	0.0136555
916.943	0.0135394
917.021	0.0136304
917.099	0.0136546
917.177	0.0135034
917.255	0.0135439
917.333	0.0135353
917.411	0.0136433
917.489	0.0134022
917.568	0.0133692
917.646	0.0133360
917.724	0.0134853
917.802	0.0135083
917.880	0.0135381
917.958	0.0134299
918.036	0.0134585
918.114	0.0135297
918.193	0.0135397
918.271	0.0134947
918.349	0.0135661
918.427	0.0136192
918.505	0.0136747
918.583	0.0136304
918.661	0.0136301
918.739	0.0136424
918.818	0.0136938
918.896	0.0135690
918.974	0.0135539
919.052	0.0137063
919.130	0.0137010
919.208	0.0135004
919.286	0.0135438
919.364	0.0134809
919.443	0.0134935
919.521	0.0135200
919.599	0.0133955
919.677	0.0134624
919.755	0.0133880
919.833	0.0134097
919.911	0.0134029
919.989	0.0134306
920.068	0.0134947
920.146	0.0134436
920.224	0.0134531
920.302	0.0134427
920.380	0.0134943
920.458	0.0135028
920.536	0.0135079
920.614	0.0134876
920.693	0.0133781
920.771	0.0135057
920.849	0.0135754
920.927	0.0135135
921.005	0.0134371
921.083	0.0136468
921.161	0.0135830
921.239	0.0136169
921.318	0.0135738
921.396	0.0135791
921.474	0.0135040
921.552	0.0136617
921.630	0.0136035
921.708	0.0137338
921.786	0.0137795
921.864	0.0137329
921.943	0.0137498
922.021	0.0137601
922.099	0.0138573
922.177	0.0138120
922.255	0.0137267
922.333	0.0137830
922.411	0.0137939
922.489	0.0137556
922.568	0.0136489
922.646	0.0137138
922.724	0.0136286
922.802	0.0136224
922.880	0.0136153
922.958	0.0135987
923.036	0.0134290
923.114	0.0135092
923.193	0.0134431
923.271	0.0135608
923.349	0.0136020
923.427	0.0134092
923.505	0.0134435
923.583	0.0136020
923.661	0.0133458
923.739	0.0133981
923.818	0.0135719
923.896	0.0132977
923.974	0.0134440
924.052	0.0134981
924.130	0.0134441
924.208	0.0135065
924.286	0.0134624
924.364	0.0134953
924.443	0.0133820
924.521	0.0134183
924.599	0.0134389
924.677	0.0134283
924.755	0.0135217
924.833	0.0134356
924.911	0.0134431
924.989	0.0135356
925.068	0.0133636
925.146	0.0134213
925.224	0.0135881
925.302	0.0134769
925.380	0.0133602
925.458	0.0132648
925.536	0.0134676
925.614	0.0134470
925.693	0.0135034
925.771	0.0135363
925.849	0.0134631
925.927	0.0133484
926.005	0.0135139
926.083	0.0135209
926.161	0.0136483
926.239	0.0136440
926.318	0.0136163
926.396	0.0134349
926.474	0.0136388
926.552	0.0137606
926.630	0.0137812
926.708	0.0137468
926.786	0.0137121
926.864	0.0137678
926.943	0.0138300
927.021	0.0137814
927.099	0.0137081
927.177	0.0137591
927.255	0.0137363
927.333	0.0137070
927.411	0.0135163
927.489	0.0136111
927.568	0.0136674
927.646	0.0135806
927.724	0.0134280
927.802	0.0135580
927.880	0.0135841
927.958	0.0134808
928.036	0.0133494
928.114	0.0134521
928.193	0.0135433
928.271	0.0134015
928.349	0.0134373
928.427	0.0133790
928.505	0.0131785
928.583	0.0133414
928.661	0.0133660
928.739	0.0133573
928.818	0.0133266
928.896	0.0132821
928.974	0.0133418
929.052	0.0133121
929.130	0.0133881
929.208	0.0134235
929.286	0.0134451
929.364	0.0134661
929.443	0.0133685
929.521	0.0134952
929.599	0.0134126
929.677	0.0135069
929.755	0.0135161
929.833	0.0134371
929.911	0.0134764
929.989	0.0134389
930.068	0.0134684
930.146	0.0136118
930.224	0.0135392
930.302	0.0135145
930.380	0.0135725
930.458	0.0137630
930.536	0.0136505
930.614	0.0135059
930.693	0.0133382
930.771	0.0136010
930.849	0.0134755
930.927	0.0133588
931.005	0.0135293
931.083	0.0133645
931.161	0.0133018
931.239	0.0134505
931.318	0.0133713
931.396	0.0132456
931.474	0.0133142
931.552	0.0134164
931.630	0.0132887
931.708	0.0132861
931.786	0.0134747
931.864	0.0133992
931.943	0.0132625
932.021	0.0133670
932.099	0.0133950
932.177	0.0134933
932.255	0.0135047
932.333	0.0134322
932.411	0.0134473
932.489	0.0135178
932.568	0.0134914
932.646	0.0136364
932.724	0.0135042
932.802	0.0136353
932.880	0.0136671
932.958	0.0137762
933.036	0.0137805
933.114	0.0136732
933.193	0.0136385
933.271	0.0137272
933.349	0.0137005
933.427	0.0135229
933.505	0.0136243
933.583	0.0136382
933.661	0.0135885
933.739	0.0137552
933.818	0.0134721
933.896	0.0135737
933.974	0.0136794
934.052	0.0134203
934.130	0.0135735
934.208	0.0136388
934.286	0.0134740
934.364	0.0135122
934.443	0.0134599
934.521	0.0134642
934.599	0.0135392
934.677	0.0135386
934.755	0.0135314
934.833	0.0135632
934.911	0.0136472
934.989	0.0134241
935.068	0.0134248
935.146	0.0134761
935.224	0.0135324
935.302	0.0133572
935.380	0.0134888
935.458	0.0133585
935.536	0.0132221
935.614	0.0134509
935.693	0.0134921
935.771	0.0133706
935.849	0.0133578
935.927	0.0132925
936.005	0.0134041
936.083	0.0135272
936.161	0.0134314
936.239	0.0133469
936.318	0.0134623
936.396	0.0135059
936.474	0.0134273
936.552	0.0133875
936.630	0.0134040
936.708	0.0133984
936.786	0.0134380
936.864	0.0134414
936.943	0.0134524
937.021	0.0134349
937.099	0.0135973
937.177	0.0134966
937.255	0.0134655
937.333	0.0135545
937.411	0.0134988
937.489	0.0135591
937.568	0.0134297
937.646	0.0134483
937.724	0.0134540
937.802	0.0134331
937.880	0.0135633
937.958	0.0134705
938.036	0.0134125
938.114	0.0135883
938.193	0.0135712
938.271	0.0135100
938.349	0.0135145
938.427	0.0134280
938.505	0.0134794
938.583	0.0134439
938.661	0.0133941
938.739	0.0136738
938.818	0.0136801
938.896	0.0135744
938.974	0.0133616
939.052	0.0135683
939.130	0.0134063
939.208	0.0135715
939.286	0.0136644
939.364	0.0135999
939.443	0.0136615
939.521	0.0135371
939.599	0.0134501
939.677	0.0134969
939.755	0.0135032
939.833	0.0134958
939.911	0.0135981
939.989	0.0134595
940.068	0.0133777
940.146	0.0134209
940.224	0.0133163
940.302	0.0135378
940.380	0.0134843
940.458	0.0135384
940.536	0.0133997
940.614	0.0135002
940.693	0.0134321
940.771	0.0134454
940.849	0.0135060
940.927	0.0134241
941.005	0.0133670
941.083	0.0133589
941.161	0.0135634
941.239	0.0133797
941.318	0.0134210
941.396	0.0133784
941.474	0.0134496
941.552	0.0135415
941.630	0.0135120
941.708	0.0135663
941.786	0.0135233
941.864	0.0136072
941.943	0.0135507
942.021	0.0136490
942.099	0.0135360
942.177	0.0137001
942.255	0.0135852
942.333	0.0137099
942.411	0.0135864
942.489	0.0136583
942.568	0.0136619
942.646	0.0136081
942.724	0.0136892
942.802	0.0135960
942.880	0.0136225
942.958	0.0135683
943.036	0.0134937
943.114	0.0137617
943.193	0.0136052
943.271	0.0136078
943.349	0.0136589
943.427	0.0135803
943.505	0.0135487
943.583	0.0136131
943.661	0.0135291
943.739	0.0136773
943.818	0.0135093
943.896	0.0134773
943.974	0.0136383
944.052	0.0136904
944.130	0.0135614
944.208	0.0134782
944.286	0.0135119
944.364	0.0136535
944.443	0.0136417
944.521	0.0135271
944.599	0.0135064
944.677	0.0136504
944.755	0.0135599
944.833	0.0135577
944.911	0.0135956
944.989	0.0135524
945.068	0.0135184
945.146	0.0135728
945.224	0.0136024
945.302	0.0135250
945.380	0.0136319
945.458	0.0134927
945.536	0.0134599
945.614	0.0136979
945.693	0.0137193
945.771	0.0136363
945.849	0.0136680
945.927	0.0135769
946.005	0.0136022
946.083	0.0135995
946.161	0.0135287
946.239	0.0134497
946.318	0.0135176
946.396	0.0137028
946.474	0.0135910
946.552	0.0136174
946.630	0.0133712
946.708	0.0134947
946.786	0.0134486
946.864	0.0134021
946.943	0.0136005
947.021	0.0135343
947.099	0.0135053
947.177	0.0134738
947.255	0.0136320
947.333	0.0135799
947.411	0.0136544
947.489	0.0134986
947.568	0.0134531
947.646	0.0135041
947.724	0.0133548
947.802	0.0133927
947.880	0.0133390
947.958	0.0135201
948.036	0.0135099
948.114	0.0135249
948.193	0.0135947
948.271	0.0136444
948.349	0.0134821
948.427	0.0134933
948.505	0.0135189
948.583	0.0135874
948.661	0.0135100
948.739	0.0135611
948.818	0.0135703
948.896	0.0135995
948.974	0.0136677
949.052	0.0135705
949.130	0.0135836
949.208	0.0136092
949.286	0.0134988
949.364	0.0135965
949.443	0.0136744
949.521	0.0134529
949.599	0.0134516
949.677	0.0135017
949.755	0.0135088
949.833	0.0136063
949.911	0.0135075
949.989	0.0134895
950.068	0.0134348
950.146	0.0136131
950.224	0.0134741
950.302	0.0134085
950.380	0.0133226
950.458	0.0134538
950.536	0.0133439
950.614	0.0133969
950.693	0.0133858
950.771	0.0132703
950.849	0.0132249
950.927	0.0132296
951.005	0.0134015
951.083	0.0133845
951.161	0.0134174
951.239	0.0134057
951.318	0.0134557
951.396	0.0134053
951.474	0.0133913
951.552	0.0134208
951.630	0.0134523
951.708	0.0134152
951.786	0.0134319
951.864	0.0134586
951.943	0.0136500
952.021	0.0136600
952.099	0.0136388
952.177	0.0135507
952.255	0.0136324
952.333	0.0136179
952.411	0.0135500
952.489	0.0136804
952.568	0.0136728
952.646	0.0137691
952.724	0.0136781
952.802	0.0136170
952.880	0.0136275
952.958	0.0136188
953.036	0.0135752
953.114	0.0136858
953.193	0.0136155
953.271	0.0137219
953.349	0.0135387
953.427	0.0135759
953.505	0.0136868
953.583	0.0135613
953.661	0.0135286
953.739	0.0135477
953.818	0.0135860
953.896	0.0136478
953.974	0.0135509
954.052	0.0135119
954.130	0.0134327
954.208	0.0133363
954.286	0.0132043
954.364	0.0134039
954.443	0.0134193
954.521	0.0134421
954.599	0.0134660
954.677	0.0133858
954.755	0.0133592
954.833	0.0133728
954.911	0.0132815
954.989	0.0133867
955.068	0.0134766
955.146	0.0134766
955.224	0.0134264
955.302	0.0134317
955.380	0.0133749
955.458	0.0134692
955.536	0.0135406
955.614	0.0133822
955.693	0.0135181
955.771	0.0134949
955.849	0.0134580
955.927	0.0134033
956.005	0.0132674
956.083	0.0133642
956.161	0.0134888
956.239	0.0135278
956.318	0.0132763
956.396	0.0132370
956.474	0.0134223
956.552	0.0134154
956.630	0.0133818
956.708	0.0134465
956.786	0.0133485
956.864	0.0133044
956.943	0.0133368
957.021	0.0133630
957.099	0.0133271
957.177	0.0133522
957.255	0.0134436
957.333	0.0133894
957.411	0.0133347
957.489	0.0132957
957.568	0.0133205
957.646	0.0134455
957.724	0.0133529
957.802	0.0134267
957.880	0.0134191
957.958	0.0132598
958.036	0.0133351
958.114	0.0134773
958.193	0.0134184
958.271	0.0135126
958.349	0.0133551
958.427	0.0134013
958.505	0.0134092
958.583	0.0135200
958.661	0.0135422
958.739	0.0135052
958.818	0.0134293
958.896	0.0135033
958.974	0.0133520
959.052	0.0133492
959.130	0.0135884
959.208	0.0135382
959.286	0.0136137
959.364	0.0135989
959.443	0.0134254
959.521	0.0135828
959.599	0.0136248
959.677	0.0134909
959.755	0.0136072
959.833	0.0136135
959.911	0.0135091
