05/14/2022	16:43:12	Ver.	4.1	UNKNOWN
Optical Delay	639.989416	Delta X		0.078125	Sweeps	1	Scan Rate	0/0
Coordinates	Axis 1	NaN	Axis 2	NaN	Axis 3	NaN	Axis 4	NaN	Axis 5	NaN	Axis 6	0.000000
TX Power	0.000000	RX Power	0.000000

639.989	0.0137164
640.068	0.0137449
640.146	0.0137398
640.224	0.0137049
640.302	0.0136288
640.380	0.0136575
640.458	0.0136433
640.536	0.0137868
640.614	0.0135712
640.693	0.0136715
640.771	0.0135294
640.849	0.0137476
640.927	0.0137693
641.005	0.0138263
641.083	0.0136494
641.161	0.0137594
641.239	0.0136382
641.318	0.0136861
641.396	0.0136481
641.474	0.0136529
641.552	0.0135789
641.630	0.0136311
641.708	0.0137220
641.786	0.0137180
641.864	0.0136135
641.943	0.0137196
642.021	0.0135502
642.099	0.0137006
642.177	0.0137106
642.255	0.0135877
642.333	0.0136439
642.411	0.0136510
642.489	0.0137698
642.568	0.0137124
642.646	0.0136915
642.724	0.0137173
642.802	0.0137838
642.880	0.0136163
642.958	0.0138539
643.036	0.0137089
643.114	0.0136506
643.193	0.0136858
643.271	0.0137579
643.349	0.0136834
643.427	0.0136741
643.505	0.0137427
643.583	0.0136383
643.661	0.0137395
643.739	0.0136681
643.818	0.0136365
643.896	0.0137973
643.974	0.0136248
644.052	0.0137360
644.130	0.0137605
644.208	0.0137141
644.286	0.0138412
644.364	0.0136333
644.443	0.0136504
644.521	0.0136684
644.599	0.0135580
644.677	0.0136388
644.755	0.0136660
644.833	0.0136904
644.911	0.0136847
644.989	0.0135069
645.068	0.0136440
645.146	0.0137354
645.224	0.0136906
645.302	0.0136304
645.380	0.0136257
645.458	0.0136063
645.536	0.0136426
645.614	0.0136530
645.693	0.0135785
645.771	0.0136540
645.849	0.0136797
645.927	0.0137795
646.005	0.0136873
646.083	0.0136382
646.161	0.0137347
646.239	0.0135903
646.318	0.0136734
646.396	0.0136299
646.474	0.0135694
646.552	0.0135946
646.630	0.0135973
646.708	0.0137682
646.786	0.0136763
646.864	0.0136942
646.943	0.0137173
647.021	0.0137119
647.099	0.0136502
647.177	0.0136389
647.255	0.0136459
647.333	0.0136436
647.411	0.0138110
647.489	0.0137868
647.568	0.0137837
647.646	0.0138574
647.724	0.0137930
647.802	0.0137802
647.880	0.0136594
647.958	0.0137762
648.036	0.0138067
648.114	0.0138141
648.193	0.0138187
648.271	0.0138482
648.349	0.0138276
648.427	0.0137560
648.505	0.0137010
648.583	0.0137590
648.661	0.0138397
648.739	0.0137213
648.818	0.0137138
648.896	0.0137066
648.974	0.0137207
649.052	0.0138694
649.130	0.0137167
649.208	0.0136984
649.286	0.0137488
649.364	0.0136681
649.443	0.0137054
649.521	0.0136884
649.599	0.0137754
649.677	0.0137009
649.755	0.0136588
649.833	0.0136610
649.911	0.0138873
649.989	0.0137492
650.068	0.0137703
650.146	0.0137079
650.224	0.0137251
650.302	0.0137038
650.380	0.0138431
650.458	0.0136471
650.536	0.0137164
650.614	0.0139101
650.693	0.0136802
650.771	0.0138433
650.849	0.0137322
650.927	0.0135555
651.005	0.0137238
651.083	0.0136417
651.161	0.0136662
651.239	0.0137917
651.318	0.0136762
651.396	0.0136568
651.474	0.0138037
651.552	0.0136810
651.630	0.0137598
651.708	0.0138176
651.786	0.0137373
651.864	0.0137719
651.943	0.0138306
652.021	0.0136382
652.099	0.0138777
652.177	0.0137712
652.255	0.0137715
652.333	0.0137036
652.411	0.0137284
652.489	0.0139583
652.568	0.0138891
652.646	0.0138612
652.724	0.0139448
652.802	0.0136589
652.880	0.0136739
652.958	0.0138184
653.036	0.0137142
653.114	0.0138255
653.193	0.0137794
653.271	0.0137363
653.349	0.0138896
653.427	0.0138034
653.505	0.0137724
653.583	0.0138276
653.661	0.0138024
653.739	0.0137679
653.818	0.0138634
653.896	0.0136990
653.974	0.0137839
654.052	0.0138425
654.130	0.0137546
654.208	0.0137901
654.286	0.0138367
654.364	0.0137832
654.443	0.0138146
654.521	0.0137305
654.599	0.0139066
654.677	0.0139242
654.755	0.0137680
654.833	0.0138208
654.911	0.0138683
654.989	0.0138998
655.068	0.0138622
655.146	0.0138039
655.224	0.0137798
655.302	0.0138878
655.380	0.0137634
655.458	0.0138940
655.536	0.0138003
655.614	0.0137224
655.693	0.0139211
655.771	0.0139275
655.849	0.0138555
655.927	0.0138021
656.005	0.0138480
656.083	0.0136954
656.161	0.0138842
656.239	0.0138000
656.318	0.0136967
656.396	0.0136574
656.474	0.0137354
656.552	0.0138056
656.630	0.0138156
656.708	0.0139448
656.786	0.0137422
656.864	0.0137812
656.943	0.0137172
657.021	0.0136756
657.099	0.0139296
657.177	0.0137392
657.255	0.0138106
657.333	0.0139152
657.411	0.0136693
657.489	0.0138161
657.568	0.0137685
657.646	0.0137631
657.724	0.0137788
657.802	0.0139199
657.880	0.0138482
657.958	0.0139159
658.036	0.0136594
658.114	0.0138019
658.193	0.0138708
658.271	0.0138500
658.349	0.0137446
658.427	0.0138062
658.505	0.0139464
658.583	0.0136726
658.661	0.0136993
658.739	0.0136603
658.818	0.0138896
658.896	0.0138894
658.974	0.0137817
659.052	0.0137785
659.130	0.0137669
659.208	0.0137554
659.286	0.0137588
659.364	0.0138390
659.443	0.0138406
659.521	0.0138002
659.599	0.0136517
659.677	0.0136638
659.755	0.0137469
659.833	0.0137193
659.911	0.0137154
659.989	0.0136718
660.068	0.0138452
660.146	0.0137012
660.224	0.0136929
660.302	0.0137025
660.380	0.0138755
660.458	0.0136952
660.536	0.0137524
660.614	0.0138068
660.693	0.0136874
660.771	0.0137240
660.849	0.0137049
660.927	0.0136504
661.005	0.0138413
661.083	0.0136294
661.161	0.0136420
661.239	0.0137111
661.318	0.0135572
661.396	0.0136611
661.474	0.0136548
661.552	0.0137525
661.630	0.0136871
661.708	0.0136595
661.786	0.0138566
661.864	0.0135946
661.943	0.0135303
662.021	0.0136756
662.099	0.0136738
662.177	0.0136576
662.255	0.0134438
662.333	0.0136949
662.411	0.0136341
662.489	0.0136407
662.568	0.0135821
662.646	0.0137388
662.724	0.0137112
662.802	0.0136739
662.880	0.0136356
662.958	0.0136977
663.036	0.0136298
663.114	0.0136384
663.193	0.0135905
663.271	0.0135954
663.349	0.0137607
663.427	0.0137322
663.505	0.0136935
663.583	0.0135404
663.661	0.0136304
663.739	0.0136218
663.818	0.0137298
663.896	0.0137207
663.974	0.0136870
664.052	0.0137936
664.130	0.0137527
664.208	0.0137302
664.286	0.0137157
664.364	0.0136663
664.443	0.0136659
664.521	0.0137164
664.599	0.0136613
664.677	0.0137122
664.755	0.0136543
664.833	0.0136743
664.911	0.0136780
664.989	0.0137540
665.068	0.0135942
665.146	0.0135920
665.224	0.0137176
665.302	0.0135793
665.380	0.0136612
665.458	0.0137708
665.536	0.0137669
665.614	0.0136744
665.693	0.0136786
665.771	0.0136894
665.849	0.0137967
665.927	0.0135768
666.005	0.0137347
666.083	0.0138192
666.161	0.0135574
666.239	0.0137344
666.318	0.0138071
666.396	0.0136214
666.474	0.0135458
666.552	0.0134255
666.630	0.0135246
666.708	0.0136219
666.786	0.0135607
666.864	0.0135226
666.943	0.0136308
667.021	0.0134328
667.099	0.0134966
667.177	0.0135354
667.255	0.0134319
667.333	0.0135050
667.411	0.0134190
667.489	0.0136514
667.568	0.0136615
667.646	0.0135883
667.724	0.0137570
667.802	0.0137451
667.880	0.0137888
667.958	0.0137495
668.036	0.0138029
668.114	0.0138750
668.193	0.0137682
668.271	0.0138479
668.349	0.0137974
668.427	0.0137212
668.505	0.0136564
668.583	0.0136015
668.661	0.0136853
668.739	0.0137108
668.818	0.0136128
668.896	0.0136350
668.974	0.0134570
669.052	0.0135200
669.130	0.0134335
669.208	0.0135029
669.286	0.0133447
669.364	0.0133607
669.443	0.0133916
669.521	0.0134594
669.599	0.0135651
669.677	0.0134327
669.755	0.0133831
669.833	0.0135442
669.911	0.0136555
669.989	0.0135991
670.068	0.0136263
670.146	0.0137270
670.224	0.0137901
670.302	0.0139633
670.380	0.0139484
670.458	0.0138983
670.536	0.0139677
670.614	0.0139746
670.693	0.0139178
670.771	0.0139092
670.849	0.0139073
670.927	0.0138750
671.005	0.0136736
671.083	0.0136359
671.161	0.0136176
671.239	0.0136135
671.318	0.0134131
671.396	0.0134839
671.474	0.0134238
671.552	0.0132928
671.630	0.0132520
671.708	0.0131935
671.786	0.0133195
671.864	0.0132826
671.943	0.0133506
672.021	0.0134104
672.099	0.0134167
672.177	0.0136514
672.255	0.0135822
672.333	0.0137045
672.411	0.0139156
672.489	0.0141080
672.568	0.0140568
672.646	0.0141624
672.724	0.0143658
672.802	0.0142281
672.880	0.0144376
672.958	0.0143288
673.036	0.0144777
673.114	0.0143620
673.193	0.0143158
673.271	0.0141380
673.349	0.0141419
673.427	0.0139352
673.505	0.0138440
673.583	0.0137082
673.661	0.0137006
673.739	0.0134084
673.818	0.0132619
673.896	0.0130105
673.974	0.0128244
674.052	0.0128289
674.130	0.0127154
674.208	0.0126013
674.286	0.0125919
674.364	0.0125137
674.443	0.0125459
674.521	0.0126851
674.599	0.0125848
674.677	0.0127777
674.755	0.0127995
674.833	0.0130207
674.911	0.0132068
674.989	0.0133657
675.068	0.0136280
675.146	0.0138895
675.224	0.0139778
675.302	0.0141747
675.380	0.0143092
675.458	0.0145008
675.536	0.0147167
675.614	0.0147948
675.693	0.0151168
675.771	0.0149926
675.849	0.0151199
675.927	0.0150894
676.005	0.0151752
676.083	0.0153038
676.161	0.0151472
676.239	0.0149554
676.318	0.0148415
676.396	0.0147701
676.474	0.0144556
676.552	0.0142879
676.630	0.0141402
676.708	0.0137441
676.786	0.0136311
676.864	0.0134023
676.943	0.0131295
677.021	0.0128260
677.099	0.0127584
677.177	0.0127258
677.255	0.0123979
677.333	0.0122698
677.411	0.0121115
677.489	0.0120542
677.568	0.0120599
677.646	0.0121411
677.724	0.0120795
677.802	0.0121796
677.880	0.0122853
677.958	0.0123963
678.036	0.0125434
678.114	0.0127119
678.193	0.0129150
678.271	0.0130012
678.349	0.0130981
678.427	0.0134147
678.505	0.0135742
678.583	0.0137384
678.661	0.0138743
678.739	0.0140401
678.818	0.0142628
678.896	0.0142984
678.974	0.0143848
679.052	0.0145978
679.130	0.0148232
679.208	0.0149204
679.286	0.0150325
679.364	0.0151004
679.443	0.0151545
679.521	0.0151655
679.599	0.0153038
679.677	0.0152604
679.755	0.0152288
679.833	0.0152957
679.911	0.0153207
679.989	0.0152814
680.068	0.0153958
680.146	0.0151854
680.224	0.0152649
680.302	0.0152897
680.380	0.0149854
680.458	0.0148079
680.536	0.0146835
680.614	0.0145187
680.693	0.0141636
680.771	0.0139880
680.849	0.0135154
680.927	0.0131658
681.005	0.0128874
681.083	0.0126563
681.161	0.0121991
681.239	0.0120004
681.318	0.0117532
681.396	0.0113180
681.474	0.0112469
681.552	0.0109447
681.630	0.0109768
681.708	0.0107732
681.786	0.0106489
681.864	0.0108336
681.943	0.0109196
682.021	0.0107988
682.099	0.0110328
682.177	0.0112660
682.255	0.0114342
682.333	0.0118446
682.411	0.0121323
682.489	0.0124628
682.568	0.0127975
682.646	0.0130104
682.724	0.0133914
682.802	0.0138353
682.880	0.0141702
682.958	0.0147446
683.036	0.0149188
683.114	0.0155231
683.193	0.0159059
683.271	0.0160197
683.349	0.0163073
683.427	0.0167086
683.505	0.0169178
683.583	0.0170218
683.661	0.0170587
683.739	0.0171551
683.818	0.0171405
683.896	0.0170109
683.974	0.0168942
684.052	0.0166013
684.130	0.0164625
684.208	0.0160504
684.286	0.0159535
684.364	0.0154859
684.443	0.0149776
684.521	0.0146943
684.599	0.0140344
684.677	0.0136962
684.755	0.0132309
684.833	0.0128860
684.911	0.0124326
684.989	0.0121563
685.068	0.0117539
685.146	0.0114825
685.224	0.0112563
685.302	0.0109792
685.380	0.0107296
685.458	0.0106590
685.536	0.0106373
685.614	0.0106198
685.693	0.0105468
685.771	0.0105761
685.849	0.0107528
685.927	0.0110049
686.005	0.0111221
686.083	0.0111514
686.161	0.0114176
686.239	0.0117811
686.318	0.0120498
686.396	0.0123398
686.474	0.0126828
686.552	0.0130231
686.630	0.0132017
686.708	0.0135957
686.786	0.0139020
686.864	0.0141466
686.943	0.0143336
687.021	0.0144925
687.099	0.0146995
687.177	0.0149268
687.255	0.0152133
687.333	0.0151466
687.411	0.0154005
687.489	0.0154699
687.568	0.0152982
687.646	0.0155754
687.724	0.0156709
687.802	0.0157228
687.880	0.0156800
687.958	0.0156622
688.036	0.0155987
688.114	0.0154594
688.193	0.0153984
688.271	0.0154546
688.349	0.0152051
688.427	0.0151546
688.505	0.0149969
688.583	0.0149879
688.661	0.0147768
688.739	0.0148452
688.818	0.0147714
688.896	0.0145506
688.974	0.0143253
689.052	0.0141697
689.130	0.0139229
689.208	0.0137914
689.286	0.0136918
689.364	0.0135266
689.443	0.0133992
689.521	0.0131712
689.599	0.0130633
689.677	0.0128106
689.755	0.0127370
689.833	0.0126958
689.911	0.0125346
689.989	0.0123985
690.068	0.0122259
690.146	0.0120499
690.224	0.0119536
690.302	0.0120156
690.380	0.0119810
690.458	0.0118396
690.536	0.0120582
690.614	0.0119472
690.693	0.0119987
690.771	0.0119695
690.849	0.0120377
690.927	0.0120939
691.005	0.0122335
691.083	0.0122469
691.161	0.0122810
691.239	0.0125447
691.318	0.0125948
691.396	0.0127187
691.474	0.0128696
691.552	0.0129444
691.630	0.0131303
691.708	0.0131805
691.786	0.0133952
691.864	0.0136164
691.943	0.0137059
692.021	0.0136308
692.099	0.0140067
692.177	0.0141158
692.255	0.0143169
692.333	0.0144629
692.411	0.0145876
692.489	0.0145728
692.568	0.0147101
692.646	0.0149117
692.724	0.0149610
692.802	0.0149769
692.880	0.0151015
692.958	0.0152701
693.036	0.0152485
693.114	0.0153505
693.193	0.0154333
693.271	0.0153545
693.349	0.0153313
693.427	0.0155007
693.505	0.0154086
693.583	0.0153191
693.661	0.0151937
693.739	0.0150980
693.818	0.0149658
693.896	0.0149323
693.974	0.0147289
694.052	0.0145599
694.130	0.0144518
694.208	0.0143378
694.286	0.0139485
694.364	0.0138859
694.443	0.0138171
694.521	0.0135355
694.599	0.0132172
694.677	0.0130741
694.755	0.0129955
694.833	0.0128313
694.911	0.0127498
694.989	0.0125003
695.068	0.0124165
695.146	0.0124767
695.224	0.0124888
695.302	0.0124847
695.380	0.0122837
695.458	0.0121908
695.536	0.0121446
695.614	0.0121378
695.693	0.0120274
695.771	0.0121998
695.849	0.0122166
695.927	0.0123621
696.005	0.0121342
696.083	0.0121664
696.161	0.0121991
696.239	0.0124184
696.318	0.0126344
696.396	0.0125352
696.474	0.0127959
696.552	0.0128905
696.630	0.0128992
696.708	0.0130417
696.786	0.0130977
696.864	0.0134286
696.943	0.0136066
697.021	0.0137180
697.099	0.0137981
697.177	0.0140662
697.255	0.0141222
697.333	0.0142615
697.411	0.0144524
697.489	0.0144553
697.568	0.0145889
697.646	0.0147778
697.724	0.0147782
697.802	0.0148284
697.880	0.0148064
697.958	0.0147434
698.036	0.0147532
698.114	0.0147513
698.193	0.0148483
698.271	0.0149126
698.349	0.0149117
698.427	0.0149129
698.505	0.0147374
698.583	0.0147469
698.661	0.0148370
698.739	0.0150357
698.818	0.0149844
698.896	0.0148984
698.974	0.0150026
699.052	0.0149554
699.130	0.0149366
699.208	0.0148398
699.286	0.0148872
699.364	0.0146828
699.443	0.0146440
699.521	0.0145135
699.599	0.0142313
699.677	0.0140691
699.755	0.0139794
699.833	0.0137840
699.911	0.0135489
699.989	0.0133680
700.068	0.0134525
700.146	0.0131379
700.224	0.0130825
700.302	0.0130478
700.380	0.0129086
700.458	0.0127816
700.536	0.0125834
700.614	0.0126734
700.693	0.0126768
700.771	0.0125880
700.849	0.0125678
700.927	0.0125378
701.005	0.0124843
701.083	0.0124263
701.161	0.0125308
701.239	0.0124831
701.318	0.0124007
701.396	0.0123100
701.474	0.0121837
701.552	0.0122298
701.630	0.0122014
701.708	0.0121295
701.786	0.0120766
701.864	0.0119087
701.943	0.0119691
702.021	0.0120313
702.099	0.0121498
702.177	0.0121109
702.255	0.0123904
702.333	0.0124493
702.411	0.0126989
702.489	0.0129669
702.568	0.0134232
702.646	0.0137340
702.724	0.0140562
702.802	0.0143924
702.880	0.0147033
702.958	0.0151335
703.036	0.0153353
703.114	0.0155023
703.193	0.0157550
703.271	0.0160706
703.349	0.0162087
703.427	0.0162471
703.505	0.0163528
703.583	0.0162715
703.661	0.0163139
703.739	0.0162760
703.818	0.0160326
703.896	0.0160297
703.974	0.0157489
704.052	0.0155547
704.130	0.0154562
704.208	0.0150391
704.286	0.0147249
704.364	0.0146192
704.443	0.0141083
704.521	0.0137837
704.599	0.0136746
704.677	0.0134213
704.755	0.0131617
704.833	0.0130287
704.911	0.0127802
704.989	0.0126982
705.068	0.0124648
705.146	0.0124413
705.224	0.0124320
705.302	0.0125220
705.380	0.0123811
705.458	0.0123309
705.536	0.0123119
705.614	0.0123154
705.693	0.0123033
705.771	0.0124056
705.849	0.0126175
705.927	0.0126602
706.005	0.0128150
706.083	0.0130938
706.161	0.0131475
706.239	0.0133370
706.318	0.0135678
706.396	0.0138251
706.474	0.0139857
706.552	0.0140968
706.630	0.0141585
706.708	0.0143783
706.786	0.0144382
706.864	0.0143704
706.943	0.0144778
707.021	0.0144660
707.099	0.0140883
707.177	0.0140852
707.255	0.0140350
707.333	0.0136662
707.411	0.0133179
707.489	0.0132417
707.568	0.0130994
707.646	0.0128497
707.724	0.0125906
707.802	0.0125639
707.880	0.0124600
707.958	0.0122809
708.036	0.0121218
708.114	0.0121558
708.193	0.0120602
708.271	0.0123094
708.349	0.0124207
708.427	0.0122697
708.505	0.0123955
708.583	0.0125870
708.661	0.0128941
708.739	0.0128200
708.818	0.0129176
708.896	0.0132539
708.974	0.0134302
709.052	0.0136930
709.130	0.0139396
709.208	0.0139367
709.286	0.0143259
709.364	0.0146451
709.443	0.0146156
709.521	0.0149060
709.599	0.0151514
709.677	0.0154708
709.755	0.0154630
709.833	0.0155973
709.911	0.0157103
709.989	0.0157420
710.068	0.0158720
710.146	0.0158907
710.224	0.0159948
710.302	0.0161255
710.380	0.0159441
710.458	0.0160640
710.536	0.0159427
710.614	0.0157426
710.693	0.0158578
710.771	0.0156637
710.849	0.0155073
710.927	0.0154220
711.005	0.0152222
711.083	0.0148944
711.161	0.0146105
711.239	0.0141830
711.318	0.0139723
711.396	0.0137117
711.474	0.0133654
711.552	0.0129192
711.630	0.0126054
711.708	0.0122936
711.786	0.0121632
711.864	0.0118729
711.943	0.0116219
712.021	0.0113567
712.099	0.0113553
712.177	0.0113890
712.255	0.0113602
712.333	0.0114986
712.411	0.0115177
712.489	0.0114481
712.568	0.0115246
712.646	0.0116904
712.724	0.0118344
712.802	0.0118817
712.880	0.0118962
712.958	0.0121516
713.036	0.0121111
713.114	0.0123176
713.193	0.0124932
713.271	0.0124603
713.349	0.0127210
713.427	0.0127221
713.505	0.0129332
713.583	0.0133375
713.661	0.0133680
713.739	0.0136239
713.818	0.0138840
713.896	0.0139747
713.974	0.0141834
714.052	0.0144703
714.130	0.0148039
714.208	0.0148586
714.286	0.0150134
714.364	0.0153205
714.443	0.0153570
714.521	0.0153381
714.599	0.0155830
714.677	0.0154720
714.755	0.0155687
714.833	0.0154672
714.911	0.0154572
714.989	0.0152182
715.068	0.0152633
715.146	0.0153644
715.224	0.0151267
715.302	0.0151942
715.380	0.0149355
715.458	0.0148507
715.536	0.0147444
715.614	0.0147213
715.693	0.0147109
715.771	0.0146670
715.849	0.0146404
715.927	0.0143711
716.005	0.0143826
716.083	0.0144118
716.161	0.0143453
716.239	0.0141598
716.318	0.0142438
716.396	0.0141153
716.474	0.0140918
716.552	0.0139993
716.630	0.0139479
716.708	0.0138766
716.786	0.0139191
716.864	0.0137119
716.943	0.0135648
717.021	0.0135960
717.099	0.0133579
717.177	0.0134615
717.255	0.0134241
717.333	0.0133129
717.411	0.0133360
717.489	0.0134427
717.568	0.0132661
717.646	0.0132990
717.724	0.0133611
717.802	0.0133411
717.880	0.0133259
717.958	0.0132281
718.036	0.0132362
718.114	0.0131519
718.193	0.0129621
718.271	0.0126191
718.349	0.0126257
718.427	0.0124793
718.505	0.0123381
718.583	0.0123988
718.661	0.0122598
718.739	0.0121003
718.818	0.0121530
718.896	0.0118958
718.974	0.0119892
719.052	0.0120945
719.130	0.0122015
719.208	0.0121760
719.286	0.0123188
719.364	0.0124968
719.443	0.0125692
719.521	0.0126307
719.599	0.0128580
719.677	0.0130501
719.755	0.0132049
719.833	0.0134161
719.911	0.0135345
719.989	0.0136611
720.068	0.0139729
720.146	0.0141302
720.224	0.0142632
720.302	0.0145238
720.380	0.0146780
720.458	0.0149182
720.536	0.0149998
720.614	0.0152051
720.693	0.0152751
720.771	0.0153812
720.849	0.0154661
720.927	0.0155345
721.005	0.0156371
721.083	0.0156596
721.161	0.0156030
721.239	0.0157177
721.318	0.0155322
721.396	0.0155454
721.474	0.0156681
721.552	0.0154266
721.630	0.0155267
721.708	0.0154372
721.786	0.0152177
721.864	0.0151596
721.943	0.0149669
722.021	0.0148808
722.099	0.0148897
722.177	0.0146658
722.255	0.0143931
722.333	0.0142726
722.411	0.0138402
722.489	0.0138785
722.568	0.0138026
722.646	0.0137526
722.724	0.0135046
722.802	0.0133663
722.880	0.0131385
722.958	0.0130713
723.036	0.0129424
723.114	0.0129190
723.193	0.0127397
723.271	0.0125848
723.349	0.0127121
723.427	0.0125278
723.505	0.0122807
723.583	0.0121958
723.661	0.0121650
723.739	0.0119159
723.818	0.0118198
723.896	0.0118138
723.974	0.0116831
724.052	0.0117287
724.130	0.0117953
724.208	0.0116498
724.286	0.0117510
724.364	0.0117204
724.443	0.0116652
724.521	0.0119399
724.599	0.0120915
724.677	0.0123121
724.755	0.0123425
724.833	0.0124792
724.911	0.0126904
724.989	0.0129442
725.068	0.0130938
725.146	0.0133125
725.224	0.0136983
725.302	0.0139523
725.380	0.0140089
725.458	0.0143624
725.536	0.0144862
725.614	0.0146387
725.693	0.0146741
725.771	0.0148634
725.849	0.0149706
725.927	0.0149952
726.005	0.0151179
726.083	0.0151014
726.161	0.0153627
726.239	0.0153009
726.318	0.0154031
726.396	0.0155143
726.474	0.0154891
726.552	0.0154634
726.630	0.0154939
726.708	0.0154337
726.786	0.0155077
726.864	0.0154779
726.943	0.0155038
727.021	0.0153391
727.099	0.0152106
727.177	0.0150820
727.255	0.0150428
727.333	0.0149306
727.411	0.0148724
727.489	0.0146925
727.568	0.0146694
727.646	0.0144083
727.724	0.0143513
727.802	0.0143686
727.880	0.0141053
727.958	0.0140723
728.036	0.0139900
728.114	0.0138625
728.193	0.0136473
728.271	0.0135993
728.349	0.0135329
728.427	0.0132553
728.505	0.0131089
728.583	0.0128262
728.661	0.0128339
728.739	0.0126749
728.818	0.0125479
728.896	0.0122221
728.974	0.0122441
729.052	0.0121462
729.130	0.0120374
729.208	0.0119659
729.286	0.0119142
729.364	0.0118955
729.443	0.0119089
729.521	0.0118594
729.599	0.0117855
729.677	0.0120097
729.755	0.0121188
729.833	0.0120752
729.911	0.0122209
729.989	0.0123136
730.068	0.0124187
730.146	0.0125879
730.224	0.0128288
730.302	0.0130138
730.380	0.0132655
730.458	0.0135286
730.536	0.0135138
730.614	0.0138651
730.693	0.0141707
730.771	0.0143024
730.849	0.0143771
730.927	0.0146176
731.005	0.0147201
731.083	0.0146937
731.161	0.0148219
731.239	0.0150319
731.318	0.0150474
731.396	0.0151048
731.474	0.0149577
731.552	0.0151407
731.630	0.0151269
731.708	0.0151354
731.786	0.0150249
731.864	0.0148589
731.943	0.0147113
732.021	0.0145834
732.099	0.0146777
732.177	0.0144729
732.255	0.0142688
732.333	0.0142999
732.411	0.0141540
732.489	0.0141128
732.568	0.0142133
732.646	0.0138885
732.724	0.0138022
732.802	0.0138967
732.880	0.0138889
732.958	0.0139607
733.036	0.0139719
733.114	0.0140132
733.193	0.0141694
733.271	0.0141517
733.349	0.0141899
733.427	0.0142139
733.505	0.0141729
733.583	0.0140060
733.661	0.0139807
733.739	0.0140633
733.818	0.0138900
733.896	0.0138040
733.974	0.0137589
734.052	0.0137315
734.130	0.0135617
734.208	0.0133428
734.286	0.0135215
734.364	0.0133470
734.443	0.0132734
734.521	0.0130894
734.599	0.0131422
734.677	0.0130270
734.755	0.0128263
734.833	0.0130812
734.911	0.0130704
734.989	0.0130344
735.068	0.0129229
735.146	0.0129543
735.224	0.0130739
735.302	0.0128866
735.380	0.0129479
735.458	0.0129338
735.536	0.0130251
735.614	0.0129349
735.693	0.0129893
735.771	0.0129632
735.849	0.0130439
735.927	0.0130486
736.005	0.0131405
736.083	0.0133792
736.161	0.0135376
736.239	0.0135062
736.318	0.0134666
736.396	0.0137951
736.474	0.0139669
736.552	0.0141543
736.630	0.0141847
736.708	0.0141922
736.786	0.0142225
736.864	0.0143314
736.943	0.0143539
737.021	0.0142043
737.099	0.0143327
737.177	0.0141764
737.255	0.0142978
737.333	0.0142524
737.411	0.0141417
737.489	0.0141811
737.568	0.0140689
737.646	0.0141747
737.724	0.0139441
737.802	0.0138939
737.880	0.0140587
737.958	0.0141664
738.036	0.0140156
738.114	0.0139546
738.193	0.0139753
738.271	0.0139755
738.349	0.0140189
738.427	0.0140002
738.505	0.0140616
738.583	0.0140856
738.661	0.0139417
738.739	0.0140297
738.818	0.0138853
738.896	0.0139300
738.974	0.0137553
739.052	0.0138510
739.130	0.0138998
739.208	0.0138860
739.286	0.0139262
739.364	0.0138779
739.443	0.0139239
739.521	0.0139465
739.599	0.0138835
739.677	0.0138880
739.755	0.0139665
739.833	0.0138213
739.911	0.0138331
739.989	0.0138241
740.068	0.0137421
740.146	0.0138142
740.224	0.0136797
740.302	0.0135762
740.380	0.0134267
740.458	0.0133633
740.536	0.0133212
740.614	0.0132738
740.693	0.0131838
740.771	0.0132109
740.849	0.0130946
740.927	0.0130766
741.005	0.0131503
741.083	0.0130910
741.161	0.0130738
741.239	0.0130930
741.318	0.0131526
741.396	0.0132047
741.474	0.0131657
741.552	0.0134022
741.630	0.0134184
741.708	0.0134646
741.786	0.0136225
741.864	0.0136192
741.943	0.0137556
742.021	0.0138837
742.099	0.0138605
742.177	0.0139845
742.255	0.0140826
742.333	0.0140311
742.411	0.0139107
742.489	0.0139742
742.568	0.0139385
742.646	0.0139332
742.724	0.0138499
742.802	0.0138196
742.880	0.0138331
742.958	0.0138612
743.036	0.0137595
743.114	0.0137615
743.193	0.0136594
743.271	0.0135220
743.349	0.0138064
743.427	0.0137278
743.505	0.0136311
743.583	0.0136961
743.661	0.0137260
743.739	0.0136736
743.818	0.0137155
743.896	0.0137018
743.974	0.0136700
744.052	0.0138355
744.130	0.0139277
744.208	0.0139358
744.286	0.0138637
744.364	0.0138710
744.443	0.0138353
744.521	0.0140242
744.599	0.0139870
744.677	0.0140374
744.755	0.0141056
744.833	0.0140852
744.911	0.0140829
744.989	0.0140167
745.068	0.0140827
745.146	0.0141070
745.224	0.0141783
745.302	0.0141102
745.380	0.0140299
745.458	0.0140292
745.536	0.0140766
745.614	0.0141371
745.693	0.0141183
745.771	0.0140361
745.849	0.0139122
745.927	0.0139289
746.005	0.0138648
746.083	0.0136900
746.161	0.0138205
746.239	0.0137168
746.318	0.0135474
746.396	0.0135457
746.474	0.0134962
746.552	0.0134703
746.630	0.0132758
746.708	0.0131940
746.786	0.0130418
746.864	0.0128984
746.943	0.0130055
747.021	0.0128678
747.099	0.0127409
747.177	0.0128679
747.255	0.0128695
747.333	0.0128468
747.411	0.0130743
747.489	0.0129951
747.568	0.0130766
747.646	0.0132685
747.724	0.0133092
747.802	0.0134952
747.880	0.0133961
747.958	0.0136005
748.036	0.0137026
748.114	0.0137068
748.193	0.0138604
748.271	0.0139364
748.349	0.0137957
748.427	0.0138007
748.505	0.0138720
748.583	0.0138115
748.661	0.0138458
748.739	0.0139924
748.818	0.0137840
748.896	0.0138206
748.974	0.0136909
749.052	0.0136582
749.130	0.0136844
749.208	0.0138432
749.286	0.0136073
749.364	0.0136353
749.443	0.0137238
749.521	0.0138238
749.599	0.0137166
749.677	0.0138379
749.755	0.0137825
749.833	0.0137821
749.911	0.0139664
749.989	0.0137711
750.068	0.0140901
750.146	0.0139848
750.224	0.0138596
750.302	0.0138516
750.380	0.0140749
750.458	0.0140479
750.536	0.0138806
750.614	0.0139473
750.693	0.0140314
750.771	0.0140140
750.849	0.0138401
750.927	0.0138776
751.005	0.0138367
751.083	0.0137900
751.161	0.0138182
751.239	0.0137919
751.318	0.0137463
751.396	0.0138338
751.474	0.0136396
751.552	0.0136178
751.630	0.0135968
751.708	0.0134357
751.786	0.0135240
751.864	0.0136819
751.943	0.0134756
752.021	0.0134853
752.099	0.0135802
752.177	0.0136720
752.255	0.0135452
752.333	0.0136048
752.411	0.0137319
752.489	0.0138416
752.568	0.0137819
752.646	0.0137968
752.724	0.0137933
752.802	0.0136414
752.880	0.0136612
752.958	0.0135414
753.036	0.0136089
753.114	0.0134713
753.193	0.0135226
753.271	0.0133149
753.349	0.0132414
753.427	0.0132602
753.505	0.0133379
753.583	0.0132092
753.661	0.0132136
753.739	0.0131771
753.818	0.0132178
753.896	0.0133482
753.974	0.0132744
754.052	0.0132993
754.130	0.0134480
754.208	0.0134458
754.286	0.0135889
754.364	0.0135851
754.443	0.0137863
754.521	0.0137649
754.599	0.0139747
754.677	0.0138783
754.755	0.0138725
754.833	0.0140381
754.911	0.0140765
754.989	0.0138085
755.068	0.0139885
755.146	0.0141057
755.224	0.0140961
755.302	0.0139923
755.380	0.0140670
755.458	0.0140094
755.536	0.0141010
755.614	0.0141666
755.693	0.0142913
755.771	0.0141417
755.849	0.0141562
755.927	0.0141922
756.005	0.0142748
756.083	0.0142133
756.161	0.0142833
756.239	0.0142424
756.318	0.0141550
756.396	0.0141468
756.474	0.0141351
756.552	0.0140366
756.630	0.0140331
756.708	0.0139668
756.786	0.0139732
756.864	0.0138071
756.943	0.0137513
757.021	0.0135471
757.099	0.0136122
757.177	0.0136256
757.255	0.0134779
757.333	0.0135249
757.411	0.0135015
757.489	0.0136082
757.568	0.0133957
757.646	0.0133894
757.724	0.0133593
757.802	0.0132352
757.880	0.0134882
757.958	0.0135980
758.036	0.0135123
758.114	0.0136501
758.193	0.0137321
758.271	0.0135878
758.349	0.0136723
758.427	0.0138253
758.505	0.0136612
758.583	0.0138440
758.661	0.0139987
758.739	0.0138280
758.818	0.0138403
758.896	0.0140162
758.974	0.0141259
759.052	0.0140572
759.130	0.0139929
759.208	0.0139275
759.286	0.0138218
759.364	0.0139494
759.443	0.0141521
759.521	0.0138600
759.599	0.0138963
759.677	0.0139826
759.755	0.0136358
759.833	0.0135775
759.911	0.0134647
759.989	0.0134340
760.068	0.0134900
760.146	0.0133887
760.224	0.0133922
760.302	0.0133796
760.380	0.0131628
760.458	0.0132619
760.536	0.0133244
760.614	0.0133690
760.693	0.0135587
760.771	0.0132555
760.849	0.0133552
760.927	0.0133241
761.005	0.0134683
761.083	0.0135130
761.161	0.0133767
761.239	0.0136471
761.318	0.0136440
761.396	0.0136021
761.474	0.0135587
761.552	0.0136293
761.630	0.0137884
761.708	0.0136867
761.786	0.0137434
761.864	0.0136741
761.943	0.0138612
762.021	0.0138754
762.099	0.0138816
762.177	0.0139095
762.255	0.0139530
762.333	0.0140009
762.411	0.0140291
762.489	0.0140053
762.568	0.0140710
762.646	0.0140446
762.724	0.0140596
762.802	0.0139757
762.880	0.0139368
762.958	0.0140461
763.036	0.0140868
763.114	0.0139632
763.193	0.0140003
763.271	0.0139729
763.349	0.0139982
763.427	0.0140001
763.505	0.0138976
763.583	0.0139104
763.661	0.0137979
763.739	0.0137578
763.818	0.0137320
763.896	0.0138042
763.974	0.0136064
764.052	0.0137132
764.130	0.0134216
764.208	0.0135361
764.286	0.0134175
764.364	0.0134183
764.443	0.0133873
764.521	0.0133825
764.599	0.0132902
764.677	0.0131976
764.755	0.0132430
764.833	0.0132255
764.911	0.0133407
764.989	0.0131999
765.068	0.0132925
765.146	0.0132907
765.224	0.0132957
765.302	0.0133064
765.380	0.0132410
765.458	0.0132841
765.536	0.0134885
765.614	0.0134021
765.693	0.0135771
765.771	0.0133630
765.849	0.0136285
765.927	0.0135144
766.005	0.0134962
766.083	0.0134820
766.161	0.0136207
766.239	0.0136080
766.318	0.0138265
766.396	0.0138094
766.474	0.0137188
766.552	0.0137305
766.630	0.0138491
766.708	0.0137601
766.786	0.0137199
766.864	0.0138382
766.943	0.0139725
767.021	0.0139598
767.099	0.0139030
767.177	0.0138826
767.255	0.0136736
767.333	0.0137858
767.411	0.0136677
767.489	0.0137523
767.568	0.0137624
767.646	0.0137206
767.724	0.0137273
767.802	0.0135890
767.880	0.0137272
767.958	0.0136162
768.036	0.0136441
768.114	0.0137440
768.193	0.0137561
768.271	0.0137358
768.349	0.0136641
768.427	0.0136993
768.505	0.0137383
768.583	0.0137389
768.661	0.0137141
768.739	0.0137325
768.818	0.0135830
768.896	0.0138749
768.974	0.0136877
769.052	0.0137430
769.130	0.0137308
769.208	0.0137086
769.286	0.0135262
769.364	0.0136200
769.443	0.0135240
769.521	0.0136939
769.599	0.0135448
769.677	0.0134523
769.755	0.0136508
769.833	0.0136284
769.911	0.0134716
769.989	0.0135202
770.068	0.0134066
770.146	0.0135902
770.224	0.0133971
770.302	0.0134550
770.380	0.0132799
770.458	0.0132629
770.536	0.0132446
770.614	0.0132197
770.693	0.0132092
770.771	0.0130867
770.849	0.0130842
770.927	0.0132538
771.005	0.0133918
771.083	0.0132574
771.161	0.0133112
771.239	0.0133568
771.318	0.0134857
771.396	0.0136190
771.474	0.0135803
771.552	0.0137759
771.630	0.0136559
771.708	0.0137040
771.786	0.0139275
771.864	0.0138917
771.943	0.0140157
772.021	0.0140968
772.099	0.0141463
772.177	0.0141829
772.255	0.0141852
772.333	0.0141207
772.411	0.0142871
772.489	0.0142036
772.568	0.0142393
772.646	0.0141544
772.724	0.0141904
772.802	0.0139841
772.880	0.0139201
772.958	0.0139911
773.036	0.0139460
773.114	0.0138908
773.193	0.0138380
773.271	0.0138672
773.349	0.0136680
773.427	0.0136344
773.505	0.0135233
773.583	0.0135802
773.661	0.0135661
773.739	0.0134090
773.818	0.0134605
773.896	0.0133552
773.974	0.0132504
774.052	0.0131394
774.130	0.0130521
774.208	0.0129720
774.286	0.0131050
774.364	0.0129815
774.443	0.0129981
774.521	0.0129852
774.599	0.0129572
774.677	0.0128599
774.755	0.0128579
774.833	0.0130421
774.911	0.0131470
774.989	0.0131317
775.068	0.0132594
775.146	0.0133120
775.224	0.0133811
775.302	0.0134862
775.380	0.0136110
775.458	0.0136316
775.536	0.0137620
775.614	0.0137711
775.693	0.0139329
775.771	0.0139478
775.849	0.0142556
775.927	0.0142646
776.005	0.0142741
776.083	0.0142509
776.161	0.0143230
776.239	0.0143555
776.318	0.0144067
776.396	0.0146030
776.474	0.0145046
776.552	0.0145546
776.630	0.0145605
776.708	0.0145857
776.786	0.0145026
776.864	0.0143358
776.943	0.0143484
777.021	0.0145102
777.099	0.0143913
777.177	0.0142093
777.255	0.0141007
777.333	0.0140948
777.411	0.0139143
777.489	0.0139155
777.568	0.0138924
777.646	0.0136258
777.724	0.0135756
777.802	0.0134644
777.880	0.0135236
777.958	0.0136277
778.036	0.0134747
778.114	0.0133414
778.193	0.0134389
778.271	0.0133107
778.349	0.0132720
778.427	0.0133944
778.505	0.0133701
778.583	0.0131067
778.661	0.0133285
778.739	0.0132159
778.818	0.0132456
778.896	0.0133698
778.974	0.0133146
779.052	0.0134241
779.130	0.0135057
779.208	0.0134858
779.286	0.0135697
779.364	0.0134810
779.443	0.0137477
779.521	0.0137042
779.599	0.0137656
779.677	0.0138927
779.755	0.0138918
779.833	0.0137312
779.911	0.0140085
779.989	0.0140246
780.068	0.0140146
780.146	0.0141175
780.224	0.0139656
780.302	0.0140760
780.380	0.0140631
780.458	0.0139796
780.536	0.0138819
780.614	0.0140413
780.693	0.0140842
780.771	0.0140349
780.849	0.0139212
780.927	0.0139589
781.005	0.0139881
781.083	0.0139978
781.161	0.0138942
781.239	0.0138554
781.318	0.0138218
781.396	0.0138068
781.474	0.0137377
781.552	0.0137332
781.630	0.0138108
781.708	0.0136080
781.786	0.0136137
781.864	0.0135417
781.943	0.0134927
782.021	0.0135264
782.099	0.0133826
782.177	0.0133844
782.255	0.0134420
782.333	0.0134068
782.411	0.0133908
782.489	0.0131976
782.568	0.0132912
782.646	0.0133862
782.724	0.0134527
782.802	0.0135283
782.880	0.0133990
782.958	0.0134612
783.036	0.0133834
783.114	0.0134937
783.193	0.0133443
783.271	0.0135595
783.349	0.0136246
783.427	0.0135197
783.505	0.0134874
783.583	0.0135568
783.661	0.0135503
783.739	0.0135634
783.818	0.0135410
783.896	0.0136555
783.974	0.0137066
784.052	0.0137382
784.130	0.0137370
784.208	0.0136092
784.286	0.0139481
784.364	0.0138065
784.443	0.0138421
784.521	0.0138688
784.599	0.0140847
784.677	0.0140960
784.755	0.0140813
784.833	0.0141952
784.911	0.0142500
784.989	0.0144251
785.068	0.0142568
785.146	0.0142542
785.224	0.0144456
785.302	0.0141872
785.380	0.0141727
785.458	0.0142445
785.536	0.0142929
785.614	0.0142983
785.693	0.0141922
785.771	0.0140173
785.849	0.0139705
785.927	0.0139738
786.005	0.0140265
786.083	0.0139085
786.161	0.0138676
786.239	0.0138673
786.318	0.0137727
786.396	0.0137028
786.474	0.0137045
786.552	0.0136641
786.630	0.0134583
786.708	0.0135585
786.786	0.0134719
786.864	0.0132977
786.943	0.0134753
787.021	0.0134955
787.099	0.0134238
787.177	0.0134921
787.255	0.0132766
787.333	0.0133437
787.411	0.0132146
787.489	0.0133012
787.568	0.0132832
787.646	0.0132470
787.724	0.0132727
787.802	0.0132374
787.880	0.0132563
787.958	0.0132844
788.036	0.0131531
788.114	0.0132838
788.193	0.0131280
788.271	0.0133408
788.349	0.0133401
788.427	0.0133006
788.505	0.0133912
788.583	0.0134573
788.661	0.0134656
788.739	0.0135259
788.818	0.0136932
788.896	0.0137457
788.974	0.0138499
789.052	0.0139433
789.130	0.0140970
789.208	0.0141910
789.286	0.0144022
789.364	0.0143713
789.443	0.0144450
789.521	0.0144827
789.599	0.0145229
789.677	0.0145242
789.755	0.0144115
789.833	0.0145674
789.911	0.0146190
789.989	0.0144513
790.068	0.0145821
790.146	0.0144741
790.224	0.0145349
790.302	0.0144717
790.380	0.0142947
790.458	0.0142773
790.536	0.0141366
790.614	0.0140121
790.693	0.0140073
790.771	0.0139757
790.849	0.0138060
790.927	0.0137762
791.005	0.0136961
791.083	0.0136855
791.161	0.0136015
791.239	0.0135185
791.318	0.0135065
791.396	0.0134118
791.474	0.0133896
791.552	0.0133306
791.630	0.0133002
791.708	0.0132014
791.786	0.0132254
791.864	0.0131900
791.943	0.0130956
792.021	0.0132916
792.099	0.0130534
792.177	0.0130959
792.255	0.0130991
792.333	0.0130777
792.411	0.0130614
792.489	0.0129949
792.568	0.0131889
792.646	0.0130276
792.724	0.0130757
792.802	0.0130559
792.880	0.0131301
792.958	0.0131432
793.036	0.0132893
793.114	0.0133344
793.193	0.0133305
793.271	0.0134286
793.349	0.0135799
793.427	0.0136642
793.505	0.0136607
793.583	0.0137974
793.661	0.0137852
793.739	0.0138998
793.818	0.0141389
793.896	0.0141358
793.974	0.0141748
794.052	0.0141227
794.130	0.0142863
794.208	0.0141507
794.286	0.0141943
794.364	0.0141571
794.443	0.0142794
794.521	0.0142798
794.599	0.0140430
794.677	0.0140334
794.755	0.0139674
794.833	0.0140311
794.911	0.0139453
794.989	0.0139096
795.068	0.0139048
795.146	0.0138159
795.224	0.0138647
795.302	0.0138295
795.380	0.0138139
795.458	0.0138084
795.536	0.0138322
795.614	0.0138171
795.693	0.0137881
795.771	0.0137461
795.849	0.0138401
795.927	0.0138789
796.005	0.0139028
796.083	0.0137581
796.161	0.0138636
796.239	0.0138650
796.318	0.0137373
796.396	0.0138607
796.474	0.0138269
796.552	0.0137740
796.630	0.0135362
796.708	0.0137740
796.786	0.0137727
796.864	0.0136250
796.943	0.0135984
797.021	0.0136365
797.099	0.0135873
797.177	0.0136761
797.255	0.0135313
797.333	0.0135822
797.411	0.0134603
797.489	0.0133632
797.568	0.0135126
797.646	0.0134060
797.724	0.0132080
797.802	0.0134130
797.880	0.0132516
797.958	0.0132488
798.036	0.0132713
798.114	0.0132346
798.193	0.0132446
798.271	0.0133156
798.349	0.0133699
798.427	0.0133457
798.505	0.0133587
798.583	0.0134277
798.661	0.0133557
798.739	0.0133245
798.818	0.0134495
798.896	0.0135641
798.974	0.0136340
799.052	0.0135704
799.130	0.0137757
799.208	0.0136284
799.286	0.0137652
799.364	0.0136820
799.443	0.0137302
799.521	0.0138126
799.599	0.0137759
799.677	0.0139352
799.755	0.0139755
799.833	0.0138550
799.911	0.0138885
799.989	0.0140372
800.068	0.0141216
800.146	0.0141790
800.224	0.0141723
800.302	0.0142435
800.380	0.0142395
800.458	0.0142265
800.536	0.0141563
800.614	0.0143042
800.693	0.0143247
800.771	0.0140056
800.849	0.0139821
800.927	0.0138695
801.005	0.0138766
801.083	0.0137827
801.161	0.0138213
801.239	0.0138112
801.318	0.0135632
801.396	0.0136469
801.474	0.0135622
801.552	0.0134908
801.630	0.0134932
801.708	0.0135828
801.786	0.0136665
801.864	0.0133358
801.943	0.0134342
802.021	0.0135904
802.099	0.0135326
802.177	0.0134759
802.255	0.0134544
802.333	0.0135400
802.411	0.0134599
802.489	0.0133672
802.568	0.0135455
802.646	0.0134644
802.724	0.0133944
802.802	0.0133578
802.880	0.0136161
802.958	0.0135825
803.036	0.0135487
803.114	0.0135204
803.193	0.0135295
803.271	0.0134913
803.349	0.0136398
803.427	0.0136234
803.505	0.0134994
803.583	0.0134130
803.661	0.0135354
803.739	0.0135602
803.818	0.0136527
803.896	0.0134898
803.974	0.0133924
804.052	0.0133607
804.130	0.0135300
804.208	0.0135143
804.286	0.0134057
804.364	0.0134758
804.443	0.0135158
804.521	0.0135126
804.599	0.0134020
804.677	0.0134813
804.755	0.0135027
804.833	0.0134261
804.911	0.0135551
804.989	0.0135639
805.068	0.0136648
805.146	0.0136435
805.224	0.0136254
805.302	0.0136829
805.380	0.0138255
805.458	0.0137949
805.536	0.0139139
805.614	0.0140048
805.693	0.0140934
805.771	0.0140820
805.849	0.0141663
805.927	0.0141823
806.005	0.0142903
806.083	0.0144642
806.161	0.0143987
806.239	0.0144588
806.318	0.0144424
806.396	0.0144392
806.474	0.0145177
806.552	0.0144572
806.630	0.0144926
806.708	0.0145838
806.786	0.0143981
806.864	0.0143751
806.943	0.0143005
807.021	0.0141730
807.099	0.0142065
807.177	0.0139790
807.255	0.0139217
807.333	0.0138973
807.411	0.0137709
807.489	0.0136569
807.568	0.0137115
807.646	0.0135211
807.724	0.0134083
807.802	0.0134079
807.880	0.0132397
807.958	0.0132634
808.036	0.0132495
808.114	0.0132021
808.193	0.0131970
808.271	0.0133666
808.349	0.0133619
808.427	0.0134273
808.505	0.0132538
808.583	0.0131949
808.661	0.0133107
808.739	0.0135172
808.818	0.0134435
808.896	0.0132956
808.974	0.0133619
809.052	0.0134589
809.130	0.0134695
809.208	0.0133656
809.286	0.0135396
809.364	0.0134245
809.443	0.0133897
809.521	0.0132803
809.599	0.0134226
809.677	0.0134058
809.755	0.0136118
809.833	0.0135683
809.911	0.0134558
809.989	0.0135953
810.068	0.0135506
810.146	0.0137324
810.224	0.0136900
810.302	0.0137152
810.380	0.0139970
810.458	0.0138456
810.536	0.0138690
810.614	0.0140803
810.693	0.0141840
810.771	0.0142371
810.849	0.0142683
810.927	0.0142599
811.005	0.0141167
811.083	0.0141631
811.161	0.0144157
811.239	0.0143346
811.318	0.0143690
811.396	0.0144095
811.474	0.0143658
811.552	0.0142857
811.630	0.0141490
811.708	0.0141276
811.786	0.0143207
811.864	0.0141946
811.943	0.0142047
812.021	0.0142176
812.099	0.0139948
812.177	0.0141644
812.255	0.0141300
812.333	0.0139919
812.411	0.0139903
812.489	0.0140358
812.568	0.0138884
812.646	0.0139612
812.724	0.0140702
812.802	0.0139090
812.880	0.0138542
812.958	0.0139865
813.036	0.0140093
813.114	0.0139252
813.193	0.0137455
813.271	0.0137334
813.349	0.0137817
813.427	0.0138291
813.505	0.0137341
813.583	0.0138023
813.661	0.0136016
813.739	0.0135258
813.818	0.0134631
813.896	0.0135304
813.974	0.0134949
814.052	0.0132959
814.130	0.0132415
814.208	0.0132516
814.286	0.0132361
814.364	0.0132751
814.443	0.0132080
814.521	0.0130702
814.599	0.0129999
814.677	0.0131984
814.755	0.0132128
814.833	0.0131499
814.911	0.0133260
814.989	0.0133471
815.068	0.0132394
815.146	0.0133832
815.224	0.0136166
815.302	0.0135909
815.380	0.0136850
815.458	0.0136276
815.536	0.0137542
815.614	0.0137660
815.693	0.0138721
815.771	0.0140916
815.849	0.0140023
815.927	0.0139551
816.005	0.0139268
816.083	0.0140624
816.161	0.0140730
816.239	0.0142177
816.318	0.0142400
816.396	0.0140973
816.474	0.0140780
816.552	0.0141329
816.630	0.0142597
816.708	0.0141634
816.786	0.0140849
816.864	0.0140781
816.943	0.0142417
817.021	0.0142345
817.099	0.0142171
817.177	0.0140961
817.255	0.0140339
817.333	0.0140761
817.411	0.0139904
817.489	0.0140454
817.568	0.0142265
817.646	0.0139573
817.724	0.0140196
817.802	0.0139458
817.880	0.0139185
817.958	0.0139507
818.036	0.0140342
818.114	0.0139291
818.193	0.0137348
818.271	0.0137057
818.349	0.0138114
818.427	0.0137815
818.505	0.0137486
818.583	0.0137673
818.661	0.0136517
818.739	0.0136743
818.818	0.0137254
818.896	0.0136608
818.974	0.0136549
819.052	0.0135743
819.130	0.0137699
819.208	0.0136895
819.286	0.0136977
819.364	0.0136322
819.443	0.0135355
819.521	0.0135159
819.599	0.0136333
819.677	0.0136403
819.755	0.0134896
819.833	0.0135548
819.911	0.0136414
819.989	0.0137186
820.068	0.0137595
820.146	0.0135737
820.224	0.0136765
820.302	0.0135096
820.380	0.0137330
820.458	0.0138774
820.536	0.0136954
820.614	0.0138720
820.693	0.0137720
820.771	0.0137188
820.849	0.0137300
820.927	0.0137837
821.005	0.0138088
821.083	0.0138064
821.161	0.0137565
821.239	0.0138175
821.318	0.0137645
821.396	0.0138380
821.474	0.0137548
821.552	0.0139040
821.630	0.0140284
821.708	0.0138578
821.786	0.0140153
821.864	0.0138486
821.943	0.0139230
822.021	0.0139983
822.099	0.0138838
822.177	0.0137535
822.255	0.0136900
822.333	0.0137960
822.411	0.0137332
822.489	0.0137203
822.568	0.0137801
822.646	0.0138699
822.724	0.0136858
822.802	0.0137117
822.880	0.0136883
822.958	0.0136994
823.036	0.0137227
823.114	0.0137611
823.193	0.0136105
823.271	0.0135703
823.349	0.0136126
823.427	0.0135454
823.505	0.0136472
823.583	0.0135992
823.661	0.0136108
823.739	0.0137108
823.818	0.0136971
823.896	0.0137290
823.974	0.0136633
824.052	0.0137106
824.130	0.0136872
824.208	0.0136844
824.286	0.0136810
824.364	0.0137102
824.443	0.0137865
824.521	0.0138317
824.599	0.0138181
824.677	0.0136543
824.755	0.0135428
824.833	0.0136697
824.911	0.0138112
824.989	0.0136889
825.068	0.0135772
825.146	0.0134415
825.224	0.0135368
825.302	0.0134811
825.380	0.0133686
825.458	0.0134376
825.536	0.0133932
825.614	0.0135758
825.693	0.0134683
825.771	0.0134879
825.849	0.0135420
825.927	0.0135406
826.005	0.0134103
826.083	0.0134628
826.161	0.0136670
826.239	0.0135759
826.318	0.0135400
826.396	0.0134770
826.474	0.0135035
826.552	0.0137757
826.630	0.0136456
826.708	0.0137318
826.786	0.0136555
826.864	0.0136929
826.943	0.0135977
827.021	0.0137211
827.099	0.0135850
827.177	0.0136520
827.255	0.0137704
827.333	0.0137314
827.411	0.0136466
827.489	0.0136575
827.568	0.0137244
827.646	0.0136442
827.724	0.0136616
827.802	0.0136687
827.880	0.0135970
827.958	0.0136015
828.036	0.0135573
828.114	0.0134207
828.193	0.0134703
828.271	0.0133681
828.349	0.0134366
828.427	0.0136063
828.505	0.0136082
828.583	0.0135069
828.661	0.0133803
828.739	0.0136475
828.818	0.0134692
828.896	0.0135368
828.974	0.0136063
829.052	0.0135571
829.130	0.0135761
829.208	0.0136050
829.286	0.0136644
829.364	0.0137716
829.443	0.0138076
829.521	0.0138367
829.599	0.0136849
829.677	0.0137733
829.755	0.0138868
829.833	0.0138541
829.911	0.0138459
829.989	0.0139470
830.068	0.0139684
830.146	0.0139882
830.224	0.0139500
830.302	0.0139275
830.380	0.0138388
830.458	0.0139302
830.536	0.0139013
830.614	0.0138422
830.693	0.0138739
830.771	0.0137941
830.849	0.0136034
830.927	0.0137376
831.005	0.0135603
831.083	0.0134974
831.161	0.0134763
831.239	0.0135188
831.318	0.0134550
831.396	0.0135813
831.474	0.0134729
831.552	0.0134385
831.630	0.0132959
831.708	0.0135580
831.786	0.0136179
831.864	0.0136012
831.943	0.0135921
832.021	0.0137382
832.099	0.0136942
832.177	0.0137304
832.255	0.0139503
832.333	0.0138355
832.411	0.0139098
832.489	0.0139893
832.568	0.0140653
832.646	0.0139269
832.724	0.0139138
832.802	0.0141039
832.880	0.0139460
832.958	0.0140171
833.036	0.0140501
833.114	0.0139084
833.193	0.0139513
833.271	0.0138662
833.349	0.0138171
833.427	0.0138313
833.505	0.0137514
833.583	0.0137560
833.661	0.0137726
833.739	0.0136032
833.818	0.0134840
833.896	0.0137593
833.974	0.0138349
834.052	0.0135954
834.130	0.0136442
834.208	0.0136340
834.286	0.0138781
834.364	0.0137103
834.443	0.0136767
834.521	0.0137683
834.599	0.0138485
834.677	0.0137990
834.755	0.0138361
834.833	0.0136086
834.911	0.0137325
834.989	0.0135810
835.068	0.0136797
835.146	0.0137564
835.224	0.0138170
835.302	0.0136103
835.380	0.0136183
835.458	0.0137293
835.536	0.0136298
835.614	0.0136055
835.693	0.0137733
835.771	0.0135698
835.849	0.0137109
835.927	0.0136599
836.005	0.0137342
836.083	0.0136916
836.161	0.0136296
836.239	0.0137955
836.318	0.0137444
836.396	0.0137597
836.474	0.0136932
836.552	0.0138136
836.630	0.0139005
836.708	0.0139400
836.786	0.0138743
836.864	0.0138683
836.943	0.0138577
837.021	0.0138098
837.099	0.0140466
837.177	0.0138056
837.255	0.0138047
837.333	0.0137911
837.411	0.0139506
837.489	0.0139805
837.568	0.0138610
837.646	0.0139023
837.724	0.0137494
837.802	0.0137866
837.880	0.0136624
837.958	0.0136897
838.036	0.0136109
838.114	0.0136327
838.193	0.0135443
838.271	0.0135857
838.349	0.0135027
838.427	0.0135745
838.505	0.0136571
838.583	0.0136339
838.661	0.0136562
838.739	0.0135271
838.818	0.0137073
838.896	0.0136134
838.974	0.0135559
839.052	0.0136192
839.130	0.0137945
839.208	0.0138271
839.286	0.0137257
839.364	0.0138505
839.443	0.0136694
839.521	0.0137214
839.599	0.0137424
839.677	0.0139455
839.755	0.0138137
839.833	0.0138802
839.911	0.0138892
839.989	0.0139718
840.068	0.0138540
840.146	0.0139483
840.224	0.0138326
840.302	0.0136888
840.380	0.0139150
840.458	0.0140333
840.536	0.0139523
840.614	0.0137996
840.693	0.0138689
840.771	0.0138435
840.849	0.0140775
840.927	0.0139703
841.005	0.0138386
841.083	0.0138539
841.161	0.0138870
841.239	0.0138446
841.318	0.0139552
841.396	0.0139022
841.474	0.0138537
841.552	0.0139989
841.630	0.0139899
841.708	0.0139118
841.786	0.0138459
841.864	0.0138994
841.943	0.0138924
842.021	0.0139182
842.099	0.0138834
842.177	0.0138995
842.255	0.0137791
842.333	0.0138995
842.411	0.0140591
842.489	0.0139902
842.568	0.0138126
842.646	0.0139161
842.724	0.0138554
842.802	0.0139589
842.880	0.0139664
842.958	0.0138577
843.036	0.0137800
843.114	0.0138758
843.193	0.0138513
843.271	0.0137129
843.349	0.0137712
843.427	0.0137676
843.505	0.0137392
843.583	0.0136388
843.661	0.0134570
843.739	0.0135448
843.818	0.0136441
843.896	0.0136914
843.974	0.0136012
844.052	0.0134923
844.130	0.0135950
844.208	0.0136538
844.286	0.0134525
844.364	0.0134791
844.443	0.0135777
844.521	0.0135575
844.599	0.0135564
844.677	0.0134130
844.755	0.0135260
844.833	0.0136455
844.911	0.0136877
844.989	0.0136326
845.068	0.0134538
845.146	0.0135036
845.224	0.0137442
845.302	0.0135609
845.380	0.0136766
845.458	0.0136629
845.536	0.0136534
845.614	0.0138343
845.693	0.0137364
845.771	0.0136743
845.849	0.0138602
845.927	0.0139520
846.005	0.0137487
846.083	0.0138479
846.161	0.0138804
846.239	0.0138900
846.318	0.0138472
846.396	0.0137453
846.474	0.0139008
846.552	0.0138110
846.630	0.0137913
846.708	0.0136803
846.786	0.0136658
846.864	0.0137015
846.943	0.0135873
847.021	0.0136137
847.099	0.0136578
847.177	0.0134663
847.255	0.0133612
847.333	0.0135027
847.411	0.0135197
847.489	0.0135696
847.568	0.0135967
847.646	0.0135442
847.724	0.0134885
847.802	0.0135059
847.880	0.0135114
847.958	0.0135577
848.036	0.0137114
848.114	0.0137428
848.193	0.0136404
848.271	0.0137311
848.349	0.0137354
848.427	0.0138403
848.505	0.0139130
848.583	0.0138844
848.661	0.0137524
848.739	0.0137262
848.818	0.0137586
848.896	0.0138145
848.974	0.0137529
849.052	0.0138271
849.130	0.0139922
849.208	0.0138396
849.286	0.0139134
849.364	0.0137751
849.443	0.0136921
849.521	0.0138332
849.599	0.0136543
849.677	0.0136549
849.755	0.0137381
849.833	0.0136375
849.911	0.0136950
849.989	0.0136471
850.068	0.0135965
850.146	0.0134943
850.224	0.0134954
850.302	0.0135492
850.380	0.0134287
850.458	0.0133937
850.536	0.0133483
850.614	0.0133696
850.693	0.0134566
850.771	0.0134063
850.849	0.0133619
850.927	0.0133661
851.005	0.0133254
851.083	0.0134914
851.161	0.0134007
851.239	0.0133936
851.318	0.0135487
851.396	0.0133789
851.474	0.0136010
851.552	0.0136930
851.630	0.0136103
851.708	0.0136541
851.786	0.0136824
851.864	0.0136427
851.943	0.0136433
852.021	0.0136726
852.099	0.0137578
852.177	0.0136510
852.255	0.0136983
852.333	0.0138375
852.411	0.0138070
852.489	0.0137809
852.568	0.0138035
852.646	0.0138232
852.724	0.0136919
852.802	0.0135961
852.880	0.0138431
852.958	0.0138869
853.036	0.0137988
853.114	0.0136352
853.193	0.0137822
853.271	0.0138313
853.349	0.0137442
853.427	0.0138762
853.505	0.0138572
853.583	0.0138087
853.661	0.0139418
853.739	0.0138132
853.818	0.0137933
853.896	0.0138632
853.974	0.0137920
854.052	0.0137213
854.130	0.0138786
854.208	0.0138079
854.286	0.0136737
854.364	0.0138171
854.443	0.0139321
854.521	0.0137348
854.599	0.0137488
854.677	0.0136897
854.755	0.0138674
854.833	0.0136287
854.911	0.0137037
854.989	0.0137579
855.068	0.0138432
855.146	0.0137083
855.224	0.0137744
855.302	0.0137759
855.380	0.0137401
855.458	0.0137577
855.536	0.0137535
855.614	0.0138530
855.693	0.0137038
855.771	0.0137175
855.849	0.0137042
855.927	0.0137398
856.005	0.0136981
856.083	0.0136279
856.161	0.0136735
856.239	0.0138014
856.318	0.0135522
856.396	0.0135420
856.474	0.0134468
856.552	0.0135999
856.630	0.0135615
856.708	0.0134829
856.786	0.0134869
856.864	0.0134968
856.943	0.0135794
857.021	0.0136018
857.099	0.0133404
857.177	0.0135464
857.255	0.0134975
857.333	0.0136064
857.411	0.0136415
857.489	0.0134992
857.568	0.0134848
857.646	0.0134737
857.724	0.0134778
857.802	0.0134679
857.880	0.0137187
857.958	0.0135455
858.036	0.0135649
858.114	0.0135571
858.193	0.0134929
858.271	0.0135994
858.349	0.0135341
858.427	0.0135950
858.505	0.0135657
858.583	0.0136620
858.661	0.0136842
858.739	0.0136949
858.818	0.0136530
858.896	0.0139094
858.974	0.0138444
859.052	0.0137330
859.130	0.0138224
859.208	0.0137449
859.286	0.0138792
859.364	0.0139680
859.443	0.0139404
859.521	0.0140235
859.599	0.0139178
859.677	0.0138953
859.755	0.0139705
859.833	0.0138761
859.911	0.0138577
859.989	0.0137503
860.068	0.0139324
860.146	0.0138425
860.224	0.0139588
860.302	0.0138209
860.380	0.0138000
860.458	0.0138422
860.536	0.0136123
860.614	0.0136842
860.693	0.0135301
860.771	0.0135933
860.849	0.0134985
860.927	0.0134807
861.005	0.0135467
861.083	0.0135946
861.161	0.0134289
861.239	0.0135232
861.318	0.0134690
861.396	0.0135498
861.474	0.0135339
861.552	0.0134827
861.630	0.0136056
861.708	0.0135464
861.786	0.0134709
861.864	0.0135501
861.943	0.0136308
862.021	0.0136025
862.099	0.0135931
862.177	0.0134428
862.255	0.0136198
862.333	0.0137088
862.411	0.0138277
862.489	0.0136655
862.568	0.0136362
862.646	0.0136685
862.724	0.0136732
862.802	0.0136903
862.880	0.0136966
862.958	0.0137061
863.036	0.0137549
863.114	0.0135766
863.193	0.0137241
863.271	0.0137054
863.349	0.0136208
863.427	0.0136585
863.505	0.0136861
863.583	0.0137401
863.661	0.0136401
863.739	0.0136984
863.818	0.0137905
863.896	0.0136552
863.974	0.0137732
864.052	0.0137048
864.130	0.0138203
864.208	0.0138403
864.286	0.0140472
864.364	0.0138792
864.443	0.0140400
864.521	0.0140455
864.599	0.0139038
864.677	0.0139002
864.755	0.0140221
864.833	0.0140038
864.911	0.0140638
864.989	0.0140672
865.068	0.0139698
865.146	0.0139933
865.224	0.0140567
865.302	0.0139119
865.380	0.0138252
865.458	0.0138005
865.536	0.0137785
865.614	0.0137930
865.693	0.0137972
865.771	0.0137489
865.849	0.0136436
865.927	0.0136083
866.005	0.0135334
866.083	0.0136150
866.161	0.0136231
866.239	0.0135924
866.318	0.0135794
866.396	0.0135321
866.474	0.0136796
866.552	0.0135206
866.630	0.0135461
866.708	0.0135445
866.786	0.0134662
866.864	0.0134941
866.943	0.0136034
867.021	0.0135921
867.099	0.0136481
867.177	0.0136111
867.255	0.0134966
867.333	0.0136745
867.411	0.0136098
867.489	0.0135160
867.568	0.0134975
867.646	0.0135847
867.724	0.0136209
867.802	0.0136960
867.880	0.0138479
867.958	0.0137751
868.036	0.0136954
868.114	0.0137223
868.193	0.0136992
868.271	0.0136724
868.349	0.0137983
868.427	0.0135500
868.505	0.0137189
868.583	0.0137472
868.661	0.0135416
868.739	0.0137744
868.818	0.0136327
868.896	0.0137492
868.974	0.0137940
869.052	0.0135973
869.130	0.0136292
869.208	0.0137377
869.286	0.0138728
869.364	0.0136814
869.443	0.0136362
869.521	0.0138018
869.599	0.0139706
869.677	0.0137427
869.755	0.0136844
869.833	0.0138091
869.911	0.0138907
869.989	0.0138157
870.068	0.0137836
870.146	0.0138473
870.224	0.0138387
870.302	0.0138570
870.380	0.0138605
870.458	0.0138562
870.536	0.0138996
870.614	0.0138115
870.693	0.0138161
870.771	0.0138995
870.849	0.0138302
870.927	0.0138217
871.005	0.0137926
871.083	0.0137273
871.161	0.0137630
871.239	0.0135990
871.318	0.0136583
871.396	0.0136476
871.474	0.0138361
871.552	0.0137411
871.630	0.0135851
871.708	0.0136258
871.786	0.0136153
871.864	0.0136520
871.943	0.0137847
872.021	0.0136699
872.099	0.0137228
872.177	0.0135533
872.255	0.0136716
872.333	0.0136735
872.411	0.0136977
872.489	0.0136411
872.568	0.0136004
872.646	0.0135407
872.724	0.0136442
872.802	0.0136352
872.880	0.0135421
872.958	0.0135509
873.036	0.0134368
873.114	0.0135179
873.193	0.0136353
873.271	0.0135703
873.349	0.0135539
873.427	0.0134954
873.505	0.0135256
873.583	0.0135155
873.661	0.0135477
873.739	0.0135457
873.818	0.0136511
873.896	0.0136706
873.974	0.0135907
874.052	0.0137357
874.130	0.0136229
874.208	0.0137280
874.286	0.0137699
874.364	0.0136580
874.443	0.0139779
874.521	0.0138935
874.599	0.0139432
874.677	0.0140331
874.755	0.0138290
874.833	0.0139352
874.911	0.0140703
874.989	0.0140958
875.068	0.0140988
875.146	0.0139812
875.224	0.0140927
875.302	0.0140836
875.380	0.0140899
875.458	0.0142811
875.536	0.0141695
875.614	0.0140881
875.693	0.0140471
875.771	0.0141898
875.849	0.0141921
875.927	0.0140314
876.005	0.0140375
876.083	0.0141020
876.161	0.0139990
876.239	0.0140868
876.318	0.0138772
876.396	0.0139438
876.474	0.0138587
876.552	0.0138152
876.630	0.0138184
876.708	0.0138144
876.786	0.0137539
876.864	0.0135249
876.943	0.0137055
877.021	0.0137730
877.099	0.0137498
877.177	0.0135844
877.255	0.0137266
877.333	0.0136302
877.411	0.0137019
877.489	0.0136761
877.568	0.0135827
877.646	0.0137270
877.724	0.0137672
877.802	0.0137892
877.880	0.0137763
877.958	0.0137398
878.036	0.0137354
878.114	0.0138473
878.193	0.0136575
878.271	0.0137010
878.349	0.0137045
878.427	0.0138497
878.505	0.0137698
878.583	0.0137185
878.661	0.0137521
878.739	0.0135970
878.818	0.0136877
878.896	0.0137518
878.974	0.0136358
879.052	0.0136649
879.130	0.0136783
879.208	0.0136105
879.286	0.0135444
879.364	0.0137174
879.443	0.0136701
879.521	0.0134410
879.599	0.0136813
879.677	0.0135921
879.755	0.0135457
879.833	0.0135920
879.911	0.0137965
879.989	0.0136032
880.068	0.0135431
880.146	0.0136357
880.224	0.0136028
880.302	0.0136800
880.380	0.0136176
880.458	0.0136040
880.536	0.0136536
880.614	0.0136636
880.693	0.0137566
880.771	0.0136911
880.849	0.0135804
880.927	0.0136496
881.005	0.0136797
881.083	0.0136873
881.161	0.0136398
881.239	0.0137341
881.318	0.0136096
881.396	0.0138027
881.474	0.0137141
881.552	0.0135535
881.630	0.0134813
881.708	0.0136087
881.786	0.0136723
881.864	0.0136029
881.943	0.0137730
882.021	0.0138007
882.099	0.0138103
882.177	0.0138065
882.255	0.0136657
882.333	0.0136844
882.411	0.0137036
882.489	0.0137985
882.568	0.0137743
882.646	0.0137698
882.724	0.0137753
882.802	0.0138094
882.880	0.0137504
882.958	0.0137879
883.036	0.0138528
883.114	0.0137592
883.193	0.0137547
883.271	0.0138653
883.349	0.0137379
883.427	0.0136423
883.505	0.0137421
883.583	0.0136485
883.661	0.0138262
883.739	0.0138177
883.818	0.0137108
883.896	0.0136707
883.974	0.0135516
884.052	0.0136894
884.130	0.0137016
884.208	0.0136192
884.286	0.0134722
884.364	0.0134492
884.443	0.0135020
884.521	0.0134810
884.599	0.0134882
884.677	0.0133359
884.755	0.0134353
884.833	0.0134303
884.911	0.0134743
884.989	0.0134249
885.068	0.0134669
885.146	0.0134338
885.224	0.0134337
885.302	0.0136092
885.380	0.0135445
885.458	0.0135709
885.536	0.0136313
885.614	0.0135253
885.693	0.0136062
885.771	0.0136042
885.849	0.0136481
885.927	0.0137029
886.005	0.0137919
886.083	0.0137254
886.161	0.0137913
886.239	0.0138941
886.318	0.0136914
886.396	0.0137408
886.474	0.0136472
886.552	0.0136826
886.630	0.0136575
886.708	0.0137498
886.786	0.0138351
886.864	0.0138573
886.943	0.0136437
887.021	0.0136971
887.099	0.0136951
887.177	0.0138087
887.255	0.0138300
887.333	0.0137210
887.411	0.0137506
887.489	0.0138668
887.568	0.0138021
887.646	0.0137811
887.724	0.0136686
887.802	0.0137843
887.880	0.0139327
887.958	0.0137397
888.036	0.0136310
888.114	0.0135965
888.193	0.0136662
888.271	0.0137722
888.349	0.0136470
888.427	0.0136729
888.505	0.0136508
888.583	0.0137016
888.661	0.0135682
888.739	0.0135325
888.818	0.0137467
888.896	0.0136388
888.974	0.0136404
889.052	0.0134753
889.130	0.0135609
889.208	0.0137416
889.286	0.0137344
889.364	0.0135608
889.443	0.0137284
889.521	0.0137006
889.599	0.0137292
889.677	0.0136925
889.755	0.0137244
889.833	0.0136951
889.911	0.0136490
889.989	0.0138492
890.068	0.0137827
890.146	0.0137469
890.224	0.0139402
890.302	0.0138840
890.380	0.0139309
890.458	0.0140025
890.536	0.0139813
890.614	0.0140273
890.693	0.0139241
890.771	0.0141184
890.849	0.0140585
890.927	0.0139869
891.005	0.0141987
891.083	0.0140829
891.161	0.0140186
891.239	0.0139129
891.318	0.0140264
891.396	0.0140359
891.474	0.0139453
891.552	0.0139234
891.630	0.0137774
891.708	0.0137544
891.786	0.0138376
891.864	0.0137297
891.943	0.0136259
892.021	0.0137010
892.099	0.0136482
892.177	0.0135223
892.255	0.0135653
892.333	0.0135111
892.411	0.0134638
892.489	0.0134930
892.568	0.0134994
892.646	0.0133962
892.724	0.0134091
892.802	0.0135482
892.880	0.0135252
892.958	0.0134602
893.036	0.0134261
893.114	0.0136060
893.193	0.0137054
893.271	0.0135677
893.349	0.0134454
893.427	0.0135809
893.505	0.0136591
893.583	0.0135989
893.661	0.0135419
893.739	0.0136610
893.818	0.0136130
893.896	0.0135205
893.974	0.0136428
894.052	0.0137708
894.130	0.0136652
894.208	0.0135578
894.286	0.0139015
894.364	0.0138316
894.443	0.0139195
894.521	0.0139011
894.599	0.0140637
894.677	0.0140389
894.755	0.0140532
894.833	0.0140015
894.911	0.0140592
894.989	0.0140232
895.068	0.0141227
895.146	0.0141943
895.224	0.0140556
895.302	0.0141455
895.380	0.0141454
895.458	0.0139722
895.536	0.0140458
895.614	0.0139111
895.693	0.0139287
895.771	0.0139482
895.849	0.0138760
895.927	0.0137322
896.005	0.0138016
896.083	0.0136136
896.161	0.0136266
896.239	0.0135532
896.318	0.0136097
896.396	0.0135189
896.474	0.0135785
896.552	0.0136408
896.630	0.0136835
896.708	0.0135513
896.786	0.0136124
896.864	0.0135650
896.943	0.0134554
897.021	0.0135672
897.099	0.0136487
897.177	0.0137457
897.255	0.0136919
897.333	0.0136866
897.411	0.0138350
897.489	0.0137931
897.568	0.0139334
897.646	0.0139014
897.724	0.0138436
897.802	0.0138222
897.880	0.0140870
897.958	0.0140239
898.036	0.0140157
898.114	0.0141666
898.193	0.0141064
898.271	0.0142924
898.349	0.0141440
898.427	0.0141729
898.505	0.0140433
898.583	0.0141393
898.661	0.0141724
898.739	0.0140966
898.818	0.0141185
898.896	0.0139605
898.974	0.0140320
899.052	0.0140186
899.130	0.0139150
899.208	0.0139194
899.286	0.0139996
899.364	0.0137875
899.443	0.0137953
899.521	0.0137682
899.599	0.0136616
899.677	0.0137136
899.755	0.0135227
899.833	0.0136890
899.911	0.0135658
899.989	0.0136269
900.068	0.0136094
900.146	0.0136770
900.224	0.0136713
900.302	0.0136234
900.380	0.0135671
900.458	0.0135471
900.536	0.0135702
900.614	0.0136276
900.693	0.0136021
900.771	0.0136775
900.849	0.0136708
900.927	0.0136609
901.005	0.0136340
901.083	0.0136618
901.161	0.0135842
901.239	0.0136336
901.318	0.0135708
901.396	0.0137814
901.474	0.0136945
901.552	0.0135278
901.630	0.0135799
901.708	0.0137254
901.786	0.0135223
901.864	0.0135227
901.943	0.0136625
902.021	0.0136728
902.099	0.0135744
902.177	0.0135811
902.255	0.0135790
902.333	0.0137185
902.411	0.0137930
902.489	0.0138334
902.568	0.0137640
902.646	0.0138799
902.724	0.0136829
902.802	0.0137661
902.880	0.0137582
902.958	0.0138937
903.036	0.0138390
903.114	0.0139698
903.193	0.0138013
903.271	0.0136831
903.349	0.0139787
903.427	0.0138272
903.505	0.0136750
903.583	0.0137915
903.661	0.0137531
903.739	0.0138329
903.818	0.0137948
903.896	0.0137619
903.974	0.0137468
904.052	0.0138021
904.130	0.0137470
904.208	0.0136720
904.286	0.0137400
904.364	0.0137380
904.443	0.0137718
904.521	0.0136935
904.599	0.0137931
904.677	0.0136185
904.755	0.0138071
904.833	0.0136569
904.911	0.0136941
904.989	0.0136282
905.068	0.0137604
905.146	0.0137635
905.224	0.0137805
905.302	0.0137505
905.380	0.0138166
905.458	0.0136868
905.536	0.0138228
905.614	0.0136752
905.693	0.0138089
905.771	0.0138808
905.849	0.0137979
905.927	0.0137679
906.005	0.0138445
906.083	0.0137491
906.161	0.0138095
906.239	0.0138058
906.318	0.0137224
906.396	0.0136994
906.474	0.0136783
906.552	0.0137988
906.630	0.0137472
906.708	0.0138029
906.786	0.0137807
906.864	0.0136834
906.943	0.0136948
907.021	0.0136864
907.099	0.0137577
907.177	0.0138111
907.255	0.0136509
907.333	0.0137408
907.411	0.0136498
907.489	0.0136214
907.568	0.0137370
907.646	0.0137802
907.724	0.0137505
907.802	0.0136351
907.880	0.0137660
907.958	0.0135846
908.036	0.0137858
908.114	0.0138273
908.193	0.0137740
908.271	0.0137485
908.349	0.0138670
908.427	0.0137830
908.505	0.0137872
908.583	0.0139304
908.661	0.0139085
908.739	0.0138705
908.818	0.0137021
908.896	0.0138689
908.974	0.0139781
909.052	0.0139190
909.130	0.0139032
909.208	0.0139299
909.286	0.0139442
909.364	0.0139124
909.443	0.0139626
909.521	0.0138781
909.599	0.0139999
909.677	0.0138809
909.755	0.0139384
909.833	0.0138190
909.911	0.0138590
909.989	0.0138948
910.068	0.0139095
910.146	0.0138708
910.224	0.0139325
910.302	0.0139555
910.380	0.0138431
910.458	0.0139088
910.536	0.0137466
910.614	0.0139790
910.693	0.0138427
910.771	0.0139503
910.849	0.0139043
910.927	0.0138934
911.005	0.0137000
911.083	0.0138525
911.161	0.0138194
911.239	0.0137868
911.318	0.0137405
911.396	0.0137503
911.474	0.0137517
911.552	0.0137005
911.630	0.0137031
911.708	0.0136762
911.786	0.0135880
911.864	0.0136554
911.943	0.0134691
912.021	0.0135337
912.099	0.0134217
912.177	0.0135814
912.255	0.0136810
912.333	0.0135957
912.411	0.0133978
912.489	0.0134470
912.568	0.0134499
912.646	0.0135427
912.724	0.0134433
912.802	0.0135155
912.880	0.0134220
912.958	0.0134998
913.036	0.0135995
913.114	0.0135777
913.193	0.0136748
913.271	0.0137835
913.349	0.0136806
913.427	0.0136632
913.505	0.0136761
913.583	0.0138058
913.661	0.0137782
913.739	0.0137207
913.818	0.0139207
913.896	0.0139249
913.974	0.0139323
914.052	0.0139143
914.130	0.0139458
914.208	0.0137635
914.286	0.0138624
914.364	0.0139224
914.443	0.0138089
914.521	0.0138444
914.599	0.0137996
914.677	0.0138817
914.755	0.0139230
914.833	0.0137707
914.911	0.0139201
914.989	0.0139427
915.068	0.0136931
915.146	0.0136600
915.224	0.0138650
915.302	0.0136792
915.380	0.0135633
915.458	0.0136890
915.536	0.0137297
915.614	0.0134444
915.693	0.0135201
915.771	0.0136426
915.849	0.0134512
915.927	0.0135217
916.005	0.0134952
916.083	0.0135317
916.161	0.0134075
916.239	0.0133063
916.318	0.0133582
916.396	0.0134232
916.474	0.0134534
916.552	0.0135131
916.630	0.0134403
916.708	0.0135026
916.786	0.0135175
916.864	0.0134924
916.943	0.0136060
917.021	0.0135826
917.099	0.0134814
917.177	0.0135340
917.255	0.0136543
917.333	0.0136309
917.411	0.0137408
917.489	0.0135656
917.568	0.0136812
917.646	0.0137363
917.724	0.0136674
917.802	0.0137155
917.880	0.0138638
917.958	0.0137621
918.036	0.0137097
918.114	0.0137309
918.193	0.0138340
918.271	0.0137000
918.349	0.0136739
918.427	0.0138864
918.505	0.0138212
918.583	0.0137923
918.661	0.0138045
918.739	0.0137856
918.818	0.0137900
918.896	0.0138546
918.974	0.0138699
919.052	0.0138889
919.130	0.0137035
919.208	0.0137579
919.286	0.0137560
919.364	0.0138066
919.443	0.0138345
919.521	0.0137498
919.599	0.0136614
919.677	0.0136996
919.755	0.0137040
919.833	0.0136071
919.911	0.0137443
919.989	0.0135342
920.068	0.0135959
920.146	0.0136937
920.224	0.0136589
920.302	0.0135512
920.380	0.0136202
920.458	0.0137309
920.536	0.0137745
920.614	0.0135674
920.693	0.0136568
920.771	0.0137012
920.849	0.0135218
920.927	0.0135842
921.005	0.0137025
921.083	0.0135451
921.161	0.0134563
921.239	0.0135374
921.318	0.0135139
921.396	0.0135741
921.474	0.0136302
921.552	0.0136018
921.630	0.0134668
921.708	0.0137467
921.786	0.0137922
921.864	0.0135062
921.943	0.0137186
922.021	0.0137478
922.099	0.0136287
922.177	0.0138567
922.255	0.0137376
922.333	0.0136880
922.411	0.0139427
922.489	0.0137096
922.568	0.0137834
922.646	0.0138124
922.724	0.0137183
922.802	0.0137878
922.880	0.0138630
922.958	0.0137564
923.036	0.0138444
923.114	0.0138800
923.193	0.0136099
923.271	0.0139156
923.349	0.0136977
923.427	0.0137344
923.505	0.0138180
923.583	0.0136497
923.661	0.0136519
923.739	0.0137484
923.818	0.0135551
923.896	0.0135482
923.974	0.0136019
924.052	0.0136460
924.130	0.0136390
924.208	0.0135753
924.286	0.0133959
924.364	0.0134992
924.443	0.0135853
924.521	0.0134784
924.599	0.0133648
924.677	0.0136023
924.755	0.0135409
924.833	0.0137278
924.911	0.0135963
924.989	0.0135721
925.068	0.0135513
925.146	0.0136853
925.224	0.0135095
925.302	0.0137511
925.380	0.0136136
925.458	0.0136502
925.536	0.0136723
925.614	0.0135880
925.693	0.0136984
925.771	0.0134927
925.849	0.0134264
925.927	0.0136355
926.005	0.0136366
926.083	0.0135992
926.161	0.0136493
926.239	0.0136252
926.318	0.0134068
926.396	0.0136969
926.474	0.0137615
926.552	0.0137374
926.630	0.0137868
926.708	0.0136848
926.786	0.0135630
926.864	0.0137309
926.943	0.0138182
927.021	0.0138976
927.099	0.0138267
927.177	0.0137521
927.255	0.0137450
927.333	0.0138567
927.411	0.0136675
927.489	0.0137917
927.568	0.0137572
927.646	0.0137837
927.724	0.0137233
927.802	0.0137085
927.880	0.0138263
927.958	0.0136903
928.036	0.0137117
928.114	0.0136828
928.193	0.0137020
928.271	0.0136396
928.349	0.0136187
928.427	0.0135705
928.505	0.0135088
928.583	0.0135963
928.661	0.0135541
928.739	0.0135949
928.818	0.0136697
928.896	0.0134454
928.974	0.0134114
929.052	0.0135149
929.130	0.0134707
929.208	0.0134843
929.286	0.0133710
929.364	0.0132896
929.443	0.0135002
929.521	0.0134727
929.599	0.0133858
929.677	0.0135175
929.755	0.0135546
929.833	0.0136079
929.911	0.0134896
929.989	0.0135085
930.068	0.0135797
930.146	0.0135343
930.224	0.0135767
930.302	0.0134608
930.380	0.0135484
930.458	0.0136285
930.536	0.0135847
930.614	0.0137378
930.693	0.0138102
930.771	0.0136250
930.849	0.0137790
930.927	0.0138023
931.005	0.0137298
931.083	0.0137852
931.161	0.0138439
931.239	0.0138678
931.318	0.0138079
931.396	0.0136883
931.474	0.0137924
931.552	0.0138343
931.630	0.0138432
931.708	0.0136838
931.786	0.0136330
931.864	0.0138058
931.943	0.0137261
932.021	0.0136771
932.099	0.0137612
932.177	0.0136468
932.255	0.0137251
932.333	0.0137319
932.411	0.0136421
932.489	0.0135960
932.568	0.0135900
932.646	0.0136819
932.724	0.0136333
932.802	0.0136816
932.880	0.0138107
932.958	0.0136710
933.036	0.0138136
933.114	0.0138692
933.193	0.0137248
933.271	0.0139771
933.349	0.0139501
933.427	0.0137625
933.505	0.0137206
933.583	0.0140199
933.661	0.0141357
933.739	0.0138125
933.818	0.0139286
933.896	0.0139434
933.974	0.0139925
934.052	0.0140503
934.130	0.0138960
934.208	0.0138432
934.286	0.0138625
934.364	0.0137632
934.443	0.0137375
934.521	0.0137945
934.599	0.0136877
934.677	0.0137899
934.755	0.0136163
934.833	0.0136296
934.911	0.0136520
934.989	0.0135048
935.068	0.0134579
935.146	0.0136129
935.224	0.0134595
935.302	0.0135645
935.380	0.0135076
935.458	0.0134972
935.536	0.0133656
935.614	0.0134911
935.693	0.0135332
935.771	0.0135523
935.849	0.0135040
935.927	0.0134787
936.005	0.0135340
936.083	0.0134904
936.161	0.0136024
936.239	0.0135274
936.318	0.0135387
936.396	0.0136326
936.474	0.0135778
936.552	0.0136881
936.630	0.0135177
936.708	0.0135915
936.786	0.0135354
936.864	0.0136289
936.943	0.0137022
937.021	0.0136968
937.099	0.0137049
937.177	0.0136559
937.255	0.0137056
937.333	0.0137682
937.411	0.0138181
937.489	0.0136620
937.568	0.0136607
937.646	0.0137344
937.724	0.0137270
937.802	0.0135877
937.880	0.0136871
937.958	0.0137787
938.036	0.0136740
938.114	0.0136578
938.193	0.0138853
938.271	0.0138891
938.349	0.0137550
938.427	0.0137627
938.505	0.0137096
938.583	0.0136585
938.661	0.0137736
938.739	0.0137850
938.818	0.0136649
938.896	0.0137137
938.974	0.0135847
939.052	0.0136071
939.130	0.0136452
939.208	0.0136143
939.286	0.0135751
939.364	0.0137132
939.443	0.0135416
939.521	0.0135175
939.599	0.0135476
939.677	0.0136487
939.755	0.0137085
939.833	0.0136950
939.911	0.0135768
939.989	0.0135579
940.068	0.0134789
940.146	0.0135901
940.224	0.0135034
940.302	0.0134528
940.380	0.0134464
940.458	0.0135426
940.536	0.0133631
940.614	0.0134755
940.693	0.0134224
940.771	0.0132848
940.849	0.0135851
940.927	0.0134834
941.005	0.0135462
941.083	0.0134317
941.161	0.0134997
941.239	0.0135715
941.318	0.0134965
941.396	0.0134813
941.474	0.0134684
941.552	0.0135375
941.630	0.0134975
941.708	0.0135899
941.786	0.0136441
941.864	0.0136651
941.943	0.0136627
942.021	0.0136326
942.099	0.0136115
942.177	0.0138578
942.255	0.0136020
942.333	0.0136578
942.411	0.0135558
942.489	0.0134721
942.568	0.0137006
942.646	0.0136641
942.724	0.0134951
942.802	0.0137405
942.880	0.0137471
942.958	0.0138651
943.036	0.0137518
943.114	0.0136455
943.193	0.0136897
943.271	0.0136957
943.349	0.0138666
943.427	0.0137095
943.505	0.0137578
943.583	0.0136672
943.661	0.0137839
943.739	0.0138078
943.818	0.0137764
943.896	0.0139391
943.974	0.0135885
944.052	0.0138242
944.130	0.0137121
944.208	0.0138337
944.286	0.0136964
944.364	0.0137537
944.443	0.0138396
944.521	0.0137052
944.599	0.0136283
944.677	0.0138361
944.755	0.0138090
944.833	0.0137250
944.911	0.0138603
944.989	0.0137892
945.068	0.0137202
945.146	0.0138486
945.224	0.0137699
945.302	0.0138188
945.380	0.0139978
945.458	0.0137733
945.536	0.0139043
945.614	0.0139552
945.693	0.0138670
945.771	0.0137370
945.849	0.0138488
945.927	0.0139555
946.005	0.0137532
946.083	0.0139139
946.161	0.0137538
946.239	0.0138061
946.318	0.0137751
946.396	0.0137769
946.474	0.0137101
946.552	0.0137464
946.630	0.0136717
946.708	0.0137109
946.786	0.0137830
946.864	0.0137825
946.943	0.0136438
947.021	0.0135802
947.099	0.0134193
947.177	0.0136036
947.255	0.0135100
947.333	0.0136693
947.411	0.0134544
947.489	0.0135326
947.568	0.0133952
947.646	0.0134647
947.724	0.0133638
947.802	0.0134144
947.880	0.0133408
947.958	0.0133448
948.036	0.0133759
948.114	0.0133405
948.193	0.0134500
948.271	0.0133019
948.349	0.0133463
948.427	0.0133228
948.505	0.0134235
948.583	0.0134904
948.661	0.0135165
948.739	0.0134002
948.818	0.0133886
948.896	0.0134226
948.974	0.0136172
949.052	0.0134254
949.130	0.0135496
949.208	0.0134513
949.286	0.0136201
949.364	0.0138160
949.443	0.0136800
949.521	0.0135323
949.599	0.0136485
949.677	0.0138164
949.755	0.0136015
949.833	0.0136014
949.911	0.0135573
949.989	0.0137022
950.068	0.0137068
950.146	0.0138403
950.224	0.0136611
950.302	0.0136719
950.380	0.0137148
950.458	0.0136842
950.536	0.0138316
950.614	0.0137020
950.693	0.0135000
950.771	0.0136999
950.849	0.0137019
950.927	0.0136185
951.005	0.0135046
951.083	0.0136855
951.161	0.0135879
951.239	0.0135194
951.318	0.0136393
951.396	0.0135120
951.474	0.0136273
951.552	0.0136363
951.630	0.0135632
951.708	0.0135101
951.786	0.0134988
951.864	0.0136359
951.943	0.0136115
952.021	0.0134649
952.099	0.0136671
952.177	0.0135094
952.255	0.0134694
952.333	0.0136726
952.411	0.0136590
952.489	0.0136562
952.568	0.0137548
952.646	0.0137499
952.724	0.0139194
952.802	0.0137038
952.880	0.0137763
952.958	0.0138778
953.036	0.0138677
953.114	0.0139344
953.193	0.0138689
953.271	0.0139102
953.349	0.0139146
953.427	0.0140026
953.505	0.0140741
953.583	0.0139581
953.661	0.0138235
953.739	0.0137732
953.818	0.0138898
953.896	0.0139831
953.974	0.0139001
954.052	0.0139768
954.130	0.0139420
954.208	0.0140414
954.286	0.0138412
954.364	0.0137818
954.443	0.0138210
954.521	0.0138469
954.599	0.0139213
954.677	0.0137337
954.755	0.0136883
954.833	0.0137738
954.911	0.0137991
954.989	0.0137695
955.068	0.0136774
955.146	0.0136433
955.224	0.0135242
955.302	0.0136940
955.380	0.0136864
955.458	0.0136363
955.536	0.0136150
955.614	0.0137453
955.693	0.0136306
955.771	0.0136636
955.849	0.0136534
955.927	0.0137538
956.005	0.0136297
956.083	0.0137598
956.161	0.0136742
956.239	0.0136149
956.318	0.0135216
956.396	0.0136958
956.474	0.0136456
956.552	0.0136958
956.630	0.0135724
956.708	0.0137063
956.786	0.0136864
956.864	0.0136742
956.943	0.0137634
957.021	0.0137039
957.099	0.0135913
957.177	0.0137926
957.255	0.0137569
957.333	0.0138409
957.411	0.0139199
957.489	0.0137601
957.568	0.0137502
957.646	0.0138279
957.724	0.0138433
957.802	0.0137763
957.880	0.0137698
957.958	0.0137326
958.036	0.0138020
958.114	0.0138335
958.193	0.0138037
958.271	0.0136689
958.349	0.0137282
958.427	0.0136598
958.505	0.0139073
958.583	0.0136655
958.661	0.0136928
958.739	0.0138450
958.818	0.0138799
958.896	0.0137860
958.974	0.0137154
959.052	0.0137934
959.130	0.0137527
959.208	0.0137077
959.286	0.0137540
959.364	0.0137550
959.443	0.0136834
959.521	0.0137099
959.599	0.0136823
959.677	0.0134358
959.755	0.0137353
959.833	0.0138068
959.911	0.0137409
