05/14/2022	16:43:52	Ver.	4.1	UNKNOWN
Optical Delay	639.989416	Delta X		0.078125	Sweeps	1	Scan Rate	0/0
Coordinates	Axis 1	NaN	Axis 2	NaN	Axis 3	NaN	Axis 4	NaN	Axis 5	NaN	Axis 6	0.000000
TX Power	0.000000	RX Power	0.000000

639.989	0.0139884
640.068	0.0141100
640.146	0.0140257
640.224	0.0139944
640.302	0.0139980
640.380	0.0140300
640.458	0.0140795
640.536	0.0141010
640.614	0.0139505
640.693	0.0140686
640.771	0.0141363
640.849	0.0141409
640.927	0.0139599
641.005	0.0140517
641.083	0.0140703
641.161	0.0140920
641.239	0.0141595
641.318	0.0141883
641.396	0.0140739
641.474	0.0141032
641.552	0.0140993
641.630	0.0140813
641.708	0.0141949
641.786	0.0141518
641.864	0.0141108
641.943	0.0140715
642.021	0.0142147
642.099	0.0141165
642.177	0.0140785
642.255	0.0141284
642.333	0.0140607
642.411	0.0141206
642.489	0.0140308
642.568	0.0142353
642.646	0.0142416
642.724	0.0142021
642.802	0.0142097
642.880	0.0140322
642.958	0.0140495
643.036	0.0141556
643.114	0.0143600
643.193	0.0140563
643.271	0.0142048
643.349	0.0142140
643.427	0.0141547
643.505	0.0141779
643.583	0.0141151
643.661	0.0140936
643.739	0.0140054
643.818	0.0141103
643.896	0.0141187
643.974	0.0141711
644.052	0.0140739
644.130	0.0142345
644.208	0.0142720
644.286	0.0141735
644.364	0.0141695
644.443	0.0142199
644.521	0.0141388
644.599	0.0142628
644.677	0.0142200
644.755	0.0142126
644.833	0.0139941
644.911	0.0142012
644.989	0.0142769
645.068	0.0142017
645.146	0.0140831
645.224	0.0141293
645.302	0.0141168
645.380	0.0141420
645.458	0.0141362
645.536	0.0142683
645.614	0.0141914
645.693	0.0141904
645.771	0.0141537
645.849	0.0140446
645.927	0.0140804
646.005	0.0140989
646.083	0.0142555
646.161	0.0142460
646.239	0.0141744
646.318	0.0140755
646.396	0.0140752
646.474	0.0142085
646.552	0.0140555
646.630	0.0140681
646.708	0.0141909
646.786	0.0141233
646.864	0.0141531
646.943	0.0141076
647.021	0.0140179
647.099	0.0141787
647.177	0.0142520
647.255	0.0142374
647.333	0.0140639
647.411	0.0140249
647.489	0.0141882
647.568	0.0141624
647.646	0.0141642
647.724	0.0142107
647.802	0.0141199
647.880	0.0141712
647.958	0.0142413
648.036	0.0140845
648.114	0.0141110
648.193	0.0141090
648.271	0.0141119
648.349	0.0140474
648.427	0.0140370
648.505	0.0141048
648.583	0.0141165
648.661	0.0140836
648.739	0.0141436
648.818	0.0140792
648.896	0.0138960
648.974	0.0138480
649.052	0.0141405
649.130	0.0140678
649.208	0.0140614
649.286	0.0139405
649.364	0.0139568
649.443	0.0138594
649.521	0.0139750
649.599	0.0139459
649.677	0.0138416
649.755	0.0138982
649.833	0.0139462
649.911	0.0139324
649.989	0.0139861
650.068	0.0139347
650.146	0.0139583
650.224	0.0139191
650.302	0.0138980
650.380	0.0138084
650.458	0.0139583
650.536	0.0138410
650.614	0.0139610
650.693	0.0138577
650.771	0.0139329
650.849	0.0138367
650.927	0.0137701
651.005	0.0137720
651.083	0.0138968
651.161	0.0140534
651.239	0.0139720
651.318	0.0139114
651.396	0.0138540
651.474	0.0138779
651.552	0.0138623
651.630	0.0139320
651.708	0.0139854
651.786	0.0139321
651.864	0.0140017
651.943	0.0140012
652.021	0.0138917
652.099	0.0138794
652.177	0.0140620
652.255	0.0138582
652.333	0.0139807
652.411	0.0139565
652.489	0.0140413
652.568	0.0139303
652.646	0.0139896
652.724	0.0140611
652.802	0.0140208
652.880	0.0139312
652.958	0.0139986
653.036	0.0139101
653.114	0.0138839
653.193	0.0140132
653.271	0.0139648
653.349	0.0140308
653.427	0.0139523
653.505	0.0138311
653.583	0.0140765
653.661	0.0139743
653.739	0.0139898
653.818	0.0140664
653.896	0.0140542
653.974	0.0140012
654.052	0.0139896
654.130	0.0139688
654.208	0.0140643
654.286	0.0139700
654.364	0.0139325
654.443	0.0139313
654.521	0.0139745
654.599	0.0140025
654.677	0.0140283
654.755	0.0141059
654.833	0.0140345
654.911	0.0140328
654.989	0.0139691
655.068	0.0138439
655.146	0.0139474
655.224	0.0139276
655.302	0.0139233
655.380	0.0138789
655.458	0.0139053
655.536	0.0139131
655.614	0.0138750
655.693	0.0138938
655.771	0.0140456
655.849	0.0139301
655.927	0.0137441
656.005	0.0137695
656.083	0.0137842
656.161	0.0137239
656.239	0.0138807
656.318	0.0138106
656.396	0.0138131
656.474	0.0138823
656.552	0.0138409
656.630	0.0137522
656.708	0.0138506
656.786	0.0137865
656.864	0.0138826
656.943	0.0137987
657.021	0.0136835
657.099	0.0137955
657.177	0.0137946
657.255	0.0137160
657.333	0.0137453
657.411	0.0137684
657.489	0.0137440
657.568	0.0138721
657.646	0.0137852
657.724	0.0136937
657.802	0.0138107
657.880	0.0138742
657.958	0.0138503
658.036	0.0138777
658.114	0.0138134
658.193	0.0137551
658.271	0.0138233
658.349	0.0139557
658.427	0.0139270
658.505	0.0137359
658.583	0.0138800
658.661	0.0138655
658.739	0.0137071
658.818	0.0137121
658.896	0.0137468
658.974	0.0138218
659.052	0.0136950
659.130	0.0138163
659.208	0.0138269
659.286	0.0137957
659.364	0.0136705
659.443	0.0137974
659.521	0.0137601
659.599	0.0137743
659.677	0.0138365
659.755	0.0140008
659.833	0.0139389
659.911	0.0138998
659.989	0.0138522
660.068	0.0138218
660.146	0.0137981
660.224	0.0138078
660.302	0.0137663
660.380	0.0139448
660.458	0.0139104
660.536	0.0139410
660.614	0.0139507
660.693	0.0139294
660.771	0.0138718
660.849	0.0138795
660.927	0.0139294
661.005	0.0140701
661.083	0.0140188
661.161	0.0140289
661.239	0.0140127
661.318	0.0139251
661.396	0.0139832
661.474	0.0139273
661.552	0.0139455
661.630	0.0138541
661.708	0.0139137
661.786	0.0139046
661.864	0.0138893
661.943	0.0138552
662.021	0.0140233
662.099	0.0140386
662.177	0.0138834
662.255	0.0139119
662.333	0.0139584
662.411	0.0139947
662.489	0.0139193
662.568	0.0138972
662.646	0.0139922
662.724	0.0140146
662.802	0.0139595
662.880	0.0139614
662.958	0.0139594
663.036	0.0139851
663.114	0.0139805
663.193	0.0139906
663.271	0.0140085
663.349	0.0140372
663.427	0.0139582
663.505	0.0140295
663.583	0.0139183
663.661	0.0139701
663.739	0.0140001
663.818	0.0139831
663.896	0.0140872
663.974	0.0140118
664.052	0.0138873
664.130	0.0139856
664.208	0.0140250
664.286	0.0139963
664.364	0.0140471
664.443	0.0140105
664.521	0.0140226
664.599	0.0139447
664.677	0.0139868
664.755	0.0142065
664.833	0.0140401
664.911	0.0140221
664.989	0.0141803
665.068	0.0140881
665.146	0.0139357
665.224	0.0139388
665.302	0.0141626
665.380	0.0141964
665.458	0.0140291
665.536	0.0140219
665.614	0.0139404
665.693	0.0140580
665.771	0.0140281
665.849	0.0139131
665.927	0.0140235
666.005	0.0140219
666.083	0.0139075
666.161	0.0140359
666.239	0.0140257
666.318	0.0139506
666.396	0.0139812
666.474	0.0141631
666.552	0.0140667
666.630	0.0142238
666.708	0.0141788
666.786	0.0141528
666.864	0.0142077
666.943	0.0141969
667.021	0.0142294
667.099	0.0142085
667.177	0.0142043
667.255	0.0140895
667.333	0.0143425
667.411	0.0141949
667.489	0.0142640
667.568	0.0141450
667.646	0.0142065
667.724	0.0141959
667.802	0.0141302
667.880	0.0140807
667.958	0.0140161
668.036	0.0140101
668.114	0.0139768
668.193	0.0139017
668.271	0.0138867
668.349	0.0137122
668.427	0.0137267
668.505	0.0137765
668.583	0.0138102
668.661	0.0136965
668.739	0.0138966
668.818	0.0137818
668.896	0.0138177
668.974	0.0140562
669.052	0.0139082
669.130	0.0139819
669.208	0.0141039
669.286	0.0141818
669.364	0.0143793
669.443	0.0142008
669.521	0.0143365
669.599	0.0144234
669.677	0.0143938
669.755	0.0143036
669.833	0.0142307
669.911	0.0143403
669.989	0.0141946
670.068	0.0142559
670.146	0.0142764
670.224	0.0141483
670.302	0.0140068
670.380	0.0141378
670.458	0.0139874
670.536	0.0139298
670.614	0.0138560
670.693	0.0137941
670.771	0.0138242
670.849	0.0137354
670.927	0.0137871
671.005	0.0137409
671.083	0.0137131
671.161	0.0138332
671.239	0.0138507
671.318	0.0139231
671.396	0.0139481
671.474	0.0140187
671.552	0.0143946
671.630	0.0142176
671.708	0.0143315
671.786	0.0143758
671.864	0.0145759
671.943	0.0145809
672.021	0.0147500
672.099	0.0147017
672.177	0.0146205
672.255	0.0145963
672.333	0.0146262
672.411	0.0146889
672.489	0.0143596
672.568	0.0143095
672.646	0.0142975
672.724	0.0141209
672.802	0.0138811
672.880	0.0137351
672.958	0.0136782
673.036	0.0136545
673.114	0.0135940
673.193	0.0134840
673.271	0.0133460
673.349	0.0132126
673.427	0.0131892
673.505	0.0130728
673.583	0.0130953
673.661	0.0131390
673.739	0.0131834
673.818	0.0131674
673.896	0.0132713
673.974	0.0134112
674.052	0.0136735
674.130	0.0137497
674.208	0.0139140
674.286	0.0142345
674.364	0.0143862
674.443	0.0144325
674.521	0.0146796
674.599	0.0147337
674.677	0.0150318
674.755	0.0151114
674.833	0.0152377
674.911	0.0152008
674.989	0.0152183
675.068	0.0153441
675.146	0.0152225
675.224	0.0152211
675.302	0.0151297
675.380	0.0152091
675.458	0.0149953
675.536	0.0148515
675.614	0.0146671
675.693	0.0143539
675.771	0.0140655
675.849	0.0139757
675.927	0.0138283
676.005	0.0135480
676.083	0.0132727
676.161	0.0131201
676.239	0.0129958
676.318	0.0128197
676.396	0.0126830
676.474	0.0124632
676.552	0.0125700
676.630	0.0124409
676.708	0.0123634
676.786	0.0125272
676.864	0.0125806
676.943	0.0126311
677.021	0.0126842
677.099	0.0129932
677.177	0.0130389
677.255	0.0131274
677.333	0.0133467
677.411	0.0133748
677.489	0.0137387
677.568	0.0137579
677.646	0.0140776
677.724	0.0142864
677.802	0.0143481
677.880	0.0143580
677.958	0.0145119
678.036	0.0146484
678.114	0.0146176
678.193	0.0148274
678.271	0.0148576
678.349	0.0147178
678.427	0.0148306
678.505	0.0148859
678.583	0.0147952
678.661	0.0147516
678.739	0.0147958
678.818	0.0147489
678.896	0.0146429
678.974	0.0146186
679.052	0.0146726
679.130	0.0145465
679.208	0.0144936
679.286	0.0144914
679.364	0.0144745
679.443	0.0143685
679.521	0.0141542
679.599	0.0141296
679.677	0.0140285
679.755	0.0140008
679.833	0.0138358
679.911	0.0135558
679.989	0.0133960
680.068	0.0132288
680.146	0.0130952
680.224	0.0130041
680.302	0.0128165
680.380	0.0124635
680.458	0.0123364
680.536	0.0122463
680.614	0.0121272
680.693	0.0120483
680.771	0.0119315
680.849	0.0119210
680.927	0.0117950
681.005	0.0117076
681.083	0.0118436
681.161	0.0120394
681.239	0.0120069
681.318	0.0120472
681.396	0.0122823
681.474	0.0125528
681.552	0.0125794
681.630	0.0128745
681.708	0.0131830
681.786	0.0133076
681.864	0.0136472
681.943	0.0138391
682.021	0.0142239
682.099	0.0143158
682.177	0.0144491
682.255	0.0149401
682.333	0.0150774
682.411	0.0153337
682.489	0.0155718
682.568	0.0155421
682.646	0.0157476
682.724	0.0159204
682.802	0.0160204
682.880	0.0158633
682.958	0.0159196
683.036	0.0160391
683.114	0.0160233
683.193	0.0157928
683.271	0.0158598
683.349	0.0156344
683.427	0.0154961
683.505	0.0154088
683.583	0.0150491
683.661	0.0149860
683.739	0.0148580
683.818	0.0145148
683.896	0.0141433
683.974	0.0139297
684.052	0.0138206
684.130	0.0133920
684.208	0.0132570
684.286	0.0128452
684.364	0.0126662
684.443	0.0124577
684.521	0.0123940
684.599	0.0120845
684.677	0.0120477
684.755	0.0118728
684.833	0.0118588
684.911	0.0119352
684.989	0.0116520
685.068	0.0118916
685.146	0.0119527
685.224	0.0119511
685.302	0.0121501
685.380	0.0123103
685.458	0.0122021
685.536	0.0126688
685.614	0.0129327
685.693	0.0132327
685.771	0.0135229
685.849	0.0137032
685.927	0.0140998
686.005	0.0143365
686.083	0.0145114
686.161	0.0146031
686.239	0.0148833
686.318	0.0151516
686.396	0.0153202
686.474	0.0154866
686.552	0.0156454
686.630	0.0157878
686.708	0.0157360
686.786	0.0157886
686.864	0.0159296
686.943	0.0158828
687.021	0.0159202
687.099	0.0159355
687.177	0.0157309
687.255	0.0156738
687.333	0.0156999
687.411	0.0155204
687.489	0.0154323
687.568	0.0152605
687.646	0.0152406
687.724	0.0150580
687.802	0.0149963
687.880	0.0149523
687.958	0.0146436
688.036	0.0147608
688.114	0.0145264
688.193	0.0143233
688.271	0.0141733
688.349	0.0141250
688.427	0.0140121
688.505	0.0140120
688.583	0.0137388
688.661	0.0135669
688.739	0.0136244
688.818	0.0135574
688.896	0.0134725
688.974	0.0132475
689.052	0.0132446
689.130	0.0132017
689.208	0.0133118
689.286	0.0130712
689.364	0.0129956
689.443	0.0128894
689.521	0.0129210
689.599	0.0128088
689.677	0.0126456
689.755	0.0127119
689.833	0.0126765
689.911	0.0127612
689.989	0.0127264
690.068	0.0127955
690.146	0.0127200
690.224	0.0127854
690.302	0.0128671
690.380	0.0130485
690.458	0.0131046
690.536	0.0132182
690.614	0.0133899
690.693	0.0134774
690.771	0.0137560
690.849	0.0138411
690.927	0.0137907
691.005	0.0137978
691.083	0.0138396
691.161	0.0140143
691.239	0.0142017
691.318	0.0142881
691.396	0.0143832
691.474	0.0143362
691.552	0.0143445
691.630	0.0144016
691.708	0.0143458
691.786	0.0145404
691.864	0.0146420
691.943	0.0147179
692.021	0.0147444
692.099	0.0148289
692.177	0.0149616
692.255	0.0150148
692.333	0.0150082
692.411	0.0151151
692.489	0.0151817
692.568	0.0153473
692.646	0.0154597
692.724	0.0155537
692.802	0.0155489
692.880	0.0156003
692.958	0.0156516
693.036	0.0156454
693.114	0.0155204
693.193	0.0156042
693.271	0.0155612
693.349	0.0154861
693.427	0.0155080
693.505	0.0153341
693.583	0.0151496
693.661	0.0151088
693.739	0.0148238
693.818	0.0145537
693.896	0.0143501
693.974	0.0140668
694.052	0.0138189
694.130	0.0135792
694.208	0.0133462
694.286	0.0131189
694.364	0.0128929
694.443	0.0125414
694.521	0.0121832
694.599	0.0120522
694.677	0.0118984
694.755	0.0118356
694.833	0.0116410
694.911	0.0114671
694.989	0.0113830
695.068	0.0112901
695.146	0.0114816
695.224	0.0113979
695.302	0.0112748
695.380	0.0115597
695.458	0.0117940
695.536	0.0119035
695.614	0.0119820
695.693	0.0121834
695.771	0.0125555
695.849	0.0125909
695.927	0.0129374
696.005	0.0134194
696.083	0.0134730
696.161	0.0138667
696.239	0.0141065
696.318	0.0144398
696.396	0.0146318
696.474	0.0149385
696.552	0.0153440
696.630	0.0155630
696.708	0.0156591
696.786	0.0157595
696.864	0.0158349
696.943	0.0159969
697.021	0.0161419
697.099	0.0161683
697.177	0.0161061
697.255	0.0161713
697.333	0.0162199
697.411	0.0161008
697.489	0.0160251
697.568	0.0157652
697.646	0.0157536
697.724	0.0157725
697.802	0.0155661
697.880	0.0153849
697.958	0.0152806
698.036	0.0152044
698.114	0.0150466
698.193	0.0149409
698.271	0.0149486
698.349	0.0147045
698.427	0.0147176
698.505	0.0145482
698.583	0.0145108
698.661	0.0144052
698.739	0.0142828
698.818	0.0142825
698.896	0.0141415
698.974	0.0138824
699.052	0.0139281
699.130	0.0138605
699.208	0.0135800
699.286	0.0134881
699.364	0.0133314
699.443	0.0132359
699.521	0.0131289
699.599	0.0130538
699.677	0.0129879
699.755	0.0129242
699.833	0.0128683
699.911	0.0128259
699.989	0.0126193
700.068	0.0127071
700.146	0.0127359
700.224	0.0126998
700.302	0.0126878
700.380	0.0125451
700.458	0.0125946
700.536	0.0126085
700.614	0.0125234
700.693	0.0126144
700.771	0.0124908
700.849	0.0125439
700.927	0.0127256
701.005	0.0126290
701.083	0.0128342
701.161	0.0128659
701.239	0.0130982
701.318	0.0131048
701.396	0.0133694
701.474	0.0135049
701.552	0.0136643
701.630	0.0137464
701.708	0.0139136
701.786	0.0140521
701.864	0.0142203
701.943	0.0145518
702.021	0.0147586
702.099	0.0148936
702.177	0.0152036
702.255	0.0153572
702.333	0.0154246
702.411	0.0157234
702.489	0.0155951
702.568	0.0158466
702.646	0.0159303
702.724	0.0160727
702.802	0.0161768
702.880	0.0163591
702.958	0.0162173
703.036	0.0163181
703.114	0.0162157
703.193	0.0160786
703.271	0.0161115
703.349	0.0159923
703.427	0.0159551
703.505	0.0158512
703.583	0.0159051
703.661	0.0156531
703.739	0.0156199
703.818	0.0153126
703.896	0.0152118
703.974	0.0149326
704.052	0.0147679
704.130	0.0146585
704.208	0.0142732
704.286	0.0141981
704.364	0.0138949
704.443	0.0135402
704.521	0.0133925
704.599	0.0130576
704.677	0.0127789
704.755	0.0125159
704.833	0.0121660
704.911	0.0120650
704.989	0.0118382
705.068	0.0116850
705.146	0.0117091
705.224	0.0116759
705.302	0.0116389
705.380	0.0115363
705.458	0.0115900
705.536	0.0117686
705.614	0.0120023
705.693	0.0121600
705.771	0.0123244
705.849	0.0124236
705.927	0.0128227
706.005	0.0131741
706.083	0.0132813
706.161	0.0134507
706.239	0.0137912
706.318	0.0140309
706.396	0.0139095
706.474	0.0142023
706.552	0.0142464
706.630	0.0144262
706.708	0.0145530
706.786	0.0146493
706.864	0.0148927
706.943	0.0146941
707.021	0.0147907
707.099	0.0147282
707.177	0.0148031
707.255	0.0147941
707.333	0.0147391
707.411	0.0147205
707.489	0.0147293
707.568	0.0146691
707.646	0.0144708
707.724	0.0143707
707.802	0.0144576
707.880	0.0143652
707.958	0.0142870
708.036	0.0143772
708.114	0.0142065
708.193	0.0142908
708.271	0.0141360
708.349	0.0142517
708.427	0.0140087
708.505	0.0142435
708.583	0.0142258
708.661	0.0140896
708.739	0.0141819
708.818	0.0142825
708.896	0.0143096
708.974	0.0142228
709.052	0.0141592
709.130	0.0142799
709.208	0.0144901
709.286	0.0145718
709.364	0.0144709
709.443	0.0147271
709.521	0.0147717
709.599	0.0147787
709.677	0.0148062
709.755	0.0150513
709.833	0.0149348
709.911	0.0150229
709.989	0.0147785
710.068	0.0149627
710.146	0.0148141
710.224	0.0147391
710.302	0.0146368
710.380	0.0143673
710.458	0.0144414
710.536	0.0142407
710.614	0.0139615
710.693	0.0137949
710.771	0.0135400
710.849	0.0134833
710.927	0.0134153
711.005	0.0132604
711.083	0.0131584
711.161	0.0131382
711.239	0.0129438
711.318	0.0128710
711.396	0.0129739
711.474	0.0129159
711.552	0.0129718
711.630	0.0129451
711.708	0.0129538
711.786	0.0128837
711.864	0.0129332
711.943	0.0130132
712.021	0.0128516
712.099	0.0128909
712.177	0.0128967
712.255	0.0126733
712.333	0.0127876
712.411	0.0126767
712.489	0.0126815
712.568	0.0126399
712.646	0.0126398
712.724	0.0125905
712.802	0.0125716
712.880	0.0126795
712.958	0.0127211
713.036	0.0129057
713.114	0.0130117
713.193	0.0130812
713.271	0.0133319
713.349	0.0135023
713.427	0.0137218
713.505	0.0139516
713.583	0.0141869
713.661	0.0145483
713.739	0.0149003
713.818	0.0150857
713.896	0.0151534
713.974	0.0152562
714.052	0.0154258
714.130	0.0157413
714.208	0.0157600
714.286	0.0158712
714.364	0.0157928
714.443	0.0157683
714.521	0.0158226
714.599	0.0159138
714.677	0.0157393
714.755	0.0157091
714.833	0.0154822
714.911	0.0153441
714.989	0.0155390
715.068	0.0153336
715.146	0.0155002
715.224	0.0153191
715.302	0.0151097
715.380	0.0151637
715.458	0.0151443
715.536	0.0150529
715.614	0.0149631
715.693	0.0148883
715.771	0.0147160
715.849	0.0145968
715.927	0.0146555
716.005	0.0144009
716.083	0.0142131
716.161	0.0141034
716.239	0.0139001
716.318	0.0136845
716.396	0.0135123
716.474	0.0133165
716.552	0.0131030
716.630	0.0130119
716.708	0.0128853
716.786	0.0128347
716.864	0.0127148
716.943	0.0126134
717.021	0.0127541
717.099	0.0127184
717.177	0.0127673
717.255	0.0127042
717.333	0.0125836
717.411	0.0127446
717.489	0.0127816
717.568	0.0128044
717.646	0.0130173
717.724	0.0129339
717.802	0.0130759
717.880	0.0131876
717.958	0.0131591
718.036	0.0131591
718.114	0.0132856
718.193	0.0132585
718.271	0.0133706
718.349	0.0134902
718.427	0.0134525
718.505	0.0135161
718.583	0.0134541
718.661	0.0135442
718.739	0.0136449
718.818	0.0136490
718.896	0.0137234
718.974	0.0138444
719.052	0.0139801
719.130	0.0140845
719.208	0.0144002
719.286	0.0143755
719.364	0.0146072
719.443	0.0147176
719.521	0.0149326
719.599	0.0149570
719.677	0.0150143
719.755	0.0153558
719.833	0.0152116
719.911	0.0152349
719.989	0.0153159
720.068	0.0154353
720.146	0.0153755
720.224	0.0153470
720.302	0.0152549
720.380	0.0153907
720.458	0.0152409
720.536	0.0152599
720.614	0.0151974
720.693	0.0153027
720.771	0.0151475
720.849	0.0150197
720.927	0.0151392
721.005	0.0149622
721.083	0.0148578
721.161	0.0148671
721.239	0.0148193
721.318	0.0150552
721.396	0.0148717
721.474	0.0146539
721.552	0.0147268
721.630	0.0146498
721.708	0.0146246
721.786	0.0144580
721.864	0.0143218
721.943	0.0142648
722.021	0.0141704
722.099	0.0140656
722.177	0.0139883
722.255	0.0138462
722.333	0.0137910
722.411	0.0137453
722.489	0.0136462
722.568	0.0135521
722.646	0.0134913
722.724	0.0134863
722.802	0.0133395
722.880	0.0133076
722.958	0.0132359
723.036	0.0130144
723.114	0.0129319
723.193	0.0129988
723.271	0.0129154
723.349	0.0128255
723.427	0.0127132
723.505	0.0126583
723.583	0.0126859
723.661	0.0125898
723.739	0.0126717
723.818	0.0125672
723.896	0.0123473
723.974	0.0124570
724.052	0.0124864
724.130	0.0124841
724.208	0.0125058
724.286	0.0125831
724.364	0.0127168
724.443	0.0125951
724.521	0.0126013
724.599	0.0127461
724.677	0.0130067
724.755	0.0129214
724.833	0.0130983
724.911	0.0131898
724.989	0.0134909
725.068	0.0135480
725.146	0.0138408
725.224	0.0140566
725.302	0.0142096
725.380	0.0142021
725.458	0.0145895
725.536	0.0146972
725.614	0.0149421
725.693	0.0150728
725.771	0.0154592
725.849	0.0153852
725.927	0.0156258
726.005	0.0158746
726.083	0.0160005
726.161	0.0158884
726.239	0.0159897
726.318	0.0158953
726.396	0.0159934
726.474	0.0159579
726.552	0.0159726
726.630	0.0160641
726.708	0.0159388
726.786	0.0157613
726.864	0.0157130
726.943	0.0155647
727.021	0.0155465
727.099	0.0155070
727.177	0.0153241
727.255	0.0151192
727.333	0.0150096
727.411	0.0150507
727.489	0.0147122
727.568	0.0143983
727.646	0.0143591
727.724	0.0140096
727.802	0.0140261
727.880	0.0138291
727.958	0.0136794
728.036	0.0134518
728.114	0.0134030
728.193	0.0132104
728.271	0.0130765
728.349	0.0128855
728.427	0.0127922
728.505	0.0127411
728.583	0.0127892
728.661	0.0127550
728.739	0.0127377
728.818	0.0125742
728.896	0.0126145
728.974	0.0127252
729.052	0.0127199
729.130	0.0125385
729.208	0.0125750
729.286	0.0125463
729.364	0.0125652
729.443	0.0124985
729.521	0.0123569
729.599	0.0124129
729.677	0.0125816
729.755	0.0124518
729.833	0.0123230
729.911	0.0124836
729.989	0.0124950
730.068	0.0126547
730.146	0.0127602
730.224	0.0128408
730.302	0.0131644
730.380	0.0132021
730.458	0.0135387
730.536	0.0136645
730.614	0.0138427
730.693	0.0142246
730.771	0.0143613
730.849	0.0145930
730.927	0.0148440
731.005	0.0149038
731.083	0.0151222
731.161	0.0152896
731.239	0.0154729
731.318	0.0154855
731.396	0.0155364
731.474	0.0156647
731.552	0.0155804
731.630	0.0155431
731.708	0.0156921
731.786	0.0155470
731.864	0.0156787
731.943	0.0156931
732.021	0.0155051
732.099	0.0155472
732.177	0.0155742
732.255	0.0154590
732.333	0.0152684
732.411	0.0153751
732.489	0.0153499
732.568	0.0152095
732.646	0.0150020
732.724	0.0149200
732.802	0.0148953
732.880	0.0146793
732.958	0.0145956
733.036	0.0143390
733.114	0.0143739
733.193	0.0141645
733.271	0.0139022
733.349	0.0138447
733.427	0.0137588
733.505	0.0136448
733.583	0.0136006
733.661	0.0134572
733.739	0.0134830
733.818	0.0133327
733.896	0.0132264
733.974	0.0132051
734.052	0.0131357
734.130	0.0131429
734.208	0.0132465
734.286	0.0132652
734.364	0.0132867
734.443	0.0132139
734.521	0.0132227
734.599	0.0131190
734.677	0.0131940
734.755	0.0131120
734.833	0.0131361
734.911	0.0131324
734.989	0.0131345
735.068	0.0128875
735.146	0.0130367
735.224	0.0129188
735.302	0.0128352
735.380	0.0128332
735.458	0.0127685
735.536	0.0127250
735.614	0.0128675
735.693	0.0129182
735.771	0.0130247
735.849	0.0129152
735.927	0.0130234
736.005	0.0132302
736.083	0.0133395
736.161	0.0134269
736.239	0.0136309
736.318	0.0136420
736.396	0.0138694
736.474	0.0137691
736.552	0.0140889
736.630	0.0142306
736.708	0.0143937
736.786	0.0146046
736.864	0.0147429
736.943	0.0147391
737.021	0.0150154
737.099	0.0152032
737.177	0.0151351
737.255	0.0151050
737.333	0.0152145
737.411	0.0154201
737.489	0.0153008
737.568	0.0152716
737.646	0.0150163
737.724	0.0151496
737.802	0.0151121
737.880	0.0148229
737.958	0.0147840
738.036	0.0148117
738.114	0.0146649
738.193	0.0145695
738.271	0.0144285
738.349	0.0145155
738.427	0.0143111
738.505	0.0142614
738.583	0.0141591
738.661	0.0141788
738.739	0.0142076
738.818	0.0142901
738.896	0.0141963
738.974	0.0140977
739.052	0.0140082
739.130	0.0140434
739.208	0.0141884
739.286	0.0140171
739.364	0.0139265
739.443	0.0140749
739.521	0.0139178
739.599	0.0138395
739.677	0.0139944
739.755	0.0138285
739.833	0.0137283
739.911	0.0137254
739.989	0.0136519
740.068	0.0135420
740.146	0.0134549
740.224	0.0133443
740.302	0.0134300
740.380	0.0131763
740.458	0.0132133
740.536	0.0132874
740.614	0.0131463
740.693	0.0131501
740.771	0.0131506
740.849	0.0130499
740.927	0.0131979
741.005	0.0133556
741.083	0.0132201
741.161	0.0132040
741.239	0.0133303
741.318	0.0131666
741.396	0.0133952
741.474	0.0133588
741.552	0.0134503
741.630	0.0134227
741.708	0.0136288
741.786	0.0136590
741.864	0.0137133
741.943	0.0138615
742.021	0.0138518
742.099	0.0140193
742.177	0.0141440
742.255	0.0140108
742.333	0.0140173
742.411	0.0142336
742.489	0.0144086
742.568	0.0143789
742.646	0.0144682
742.724	0.0144363
742.802	0.0144663
742.880	0.0145571
742.958	0.0145872
743.036	0.0146043
743.114	0.0144801
743.193	0.0146845
743.271	0.0146098
743.349	0.0146064
743.427	0.0145458
743.505	0.0144785
743.583	0.0145448
743.661	0.0144815
743.739	0.0146101
743.818	0.0145522
743.896	0.0145818
743.974	0.0146550
744.052	0.0146865
744.130	0.0145128
744.208	0.0147861
744.286	0.0148875
744.364	0.0149117
744.443	0.0148210
744.521	0.0148205
744.599	0.0148087
744.677	0.0147124
744.755	0.0147369
744.833	0.0147101
744.911	0.0146070
744.989	0.0145321
745.068	0.0144965
745.146	0.0145806
745.224	0.0143949
745.302	0.0142158
745.380	0.0143051
745.458	0.0141924
745.536	0.0141083
745.614	0.0139362
745.693	0.0139749
745.771	0.0137193
745.849	0.0138049
745.927	0.0136978
746.005	0.0136111
746.083	0.0135301
746.161	0.0134839
746.239	0.0133354
746.318	0.0131107
746.396	0.0132914
746.474	0.0132912
746.552	0.0130952
746.630	0.0129509
746.708	0.0130959
746.786	0.0132320
746.864	0.0130305
746.943	0.0130321
747.021	0.0131667
747.099	0.0132278
747.177	0.0134634
747.255	0.0134380
747.333	0.0133684
747.411	0.0135670
747.489	0.0135371
747.568	0.0136104
747.646	0.0138653
747.724	0.0136753
747.802	0.0138378
747.880	0.0139834
747.958	0.0140914
748.036	0.0141465
748.114	0.0140726
748.193	0.0142036
748.271	0.0142976
748.349	0.0141866
748.427	0.0142996
748.505	0.0144177
748.583	0.0144571
748.661	0.0143993
748.739	0.0143948
748.818	0.0146375
748.896	0.0146141
748.974	0.0145074
749.052	0.0146611
749.130	0.0144792
749.208	0.0148229
749.286	0.0146535
749.364	0.0145830
749.443	0.0146502
749.521	0.0145510
749.599	0.0145994
749.677	0.0145290
749.755	0.0144900
749.833	0.0145694
749.911	0.0143935
749.989	0.0142706
750.068	0.0143375
750.146	0.0141807
750.224	0.0141969
750.302	0.0139468
750.380	0.0140569
750.458	0.0140038
750.536	0.0140398
750.614	0.0138599
750.693	0.0138969
750.771	0.0139212
750.849	0.0138624
750.927	0.0138522
751.005	0.0138185
751.083	0.0138444
751.161	0.0138707
751.239	0.0137748
751.318	0.0137431
751.396	0.0137698
751.474	0.0136504
751.552	0.0137716
751.630	0.0138326
751.708	0.0137616
751.786	0.0137260
751.864	0.0137353
751.943	0.0137839
752.021	0.0137358
752.099	0.0136846
752.177	0.0137428
752.255	0.0137206
752.333	0.0136745
752.411	0.0137055
752.489	0.0135739
752.568	0.0135844
752.646	0.0138075
752.724	0.0136594
752.802	0.0135819
752.880	0.0134819
752.958	0.0134811
753.036	0.0136169
753.114	0.0136411
753.193	0.0136436
753.271	0.0135336
753.349	0.0135404
753.427	0.0135233
753.505	0.0135381
753.583	0.0135650
753.661	0.0135909
753.739	0.0137585
753.818	0.0136470
753.896	0.0136218
753.974	0.0139076
754.052	0.0137690
754.130	0.0137932
754.208	0.0138000
754.286	0.0138485
754.364	0.0138544
754.443	0.0140987
754.521	0.0140823
754.599	0.0141778
754.677	0.0139877
754.755	0.0140041
754.833	0.0141641
754.911	0.0141035
754.989	0.0140359
755.068	0.0141082
755.146	0.0142342
755.224	0.0140841
755.302	0.0141386
755.380	0.0141359
755.458	0.0139500
755.536	0.0139970
755.614	0.0139729
755.693	0.0138918
755.771	0.0138738
755.849	0.0137908
755.927	0.0137884
756.005	0.0138179
756.083	0.0136733
756.161	0.0137360
756.239	0.0137666
756.318	0.0137262
756.396	0.0136131
756.474	0.0137917
756.552	0.0137507
756.630	0.0137749
756.708	0.0139655
756.786	0.0138610
756.864	0.0139580
756.943	0.0138425
757.021	0.0140616
757.099	0.0141353
757.177	0.0140472
757.255	0.0140410
757.333	0.0140473
757.411	0.0141992
757.489	0.0142339
757.568	0.0141805
757.646	0.0141676
757.724	0.0141154
757.802	0.0140343
757.880	0.0141037
757.958	0.0142290
758.036	0.0139772
758.114	0.0141629
758.193	0.0140672
758.271	0.0140122
758.349	0.0140778
758.427	0.0140180
758.505	0.0138946
758.583	0.0140274
758.661	0.0138519
758.739	0.0139268
758.818	0.0138634
758.896	0.0138088
758.974	0.0139610
759.052	0.0138751
759.130	0.0137608
759.208	0.0138713
759.286	0.0138332
759.364	0.0137495
759.443	0.0136127
759.521	0.0138184
759.599	0.0135380
759.677	0.0133807
759.755	0.0135355
759.833	0.0136066
759.911	0.0135773
759.989	0.0136298
760.068	0.0134574
760.146	0.0134107
760.224	0.0135499
760.302	0.0136510
760.380	0.0135953
760.458	0.0137099
760.536	0.0138266
760.614	0.0136724
760.693	0.0138591
760.771	0.0139736
760.849	0.0140997
760.927	0.0141514
761.005	0.0139304
761.083	0.0141010
761.161	0.0141665
761.239	0.0140980
761.318	0.0141660
761.396	0.0142853
761.474	0.0142477
761.552	0.0142304
761.630	0.0141776
761.708	0.0143135
761.786	0.0143495
761.864	0.0143082
761.943	0.0142297
762.021	0.0143545
762.099	0.0141853
762.177	0.0141326
762.255	0.0142486
762.333	0.0143491
762.411	0.0143477
762.489	0.0141801
762.568	0.0142959
762.646	0.0142255
762.724	0.0143138
762.802	0.0141776
762.880	0.0141907
762.958	0.0141630
763.036	0.0142149
763.114	0.0140352
763.193	0.0139492
763.271	0.0139376
763.349	0.0140105
763.427	0.0141227
763.505	0.0139972
763.583	0.0138560
763.661	0.0137214
763.739	0.0137974
763.818	0.0139001
763.896	0.0138307
763.974	0.0139157
764.052	0.0137778
764.130	0.0136256
764.208	0.0137342
764.286	0.0137662
764.364	0.0139344
764.443	0.0138153
764.521	0.0138338
764.599	0.0137144
764.677	0.0137348
764.755	0.0137354
764.833	0.0138058
764.911	0.0137276
764.989	0.0139173
765.068	0.0138682
765.146	0.0138029
765.224	0.0139806
765.302	0.0139428
765.380	0.0138253
765.458	0.0139278
765.536	0.0140109
765.614	0.0139925
765.693	0.0141323
765.771	0.0141342
765.849	0.0140228
765.927	0.0140556
766.005	0.0141409
766.083	0.0140419
766.161	0.0140769
766.239	0.0140453
766.318	0.0140237
766.396	0.0142725
766.474	0.0140858
766.552	0.0139926
766.630	0.0141148
766.708	0.0141830
766.786	0.0141732
766.864	0.0140559
766.943	0.0141164
767.021	0.0142464
767.099	0.0141621
767.177	0.0142024
767.255	0.0143230
767.333	0.0141680
767.411	0.0141570
767.489	0.0141160
767.568	0.0140462
767.646	0.0141913
767.724	0.0140469
767.802	0.0139702
767.880	0.0139601
767.958	0.0139456
768.036	0.0141006
768.114	0.0141229
768.193	0.0140181
768.271	0.0140167
768.349	0.0141513
768.427	0.0141631
768.505	0.0140543
768.583	0.0139600
768.661	0.0141731
768.739	0.0141956
768.818	0.0141077
768.896	0.0141796
768.974	0.0139441
769.052	0.0140189
769.130	0.0140259
769.208	0.0141128
769.286	0.0138110
769.364	0.0138448
769.443	0.0140195
769.521	0.0139896
769.599	0.0138560
769.677	0.0138735
769.755	0.0137935
769.833	0.0137961
769.911	0.0138785
769.989	0.0137913
770.068	0.0138768
770.146	0.0139846
770.224	0.0139672
770.302	0.0139571
770.380	0.0138374
770.458	0.0138993
770.536	0.0139220
770.614	0.0139113
770.693	0.0139665
770.771	0.0139490
770.849	0.0139082
770.927	0.0139436
771.005	0.0139230
771.083	0.0141605
771.161	0.0140666
771.239	0.0141114
771.318	0.0139417
771.396	0.0140932
771.474	0.0141539
771.552	0.0142632
771.630	0.0142954
771.708	0.0140514
771.786	0.0142354
771.864	0.0141975
771.943	0.0142283
772.021	0.0142663
772.099	0.0142079
772.177	0.0144010
772.255	0.0142919
772.333	0.0142139
772.411	0.0142805
772.489	0.0141982
772.568	0.0140667
772.646	0.0140576
772.724	0.0142184
772.802	0.0140108
772.880	0.0137863
772.958	0.0138449
773.036	0.0138580
773.114	0.0138221
773.193	0.0137630
773.271	0.0136035
773.349	0.0135918
773.427	0.0136665
773.505	0.0135566
773.583	0.0135561
773.661	0.0133958
773.739	0.0133727
773.818	0.0134950
773.896	0.0133973
773.974	0.0135755
774.052	0.0135773
774.130	0.0135214
774.208	0.0135474
774.286	0.0137391
774.364	0.0137274
774.443	0.0138437
774.521	0.0138676
774.599	0.0139206
774.677	0.0138186
774.755	0.0139784
774.833	0.0141382
774.911	0.0141667
774.989	0.0140540
775.068	0.0144576
775.146	0.0144626
775.224	0.0143368
775.302	0.0143704
775.380	0.0144305
775.458	0.0143899
775.536	0.0144438
775.614	0.0144158
775.693	0.0143460
775.771	0.0145493
775.849	0.0146011
775.927	0.0145564
776.005	0.0144608
776.083	0.0144193
776.161	0.0144291
776.239	0.0142040
776.318	0.0142404
776.396	0.0142642
776.474	0.0140759
776.552	0.0143477
776.630	0.0141891
776.708	0.0140998
776.786	0.0141193
776.864	0.0139367
776.943	0.0138870
777.021	0.0138677
777.099	0.0137852
777.177	0.0138607
777.255	0.0138020
777.333	0.0138653
777.411	0.0138138
777.489	0.0135855
777.568	0.0136768
777.646	0.0137563
777.724	0.0136932
777.802	0.0138827
777.880	0.0136112
777.958	0.0138903
778.036	0.0137734
778.114	0.0137723
778.193	0.0138131
778.271	0.0137540
778.349	0.0138189
778.427	0.0139040
778.505	0.0139504
778.583	0.0139894
778.661	0.0140402
778.739	0.0140157
778.818	0.0139781
778.896	0.0139795
778.974	0.0142435
779.052	0.0141563
779.130	0.0141444
779.208	0.0142323
779.286	0.0142879
779.364	0.0142805
779.443	0.0142659
779.521	0.0143665
779.599	0.0141238
779.677	0.0142480
779.755	0.0142577
779.833	0.0140214
779.911	0.0140308
779.989	0.0141680
780.068	0.0141000
780.146	0.0140841
780.224	0.0139446
780.302	0.0140713
780.380	0.0140610
780.458	0.0139778
780.536	0.0139494
780.614	0.0140330
780.693	0.0139883
780.771	0.0137982
780.849	0.0138924
780.927	0.0139349
781.005	0.0138641
781.083	0.0136636
781.161	0.0137579
781.239	0.0137145
781.318	0.0137442
781.396	0.0135958
781.474	0.0136124
781.552	0.0136481
781.630	0.0137141
781.708	0.0135598
781.786	0.0137094
781.864	0.0137299
781.943	0.0136568
782.021	0.0136527
782.099	0.0135975
782.177	0.0135242
782.255	0.0137646
782.333	0.0135848
782.411	0.0136325
782.489	0.0135815
782.568	0.0137254
782.646	0.0137653
782.724	0.0137587
782.802	0.0138064
782.880	0.0137939
782.958	0.0139188
783.036	0.0138730
783.114	0.0139591
783.193	0.0139503
783.271	0.0141166
783.349	0.0139831
783.427	0.0139804
783.505	0.0140714
783.583	0.0142143
783.661	0.0143034
783.739	0.0140833
783.818	0.0141644
783.896	0.0141245
783.974	0.0143051
784.052	0.0141504
784.130	0.0141872
784.208	0.0141247
784.286	0.0142301
784.364	0.0140783
784.443	0.0141068
784.521	0.0140302
784.599	0.0140625
784.677	0.0141188
784.755	0.0140576
784.833	0.0139522
784.911	0.0140819
784.989	0.0140378
785.068	0.0140030
785.146	0.0140144
785.224	0.0140593
785.302	0.0140047
785.380	0.0140643
785.458	0.0140744
785.536	0.0141872
785.614	0.0139518
785.693	0.0139529
785.771	0.0139975
785.849	0.0139036
785.927	0.0138818
786.005	0.0139184
786.083	0.0139715
786.161	0.0137808
786.239	0.0137028
786.318	0.0136516
786.396	0.0136674
786.474	0.0137010
786.552	0.0137294
786.630	0.0136000
786.708	0.0137244
786.786	0.0136743
786.864	0.0137170
786.943	0.0138426
787.021	0.0136774
787.099	0.0136017
787.177	0.0136178
787.255	0.0137641
787.333	0.0138937
787.411	0.0137331
787.489	0.0138683
787.568	0.0138455
787.646	0.0137704
787.724	0.0139030
787.802	0.0139279
787.880	0.0139536
787.958	0.0139360
788.036	0.0140609
788.114	0.0141686
788.193	0.0142939
788.271	0.0142247
788.349	0.0142210
788.427	0.0142751
788.505	0.0143404
788.583	0.0144550
788.661	0.0144946
788.739	0.0144999
788.818	0.0144988
788.896	0.0145931
788.974	0.0145228
789.052	0.0146359
789.130	0.0146272
789.208	0.0145611
789.286	0.0146031
789.364	0.0145635
789.443	0.0146636
789.521	0.0145732
789.599	0.0144955
789.677	0.0143592
789.755	0.0143492
789.833	0.0145022
789.911	0.0142787
789.989	0.0142056
790.068	0.0143829
790.146	0.0144650
790.224	0.0142338
790.302	0.0142337
790.380	0.0140820
790.458	0.0140304
790.536	0.0139395
790.614	0.0139436
790.693	0.0139003
790.771	0.0138237
790.849	0.0137259
790.927	0.0136348
791.005	0.0136118
791.083	0.0136840
791.161	0.0135181
791.239	0.0135950
791.318	0.0134113
791.396	0.0134920
791.474	0.0135018
791.552	0.0135568
791.630	0.0134750
791.708	0.0133986
791.786	0.0134453
791.864	0.0134753
791.943	0.0134940
792.021	0.0135455
792.099	0.0135197
792.177	0.0135900
792.255	0.0135524
792.333	0.0136518
792.411	0.0134206
792.489	0.0136484
792.568	0.0137543
792.646	0.0138474
792.724	0.0138048
792.802	0.0137809
792.880	0.0138692
792.958	0.0139327
793.036	0.0140997
793.114	0.0141393
793.193	0.0141375
793.271	0.0141849
793.349	0.0142916
793.427	0.0145339
793.505	0.0143436
793.583	0.0144145
793.661	0.0145576
793.739	0.0144813
793.818	0.0143895
793.896	0.0145152
793.974	0.0144883
794.052	0.0146841
794.130	0.0144302
794.208	0.0143797
794.286	0.0142967
794.364	0.0144791
794.443	0.0144679
794.521	0.0142086
794.599	0.0142387
794.677	0.0143587
794.755	0.0141878
794.833	0.0141539
794.911	0.0140656
794.989	0.0139153
795.068	0.0140580
795.146	0.0142252
795.224	0.0139937
795.302	0.0139457
795.380	0.0140070
795.458	0.0138918
795.536	0.0138982
795.614	0.0139757
795.693	0.0140035
795.771	0.0138998
795.849	0.0138488
795.927	0.0138065
796.005	0.0139146
796.083	0.0139520
796.161	0.0139426
796.239	0.0138523
796.318	0.0138973
796.396	0.0139432
796.474	0.0138563
796.552	0.0137714
796.630	0.0138758
796.708	0.0138448
796.786	0.0136383
796.864	0.0136876
796.943	0.0137109
797.021	0.0136526
797.099	0.0137028
797.177	0.0136390
797.255	0.0136518
797.333	0.0137450
797.411	0.0137806
797.489	0.0138213
797.568	0.0138052
797.646	0.0137943
797.724	0.0136705
797.802	0.0138153
797.880	0.0140182
797.958	0.0140076
798.036	0.0140040
798.114	0.0139371
798.193	0.0140242
798.271	0.0140645
798.349	0.0139751
798.427	0.0141346
798.505	0.0141051
798.583	0.0142141
798.661	0.0141840
798.739	0.0142645
798.818	0.0144054
798.896	0.0142356
798.974	0.0144312
799.052	0.0143827
799.130	0.0143467
799.208	0.0142607
799.286	0.0144464
799.364	0.0143521
799.443	0.0144659
799.521	0.0144748
799.599	0.0144756
799.677	0.0143847
799.755	0.0144921
799.833	0.0144907
799.911	0.0143819
799.989	0.0144811
800.068	0.0146596
800.146	0.0145052
800.224	0.0145189
800.302	0.0145434
800.380	0.0146494
800.458	0.0144820
800.536	0.0144628
800.614	0.0144088
800.693	0.0144653
800.771	0.0144203
800.849	0.0142827
800.927	0.0144626
801.005	0.0141462
801.083	0.0139015
801.161	0.0139448
801.239	0.0140479
801.318	0.0139812
801.396	0.0138111
801.474	0.0138985
801.552	0.0136597
801.630	0.0135853
801.708	0.0136581
801.786	0.0137436
801.864	0.0134805
801.943	0.0134541
802.021	0.0135836
802.099	0.0133608
802.177	0.0135089
802.255	0.0134931
802.333	0.0135397
802.411	0.0135971
802.489	0.0136047
802.568	0.0137094
802.646	0.0137701
802.724	0.0137560
802.802	0.0138493
802.880	0.0138543
802.958	0.0137755
803.036	0.0139210
803.114	0.0139297
803.193	0.0140872
803.271	0.0142106
803.349	0.0141488
803.427	0.0142127
803.505	0.0142140
803.583	0.0142836
803.661	0.0142152
803.739	0.0142032
803.818	0.0142620
803.896	0.0143265
803.974	0.0144157
804.052	0.0142367
804.130	0.0142017
804.208	0.0142092
804.286	0.0142077
804.364	0.0142041
804.443	0.0142679
804.521	0.0142012
804.599	0.0141800
804.677	0.0140551
804.755	0.0142908
804.833	0.0140814
804.911	0.0138466
804.989	0.0140427
805.068	0.0139615
805.146	0.0139503
805.224	0.0140376
805.302	0.0138943
805.380	0.0138844
805.458	0.0139108
805.536	0.0138338
805.614	0.0138664
805.693	0.0138661
805.771	0.0139425
805.849	0.0140321
805.927	0.0139846
806.005	0.0139462
806.083	0.0140434
806.161	0.0141305
806.239	0.0143071
806.318	0.0141112
806.396	0.0142265
806.474	0.0142805
806.552	0.0141577
806.630	0.0143414
806.708	0.0142083
806.786	0.0143423
806.864	0.0142876
806.943	0.0143465
807.021	0.0144319
807.099	0.0141943
807.177	0.0142935
807.255	0.0141364
807.333	0.0140130
807.411	0.0141247
807.489	0.0139793
807.568	0.0138283
807.646	0.0140622
807.724	0.0137817
807.802	0.0138501
807.880	0.0137466
807.958	0.0137302
808.036	0.0136777
808.114	0.0135826
808.193	0.0135075
808.271	0.0135002
808.349	0.0136111
808.427	0.0135873
808.505	0.0135983
808.583	0.0134260
808.661	0.0136250
808.739	0.0136256
808.818	0.0136408
808.896	0.0137801
808.974	0.0137298
809.052	0.0137061
809.130	0.0139949
809.208	0.0139198
809.286	0.0140781
809.364	0.0139594
809.443	0.0139514
809.521	0.0140646
809.599	0.0140511
809.677	0.0142258
809.755	0.0140548
809.833	0.0142020
809.911	0.0143699
809.989	0.0143816
810.068	0.0142256
810.146	0.0142886
810.224	0.0141598
810.302	0.0143689
810.380	0.0143784
810.458	0.0145365
810.536	0.0143395
810.614	0.0144247
810.693	0.0144964
810.771	0.0144643
810.849	0.0145009
810.927	0.0144636
811.005	0.0144256
811.083	0.0143949
811.161	0.0144128
811.239	0.0143982
811.318	0.0143046
811.396	0.0142170
811.474	0.0143113
811.552	0.0142020
811.630	0.0140659
811.708	0.0140430
811.786	0.0141063
811.864	0.0140961
811.943	0.0140685
812.021	0.0141207
812.099	0.0139120
812.177	0.0138475
812.255	0.0138094
812.333	0.0138760
812.411	0.0137281
812.489	0.0138594
812.568	0.0138763
812.646	0.0138045
812.724	0.0136939
812.802	0.0135685
812.880	0.0137362
812.958	0.0136356
813.036	0.0138277
813.114	0.0137074
813.193	0.0137469
813.271	0.0138446
813.349	0.0136892
813.427	0.0138467
813.505	0.0139284
813.583	0.0138609
813.661	0.0137647
813.739	0.0136395
813.818	0.0137649
813.896	0.0138272
813.974	0.0137603
814.052	0.0138014
814.130	0.0137495
814.208	0.0137743
814.286	0.0136779
814.364	0.0136491
814.443	0.0136698
814.521	0.0136712
814.599	0.0136608
814.677	0.0136807
814.755	0.0135861
814.833	0.0135107
814.911	0.0135194
814.989	0.0135777
815.068	0.0136533
815.146	0.0136158
815.224	0.0135992
815.302	0.0135227
815.380	0.0135596
815.458	0.0137447
815.536	0.0138026
815.614	0.0137576
815.693	0.0136985
815.771	0.0139395
815.849	0.0139367
815.927	0.0139875
816.005	0.0139722
816.083	0.0140920
816.161	0.0142150
816.239	0.0141483
816.318	0.0142134
816.396	0.0142557
816.474	0.0142452
816.552	0.0142751
816.630	0.0143237
816.708	0.0142923
816.786	0.0142895
816.864	0.0143251
816.943	0.0142900
817.021	0.0141100
817.099	0.0142006
817.177	0.0141395
817.255	0.0141599
817.333	0.0140581
817.411	0.0140153
817.489	0.0141835
817.568	0.0142201
817.646	0.0140916
817.724	0.0139944
817.802	0.0141116
817.880	0.0140839
817.958	0.0139396
818.036	0.0139204
818.114	0.0139301
818.193	0.0138254
818.271	0.0138713
818.349	0.0139143
818.427	0.0137863
818.505	0.0138524
818.583	0.0137756
818.661	0.0138837
818.739	0.0137832
818.818	0.0138848
818.896	0.0139603
818.974	0.0138632
819.052	0.0137954
819.130	0.0139114
819.208	0.0138230
819.286	0.0136882
819.364	0.0137968
819.443	0.0139583
819.521	0.0138863
819.599	0.0140305
819.677	0.0139848
819.755	0.0140511
819.833	0.0141277
819.911	0.0141660
819.989	0.0141459
820.068	0.0140054
820.146	0.0142426
820.224	0.0141053
820.302	0.0140887
820.380	0.0142829
820.458	0.0142656
820.536	0.0141911
820.614	0.0143564
820.693	0.0142778
820.771	0.0141345
820.849	0.0141486
820.927	0.0140184
821.005	0.0141100
821.083	0.0140561
821.161	0.0141648
821.239	0.0141867
821.318	0.0140895
821.396	0.0141061
821.474	0.0139790
821.552	0.0141162
821.630	0.0140514
821.708	0.0141783
821.786	0.0140422
821.864	0.0139523
821.943	0.0140881
822.021	0.0142711
822.099	0.0139993
822.177	0.0140276
822.255	0.0141190
822.333	0.0141040
822.411	0.0139933
822.489	0.0141707
822.568	0.0141948
822.646	0.0141033
822.724	0.0142457
822.802	0.0141112
822.880	0.0140910
822.958	0.0141420
823.036	0.0142448
823.114	0.0141930
823.193	0.0141275
823.271	0.0143164
823.349	0.0143307
823.427	0.0139752
823.505	0.0141801
823.583	0.0141082
823.661	0.0141524
823.739	0.0140228
823.818	0.0140132
823.896	0.0140784
823.974	0.0140761
824.052	0.0140152
824.130	0.0139823
824.208	0.0139722
824.286	0.0139086
824.364	0.0138264
824.443	0.0139948
824.521	0.0137808
824.599	0.0138004
824.677	0.0139327
824.755	0.0138593
824.833	0.0139392
824.911	0.0138577
824.989	0.0138348
825.068	0.0137595
825.146	0.0138075
825.224	0.0137501
825.302	0.0137183
825.380	0.0137239
825.458	0.0137338
825.536	0.0138223
825.614	0.0136024
825.693	0.0135755
825.771	0.0136472
825.849	0.0136007
825.927	0.0135802
826.005	0.0137188
826.083	0.0138304
826.161	0.0136604
826.239	0.0136752
826.318	0.0138068
826.396	0.0136619
826.474	0.0137438
826.552	0.0138026
826.630	0.0139368
826.708	0.0139075
826.786	0.0138455
826.864	0.0138876
826.943	0.0139359
827.021	0.0138984
827.099	0.0138741
827.177	0.0138943
827.255	0.0139783
827.333	0.0139933
827.411	0.0138816
827.489	0.0138969
827.568	0.0138667
827.646	0.0138951
827.724	0.0140104
827.802	0.0137599
827.880	0.0139595
827.958	0.0140568
828.036	0.0139743
828.114	0.0140397
828.193	0.0140476
828.271	0.0141198
828.349	0.0140704
828.427	0.0141002
828.505	0.0142621
828.583	0.0142757
828.661	0.0143661
828.739	0.0142432
828.818	0.0143994
828.896	0.0144197
828.974	0.0144950
829.052	0.0142949
829.130	0.0143851
829.208	0.0143323
829.286	0.0144389
829.364	0.0144193
829.443	0.0142892
829.521	0.0143833
829.599	0.0143668
829.677	0.0142020
829.755	0.0141972
829.833	0.0142463
829.911	0.0140900
829.989	0.0142281
830.068	0.0140596
830.146	0.0140503
830.224	0.0142171
830.302	0.0140505
830.380	0.0141282
830.458	0.0141825
830.536	0.0141576
830.614	0.0141326
830.693	0.0138288
830.771	0.0141245
830.849	0.0140333
830.927	0.0140683
831.005	0.0139754
831.083	0.0140462
831.161	0.0140519
831.239	0.0140415
831.318	0.0140638
831.396	0.0140609
831.474	0.0140894
831.552	0.0139687
831.630	0.0140163
831.708	0.0140377
831.786	0.0139037
831.864	0.0138776
831.943	0.0138741
832.021	0.0139858
832.099	0.0138036
832.177	0.0137099
832.255	0.0137786
832.333	0.0137587
832.411	0.0138623
832.489	0.0138219
832.568	0.0139162
832.646	0.0138493
832.724	0.0139884
832.802	0.0139803
832.880	0.0140414
832.958	0.0140281
833.036	0.0140668
833.114	0.0139919
833.193	0.0141041
833.271	0.0140565
833.349	0.0141288
833.427	0.0143458
833.505	0.0142200
833.583	0.0141322
833.661	0.0143312
833.739	0.0142947
833.818	0.0142665
833.896	0.0143266
833.974	0.0143092
834.052	0.0144804
834.130	0.0143214
834.208	0.0143723
834.286	0.0142753
834.364	0.0144244
834.443	0.0142690
834.521	0.0140381
834.599	0.0142551
834.677	0.0140608
834.755	0.0139052
834.833	0.0139677
834.911	0.0140237
834.989	0.0139359
835.068	0.0138407
835.146	0.0137915
835.224	0.0137758
835.302	0.0138958
835.380	0.0137571
835.458	0.0137115
835.536	0.0136963
835.614	0.0137387
835.693	0.0137683
835.771	0.0136674
835.849	0.0138122
835.927	0.0136642
836.005	0.0137231
836.083	0.0136709
836.161	0.0138834
836.239	0.0137201
836.318	0.0136408
836.396	0.0138731
836.474	0.0139360
836.552	0.0138103
836.630	0.0139092
836.708	0.0139506
836.786	0.0139181
836.864	0.0139430
836.943	0.0140314
837.021	0.0139662
837.099	0.0138852
837.177	0.0139479
837.255	0.0140625
837.333	0.0140697
837.411	0.0140781
837.489	0.0140523
837.568	0.0138750
837.646	0.0138971
837.724	0.0139320
837.802	0.0138129
837.880	0.0137732
837.958	0.0138706
838.036	0.0137272
838.114	0.0138135
838.193	0.0137180
838.271	0.0137139
838.349	0.0137958
838.427	0.0138214
838.505	0.0139172
838.583	0.0138178
838.661	0.0138325
838.739	0.0140242
838.818	0.0138493
838.896	0.0138969
838.974	0.0138837
839.052	0.0140282
839.130	0.0140570
839.208	0.0140137
839.286	0.0140375
839.364	0.0141129
839.443	0.0141404
839.521	0.0140701
839.599	0.0141773
839.677	0.0142633
839.755	0.0140701
839.833	0.0142628
839.911	0.0141891
839.989	0.0142233
840.068	0.0141098
840.146	0.0141737
840.224	0.0141376
840.302	0.0141837
840.380	0.0141867
840.458	0.0141928
840.536	0.0140982
840.614	0.0140736
840.693	0.0142982
840.771	0.0140178
840.849	0.0140236
840.927	0.0140829
841.005	0.0140135
841.083	0.0140298
841.161	0.0141962
841.239	0.0141382
841.318	0.0140181
841.396	0.0139397
841.474	0.0141068
841.552	0.0141606
841.630	0.0141719
841.708	0.0141145
841.786	0.0142311
841.864	0.0143189
841.943	0.0143038
842.021	0.0142323
842.099	0.0142707
842.177	0.0142862
842.255	0.0142638
842.333	0.0143132
842.411	0.0142994
842.489	0.0141817
842.568	0.0143097
842.646	0.0143082
842.724	0.0142028
842.802	0.0141778
842.880	0.0141169
842.958	0.0141580
843.036	0.0139821
843.114	0.0140869
843.193	0.0140031
843.271	0.0138477
843.349	0.0139471
843.427	0.0138219
843.505	0.0137185
843.583	0.0137025
843.661	0.0137219
843.739	0.0137187
843.818	0.0137001
843.896	0.0136495
843.974	0.0136826
844.052	0.0136989
844.130	0.0138552
844.208	0.0137118
844.286	0.0137904
844.364	0.0138436
844.443	0.0140739
844.521	0.0139606
844.599	0.0139758
844.677	0.0140598
844.755	0.0141145
844.833	0.0141461
844.911	0.0140649
844.989	0.0140826
845.068	0.0140013
845.146	0.0141946
845.224	0.0141406
845.302	0.0140665
845.380	0.0140044
845.458	0.0141782
845.536	0.0139101
845.614	0.0138910
845.693	0.0138750
845.771	0.0139353
845.849	0.0138644
845.927	0.0137967
846.005	0.0137540
846.083	0.0138256
846.161	0.0138881
846.239	0.0137157
846.318	0.0135400
846.396	0.0135867
846.474	0.0136859
846.552	0.0137325
846.630	0.0136261
846.708	0.0135371
846.786	0.0135773
846.864	0.0136757
846.943	0.0136179
847.021	0.0135821
847.099	0.0136667
847.177	0.0136290
847.255	0.0138599
847.333	0.0138654
847.411	0.0137158
847.489	0.0137651
847.568	0.0137795
847.646	0.0138519
847.724	0.0139095
847.802	0.0139294
847.880	0.0138410
847.958	0.0139675
848.036	0.0138702
848.114	0.0138966
848.193	0.0139507
848.271	0.0139625
848.349	0.0138702
848.427	0.0138880
848.505	0.0139994
848.583	0.0139692
848.661	0.0138233
848.739	0.0139440
848.818	0.0139325
848.896	0.0140781
848.974	0.0138471
849.052	0.0136759
849.130	0.0138200
849.208	0.0139256
849.286	0.0138769
849.364	0.0137414
849.443	0.0137405
849.521	0.0137348
849.599	0.0138316
849.677	0.0138368
849.755	0.0136079
849.833	0.0138428
849.911	0.0137815
849.989	0.0137432
850.068	0.0136530
850.146	0.0136715
850.224	0.0138091
850.302	0.0136843
850.380	0.0137043
850.458	0.0137445
850.536	0.0137615
850.614	0.0136664
850.693	0.0137782
850.771	0.0137158
850.849	0.0138882
850.927	0.0137915
851.005	0.0137225
851.083	0.0137513
851.161	0.0140480
851.239	0.0138844
851.318	0.0139429
851.396	0.0138244
851.474	0.0137892
851.552	0.0140677
851.630	0.0140227
851.708	0.0140237
851.786	0.0141620
851.864	0.0142401
851.943	0.0140952
852.021	0.0142318
852.099	0.0143314
852.177	0.0141559
852.255	0.0140755
852.333	0.0143316
852.411	0.0141559
852.489	0.0141478
852.568	0.0141654
852.646	0.0140909
852.724	0.0142059
852.802	0.0141261
852.880	0.0141114
852.958	0.0141222
853.036	0.0141031
853.114	0.0140743
853.193	0.0140955
853.271	0.0140311
853.349	0.0140504
853.427	0.0140240
853.505	0.0138995
853.583	0.0140264
853.661	0.0139659
853.739	0.0140074
853.818	0.0139260
853.896	0.0139517
853.974	0.0138804
854.052	0.0139101
854.130	0.0140150
854.208	0.0141355
854.286	0.0139729
854.364	0.0141102
854.443	0.0140051
854.521	0.0140587
854.599	0.0139332
854.677	0.0140731
854.755	0.0138766
854.833	0.0140578
854.911	0.0140582
854.989	0.0140300
855.068	0.0139133
855.146	0.0140254
855.224	0.0140463
855.302	0.0139999
855.380	0.0140546
855.458	0.0140601
855.536	0.0140458
855.614	0.0140370
855.693	0.0140382
855.771	0.0139476
855.849	0.0139246
855.927	0.0140993
856.005	0.0139908
856.083	0.0139552
856.161	0.0139899
856.239	0.0139802
856.318	0.0139146
856.396	0.0137880
856.474	0.0140240
856.552	0.0140121
856.630	0.0139050
856.708	0.0137996
856.786	0.0138961
856.864	0.0139281
856.943	0.0139894
857.021	0.0140356
857.099	0.0138459
857.177	0.0141063
857.255	0.0140729
857.333	0.0141598
857.411	0.0140869
857.489	0.0141465
857.568	0.0141693
857.646	0.0141186
857.724	0.0142104
857.802	0.0141791
857.880	0.0141777
857.958	0.0141978
858.036	0.0142735
858.114	0.0141711
858.193	0.0140825
858.271	0.0140703
858.349	0.0139835
858.427	0.0141491
858.505	0.0140854
858.583	0.0141284
858.661	0.0141366
858.739	0.0141375
858.818	0.0141243
858.896	0.0142007
858.974	0.0140961
859.052	0.0141860
859.130	0.0142542
859.208	0.0142336
859.286	0.0142551
859.364	0.0139952
859.443	0.0142166
859.521	0.0141104
859.599	0.0141040
859.677	0.0140333
859.755	0.0140284
859.833	0.0140801
859.911	0.0139483
859.989	0.0139848
860.068	0.0140430
860.146	0.0139965
860.224	0.0139456
860.302	0.0139148
860.380	0.0139194
860.458	0.0139948
860.536	0.0139965
860.614	0.0139642
860.693	0.0138461
860.771	0.0138677
860.849	0.0140722
860.927	0.0139205
861.005	0.0139239
861.083	0.0140971
861.161	0.0140471
861.239	0.0140499
861.318	0.0139751
861.396	0.0140247
861.474	0.0141205
861.552	0.0140706
861.630	0.0140113
861.708	0.0139838
861.786	0.0139462
861.864	0.0140662
861.943	0.0140495
862.021	0.0139445
862.099	0.0140334
862.177	0.0139977
862.255	0.0139363
862.333	0.0139928
862.411	0.0138261
862.489	0.0139421
862.568	0.0139869
862.646	0.0140337
862.724	0.0140070
862.802	0.0139605
862.880	0.0139484
862.958	0.0139986
863.036	0.0139466
863.114	0.0141604
863.193	0.0140510
863.271	0.0141269
863.349	0.0142202
863.427	0.0143076
863.505	0.0143760
863.583	0.0142405
863.661	0.0142586
863.739	0.0142889
863.818	0.0142234
863.896	0.0141808
863.974	0.0142617
864.052	0.0141611
864.130	0.0140923
864.208	0.0142035
864.286	0.0140849
864.364	0.0141073
864.443	0.0139410
864.521	0.0141436
864.599	0.0141764
864.677	0.0141078
864.755	0.0140481
864.833	0.0140495
864.911	0.0138712
864.989	0.0140360
865.068	0.0139220
865.146	0.0139080
865.224	0.0140786
865.302	0.0139941
865.380	0.0138045
865.458	0.0140421
865.536	0.0140042
865.614	0.0139368
865.693	0.0139191
865.771	0.0140160
865.849	0.0138847
865.927	0.0138701
866.005	0.0137317
866.083	0.0138788
866.161	0.0139137
866.239	0.0139215
866.318	0.0139101
866.396	0.0139118
866.474	0.0138508
866.552	0.0138464
866.630	0.0137978
866.708	0.0138633
866.786	0.0137020
866.864	0.0137505
866.943	0.0137521
867.021	0.0138300
867.099	0.0137399
867.177	0.0139157
867.255	0.0137598
867.333	0.0137526
867.411	0.0136058
867.489	0.0136320
867.568	0.0136262
867.646	0.0135930
867.724	0.0136223
867.802	0.0137036
867.880	0.0137596
867.958	0.0137051
868.036	0.0136255
868.114	0.0137266
868.193	0.0136971
868.271	0.0136930
868.349	0.0138267
868.427	0.0137386
868.505	0.0137309
868.583	0.0137907
868.661	0.0138803
868.739	0.0138335
868.818	0.0138673
868.896	0.0138006
868.974	0.0139591
869.052	0.0138365
869.130	0.0139281
869.208	0.0139875
869.286	0.0138805
869.364	0.0141275
869.443	0.0141621
869.521	0.0140208
869.599	0.0141417
869.677	0.0141041
869.755	0.0140319
869.833	0.0140489
869.911	0.0141248
869.989	0.0140520
870.068	0.0141616
870.146	0.0142786
870.224	0.0141030
870.302	0.0141018
870.380	0.0142175
870.458	0.0139899
870.536	0.0139333
870.614	0.0139674
870.693	0.0139455
870.771	0.0138298
870.849	0.0140443
870.927	0.0138870
871.005	0.0139102
871.083	0.0139448
871.161	0.0137963
871.239	0.0138323
871.318	0.0137973
871.396	0.0138852
871.474	0.0138836
871.552	0.0137177
871.630	0.0136488
871.708	0.0136537
871.786	0.0135706
871.864	0.0137159
871.943	0.0137281
872.021	0.0136738
872.099	0.0138189
872.177	0.0137915
872.255	0.0138721
872.333	0.0138139
872.411	0.0138766
872.489	0.0137559
872.568	0.0138808
872.646	0.0139047
872.724	0.0139411
872.802	0.0139530
872.880	0.0138839
872.958	0.0139343
873.036	0.0140639
873.114	0.0138982
873.193	0.0139984
873.271	0.0141168
873.349	0.0140318
873.427	0.0140450
873.505	0.0140956
873.583	0.0140794
873.661	0.0139787
873.739	0.0139564
873.818	0.0141166
873.896	0.0140282
873.974	0.0141605
874.052	0.0141464
874.130	0.0140273
874.208	0.0141191
874.286	0.0140894
874.364	0.0140385
874.443	0.0139912
874.521	0.0142593
874.599	0.0142052
874.677	0.0141573
874.755	0.0142229
874.833	0.0140835
874.911	0.0141679
874.989	0.0139977
875.068	0.0140386
875.146	0.0140385
875.224	0.0141046
875.302	0.0141753
875.380	0.0140344
875.458	0.0141528
875.536	0.0140446
875.614	0.0140644
875.693	0.0140762
875.771	0.0140424
875.849	0.0140073
875.927	0.0141060
876.005	0.0141201
876.083	0.0140553
876.161	0.0140437
876.239	0.0138634
876.318	0.0139789
876.396	0.0140368
876.474	0.0140063
876.552	0.0139665
876.630	0.0138439
876.708	0.0138918
876.786	0.0139167
876.864	0.0138583
876.943	0.0139382
877.021	0.0139377
877.099	0.0137991
877.177	0.0138413
877.255	0.0139365
877.333	0.0139583
877.411	0.0139218
877.489	0.0139773
877.568	0.0140393
877.646	0.0140173
877.724	0.0139456
877.802	0.0140369
877.880	0.0141236
877.958	0.0140384
878.036	0.0139510
878.114	0.0139680
878.193	0.0140893
878.271	0.0140614
878.349	0.0140153
878.427	0.0139512
878.505	0.0138766
878.583	0.0139184
878.661	0.0140137
878.739	0.0139010
878.818	0.0139248
878.896	0.0139206
878.974	0.0138974
879.052	0.0139033
879.130	0.0138029
879.208	0.0138579
879.286	0.0139532
879.364	0.0139679
879.443	0.0140539
879.521	0.0138095
879.599	0.0139681
879.677	0.0140949
879.755	0.0139709
879.833	0.0139470
879.911	0.0141785
879.989	0.0140951
880.068	0.0141957
880.146	0.0141678
880.224	0.0140240
880.302	0.0141750
880.380	0.0140942
880.458	0.0142914
880.536	0.0141378
880.614	0.0142358
880.693	0.0142054
880.771	0.0142368
880.849	0.0141593
880.927	0.0141781
881.005	0.0143536
881.083	0.0142028
881.161	0.0140704
881.239	0.0142434
881.318	0.0141994
881.396	0.0142329
881.474	0.0142688
881.552	0.0142702
881.630	0.0142078
881.708	0.0141624
881.786	0.0142539
881.864	0.0143586
881.943	0.0143250
882.021	0.0143117
882.099	0.0141287
882.177	0.0142160
882.255	0.0141896
882.333	0.0142896
882.411	0.0143114
882.489	0.0141899
882.568	0.0142618
882.646	0.0143501
882.724	0.0142554
882.802	0.0141991
882.880	0.0141970
882.958	0.0143192
883.036	0.0141938
883.114	0.0142378
883.193	0.0141722
883.271	0.0140451
883.349	0.0140274
883.427	0.0141154
883.505	0.0141306
883.583	0.0140205
883.661	0.0139906
883.739	0.0139751
883.818	0.0139581
883.896	0.0141060
883.974	0.0140264
884.052	0.0140176
884.130	0.0139384
884.208	0.0138170
884.286	0.0139799
884.364	0.0139624
884.443	0.0139694
884.521	0.0139948
884.599	0.0141436
884.677	0.0139757
884.755	0.0140453
884.833	0.0142731
884.911	0.0141540
884.989	0.0140344
885.068	0.0140767
885.146	0.0141177
885.224	0.0142692
885.302	0.0141710
885.380	0.0142262
885.458	0.0141956
885.536	0.0144001
885.614	0.0141497
885.693	0.0141236
885.771	0.0141837
885.849	0.0142510
885.927	0.0142009
886.005	0.0141661
886.083	0.0141629
886.161	0.0141642
886.239	0.0142353
886.318	0.0140862
886.396	0.0142479
886.474	0.0141746
886.552	0.0141186
886.630	0.0140782
886.708	0.0140974
886.786	0.0140156
886.864	0.0141238
886.943	0.0141277
887.021	0.0142237
887.099	0.0141850
887.177	0.0140553
887.255	0.0141421
887.333	0.0140057
887.411	0.0141402
887.489	0.0142602
887.568	0.0141293
887.646	0.0141772
887.724	0.0142416
887.802	0.0141738
887.880	0.0140530
887.958	0.0141468
888.036	0.0141369
888.114	0.0141968
888.193	0.0139845
888.271	0.0141122
888.349	0.0141296
888.427	0.0139468
888.505	0.0139614
888.583	0.0140412
888.661	0.0139635
888.739	0.0140192
888.818	0.0139346
888.896	0.0139290
888.974	0.0138647
889.052	0.0139043
889.130	0.0138071
889.208	0.0139098
889.286	0.0138708
889.364	0.0139699
889.443	0.0139070
889.521	0.0137868
889.599	0.0137296
889.677	0.0138149
889.755	0.0138396
889.833	0.0139520
889.911	0.0141172
889.989	0.0140526
890.068	0.0141137
890.146	0.0140064
890.224	0.0140424
890.302	0.0140566
890.380	0.0141094
890.458	0.0141871
890.536	0.0141576
890.614	0.0141964
890.693	0.0141406
890.771	0.0140725
890.849	0.0142636
890.927	0.0141553
891.005	0.0140791
891.083	0.0140379
891.161	0.0140145
891.239	0.0139784
891.318	0.0140094
891.396	0.0139972
891.474	0.0140565
891.552	0.0138567
891.630	0.0138312
891.708	0.0137942
891.786	0.0138853
891.864	0.0138298
891.943	0.0136417
892.021	0.0137784
892.099	0.0137661
892.177	0.0138258
892.255	0.0138962
892.333	0.0137930
892.411	0.0138721
892.489	0.0138766
892.568	0.0140250
892.646	0.0138997
892.724	0.0139951
892.802	0.0140190
892.880	0.0141462
892.958	0.0141448
893.036	0.0139896
893.114	0.0140358
893.193	0.0140548
893.271	0.0140666
893.349	0.0140708
893.427	0.0142380
893.505	0.0141557
893.583	0.0140489
893.661	0.0140732
893.739	0.0140806
893.818	0.0141398
893.896	0.0142338
893.974	0.0140528
894.052	0.0141174
894.130	0.0141255
894.208	0.0140184
894.286	0.0140865
894.364	0.0141544
894.443	0.0139924
894.521	0.0141565
894.599	0.0141526
894.677	0.0141403
894.755	0.0141805
894.833	0.0141986
894.911	0.0141483
894.989	0.0139428
895.068	0.0139867
895.146	0.0140365
895.224	0.0140003
895.302	0.0140544
895.380	0.0138869
895.458	0.0139578
895.536	0.0139278
895.614	0.0137964
895.693	0.0137343
895.771	0.0138016
895.849	0.0138830
895.927	0.0138332
896.005	0.0137515
896.083	0.0138503
896.161	0.0139079
896.239	0.0138113
896.318	0.0137438
896.396	0.0137870
896.474	0.0137770
896.552	0.0138743
896.630	0.0138240
896.708	0.0138557
896.786	0.0137463
896.864	0.0137671
896.943	0.0139575
897.021	0.0138272
897.099	0.0137594
897.177	0.0138098
897.255	0.0139043
897.333	0.0139485
897.411	0.0140920
897.489	0.0140347
897.568	0.0140820
897.646	0.0142208
897.724	0.0140828
897.802	0.0140972
897.880	0.0141227
897.958	0.0141352
898.036	0.0141400
898.114	0.0141518
898.193	0.0142670
898.271	0.0142994
898.349	0.0142481
898.427	0.0142097
898.505	0.0142641
898.583	0.0142206
898.661	0.0142130
898.739	0.0141982
898.818	0.0141378
898.896	0.0141381
898.974	0.0140664
899.052	0.0139998
899.130	0.0140238
899.208	0.0140643
899.286	0.0140818
899.364	0.0141422
899.443	0.0139584
899.521	0.0140289
899.599	0.0140053
899.677	0.0138683
899.755	0.0140577
899.833	0.0139728
899.911	0.0140853
899.989	0.0140036
900.068	0.0140654
900.146	0.0139362
900.224	0.0138760
900.302	0.0140987
900.380	0.0140678
900.458	0.0139751
900.536	0.0140071
900.614	0.0138898
900.693	0.0139876
900.771	0.0139781
900.849	0.0139693
900.927	0.0140039
901.005	0.0140028
901.083	0.0138609
901.161	0.0139944
901.239	0.0139581
901.318	0.0140522
901.396	0.0139866
901.474	0.0139378
901.552	0.0140502
901.630	0.0139931
901.708	0.0138486
901.786	0.0138881
901.864	0.0140540
901.943	0.0139967
902.021	0.0140211
902.099	0.0140199
902.177	0.0140694
902.255	0.0141154
902.333	0.0139857
902.411	0.0139166
902.489	0.0139384
902.568	0.0142056
902.646	0.0139797
902.724	0.0140422
902.802	0.0141214
902.880	0.0141202
902.958	0.0140404
903.036	0.0141270
903.114	0.0141294
903.193	0.0142627
903.271	0.0142261
903.349	0.0142374
903.427	0.0141230
903.505	0.0142822
903.583	0.0142685
903.661	0.0143039
903.739	0.0143346
903.818	0.0141602
903.896	0.0143080
903.974	0.0143112
904.052	0.0142972
904.130	0.0141600
904.208	0.0142208
904.286	0.0140511
904.364	0.0140710
904.443	0.0140272
904.521	0.0141659
904.599	0.0139892
904.677	0.0138854
904.755	0.0140311
904.833	0.0139497
904.911	0.0138564
904.989	0.0139668
905.068	0.0139685
905.146	0.0139771
905.224	0.0138403
905.302	0.0140555
905.380	0.0139276
905.458	0.0139417
905.536	0.0140298
905.614	0.0139498
905.693	0.0138480
905.771	0.0139649
905.849	0.0138729
905.927	0.0139374
906.005	0.0138948
906.083	0.0139504
906.161	0.0140126
906.239	0.0138490
906.318	0.0137968
906.396	0.0138702
906.474	0.0138631
906.552	0.0138013
906.630	0.0137212
906.708	0.0138700
906.786	0.0139153
906.864	0.0139393
906.943	0.0139342
907.021	0.0139447
907.099	0.0139812
907.177	0.0139754
907.255	0.0139687
907.333	0.0139650
907.411	0.0140567
907.489	0.0140095
907.568	0.0140306
907.646	0.0140070
907.724	0.0141458
907.802	0.0139197
907.880	0.0140345
907.958	0.0139393
908.036	0.0139507
908.114	0.0139793
908.193	0.0138918
908.271	0.0140616
908.349	0.0139774
908.427	0.0138708
908.505	0.0139536
908.583	0.0139750
908.661	0.0138159
908.739	0.0139795
908.818	0.0139558
908.896	0.0140408
908.974	0.0141277
909.052	0.0138817
909.130	0.0138581
909.208	0.0139111
909.286	0.0139814
909.364	0.0140087
909.443	0.0140771
909.521	0.0142091
909.599	0.0141994
909.677	0.0139951
909.755	0.0140042
909.833	0.0141231
909.911	0.0141408
909.989	0.0141206
910.068	0.0141842
910.146	0.0141462
910.224	0.0141608
910.302	0.0140753
910.380	0.0140449
910.458	0.0139619
910.536	0.0141039
910.614	0.0139906
910.693	0.0139677
910.771	0.0138445
910.849	0.0138969
910.927	0.0141178
911.005	0.0139534
911.083	0.0139691
911.161	0.0139005
911.239	0.0139973
911.318	0.0140081
911.396	0.0137350
911.474	0.0138419
911.552	0.0138091
911.630	0.0137297
911.708	0.0137057
911.786	0.0140434
911.864	0.0139383
911.943	0.0136486
912.021	0.0137011
912.099	0.0137475
912.177	0.0136291
912.255	0.0136252
912.333	0.0135885
912.411	0.0137066
912.489	0.0137458
912.568	0.0136649
912.646	0.0137211
912.724	0.0135650
912.802	0.0136655
912.880	0.0136896
912.958	0.0136551
913.036	0.0138634
913.114	0.0137687
913.193	0.0139069
913.271	0.0137852
913.349	0.0139000
913.427	0.0138435
913.505	0.0139123
913.583	0.0138894
913.661	0.0139413
913.739	0.0139849
913.818	0.0139396
913.896	0.0139965
913.974	0.0140813
914.052	0.0140515
914.130	0.0141837
914.208	0.0141334
914.286	0.0140700
914.364	0.0141481
914.443	0.0141709
914.521	0.0141941
914.599	0.0142722
914.677	0.0141557
914.755	0.0140585
914.833	0.0142156
914.911	0.0141145
914.989	0.0139653
915.068	0.0140505
915.146	0.0139488
915.224	0.0139907
915.302	0.0138989
915.380	0.0139432
915.458	0.0138940
915.536	0.0138366
915.614	0.0136433
915.693	0.0138106
915.771	0.0138210
915.849	0.0138659
915.927	0.0138452
916.005	0.0138363
916.083	0.0137870
916.161	0.0139247
916.239	0.0137996
916.318	0.0137273
916.396	0.0139366
916.474	0.0138391
916.552	0.0139174
916.630	0.0137987
916.708	0.0139967
916.786	0.0141637
916.864	0.0141194
916.943	0.0139557
917.021	0.0139882
917.099	0.0141251
917.177	0.0141175
917.255	0.0141489
917.333	0.0140387
917.411	0.0141587
917.489	0.0141403
917.568	0.0141273
917.646	0.0140636
917.724	0.0141746
917.802	0.0141328
917.880	0.0140208
917.958	0.0141230
918.036	0.0142403
918.114	0.0140511
918.193	0.0141641
918.271	0.0141608
918.349	0.0140719
918.427	0.0139010
918.505	0.0139783
918.583	0.0139783
918.661	0.0139588
918.739	0.0139669
918.818	0.0139977
918.896	0.0138628
918.974	0.0139037
919.052	0.0139002
919.130	0.0139146
919.208	0.0139352
919.286	0.0139658
919.364	0.0138418
919.443	0.0139350
919.521	0.0138688
919.599	0.0140503
919.677	0.0139637
919.755	0.0138134
919.833	0.0138810
919.911	0.0138851
919.989	0.0138976
920.068	0.0138378
920.146	0.0139380
920.224	0.0138501
920.302	0.0138577
920.380	0.0137448
920.458	0.0138240
920.536	0.0139298
920.614	0.0140099
920.693	0.0138947
920.771	0.0139039
920.849	0.0139127
920.927	0.0139555
921.005	0.0138754
921.083	0.0139117
921.161	0.0137872
921.239	0.0138535
921.318	0.0139087
921.396	0.0138956
921.474	0.0140162
921.552	0.0139532
921.630	0.0140658
921.708	0.0139507
921.786	0.0140436
921.864	0.0140443
921.943	0.0142184
922.021	0.0140520
922.099	0.0142623
922.177	0.0140871
922.255	0.0139921
922.333	0.0141518
922.411	0.0140494
922.489	0.0140278
922.568	0.0141503
922.646	0.0140791
922.724	0.0141400
922.802	0.0139819
922.880	0.0140790
922.958	0.0138791
923.036	0.0137698
923.114	0.0138429
923.193	0.0138729
923.271	0.0139248
923.349	0.0138000
923.427	0.0137202
923.505	0.0137917
923.583	0.0137571
923.661	0.0136283
923.739	0.0135401
923.818	0.0136389
923.896	0.0138156
923.974	0.0136224
924.052	0.0137402
924.130	0.0137209
924.208	0.0137004
924.286	0.0136654
924.364	0.0137707
924.443	0.0136826
924.521	0.0136996
924.599	0.0137537
924.677	0.0137085
924.755	0.0136090
924.833	0.0137907
924.911	0.0136498
924.989	0.0138303
925.068	0.0137858
925.146	0.0136708
925.224	0.0137737
925.302	0.0137817
925.380	0.0137814
925.458	0.0137792
925.536	0.0138835
925.614	0.0138327
925.693	0.0138904
925.771	0.0138939
925.849	0.0138615
925.927	0.0138327
926.005	0.0139268
926.083	0.0138785
926.161	0.0139612
926.239	0.0139030
926.318	0.0138974
926.396	0.0137669
926.474	0.0137932
926.552	0.0138851
926.630	0.0138177
926.708	0.0137733
926.786	0.0138388
926.864	0.0138763
926.943	0.0137694
927.021	0.0138868
927.099	0.0138400
927.177	0.0139229
927.255	0.0138186
927.333	0.0138267
927.411	0.0138919
927.489	0.0139446
927.568	0.0138534
927.646	0.0138439
927.724	0.0138022
927.802	0.0138653
927.880	0.0137865
927.958	0.0139305
928.036	0.0139891
928.114	0.0139155
928.193	0.0137568
928.271	0.0140569
928.349	0.0139297
928.427	0.0138554
928.505	0.0138680
928.583	0.0138818
928.661	0.0139941
928.739	0.0138583
928.818	0.0137415
928.896	0.0139536
928.974	0.0138629
929.052	0.0139079
929.130	0.0138211
929.208	0.0138398
929.286	0.0139523
929.364	0.0138774
929.443	0.0140025
929.521	0.0139565
929.599	0.0139186
929.677	0.0139105
929.755	0.0139877
929.833	0.0139697
929.911	0.0139664
929.989	0.0139615
930.068	0.0138680
930.146	0.0139896
930.224	0.0138895
930.302	0.0139325
930.380	0.0140339
930.458	0.0140669
930.536	0.0139988
930.614	0.0139886
930.693	0.0139479
930.771	0.0140628
930.849	0.0140489
930.927	0.0139542
931.005	0.0138834
931.083	0.0139873
931.161	0.0141208
931.239	0.0139486
931.318	0.0140846
931.396	0.0139234
931.474	0.0139936
931.552	0.0140805
931.630	0.0141534
931.708	0.0141880
931.786	0.0140316
931.864	0.0140569
931.943	0.0140645
932.021	0.0141586
932.099	0.0140293
932.177	0.0140308
932.255	0.0141527
932.333	0.0140601
932.411	0.0142503
932.489	0.0141489
932.568	0.0142358
932.646	0.0141806
932.724	0.0140582
932.802	0.0141759
932.880	0.0141740
932.958	0.0141228
933.036	0.0141345
933.114	0.0142342
933.193	0.0141734
933.271	0.0141943
933.349	0.0141746
933.427	0.0142825
933.505	0.0141811
933.583	0.0141528
933.661	0.0139928
933.739	0.0140971
933.818	0.0140709
933.896	0.0140775
933.974	0.0140299
934.052	0.0141438
934.130	0.0141203
934.208	0.0140057
934.286	0.0140745
934.364	0.0139835
934.443	0.0140028
934.521	0.0140575
934.599	0.0139613
934.677	0.0138315
934.755	0.0139199
934.833	0.0137709
934.911	0.0139500
934.989	0.0139442
935.068	0.0138270
935.146	0.0139160
935.224	0.0139174
935.302	0.0139488
935.380	0.0139104
935.458	0.0139176
935.536	0.0139627
935.614	0.0139034
935.693	0.0139603
935.771	0.0139466
935.849	0.0139534
935.927	0.0140041
936.005	0.0139409
936.083	0.0139526
936.161	0.0139525
936.239	0.0140968
936.318	0.0140452
936.396	0.0140366
936.474	0.0140092
936.552	0.0139823
936.630	0.0138877
936.708	0.0138380
936.786	0.0138975
936.864	0.0139127
936.943	0.0139709
937.021	0.0139286
937.099	0.0137743
937.177	0.0138562
937.255	0.0138613
937.333	0.0139352
937.411	0.0137844
937.489	0.0138455
937.568	0.0139394
937.646	0.0139857
937.724	0.0138683
937.802	0.0139410
937.880	0.0139661
937.958	0.0139796
938.036	0.0140079
938.114	0.0139729
938.193	0.0139334
938.271	0.0139028
938.349	0.0139544
938.427	0.0140082
938.505	0.0139194
938.583	0.0139241
938.661	0.0140799
938.739	0.0140662
938.818	0.0140739
938.896	0.0139878
938.974	0.0139784
939.052	0.0139419
939.130	0.0139631
939.208	0.0139951
939.286	0.0140311
939.364	0.0140321
939.443	0.0140690
939.521	0.0140040
939.599	0.0139904
939.677	0.0140442
939.755	0.0139480
939.833	0.0139481
939.911	0.0140683
939.989	0.0139532
940.068	0.0139581
940.146	0.0139220
940.224	0.0139831
940.302	0.0140022
940.380	0.0139271
940.458	0.0139699
940.536	0.0140481
940.614	0.0138735
940.693	0.0139779
940.771	0.0139214
940.849	0.0139200
940.927	0.0140469
941.005	0.0140277
941.083	0.0139630
941.161	0.0139345
941.239	0.0140509
941.318	0.0139700
941.396	0.0140842
941.474	0.0140241
941.552	0.0139764
941.630	0.0138675
941.708	0.0140407
941.786	0.0139966
941.864	0.0138710
941.943	0.0137949
942.021	0.0139035
942.099	0.0139885
942.177	0.0139525
942.255	0.0138985
942.333	0.0140830
942.411	0.0139604
942.489	0.0139865
942.568	0.0139574
942.646	0.0137881
942.724	0.0139217
942.802	0.0138686
942.880	0.0138650
942.958	0.0139371
943.036	0.0137665
943.114	0.0138631
943.193	0.0137575
943.271	0.0139338
943.349	0.0138817
943.427	0.0138450
943.505	0.0139835
943.583	0.0138682
943.661	0.0138582
943.739	0.0139622
943.818	0.0137352
943.896	0.0140942
943.974	0.0139974
944.052	0.0141022
944.130	0.0141274
944.208	0.0140862
944.286	0.0140383
944.364	0.0140152
944.443	0.0140780
944.521	0.0139793
944.599	0.0139568
944.677	0.0140242
944.755	0.0139568
944.833	0.0139621
944.911	0.0141321
944.989	0.0141409
945.068	0.0139308
945.146	0.0140869
945.224	0.0141918
945.302	0.0140318
945.380	0.0139932
945.458	0.0139478
945.536	0.0140334
945.614	0.0140315
945.693	0.0140512
945.771	0.0140961
945.849	0.0139741
945.927	0.0140791
946.005	0.0140903
946.083	0.0140826
946.161	0.0140371
946.239	0.0140538
946.318	0.0140559
946.396	0.0140205
946.474	0.0139961
946.552	0.0141019
946.630	0.0139429
946.708	0.0140781
946.786	0.0139240
946.864	0.0138591
946.943	0.0139493
947.021	0.0139085
947.099	0.0140235
947.177	0.0139390
947.255	0.0140096
947.333	0.0140091
947.411	0.0139862
947.489	0.0138679
947.568	0.0138815
947.646	0.0138968
947.724	0.0139367
947.802	0.0140629
947.880	0.0140285
947.958	0.0139739
948.036	0.0139533
948.114	0.0140359
948.193	0.0139999
948.271	0.0139991
948.349	0.0139154
948.427	0.0140985
948.505	0.0140202
948.583	0.0141783
948.661	0.0140530
948.739	0.0139513
948.818	0.0141171
948.896	0.0139787
948.974	0.0141868
949.052	0.0139993
949.130	0.0140060
949.208	0.0140998
949.286	0.0140755
949.364	0.0139788
949.443	0.0139858
949.521	0.0139198
949.599	0.0140674
949.677	0.0138812
949.755	0.0138675
949.833	0.0138834
949.911	0.0137251
949.989	0.0135951
950.068	0.0137890
950.146	0.0137994
950.224	0.0138268
950.302	0.0137861
950.380	0.0137887
950.458	0.0135661
950.536	0.0137710
950.614	0.0136286
950.693	0.0136704
950.771	0.0136883
950.849	0.0138043
950.927	0.0135780
951.005	0.0136353
951.083	0.0138365
951.161	0.0138065
951.239	0.0137728
951.318	0.0137051
951.396	0.0137899
951.474	0.0136292
951.552	0.0136029
951.630	0.0138501
951.708	0.0138026
951.786	0.0137712
951.864	0.0140746
951.943	0.0140117
952.021	0.0139046
952.099	0.0139635
952.177	0.0138924
952.255	0.0138882
952.333	0.0141866
952.411	0.0141248
952.489	0.0139880
952.568	0.0141259
952.646	0.0141858
952.724	0.0141838
952.802	0.0140701
952.880	0.0141456
952.958	0.0140426
953.036	0.0142342
953.114	0.0141391
953.193	0.0140893
953.271	0.0141043
953.349	0.0141151
953.427	0.0140881
953.505	0.0140839
953.583	0.0141199
953.661	0.0141328
953.739	0.0141019
953.818	0.0140623
953.896	0.0141900
953.974	0.0142031
954.052	0.0140982
954.130	0.0141227
954.208	0.0141876
954.286	0.0141158
954.364	0.0142370
954.443	0.0141519
954.521	0.0140234
954.599	0.0140929
954.677	0.0140738
954.755	0.0140810
954.833	0.0141471
954.911	0.0142174
954.989	0.0140823
955.068	0.0141406
955.146	0.0140612
955.224	0.0141696
955.302	0.0140025
955.380	0.0139442
955.458	0.0139506
955.536	0.0140710
955.614	0.0140766
955.693	0.0139843
955.771	0.0140430
955.849	0.0141129
955.927	0.0138693
956.005	0.0140265
956.083	0.0140358
956.161	0.0140518
956.239	0.0139837
956.318	0.0140361
956.396	0.0139821
956.474	0.0139831
956.552	0.0140556
956.630	0.0140797
956.708	0.0140168
956.786	0.0141997
956.864	0.0139916
956.943	0.0140034
957.021	0.0140440
957.099	0.0139346
957.177	0.0140230
957.255	0.0140649
957.333	0.0140131
957.411	0.0140746
957.489	0.0139870
957.568	0.0139227
957.646	0.0140123
957.724	0.0141274
957.802	0.0139773
957.880	0.0139049
957.958	0.0139850
958.036	0.0141216
958.114	0.0140867
958.193	0.0139750
958.271	0.0140727
958.349	0.0141229
958.427	0.0141284
958.505	0.0139622
958.583	0.0141100
958.661	0.0141254
958.739	0.0142570
958.818	0.0141233
958.896	0.0139500
958.974	0.0138994
959.052	0.0141716
959.130	0.0141232
959.208	0.0140748
959.286	0.0140694
959.364	0.0141857
959.443	0.0141192
959.521	0.0140537
959.599	0.0142209
959.677	0.0142101
959.755	0.0141085
959.833	0.0140574
959.911	0.0141206
