05/14/2022	16:44:27	Ver.	4.1	UNKNOWN
Optical Delay	639.989416	Delta X		0.078125	Sweeps	1	Scan Rate	0/0
Coordinates	Axis 1	NaN	Axis 2	NaN	Axis 3	NaN	Axis 4	NaN	Axis 5	NaN	Axis 6	0.000000
TX Power	0.000000	RX Power	0.000000

639.989	0.0139803
640.068	0.0137899
640.146	0.0138099
640.224	0.0138724
640.302	0.0138243
640.380	0.0138216
640.458	0.0139292
640.536	0.0137055
640.614	0.0138863
640.693	0.0139686
640.771	0.0137220
640.849	0.0138757
640.927	0.0138795
641.005	0.0138947
641.083	0.0138849
641.161	0.0138775
641.239	0.0138509
641.318	0.0138320
641.396	0.0138919
641.474	0.0137915
641.552	0.0137389
641.630	0.0137698
641.708	0.0136965
641.786	0.0137771
641.864	0.0137058
641.943	0.0140076
642.021	0.0137780
642.099	0.0136454
642.177	0.0137051
642.255	0.0138105
642.333	0.0137308
642.411	0.0136841
642.489	0.0136869
642.568	0.0137058
642.646	0.0136802
642.724	0.0136530
642.802	0.0137078
642.880	0.0135658
642.958	0.0137060
643.036	0.0135686
643.114	0.0136214
643.193	0.0136289
643.271	0.0135737
643.349	0.0136301
643.427	0.0136868
643.505	0.0136667
643.583	0.0135795
643.661	0.0136642
643.739	0.0136667
643.818	0.0134519
643.896	0.0137071
643.974	0.0135961
644.052	0.0134190
644.130	0.0136619
644.208	0.0135942
644.286	0.0135674
644.364	0.0136771
644.443	0.0137286
644.521	0.0136763
644.599	0.0137018
644.677	0.0136301
644.755	0.0137302
644.833	0.0137946
644.911	0.0136446
644.989	0.0137133
645.068	0.0135651
645.146	0.0136693
645.224	0.0137202
645.302	0.0137959
645.380	0.0135995
645.458	0.0137334
645.536	0.0136967
645.614	0.0136808
645.693	0.0136585
645.771	0.0137562
645.849	0.0137190
645.927	0.0136560
646.005	0.0135953
646.083	0.0136742
646.161	0.0135847
646.239	0.0135753
646.318	0.0136330
646.396	0.0137197
646.474	0.0137924
646.552	0.0136733
646.630	0.0136677
646.708	0.0137065
646.786	0.0136191
646.864	0.0137064
646.943	0.0136684
647.021	0.0136478
647.099	0.0137629
647.177	0.0136237
647.255	0.0137523
647.333	0.0136913
647.411	0.0135487
647.489	0.0135912
647.568	0.0137076
647.646	0.0135855
647.724	0.0136638
647.802	0.0135590
647.880	0.0137791
647.958	0.0135654
648.036	0.0135899
648.114	0.0136420
648.193	0.0135705
648.271	0.0137404
648.349	0.0135746
648.427	0.0135756
648.505	0.0137107
648.583	0.0136037
648.661	0.0136935
648.739	0.0136501
648.818	0.0135747
648.896	0.0136771
648.974	0.0136462
649.052	0.0135889
649.130	0.0135606
649.208	0.0137579
649.286	0.0134777
649.364	0.0136198
649.443	0.0138324
649.521	0.0138041
649.599	0.0137160
649.677	0.0136774
649.755	0.0135737
649.833	0.0137126
649.911	0.0135771
649.989	0.0135918
650.068	0.0135848
650.146	0.0135587
650.224	0.0136156
650.302	0.0135787
650.380	0.0136449
650.458	0.0136053
650.536	0.0135485
650.614	0.0135892
650.693	0.0134425
650.771	0.0134264
650.849	0.0135538
650.927	0.0136032
651.005	0.0135309
651.083	0.0134405
651.161	0.0136076
651.239	0.0136108
651.318	0.0135615
651.396	0.0134672
651.474	0.0136942
651.552	0.0135676
651.630	0.0135676
651.708	0.0136758
651.786	0.0134801
651.864	0.0136426
651.943	0.0136925
652.021	0.0136118
652.099	0.0135328
652.177	0.0134975
652.255	0.0134125
652.333	0.0135336
652.411	0.0134683
652.489	0.0135496
652.568	0.0136665
652.646	0.0135749
652.724	0.0135502
652.802	0.0134734
652.880	0.0135808
652.958	0.0134428
653.036	0.0136234
653.114	0.0135486
653.193	0.0136085
653.271	0.0136695
653.349	0.0136706
653.427	0.0135341
653.505	0.0136832
653.583	0.0136181
653.661	0.0135859
653.739	0.0136029
653.818	0.0134712
653.896	0.0134727
653.974	0.0136582
654.052	0.0137086
654.130	0.0136591
654.208	0.0135314
654.286	0.0137097
654.364	0.0136347
654.443	0.0135563
654.521	0.0137756
654.599	0.0135922
654.677	0.0135095
654.755	0.0136244
654.833	0.0135677
654.911	0.0135609
654.989	0.0137270
655.068	0.0135356
655.146	0.0136562
655.224	0.0136045
655.302	0.0136708
655.380	0.0134447
655.458	0.0138461
655.536	0.0136003
655.614	0.0135593
655.693	0.0135476
655.771	0.0135452
655.849	0.0138351
655.927	0.0136860
656.005	0.0135848
656.083	0.0136762
656.161	0.0136552
656.239	0.0136534
656.318	0.0137262
656.396	0.0137998
656.474	0.0137465
656.552	0.0138026
656.630	0.0136523
656.708	0.0137449
656.786	0.0137902
656.864	0.0137280
656.943	0.0138039
657.021	0.0138394
657.099	0.0137254
657.177	0.0138184
657.255	0.0138858
657.333	0.0139711
657.411	0.0138582
657.489	0.0138766
657.568	0.0139714
657.646	0.0138204
657.724	0.0139198
657.802	0.0138963
657.880	0.0140153
657.958	0.0138655
658.036	0.0139239
658.114	0.0140951
658.193	0.0138815
658.271	0.0139278
658.349	0.0139471
658.427	0.0139157
658.505	0.0138596
658.583	0.0139644
658.661	0.0139255
658.739	0.0139269
658.818	0.0139815
658.896	0.0139489
658.974	0.0139487
659.052	0.0139996
659.130	0.0140065
659.208	0.0139342
659.286	0.0139190
659.364	0.0139437
659.443	0.0139548
659.521	0.0138793
659.599	0.0138687
659.677	0.0137795
659.755	0.0139471
659.833	0.0139559
659.911	0.0138934
659.989	0.0138496
660.068	0.0140276
660.146	0.0140489
660.224	0.0137746
660.302	0.0139079
660.380	0.0139933
660.458	0.0139218
660.536	0.0139509
660.614	0.0138642
660.693	0.0138649
660.771	0.0138612
660.849	0.0138076
660.927	0.0138911
661.005	0.0138807
661.083	0.0137495
661.161	0.0137939
661.239	0.0138622
661.318	0.0137691
661.396	0.0138771
661.474	0.0137600
661.552	0.0137922
661.630	0.0138520
661.708	0.0138376
661.786	0.0136823
661.864	0.0138490
661.943	0.0139273
662.021	0.0138327
662.099	0.0138261
662.177	0.0137636
662.255	0.0137162
662.333	0.0137407
662.411	0.0137453
662.489	0.0137891
662.568	0.0137111
662.646	0.0138322
662.724	0.0137599
662.802	0.0137707
662.880	0.0137601
662.958	0.0137567
663.036	0.0137750
663.114	0.0137974
663.193	0.0138248
663.271	0.0139194
663.349	0.0138120
663.427	0.0137955
663.505	0.0137913
663.583	0.0138205
663.661	0.0137650
663.739	0.0138928
663.818	0.0139223
663.896	0.0138575
663.974	0.0137518
664.052	0.0139294
664.130	0.0138335
664.208	0.0138264
664.286	0.0139708
664.364	0.0139710
664.443	0.0139137
664.521	0.0138668
664.599	0.0137193
664.677	0.0138602
664.755	0.0138887
664.833	0.0138467
664.911	0.0138598
664.989	0.0137826
665.068	0.0137821
665.146	0.0138873
665.224	0.0138608
665.302	0.0137392
665.380	0.0138424
665.458	0.0137642
665.536	0.0136543
665.614	0.0137228
665.693	0.0137827
665.771	0.0136617
665.849	0.0136669
665.927	0.0136748
666.005	0.0136312
666.083	0.0136327
666.161	0.0138574
666.239	0.0138622
666.318	0.0136266
666.396	0.0137595
666.474	0.0139178
666.552	0.0138660
666.630	0.0138622
666.708	0.0140941
666.786	0.0140640
666.864	0.0140279
666.943	0.0138944
667.021	0.0139121
667.099	0.0139905
667.177	0.0139687
667.255	0.0139231
667.333	0.0137700
667.411	0.0138021
667.489	0.0139433
667.568	0.0137588
667.646	0.0136185
667.724	0.0136116
667.802	0.0135995
667.880	0.0135191
667.958	0.0135760
668.036	0.0136086
668.114	0.0134818
668.193	0.0134634
668.271	0.0134240
668.349	0.0135596
668.427	0.0135164
668.505	0.0135603
668.583	0.0136848
668.661	0.0137601
668.739	0.0137106
668.818	0.0139269
668.896	0.0138315
668.974	0.0138190
669.052	0.0139077
669.130	0.0141800
669.208	0.0141055
669.286	0.0142139
669.364	0.0141380
669.443	0.0140620
669.521	0.0141135
669.599	0.0139909
669.677	0.0138489
669.755	0.0138875
669.833	0.0137889
669.911	0.0138186
669.989	0.0135903
670.068	0.0134852
670.146	0.0134906
670.224	0.0134834
670.302	0.0133240
670.380	0.0132771
670.458	0.0132037
670.536	0.0130920
670.614	0.0131197
670.693	0.0132928
670.771	0.0131468
670.849	0.0131948
670.927	0.0132764
671.005	0.0131875
671.083	0.0133048
671.161	0.0134358
671.239	0.0135534
671.318	0.0135532
671.396	0.0138223
671.474	0.0138679
671.552	0.0139764
671.630	0.0138510
671.708	0.0140779
671.786	0.0140883
671.864	0.0139929
671.943	0.0141671
672.021	0.0141800
672.099	0.0139970
672.177	0.0139633
672.255	0.0137671
672.333	0.0138223
672.411	0.0136575
672.489	0.0134441
672.568	0.0133563
672.646	0.0131846
672.724	0.0130106
672.802	0.0128975
672.880	0.0129031
672.958	0.0127506
673.036	0.0125943
673.114	0.0124892
673.193	0.0125602
673.271	0.0124736
673.349	0.0123660
673.427	0.0124515
673.505	0.0124663
673.583	0.0125883
673.661	0.0126665
673.739	0.0128992
673.818	0.0131142
673.896	0.0129816
673.974	0.0132381
674.052	0.0135487
674.130	0.0137662
674.208	0.0139554
674.286	0.0142032
674.364	0.0144118
674.443	0.0144894
674.521	0.0146619
674.599	0.0149095
674.677	0.0148181
674.755	0.0147683
674.833	0.0149139
674.911	0.0149541
674.989	0.0149271
675.068	0.0147876
675.146	0.0146152
675.224	0.0144591
675.302	0.0143936
675.380	0.0141378
675.458	0.0139733
675.536	0.0137096
675.614	0.0135522
675.693	0.0133842
675.771	0.0130268
675.849	0.0129654
675.927	0.0126350
676.005	0.0125623
676.083	0.0124561
676.161	0.0123318
676.239	0.0122049
676.318	0.0121889
676.396	0.0120849
676.474	0.0121211
676.552	0.0122702
676.630	0.0123286
676.708	0.0123114
676.786	0.0125986
676.864	0.0127838
676.943	0.0131514
677.021	0.0130948
677.099	0.0134890
677.177	0.0137377
677.255	0.0139051
677.333	0.0141431
677.411	0.0143885
677.489	0.0145673
677.568	0.0145506
677.646	0.0147527
677.724	0.0151030
677.802	0.0150864
677.880	0.0151128
677.958	0.0152759
678.036	0.0153944
678.114	0.0153348
678.193	0.0152371
678.271	0.0150477
678.349	0.0151379
678.427	0.0152017
678.505	0.0148744
678.583	0.0149297
678.661	0.0148329
678.739	0.0147722
678.818	0.0148022
678.896	0.0146507
678.974	0.0144977
679.052	0.0144063
679.130	0.0144100
679.208	0.0143699
679.286	0.0142536
679.364	0.0141202
679.443	0.0140894
679.521	0.0138155
679.599	0.0137149
679.677	0.0137536
679.755	0.0135136
679.833	0.0135377
679.911	0.0133462
679.989	0.0131071
680.068	0.0130121
680.146	0.0129328
680.224	0.0128825
680.302	0.0126498
680.380	0.0126333
680.458	0.0127535
680.536	0.0125620
680.614	0.0124187
680.693	0.0125041
680.771	0.0125384
680.849	0.0125108
680.927	0.0125095
681.005	0.0125095
681.083	0.0127357
681.161	0.0129233
681.239	0.0130092
681.318	0.0130640
681.396	0.0133418
681.474	0.0135425
681.552	0.0136309
681.630	0.0140026
681.708	0.0142274
681.786	0.0144260
681.864	0.0145383
681.943	0.0147881
682.021	0.0150849
682.099	0.0151714
682.177	0.0154599
682.255	0.0155716
682.333	0.0156777
682.411	0.0156784
682.489	0.0156060
682.568	0.0157353
682.646	0.0157655
682.724	0.0157047
682.802	0.0156216
682.880	0.0154836
682.958	0.0155462
683.036	0.0154023
683.114	0.0152795
683.193	0.0151203
683.271	0.0151253
683.349	0.0148566
683.427	0.0147081
683.505	0.0144624
683.583	0.0143216
683.661	0.0139338
683.739	0.0138392
683.818	0.0136526
683.896	0.0132711
683.974	0.0131017
684.052	0.0128690
684.130	0.0125801
684.208	0.0125108
684.286	0.0121546
684.364	0.0119992
684.443	0.0118336
684.521	0.0117194
684.599	0.0114345
684.677	0.0115247
684.755	0.0115340
684.833	0.0113799
684.911	0.0113284
684.989	0.0114330
685.068	0.0115102
685.146	0.0114490
685.224	0.0116972
685.302	0.0116199
685.380	0.0119799
685.458	0.0121085
685.536	0.0124753
685.614	0.0126930
685.693	0.0128569
685.771	0.0131548
685.849	0.0132983
685.927	0.0136156
686.005	0.0139472
686.083	0.0141707
686.161	0.0143490
686.239	0.0146579
686.318	0.0148976
686.396	0.0149562
686.474	0.0150771
686.552	0.0152447
686.630	0.0156036
686.708	0.0153665
686.786	0.0156728
686.864	0.0156422
686.943	0.0156415
687.021	0.0156042
687.099	0.0154740
687.177	0.0154339
687.255	0.0151688
687.333	0.0152344
687.411	0.0150187
687.489	0.0151304
687.568	0.0149907
687.646	0.0148219
687.724	0.0147984
687.802	0.0145621
687.880	0.0143971
687.958	0.0143743
688.036	0.0142865
688.114	0.0139784
688.193	0.0139557
688.271	0.0137658
688.349	0.0136686
688.427	0.0136004
688.505	0.0134031
688.583	0.0134389
688.661	0.0133432
688.739	0.0132752
688.818	0.0131637
688.896	0.0131664
688.974	0.0127969
689.052	0.0130085
689.130	0.0129391
689.208	0.0128987
689.286	0.0127798
689.364	0.0126957
689.443	0.0126987
689.521	0.0126087
689.599	0.0124117
689.677	0.0125998
689.755	0.0125382
689.833	0.0125108
689.911	0.0126656
689.989	0.0125043
690.068	0.0127039
690.146	0.0128096
690.224	0.0130580
690.302	0.0130917
690.380	0.0132235
690.458	0.0134317
690.536	0.0134283
690.614	0.0136793
690.693	0.0138312
690.771	0.0138740
690.849	0.0139060
690.927	0.0140669
691.005	0.0141279
691.083	0.0142983
691.161	0.0142502
691.239	0.0143607
691.318	0.0142789
691.396	0.0144114
691.474	0.0143620
691.552	0.0144683
691.630	0.0144814
691.708	0.0144820
691.786	0.0145129
691.864	0.0145265
691.943	0.0145504
692.021	0.0147765
692.099	0.0148950
692.177	0.0149071
692.255	0.0149702
692.333	0.0149873
692.411	0.0151023
692.489	0.0151354
692.568	0.0153180
692.646	0.0155022
692.724	0.0154104
692.802	0.0155336
692.880	0.0154554
692.958	0.0156081
693.036	0.0158482
693.114	0.0156478
693.193	0.0156690
693.271	0.0157193
693.349	0.0156827
693.427	0.0155560
693.505	0.0152166
693.583	0.0151039
693.661	0.0149471
693.739	0.0147208
693.818	0.0144532
693.896	0.0142687
693.974	0.0139260
694.052	0.0137377
694.130	0.0133934
694.208	0.0130376
694.286	0.0128255
694.364	0.0124465
694.443	0.0121197
694.521	0.0118494
694.599	0.0115824
694.677	0.0113529
694.755	0.0111402
694.833	0.0108767
694.911	0.0107451
694.989	0.0105791
695.068	0.0105797
695.146	0.0104169
695.224	0.0102487
695.302	0.0105186
695.380	0.0105563
695.458	0.0106474
695.536	0.0109083
695.614	0.0109787
695.693	0.0114452
695.771	0.0117626
695.849	0.0121347
695.927	0.0125545
696.005	0.0131652
696.083	0.0133794
696.161	0.0138651
696.239	0.0144000
696.318	0.0148701
696.396	0.0150584
696.474	0.0156769
696.552	0.0159811
696.630	0.0161843
696.708	0.0163841
696.786	0.0167271
696.864	0.0167193
696.943	0.0169289
697.021	0.0169676
697.099	0.0170319
697.177	0.0167948
697.255	0.0167270
697.333	0.0167432
697.411	0.0166966
697.489	0.0165207
697.568	0.0162994
697.646	0.0161742
697.724	0.0159459
697.802	0.0156910
697.880	0.0153635
697.958	0.0152845
698.036	0.0150537
698.114	0.0149251
698.193	0.0146578
698.271	0.0145000
698.349	0.0142607
698.427	0.0140076
698.505	0.0138837
698.583	0.0137003
698.661	0.0134882
698.739	0.0132610
698.818	0.0130964
698.896	0.0130370
698.974	0.0129047
699.052	0.0128182
699.130	0.0127348
699.208	0.0124793
699.286	0.0123686
699.364	0.0123065
699.443	0.0122958
699.521	0.0123289
699.599	0.0122305
699.677	0.0121556
699.755	0.0121018
699.833	0.0120383
699.911	0.0119350
699.989	0.0119314
700.068	0.0119654
700.146	0.0118849
700.224	0.0117950
700.302	0.0118015
700.380	0.0117471
700.458	0.0118175
700.536	0.0119216
700.614	0.0118970
700.693	0.0120166
700.771	0.0121395
700.849	0.0123602
700.927	0.0124236
701.005	0.0125998
701.083	0.0128690
701.161	0.0131023
701.239	0.0132655
701.318	0.0136052
701.396	0.0141105
701.474	0.0144096
701.552	0.0145667
701.630	0.0148503
701.708	0.0152995
701.786	0.0155461
701.864	0.0157374
701.943	0.0158314
702.021	0.0161292
702.099	0.0163872
702.177	0.0163854
702.255	0.0165305
702.333	0.0165143
702.411	0.0164113
702.489	0.0163506
702.568	0.0162292
702.646	0.0161122
702.724	0.0160475
702.802	0.0157819
702.880	0.0156355
702.958	0.0153843
703.036	0.0151973
703.114	0.0152386
703.193	0.0148939
703.271	0.0147015
703.349	0.0146142
703.427	0.0145467
703.505	0.0144033
703.583	0.0141447
703.661	0.0141788
703.739	0.0140208
703.818	0.0140199
703.896	0.0137185
703.974	0.0137827
704.052	0.0135909
704.130	0.0134790
704.208	0.0132654
704.286	0.0132074
704.364	0.0130772
704.443	0.0128492
704.521	0.0126012
704.599	0.0124174
704.677	0.0123006
704.755	0.0121328
704.833	0.0119341
704.911	0.0117191
704.989	0.0114907
705.068	0.0113792
705.146	0.0113153
705.224	0.0111459
705.302	0.0111132
705.380	0.0111078
705.458	0.0111131
705.536	0.0112619
705.614	0.0114722
705.693	0.0114940
705.771	0.0115892
705.849	0.0117272
705.927	0.0119118
706.005	0.0121024
706.083	0.0122652
706.161	0.0127280
706.239	0.0127558
706.318	0.0130835
706.396	0.0133461
706.474	0.0133721
706.552	0.0136789
706.630	0.0139046
706.708	0.0140436
706.786	0.0144458
706.864	0.0145562
706.943	0.0147392
707.021	0.0151009
707.099	0.0151976
707.177	0.0154282
707.255	0.0157333
707.333	0.0156476
707.411	0.0158329
707.489	0.0159578
707.568	0.0160019
707.646	0.0160146
707.724	0.0159612
707.802	0.0159010
707.880	0.0159365
707.958	0.0158507
708.036	0.0156266
708.114	0.0154716
708.193	0.0152514
708.271	0.0151407
708.349	0.0149063
708.427	0.0148580
708.505	0.0145498
708.583	0.0143817
708.661	0.0141467
708.739	0.0141403
708.818	0.0140722
708.896	0.0138882
708.974	0.0137418
709.052	0.0138020
709.130	0.0137494
709.208	0.0137649
709.286	0.0138155
709.364	0.0137972
709.443	0.0137653
709.521	0.0136538
709.599	0.0137415
709.677	0.0136176
709.755	0.0138334
709.833	0.0138637
709.911	0.0137448
709.989	0.0137406
710.068	0.0138687
710.146	0.0138588
710.224	0.0136206
710.302	0.0134779
710.380	0.0133868
710.458	0.0134544
710.536	0.0134917
710.614	0.0131301
710.693	0.0130434
710.771	0.0130210
710.849	0.0130581
710.927	0.0128803
711.005	0.0129222
711.083	0.0130333
711.161	0.0131337
711.239	0.0130573
711.318	0.0130299
711.396	0.0133447
711.474	0.0132494
711.552	0.0134437
711.630	0.0135072
711.708	0.0138459
711.786	0.0137403
711.864	0.0138690
711.943	0.0138618
712.021	0.0138714
712.099	0.0138840
712.177	0.0140221
712.255	0.0139484
712.333	0.0138396
712.411	0.0139935
712.489	0.0140540
712.568	0.0141093
712.646	0.0140449
712.724	0.0138828
712.802	0.0139105
712.880	0.0139555
712.958	0.0139689
713.036	0.0139818
713.114	0.0139590
713.193	0.0138503
713.271	0.0138469
713.349	0.0138799
713.427	0.0139013
713.505	0.0139781
713.583	0.0138773
713.661	0.0139328
713.739	0.0140542
713.818	0.0142133
713.896	0.0141210
713.974	0.0140986
714.052	0.0142626
714.130	0.0142303
714.208	0.0144361
714.286	0.0144473
714.364	0.0144336
714.443	0.0145429
714.521	0.0144159
714.599	0.0144976
714.677	0.0144221
714.755	0.0145100
714.833	0.0145950
714.911	0.0145734
714.989	0.0146258
715.068	0.0145001
715.146	0.0144915
715.224	0.0147206
715.302	0.0144711
715.380	0.0142538
715.458	0.0144147
715.536	0.0143216
715.614	0.0144044
715.693	0.0143069
715.771	0.0143283
715.849	0.0142505
715.927	0.0141987
716.005	0.0141502
716.083	0.0142209
716.161	0.0139722
716.239	0.0141170
716.318	0.0139904
716.396	0.0138288
716.474	0.0136801
716.552	0.0134290
716.630	0.0134746
716.708	0.0132139
716.786	0.0131600
716.864	0.0131554
716.943	0.0129369
717.021	0.0127477
717.099	0.0126981
717.177	0.0126207
717.255	0.0125977
717.333	0.0124237
717.411	0.0123625
717.489	0.0125392
717.568	0.0124596
717.646	0.0124083
717.724	0.0123692
717.802	0.0123232
717.880	0.0123270
717.958	0.0123806
718.036	0.0123818
718.114	0.0122716
718.193	0.0121759
718.271	0.0121558
718.349	0.0122484
718.427	0.0122787
718.505	0.0122765
718.583	0.0125195
718.661	0.0126360
718.739	0.0125775
718.818	0.0128464
718.896	0.0130898
718.974	0.0132574
719.052	0.0133676
719.130	0.0134942
719.208	0.0138379
719.286	0.0139582
719.364	0.0141691
719.443	0.0145742
719.521	0.0149052
719.599	0.0149944
719.677	0.0151700
719.755	0.0154140
719.833	0.0156284
719.911	0.0157625
719.989	0.0159096
720.068	0.0158442
720.146	0.0161671
720.224	0.0160226
720.302	0.0159298
720.380	0.0160734
720.458	0.0158010
720.536	0.0157922
720.614	0.0156062
720.693	0.0155309
720.771	0.0152987
720.849	0.0151025
720.927	0.0151447
721.005	0.0149284
721.083	0.0147150
721.161	0.0145892
721.239	0.0144795
721.318	0.0142429
721.396	0.0141480
721.474	0.0139806
721.552	0.0138121
721.630	0.0136761
721.708	0.0137160
721.786	0.0135567
721.864	0.0133804
721.943	0.0132447
722.021	0.0133488
722.099	0.0130788
722.177	0.0131260
722.255	0.0130270
722.333	0.0130007
722.411	0.0130272
722.489	0.0128999
722.568	0.0129182
722.646	0.0128936
722.724	0.0127932
722.802	0.0128700
722.880	0.0128277
722.958	0.0128683
723.036	0.0129146
723.114	0.0129598
723.193	0.0128278
723.271	0.0128959
723.349	0.0128526
723.427	0.0128933
723.505	0.0129372
723.583	0.0129615
723.661	0.0130157
723.739	0.0128851
723.818	0.0130780
723.896	0.0130233
723.974	0.0129441
724.052	0.0129032
724.130	0.0129697
724.208	0.0128734
724.286	0.0128439
724.364	0.0129945
724.443	0.0128339
724.521	0.0130016
724.599	0.0129472
724.677	0.0130453
724.755	0.0132726
724.833	0.0133374
724.911	0.0132082
724.989	0.0134415
725.068	0.0137247
725.146	0.0136280
725.224	0.0138043
725.302	0.0139085
725.380	0.0140868
725.458	0.0142792
725.536	0.0144964
725.614	0.0146914
725.693	0.0146978
725.771	0.0147513
725.849	0.0149160
725.927	0.0150078
726.005	0.0149578
726.083	0.0150967
726.161	0.0151566
726.239	0.0152100
726.318	0.0150933
726.396	0.0150780
726.474	0.0151273
726.552	0.0152969
726.630	0.0152680
726.708	0.0150950
726.786	0.0151726
726.864	0.0151951
726.943	0.0150816
727.021	0.0151268
727.099	0.0151138
727.177	0.0149908
727.255	0.0150555
727.333	0.0148840
727.411	0.0148608
727.489	0.0146254
727.568	0.0145795
727.646	0.0145231
727.724	0.0141975
727.802	0.0140240
727.880	0.0139893
727.958	0.0138400
728.036	0.0137156
728.114	0.0136580
728.193	0.0133094
728.271	0.0131503
728.349	0.0130487
728.427	0.0128762
728.505	0.0128536
728.583	0.0125418
728.661	0.0124102
728.739	0.0123170
728.818	0.0122742
728.896	0.0121898
728.974	0.0120379
729.052	0.0120526
729.130	0.0120010
729.208	0.0120329
729.286	0.0121892
729.364	0.0122049
729.443	0.0122265
729.521	0.0124885
729.599	0.0124406
729.677	0.0124803
729.755	0.0124095
729.833	0.0123181
729.911	0.0124394
729.989	0.0124294
730.068	0.0123906
730.146	0.0124345
730.224	0.0125161
730.302	0.0123792
730.380	0.0126102
730.458	0.0127502
730.536	0.0128133
730.614	0.0129530
730.693	0.0130635
730.771	0.0132955
730.849	0.0135397
730.927	0.0136638
731.005	0.0139964
731.083	0.0141431
731.161	0.0144176
731.239	0.0146033
731.318	0.0147903
731.396	0.0148573
731.474	0.0150259
731.552	0.0152672
731.630	0.0152815
731.708	0.0154991
731.786	0.0156432
731.864	0.0154900
731.943	0.0157219
732.021	0.0156290
732.099	0.0156870
732.177	0.0155587
732.255	0.0155775
732.333	0.0154507
732.411	0.0154015
732.489	0.0152843
732.568	0.0152668
732.646	0.0151835
732.724	0.0149550
732.802	0.0149834
732.880	0.0147243
732.958	0.0147530
733.036	0.0145876
733.114	0.0146060
733.193	0.0145457
733.271	0.0145660
733.349	0.0144808
733.427	0.0142202
733.505	0.0141502
733.583	0.0140662
733.661	0.0140891
733.739	0.0139979
733.818	0.0136710
733.896	0.0134875
733.974	0.0133616
734.052	0.0132947
734.130	0.0130431
734.208	0.0130302
734.286	0.0128905
734.364	0.0127006
734.443	0.0127602
734.521	0.0127539
734.599	0.0124653
734.677	0.0124442
734.755	0.0124526
734.833	0.0125008
734.911	0.0125889
734.989	0.0126772
735.068	0.0125782
735.146	0.0125851
735.224	0.0126708
735.302	0.0127302
735.380	0.0128100
735.458	0.0127510
735.536	0.0128031
735.614	0.0127718
735.693	0.0127634
735.771	0.0126999
735.849	0.0128410
735.927	0.0129046
736.005	0.0126791
736.083	0.0128078
736.161	0.0128693
736.239	0.0128973
736.318	0.0131049
736.396	0.0132016
736.474	0.0133534
736.552	0.0133924
736.630	0.0135555
736.708	0.0137331
736.786	0.0139828
736.864	0.0140646
736.943	0.0143702
737.021	0.0144293
737.099	0.0146077
737.177	0.0148734
737.255	0.0150191
737.333	0.0150305
737.411	0.0152067
737.489	0.0151338
737.568	0.0153674
737.646	0.0153192
737.724	0.0151823
737.802	0.0152325
737.880	0.0150658
737.958	0.0151083
738.036	0.0148766
738.114	0.0147809
738.193	0.0148425
738.271	0.0146201
738.349	0.0146368
738.427	0.0146217
738.505	0.0145401
738.583	0.0144482
738.661	0.0144337
738.739	0.0144317
738.818	0.0143690
738.896	0.0143270
738.974	0.0142332
739.052	0.0141267
739.130	0.0141846
739.208	0.0141716
739.286	0.0141299
739.364	0.0140974
739.443	0.0138889
739.521	0.0136674
739.599	0.0138476
739.677	0.0136351
739.755	0.0136944
739.833	0.0135651
739.911	0.0134064
739.989	0.0134056
740.068	0.0133795
740.146	0.0132845
740.224	0.0132838
740.302	0.0132386
740.380	0.0131875
740.458	0.0131303
740.536	0.0131170
740.614	0.0130543
740.693	0.0131293
740.771	0.0130382
740.849	0.0129794
740.927	0.0129737
741.005	0.0128759
741.083	0.0128133
741.161	0.0129386
741.239	0.0128217
741.318	0.0128675
741.396	0.0128976
741.474	0.0127917
741.552	0.0127808
741.630	0.0127917
741.708	0.0127347
741.786	0.0127586
741.864	0.0128069
741.943	0.0129041
742.021	0.0128948
742.099	0.0130504
742.177	0.0130756
742.255	0.0130718
742.333	0.0131760
742.411	0.0132679
742.489	0.0135546
742.568	0.0134681
742.646	0.0135293
742.724	0.0136547
742.802	0.0139529
742.880	0.0140215
742.958	0.0140272
743.036	0.0141383
743.114	0.0142531
743.193	0.0144701
743.271	0.0145160
743.349	0.0144699
743.427	0.0143076
743.505	0.0145839
743.583	0.0145728
743.661	0.0147272
743.739	0.0147377
743.818	0.0145734
743.896	0.0145334
743.974	0.0145135
744.052	0.0145133
744.130	0.0145745
744.208	0.0144441
744.286	0.0145320
744.364	0.0143826
744.443	0.0144078
744.521	0.0143751
744.599	0.0144942
744.677	0.0143877
744.755	0.0142768
744.833	0.0141751
744.911	0.0142686
744.989	0.0143478
745.068	0.0144305
745.146	0.0144295
745.224	0.0143655
745.302	0.0141800
745.380	0.0142312
745.458	0.0140344
745.536	0.0138855
745.614	0.0138797
745.693	0.0137198
745.771	0.0138365
745.849	0.0136561
745.927	0.0134763
746.005	0.0134870
746.083	0.0131971
746.161	0.0131038
746.239	0.0131074
746.318	0.0127985
746.396	0.0128867
746.474	0.0126362
746.552	0.0125547
746.630	0.0126197
746.708	0.0125948
746.786	0.0126809
746.864	0.0126025
746.943	0.0126199
747.021	0.0125500
747.099	0.0125372
747.177	0.0126473
747.255	0.0125201
747.333	0.0126132
747.411	0.0126130
747.489	0.0126488
747.568	0.0126120
747.646	0.0128363
747.724	0.0129330
747.802	0.0128977
747.880	0.0130067
747.958	0.0130567
748.036	0.0132515
748.114	0.0131831
748.193	0.0133305
748.271	0.0134570
748.349	0.0134450
748.427	0.0133536
748.505	0.0137292
748.583	0.0137846
748.661	0.0139823
748.739	0.0139922
748.818	0.0142010
748.896	0.0143264
748.974	0.0143111
749.052	0.0144789
749.130	0.0145761
749.208	0.0145103
749.286	0.0146039
749.364	0.0147736
749.443	0.0147482
749.521	0.0147978
749.599	0.0146623
749.677	0.0146828
749.755	0.0146776
749.833	0.0146730
749.911	0.0146992
749.989	0.0145988
750.068	0.0144543
750.146	0.0144143
750.224	0.0143534
750.302	0.0144170
750.380	0.0144139
750.458	0.0142986
750.536	0.0142940
750.614	0.0142510
750.693	0.0141010
750.771	0.0141197
750.849	0.0141639
750.927	0.0142287
751.005	0.0140924
751.083	0.0140163
751.161	0.0139986
751.239	0.0140225
751.318	0.0139053
751.396	0.0138670
751.474	0.0137651
751.552	0.0137932
751.630	0.0136079
751.708	0.0135514
751.786	0.0133676
751.864	0.0135240
751.943	0.0134797
752.021	0.0133672
752.099	0.0132943
752.177	0.0130760
752.255	0.0131827
752.333	0.0132150
752.411	0.0129646
752.489	0.0130187
752.568	0.0131796
752.646	0.0131055
752.724	0.0130675
752.802	0.0131092
752.880	0.0131045
752.958	0.0131566
753.036	0.0131451
753.114	0.0131811
753.193	0.0133511
753.271	0.0133249
753.349	0.0133292
753.427	0.0134073
753.505	0.0135194
753.583	0.0135310
753.661	0.0134682
753.739	0.0137675
753.818	0.0138194
753.896	0.0138464
753.974	0.0139182
754.052	0.0139002
754.130	0.0139178
754.208	0.0139608
754.286	0.0140729
754.364	0.0140051
754.443	0.0140450
754.521	0.0139754
754.599	0.0139011
754.677	0.0141678
754.755	0.0140522
754.833	0.0140949
754.911	0.0140916
754.989	0.0141649
755.068	0.0141171
755.146	0.0140376
755.224	0.0140803
755.302	0.0140237
755.380	0.0139872
755.458	0.0139716
755.536	0.0140248
755.614	0.0139206
755.693	0.0140140
755.771	0.0139458
755.849	0.0138726
755.927	0.0139120
756.005	0.0138187
756.083	0.0137152
756.161	0.0138837
756.239	0.0136026
756.318	0.0135802
756.396	0.0137749
756.474	0.0136984
756.552	0.0135503
756.630	0.0135645
756.708	0.0136709
756.786	0.0135366
756.864	0.0135286
756.943	0.0135048
757.021	0.0135179
757.099	0.0136662
757.177	0.0136131
757.255	0.0139769
757.333	0.0137494
757.411	0.0138718
757.489	0.0139565
757.568	0.0140027
757.646	0.0139423
757.724	0.0141850
757.802	0.0140829
757.880	0.0140667
757.958	0.0140948
758.036	0.0142147
758.114	0.0141519
758.193	0.0141888
758.271	0.0140799
758.349	0.0138503
758.427	0.0139454
758.505	0.0137856
758.583	0.0137440
758.661	0.0138716
758.739	0.0137344
758.818	0.0136327
758.896	0.0136419
758.974	0.0135615
759.052	0.0134769
759.130	0.0134343
759.208	0.0134843
759.286	0.0133932
759.364	0.0134370
759.443	0.0134601
759.521	0.0135139
759.599	0.0134277
759.677	0.0133205
759.755	0.0133543
759.833	0.0134251
759.911	0.0134294
759.989	0.0135106
760.068	0.0134659
760.146	0.0135752
760.224	0.0136217
760.302	0.0135923
760.380	0.0135084
760.458	0.0135683
760.536	0.0137088
760.614	0.0137100
760.693	0.0137012
760.771	0.0136945
760.849	0.0138595
760.927	0.0138794
761.005	0.0139956
761.083	0.0140227
761.161	0.0140746
761.239	0.0140697
761.318	0.0141891
761.396	0.0141706
761.474	0.0142725
761.552	0.0143716
761.630	0.0142642
761.708	0.0142690
761.786	0.0144568
761.864	0.0143116
761.943	0.0142920
762.021	0.0145075
762.099	0.0144141
762.177	0.0144403
762.255	0.0144995
762.333	0.0143491
762.411	0.0141232
762.489	0.0142763
762.568	0.0141441
762.646	0.0141866
762.724	0.0139494
762.802	0.0139474
762.880	0.0138827
762.958	0.0139576
763.036	0.0139243
763.114	0.0138334
763.193	0.0137502
763.271	0.0136838
763.349	0.0135893
763.427	0.0137634
763.505	0.0137021
763.583	0.0137241
763.661	0.0137822
763.739	0.0138097
763.818	0.0137154
763.896	0.0137405
763.974	0.0135823
764.052	0.0136764
764.130	0.0137212
764.208	0.0136801
764.286	0.0136370
764.364	0.0136619
764.443	0.0135901
764.521	0.0134960
764.599	0.0135699
764.677	0.0134845
764.755	0.0134132
764.833	0.0134178
764.911	0.0133630
764.989	0.0133832
765.068	0.0132611
765.146	0.0133591
765.224	0.0133680
765.302	0.0134678
765.380	0.0134318
765.458	0.0135445
765.536	0.0134580
765.614	0.0134498
765.693	0.0136137
765.771	0.0135754
765.849	0.0136800
765.927	0.0137844
766.005	0.0138007
766.083	0.0138861
766.161	0.0138363
766.239	0.0138544
766.318	0.0138848
766.396	0.0139573
766.474	0.0140841
766.552	0.0140849
766.630	0.0139680
766.708	0.0139579
766.786	0.0140221
766.864	0.0140035
766.943	0.0139085
767.021	0.0138468
767.099	0.0141418
767.177	0.0140431
767.255	0.0138406
767.333	0.0138064
767.411	0.0138699
767.489	0.0139314
767.568	0.0139484
767.646	0.0140129
767.724	0.0138857
767.802	0.0137797
767.880	0.0139130
767.958	0.0139343
768.036	0.0138650
768.114	0.0138795
768.193	0.0139156
768.271	0.0138304
768.349	0.0139174
768.427	0.0137794
768.505	0.0139243
768.583	0.0138929
768.661	0.0138379
768.739	0.0138374
768.818	0.0136425
768.896	0.0137294
768.974	0.0137809
769.052	0.0138139
769.130	0.0139684
769.208	0.0137718
769.286	0.0135739
769.364	0.0136193
769.443	0.0135938
769.521	0.0136620
769.599	0.0136012
769.677	0.0135487
769.755	0.0135184
769.833	0.0135730
769.911	0.0134400
769.989	0.0135030
770.068	0.0136201
770.146	0.0137025
770.224	0.0136961
770.302	0.0137406
770.380	0.0136615
770.458	0.0136975
770.536	0.0140449
770.614	0.0139130
770.693	0.0139172
770.771	0.0140575
770.849	0.0140028
770.927	0.0140185
771.005	0.0140925
771.083	0.0140904
771.161	0.0141157
771.239	0.0142411
771.318	0.0141861
771.396	0.0142632
771.474	0.0143306
771.552	0.0140761
771.630	0.0140840
771.708	0.0142245
771.786	0.0141841
771.864	0.0140175
771.943	0.0141968
772.021	0.0141685
772.099	0.0141770
772.177	0.0139053
772.255	0.0139320
772.333	0.0140653
772.411	0.0138562
772.489	0.0137366
772.568	0.0138233
772.646	0.0136985
772.724	0.0136327
772.802	0.0134704
772.880	0.0133367
772.958	0.0134435
773.036	0.0133823
773.114	0.0132615
773.193	0.0132573
773.271	0.0131794
773.349	0.0131995
773.427	0.0129343
773.505	0.0130376
773.583	0.0131173
773.661	0.0132005
773.739	0.0130914
773.818	0.0132059
773.896	0.0132854
773.974	0.0132348
774.052	0.0133273
774.130	0.0134109
774.208	0.0135330
774.286	0.0136325
774.364	0.0137164
774.443	0.0137547
774.521	0.0137957
774.599	0.0139355
774.677	0.0139745
774.755	0.0140969
774.833	0.0139833
774.911	0.0141885
774.989	0.0142172
775.068	0.0141570
775.146	0.0141032
775.224	0.0142510
775.302	0.0142583
775.380	0.0142997
775.458	0.0142513
775.536	0.0142070
775.614	0.0141353
775.693	0.0143180
775.771	0.0141955
775.849	0.0140884
775.927	0.0140829
776.005	0.0141038
776.083	0.0139618
776.161	0.0139927
776.239	0.0140323
776.318	0.0138458
776.396	0.0138061
776.474	0.0137992
776.552	0.0137749
776.630	0.0138016
776.708	0.0137962
776.786	0.0138839
776.864	0.0138070
776.943	0.0137344
777.021	0.0136466
777.099	0.0137078
777.177	0.0136338
777.255	0.0134859
777.333	0.0136998
777.411	0.0136156
777.489	0.0135204
777.568	0.0134016
777.646	0.0133782
777.724	0.0134928
777.802	0.0134842
777.880	0.0133337
777.958	0.0133943
778.036	0.0135108
778.114	0.0134949
778.193	0.0135532
778.271	0.0135152
778.349	0.0134850
778.427	0.0135966
778.505	0.0136300
778.583	0.0135658
778.661	0.0136600
778.739	0.0137845
778.818	0.0136306
778.896	0.0137127
778.974	0.0138350
779.052	0.0137928
779.130	0.0138084
779.208	0.0139071
779.286	0.0138677
779.364	0.0140926
779.443	0.0140392
779.521	0.0139799
779.599	0.0139181
779.677	0.0139995
779.755	0.0139938
779.833	0.0141148
779.911	0.0140298
779.989	0.0140962
780.068	0.0140231
780.146	0.0142050
780.224	0.0141196
780.302	0.0139130
780.380	0.0140710
780.458	0.0140854
780.536	0.0139368
780.614	0.0140719
780.693	0.0139009
780.771	0.0140076
780.849	0.0139555
780.927	0.0139307
781.005	0.0137921
781.083	0.0138062
781.161	0.0137873
781.239	0.0136864
781.318	0.0136723
781.396	0.0135322
781.474	0.0137074
781.552	0.0135862
781.630	0.0135146
781.708	0.0134629
781.786	0.0135146
781.864	0.0133878
781.943	0.0133956
782.021	0.0135033
782.099	0.0135169
782.177	0.0135847
782.255	0.0135807
782.333	0.0134760
782.411	0.0136419
782.489	0.0136353
782.568	0.0136535
782.646	0.0137494
782.724	0.0137382
782.802	0.0137151
782.880	0.0139471
782.958	0.0139444
783.036	0.0138554
783.114	0.0140029
783.193	0.0139948
783.271	0.0140559
783.349	0.0139590
783.427	0.0141647
783.505	0.0140147
783.583	0.0140681
783.661	0.0141234
783.739	0.0139948
783.818	0.0140204
783.896	0.0139727
783.974	0.0138409
784.052	0.0139158
784.130	0.0139577
784.208	0.0139977
784.286	0.0138128
784.364	0.0138744
784.443	0.0139426
784.521	0.0139469
784.599	0.0139101
784.677	0.0139430
784.755	0.0139680
784.833	0.0141703
784.911	0.0140000
784.989	0.0137870
785.068	0.0140712
785.146	0.0139824
785.224	0.0138044
785.302	0.0139149
785.380	0.0139111
785.458	0.0138243
785.536	0.0138377
785.614	0.0138364
785.693	0.0137984
785.771	0.0137633
785.849	0.0137400
785.927	0.0136946
786.005	0.0136279
786.083	0.0134997
786.161	0.0135213
786.239	0.0135134
786.318	0.0134464
786.396	0.0134007
786.474	0.0134041
786.552	0.0133015
786.630	0.0133654
786.708	0.0133945
786.786	0.0134553
786.864	0.0134554
786.943	0.0134111
787.021	0.0134219
787.099	0.0133594
787.177	0.0136033
787.255	0.0135366
787.333	0.0135442
787.411	0.0136447
787.489	0.0136324
787.568	0.0135541
787.646	0.0136369
787.724	0.0137337
787.802	0.0138918
787.880	0.0137549
787.958	0.0138261
788.036	0.0137742
788.114	0.0139123
788.193	0.0138408
788.271	0.0140373
788.349	0.0139087
788.427	0.0139770
788.505	0.0140770
788.583	0.0140159
788.661	0.0140358
788.739	0.0140001
788.818	0.0140589
788.896	0.0140690
788.974	0.0142160
789.052	0.0140359
789.130	0.0141148
789.208	0.0142039
789.286	0.0142881
789.364	0.0141434
789.443	0.0140611
789.521	0.0140536
789.599	0.0142258
789.677	0.0141283
789.755	0.0140522
789.833	0.0141312
789.911	0.0140479
789.989	0.0140775
790.068	0.0140443
790.146	0.0139090
790.224	0.0138902
790.302	0.0139713
790.380	0.0138966
790.458	0.0137818
790.536	0.0137413
790.614	0.0135271
790.693	0.0136039
790.771	0.0135746
790.849	0.0134914
790.927	0.0134853
791.005	0.0135342
791.083	0.0133318
791.161	0.0133556
791.239	0.0133035
791.318	0.0132965
791.396	0.0133253
791.474	0.0133864
791.552	0.0133497
791.630	0.0132981
791.708	0.0133642
791.786	0.0133305
791.864	0.0135036
791.943	0.0135538
792.021	0.0134874
792.099	0.0136214
792.177	0.0135517
792.255	0.0136186
792.333	0.0139143
792.411	0.0138281
792.489	0.0140137
792.568	0.0139335
792.646	0.0139063
792.724	0.0139224
792.802	0.0140888
792.880	0.0141065
792.958	0.0141434
793.036	0.0142419
793.114	0.0141069
793.193	0.0142046
793.271	0.0142470
793.349	0.0143904
793.427	0.0142651
793.505	0.0143757
793.583	0.0144080
793.661	0.0144012
793.739	0.0143636
793.818	0.0142907
793.896	0.0144666
793.974	0.0143996
794.052	0.0142801
794.130	0.0143469
794.208	0.0142397
794.286	0.0140908
794.364	0.0139450
794.443	0.0139703
794.521	0.0141236
794.599	0.0140802
794.677	0.0140903
794.755	0.0140148
794.833	0.0139431
794.911	0.0139122
794.989	0.0137514
795.068	0.0138980
795.146	0.0139179
795.224	0.0137634
795.302	0.0137149
795.380	0.0137503
795.458	0.0136705
795.536	0.0137020
795.614	0.0136118
795.693	0.0136037
795.771	0.0136641
795.849	0.0134622
795.927	0.0134241
796.005	0.0133997
796.083	0.0133655
796.161	0.0132377
796.239	0.0131560
796.318	0.0133750
796.396	0.0132137
796.474	0.0130986
796.552	0.0130408
796.630	0.0130271
796.708	0.0131427
796.786	0.0132458
796.864	0.0133104
796.943	0.0131561
797.021	0.0131782
797.099	0.0133480
797.177	0.0132661
797.255	0.0134092
797.333	0.0134484
797.411	0.0135091
797.489	0.0133566
797.568	0.0135442
797.646	0.0135540
797.724	0.0135790
797.802	0.0136936
797.880	0.0138113
797.958	0.0137629
798.036	0.0139012
798.114	0.0138186
798.193	0.0138752
798.271	0.0138562
798.349	0.0138981
798.427	0.0138501
798.505	0.0140541
798.583	0.0141163
798.661	0.0139397
798.739	0.0139690
798.818	0.0141309
798.896	0.0141898
798.974	0.0140947
799.052	0.0141109
799.130	0.0141704
799.208	0.0140701
799.286	0.0140724
799.364	0.0142019
799.443	0.0141103
799.521	0.0141658
799.599	0.0143086
799.677	0.0142603
799.755	0.0140508
799.833	0.0142226
799.911	0.0142872
799.989	0.0142760
800.068	0.0142153
800.146	0.0140989
800.224	0.0141718
800.302	0.0140344
800.380	0.0141078
800.458	0.0139478
800.536	0.0139771
800.614	0.0140393
800.693	0.0140449
800.771	0.0139668
800.849	0.0137554
800.927	0.0137624
801.005	0.0137238
801.083	0.0137487
801.161	0.0136352
801.239	0.0135819
801.318	0.0136329
801.396	0.0136465
801.474	0.0135751
801.552	0.0134478
801.630	0.0135268
801.708	0.0135186
801.786	0.0132977
801.864	0.0133054
801.943	0.0134234
802.021	0.0134268
802.099	0.0133866
802.177	0.0132310
802.255	0.0133788
802.333	0.0132852
802.411	0.0133305
802.489	0.0132408
802.568	0.0134361
802.646	0.0133321
802.724	0.0133353
802.802	0.0135007
802.880	0.0135863
802.958	0.0135308
803.036	0.0135344
803.114	0.0136210
803.193	0.0136330
803.271	0.0137521
803.349	0.0137386
803.427	0.0138095
803.505	0.0139888
803.583	0.0140627
803.661	0.0140590
803.739	0.0138929
803.818	0.0140212
803.896	0.0141058
803.974	0.0142137
804.052	0.0141299
804.130	0.0141103
804.208	0.0142391
804.286	0.0142081
804.364	0.0141783
804.443	0.0142065
804.521	0.0142477
804.599	0.0143888
804.677	0.0143170
804.755	0.0143842
804.833	0.0143458
804.911	0.0142844
804.989	0.0143073
805.068	0.0142200
805.146	0.0143918
805.224	0.0141388
805.302	0.0141326
805.380	0.0140801
805.458	0.0140565
805.536	0.0138499
805.614	0.0139193
805.693	0.0138332
805.771	0.0139214
805.849	0.0136364
805.927	0.0136179
806.005	0.0136236
806.083	0.0135315
806.161	0.0136216
806.239	0.0134750
806.318	0.0136980
806.396	0.0135713
806.474	0.0133630
806.552	0.0133485
806.630	0.0135647
806.708	0.0134184
806.786	0.0134371
806.864	0.0134400
806.943	0.0135159
807.021	0.0134275
807.099	0.0133628
807.177	0.0135117
807.255	0.0134972
807.333	0.0134084
807.411	0.0134171
807.489	0.0135007
807.568	0.0135802
807.646	0.0133839
807.724	0.0134348
807.802	0.0133685
807.880	0.0133876
807.958	0.0132639
808.036	0.0133965
808.114	0.0133998
808.193	0.0133797
808.271	0.0134168
808.349	0.0134641
808.427	0.0133389
808.505	0.0133615
808.583	0.0133030
808.661	0.0133310
808.739	0.0134134
808.818	0.0133886
808.896	0.0133742
808.974	0.0134442
809.052	0.0133317
809.130	0.0135129
809.208	0.0137276
809.286	0.0135064
809.364	0.0136636
809.443	0.0137650
809.521	0.0138038
809.599	0.0136633
809.677	0.0136676
809.755	0.0138131
809.833	0.0139791
809.911	0.0138870
809.989	0.0140029
810.068	0.0140867
810.146	0.0141032
810.224	0.0140914
810.302	0.0141715
810.380	0.0141673
810.458	0.0141245
810.536	0.0142778
810.614	0.0142208
810.693	0.0142921
810.771	0.0142599
810.849	0.0141954
810.927	0.0142904
811.005	0.0142649
811.083	0.0141445
811.161	0.0141287
811.239	0.0140902
811.318	0.0142001
811.396	0.0141496
811.474	0.0141132
811.552	0.0139246
811.630	0.0139123
811.708	0.0140285
811.786	0.0138762
811.864	0.0139290
811.943	0.0139100
812.021	0.0138680
812.099	0.0138116
812.177	0.0137961
812.255	0.0136857
812.333	0.0136374
812.411	0.0136892
812.489	0.0135706
812.568	0.0136916
812.646	0.0136144
812.724	0.0136009
812.802	0.0135161
812.880	0.0135094
812.958	0.0134727
813.036	0.0134806
813.114	0.0135514
813.193	0.0134967
813.271	0.0135803
813.349	0.0135893
813.427	0.0136163
813.505	0.0136883
813.583	0.0135413
813.661	0.0135547
813.739	0.0136673
813.818	0.0136211
813.896	0.0137934
813.974	0.0138856
814.052	0.0136819
814.130	0.0138300
814.208	0.0138562
814.286	0.0137370
814.364	0.0137767
814.443	0.0140213
814.521	0.0139561
814.599	0.0138720
814.677	0.0138951
814.755	0.0139143
814.833	0.0139799
814.911	0.0138383
814.989	0.0138900
815.068	0.0140207
815.146	0.0140132
815.224	0.0138232
815.302	0.0137061
815.380	0.0137625
815.458	0.0137782
815.536	0.0138264
815.614	0.0137041
815.693	0.0137241
815.771	0.0137794
815.849	0.0136987
815.927	0.0137975
816.005	0.0138095
816.083	0.0137443
816.161	0.0138513
816.239	0.0139175
816.318	0.0139713
816.396	0.0139590
816.474	0.0139825
816.552	0.0139645
816.630	0.0140013
816.708	0.0140556
816.786	0.0141107
816.864	0.0140481
816.943	0.0139697
817.021	0.0139655
817.099	0.0139226
817.177	0.0138589
817.255	0.0141321
817.333	0.0139296
817.411	0.0138564
817.489	0.0138629
817.568	0.0138577
817.646	0.0138055
817.724	0.0136629
817.802	0.0136556
817.880	0.0137007
817.958	0.0135545
818.036	0.0135071
818.114	0.0134512
818.193	0.0134196
818.271	0.0134676
818.349	0.0134973
818.427	0.0133076
818.505	0.0133376
818.583	0.0134093
818.661	0.0131435
818.739	0.0132545
818.818	0.0133708
818.896	0.0133403
818.974	0.0134225
819.052	0.0132941
819.130	0.0132658
819.208	0.0134148
819.286	0.0134290
819.364	0.0134876
819.443	0.0135318
819.521	0.0135297
819.599	0.0135803
819.677	0.0136847
819.755	0.0138184
819.833	0.0137177
819.911	0.0137695
819.989	0.0138021
820.068	0.0136340
820.146	0.0137531
820.224	0.0138830
820.302	0.0137969
820.380	0.0137492
820.458	0.0137115
820.536	0.0136714
820.614	0.0137817
820.693	0.0136771
820.771	0.0136507
820.849	0.0135902
820.927	0.0135618
821.005	0.0136929
821.083	0.0136408
821.161	0.0136420
821.239	0.0134578
821.318	0.0134608
821.396	0.0135247
821.474	0.0133842
821.552	0.0135213
821.630	0.0134232
821.708	0.0134245
821.786	0.0133675
821.864	0.0134431
821.943	0.0135484
822.021	0.0135783
822.099	0.0136376
822.177	0.0136010
822.255	0.0136958
822.333	0.0136987
822.411	0.0135966
822.489	0.0137893
822.568	0.0137828
822.646	0.0136981
822.724	0.0139684
822.802	0.0139299
822.880	0.0139658
822.958	0.0140498
823.036	0.0139771
823.114	0.0140079
823.193	0.0139039
823.271	0.0142458
823.349	0.0142451
823.427	0.0139720
823.505	0.0141617
823.583	0.0142004
823.661	0.0139835
823.739	0.0141444
823.818	0.0141109
823.896	0.0141194
823.974	0.0141116
824.052	0.0139552
824.130	0.0139625
824.208	0.0139523
824.286	0.0141069
824.364	0.0139053
824.443	0.0138926
824.521	0.0139912
824.599	0.0139429
824.677	0.0136749
824.755	0.0137555
824.833	0.0137758
824.911	0.0137112
824.989	0.0137280
825.068	0.0136881
825.146	0.0136936
825.224	0.0136479
825.302	0.0133706
825.380	0.0136377
825.458	0.0135494
825.536	0.0134134
825.614	0.0133790
825.693	0.0135277
825.771	0.0135990
825.849	0.0135247
825.927	0.0135954
826.005	0.0136173
826.083	0.0135522
826.161	0.0135622
826.239	0.0135529
826.318	0.0137339
826.396	0.0136913
826.474	0.0137851
826.552	0.0137358
826.630	0.0136951
826.708	0.0135983
826.786	0.0137494
826.864	0.0136791
826.943	0.0138192
827.021	0.0136087
827.099	0.0136117
827.177	0.0134851
827.255	0.0135705
827.333	0.0136703
827.411	0.0136661
827.489	0.0136770
827.568	0.0137103
827.646	0.0136511
827.724	0.0137131
827.802	0.0136294
827.880	0.0135498
827.958	0.0136898
828.036	0.0138061
828.114	0.0136954
828.193	0.0136524
828.271	0.0136880
828.349	0.0137280
828.427	0.0138519
828.505	0.0137039
828.583	0.0137676
828.661	0.0140141
828.739	0.0138689
828.818	0.0138909
828.896	0.0139333
828.974	0.0139326
829.052	0.0139175
829.130	0.0139384
829.208	0.0140335
829.286	0.0139652
829.364	0.0139272
829.443	0.0139355
829.521	0.0139989
829.599	0.0140518
829.677	0.0138409
829.755	0.0139637
829.833	0.0139374
829.911	0.0140614
829.989	0.0139538
830.068	0.0139397
830.146	0.0140482
830.224	0.0139181
830.302	0.0138103
830.380	0.0140084
830.458	0.0139787
830.536	0.0140025
830.614	0.0141272
830.693	0.0140836
830.771	0.0140108
830.849	0.0139744
830.927	0.0140636
831.005	0.0139326
831.083	0.0141593
831.161	0.0141373
831.239	0.0140108
831.318	0.0141093
831.396	0.0139317
831.474	0.0138524
831.552	0.0138000
831.630	0.0138711
831.708	0.0139022
831.786	0.0137301
831.864	0.0136430
831.943	0.0137035
832.021	0.0136655
832.099	0.0134856
832.177	0.0135267
832.255	0.0134467
832.333	0.0133203
832.411	0.0132427
832.489	0.0133872
832.568	0.0134539
832.646	0.0134614
832.724	0.0133043
832.802	0.0135909
832.880	0.0134929
832.958	0.0134879
833.036	0.0136238
833.114	0.0135320
833.193	0.0136396
833.271	0.0136845
833.349	0.0138573
833.427	0.0138327
833.505	0.0138801
833.583	0.0139144
833.661	0.0140605
833.739	0.0140173
833.818	0.0141662
833.896	0.0142975
833.974	0.0141602
834.052	0.0142577
834.130	0.0143149
834.208	0.0144064
834.286	0.0143913
834.364	0.0143280
834.443	0.0143118
834.521	0.0142065
834.599	0.0143104
834.677	0.0142371
834.755	0.0140911
834.833	0.0141994
834.911	0.0141550
834.989	0.0142551
835.068	0.0140434
835.146	0.0142648
835.224	0.0142126
835.302	0.0139928
835.380	0.0140617
835.458	0.0139189
835.536	0.0140163
835.614	0.0139282
835.693	0.0139879
835.771	0.0139008
835.849	0.0139539
835.927	0.0138606
836.005	0.0138299
836.083	0.0139187
836.161	0.0139650
836.239	0.0138265
836.318	0.0137394
836.396	0.0137638
836.474	0.0138112
836.552	0.0138221
836.630	0.0138241
836.708	0.0136522
836.786	0.0137226
836.864	0.0138457
836.943	0.0137356
837.021	0.0135913
837.099	0.0137111
837.177	0.0137736
837.255	0.0137010
837.333	0.0136558
837.411	0.0136404
837.489	0.0136526
837.568	0.0136972
837.646	0.0136738
837.724	0.0134573
837.802	0.0135445
837.880	0.0135457
837.958	0.0134890
838.036	0.0135440
838.114	0.0134511
838.193	0.0135080
838.271	0.0134941
838.349	0.0133926
838.427	0.0134976
838.505	0.0134402
838.583	0.0135103
838.661	0.0134638
838.739	0.0134925
838.818	0.0135492
838.896	0.0133683
838.974	0.0134245
839.052	0.0133797
839.130	0.0132427
839.208	0.0133942
839.286	0.0134737
839.364	0.0135207
839.443	0.0134102
839.521	0.0134167
839.599	0.0134523
839.677	0.0134098
839.755	0.0135432
839.833	0.0134322
839.911	0.0134507
839.989	0.0134267
840.068	0.0135839
840.146	0.0135504
840.224	0.0135894
840.302	0.0137349
840.380	0.0137765
840.458	0.0137822
840.536	0.0137350
840.614	0.0137890
840.693	0.0137974
840.771	0.0137865
840.849	0.0137749
840.927	0.0138937
841.005	0.0138651
841.083	0.0137852
841.161	0.0138281
841.239	0.0138705
841.318	0.0139568
841.396	0.0138588
841.474	0.0138064
841.552	0.0137926
841.630	0.0138216
841.708	0.0138011
841.786	0.0138005
841.864	0.0138004
841.943	0.0139075
842.021	0.0136272
842.099	0.0136771
842.177	0.0137094
842.255	0.0136179
842.333	0.0136350
842.411	0.0135886
842.489	0.0134734
842.568	0.0135675
842.646	0.0135010
842.724	0.0133916
842.802	0.0133656
842.880	0.0135471
842.958	0.0133901
843.036	0.0131936
843.114	0.0132846
843.193	0.0132789
843.271	0.0133852
843.349	0.0132423
843.427	0.0131818
843.505	0.0130959
843.583	0.0132949
843.661	0.0132294
843.739	0.0132437
843.818	0.0133737
843.896	0.0134940
843.974	0.0134879
844.052	0.0134637
844.130	0.0135468
844.208	0.0135635
844.286	0.0137829
844.364	0.0138389
844.443	0.0137964
844.521	0.0138039
844.599	0.0138031
844.677	0.0138435
844.755	0.0139240
844.833	0.0140493
844.911	0.0139715
844.989	0.0140656
845.068	0.0140036
845.146	0.0140735
845.224	0.0140834
845.302	0.0139140
845.380	0.0138910
845.458	0.0139558
845.536	0.0139285
845.614	0.0137299
845.693	0.0138555
845.771	0.0137006
845.849	0.0136710
845.927	0.0137375
846.005	0.0137936
846.083	0.0136346
846.161	0.0135687
846.239	0.0137787
846.318	0.0137168
846.396	0.0136570
846.474	0.0137174
846.552	0.0137489
846.630	0.0138287
846.708	0.0138262
846.786	0.0137824
846.864	0.0139774
846.943	0.0138953
847.021	0.0140763
847.099	0.0141418
847.177	0.0139097
847.255	0.0140296
847.333	0.0139851
847.411	0.0141996
847.489	0.0140539
847.568	0.0141671
847.646	0.0141458
847.724	0.0141745
847.802	0.0141653
847.880	0.0139430
847.958	0.0139381
848.036	0.0141041
848.114	0.0139646
848.193	0.0139699
848.271	0.0138987
848.349	0.0138702
848.427	0.0139137
848.505	0.0138210
848.583	0.0136924
848.661	0.0137248
848.739	0.0136877
848.818	0.0136673
848.896	0.0137178
848.974	0.0137104
849.052	0.0136926
849.130	0.0137134
849.208	0.0138583
849.286	0.0137172
849.364	0.0136272
849.443	0.0138087
849.521	0.0138325
849.599	0.0137348
849.677	0.0137846
849.755	0.0137744
849.833	0.0139168
849.911	0.0138172
849.989	0.0138758
850.068	0.0138811
850.146	0.0138643
850.224	0.0138447
850.302	0.0138544
850.380	0.0139453
850.458	0.0138408
850.536	0.0139413
850.614	0.0138806
850.693	0.0137928
850.771	0.0137985
850.849	0.0138374
850.927	0.0139456
851.005	0.0137384
851.083	0.0137938
851.161	0.0137100
851.239	0.0137527
851.318	0.0137266
851.396	0.0138047
851.474	0.0137958
851.552	0.0138879
851.630	0.0137675
851.708	0.0138729
851.786	0.0140565
851.864	0.0139780
851.943	0.0139139
852.021	0.0138224
852.099	0.0137644
852.177	0.0139976
852.255	0.0140371
852.333	0.0139398
852.411	0.0138127
852.489	0.0139206
852.568	0.0138436
852.646	0.0138026
852.724	0.0138596
852.802	0.0138072
852.880	0.0138778
852.958	0.0137534
853.036	0.0137208
853.114	0.0137901
853.193	0.0137894
853.271	0.0137788
853.349	0.0138029
853.427	0.0138871
853.505	0.0138602
853.583	0.0137218
853.661	0.0137766
853.739	0.0137338
853.818	0.0136489
853.896	0.0136076
853.974	0.0138284
854.052	0.0136407
854.130	0.0136829
854.208	0.0136154
854.286	0.0137025
854.364	0.0137031
854.443	0.0137312
854.521	0.0137586
854.599	0.0136625
854.677	0.0137034
854.755	0.0138836
854.833	0.0138504
854.911	0.0139832
854.989	0.0138621
855.068	0.0138531
855.146	0.0138259
855.224	0.0138067
855.302	0.0139510
855.380	0.0139412
855.458	0.0138103
855.536	0.0138120
855.614	0.0137308
855.693	0.0137145
855.771	0.0138785
855.849	0.0137054
855.927	0.0135851
856.005	0.0136338
856.083	0.0137680
856.161	0.0136902
856.239	0.0135677
856.318	0.0134487
856.396	0.0134969
856.474	0.0135928
856.552	0.0136028
856.630	0.0135567
856.708	0.0137085
856.786	0.0136281
856.864	0.0134908
856.943	0.0135542
857.021	0.0136784
857.099	0.0136352
857.177	0.0136217
857.255	0.0136630
857.333	0.0136571
857.411	0.0136327
857.489	0.0138043
857.568	0.0138203
857.646	0.0137638
857.724	0.0138012
857.802	0.0138146
857.880	0.0136987
857.958	0.0138300
858.036	0.0138460
858.114	0.0139008
858.193	0.0137798
858.271	0.0138908
858.349	0.0138689
858.427	0.0138179
858.505	0.0139268
858.583	0.0138458
858.661	0.0138708
858.739	0.0139368
858.818	0.0138641
858.896	0.0138107
858.974	0.0139092
859.052	0.0139980
859.130	0.0138479
859.208	0.0137759
859.286	0.0138413
859.364	0.0139976
859.443	0.0139059
859.521	0.0137778
859.599	0.0138094
859.677	0.0138580
859.755	0.0136218
859.833	0.0136962
859.911	0.0137827
859.989	0.0136908
860.068	0.0135246
860.146	0.0135159
860.224	0.0134270
860.302	0.0133998
860.380	0.0134608
860.458	0.0134003
860.536	0.0134305
860.614	0.0132825
860.693	0.0135172
860.771	0.0133975
860.849	0.0133508
860.927	0.0134205
861.005	0.0133937
861.083	0.0133692
861.161	0.0134599
861.239	0.0133469
861.318	0.0133987
861.396	0.0134545
861.474	0.0134675
861.552	0.0134219
861.630	0.0134621
861.708	0.0135291
861.786	0.0135458
861.864	0.0136584
861.943	0.0136118
862.021	0.0135384
862.099	0.0135850
862.177	0.0135780
862.255	0.0137949
862.333	0.0136917
862.411	0.0137963
862.489	0.0139091
862.568	0.0138982
862.646	0.0138462
862.724	0.0137524
862.802	0.0138746
862.880	0.0140524
862.958	0.0139634
863.036	0.0140110
863.114	0.0139499
863.193	0.0140411
863.271	0.0140652
863.349	0.0140462
863.427	0.0140241
863.505	0.0141749
863.583	0.0140497
863.661	0.0140717
863.739	0.0140715
863.818	0.0140631
863.896	0.0138799
863.974	0.0139444
864.052	0.0140065
864.130	0.0139346
864.208	0.0140084
864.286	0.0137482
864.364	0.0137960
864.443	0.0139048
864.521	0.0138787
864.599	0.0139450
864.677	0.0138112
864.755	0.0139053
864.833	0.0137885
864.911	0.0137573
864.989	0.0138475
865.068	0.0138896
865.146	0.0138401
865.224	0.0138684
865.302	0.0137995
865.380	0.0137411
865.458	0.0140014
865.536	0.0138153
865.614	0.0137921
865.693	0.0138159
865.771	0.0137959
865.849	0.0136677
865.927	0.0136617
866.005	0.0138180
866.083	0.0137441
866.161	0.0138731
866.239	0.0137489
866.318	0.0138959
866.396	0.0136819
866.474	0.0137521
866.552	0.0137305
866.630	0.0138171
866.708	0.0138324
866.786	0.0136439
866.864	0.0136903
866.943	0.0137094
867.021	0.0137726
867.099	0.0136815
867.177	0.0135840
867.255	0.0135945
867.333	0.0135726
867.411	0.0133592
867.489	0.0133093
867.568	0.0135202
867.646	0.0133876
867.724	0.0132906
867.802	0.0134082
867.880	0.0134564
867.958	0.0135793
868.036	0.0134118
868.114	0.0135201
868.193	0.0135461
868.271	0.0135932
868.349	0.0137074
868.427	0.0138606
868.505	0.0136925
868.583	0.0137908
868.661	0.0137445
868.739	0.0137930
868.818	0.0138975
868.896	0.0137695
868.974	0.0139018
869.052	0.0138494
869.130	0.0140161
869.208	0.0138560
869.286	0.0140276
869.364	0.0139713
869.443	0.0138040
869.521	0.0139066
869.599	0.0138030
869.677	0.0139241
869.755	0.0139005
869.833	0.0139237
869.911	0.0139426
869.989	0.0139647
870.068	0.0139690
870.146	0.0140192
870.224	0.0140053
870.302	0.0139974
870.380	0.0139388
870.458	0.0139749
870.536	0.0140531
870.614	0.0138697
870.693	0.0140692
870.771	0.0141327
870.849	0.0138573
870.927	0.0138184
871.005	0.0139211
871.083	0.0138442
871.161	0.0138132
871.239	0.0138120
871.318	0.0139788
871.396	0.0138196
871.474	0.0137707
871.552	0.0137074
871.630	0.0137495
871.708	0.0137019
871.786	0.0137513
871.864	0.0137529
871.943	0.0137411
872.021	0.0138190
872.099	0.0137092
872.177	0.0138483
872.255	0.0138065
872.333	0.0136671
872.411	0.0135847
872.489	0.0137757
872.568	0.0138764
872.646	0.0138010
872.724	0.0138015
872.802	0.0138526
872.880	0.0138074
872.958	0.0139098
873.036	0.0139951
873.114	0.0138198
873.193	0.0139562
873.271	0.0140152
873.349	0.0139227
873.427	0.0139539
873.505	0.0139871
873.583	0.0139713
873.661	0.0137996
873.739	0.0138446
873.818	0.0139526
873.896	0.0139219
873.974	0.0138079
874.052	0.0139269
874.130	0.0139402
874.208	0.0139342
874.286	0.0139519
874.364	0.0136897
874.443	0.0137903
874.521	0.0139752
874.599	0.0139447
874.677	0.0139012
874.755	0.0139781
874.833	0.0138804
874.911	0.0140503
874.989	0.0139973
875.068	0.0141204
875.146	0.0139350
875.224	0.0140174
875.302	0.0141216
875.380	0.0141325
875.458	0.0140419
875.536	0.0139944
875.614	0.0140798
875.693	0.0140963
875.771	0.0139708
875.849	0.0139050
875.927	0.0139728
876.005	0.0139088
876.083	0.0140223
876.161	0.0139055
876.239	0.0140205
876.318	0.0138323
876.396	0.0138310
876.474	0.0139062
876.552	0.0138434
876.630	0.0137249
876.708	0.0137966
876.786	0.0138512
876.864	0.0139006
876.943	0.0138152
877.021	0.0138750
877.099	0.0138029
877.177	0.0138676
877.255	0.0138754
877.333	0.0138550
877.411	0.0139408
877.489	0.0138126
877.568	0.0139482
877.646	0.0139629
877.724	0.0138015
877.802	0.0139146
877.880	0.0139517
877.958	0.0140522
878.036	0.0140585
878.114	0.0139182
878.193	0.0139511
878.271	0.0139268
878.349	0.0138605
878.427	0.0138406
878.505	0.0139310
878.583	0.0139687
878.661	0.0139256
878.739	0.0139630
878.818	0.0137634
878.896	0.0138637
878.974	0.0137611
879.052	0.0136787
879.130	0.0138997
879.208	0.0137950
879.286	0.0139143
879.364	0.0138541
879.443	0.0137373
879.521	0.0137410
879.599	0.0139091
879.677	0.0137193
879.755	0.0138595
879.833	0.0139565
879.911	0.0138660
879.989	0.0138844
880.068	0.0141129
880.146	0.0141497
880.224	0.0139746
880.302	0.0140171
880.380	0.0141147
880.458	0.0139051
880.536	0.0139774
880.614	0.0140160
880.693	0.0139632
880.771	0.0139897
880.849	0.0141345
880.927	0.0141148
881.005	0.0139513
881.083	0.0138648
881.161	0.0140119
881.239	0.0138682
881.318	0.0140585
881.396	0.0139845
881.474	0.0138179
881.552	0.0137681
881.630	0.0139226
881.708	0.0139780
881.786	0.0137305
881.864	0.0138713
881.943	0.0138528
882.021	0.0137373
882.099	0.0137744
882.177	0.0136755
882.255	0.0137552
882.333	0.0137579
882.411	0.0137284
882.489	0.0136778
882.568	0.0138750
882.646	0.0137784
882.724	0.0136365
882.802	0.0136963
882.880	0.0138212
882.958	0.0137650
883.036	0.0137167
883.114	0.0135955
883.193	0.0136334
883.271	0.0136348
883.349	0.0136623
883.427	0.0136726
883.505	0.0135024
883.583	0.0135904
883.661	0.0134922
883.739	0.0134656
883.818	0.0134224
883.896	0.0137340
883.974	0.0136753
884.052	0.0135838
884.130	0.0135435
884.208	0.0136324
884.286	0.0137560
884.364	0.0136058
884.443	0.0135842
884.521	0.0135551
884.599	0.0135766
884.677	0.0136374
884.755	0.0138230
884.833	0.0138403
884.911	0.0136369
884.989	0.0137619
885.068	0.0138915
885.146	0.0139452
885.224	0.0137991
885.302	0.0136857
885.380	0.0138011
885.458	0.0137791
885.536	0.0137366
885.614	0.0138340
885.693	0.0136769
885.771	0.0136681
885.849	0.0137232
885.927	0.0135370
886.005	0.0136172
886.083	0.0137891
886.161	0.0137195
886.239	0.0136788
886.318	0.0136830
886.396	0.0136728
886.474	0.0136153
886.552	0.0136726
886.630	0.0136165
886.708	0.0135757
886.786	0.0134309
886.864	0.0136451
886.943	0.0136183
887.021	0.0136539
887.099	0.0136642
887.177	0.0137606
887.255	0.0137675
887.333	0.0137577
887.411	0.0137364
887.489	0.0137281
887.568	0.0138059
887.646	0.0138171
887.724	0.0138080
887.802	0.0139677
887.880	0.0139025
887.958	0.0138165
888.036	0.0139238
888.114	0.0139980
888.193	0.0139635
888.271	0.0139406
888.349	0.0138326
888.427	0.0138673
888.505	0.0138185
888.583	0.0139617
888.661	0.0137706
888.739	0.0139045
888.818	0.0140057
888.896	0.0137691
888.974	0.0137862
889.052	0.0136055
889.130	0.0137201
889.208	0.0137724
889.286	0.0138732
889.364	0.0137479
889.443	0.0138297
889.521	0.0139100
889.599	0.0137766
889.677	0.0138173
889.755	0.0138382
889.833	0.0139616
889.911	0.0138103
889.989	0.0139507
890.068	0.0140246
890.146	0.0141036
890.224	0.0139310
890.302	0.0138940
890.380	0.0139740
890.458	0.0140557
890.536	0.0137776
890.614	0.0140314
890.693	0.0140444
890.771	0.0139497
890.849	0.0139569
890.927	0.0139696
891.005	0.0139329
891.083	0.0139082
891.161	0.0140294
891.239	0.0140307
891.318	0.0138957
891.396	0.0137996
891.474	0.0138300
891.552	0.0137423
891.630	0.0137222
891.708	0.0138062
891.786	0.0136935
891.864	0.0138025
891.943	0.0137972
892.021	0.0137569
892.099	0.0137550
892.177	0.0138216
892.255	0.0138471
892.333	0.0136938
892.411	0.0137945
892.489	0.0138078
892.568	0.0136907
892.646	0.0137395
892.724	0.0138555
892.802	0.0138857
892.880	0.0138102
892.958	0.0138290
893.036	0.0138967
893.114	0.0139331
893.193	0.0138377
893.271	0.0138309
893.349	0.0139573
893.427	0.0139925
893.505	0.0139915
893.583	0.0140942
893.661	0.0139002
893.739	0.0139070
893.818	0.0140131
893.896	0.0140511
893.974	0.0140373
894.052	0.0141412
894.130	0.0140353
894.208	0.0139545
894.286	0.0139780
894.364	0.0137730
894.443	0.0138728
894.521	0.0139262
894.599	0.0138429
894.677	0.0138220
894.755	0.0139474
894.833	0.0138297
894.911	0.0137231
894.989	0.0138210
895.068	0.0138172
895.146	0.0137688
895.224	0.0136697
895.302	0.0137146
895.380	0.0138061
895.458	0.0136372
895.536	0.0136388
895.614	0.0137735
895.693	0.0136898
895.771	0.0137428
895.849	0.0138108
895.927	0.0138427
896.005	0.0138266
896.083	0.0136926
896.161	0.0138998
896.239	0.0137465
896.318	0.0136359
896.396	0.0136941
896.474	0.0136942
896.552	0.0138152
896.630	0.0137525
896.708	0.0137349
896.786	0.0138479
896.864	0.0137022
896.943	0.0136271
897.021	0.0136774
897.099	0.0136472
897.177	0.0136837
897.255	0.0136646
897.333	0.0136644
897.411	0.0138395
897.489	0.0138466
897.568	0.0138898
897.646	0.0138439
897.724	0.0139462
897.802	0.0138634
897.880	0.0140063
897.958	0.0140611
898.036	0.0139977
898.114	0.0139294
898.193	0.0140711
898.271	0.0139896
898.349	0.0140300
898.427	0.0140627
898.505	0.0140713
898.583	0.0140541
898.661	0.0141179
898.739	0.0141845
898.818	0.0140665
898.896	0.0139506
898.974	0.0140305
899.052	0.0138937
899.130	0.0137568
899.208	0.0138780
899.286	0.0138447
899.364	0.0137587
899.443	0.0138666
899.521	0.0137632
899.599	0.0136078
899.677	0.0136380
899.755	0.0136792
899.833	0.0136799
899.911	0.0136514
899.989	0.0136855
900.068	0.0135841
900.146	0.0135509
900.224	0.0136331
900.302	0.0135828
900.380	0.0137185
900.458	0.0136434
900.536	0.0135861
900.614	0.0135872
900.693	0.0135175
900.771	0.0135027
900.849	0.0135557
900.927	0.0135054
901.005	0.0134924
901.083	0.0135411
901.161	0.0134447
901.239	0.0134722
901.318	0.0134721
901.396	0.0135892
901.474	0.0136369
901.552	0.0135585
901.630	0.0134758
901.708	0.0135954
901.786	0.0134925
901.864	0.0136279
901.943	0.0135770
902.021	0.0136514
902.099	0.0136534
902.177	0.0135681
902.255	0.0136073
902.333	0.0135430
902.411	0.0136208
902.489	0.0136724
902.568	0.0135468
902.646	0.0135300
902.724	0.0134651
902.802	0.0136469
902.880	0.0136752
902.958	0.0136309
903.036	0.0136152
903.114	0.0138300
903.193	0.0137303
903.271	0.0138089
903.349	0.0138613
903.427	0.0137879
903.505	0.0137767
903.583	0.0138645
903.661	0.0138816
903.739	0.0138558
903.818	0.0138907
903.896	0.0138659
903.974	0.0137527
904.052	0.0138753
904.130	0.0137751
904.208	0.0136739
904.286	0.0138711
904.364	0.0138111
904.443	0.0138234
904.521	0.0136762
904.599	0.0137007
904.677	0.0136908
904.755	0.0137103
904.833	0.0136437
904.911	0.0135801
904.989	0.0135284
905.068	0.0137276
905.146	0.0136302
905.224	0.0135541
905.302	0.0136133
905.380	0.0135831
905.458	0.0135548
905.536	0.0138246
905.614	0.0137007
905.693	0.0135796
905.771	0.0136650
905.849	0.0139320
905.927	0.0137915
906.005	0.0137303
906.083	0.0137035
906.161	0.0137287
906.239	0.0138857
906.318	0.0137640
906.396	0.0138166
906.474	0.0136802
906.552	0.0138080
906.630	0.0138600
906.708	0.0138136
906.786	0.0138524
906.864	0.0137836
906.943	0.0138198
907.021	0.0138017
907.099	0.0139773
907.177	0.0139050
907.255	0.0138934
907.333	0.0138955
907.411	0.0139529
907.489	0.0139167
907.568	0.0139593
907.646	0.0139296
907.724	0.0140084
907.802	0.0140659
907.880	0.0140179
907.958	0.0139513
908.036	0.0139436
908.114	0.0139059
908.193	0.0138945
908.271	0.0138702
908.349	0.0138966
908.427	0.0139423
908.505	0.0139576
908.583	0.0138610
908.661	0.0139508
908.739	0.0138847
908.818	0.0137933
908.896	0.0138397
908.974	0.0139288
909.052	0.0139387
909.130	0.0140015
909.208	0.0139124
909.286	0.0137399
909.364	0.0138914
909.443	0.0138887
909.521	0.0139159
909.599	0.0140066
909.677	0.0139754
909.755	0.0138518
909.833	0.0138858
909.911	0.0137234
909.989	0.0137649
910.068	0.0138696
910.146	0.0136496
910.224	0.0136385
910.302	0.0137294
910.380	0.0136806
910.458	0.0138128
910.536	0.0136086
910.614	0.0137447
910.693	0.0136547
910.771	0.0136860
910.849	0.0136771
910.927	0.0136958
911.005	0.0137195
911.083	0.0138120
911.161	0.0137940
911.239	0.0136366
911.318	0.0136688
911.396	0.0136018
911.474	0.0138749
911.552	0.0136266
911.630	0.0135787
911.708	0.0136693
911.786	0.0136655
911.864	0.0135870
911.943	0.0135919
912.021	0.0136320
912.099	0.0135696
912.177	0.0136147
912.255	0.0135366
912.333	0.0134654
912.411	0.0136670
912.489	0.0137492
912.568	0.0135949
912.646	0.0137125
912.724	0.0136314
912.802	0.0136147
912.880	0.0137702
912.958	0.0136952
913.036	0.0136708
913.114	0.0137540
913.193	0.0135596
913.271	0.0137735
913.349	0.0137437
913.427	0.0136849
913.505	0.0138631
913.583	0.0137811
913.661	0.0138006
913.739	0.0137466
913.818	0.0139210
913.896	0.0138823
913.974	0.0137424
914.052	0.0138405
914.130	0.0138610
914.208	0.0137885
914.286	0.0137823
914.364	0.0137568
914.443	0.0138850
914.521	0.0136871
914.599	0.0136852
914.677	0.0137566
914.755	0.0137244
914.833	0.0136564
914.911	0.0134624
914.989	0.0136697
915.068	0.0135506
915.146	0.0135085
915.224	0.0135537
915.302	0.0134081
915.380	0.0134944
915.458	0.0136610
915.536	0.0134971
915.614	0.0134747
915.693	0.0134290
915.771	0.0132938
915.849	0.0134394
915.927	0.0132964
916.005	0.0135126
916.083	0.0133826
916.161	0.0133850
916.239	0.0133643
916.318	0.0134215
916.396	0.0134541
916.474	0.0133549
916.552	0.0134206
916.630	0.0134592
916.708	0.0134620
916.786	0.0134528
916.864	0.0136597
916.943	0.0134863
917.021	0.0135384
917.099	0.0135359
917.177	0.0136620
917.255	0.0136348
917.333	0.0136502
917.411	0.0137502
917.489	0.0138019
917.568	0.0135712
917.646	0.0137425
917.724	0.0136161
917.802	0.0136568
917.880	0.0136671
917.958	0.0137339
918.036	0.0135683
918.114	0.0135707
918.193	0.0135577
918.271	0.0137164
918.349	0.0136732
918.427	0.0137650
918.505	0.0136858
918.583	0.0135600
918.661	0.0135322
918.739	0.0137897
918.818	0.0138364
918.896	0.0137370
918.974	0.0137543
919.052	0.0138155
919.130	0.0137993
919.208	0.0138278
919.286	0.0137475
919.364	0.0136556
919.443	0.0137839
919.521	0.0136935
919.599	0.0137364
919.677	0.0138118
919.755	0.0136458
919.833	0.0136774
919.911	0.0137892
919.989	0.0137141
920.068	0.0135511
920.146	0.0136348
920.224	0.0135284
920.302	0.0136044
920.380	0.0136087
920.458	0.0136307
920.536	0.0134548
920.614	0.0136081
920.693	0.0135117
920.771	0.0136898
920.849	0.0135908
920.927	0.0136197
921.005	0.0135830
921.083	0.0136404
921.161	0.0135960
921.239	0.0137761
921.318	0.0137189
921.396	0.0137095
921.474	0.0136722
921.552	0.0137729
921.630	0.0136382
921.708	0.0136948
921.786	0.0136958
921.864	0.0138184
921.943	0.0136726
922.021	0.0136166
922.099	0.0136328
922.177	0.0138605
922.255	0.0135950
922.333	0.0135162
922.411	0.0134702
922.489	0.0136252
922.568	0.0136314
922.646	0.0136060
922.724	0.0135587
922.802	0.0136957
922.880	0.0137426
922.958	0.0137415
923.036	0.0137149
923.114	0.0137191
923.193	0.0136495
923.271	0.0137788
923.349	0.0136955
923.427	0.0136306
923.505	0.0137065
923.583	0.0136293
923.661	0.0136682
923.739	0.0138049
923.818	0.0138138
923.896	0.0137833
923.974	0.0137701
924.052	0.0136900
924.130	0.0139195
924.208	0.0137788
924.286	0.0138909
924.364	0.0139065
924.443	0.0139798
924.521	0.0138836
924.599	0.0137350
924.677	0.0138262
924.755	0.0140159
924.833	0.0141193
924.911	0.0140399
924.989	0.0140179
925.068	0.0139819
925.146	0.0138576
925.224	0.0141445
925.302	0.0140719
925.380	0.0140800
925.458	0.0140723
925.536	0.0140092
925.614	0.0141682
925.693	0.0140908
925.771	0.0139683
925.849	0.0140515
925.927	0.0141914
926.005	0.0141497
926.083	0.0139996
926.161	0.0140409
926.239	0.0141561
926.318	0.0143133
926.396	0.0140836
926.474	0.0139899
926.552	0.0139981
926.630	0.0142423
926.708	0.0140996
926.786	0.0141045
926.864	0.0139095
926.943	0.0139745
927.021	0.0140331
927.099	0.0139035
927.177	0.0138122
927.255	0.0139246
927.333	0.0139747
927.411	0.0138169
927.489	0.0136398
927.568	0.0136522
927.646	0.0138097
927.724	0.0137415
927.802	0.0135740
927.880	0.0135475
927.958	0.0136791
928.036	0.0133919
928.114	0.0135780
928.193	0.0134624
928.271	0.0135921
928.349	0.0135493
928.427	0.0136171
928.505	0.0136153
928.583	0.0135310
928.661	0.0136060
928.739	0.0135715
928.818	0.0134776
928.896	0.0135266
928.974	0.0134467
929.052	0.0134991
929.130	0.0134935
929.208	0.0134119
929.286	0.0133215
929.364	0.0134264
929.443	0.0135096
929.521	0.0134521
929.599	0.0134337
929.677	0.0135188
929.755	0.0135499
929.833	0.0134246
929.911	0.0136105
929.989	0.0135407
930.068	0.0135700
930.146	0.0135937
930.224	0.0134448
930.302	0.0135561
930.380	0.0134224
930.458	0.0135565
930.536	0.0135995
930.614	0.0135065
930.693	0.0135825
930.771	0.0136672
930.849	0.0136243
930.927	0.0136070
931.005	0.0137202
931.083	0.0136954
931.161	0.0137376
931.239	0.0138293
931.318	0.0138031
931.396	0.0137979
931.474	0.0138745
931.552	0.0138201
931.630	0.0139180
931.708	0.0138274
931.786	0.0138713
931.864	0.0139213
931.943	0.0138816
932.021	0.0136506
932.099	0.0138187
932.177	0.0139234
932.255	0.0138355
932.333	0.0138736
932.411	0.0138611
932.489	0.0138474
932.568	0.0138320
932.646	0.0138670
932.724	0.0137533
932.802	0.0137965
932.880	0.0138885
932.958	0.0138347
933.036	0.0138392
933.114	0.0138310
933.193	0.0139647
933.271	0.0138107
933.349	0.0138419
933.427	0.0138599
933.505	0.0139378
933.583	0.0137495
933.661	0.0138490
933.739	0.0137363
933.818	0.0137476
933.896	0.0137243
933.974	0.0137492
934.052	0.0137554
934.130	0.0136823
934.208	0.0136723
934.286	0.0136163
934.364	0.0135844
934.443	0.0136810
934.521	0.0135999
934.599	0.0134582
934.677	0.0135469
934.755	0.0135484
934.833	0.0135078
934.911	0.0135951
934.989	0.0135691
935.068	0.0135526
935.146	0.0135670
935.224	0.0135709
935.302	0.0136031
935.380	0.0135180
935.458	0.0136197
935.536	0.0136397
935.614	0.0136250
935.693	0.0135192
935.771	0.0135322
935.849	0.0136507
935.927	0.0135388
936.005	0.0136697
936.083	0.0136899
936.161	0.0137703
936.239	0.0136828
936.318	0.0138142
936.396	0.0138433
936.474	0.0139232
936.552	0.0138210
936.630	0.0138425
936.708	0.0138343
936.786	0.0137759
936.864	0.0138762
936.943	0.0139890
937.021	0.0139006
937.099	0.0139127
937.177	0.0138409
937.255	0.0136625
937.333	0.0138177
937.411	0.0138916
937.489	0.0138408
937.568	0.0138639
937.646	0.0139344
937.724	0.0137623
937.802	0.0139200
937.880	0.0139248
937.958	0.0139860
938.036	0.0138178
938.114	0.0137224
938.193	0.0138689
938.271	0.0138403
938.349	0.0138093
938.427	0.0139109
938.505	0.0138602
938.583	0.0137898
938.661	0.0138097
938.739	0.0137939
938.818	0.0138684
938.896	0.0137253
938.974	0.0138209
939.052	0.0138339
939.130	0.0138342
939.208	0.0137467
939.286	0.0137650
939.364	0.0138396
939.443	0.0138897
939.521	0.0138484
939.599	0.0137900
939.677	0.0138228
939.755	0.0138369
939.833	0.0138357
939.911	0.0139019
939.989	0.0139183
940.068	0.0138805
940.146	0.0139060
940.224	0.0137615
940.302	0.0138844
940.380	0.0139095
940.458	0.0138735
940.536	0.0137928
940.614	0.0138397
940.693	0.0140483
940.771	0.0139894
940.849	0.0138829
940.927	0.0139019
941.005	0.0139413
941.083	0.0137914
941.161	0.0139983
941.239	0.0138676
941.318	0.0138826
941.396	0.0138436
941.474	0.0138168
941.552	0.0138721
941.630	0.0137968
941.708	0.0138052
941.786	0.0136865
941.864	0.0135786
941.943	0.0138184
942.021	0.0135587
942.099	0.0137801
942.177	0.0134966
942.255	0.0135787
942.333	0.0137630
942.411	0.0135840
942.489	0.0135506
942.568	0.0135958
942.646	0.0136092
942.724	0.0136047
942.802	0.0137551
942.880	0.0135746
942.958	0.0135693
943.036	0.0136066
943.114	0.0134853
943.193	0.0136227
943.271	0.0133770
943.349	0.0137010
943.427	0.0136680
943.505	0.0136427
943.583	0.0135891
943.661	0.0136080
943.739	0.0135664
943.818	0.0136255
943.896	0.0138045
943.974	0.0135283
944.052	0.0135484
944.130	0.0137082
944.208	0.0136973
944.286	0.0136459
944.364	0.0135841
944.443	0.0135658
944.521	0.0136367
944.599	0.0137514
944.677	0.0135491
944.755	0.0136042
944.833	0.0137240
944.911	0.0136528
944.989	0.0137092
945.068	0.0137793
945.146	0.0137917
945.224	0.0138700
945.302	0.0136893
945.380	0.0137293
945.458	0.0138481
945.536	0.0137479
945.614	0.0137589
945.693	0.0137025
945.771	0.0138860
945.849	0.0137449
945.927	0.0137857
946.005	0.0137105
946.083	0.0137787
946.161	0.0138124
946.239	0.0138113
946.318	0.0137291
946.396	0.0137229
946.474	0.0137515
946.552	0.0138094
946.630	0.0137766
946.708	0.0139662
946.786	0.0139285
946.864	0.0137826
946.943	0.0139159
947.021	0.0138869
947.099	0.0139831
947.177	0.0140033
947.255	0.0139554
947.333	0.0139248
947.411	0.0138462
947.489	0.0139291
947.568	0.0138847
947.646	0.0138352
947.724	0.0139891
947.802	0.0139747
947.880	0.0138824
947.958	0.0138416
948.036	0.0139442
948.114	0.0138885
948.193	0.0139471
948.271	0.0137811
948.349	0.0138354
948.427	0.0137211
948.505	0.0138857
948.583	0.0138332
948.661	0.0138605
948.739	0.0137415
948.818	0.0139108
948.896	0.0138992
948.974	0.0138812
949.052	0.0138969
949.130	0.0139282
949.208	0.0137955
949.286	0.0137607
949.364	0.0137246
949.443	0.0137997
949.521	0.0137201
949.599	0.0137867
949.677	0.0137711
949.755	0.0138446
949.833	0.0139182
949.911	0.0139758
949.989	0.0138114
950.068	0.0138158
950.146	0.0139198
950.224	0.0137556
950.302	0.0138926
950.380	0.0138812
950.458	0.0138426
950.536	0.0138618
950.614	0.0138308
950.693	0.0138796
950.771	0.0138314
950.849	0.0139032
950.927	0.0139422
951.005	0.0139299
951.083	0.0137278
951.161	0.0137594
951.239	0.0138778
951.318	0.0139053
951.396	0.0139238
951.474	0.0139763
951.552	0.0138522
951.630	0.0139344
951.708	0.0137443
951.786	0.0139706
951.864	0.0139043
951.943	0.0138622
952.021	0.0140156
952.099	0.0139137
952.177	0.0141395
952.255	0.0139848
952.333	0.0139083
952.411	0.0138958
952.489	0.0138866
952.568	0.0139955
952.646	0.0139657
952.724	0.0138874
952.802	0.0138375
952.880	0.0138967
952.958	0.0139132
953.036	0.0138432
953.114	0.0138054
953.193	0.0136533
953.271	0.0137830
953.349	0.0136274
953.427	0.0137788
953.505	0.0137696
953.583	0.0137411
953.661	0.0137106
953.739	0.0136671
953.818	0.0136797
953.896	0.0136428
953.974	0.0136959
954.052	0.0136797
954.130	0.0135684
954.208	0.0136469
954.286	0.0136583
954.364	0.0136346
954.443	0.0134917
954.521	0.0136076
954.599	0.0135133
954.677	0.0136162
954.755	0.0136384
954.833	0.0135790
954.911	0.0135358
954.989	0.0135606
955.068	0.0134549
955.146	0.0136501
955.224	0.0135912
955.302	0.0136372
955.380	0.0137068
955.458	0.0137546
955.536	0.0136355
955.614	0.0135550
955.693	0.0136002
955.771	0.0137505
955.849	0.0138083
955.927	0.0137763
956.005	0.0137903
956.083	0.0137285
956.161	0.0137253
956.239	0.0136740
956.318	0.0138505
956.396	0.0137749
956.474	0.0136643
956.552	0.0136994
956.630	0.0136926
956.708	0.0138531
956.786	0.0137991
956.864	0.0138866
956.943	0.0138203
957.021	0.0137239
957.099	0.0138838
957.177	0.0138121
957.255	0.0137215
957.333	0.0137882
957.411	0.0139079
957.489	0.0139379
957.568	0.0138372
957.646	0.0137637
957.724	0.0138150
957.802	0.0139425
957.880	0.0139552
957.958	0.0140643
958.036	0.0139448
958.114	0.0139738
958.193	0.0140062
958.271	0.0139848
958.349	0.0138480
958.427	0.0141435
958.505	0.0140395
958.583	0.0140130
958.661	0.0141364
958.739	0.0140730
958.818	0.0140232
958.896	0.0138369
958.974	0.0139828
959.052	0.0140127
959.130	0.0139940
959.208	0.0139285
959.286	0.0139578
959.364	0.0140772
959.443	0.0141254
959.521	0.0139982
959.599	0.0139828
959.677	0.0139600
959.755	0.0138614
959.833	0.0140004
959.911	0.0139514
