05/14/2022	16:15:05	Ver.	4.1	UNKNOWN
Optical Delay	599.995081	Delta X		0.078125	Sweeps	1	Scan Rate	0/0
Coordinates	Axis 1	NaN	Axis 2	NaN	Axis 3	NaN	Axis 4	NaN	Axis 5	NaN	Axis 6	0.000000
TX Power	0.000000	RX Power	0.000000

599.995	0.0136375
600.073	0.0137744
600.151	0.0136658
600.229	0.0136248
600.308	0.0136840
600.386	0.0136726
600.464	0.0135710
600.542	0.0135946
600.620	0.0135371
600.698	0.0135969
600.776	0.0137097
600.854	0.0135730
600.933	0.0136658
601.011	0.0137157
601.089	0.0136559
601.167	0.0135760
601.245	0.0137865
601.323	0.0135607
601.401	0.0135014
601.479	0.0136414
601.558	0.0134814
601.636	0.0136578
601.714	0.0135809
601.792	0.0136646
601.870	0.0135143
601.948	0.0135577
602.026	0.0136050
602.104	0.0136504
602.183	0.0136330
602.261	0.0136725
602.339	0.0135493
602.417	0.0136562
602.495	0.0136077
602.573	0.0136610
602.651	0.0135999
602.729	0.0135815
602.808	0.0135896
602.886	0.0136720
602.964	0.0137083
603.042	0.0136905
603.120	0.0136892
603.198	0.0135657
603.276	0.0135916
603.354	0.0135448
603.433	0.0136452
603.511	0.0136071
603.589	0.0135969
603.667	0.0135938
603.745	0.0136114
603.823	0.0136015
603.901	0.0136364
603.979	0.0136476
604.058	0.0136582
604.136	0.0136027
604.214	0.0136008
604.292	0.0135867
604.370	0.0135401
604.448	0.0136858
604.526	0.0135835
604.604	0.0136159
604.683	0.0136776
604.761	0.0136716
604.839	0.0135848
604.917	0.0135581
604.995	0.0136597
605.073	0.0136907
605.151	0.0136831
605.229	0.0137219
605.308	0.0135355
605.386	0.0136098
605.464	0.0135358
605.542	0.0136500
605.620	0.0135367
605.698	0.0136077
605.776	0.0135927
605.854	0.0137074
605.933	0.0135426
606.011	0.0136982
606.089	0.0135501
606.167	0.0136620
606.245	0.0136335
606.323	0.0135619
606.401	0.0137320
606.479	0.0136216
606.558	0.0135737
606.636	0.0135075
606.714	0.0137319
606.792	0.0135961
606.870	0.0136786
606.948	0.0137149
607.026	0.0136305
607.104	0.0136990
607.183	0.0136269
607.261	0.0137606
607.339	0.0138457
607.417	0.0137513
607.495	0.0136916
607.573	0.0135903
607.651	0.0136582
607.729	0.0136586
607.808	0.0135596
607.886	0.0135115
607.964	0.0137012
608.042	0.0135773
608.120	0.0136066
608.198	0.0136856
608.276	0.0136816
608.354	0.0135518
608.433	0.0136243
608.511	0.0137224
608.589	0.0137425
608.667	0.0136141
608.745	0.0136508
608.823	0.0137111
608.901	0.0135172
608.979	0.0137404
609.058	0.0136624
609.136	0.0135983
609.214	0.0136254
609.292	0.0136573
609.370	0.0137262
609.448	0.0136893
609.526	0.0137455
609.604	0.0136449
609.683	0.0135683
609.761	0.0136941
609.839	0.0136530
609.917	0.0136351
609.995	0.0136263
610.073	0.0136054
610.151	0.0135936
610.229	0.0136465
610.308	0.0137514
610.386	0.0137365
610.464	0.0137277
610.542	0.0136975
610.620	0.0136663
610.698	0.0136980
610.776	0.0135107
610.854	0.0136871
610.933	0.0137424
611.011	0.0136916
611.089	0.0137234
611.167	0.0136734
611.245	0.0137134
611.323	0.0135744
611.401	0.0137381
611.479	0.0137332
611.558	0.0135994
611.636	0.0135987
611.714	0.0136669
611.792	0.0136633
611.870	0.0136708
611.948	0.0136400
612.026	0.0135309
612.104	0.0135381
612.183	0.0135289
612.261	0.0136186
612.339	0.0137687
612.417	0.0136673
612.495	0.0136510
612.573	0.0136540
612.651	0.0135476
612.729	0.0136334
612.808	0.0137296
612.886	0.0135139
612.964	0.0135906
613.042	0.0137503
613.120	0.0135457
613.198	0.0135978
613.276	0.0136913
613.354	0.0136983
613.433	0.0137012
613.511	0.0136229
613.589	0.0135713
613.667	0.0136136
613.745	0.0136868
613.823	0.0136747
613.901	0.0136071
613.979	0.0136671
614.058	0.0137821
614.136	0.0135728
614.214	0.0135686
614.292	0.0135806
614.370	0.0136519
614.448	0.0136281
614.526	0.0136240
614.604	0.0137094
614.683	0.0136514
614.761	0.0136018
614.839	0.0136479
614.917	0.0137001
614.995	0.0134811
615.073	0.0136599
615.151	0.0136500
615.229	0.0135970
615.308	0.0135313
615.386	0.0136128
615.464	0.0136263
615.542	0.0137019
615.620	0.0136533
615.698	0.0136096
615.776	0.0136573
615.854	0.0138010
615.933	0.0137074
616.011	0.0136077
616.089	0.0135747
616.167	0.0136741
616.245	0.0137227
616.323	0.0136913
616.401	0.0135530
616.479	0.0135993
616.558	0.0135612
616.636	0.0136518
616.714	0.0136286
616.792	0.0136265
616.870	0.0135439
616.948	0.0137554
617.026	0.0136201
617.104	0.0135131
617.183	0.0136631
617.261	0.0135630
617.339	0.0137332
617.417	0.0137415
617.495	0.0137217
617.573	0.0136893
617.651	0.0135550
617.729	0.0136621
617.808	0.0135528
617.886	0.0137480
617.964	0.0136514
618.042	0.0137366
618.120	0.0137230
618.198	0.0135955
618.276	0.0135975
618.354	0.0136172
618.433	0.0136504
618.511	0.0136279
618.589	0.0136991
618.667	0.0136515
618.745	0.0136770
618.823	0.0137437
618.901	0.0136545
618.979	0.0135902
619.058	0.0137315
619.136	0.0137389
619.214	0.0136182
619.292	0.0136181
619.370	0.0136404
619.448	0.0137075
619.526	0.0136556
619.604	0.0137021
619.683	0.0136384
619.761	0.0137006
619.839	0.0136956
619.917	0.0136716
619.995	0.0135230
620.073	0.0136150
620.151	0.0136255
620.229	0.0136473
620.308	0.0136925
620.386	0.0136768
620.464	0.0136226
620.542	0.0136151
620.620	0.0136451
620.698	0.0135988
620.776	0.0136594
620.854	0.0138107
620.933	0.0136791
621.011	0.0135281
621.089	0.0137340
621.167	0.0134258
621.245	0.0136001
621.323	0.0137075
621.401	0.0136423
621.479	0.0135717
621.558	0.0137632
621.636	0.0136767
621.714	0.0136611
621.792	0.0135023
621.870	0.0136063
621.948	0.0137177
622.026	0.0136912
622.104	0.0136234
622.183	0.0136536
622.261	0.0136286
622.339	0.0136227
622.417	0.0135894
622.495	0.0135802
622.573	0.0136497
622.651	0.0137015
622.729	0.0136980
622.808	0.0135790
622.886	0.0135976
622.964	0.0136153
623.042	0.0136987
623.120	0.0135345
623.198	0.0135732
623.276	0.0136707
623.354	0.0136064
623.433	0.0135486
623.511	0.0137801
623.589	0.0137430
623.667	0.0136399
623.745	0.0135453
623.823	0.0136312
623.901	0.0136291
623.979	0.0136507
624.058	0.0137717
624.136	0.0135894
624.214	0.0136273
624.292	0.0136543
624.370	0.0135506
624.448	0.0135770
624.526	0.0137098
624.604	0.0137299
624.683	0.0136639
624.761	0.0137072
624.839	0.0137989
624.917	0.0136201
624.995	0.0137018
625.073	0.0136578
625.151	0.0136684
625.229	0.0135698
625.308	0.0136410
625.386	0.0135723
625.464	0.0135560
625.542	0.0135955
625.620	0.0137248
625.698	0.0136314
625.776	0.0135818
625.854	0.0136028
625.933	0.0137467
626.011	0.0137410
626.089	0.0135773
626.167	0.0136493
626.245	0.0136517
626.323	0.0136742
626.401	0.0136042
626.479	0.0135873
626.558	0.0135747
626.636	0.0136179
626.714	0.0136198
626.792	0.0135948
626.870	0.0138155
626.948	0.0136369
627.026	0.0135748
627.104	0.0136667
627.183	0.0137267
627.261	0.0136211
627.339	0.0135374
627.417	0.0136746
627.495	0.0137391
627.573	0.0137986
627.651	0.0136707
627.729	0.0135252
627.808	0.0135785
627.886	0.0136597
627.964	0.0137766
628.042	0.0136710
628.120	0.0136409
628.198	0.0137345
628.276	0.0137157
628.354	0.0136869
628.433	0.0136870
628.511	0.0136979
628.589	0.0137176
628.667	0.0136462
628.745	0.0136195
628.823	0.0134913
628.901	0.0135875
628.979	0.0136926
629.058	0.0137241
629.136	0.0135757
629.214	0.0136060
629.292	0.0136722
629.370	0.0136757
629.448	0.0137125
629.526	0.0136878
629.604	0.0137866
629.683	0.0136460
629.761	0.0136655
629.839	0.0136620
629.917	0.0135079
629.995	0.0137339
630.073	0.0137629
630.151	0.0137248
630.229	0.0136447
630.308	0.0136662
630.386	0.0136462
630.464	0.0135952
630.542	0.0136568
630.620	0.0137185
630.698	0.0137135
630.776	0.0135284
630.854	0.0136789
630.933	0.0135233
631.011	0.0137406
631.089	0.0137458
631.167	0.0136369
631.245	0.0135725
631.323	0.0135726
631.401	0.0138273
631.479	0.0136954
631.558	0.0135049
631.636	0.0136105
631.714	0.0136799
631.792	0.0137725
631.870	0.0136305
631.948	0.0136610
632.026	0.0136082
632.104	0.0137939
632.183	0.0137003
632.261	0.0136253
632.339	0.0136862
632.417	0.0135684
632.495	0.0136381
632.573	0.0135212
632.651	0.0137252
632.729	0.0136259
632.808	0.0137625
632.886	0.0135434
632.964	0.0136167
633.042	0.0135975
633.120	0.0135789
633.198	0.0135661
633.276	0.0136307
633.354	0.0135987
633.433	0.0136377
633.511	0.0137109
633.589	0.0135735
633.667	0.0134927
633.745	0.0137132
633.823	0.0136636
633.901	0.0135551
633.979	0.0135730
634.058	0.0136215
634.136	0.0135275
634.214	0.0135490
634.292	0.0136481
634.370	0.0135423
634.448	0.0136742
634.526	0.0135783
634.604	0.0135475
634.683	0.0136213
634.761	0.0137263
634.839	0.0135666
634.917	0.0136652
634.995	0.0136636
635.073	0.0136307
635.151	0.0135985
635.229	0.0136510
635.308	0.0136166
635.386	0.0136088
635.464	0.0135657
635.542	0.0135650
635.620	0.0137223
635.698	0.0135545
635.776	0.0135834
635.854	0.0137598
635.933	0.0136836
636.011	0.0135335
636.089	0.0136230
636.167	0.0136321
636.245	0.0136407
636.323	0.0135364
636.401	0.0134578
636.479	0.0136578
636.558	0.0137052
636.636	0.0136032
636.714	0.0136426
636.792	0.0137001
636.870	0.0135656
636.948	0.0135842
637.026	0.0136002
637.104	0.0136842
637.183	0.0137067
637.261	0.0135458
637.339	0.0136745
637.417	0.0137117
637.495	0.0136730
637.573	0.0137674
637.651	0.0136618
637.729	0.0136471
637.808	0.0137381
637.886	0.0136508
637.964	0.0136262
638.042	0.0135497
638.120	0.0137139
638.198	0.0137090
638.276	0.0136626
638.354	0.0136948
638.433	0.0135919
638.511	0.0136327
638.589	0.0136216
638.667	0.0137010
638.745	0.0137457
638.823	0.0136620
638.901	0.0137061
638.979	0.0136742
639.058	0.0137579
639.136	0.0136500
639.214	0.0135325
639.292	0.0135838
639.370	0.0136469
639.448	0.0135906
639.526	0.0136964
639.604	0.0135997
639.683	0.0136339
639.761	0.0136607
639.839	0.0137680
639.917	0.0137980
639.995	0.0135755
640.073	0.0135731
640.151	0.0137370
640.229	0.0136399
640.308	0.0135526
640.386	0.0136657
640.464	0.0136682
640.542	0.0136214
640.620	0.0135966
640.698	0.0136551
640.776	0.0136481
640.854	0.0136893
640.933	0.0137363
641.011	0.0135805
641.089	0.0135381
641.167	0.0137088
641.245	0.0135852
641.323	0.0136479
641.401	0.0137634
641.479	0.0136456
641.558	0.0138232
641.636	0.0137836
641.714	0.0136421
641.792	0.0137646
641.870	0.0136529
641.948	0.0136128
642.026	0.0136430
642.104	0.0136290
642.183	0.0135634
642.261	0.0136244
642.339	0.0137547
642.417	0.0136747
642.495	0.0135575
642.573	0.0136071
642.651	0.0136363
642.729	0.0136028
642.808	0.0135719
642.886	0.0136443
642.964	0.0136662
643.042	0.0136532
643.120	0.0136088
643.198	0.0136169
643.276	0.0135164
643.354	0.0135189
643.433	0.0136317
643.511	0.0137426
643.589	0.0137337
643.667	0.0135430
643.745	0.0136225
643.823	0.0135120
643.901	0.0135361
643.979	0.0135465
644.058	0.0135872
644.136	0.0135094
644.214	0.0136675
644.292	0.0135390
644.370	0.0135622
644.448	0.0134789
644.526	0.0136419
644.604	0.0135477
644.683	0.0135771
644.761	0.0133870
644.839	0.0136378
644.917	0.0136682
644.995	0.0136440
645.073	0.0136089
645.151	0.0134732
645.229	0.0136385
645.308	0.0136535
645.386	0.0135350
645.464	0.0136422
645.542	0.0134433
645.620	0.0136539
645.698	0.0136700
645.776	0.0135671
645.854	0.0135911
645.933	0.0136749
646.011	0.0137630
646.089	0.0135830
646.167	0.0136634
646.245	0.0134464
646.323	0.0136751
646.401	0.0136855
646.479	0.0135698
646.558	0.0136161
646.636	0.0135863
646.714	0.0136325
646.792	0.0135181
646.870	0.0134962
646.948	0.0136243
647.026	0.0135558
647.104	0.0135334
647.183	0.0135925
647.261	0.0135239
647.339	0.0135857
647.417	0.0136662
647.495	0.0135432
647.573	0.0136952
647.651	0.0135076
647.729	0.0136002
647.808	0.0136255
647.886	0.0135413
647.964	0.0137023
648.042	0.0135958
648.120	0.0136655
648.198	0.0137415
648.276	0.0137036
648.354	0.0136209
648.433	0.0136172
648.511	0.0136211
648.589	0.0137780
648.667	0.0136489
648.745	0.0135562
648.823	0.0135199
648.901	0.0137002
648.979	0.0135907
649.058	0.0135711
649.136	0.0135892
649.214	0.0135924
649.292	0.0136815
649.370	0.0135826
649.448	0.0135973
649.526	0.0136672
649.604	0.0137591
649.683	0.0136874
649.761	0.0137061
649.839	0.0136421
649.917	0.0135394
649.995	0.0135630
650.073	0.0134875
650.151	0.0135312
650.229	0.0137439
650.308	0.0136696
650.386	0.0136637
650.464	0.0135847
650.542	0.0135403
650.620	0.0135419
650.698	0.0136306
650.776	0.0136927
650.854	0.0136126
650.933	0.0137231
651.011	0.0136067
651.089	0.0135867
651.167	0.0136446
651.245	0.0135487
651.323	0.0136544
651.401	0.0136652
651.479	0.0135738
651.558	0.0136555
651.636	0.0136383
651.714	0.0135436
651.792	0.0135374
651.870	0.0135646
651.948	0.0136400
652.026	0.0136385
652.104	0.0136691
652.183	0.0135251
652.261	0.0136123
652.339	0.0137448
652.417	0.0135136
652.495	0.0136342
652.573	0.0137329
652.651	0.0134388
652.729	0.0136263
652.808	0.0136695
652.886	0.0136407
652.964	0.0135358
653.042	0.0135351
653.120	0.0136411
653.198	0.0136425
653.276	0.0136578
653.354	0.0137032
653.433	0.0135536
653.511	0.0137007
653.589	0.0136312
653.667	0.0136253
653.745	0.0135311
653.823	0.0135901
653.901	0.0135963
653.979	0.0136935
654.058	0.0136227
654.136	0.0136305
654.214	0.0137424
654.292	0.0136475
654.370	0.0136620
654.448	0.0136090
654.526	0.0136560
654.604	0.0134988
654.683	0.0134973
654.761	0.0137695
654.839	0.0136263
654.917	0.0134809
654.995	0.0135464
655.073	0.0136218
655.151	0.0136951
655.229	0.0136430
655.308	0.0134972
655.386	0.0135683
655.464	0.0136107
655.542	0.0136361
655.620	0.0136147
655.698	0.0137325
655.776	0.0137040
655.854	0.0136724
655.933	0.0135804
656.011	0.0138514
656.089	0.0136946
656.167	0.0136211
656.245	0.0135715
656.323	0.0137787
656.401	0.0137238
656.479	0.0136090
656.558	0.0135505
656.636	0.0136977
656.714	0.0136249
656.792	0.0136227
656.870	0.0135850
656.948	0.0136469
657.026	0.0135686
657.104	0.0135856
657.183	0.0135567
657.261	0.0135709
657.339	0.0136434
657.417	0.0135743
657.495	0.0135581
657.573	0.0135108
657.651	0.0136562
657.729	0.0137148
657.808	0.0135858
657.886	0.0135964
657.964	0.0137784
658.042	0.0136022
658.120	0.0135546
658.198	0.0135892
658.276	0.0136564
658.354	0.0136843
658.433	0.0136317
658.511	0.0135648
658.589	0.0136491
658.667	0.0137854
658.745	0.0137136
658.823	0.0135576
658.901	0.0135922
658.979	0.0136263
659.058	0.0136971
659.136	0.0136046
659.214	0.0136712
659.292	0.0137128
659.370	0.0137540
659.448	0.0136177
659.526	0.0135192
659.604	0.0137807
659.683	0.0135590
659.761	0.0135423
659.839	0.0136695
659.917	0.0137448
659.995	0.0136540
660.073	0.0136267
660.151	0.0136574
660.229	0.0136617
660.308	0.0136023
660.386	0.0136346
660.464	0.0136742
660.542	0.0136561
660.620	0.0137453
660.698	0.0137420
660.776	0.0136255
660.854	0.0135991
660.933	0.0137379
661.011	0.0135184
661.089	0.0135303
661.167	0.0136481
661.245	0.0136163
661.323	0.0136765
661.401	0.0136475
661.479	0.0136288
661.558	0.0136635
661.636	0.0136758
661.714	0.0135725
661.792	0.0135818
661.870	0.0137003
661.948	0.0137299
662.026	0.0138138
662.104	0.0138760
662.183	0.0136893
662.261	0.0137369
662.339	0.0135456
662.417	0.0135526
662.495	0.0137344
662.573	0.0136330
662.651	0.0137326
662.729	0.0137654
662.808	0.0137260
662.886	0.0137448
662.964	0.0138116
663.042	0.0136841
663.120	0.0134974
663.198	0.0135890
663.276	0.0135991
663.354	0.0136304
663.433	0.0137337
663.511	0.0135239
663.589	0.0136793
663.667	0.0134946
663.745	0.0136524
663.823	0.0136053
663.901	0.0137189
663.979	0.0135847
664.058	0.0134787
664.136	0.0136671
664.214	0.0137436
664.292	0.0135632
664.370	0.0135355
664.448	0.0136333
664.526	0.0135640
664.604	0.0136359
664.683	0.0135930
664.761	0.0137207
664.839	0.0136571
664.917	0.0136653
664.995	0.0136571
665.073	0.0136068
665.151	0.0135799
665.229	0.0135318
665.308	0.0136440
665.386	0.0137659
665.464	0.0136508
665.542	0.0136688
665.620	0.0136247
665.698	0.0136246
665.776	0.0136221
665.854	0.0137028
665.933	0.0135812
666.011	0.0135512
666.089	0.0137193
666.167	0.0137392
666.245	0.0136442
666.323	0.0136679
666.401	0.0136904
666.479	0.0137508
666.558	0.0136282
666.636	0.0135870
666.714	0.0135749
666.792	0.0135790
666.870	0.0136633
666.948	0.0136741
667.026	0.0136823
667.104	0.0137528
667.183	0.0136402
667.261	0.0135766
667.339	0.0135677
667.417	0.0136216
667.495	0.0136647
667.573	0.0136294
667.651	0.0137042
667.729	0.0137244
667.808	0.0135688
667.886	0.0136913
667.964	0.0136384
668.042	0.0137123
668.120	0.0136981
668.198	0.0136717
668.276	0.0137205
668.354	0.0137328
668.433	0.0136751
668.511	0.0136159
668.589	0.0135973
668.667	0.0135935
668.745	0.0137082
668.823	0.0137720
668.901	0.0137773
668.979	0.0135842
669.058	0.0136167
669.136	0.0136991
669.214	0.0136119
669.292	0.0136349
669.370	0.0135862
669.448	0.0135892
669.526	0.0137468
669.604	0.0136655
669.683	0.0137534
669.761	0.0136157
669.839	0.0135423
669.917	0.0138145
669.995	0.0136658
670.073	0.0136459
670.151	0.0137687
670.229	0.0137128
670.308	0.0137609
670.386	0.0138124
670.464	0.0136355
670.542	0.0135769
670.620	0.0135063
670.698	0.0136516
670.776	0.0136565
670.854	0.0137675
670.933	0.0137926
671.011	0.0136359
671.089	0.0137913
671.167	0.0136763
671.245	0.0137520
671.323	0.0137212
671.401	0.0136803
671.479	0.0136478
671.558	0.0136177
671.636	0.0135871
671.714	0.0135699
671.792	0.0136008
671.870	0.0137191
671.948	0.0136584
672.026	0.0136906
672.104	0.0136124
672.183	0.0135316
672.261	0.0135282
672.339	0.0136302
672.417	0.0137859
672.495	0.0137767
672.573	0.0135719
672.651	0.0135661
672.729	0.0135126
672.808	0.0136195
672.886	0.0136943
672.964	0.0135793
673.042	0.0136602
673.120	0.0137646
673.198	0.0136659
673.276	0.0136009
673.354	0.0135673
673.433	0.0137512
673.511	0.0136723
673.589	0.0136543
673.667	0.0136996
673.745	0.0135853
673.823	0.0135825
673.901	0.0137772
673.979	0.0136537
674.058	0.0135481
674.136	0.0136051
674.214	0.0136915
674.292	0.0137577
674.370	0.0136220
674.448	0.0136434
674.526	0.0137112
674.604	0.0135037
674.683	0.0136292
674.761	0.0138389
674.839	0.0137003
674.917	0.0137042
674.995	0.0136298
675.073	0.0135970
675.151	0.0138330
675.229	0.0136208
675.308	0.0136321
675.386	0.0136832
675.464	0.0135905
675.542	0.0137373
675.620	0.0135716
675.698	0.0136095
675.776	0.0136134
675.854	0.0136476
675.933	0.0137608
676.011	0.0136798
676.089	0.0136547
676.167	0.0136636
676.245	0.0135766
676.323	0.0135863
676.401	0.0136005
676.479	0.0135944
676.558	0.0136580
676.636	0.0134906
676.714	0.0136360
676.792	0.0135465
676.870	0.0137775
676.948	0.0136587
677.026	0.0136217
677.104	0.0135570
677.183	0.0137024
677.261	0.0136213
677.339	0.0136160
677.417	0.0136049
677.495	0.0136898
677.573	0.0137223
677.651	0.0136835
677.729	0.0136622
677.808	0.0137088
677.886	0.0135409
677.964	0.0137080
678.042	0.0136993
678.120	0.0135542
678.198	0.0135606
678.276	0.0137025
678.354	0.0136545
678.433	0.0134747
678.511	0.0135189
678.589	0.0137346
678.667	0.0136786
678.745	0.0136469
678.823	0.0135538
678.901	0.0135008
678.979	0.0134644
679.058	0.0136262
679.136	0.0135522
679.214	0.0135172
679.292	0.0136880
679.370	0.0136851
679.448	0.0134589
679.526	0.0136980
679.604	0.0134966
679.683	0.0135431
679.761	0.0135277
679.839	0.0137186
679.917	0.0135325
679.995	0.0135594
680.073	0.0136779
680.151	0.0135703
680.229	0.0134791
680.308	0.0134998
680.386	0.0134921
680.464	0.0136033
680.542	0.0135786
680.620	0.0135619
680.698	0.0135014
680.776	0.0134466
680.854	0.0134577
680.933	0.0136517
681.011	0.0135625
681.089	0.0136652
681.167	0.0137529
681.245	0.0136255
681.323	0.0137170
681.401	0.0136450
681.479	0.0137299
681.558	0.0137157
681.636	0.0136761
681.714	0.0136018
681.792	0.0134527
681.870	0.0135575
681.948	0.0137642
682.026	0.0136791
682.104	0.0137110
682.183	0.0136525
682.261	0.0136501
682.339	0.0135883
682.417	0.0135970
682.495	0.0137592
682.573	0.0137041
682.651	0.0137431
682.729	0.0137935
682.808	0.0137500
682.886	0.0136738
682.964	0.0135124
683.042	0.0136285
683.120	0.0137700
683.198	0.0137428
683.276	0.0135974
683.354	0.0137222
683.433	0.0137177
683.511	0.0136896
683.589	0.0135804
683.667	0.0135823
683.745	0.0136478
683.823	0.0137219
683.901	0.0137764
683.979	0.0137032
684.058	0.0137149
684.136	0.0135972
684.214	0.0136489
684.292	0.0138385
684.370	0.0136385
684.448	0.0136554
684.526	0.0135506
684.604	0.0136134
684.683	0.0135645
684.761	0.0137337
684.839	0.0136384
684.917	0.0136570
684.995	0.0136632
685.073	0.0136602
685.151	0.0135539
685.229	0.0135717
685.308	0.0137547
685.386	0.0136098
685.464	0.0136909
685.542	0.0136626
685.620	0.0136359
685.698	0.0136416
685.776	0.0136964
685.854	0.0137804
685.933	0.0136294
686.011	0.0137776
686.089	0.0136427
686.167	0.0135966
686.245	0.0136658
686.323	0.0135760
686.401	0.0136008
686.479	0.0136375
686.558	0.0136961
686.636	0.0138235
686.714	0.0137547
686.792	0.0136707
686.870	0.0136770
686.948	0.0135609
687.026	0.0136710
687.104	0.0137536
687.183	0.0136984
687.261	0.0137128
687.339	0.0135871
687.417	0.0135323
687.495	0.0135736
687.573	0.0135477
687.651	0.0137268
687.729	0.0137562
687.808	0.0136053
687.886	0.0135672
687.964	0.0136988
688.042	0.0137534
688.120	0.0136210
688.198	0.0137605
688.276	0.0136484
688.354	0.0136003
688.433	0.0136910
688.511	0.0136477
688.589	0.0136738
688.667	0.0137186
688.745	0.0135818
688.823	0.0136443
688.901	0.0136572
688.979	0.0135564
689.058	0.0135835
689.136	0.0135088
689.214	0.0136797
689.292	0.0136066
689.370	0.0136401
689.448	0.0136946
689.526	0.0136378
689.604	0.0137173
689.683	0.0135984
689.761	0.0135840
689.839	0.0135858
689.917	0.0135515
689.995	0.0136740
690.073	0.0137225
690.151	0.0135998
690.229	0.0135440
690.308	0.0137203
690.386	0.0136571
690.464	0.0136570
690.542	0.0135844
690.620	0.0136721
690.698	0.0136996
690.776	0.0136701
690.854	0.0134578
690.933	0.0136753
691.011	0.0137115
691.089	0.0134752
691.167	0.0135910
691.245	0.0134895
691.323	0.0135577
691.401	0.0134853
691.479	0.0135775
691.558	0.0135116
691.636	0.0135880
691.714	0.0136582
691.792	0.0136404
691.870	0.0135532
691.948	0.0135352
692.026	0.0136362
692.104	0.0137135
692.183	0.0135396
692.261	0.0136405
692.339	0.0137144
692.417	0.0136188
692.495	0.0135699
692.573	0.0135905
692.651	0.0136599
692.729	0.0136004
692.808	0.0136360
692.886	0.0135921
692.964	0.0135915
693.042	0.0135741
693.120	0.0136468
693.198	0.0135596
693.276	0.0135751
693.354	0.0137415
693.433	0.0136329
693.511	0.0135151
693.589	0.0136132
693.667	0.0136969
693.745	0.0136029
693.823	0.0136159
693.901	0.0136906
693.979	0.0135765
694.058	0.0135205
694.136	0.0137917
694.214	0.0136620
694.292	0.0136826
694.370	0.0135140
694.448	0.0136477
694.526	0.0135805
694.604	0.0135461
694.683	0.0136663
694.761	0.0136632
694.839	0.0136996
694.917	0.0138066
694.995	0.0137093
695.073	0.0137034
695.151	0.0137043
695.229	0.0137109
695.308	0.0137846
695.386	0.0137182
695.464	0.0137621
695.542	0.0136566
695.620	0.0137563
695.698	0.0136906
695.776	0.0135571
695.854	0.0136337
695.933	0.0137602
696.011	0.0135229
696.089	0.0136624
696.167	0.0136115
696.245	0.0137146
696.323	0.0134596
696.401	0.0134672
696.479	0.0135565
696.558	0.0135440
696.636	0.0135983
696.714	0.0136144
696.792	0.0137153
696.870	0.0137287
696.948	0.0137344
697.026	0.0138305
697.104	0.0137658
697.183	0.0136806
697.261	0.0137485
697.339	0.0138562
697.417	0.0138393
697.495	0.0137789
697.573	0.0138532
697.651	0.0138319
697.729	0.0138554
697.808	0.0137756
697.886	0.0138255
697.964	0.0137935
698.042	0.0135559
698.120	0.0135797
698.198	0.0136452
698.276	0.0134655
698.354	0.0135754
698.433	0.0135189
698.511	0.0135281
698.589	0.0133212
698.667	0.0134620
698.745	0.0135038
698.823	0.0133912
698.901	0.0135947
698.979	0.0133028
699.058	0.0135109
699.136	0.0135055
699.214	0.0135404
699.292	0.0137672
699.370	0.0136274
699.448	0.0136966
699.526	0.0136448
699.604	0.0137988
699.683	0.0137785
699.761	0.0137250
699.839	0.0137791
699.917	0.0137698
699.995	0.0138768
700.073	0.0139970
700.151	0.0138708
700.229	0.0138393
700.308	0.0138422
700.386	0.0136294
700.464	0.0137400
700.542	0.0136739
700.620	0.0137346
700.698	0.0136393
700.776	0.0136651
700.854	0.0135758
700.933	0.0135073
701.011	0.0135471
701.089	0.0134010
701.167	0.0133089
701.245	0.0133065
701.323	0.0132281
701.401	0.0134269
701.479	0.0134003
701.558	0.0132672
701.636	0.0132916
701.714	0.0134064
701.792	0.0134240
701.870	0.0134746
701.948	0.0133887
702.026	0.0135582
702.104	0.0134896
702.183	0.0136703
702.261	0.0136193
702.339	0.0137740
702.417	0.0137530
702.495	0.0139098
702.573	0.0139022
702.651	0.0138557
702.729	0.0139628
702.808	0.0139452
702.886	0.0138744
702.964	0.0138578
703.042	0.0138377
703.120	0.0137814
703.198	0.0138731
703.276	0.0139748
703.354	0.0136297
703.433	0.0138013
703.511	0.0136153
703.589	0.0136985
703.667	0.0136758
703.745	0.0135315
703.823	0.0135988
703.901	0.0136705
703.979	0.0135023
704.058	0.0135271
704.136	0.0133437
704.214	0.0134449
704.292	0.0134970
704.370	0.0134845
704.448	0.0133371
704.526	0.0134444
704.604	0.0134673
704.683	0.0133430
704.761	0.0134397
704.839	0.0134981
704.917	0.0134875
704.995	0.0135473
705.073	0.0136715
705.151	0.0136208
705.229	0.0136686
705.308	0.0135667
705.386	0.0137165
705.464	0.0136120
705.542	0.0137895
705.620	0.0139013
705.698	0.0138354
705.776	0.0138287
705.854	0.0136346
705.933	0.0136812
706.011	0.0135648
706.089	0.0137839
706.167	0.0136633
706.245	0.0137025
706.323	0.0137762
706.401	0.0136028
706.479	0.0136794
706.558	0.0135162
706.636	0.0136435
706.714	0.0137209
706.792	0.0135580
706.870	0.0134291
706.948	0.0135796
707.026	0.0134778
707.104	0.0135022
707.183	0.0133594
707.261	0.0134266
707.339	0.0133698
707.417	0.0135610
707.495	0.0135140
707.573	0.0135040
707.651	0.0135623
707.729	0.0134985
707.808	0.0134996
707.886	0.0135116
707.964	0.0136243
708.042	0.0137032
708.120	0.0136655
708.198	0.0136823
708.276	0.0137537
708.354	0.0137730
708.433	0.0138010
708.511	0.0136721
708.589	0.0137243
708.667	0.0137228
708.745	0.0135809
708.823	0.0137760
708.901	0.0136468
708.979	0.0136874
709.058	0.0137761
709.136	0.0137299
709.214	0.0137221
709.292	0.0135899
709.370	0.0136079
709.448	0.0136505
709.526	0.0136993
709.604	0.0136276
709.683	0.0135190
709.761	0.0136489
709.839	0.0136621
709.917	0.0134825
709.995	0.0135002
710.073	0.0135653
710.151	0.0136222
710.229	0.0135786
710.308	0.0136239
710.386	0.0136087
710.464	0.0135963
710.542	0.0134644
710.620	0.0133912
710.698	0.0135970
710.776	0.0134542
710.854	0.0135114
710.933	0.0137395
711.011	0.0135364
711.089	0.0135593
711.167	0.0135947
711.245	0.0136285
711.323	0.0136480
711.401	0.0137485
711.479	0.0136382
711.558	0.0136801
711.636	0.0138997
711.714	0.0137516
711.792	0.0138182
711.870	0.0138367
711.948	0.0138420
712.026	0.0139549
712.104	0.0139217
712.183	0.0138367
712.261	0.0137832
712.339	0.0139622
712.417	0.0138726
712.495	0.0138193
712.573	0.0138622
712.651	0.0137263
712.729	0.0137635
712.808	0.0136726
712.886	0.0137286
712.964	0.0137404
713.042	0.0138855
713.120	0.0137560
713.198	0.0136560
713.276	0.0136476
713.354	0.0136267
713.433	0.0135446
713.511	0.0136068
713.589	0.0135521
713.667	0.0137422
713.745	0.0134725
713.823	0.0133250
713.901	0.0135442
713.979	0.0135751
714.058	0.0134499
714.136	0.0134458
714.214	0.0134742
714.292	0.0134868
714.370	0.0134888
714.448	0.0135203
714.526	0.0133902
714.604	0.0135358
714.683	0.0135079
714.761	0.0134102
714.839	0.0134857
714.917	0.0134296
714.995	0.0135325
715.073	0.0135471
715.151	0.0135593
715.229	0.0134742
715.308	0.0136395
715.386	0.0135706
715.464	0.0136015
715.542	0.0136331
715.620	0.0137479
715.698	0.0137365
715.776	0.0136768
715.854	0.0136465
715.933	0.0139397
716.011	0.0138226
716.089	0.0138208
716.167	0.0138091
716.245	0.0138451
716.323	0.0138673
716.401	0.0139118
716.479	0.0138083
716.558	0.0139463
716.636	0.0138231
716.714	0.0139079
716.792	0.0138968
716.870	0.0139339
716.948	0.0138834
717.026	0.0137905
717.104	0.0138590
717.183	0.0138972
717.261	0.0137572
717.339	0.0137149
717.417	0.0136885
717.495	0.0134827
717.573	0.0136163
717.651	0.0136588
717.729	0.0134199
717.808	0.0134814
717.886	0.0135971
717.964	0.0135036
718.042	0.0135003
718.120	0.0134908
718.198	0.0135805
718.276	0.0134380
718.354	0.0135533
718.433	0.0135295
718.511	0.0135509
718.589	0.0135489
718.667	0.0135641
718.745	0.0134923
718.823	0.0134634
718.901	0.0135746
718.979	0.0136430
719.058	0.0136148
719.136	0.0136837
719.214	0.0136684
719.292	0.0137092
719.370	0.0137142
719.448	0.0137447
719.526	0.0136053
719.604	0.0135362
719.683	0.0136792
719.761	0.0137776
719.839	0.0136503
719.917	0.0135744
719.995	0.0137524
720.073	0.0137724
720.151	0.0137572
720.229	0.0137967
720.308	0.0137096
720.386	0.0138267
720.464	0.0137199
720.542	0.0137217
720.620	0.0138050
720.698	0.0138266
720.776	0.0137002
720.854	0.0137074
720.933	0.0137637
721.011	0.0138292
721.089	0.0138007
721.167	0.0138383
721.245	0.0138432
721.323	0.0138665
721.401	0.0137083
721.479	0.0138618
721.558	0.0137128
721.636	0.0137132
721.714	0.0138556
721.792	0.0137331
721.870	0.0138476
721.948	0.0137981
722.026	0.0136560
722.104	0.0136497
722.183	0.0136671
722.261	0.0135162
722.339	0.0136738
722.417	0.0134395
722.495	0.0136069
722.573	0.0136787
722.651	0.0136617
722.729	0.0135223
722.808	0.0136499
722.886	0.0135587
722.964	0.0135876
723.042	0.0133974
723.120	0.0135337
723.198	0.0133736
723.276	0.0134824
723.354	0.0136984
723.433	0.0135971
723.511	0.0135436
723.589	0.0135975
723.667	0.0136317
723.745	0.0135459
723.823	0.0134874
723.901	0.0136229
723.979	0.0135301
724.058	0.0135368
724.136	0.0135939
724.214	0.0136932
724.292	0.0136037
724.370	0.0135947
724.448	0.0136387
724.526	0.0136973
724.604	0.0136497
724.683	0.0137341
724.761	0.0137377
724.839	0.0137066
724.917	0.0137256
724.995	0.0137408
725.073	0.0138158
725.151	0.0138750
725.229	0.0138799
725.308	0.0137364
725.386	0.0137145
725.464	0.0137435
725.542	0.0137418
725.620	0.0137287
725.698	0.0138457
725.776	0.0137280
725.854	0.0136758
725.933	0.0136137
726.011	0.0137598
726.089	0.0137103
726.167	0.0137639
726.245	0.0137457
726.323	0.0136729
726.401	0.0137603
726.479	0.0136838
726.558	0.0137257
726.636	0.0138737
726.714	0.0137702
726.792	0.0138080
726.870	0.0137320
726.948	0.0137492
727.026	0.0136886
727.104	0.0137466
727.183	0.0136600
727.261	0.0136140
727.339	0.0136195
727.417	0.0136076
727.495	0.0135408
727.573	0.0136139
727.651	0.0136635
727.729	0.0136388
727.808	0.0136649
727.886	0.0134622
727.964	0.0135125
728.042	0.0134188
728.120	0.0135753
728.198	0.0135087
728.276	0.0134704
728.354	0.0134695
728.433	0.0135339
728.511	0.0134913
728.589	0.0134890
728.667	0.0134647
728.745	0.0135402
728.823	0.0134840
728.901	0.0134735
728.979	0.0134632
729.058	0.0134692
729.136	0.0135031
729.214	0.0135502
729.292	0.0135978
729.370	0.0135357
729.448	0.0134913
729.526	0.0136502
729.604	0.0135571
729.683	0.0135358
729.761	0.0134338
729.839	0.0136030
729.917	0.0135127
729.995	0.0135673
730.073	0.0136011
730.151	0.0137931
730.229	0.0135000
730.308	0.0136258
730.386	0.0137591
730.464	0.0136864
730.542	0.0137702
730.620	0.0136485
730.698	0.0137384
730.776	0.0137488
730.854	0.0136566
730.933	0.0137164
731.011	0.0136970
731.089	0.0136727
731.167	0.0137387
731.245	0.0136607
731.323	0.0137152
731.401	0.0135815
731.479	0.0135766
731.558	0.0136115
731.636	0.0136570
731.714	0.0137360
731.792	0.0137859
731.870	0.0136603
731.948	0.0135389
732.026	0.0136542
732.104	0.0136927
732.183	0.0136205
732.261	0.0137010
732.339	0.0136835
732.417	0.0136569
732.495	0.0137099
732.573	0.0138191
732.651	0.0135325
732.729	0.0136805
732.808	0.0137109
732.886	0.0135489
732.964	0.0137211
733.042	0.0136336
733.120	0.0136108
733.198	0.0135950
733.276	0.0134992
733.354	0.0135307
733.433	0.0135464
733.511	0.0134665
733.589	0.0135580
733.667	0.0135152
733.745	0.0135536
733.823	0.0135194
733.901	0.0134911
733.979	0.0135977
734.058	0.0136430
734.136	0.0135114
734.214	0.0135553
734.292	0.0134449
734.370	0.0135699
734.448	0.0135237
734.526	0.0135448
734.604	0.0135763
734.683	0.0136066
734.761	0.0136030
734.839	0.0136938
734.917	0.0136140
734.995	0.0136833
735.073	0.0138292
735.151	0.0137287
735.229	0.0138145
735.308	0.0137611
735.386	0.0136395
735.464	0.0136259
735.542	0.0137314
735.620	0.0136926
735.698	0.0136710
735.776	0.0136869
735.854	0.0135667
735.933	0.0137052
736.011	0.0137496
736.089	0.0136309
736.167	0.0136223
736.245	0.0137889
736.323	0.0137115
736.401	0.0136305
736.479	0.0135443
736.558	0.0136798
736.636	0.0136086
736.714	0.0136759
736.792	0.0136076
736.870	0.0136894
736.948	0.0137531
737.026	0.0137196
737.104	0.0136080
737.183	0.0134927
737.261	0.0136458
737.339	0.0136366
737.417	0.0136450
737.495	0.0138076
737.573	0.0136018
737.651	0.0138069
737.729	0.0136781
737.808	0.0136639
737.886	0.0136945
737.964	0.0137137
738.042	0.0136691
738.120	0.0136797
738.198	0.0137611
738.276	0.0137022
738.354	0.0136977
738.433	0.0136148
738.511	0.0136413
738.589	0.0137373
738.667	0.0135988
738.745	0.0137121
738.823	0.0136209
738.901	0.0136504
738.979	0.0137698
739.058	0.0137210
739.136	0.0137612
739.214	0.0137457
739.292	0.0136324
739.370	0.0136353
739.448	0.0136517
739.526	0.0137312
739.604	0.0135822
739.683	0.0135988
739.761	0.0135612
739.839	0.0138262
739.917	0.0137212
739.995	0.0135117
740.073	0.0135455
740.151	0.0136311
740.229	0.0137572
740.308	0.0137012
740.386	0.0137352
740.464	0.0136525
740.542	0.0136835
740.620	0.0136829
740.698	0.0136842
740.776	0.0136472
740.854	0.0135922
740.933	0.0136261
741.011	0.0136028
741.089	0.0135278
741.167	0.0136217
741.245	0.0134324
741.323	0.0135352
741.401	0.0135935
741.479	0.0135271
741.558	0.0135719
741.636	0.0135725
741.714	0.0135869
741.792	0.0135870
741.870	0.0136280
741.948	0.0136088
742.026	0.0136230
742.104	0.0136670
742.183	0.0136203
742.261	0.0135618
742.339	0.0136359
742.417	0.0136336
742.495	0.0137414
742.573	0.0135566
742.651	0.0137662
742.729	0.0137341
742.808	0.0137969
742.886	0.0138190
742.964	0.0136536
743.042	0.0137552
743.120	0.0136446
743.198	0.0136301
743.276	0.0137144
743.354	0.0137495
743.433	0.0137621
743.511	0.0138009
743.589	0.0137038
743.667	0.0135646
743.745	0.0136839
743.823	0.0137006
743.901	0.0137695
743.979	0.0137813
744.058	0.0136051
744.136	0.0137801
744.214	0.0137446
744.292	0.0135829
744.370	0.0135515
744.448	0.0135876
744.526	0.0135453
744.604	0.0134497
744.683	0.0135957
744.761	0.0137086
744.839	0.0136684
744.917	0.0136199
744.995	0.0136933
745.073	0.0137175
745.151	0.0135284
745.229	0.0135188
745.308	0.0135181
745.386	0.0136503
745.464	0.0137301
745.542	0.0135723
745.620	0.0136192
745.698	0.0135305
745.776	0.0135661
745.854	0.0135688
745.933	0.0135268
746.011	0.0135253
746.089	0.0135921
746.167	0.0136091
746.245	0.0136046
746.323	0.0135122
746.401	0.0135111
746.479	0.0137576
746.558	0.0135610
746.636	0.0135554
746.714	0.0135079
746.792	0.0136654
746.870	0.0135459
746.948	0.0135878
747.026	0.0137299
747.104	0.0135761
747.183	0.0136131
747.261	0.0135046
747.339	0.0136539
747.417	0.0135556
747.495	0.0134731
747.573	0.0135378
747.651	0.0135294
747.729	0.0136730
747.808	0.0137398
747.886	0.0136008
747.964	0.0136182
748.042	0.0135568
748.120	0.0136033
748.198	0.0135966
748.276	0.0136994
748.354	0.0136302
748.433	0.0135629
748.511	0.0137537
748.589	0.0137676
748.667	0.0136616
748.745	0.0136167
748.823	0.0137254
748.901	0.0135345
748.979	0.0136646
749.058	0.0136530
749.136	0.0136732
749.214	0.0135840
749.292	0.0137382
749.370	0.0136407
749.448	0.0136749
749.526	0.0136562
749.604	0.0135318
749.683	0.0136632
749.761	0.0137164
749.839	0.0135548
749.917	0.0134808
749.995	0.0135277
750.073	0.0134821
750.151	0.0136150
750.229	0.0135652
750.308	0.0135404
750.386	0.0135084
750.464	0.0135583
750.542	0.0135821
750.620	0.0136071
750.698	0.0137235
750.776	0.0137036
750.854	0.0135092
750.933	0.0135497
751.011	0.0135950
751.089	0.0135829
751.167	0.0135242
751.245	0.0135889
751.323	0.0135284
751.401	0.0136757
751.479	0.0136607
751.558	0.0137300
751.636	0.0135335
751.714	0.0135711
751.792	0.0136533
751.870	0.0136544
751.948	0.0136508
752.026	0.0137533
752.104	0.0136588
752.183	0.0135925
752.261	0.0136420
752.339	0.0136251
752.417	0.0135300
752.495	0.0136508
752.573	0.0136263
752.651	0.0135387
752.729	0.0136575
752.808	0.0136916
752.886	0.0136337
752.964	0.0135831
753.042	0.0134505
753.120	0.0135818
753.198	0.0136554
753.276	0.0136610
753.354	0.0135312
753.433	0.0136252
753.511	0.0136829
753.589	0.0136275
753.667	0.0135994
753.745	0.0136259
753.823	0.0136585
753.901	0.0135079
753.979	0.0135732
754.058	0.0137389
754.136	0.0138196
754.214	0.0137234
754.292	0.0136993
754.370	0.0135556
754.448	0.0134786
754.526	0.0136057
754.604	0.0136078
754.683	0.0136806
754.761	0.0136524
754.839	0.0136567
754.917	0.0137072
754.995	0.0136897
755.073	0.0134940
755.151	0.0134344
755.229	0.0136248
755.308	0.0136518
755.386	0.0136705
755.464	0.0135332
755.542	0.0135698
755.620	0.0135988
755.698	0.0136935
755.776	0.0135210
755.854	0.0135361
755.933	0.0135509
756.011	0.0136902
756.089	0.0135522
756.167	0.0136422
756.245	0.0136584
756.323	0.0136840
756.401	0.0137054
756.479	0.0136079
756.558	0.0137309
756.636	0.0136386
756.714	0.0136300
756.792	0.0137431
756.870	0.0136777
756.948	0.0134892
757.026	0.0136244
757.104	0.0136623
757.183	0.0137006
757.261	0.0136879
757.339	0.0137273
757.417	0.0137032
757.495	0.0136341
757.573	0.0137459
757.651	0.0137341
757.729	0.0136444
757.808	0.0137362
757.886	0.0137398
757.964	0.0136227
758.042	0.0136442
758.120	0.0137085
758.198	0.0135485
758.276	0.0136749
758.354	0.0135372
758.433	0.0138449
758.511	0.0138185
758.589	0.0136335
758.667	0.0136333
758.745	0.0135153
758.823	0.0136756
758.901	0.0136089
758.979	0.0136686
759.058	0.0135502
759.136	0.0135962
759.214	0.0136947
759.292	0.0136258
759.370	0.0135534
759.448	0.0136066
759.526	0.0136084
759.604	0.0138078
759.683	0.0136746
759.761	0.0136027
759.839	0.0136534
759.917	0.0137184
759.995	0.0138404
760.073	0.0136974
760.151	0.0137469
760.229	0.0135769
760.308	0.0136795
760.386	0.0136488
760.464	0.0136521
760.542	0.0134925
760.620	0.0136120
760.698	0.0138057
760.776	0.0138015
760.854	0.0137819
760.933	0.0136803
761.011	0.0136845
761.089	0.0139143
761.167	0.0137731
761.245	0.0136510
761.323	0.0138766
761.401	0.0138065
761.479	0.0136055
761.558	0.0137746
761.636	0.0137377
761.714	0.0137050
761.792	0.0136156
761.870	0.0137101
761.948	0.0136453
762.026	0.0136497
762.104	0.0137589
762.183	0.0136621
762.261	0.0135795
762.339	0.0136860
762.417	0.0136048
762.495	0.0137458
762.573	0.0135572
762.651	0.0137135
762.729	0.0136911
762.808	0.0137007
762.886	0.0136189
762.964	0.0135902
763.042	0.0136491
763.120	0.0136211
763.198	0.0136929
763.276	0.0136292
763.354	0.0134901
763.433	0.0134737
763.511	0.0136537
763.589	0.0135395
763.667	0.0136644
763.745	0.0135468
763.823	0.0135823
763.901	0.0134715
763.979	0.0136216
764.058	0.0136882
764.136	0.0135474
764.214	0.0136546
764.292	0.0136508
764.370	0.0136182
764.448	0.0135742
764.526	0.0136563
764.604	0.0137637
764.683	0.0136413
764.761	0.0135439
764.839	0.0135487
764.917	0.0136010
764.995	0.0135731
765.073	0.0134966
765.151	0.0135558
765.229	0.0136074
765.308	0.0136264
765.386	0.0135559
765.464	0.0135781
765.542	0.0135475
765.620	0.0136280
765.698	0.0135610
765.776	0.0136380
765.854	0.0135892
765.933	0.0135526
766.011	0.0134470
766.089	0.0135329
766.167	0.0135681
766.245	0.0135675
766.323	0.0135051
766.401	0.0136330
766.479	0.0135965
766.558	0.0135822
766.636	0.0136666
766.714	0.0135938
766.792	0.0135593
766.870	0.0135676
766.948	0.0135476
767.026	0.0136618
767.104	0.0136658
767.183	0.0136790
767.261	0.0135079
767.339	0.0134514
767.417	0.0135485
767.495	0.0136466
767.573	0.0136829
767.651	0.0135575
767.729	0.0136128
767.808	0.0136167
767.886	0.0136446
767.964	0.0136694
768.042	0.0136628
768.120	0.0136431
768.198	0.0136528
768.276	0.0135199
768.354	0.0135249
768.433	0.0135851
768.511	0.0136012
768.589	0.0136257
768.667	0.0135910
768.745	0.0136899
768.823	0.0136588
768.901	0.0136898
768.979	0.0136490
769.058	0.0137006
769.136	0.0137628
769.214	0.0136777
769.292	0.0137592
769.370	0.0134782
769.448	0.0136478
769.526	0.0136866
769.604	0.0135738
769.683	0.0136225
769.761	0.0136801
769.839	0.0136873
769.917	0.0136746
769.995	0.0137919
770.073	0.0136656
770.151	0.0137121
770.229	0.0137315
770.308	0.0137557
770.386	0.0137495
770.464	0.0135374
770.542	0.0136192
770.620	0.0138412
770.698	0.0136491
770.776	0.0135928
770.854	0.0136893
770.933	0.0136426
771.011	0.0136314
771.089	0.0137266
771.167	0.0135755
771.245	0.0136501
771.323	0.0135517
771.401	0.0136292
771.479	0.0136504
771.558	0.0135352
771.636	0.0136318
771.714	0.0136423
771.792	0.0136620
771.870	0.0135359
771.948	0.0136638
772.026	0.0136575
772.104	0.0135741
772.183	0.0135072
772.261	0.0135383
772.339	0.0136195
772.417	0.0137172
772.495	0.0135889
772.573	0.0135610
772.651	0.0137207
772.729	0.0136449
772.808	0.0135808
772.886	0.0136013
772.964	0.0135891
773.042	0.0136690
773.120	0.0135697
773.198	0.0136208
773.276	0.0136758
773.354	0.0136086
773.433	0.0135708
773.511	0.0137087
773.589	0.0136789
773.667	0.0136623
773.745	0.0135922
773.823	0.0136800
773.901	0.0135842
773.979	0.0136353
774.058	0.0138400
774.136	0.0137416
774.214	0.0137495
774.292	0.0136162
774.370	0.0137056
774.448	0.0136350
774.526	0.0136014
774.604	0.0136488
774.683	0.0137535
774.761	0.0137076
774.839	0.0137604
774.917	0.0137230
774.995	0.0135997
775.073	0.0136868
775.151	0.0138077
775.229	0.0137244
775.308	0.0137657
775.386	0.0137776
775.464	0.0136143
775.542	0.0136619
775.620	0.0138039
775.698	0.0137066
775.776	0.0136317
775.854	0.0136402
775.933	0.0136494
776.011	0.0136251
776.089	0.0135870
776.167	0.0137225
776.245	0.0137264
776.323	0.0137665
776.401	0.0135963
776.479	0.0136885
776.558	0.0136766
776.636	0.0136281
776.714	0.0137131
776.792	0.0136662
776.870	0.0136555
776.948	0.0136066
777.026	0.0134844
777.104	0.0136784
777.183	0.0135337
777.261	0.0136279
777.339	0.0136468
777.417	0.0135789
777.495	0.0136229
777.573	0.0136787
777.651	0.0136525
777.729	0.0136568
777.808	0.0135856
777.886	0.0136531
777.964	0.0136862
778.042	0.0136405
778.120	0.0135387
778.198	0.0135225
778.276	0.0137685
778.354	0.0135965
778.433	0.0137830
778.511	0.0136497
778.589	0.0137565
778.667	0.0136346
778.745	0.0136616
778.823	0.0137013
778.901	0.0138763
778.979	0.0136436
779.058	0.0137425
779.136	0.0136777
779.214	0.0135538
779.292	0.0137069
779.370	0.0137002
779.448	0.0137260
779.526	0.0135887
779.604	0.0137904
779.683	0.0136365
779.761	0.0136594
779.839	0.0136267
779.917	0.0136537
779.995	0.0136922
780.073	0.0137639
780.151	0.0137305
780.229	0.0137761
780.308	0.0137915
780.386	0.0136818
780.464	0.0137267
780.542	0.0135554
780.620	0.0135923
780.698	0.0135793
780.776	0.0136928
780.854	0.0136286
780.933	0.0136446
781.011	0.0136740
781.089	0.0136984
781.167	0.0136349
781.245	0.0137444
781.323	0.0136676
781.401	0.0137345
781.479	0.0135735
781.558	0.0136110
781.636	0.0135725
781.714	0.0136245
781.792	0.0136166
781.870	0.0136994
781.948	0.0136694
782.026	0.0137717
782.104	0.0137176
782.183	0.0137547
782.261	0.0137281
782.339	0.0136042
782.417	0.0136430
782.495	0.0137038
782.573	0.0137375
782.651	0.0137379
782.729	0.0136872
782.808	0.0136213
782.886	0.0136712
782.964	0.0136819
783.042	0.0137084
783.120	0.0136694
783.198	0.0136411
783.276	0.0136954
783.354	0.0137859
783.433	0.0137274
783.511	0.0136090
783.589	0.0137465
783.667	0.0137281
783.745	0.0135642
783.823	0.0137564
783.901	0.0136050
783.979	0.0135670
784.058	0.0136054
784.136	0.0137444
784.214	0.0137000
784.292	0.0137196
784.370	0.0137465
784.448	0.0137148
784.526	0.0136688
784.604	0.0136784
784.683	0.0138444
784.761	0.0137753
784.839	0.0138127
784.917	0.0136765
784.995	0.0136809
785.073	0.0137479
785.151	0.0136645
785.229	0.0136656
785.308	0.0137060
785.386	0.0137845
785.464	0.0136384
785.542	0.0136280
785.620	0.0137783
785.698	0.0136797
785.776	0.0137311
785.854	0.0136516
785.933	0.0136800
786.011	0.0137348
786.089	0.0136481
786.167	0.0136716
786.245	0.0136491
786.323	0.0136120
786.401	0.0136421
786.479	0.0136954
786.558	0.0137179
786.636	0.0136752
786.714	0.0135718
786.792	0.0135172
786.870	0.0135862
786.948	0.0135998
787.026	0.0135494
787.104	0.0136039
787.183	0.0136739
787.261	0.0137099
787.339	0.0137667
787.417	0.0137216
787.495	0.0136996
787.573	0.0137481
787.651	0.0136929
787.729	0.0137405
787.808	0.0136629
787.886	0.0137782
787.964	0.0135280
788.042	0.0136146
788.120	0.0136875
788.198	0.0136250
788.276	0.0137330
788.354	0.0136678
788.433	0.0136852
788.511	0.0136280
788.589	0.0136269
788.667	0.0137356
788.745	0.0135651
788.823	0.0137419
788.901	0.0137054
788.979	0.0137132
789.058	0.0137148
789.136	0.0136223
789.214	0.0135447
789.292	0.0137623
789.370	0.0137295
789.448	0.0136775
789.526	0.0137778
789.604	0.0136585
789.683	0.0136360
789.761	0.0136424
789.839	0.0135780
789.917	0.0137490
789.995	0.0138255
790.073	0.0135663
790.151	0.0136378
790.229	0.0137154
790.308	0.0137347
790.386	0.0136113
790.464	0.0136086
790.542	0.0137281
790.620	0.0135355
790.698	0.0136877
790.776	0.0137362
790.854	0.0136834
790.933	0.0136452
791.011	0.0135770
791.089	0.0135727
791.167	0.0135365
791.245	0.0135617
791.323	0.0135981
791.401	0.0136378
791.479	0.0136368
791.558	0.0137759
791.636	0.0136474
791.714	0.0135082
791.792	0.0136296
791.870	0.0136118
791.948	0.0136530
792.026	0.0137089
792.104	0.0136232
792.183	0.0135294
792.261	0.0137112
792.339	0.0136066
792.417	0.0136141
792.495	0.0136208
792.573	0.0136492
792.651	0.0138129
792.729	0.0135715
792.808	0.0136528
792.886	0.0137347
792.964	0.0136378
793.042	0.0136837
793.120	0.0137487
793.198	0.0136855
793.276	0.0136334
793.354	0.0136034
793.433	0.0136973
793.511	0.0135172
793.589	0.0136496
793.667	0.0136328
793.745	0.0135517
793.823	0.0137353
793.901	0.0137263
793.979	0.0135665
794.058	0.0136700
794.136	0.0135699
794.214	0.0137288
794.292	0.0137732
794.370	0.0137093
794.448	0.0135564
794.526	0.0136954
794.604	0.0135907
794.683	0.0136763
794.761	0.0136309
794.839	0.0137006
794.917	0.0135542
794.995	0.0136884
795.073	0.0136313
795.151	0.0137399
795.229	0.0135851
795.308	0.0136811
795.386	0.0136143
795.464	0.0136179
795.542	0.0135342
795.620	0.0136140
795.698	0.0136781
795.776	0.0135985
795.854	0.0137327
795.933	0.0137022
796.011	0.0136508
796.089	0.0136272
796.167	0.0137942
796.245	0.0136864
796.323	0.0135792
796.401	0.0137601
796.479	0.0138065
796.558	0.0136602
796.636	0.0137800
796.714	0.0138346
796.792	0.0137042
796.870	0.0136716
796.948	0.0137626
797.026	0.0137582
797.104	0.0137139
797.183	0.0136651
797.261	0.0136182
797.339	0.0136224
797.417	0.0136454
797.495	0.0135561
797.573	0.0136275
797.651	0.0137108
797.729	0.0136549
797.808	0.0136869
797.886	0.0136057
797.964	0.0137059
798.042	0.0136454
798.120	0.0136311
798.198	0.0135984
798.276	0.0135815
798.354	0.0136361
798.433	0.0137949
798.511	0.0136897
798.589	0.0136941
798.667	0.0137032
798.745	0.0136092
798.823	0.0138078
798.901	0.0138614
798.979	0.0137258
799.058	0.0136647
799.136	0.0137159
799.214	0.0136738
799.292	0.0136324
799.370	0.0135613
799.448	0.0136171
799.526	0.0136906
799.604	0.0136663
799.683	0.0136594
799.761	0.0137609
799.839	0.0136955
799.917	0.0136609
799.995	0.0137547
800.073	0.0136461
800.151	0.0136728
800.229	0.0135513
800.308	0.0136224
800.386	0.0136668
800.464	0.0136118
800.542	0.0136517
800.620	0.0136944
800.698	0.0136653
800.776	0.0135674
800.854	0.0136765
800.933	0.0137164
801.011	0.0136095
801.089	0.0136835
801.167	0.0137584
801.245	0.0135950
801.323	0.0135951
801.401	0.0136149
801.479	0.0137135
801.558	0.0136833
801.636	0.0135509
801.714	0.0136771
801.792	0.0137346
801.870	0.0136229
801.948	0.0136401
802.026	0.0135694
802.104	0.0137661
802.183	0.0137216
802.261	0.0135975
802.339	0.0135818
802.417	0.0135162
802.495	0.0137590
802.573	0.0136404
802.651	0.0137020
802.729	0.0137350
802.808	0.0135878
802.886	0.0137031
802.964	0.0136648
803.042	0.0135918
803.120	0.0136869
803.198	0.0136119
803.276	0.0135519
803.354	0.0135944
803.433	0.0137105
803.511	0.0136260
803.589	0.0135796
803.667	0.0135976
803.745	0.0136518
803.823	0.0136946
803.901	0.0135773
803.979	0.0136491
804.058	0.0136958
804.136	0.0136180
804.214	0.0136960
804.292	0.0136974
804.370	0.0137269
804.448	0.0135929
804.526	0.0136501
804.604	0.0135786
804.683	0.0136929
804.761	0.0136411
804.839	0.0135201
804.917	0.0136118
804.995	0.0137359
805.073	0.0136532
805.151	0.0137155
805.229	0.0134972
805.308	0.0137327
805.386	0.0136009
805.464	0.0138120
805.542	0.0138231
805.620	0.0137505
805.698	0.0136297
805.776	0.0135406
805.854	0.0137054
805.933	0.0136954
806.011	0.0136901
806.089	0.0137324
806.167	0.0137688
806.245	0.0137323
806.323	0.0137450
806.401	0.0136166
806.479	0.0136938
806.558	0.0135885
806.636	0.0137067
806.714	0.0136539
806.792	0.0136102
806.870	0.0135355
806.948	0.0136382
807.026	0.0137640
807.104	0.0136147
807.183	0.0134477
807.261	0.0137575
807.339	0.0137699
807.417	0.0137914
807.495	0.0136018
807.573	0.0136280
807.651	0.0137099
807.729	0.0134699
807.808	0.0135587
807.886	0.0137163
807.964	0.0138029
808.042	0.0135688
808.120	0.0136816
808.198	0.0137365
808.276	0.0136931
808.354	0.0135604
808.433	0.0136855
808.511	0.0135649
808.589	0.0135913
808.667	0.0136506
808.745	0.0135857
808.823	0.0136787
808.901	0.0135944
808.979	0.0135294
809.058	0.0136363
809.136	0.0135985
809.214	0.0135437
809.292	0.0136220
809.370	0.0134634
809.448	0.0136707
809.526	0.0135442
809.604	0.0136222
809.683	0.0136173
809.761	0.0136454
809.839	0.0137599
809.917	0.0137892
809.995	0.0137830
810.073	0.0136726
810.151	0.0136260
810.229	0.0136468
810.308	0.0136148
810.386	0.0136732
810.464	0.0138165
810.542	0.0137658
810.620	0.0138314
810.698	0.0136884
810.776	0.0136827
810.854	0.0136247
810.933	0.0136662
811.011	0.0135026
811.089	0.0136760
811.167	0.0135748
811.245	0.0136680
811.323	0.0137453
811.401	0.0136170
811.479	0.0136052
811.558	0.0136779
811.636	0.0136266
811.714	0.0137172
811.792	0.0136932
811.870	0.0136126
811.948	0.0137949
812.026	0.0137357
812.104	0.0135443
812.183	0.0136927
812.261	0.0136465
812.339	0.0136867
812.417	0.0136878
812.495	0.0136617
812.573	0.0136391
812.651	0.0137364
812.729	0.0136213
812.808	0.0136489
812.886	0.0137486
812.964	0.0136852
813.042	0.0137686
813.120	0.0137882
813.198	0.0137189
813.276	0.0138588
813.354	0.0137334
813.433	0.0137376
813.511	0.0138029
813.589	0.0138497
813.667	0.0137405
813.745	0.0135320
813.823	0.0136306
813.901	0.0137462
813.979	0.0136347
814.058	0.0136678
814.136	0.0137457
814.214	0.0137320
814.292	0.0137225
814.370	0.0134225
814.448	0.0136255
814.526	0.0136958
814.604	0.0136676
814.683	0.0136139
814.761	0.0136493
814.839	0.0135957
814.917	0.0135757
814.995	0.0135670
815.073	0.0138130
815.151	0.0137943
815.229	0.0137327
815.308	0.0136928
815.386	0.0136184
815.464	0.0135133
815.542	0.0135624
815.620	0.0136161
815.698	0.0136708
815.776	0.0136597
815.854	0.0136205
815.933	0.0135836
816.011	0.0136446
816.089	0.0136018
816.167	0.0137025
816.245	0.0136073
816.323	0.0136271
816.401	0.0137592
816.479	0.0136974
816.558	0.0137158
816.636	0.0137178
816.714	0.0137337
816.792	0.0138049
816.870	0.0137755
816.948	0.0137601
817.026	0.0137211
817.104	0.0137873
817.183	0.0135872
817.261	0.0137165
817.339	0.0137230
817.417	0.0136832
817.495	0.0136620
817.573	0.0136129
817.651	0.0136675
817.729	0.0137158
817.808	0.0137993
817.886	0.0135220
817.964	0.0135582
818.042	0.0135921
818.120	0.0136507
818.198	0.0135162
818.276	0.0135302
818.354	0.0134958
818.433	0.0134783
818.511	0.0136340
818.589	0.0136103
818.667	0.0134610
818.745	0.0133835
818.823	0.0135478
818.901	0.0135808
818.979	0.0135732
819.058	0.0135475
819.136	0.0135806
819.214	0.0135213
819.292	0.0136061
819.370	0.0137007
819.448	0.0137476
819.526	0.0136443
819.604	0.0137462
819.683	0.0137399
819.761	0.0136537
819.839	0.0139262
819.917	0.0136923
819.995	0.0137626
820.073	0.0138674
820.151	0.0138340
820.229	0.0138447
820.308	0.0137535
820.386	0.0137876
820.464	0.0137257
820.542	0.0139241
820.620	0.0138074
820.698	0.0137415
820.776	0.0137561
820.854	0.0139241
820.933	0.0136811
821.011	0.0136800
821.089	0.0137548
821.167	0.0136166
821.245	0.0136225
821.323	0.0136826
821.401	0.0136076
821.479	0.0135650
821.558	0.0135728
821.636	0.0135589
821.714	0.0135673
821.792	0.0134768
821.870	0.0135525
821.948	0.0133814
822.026	0.0133479
822.104	0.0135220
822.183	0.0134721
822.261	0.0134933
822.339	0.0135150
822.417	0.0133631
822.495	0.0134781
822.573	0.0136488
822.651	0.0135356
822.729	0.0137151
822.808	0.0136287
822.886	0.0136877
822.964	0.0137481
823.042	0.0136676
823.120	0.0136256
823.198	0.0138214
823.276	0.0138647
823.354	0.0137055
823.433	0.0137121
823.511	0.0139757
823.589	0.0138783
823.667	0.0139038
823.745	0.0138468
823.823	0.0138870
823.901	0.0138646
823.979	0.0139090
824.058	0.0138494
824.136	0.0137462
824.214	0.0137873
824.292	0.0139160
824.370	0.0138416
824.448	0.0137231
824.526	0.0138046
824.604	0.0136133
824.683	0.0137141
824.761	0.0135997
824.839	0.0135522
824.917	0.0134373
824.995	0.0135852
825.073	0.0135664
825.151	0.0135081
825.229	0.0133971
825.308	0.0133279
825.386	0.0134525
825.464	0.0134370
825.542	0.0135643
825.620	0.0133750
825.698	0.0134618
825.776	0.0133064
825.854	0.0133852
825.933	0.0135329
826.011	0.0133762
826.089	0.0135268
826.167	0.0135834
826.245	0.0134943
826.323	0.0135104
826.401	0.0134395
826.479	0.0135491
826.558	0.0137067
826.636	0.0135646
826.714	0.0138909
826.792	0.0137778
826.870	0.0136050
826.948	0.0136181
827.026	0.0138734
827.104	0.0137902
827.183	0.0138077
827.261	0.0139926
827.339	0.0138889
827.417	0.0138194
827.495	0.0137938
827.573	0.0138953
827.651	0.0138748
827.729	0.0137610
827.808	0.0137460
827.886	0.0137798
827.964	0.0137695
828.042	0.0139098
828.120	0.0138055
828.198	0.0137834
828.276	0.0135968
828.354	0.0137706
828.433	0.0138212
828.511	0.0137684
828.589	0.0136971
828.667	0.0135649
828.745	0.0137025
828.823	0.0136819
828.901	0.0135577
828.979	0.0136711
829.058	0.0135875
829.136	0.0136346
829.214	0.0136967
829.292	0.0135150
829.370	0.0135342
829.448	0.0136521
829.526	0.0136751
829.604	0.0136135
829.683	0.0135830
829.761	0.0136283
829.839	0.0135583
829.917	0.0135535
829.995	0.0135437
830.073	0.0135026
830.151	0.0134965
830.229	0.0134980
830.308	0.0134560
830.386	0.0134973
830.464	0.0134174
830.542	0.0135007
830.620	0.0134908
830.698	0.0134673
830.776	0.0134771
830.854	0.0135445
830.933	0.0135104
831.011	0.0135571
831.089	0.0135841
831.167	0.0135000
831.245	0.0134906
831.323	0.0135287
831.401	0.0134052
831.479	0.0134735
831.558	0.0134435
831.636	0.0135367
831.714	0.0137595
831.792	0.0137167
831.870	0.0135555
831.948	0.0135008
832.026	0.0136533
832.104	0.0136215
832.183	0.0135843
832.261	0.0137508
832.339	0.0137263
832.417	0.0137642
832.495	0.0137211
832.573	0.0138050
832.651	0.0137962
832.729	0.0138432
832.808	0.0136735
832.886	0.0138332
832.964	0.0138711
833.042	0.0138648
833.120	0.0135526
833.198	0.0138280
833.276	0.0137782
833.354	0.0137650
833.433	0.0137180
833.511	0.0137287
833.589	0.0134028
833.667	0.0136586
833.745	0.0137206
833.823	0.0136493
833.901	0.0137313
833.979	0.0135365
834.058	0.0136965
834.136	0.0135141
834.214	0.0135596
834.292	0.0134062
834.370	0.0135275
834.448	0.0134991
834.526	0.0134982
834.604	0.0135281
834.683	0.0134682
834.761	0.0133866
834.839	0.0134909
834.917	0.0135935
834.995	0.0135799
835.073	0.0134666
835.151	0.0134594
835.229	0.0134579
835.308	0.0135579
835.386	0.0136732
835.464	0.0135668
835.542	0.0135303
835.620	0.0135654
835.698	0.0135569
835.776	0.0135462
835.854	0.0136178
835.933	0.0136552
836.011	0.0136842
836.089	0.0137537
836.167	0.0136958
836.245	0.0136826
836.323	0.0137817
836.401	0.0137843
836.479	0.0137424
836.558	0.0137249
836.636	0.0137580
836.714	0.0137735
836.792	0.0136790
836.870	0.0137111
836.948	0.0138241
837.026	0.0137836
837.104	0.0137823
837.183	0.0136845
837.261	0.0137646
837.339	0.0138154
837.417	0.0137056
837.495	0.0137191
837.573	0.0135854
837.651	0.0136482
837.729	0.0135961
837.808	0.0136612
837.886	0.0137067
837.964	0.0135863
838.042	0.0137267
838.120	0.0136346
838.198	0.0135543
838.276	0.0134410
838.354	0.0135598
838.433	0.0135688
838.511	0.0136051
838.589	0.0133842
838.667	0.0135624
838.745	0.0135966
838.823	0.0135298
838.901	0.0136806
838.979	0.0135527
839.058	0.0135830
839.136	0.0135513
839.214	0.0136659
839.292	0.0137978
839.370	0.0138154
839.448	0.0136641
839.526	0.0136733
839.604	0.0138259
839.683	0.0138450
839.761	0.0138270
839.839	0.0138621
839.917	0.0137848
839.995	0.0138095
840.073	0.0139018
840.151	0.0139848
840.229	0.0138470
840.308	0.0139735
840.386	0.0137877
840.464	0.0137736
840.542	0.0137873
840.620	0.0136546
840.698	0.0137830
840.776	0.0137078
840.854	0.0136822
840.933	0.0136288
841.011	0.0137963
841.089	0.0136808
841.167	0.0136323
841.245	0.0135866
841.323	0.0136824
841.401	0.0135756
841.479	0.0134263
841.558	0.0135136
841.636	0.0136280
841.714	0.0133602
841.792	0.0134267
841.870	0.0136098
841.948	0.0134006
842.026	0.0133311
842.104	0.0134520
842.183	0.0134127
842.261	0.0135010
842.339	0.0134733
842.417	0.0133237
842.495	0.0134717
842.573	0.0135144
842.651	0.0134258
842.729	0.0135681
842.808	0.0135360
842.886	0.0137733
842.964	0.0137843
843.042	0.0137072
843.120	0.0136790
843.198	0.0137275
843.276	0.0136423
843.354	0.0138120
843.433	0.0138142
843.511	0.0137607
843.589	0.0137108
843.667	0.0138744
843.745	0.0139217
843.823	0.0139233
843.901	0.0139079
843.979	0.0138818
844.058	0.0138934
844.136	0.0139364
844.214	0.0139347
844.292	0.0139899
844.370	0.0137730
844.448	0.0139651
844.526	0.0139465
844.604	0.0139566
844.683	0.0137874
844.761	0.0138094
844.839	0.0138638
844.917	0.0137452
844.995	0.0137547
845.073	0.0136641
845.151	0.0136443
845.229	0.0135217
845.308	0.0134870
845.386	0.0134938
845.464	0.0135443
845.542	0.0135089
845.620	0.0134777
845.698	0.0134442
845.776	0.0133714
845.854	0.0133329
845.933	0.0133406
846.011	0.0133765
846.089	0.0133311
846.167	0.0130912
846.245	0.0131548
846.323	0.0133358
846.401	0.0131927
846.479	0.0131786
846.558	0.0132458
846.636	0.0134901
846.714	0.0133369
846.792	0.0133556
846.870	0.0131598
846.948	0.0133854
847.026	0.0134040
847.104	0.0135044
847.183	0.0135573
847.261	0.0133828
847.339	0.0136616
847.417	0.0136343
847.495	0.0136456
847.573	0.0138142
847.651	0.0136662
847.729	0.0135007
847.808	0.0137418
847.886	0.0138656
847.964	0.0138950
848.042	0.0139921
848.120	0.0139206
848.198	0.0138596
848.276	0.0138684
848.354	0.0137411
848.433	0.0139239
848.511	0.0138839
848.589	0.0138708
848.667	0.0139281
848.745	0.0139404
848.823	0.0139177
848.901	0.0139289
848.979	0.0138426
849.058	0.0137259
849.136	0.0137450
849.214	0.0137531
849.292	0.0136695
849.370	0.0136770
849.448	0.0136624
849.526	0.0136627
849.604	0.0136314
849.683	0.0135587
849.761	0.0136351
849.839	0.0135135
849.917	0.0135507
849.995	0.0136166
850.073	0.0135875
850.151	0.0135737
850.229	0.0135423
850.308	0.0135457
850.386	0.0134737
850.464	0.0134510
850.542	0.0133807
850.620	0.0134311
850.698	0.0134019
850.776	0.0134347
850.854	0.0134414
850.933	0.0133678
851.011	0.0133400
851.089	0.0134559
851.167	0.0132870
851.245	0.0132619
851.323	0.0133119
851.401	0.0132800
851.479	0.0132547
851.558	0.0134227
851.636	0.0133736
851.714	0.0134136
851.792	0.0134160
851.870	0.0134203
851.948	0.0133679
852.026	0.0136212
852.104	0.0135103
852.183	0.0135835
852.261	0.0136745
852.339	0.0136160
852.417	0.0135558
852.495	0.0138236
852.573	0.0137112
852.651	0.0135979
852.729	0.0137550
852.808	0.0137889
852.886	0.0137202
852.964	0.0138381
853.042	0.0139011
853.120	0.0138496
853.198	0.0137681
853.276	0.0138921
853.354	0.0138087
853.433	0.0137851
853.511	0.0138559
853.589	0.0138663
853.667	0.0137408
853.745	0.0136835
853.823	0.0137875
853.901	0.0137736
853.979	0.0139021
854.058	0.0137683
854.136	0.0136469
854.214	0.0137295
854.292	0.0138236
854.370	0.0137273
854.448	0.0137218
854.526	0.0138158
854.604	0.0138451
854.683	0.0136591
854.761	0.0137473
854.839	0.0137254
854.917	0.0137985
854.995	0.0136900
855.073	0.0136238
855.151	0.0137030
855.229	0.0135403
855.308	0.0137189
855.386	0.0136711
855.464	0.0136823
855.542	0.0136523
855.620	0.0136281
855.698	0.0136995
855.776	0.0135970
855.854	0.0136147
855.933	0.0135219
856.011	0.0136907
856.089	0.0137638
856.167	0.0136416
856.245	0.0137251
856.323	0.0136811
856.401	0.0136768
856.479	0.0135011
856.558	0.0133760
856.636	0.0136449
856.714	0.0136898
856.792	0.0135082
856.870	0.0136926
856.948	0.0135695
857.026	0.0136407
857.104	0.0136829
857.183	0.0135610
857.261	0.0136462
857.339	0.0135069
857.417	0.0136375
857.495	0.0136057
857.573	0.0136922
857.651	0.0135480
857.729	0.0135321
857.808	0.0136142
857.886	0.0135846
857.964	0.0136275
858.042	0.0138218
858.120	0.0137378
858.198	0.0136519
858.276	0.0135846
858.354	0.0137634
858.433	0.0137811
858.511	0.0138767
858.589	0.0137979
858.667	0.0137475
858.745	0.0138049
858.823	0.0138070
858.901	0.0137488
858.979	0.0138503
859.058	0.0137121
859.136	0.0137159
859.214	0.0137699
859.292	0.0138077
859.370	0.0138059
859.448	0.0138496
859.526	0.0138151
859.604	0.0137598
859.683	0.0137352
859.761	0.0137937
859.839	0.0138736
859.917	0.0138853
859.995	0.0137845
860.073	0.0137141
860.151	0.0138908
860.229	0.0138171
860.308	0.0137041
860.386	0.0137356
860.464	0.0137859
860.542	0.0138828
860.620	0.0136773
860.698	0.0138418
860.776	0.0136928
860.854	0.0137104
860.933	0.0137630
861.011	0.0136035
861.089	0.0136977
861.167	0.0136349
861.245	0.0137289
861.323	0.0136619
861.401	0.0136629
861.479	0.0136951
861.558	0.0136106
861.636	0.0135452
861.714	0.0136581
861.792	0.0136705
861.870	0.0136568
861.948	0.0139213
862.026	0.0136553
862.104	0.0135701
862.183	0.0137860
862.261	0.0136913
862.339	0.0138275
862.417	0.0137749
862.495	0.0136321
862.573	0.0136380
862.651	0.0137373
862.729	0.0137951
862.808	0.0137180
862.886	0.0137510
862.964	0.0137300
863.042	0.0136543
863.120	0.0139066
863.198	0.0137748
863.276	0.0137873
863.354	0.0137637
863.433	0.0138223
863.511	0.0138404
863.589	0.0138109
863.667	0.0138402
863.745	0.0138152
863.823	0.0137225
863.901	0.0137893
863.979	0.0137836
864.058	0.0136568
864.136	0.0137273
864.214	0.0136284
864.292	0.0137985
864.370	0.0137115
864.448	0.0136745
864.526	0.0137029
864.604	0.0137134
864.683	0.0137699
864.761	0.0136370
864.839	0.0136005
864.917	0.0135249
864.995	0.0136113
865.073	0.0135859
865.151	0.0135786
865.229	0.0135224
865.308	0.0136169
865.386	0.0135403
865.464	0.0134720
865.542	0.0133736
865.620	0.0134552
865.698	0.0134817
865.776	0.0134593
865.854	0.0134543
865.933	0.0134732
866.011	0.0133538
866.089	0.0135252
866.167	0.0133369
866.245	0.0134846
866.323	0.0135865
866.401	0.0135160
866.479	0.0134293
866.558	0.0135371
866.636	0.0135513
866.714	0.0136053
866.792	0.0135969
866.870	0.0136290
866.948	0.0135537
867.026	0.0135282
867.104	0.0137753
867.183	0.0137099
867.261	0.0136713
867.339	0.0137942
867.417	0.0139069
867.495	0.0139285
867.573	0.0141280
867.651	0.0139149
867.729	0.0137823
867.808	0.0140414
867.886	0.0139781
867.964	0.0139613
868.042	0.0138968
868.120	0.0139718
868.198	0.0138396
868.276	0.0138925
868.354	0.0139060
868.433	0.0138292
868.511	0.0138417
868.589	0.0138947
868.667	0.0136901
868.745	0.0135676
868.823	0.0138576
868.901	0.0136694
868.979	0.0135944
869.058	0.0136612
869.136	0.0136711
869.214	0.0135423
869.292	0.0135666
869.370	0.0135871
869.448	0.0135676
869.526	0.0134676
869.604	0.0135635
869.683	0.0135844
869.761	0.0135089
869.839	0.0133801
869.917	0.0134531
869.995	0.0134750
870.073	0.0133690
870.151	0.0133286
870.229	0.0133132
870.308	0.0134415
870.386	0.0134216
870.464	0.0133808
870.542	0.0133688
870.620	0.0133667
870.698	0.0135089
870.776	0.0135049
870.854	0.0133647
870.933	0.0134211
871.011	0.0133216
871.089	0.0133613
871.167	0.0134444
871.245	0.0135388
871.323	0.0135222
871.401	0.0134818
871.479	0.0133878
871.558	0.0136350
871.636	0.0135794
871.714	0.0136398
871.792	0.0135872
871.870	0.0137919
871.948	0.0136922
872.026	0.0137541
872.104	0.0136624
872.183	0.0137807
872.261	0.0137669
872.339	0.0138861
872.417	0.0138809
872.495	0.0137925
872.573	0.0138026
872.651	0.0138219
872.729	0.0137582
872.808	0.0139268
872.886	0.0139336
872.964	0.0138251
873.042	0.0138251
873.120	0.0138620
873.198	0.0138719
873.276	0.0139337
873.354	0.0138184
873.433	0.0138816
873.511	0.0138878
873.589	0.0137900
873.667	0.0137017
873.745	0.0137195
873.823	0.0137809
873.901	0.0138037
873.979	0.0136255
874.058	0.0135974
874.136	0.0135986
874.214	0.0137152
874.292	0.0136714
874.370	0.0135812
874.448	0.0136221
874.526	0.0136406
874.604	0.0136388
874.683	0.0136405
874.761	0.0135400
874.839	0.0134776
874.917	0.0135299
874.995	0.0135234
875.073	0.0135505
875.151	0.0135173
875.229	0.0135504
875.308	0.0135627
875.386	0.0134940
875.464	0.0135426
875.542	0.0136517
875.620	0.0136061
875.698	0.0134903
875.776	0.0134814
875.854	0.0135159
875.933	0.0137209
876.011	0.0136956
876.089	0.0135914
876.167	0.0134912
876.245	0.0136343
876.323	0.0137078
876.401	0.0136386
876.479	0.0136731
876.558	0.0133924
876.636	0.0134186
876.714	0.0136307
876.792	0.0136826
876.870	0.0135582
876.948	0.0135213
877.026	0.0135267
877.104	0.0135229
877.183	0.0134917
877.261	0.0136393
877.339	0.0136148
877.417	0.0134769
877.495	0.0134988
877.573	0.0136288
877.651	0.0136976
877.729	0.0136290
877.808	0.0134011
877.886	0.0136798
877.964	0.0136140
878.042	0.0137045
878.120	0.0135464
878.198	0.0136485
878.276	0.0136023
878.354	0.0136606
878.433	0.0137135
878.511	0.0137238
878.589	0.0136546
878.667	0.0136797
878.745	0.0137997
878.823	0.0137838
878.901	0.0136366
878.979	0.0137613
879.058	0.0137469
879.136	0.0137000
879.214	0.0137836
879.292	0.0138628
879.370	0.0139140
879.448	0.0139196
879.526	0.0137638
879.604	0.0138203
879.683	0.0139214
879.761	0.0140699
879.839	0.0139643
879.917	0.0140499
879.995	0.0140548
880.073	0.0140456
880.151	0.0140297
880.229	0.0141355
880.308	0.0141695
880.386	0.0141075
880.464	0.0140990
880.542	0.0140974
880.620	0.0140526
880.698	0.0139735
880.776	0.0139391
880.854	0.0139929
880.933	0.0138666
881.011	0.0138939
881.089	0.0138087
881.167	0.0139120
881.245	0.0138071
881.323	0.0137078
881.401	0.0136018
881.479	0.0135775
881.558	0.0136430
881.636	0.0136756
881.714	0.0137056
881.792	0.0134184
881.870	0.0133638
881.948	0.0135155
882.026	0.0133641
882.104	0.0133866
882.183	0.0134369
882.261	0.0133723
882.339	0.0134869
882.417	0.0133124
882.495	0.0134811
882.573	0.0133171
882.651	0.0134633
882.729	0.0134450
882.808	0.0133268
882.886	0.0135078
882.964	0.0135986
883.042	0.0134681
883.120	0.0134140
883.198	0.0135813
883.276	0.0135651
883.354	0.0135482
883.433	0.0135273
883.511	0.0134731
883.589	0.0136121
883.667	0.0137592
883.745	0.0135788
883.823	0.0136233
883.901	0.0137757
883.979	0.0137160
884.058	0.0137405
884.136	0.0139114
884.214	0.0137992
884.292	0.0137233
884.370	0.0139158
884.448	0.0137607
884.526	0.0139069
884.604	0.0138513
884.683	0.0137910
884.761	0.0137906
884.839	0.0140023
884.917	0.0139098
884.995	0.0140651
885.073	0.0137872
885.151	0.0138243
885.229	0.0140226
885.308	0.0140193
885.386	0.0139406
885.464	0.0139629
885.542	0.0139503
885.620	0.0140022
885.698	0.0140019
885.776	0.0139198
885.854	0.0138813
885.933	0.0140196
886.011	0.0139037
886.089	0.0137551
886.167	0.0137666
886.245	0.0139078
886.323	0.0138253
886.401	0.0136028
886.479	0.0136950
886.558	0.0137992
886.636	0.0138326
886.714	0.0137610
886.792	0.0137435
886.870	0.0136255
886.948	0.0135836
887.026	0.0136465
887.104	0.0135873
887.183	0.0136522
887.261	0.0136911
887.339	0.0137395
887.417	0.0134772
887.495	0.0135234
887.573	0.0134937
887.651	0.0134631
887.729	0.0135617
887.808	0.0136410
887.886	0.0135633
887.964	0.0135030
888.042	0.0134371
888.120	0.0134245
888.198	0.0134145
888.276	0.0135547
888.354	0.0135485
888.433	0.0134987
888.511	0.0135456
888.589	0.0135008
888.667	0.0135078
888.745	0.0134566
888.823	0.0134685
888.901	0.0134186
888.979	0.0136564
889.058	0.0136001
889.136	0.0134884
889.214	0.0135043
889.292	0.0135460
889.370	0.0135186
889.448	0.0136040
889.526	0.0135506
889.604	0.0135323
889.683	0.0135568
889.761	0.0135784
889.839	0.0135411
889.917	0.0135220
889.995	0.0135872
890.073	0.0135059
890.151	0.0134872
890.229	0.0134807
890.308	0.0135845
890.386	0.0135895
890.464	0.0136058
890.542	0.0137188
890.620	0.0137251
890.698	0.0136488
890.776	0.0137457
890.854	0.0138234
890.933	0.0138092
891.011	0.0138380
891.089	0.0138282
891.167	0.0139719
891.245	0.0139527
891.323	0.0139333
891.401	0.0139973
891.479	0.0138951
891.558	0.0139919
891.636	0.0140559
891.714	0.0139687
891.792	0.0139226
891.870	0.0139391
891.948	0.0138653
892.026	0.0138105
892.104	0.0139628
892.183	0.0138586
892.261	0.0139459
892.339	0.0139122
892.417	0.0138933
892.495	0.0137688
892.573	0.0138169
892.651	0.0137755
892.729	0.0138711
892.808	0.0137733
892.886	0.0136694
892.964	0.0136623
893.042	0.0136174
893.120	0.0136185
893.198	0.0136368
893.276	0.0135471
893.354	0.0134460
893.433	0.0134676
893.511	0.0135049
893.589	0.0134927
893.667	0.0135374
893.745	0.0135807
893.823	0.0135262
893.901	0.0134122
893.979	0.0133264
894.058	0.0133840
894.136	0.0135543
894.214	0.0134533
894.292	0.0134944
894.370	0.0134922
894.448	0.0132804
894.526	0.0134171
894.604	0.0135216
894.683	0.0135462
894.761	0.0134468
894.839	0.0134316
894.917	0.0133948
894.995	0.0134941
895.073	0.0134347
895.151	0.0135083
895.229	0.0136764
895.308	0.0136100
895.386	0.0135274
895.464	0.0137156
895.542	0.0137466
895.620	0.0136862
895.698	0.0137223
895.776	0.0137978
895.854	0.0137992
895.933	0.0137856
896.011	0.0136689
896.089	0.0137256
896.167	0.0138525
896.245	0.0137225
896.323	0.0137260
896.401	0.0138818
896.479	0.0139221
896.558	0.0137873
896.636	0.0138533
896.714	0.0138976
896.792	0.0138488
896.870	0.0138739
896.948	0.0137489
897.026	0.0138930
897.104	0.0137140
897.183	0.0138009
897.261	0.0137975
897.339	0.0137353
897.417	0.0138793
897.495	0.0136610
897.573	0.0136389
897.651	0.0136943
897.729	0.0136603
897.808	0.0136642
897.886	0.0135934
897.964	0.0135470
898.042	0.0136266
898.120	0.0135745
898.198	0.0135983
898.276	0.0134618
898.354	0.0134335
898.433	0.0133657
898.511	0.0134341
898.589	0.0134800
898.667	0.0134232
898.745	0.0134688
898.823	0.0135239
898.901	0.0135423
898.979	0.0133945
899.058	0.0134434
899.136	0.0135059
899.214	0.0134792
899.292	0.0135044
899.370	0.0135661
899.448	0.0134438
899.526	0.0135606
899.604	0.0134959
899.683	0.0135398
899.761	0.0135604
899.839	0.0136834
899.917	0.0136407
899.995	0.0136773
900.073	0.0135564
900.151	0.0136689
900.229	0.0136886
900.308	0.0136822
900.386	0.0137695
900.464	0.0138461
900.542	0.0138107
900.620	0.0137573
900.698	0.0136342
900.776	0.0137341
900.854	0.0137790
900.933	0.0137578
901.011	0.0137555
901.089	0.0137280
901.167	0.0138222
901.245	0.0136862
901.323	0.0136352
901.401	0.0136655
901.479	0.0137853
901.558	0.0136873
901.636	0.0137500
901.714	0.0137794
901.792	0.0137258
901.870	0.0137514
901.948	0.0137066
902.026	0.0136092
902.104	0.0135110
902.183	0.0135641
902.261	0.0136912
902.339	0.0138549
902.417	0.0135767
902.495	0.0135922
902.573	0.0134664
902.651	0.0135815
902.729	0.0135703
902.808	0.0135811
902.886	0.0135526
902.964	0.0136479
903.042	0.0137412
903.120	0.0136756
903.198	0.0137352
903.276	0.0136712
903.354	0.0136034
903.433	0.0136082
903.511	0.0135638
903.589	0.0135606
903.667	0.0136684
903.745	0.0135171
903.823	0.0137289
903.901	0.0135942
903.979	0.0136595
904.058	0.0136961
904.136	0.0136213
904.214	0.0136197
904.292	0.0135826
904.370	0.0137084
904.448	0.0137721
904.526	0.0137068
904.604	0.0136262
904.683	0.0137720
904.761	0.0138383
904.839	0.0136560
904.917	0.0136803
904.995	0.0136519
905.073	0.0136368
905.151	0.0136266
905.229	0.0136325
905.308	0.0136177
905.386	0.0136595
905.464	0.0137215
905.542	0.0136393
905.620	0.0136481
905.698	0.0135409
905.776	0.0136326
905.854	0.0137395
905.933	0.0137201
906.011	0.0136710
906.089	0.0137228
906.167	0.0135439
906.245	0.0136407
906.323	0.0136996
906.401	0.0135070
906.479	0.0134637
906.558	0.0136031
906.636	0.0136961
906.714	0.0136067
906.792	0.0136919
906.870	0.0135701
906.948	0.0135252
907.026	0.0136061
907.104	0.0136392
907.183	0.0135731
907.261	0.0136712
907.339	0.0135718
907.417	0.0135258
907.495	0.0137048
907.573	0.0137409
907.651	0.0136143
907.729	0.0135779
907.808	0.0135535
907.886	0.0136013
907.964	0.0135818
908.042	0.0136452
908.120	0.0135904
908.198	0.0136555
908.276	0.0137640
908.354	0.0137022
908.433	0.0137205
908.511	0.0137044
908.589	0.0135425
908.667	0.0136296
908.745	0.0136267
908.823	0.0136322
908.901	0.0136378
908.979	0.0137273
909.058	0.0137153
909.136	0.0137987
909.214	0.0136744
909.292	0.0136518
909.370	0.0136765
909.448	0.0137383
909.526	0.0136436
909.604	0.0137079
909.683	0.0136380
909.761	0.0136532
909.839	0.0136124
909.917	0.0136637
909.995	0.0135428
910.073	0.0136273
910.151	0.0136635
910.229	0.0136989
910.308	0.0137128
910.386	0.0137231
910.464	0.0133955
910.542	0.0135161
910.620	0.0135419
910.698	0.0135046
910.776	0.0134947
910.854	0.0135451
910.933	0.0133967
911.011	0.0135281
911.089	0.0134743
911.167	0.0134124
911.245	0.0134444
911.323	0.0134564
911.401	0.0136081
911.479	0.0134692
911.558	0.0134766
911.636	0.0135805
911.714	0.0135493
911.792	0.0135067
911.870	0.0134892
911.948	0.0134809
912.026	0.0134695
912.104	0.0135851
912.183	0.0136394
912.261	0.0135870
912.339	0.0134994
912.417	0.0136441
912.495	0.0136918
912.573	0.0136694
912.651	0.0136492
912.729	0.0134502
912.808	0.0136861
912.886	0.0137030
912.964	0.0137502
913.042	0.0137219
913.120	0.0136379
913.198	0.0138036
913.276	0.0136932
913.354	0.0136668
913.433	0.0137390
913.511	0.0137186
913.589	0.0135728
913.667	0.0137107
913.745	0.0137973
913.823	0.0136093
913.901	0.0138107
913.979	0.0136662
914.058	0.0136044
914.136	0.0137150
914.214	0.0135641
914.292	0.0134534
914.370	0.0135935
914.448	0.0135089
914.526	0.0135484
914.604	0.0136671
914.683	0.0136735
914.761	0.0136111
914.839	0.0135829
914.917	0.0136909
914.995	0.0136249
915.073	0.0135780
915.151	0.0136109
915.229	0.0134737
915.308	0.0135428
915.386	0.0136231
915.464	0.0136387
915.542	0.0137052
915.620	0.0136163
915.698	0.0136526
915.776	0.0137289
915.854	0.0136194
915.933	0.0135577
916.011	0.0134772
916.089	0.0135574
916.167	0.0135976
916.245	0.0136204
916.323	0.0135950
916.401	0.0136207
916.479	0.0135452
916.558	0.0135998
916.636	0.0135891
916.714	0.0134689
916.792	0.0135193
916.870	0.0135547
916.948	0.0134734
917.026	0.0134480
917.104	0.0135554
917.183	0.0134524
917.261	0.0135645
917.339	0.0135477
917.417	0.0135535
917.495	0.0135153
917.573	0.0136069
917.651	0.0136523
917.729	0.0133633
917.808	0.0134207
917.886	0.0136449
917.964	0.0135326
918.042	0.0135148
918.120	0.0135115
918.198	0.0135804
918.276	0.0136992
918.354	0.0135978
918.433	0.0135542
918.511	0.0135507
918.589	0.0135020
918.667	0.0134529
918.745	0.0135196
918.823	0.0134907
918.901	0.0136629
918.979	0.0135465
919.058	0.0135876
919.136	0.0136959
919.214	0.0135056
919.292	0.0136317
919.370	0.0137451
919.448	0.0138629
919.526	0.0136266
919.604	0.0136868
919.683	0.0137083
919.761	0.0137379
919.839	0.0136493
919.917	0.0137264
