05/14/2022	16:15:40	Ver.	4.1	UNKNOWN
Optical Delay	639.989416	Delta X		0.078125	Sweeps	1	Scan Rate	0/0
Coordinates	Axis 1	NaN	Axis 2	NaN	Axis 3	NaN	Axis 4	NaN	Axis 5	NaN	Axis 6	0.000000
TX Power	0.000000	RX Power	0.000000

639.989	0.0139198
640.068	0.0139877
640.146	0.0138116
640.224	0.0138010
640.302	0.0138120
640.380	0.0138576
640.458	0.0139342
640.536	0.0139125
640.614	0.0138578
640.693	0.0138982
640.771	0.0139360
640.849	0.0139154
640.927	0.0139574
641.005	0.0139659
641.083	0.0139269
641.161	0.0139129
641.239	0.0140297
641.318	0.0139522
641.396	0.0139409
641.474	0.0139324
641.552	0.0138389
641.630	0.0138501
641.708	0.0139288
641.786	0.0139679
641.864	0.0139040
641.943	0.0137664
642.021	0.0138628
642.099	0.0139978
642.177	0.0138592
642.255	0.0140072
642.333	0.0138937
642.411	0.0139970
642.489	0.0138859
642.568	0.0139808
642.646	0.0139503
642.724	0.0138884
642.802	0.0138528
642.880	0.0139565
642.958	0.0138466
643.036	0.0138934
643.114	0.0139044
643.193	0.0139313
643.271	0.0140014
643.349	0.0140670
643.427	0.0139506
643.505	0.0138807
643.583	0.0138699
643.661	0.0138806
643.739	0.0139551
643.818	0.0140067
643.896	0.0139326
643.974	0.0138934
644.052	0.0139348
644.130	0.0139162
644.208	0.0137764
644.286	0.0138744
644.364	0.0139017
644.443	0.0138870
644.521	0.0141061
644.599	0.0139581
644.677	0.0139706
644.755	0.0139758
644.833	0.0139597
644.911	0.0139032
644.989	0.0139261
645.068	0.0139029
645.146	0.0139906
645.224	0.0138612
645.302	0.0138187
645.380	0.0138642
645.458	0.0139397
645.536	0.0138609
645.614	0.0139792
645.693	0.0138977
645.771	0.0138522
645.849	0.0138355
645.927	0.0139085
646.005	0.0140312
646.083	0.0139346
646.161	0.0138965
646.239	0.0139046
646.318	0.0139919
646.396	0.0140372
646.474	0.0139703
646.552	0.0139749
646.630	0.0138865
646.708	0.0139408
646.786	0.0139056
646.864	0.0140611
646.943	0.0138314
647.021	0.0139574
647.099	0.0139099
647.177	0.0138918
647.255	0.0138451
647.333	0.0138367
647.411	0.0138374
647.489	0.0139583
647.568	0.0138892
647.646	0.0139070
647.724	0.0138827
647.802	0.0138839
647.880	0.0138350
647.958	0.0138642
648.036	0.0139185
648.114	0.0139095
648.193	0.0138743
648.271	0.0138008
648.349	0.0139027
648.427	0.0139333
648.505	0.0138432
648.583	0.0140365
648.661	0.0139603
648.739	0.0139101
648.818	0.0139896
648.896	0.0139281
648.974	0.0139695
649.052	0.0139007
649.130	0.0140339
649.208	0.0139967
649.286	0.0138902
649.364	0.0138678
649.443	0.0139219
649.521	0.0138578
649.599	0.0138776
649.677	0.0140620
649.755	0.0141071
649.833	0.0137730
649.911	0.0138538
649.989	0.0138788
650.068	0.0138866
650.146	0.0138966
650.224	0.0138560
650.302	0.0138581
650.380	0.0138986
650.458	0.0139808
650.536	0.0139586
650.614	0.0138740
650.693	0.0139868
650.771	0.0139546
650.849	0.0139109
650.927	0.0139180
651.005	0.0138874
651.083	0.0139714
651.161	0.0138969
651.239	0.0137880
651.318	0.0138871
651.396	0.0140125
651.474	0.0139159
651.552	0.0140113
651.630	0.0139366
651.708	0.0139658
651.786	0.0139021
651.864	0.0138996
651.943	0.0139417
652.021	0.0139430
652.099	0.0139009
652.177	0.0140697
652.255	0.0139706
652.333	0.0140228
652.411	0.0139492
652.489	0.0140897
652.568	0.0140306
652.646	0.0139319
652.724	0.0140478
652.802	0.0139687
652.880	0.0139338
652.958	0.0138940
653.036	0.0138325
653.114	0.0140672
653.193	0.0138695
653.271	0.0138960
653.349	0.0139293
653.427	0.0139365
653.505	0.0139388
653.583	0.0139104
653.661	0.0139594
653.739	0.0139590
653.818	0.0140163
653.896	0.0139903
653.974	0.0139650
654.052	0.0139043
654.130	0.0139070
654.208	0.0139548
654.286	0.0139041
654.364	0.0138592
654.443	0.0139285
654.521	0.0139458
654.599	0.0139933
654.677	0.0138312
654.755	0.0138825
654.833	0.0140045
654.911	0.0140948
654.989	0.0139191
655.068	0.0139989
655.146	0.0139407
655.224	0.0139021
655.302	0.0139922
655.380	0.0139583
655.458	0.0137740
655.536	0.0139345
655.614	0.0138844
655.693	0.0138319
655.771	0.0138483
655.849	0.0140161
655.927	0.0140363
656.005	0.0138586
656.083	0.0138183
656.161	0.0138708
656.239	0.0140002
656.318	0.0138768
656.396	0.0139172
656.474	0.0139680
656.552	0.0139292
656.630	0.0140418
656.708	0.0137919
656.786	0.0138930
656.864	0.0140915
656.943	0.0139275
657.021	0.0139172
657.099	0.0139364
657.177	0.0139866
657.255	0.0139955
657.333	0.0139159
657.411	0.0138412
657.489	0.0138393
657.568	0.0140231
657.646	0.0138988
657.724	0.0138475
657.802	0.0139044
657.880	0.0140226
657.958	0.0139567
658.036	0.0141046
658.114	0.0140002
658.193	0.0139227
658.271	0.0138715
658.349	0.0139999
658.427	0.0140199
658.505	0.0138914
658.583	0.0139095
658.661	0.0140234
658.739	0.0140564
658.818	0.0140641
658.896	0.0140149
658.974	0.0140097
659.052	0.0139967
659.130	0.0140537
659.208	0.0139424
659.286	0.0140418
659.364	0.0140350
659.443	0.0138799
659.521	0.0140127
659.599	0.0139912
659.677	0.0139281
659.755	0.0138872
659.833	0.0140668
659.911	0.0140385
659.989	0.0139881
660.068	0.0138377
660.146	0.0140498
660.224	0.0140237
660.302	0.0138071
660.380	0.0139085
660.458	0.0138764
660.536	0.0139167
660.614	0.0140441
660.693	0.0141067
660.771	0.0140086
660.849	0.0138974
660.927	0.0139715
661.005	0.0139014
661.083	0.0139181
661.161	0.0138264
661.239	0.0139147
661.318	0.0141338
661.396	0.0140477
661.474	0.0138251
661.552	0.0138796
661.630	0.0140677
661.708	0.0139094
661.786	0.0139735
661.864	0.0140137
661.943	0.0139767
662.021	0.0138821
662.099	0.0140636
662.177	0.0139464
662.255	0.0138052
662.333	0.0138318
662.411	0.0138985
662.489	0.0140313
662.568	0.0139258
662.646	0.0139820
662.724	0.0139117
662.802	0.0139748
662.880	0.0139466
662.958	0.0139246
663.036	0.0139838
663.114	0.0138753
663.193	0.0137923
663.271	0.0139326
663.349	0.0139480
663.427	0.0139458
663.505	0.0140257
663.583	0.0139777
663.661	0.0138438
663.739	0.0139645
663.818	0.0138180
663.896	0.0139114
663.974	0.0138640
664.052	0.0138258
664.130	0.0138712
664.208	0.0139888
664.286	0.0138842
664.364	0.0138644
664.443	0.0138249
664.521	0.0140189
664.599	0.0140189
664.677	0.0139572
664.755	0.0138599
664.833	0.0139682
664.911	0.0140424
664.989	0.0139314
665.068	0.0139424
665.146	0.0139212
665.224	0.0139359
665.302	0.0139362
665.380	0.0139701
665.458	0.0139337
665.536	0.0138766
665.614	0.0139166
665.693	0.0139621
665.771	0.0139496
665.849	0.0138972
665.927	0.0140228
666.005	0.0140211
666.083	0.0138686
666.161	0.0138519
666.239	0.0140019
666.318	0.0139138
666.396	0.0139720
666.474	0.0139879
666.552	0.0139167
666.630	0.0138358
666.708	0.0140061
666.786	0.0140121
666.864	0.0138843
666.943	0.0138755
667.021	0.0138947
667.099	0.0140633
667.177	0.0140143
667.255	0.0138117
667.333	0.0141434
667.411	0.0139927
667.489	0.0139377
667.568	0.0139130
667.646	0.0139782
667.724	0.0139944
667.802	0.0139782
667.880	0.0139680
667.958	0.0140208
668.036	0.0138845
668.114	0.0139769
668.193	0.0139497
668.271	0.0139026
668.349	0.0139750
668.427	0.0139307
668.505	0.0140848
668.583	0.0140366
668.661	0.0139423
668.739	0.0138840
668.818	0.0139986
668.896	0.0138607
668.974	0.0138484
669.052	0.0136868
669.130	0.0138018
669.208	0.0139727
669.286	0.0139837
669.364	0.0138100
669.443	0.0138403
669.521	0.0140836
669.599	0.0140639
669.677	0.0139025
669.755	0.0139144
669.833	0.0139732
669.911	0.0139384
669.989	0.0140112
670.068	0.0139867
670.146	0.0138658
670.224	0.0140282
670.302	0.0140047
670.380	0.0139687
670.458	0.0138622
670.536	0.0139534
670.614	0.0138879
670.693	0.0138451
670.771	0.0139394
670.849	0.0140620
670.927	0.0138650
671.005	0.0138902
671.083	0.0137942
671.161	0.0138686
671.239	0.0140218
671.318	0.0139400
671.396	0.0139577
671.474	0.0138545
671.552	0.0139344
671.630	0.0139540
671.708	0.0139736
671.786	0.0140342
671.864	0.0138870
671.943	0.0139426
672.021	0.0140778
672.099	0.0138815
672.177	0.0138308
672.255	0.0138755
672.333	0.0139979
672.411	0.0139435
672.489	0.0139754
672.568	0.0139523
672.646	0.0140522
672.724	0.0141225
672.802	0.0139896
672.880	0.0139452
672.958	0.0139796
673.036	0.0140315
673.114	0.0138823
673.193	0.0139587
673.271	0.0140067
673.349	0.0139932
673.427	0.0140195
673.505	0.0140025
673.583	0.0139357
673.661	0.0137531
673.739	0.0139899
673.818	0.0138765
673.896	0.0139097
673.974	0.0140964
674.052	0.0139874
674.130	0.0139925
674.208	0.0141182
674.286	0.0139256
674.364	0.0138879
674.443	0.0139447
674.521	0.0140362
674.599	0.0138966
674.677	0.0139602
674.755	0.0139184
674.833	0.0138647
674.911	0.0139088
674.989	0.0139220
675.068	0.0140108
675.146	0.0138956
675.224	0.0138247
675.302	0.0138988
675.380	0.0139333
675.458	0.0139455
675.536	0.0140347
675.614	0.0138724
675.693	0.0138119
675.771	0.0138660
675.849	0.0138999
675.927	0.0140249
676.005	0.0139944
676.083	0.0139458
676.161	0.0137265
676.239	0.0138676
676.318	0.0139793
676.396	0.0139036
676.474	0.0138121
676.552	0.0139597
676.630	0.0138858
676.708	0.0140002
676.786	0.0138712
676.864	0.0139380
676.943	0.0138685
677.021	0.0138425
677.099	0.0139478
677.177	0.0140507
677.255	0.0139685
677.333	0.0137749
677.411	0.0138661
677.489	0.0141101
677.568	0.0139393
677.646	0.0138675
677.724	0.0139515
677.802	0.0138571
677.880	0.0138779
677.958	0.0138348
678.036	0.0138644
678.114	0.0138853
678.193	0.0139378
678.271	0.0138831
678.349	0.0139396
678.427	0.0140015
678.505	0.0139478
678.583	0.0138741
678.661	0.0138770
678.739	0.0139806
678.818	0.0137372
678.896	0.0138435
678.974	0.0139398
679.052	0.0139048
679.130	0.0139519
679.208	0.0138618
679.286	0.0138815
679.364	0.0139689
679.443	0.0139038
679.521	0.0137952
679.599	0.0138657
679.677	0.0140405
679.755	0.0139508
679.833	0.0138851
679.911	0.0139715
679.989	0.0139500
680.068	0.0138799
680.146	0.0138760
680.224	0.0138586
680.302	0.0139917
680.380	0.0138712
680.458	0.0137868
680.536	0.0138367
680.614	0.0139317
680.693	0.0138903
680.771	0.0138202
680.849	0.0138483
680.927	0.0138830
681.005	0.0138289
681.083	0.0137706
681.161	0.0138735
681.239	0.0140083
681.318	0.0139520
681.396	0.0138589
681.474	0.0138555
681.552	0.0140194
681.630	0.0139081
681.708	0.0138520
681.786	0.0140001
681.864	0.0140059
681.943	0.0139680
682.021	0.0139782
682.099	0.0140128
682.177	0.0139275
682.255	0.0141096
682.333	0.0140168
682.411	0.0138610
682.489	0.0139286
682.568	0.0137440
682.646	0.0138851
682.724	0.0140643
682.802	0.0140356
682.880	0.0138257
682.958	0.0139385
683.036	0.0140120
683.114	0.0139617
683.193	0.0139001
683.271	0.0139415
683.349	0.0139251
683.427	0.0139301
683.505	0.0138934
683.583	0.0139211
683.661	0.0139198
683.739	0.0139968
683.818	0.0139673
683.896	0.0138937
683.974	0.0139478
684.052	0.0139937
684.130	0.0139097
684.208	0.0139391
684.286	0.0140371
684.364	0.0138411
684.443	0.0140586
684.521	0.0140191
684.599	0.0138628
684.677	0.0138528
684.755	0.0141965
684.833	0.0141496
684.911	0.0139256
684.989	0.0138859
685.068	0.0139178
685.146	0.0140098
685.224	0.0139315
685.302	0.0139361
685.380	0.0139233
685.458	0.0138190
685.536	0.0138509
685.614	0.0140856
685.693	0.0140672
685.771	0.0139506
685.849	0.0138551
685.927	0.0138170
686.005	0.0139605
686.083	0.0138409
686.161	0.0138948
686.239	0.0139339
686.318	0.0138824
686.396	0.0140290
686.474	0.0140250
686.552	0.0140162
686.630	0.0139806
686.708	0.0139739
686.786	0.0139767
686.864	0.0140305
686.943	0.0139153
687.021	0.0139863
687.099	0.0140151
687.177	0.0137770
687.255	0.0138641
687.333	0.0138770
687.411	0.0139594
687.489	0.0139582
687.568	0.0138898
687.646	0.0138528
687.724	0.0139488
687.802	0.0137970
687.880	0.0138426
687.958	0.0138615
688.036	0.0138268
688.114	0.0139720
688.193	0.0138397
688.271	0.0139341
688.349	0.0140376
688.427	0.0138312
688.505	0.0139905
688.583	0.0140481
688.661	0.0138599
688.739	0.0139717
688.818	0.0138519
688.896	0.0138164
688.974	0.0138915
689.052	0.0140553
689.130	0.0140235
689.208	0.0137848
689.286	0.0138338
689.364	0.0138634
689.443	0.0137809
689.521	0.0138790
689.599	0.0139912
689.677	0.0138871
689.755	0.0139214
689.833	0.0138955
689.911	0.0139271
689.989	0.0138361
690.068	0.0138937
690.146	0.0138964
690.224	0.0139224
690.302	0.0139729
690.380	0.0138922
690.458	0.0139288
690.536	0.0138739
690.614	0.0138228
690.693	0.0140101
690.771	0.0139059
690.849	0.0139214
690.927	0.0138286
691.005	0.0138747
691.083	0.0138976
691.161	0.0139566
691.239	0.0138734
691.318	0.0139144
691.396	0.0138728
691.474	0.0139161
691.552	0.0138670
691.630	0.0139307
691.708	0.0138985
691.786	0.0139674
691.864	0.0139923
691.943	0.0138591
692.021	0.0139600
692.099	0.0138411
692.177	0.0139121
692.255	0.0139169
692.333	0.0140041
692.411	0.0138791
692.489	0.0139206
692.568	0.0139122
692.646	0.0139011
692.724	0.0139219
692.802	0.0139639
692.880	0.0137907
692.958	0.0138763
693.036	0.0137527
693.114	0.0139848
693.193	0.0139349
693.271	0.0138453
693.349	0.0139251
693.427	0.0140058
693.505	0.0140232
693.583	0.0138946
693.661	0.0139701
693.739	0.0139580
693.818	0.0139551
693.896	0.0140649
693.974	0.0140347
694.052	0.0138653
694.130	0.0139929
694.208	0.0139462
694.286	0.0137588
694.364	0.0138412
694.443	0.0139493
694.521	0.0138783
694.599	0.0139243
694.677	0.0140631
694.755	0.0139758
694.833	0.0140548
694.911	0.0141091
694.989	0.0141016
695.068	0.0140737
695.146	0.0140547
695.224	0.0139919
695.302	0.0140895
695.380	0.0139912
695.458	0.0140054
695.536	0.0140660
695.614	0.0138284
695.693	0.0138286
695.771	0.0138279
695.849	0.0139521
695.927	0.0138837
696.005	0.0137743
696.083	0.0138097
696.161	0.0139562
696.239	0.0139442
696.318	0.0138570
696.396	0.0137736
696.474	0.0138660
696.552	0.0139417
696.630	0.0138351
696.708	0.0138811
696.786	0.0140067
696.864	0.0141491
696.943	0.0141621
697.021	0.0141280
697.099	0.0141965
697.177	0.0141541
697.255	0.0142302
697.333	0.0140678
697.411	0.0140418
697.489	0.0141422
697.568	0.0139905
697.646	0.0140615
697.724	0.0140588
697.802	0.0139268
697.880	0.0139501
697.958	0.0139986
698.036	0.0137882
698.114	0.0136771
698.193	0.0137702
698.271	0.0137693
698.349	0.0137141
698.427	0.0137366
698.505	0.0137085
698.583	0.0137334
698.661	0.0137749
698.739	0.0138953
698.818	0.0138615
698.896	0.0140099
698.974	0.0138570
699.052	0.0137854
699.130	0.0139195
699.208	0.0140345
699.286	0.0140913
699.364	0.0140804
699.443	0.0140272
699.521	0.0141100
699.599	0.0141107
699.677	0.0142104
699.755	0.0141317
699.833	0.0142542
699.911	0.0142748
699.989	0.0141492
700.068	0.0141006
700.146	0.0141910
700.224	0.0140590
700.302	0.0139310
700.380	0.0140990
700.458	0.0139998
700.536	0.0137793
700.614	0.0139849
700.693	0.0139532
700.771	0.0136480
700.849	0.0136691
700.927	0.0136406
701.005	0.0136183
701.083	0.0136344
701.161	0.0135777
701.239	0.0136015
701.318	0.0134691
701.396	0.0134355
701.474	0.0136713
701.552	0.0137593
701.630	0.0136660
701.708	0.0136667
701.786	0.0137511
701.864	0.0138195
701.943	0.0138883
702.021	0.0139921
702.099	0.0140678
702.177	0.0140580
702.255	0.0139496
702.333	0.0142999
702.411	0.0142500
702.489	0.0141953
702.568	0.0142468
702.646	0.0142955
702.724	0.0143643
702.802	0.0142749
702.880	0.0140173
702.958	0.0141278
703.036	0.0141617
703.114	0.0141293
703.193	0.0141629
703.271	0.0140134
703.349	0.0138942
703.427	0.0139742
703.505	0.0138040
703.583	0.0138461
703.661	0.0138152
703.739	0.0138373
703.818	0.0138029
703.896	0.0137263
703.974	0.0136576
704.052	0.0137044
704.130	0.0138263
704.208	0.0137127
704.286	0.0137131
704.364	0.0135281
704.443	0.0136430
704.521	0.0136265
704.599	0.0137563
704.677	0.0138638
704.755	0.0138223
704.833	0.0138490
704.911	0.0136980
704.989	0.0137942
705.068	0.0139842
705.146	0.0137693
705.224	0.0140753
705.302	0.0140664
705.380	0.0139859
705.458	0.0140919
705.536	0.0139233
705.614	0.0139725
705.693	0.0139535
705.771	0.0140336
705.849	0.0141393
705.927	0.0140434
706.005	0.0140192
706.083	0.0138864
706.161	0.0139706
706.239	0.0140353
706.318	0.0139032
706.396	0.0139476
706.474	0.0138664
706.552	0.0138492
706.630	0.0137730
706.708	0.0138214
706.786	0.0139883
706.864	0.0138045
706.943	0.0137365
707.021	0.0138322
707.099	0.0139043
707.177	0.0136868
707.255	0.0138775
707.333	0.0137096
707.411	0.0137682
707.489	0.0137772
707.568	0.0137991
707.646	0.0139281
707.724	0.0138910
707.802	0.0137872
707.880	0.0139014
707.958	0.0140648
708.036	0.0140828
708.114	0.0139837
708.193	0.0141280
708.271	0.0141042
708.349	0.0140054
708.427	0.0139880
708.505	0.0140501
708.583	0.0140816
708.661	0.0142223
708.739	0.0141779
708.818	0.0139211
708.896	0.0140406
708.974	0.0140025
709.052	0.0139846
709.130	0.0140131
709.208	0.0140208
709.286	0.0139592
709.364	0.0139568
709.443	0.0139066
709.521	0.0138238
709.599	0.0139724
709.677	0.0136997
709.755	0.0137969
709.833	0.0139696
709.911	0.0138960
709.989	0.0138056
710.068	0.0138936
710.146	0.0138585
710.224	0.0137937
710.302	0.0138594
710.380	0.0137668
710.458	0.0136537
710.536	0.0137665
710.614	0.0140008
710.693	0.0138042
710.771	0.0139711
710.849	0.0138182
710.927	0.0139608
711.005	0.0139294
711.083	0.0138556
711.161	0.0138633
711.239	0.0139772
711.318	0.0140574
711.396	0.0139996
711.474	0.0140816
711.552	0.0142342
711.630	0.0141523
711.708	0.0142676
711.786	0.0141962
711.864	0.0141348
711.943	0.0142327
712.021	0.0142409
712.099	0.0142331
712.177	0.0141837
712.255	0.0140959
712.333	0.0140812
712.411	0.0140604
712.489	0.0140125
712.568	0.0140596
712.646	0.0140945
712.724	0.0139951
712.802	0.0138676
712.880	0.0138758
712.958	0.0138348
713.036	0.0138624
713.114	0.0138763
713.193	0.0138499
713.271	0.0138528
713.349	0.0138056
713.427	0.0137564
713.505	0.0137865
713.583	0.0138045
713.661	0.0137237
713.739	0.0136691
713.818	0.0136377
713.896	0.0136170
713.974	0.0137687
714.052	0.0138243
714.130	0.0138392
714.208	0.0138923
714.286	0.0138358
714.364	0.0138135
714.443	0.0137399
714.521	0.0136001
714.599	0.0137269
714.677	0.0138058
714.755	0.0136570
714.833	0.0137460
714.911	0.0138396
714.989	0.0136328
715.068	0.0138269
715.146	0.0139921
715.224	0.0139139
715.302	0.0138132
715.380	0.0139344
715.458	0.0139726
715.536	0.0139998
715.614	0.0140931
715.693	0.0141502
715.771	0.0141605
715.849	0.0142023
715.927	0.0141711
716.005	0.0142185
716.083	0.0143166
716.161	0.0143048
716.239	0.0142669
716.318	0.0141752
716.396	0.0141074
716.474	0.0142479
716.552	0.0142387
716.630	0.0141321
716.708	0.0141805
716.786	0.0140807
716.864	0.0141263
716.943	0.0141525
717.021	0.0140484
717.099	0.0139372
717.177	0.0139647
717.255	0.0139673
717.333	0.0139440
717.411	0.0137451
717.489	0.0137036
717.568	0.0136407
717.646	0.0137494
717.724	0.0138811
717.802	0.0138600
717.880	0.0136918
717.958	0.0137810
718.036	0.0137333
718.114	0.0138091
718.193	0.0137363
718.271	0.0137109
718.349	0.0136800
718.427	0.0136992
718.505	0.0136575
718.583	0.0137379
718.661	0.0137919
718.739	0.0137594
718.818	0.0138342
718.896	0.0139114
718.974	0.0138454
719.052	0.0139838
719.130	0.0138647
719.208	0.0138662
719.286	0.0138146
719.364	0.0140282
719.443	0.0139655
719.521	0.0139359
719.599	0.0139481
719.677	0.0139616
719.755	0.0140381
719.833	0.0140624
719.911	0.0139728
719.989	0.0139288
720.068	0.0139278
720.146	0.0140448
720.224	0.0140936
720.302	0.0139962
720.380	0.0141035
720.458	0.0139883
720.536	0.0141650
720.614	0.0141418
720.693	0.0142142
720.771	0.0141255
720.849	0.0140287
720.927	0.0141160
721.005	0.0140697
721.083	0.0139449
721.161	0.0142453
721.239	0.0141376
721.318	0.0138358
721.396	0.0140869
721.474	0.0141563
721.552	0.0140194
721.630	0.0140231
721.708	0.0140372
721.786	0.0140139
721.864	0.0139340
721.943	0.0139330
722.021	0.0139281
722.099	0.0139645
722.177	0.0139279
722.255	0.0138918
722.333	0.0140378
722.411	0.0140141
722.489	0.0139191
722.568	0.0137459
722.646	0.0138515
722.724	0.0139638
722.802	0.0138319
722.880	0.0138868
722.958	0.0138404
723.036	0.0139151
723.114	0.0139188
723.193	0.0138492
723.271	0.0138130
723.349	0.0137486
723.427	0.0139232
723.505	0.0138055
723.583	0.0138403
723.661	0.0138108
723.739	0.0138312
723.818	0.0137973
723.896	0.0137007
723.974	0.0139429
724.052	0.0138582
724.130	0.0138442
724.208	0.0137663
724.286	0.0138625
724.364	0.0138229
724.443	0.0140294
724.521	0.0141138
724.599	0.0140172
724.677	0.0141483
724.755	0.0139764
724.833	0.0141641
724.911	0.0141283
724.989	0.0140008
725.068	0.0139488
725.146	0.0141290
725.224	0.0142007
725.302	0.0141149
725.380	0.0139691
725.458	0.0139395
725.536	0.0140182
725.614	0.0140451
725.693	0.0140098
725.771	0.0139843
725.849	0.0140585
725.927	0.0140020
726.005	0.0139965
726.083	0.0140076
726.161	0.0141077
726.239	0.0140338
726.318	0.0140536
726.396	0.0140385
726.474	0.0141087
726.552	0.0140851
726.630	0.0140240
726.708	0.0138702
726.786	0.0140727
726.864	0.0138390
726.943	0.0138929
727.021	0.0140837
727.099	0.0140632
727.177	0.0139336
727.255	0.0137580
727.333	0.0138432
727.411	0.0139573
727.489	0.0137666
727.568	0.0138565
727.646	0.0139365
727.724	0.0140049
727.802	0.0138050
727.880	0.0137350
727.958	0.0139384
728.036	0.0138912
728.114	0.0139555
728.193	0.0137640
728.271	0.0137788
728.349	0.0139112
728.427	0.0137570
728.505	0.0137998
728.583	0.0138896
728.661	0.0137956
728.739	0.0139671
728.818	0.0137822
728.896	0.0136434
728.974	0.0138319
729.052	0.0136342
729.130	0.0138800
729.208	0.0138918
729.286	0.0136588
729.364	0.0138280
729.443	0.0137904
729.521	0.0137566
729.599	0.0138660
729.677	0.0138503
729.755	0.0139642
729.833	0.0139324
729.911	0.0137751
729.989	0.0139530
730.068	0.0138750
730.146	0.0139034
730.224	0.0141636
730.302	0.0141571
730.380	0.0140927
730.458	0.0140968
730.536	0.0140319
730.614	0.0140398
730.693	0.0139465
730.771	0.0141776
730.849	0.0140760
730.927	0.0140034
731.005	0.0140249
731.083	0.0139561
731.161	0.0139652
731.239	0.0139649
731.318	0.0139538
731.396	0.0138539
731.474	0.0140202
731.552	0.0138618
731.630	0.0139071
731.708	0.0139377
731.786	0.0140097
731.864	0.0139763
731.943	0.0139789
732.021	0.0141255
732.099	0.0140254
732.177	0.0139780
732.255	0.0139838
732.333	0.0140128
732.411	0.0141014
732.489	0.0139901
732.568	0.0140617
732.646	0.0139326
732.724	0.0139634
732.802	0.0138338
732.880	0.0138974
732.958	0.0139467
733.036	0.0138274
733.114	0.0138824
733.193	0.0139499
733.271	0.0138960
733.349	0.0137621
733.427	0.0137263
733.505	0.0138106
733.583	0.0138186
733.661	0.0137720
733.739	0.0138420
733.818	0.0137348
733.896	0.0137551
733.974	0.0137924
734.052	0.0139114
734.130	0.0138906
734.208	0.0138579
734.286	0.0139124
734.364	0.0140166
734.443	0.0139162
734.521	0.0138663
734.599	0.0139311
734.677	0.0140955
734.755	0.0139016
734.833	0.0139912
734.911	0.0140153
734.989	0.0140285
735.068	0.0139712
735.146	0.0139053
735.224	0.0140829
735.302	0.0141033
735.380	0.0141434
735.458	0.0139034
735.536	0.0137724
735.614	0.0139680
735.693	0.0139307
735.771	0.0139021
735.849	0.0140527
735.927	0.0141454
736.005	0.0139095
736.083	0.0139005
736.161	0.0140517
736.239	0.0140060
736.318	0.0139867
736.396	0.0140013
736.474	0.0138979
736.552	0.0138968
736.630	0.0139268
736.708	0.0138187
736.786	0.0138990
736.864	0.0139946
736.943	0.0139764
737.021	0.0140749
737.099	0.0139906
737.177	0.0138314
737.255	0.0139977
737.333	0.0141154
737.411	0.0138184
737.489	0.0138633
737.568	0.0139122
737.646	0.0139651
737.724	0.0139348
737.802	0.0139330
737.880	0.0139338
737.958	0.0139186
738.036	0.0139536
738.114	0.0138708
738.193	0.0139526
738.271	0.0140714
738.349	0.0139127
738.427	0.0138721
738.505	0.0139127
738.583	0.0138743
738.661	0.0138680
738.739	0.0139861
738.818	0.0140102
738.896	0.0138604
738.974	0.0139539
739.052	0.0138420
739.130	0.0137373
739.208	0.0140005
739.286	0.0139832
739.364	0.0138436
739.443	0.0138967
739.521	0.0139845
739.599	0.0138848
739.677	0.0138223
739.755	0.0138918
739.833	0.0138537
739.911	0.0139164
739.989	0.0139826
740.068	0.0140627
740.146	0.0138998
740.224	0.0138855
740.302	0.0138684
740.380	0.0138869
740.458	0.0138820
740.536	0.0139333
740.614	0.0139486
740.693	0.0139423
740.771	0.0139153
740.849	0.0138420
740.927	0.0138656
741.005	0.0138745
741.083	0.0139249
741.161	0.0139081
741.239	0.0139486
741.318	0.0139715
741.396	0.0140050
741.474	0.0138742
741.552	0.0139993
741.630	0.0139944
741.708	0.0138442
741.786	0.0139288
741.864	0.0139066
741.943	0.0138584
742.021	0.0137843
742.099	0.0139952
742.177	0.0139671
742.255	0.0139289
742.333	0.0138098
742.411	0.0138538
742.489	0.0140070
742.568	0.0139558
742.646	0.0139310
742.724	0.0138831
742.802	0.0140765
742.880	0.0139651
742.958	0.0138187
743.036	0.0139272
743.114	0.0140141
743.193	0.0140681
743.271	0.0139354
743.349	0.0138766
743.427	0.0139355
743.505	0.0140708
743.583	0.0139223
743.661	0.0138311
743.739	0.0140353
743.818	0.0140231
743.896	0.0140245
743.974	0.0139996
744.052	0.0139919
744.130	0.0137684
744.208	0.0139676
744.286	0.0140112
744.364	0.0138023
744.443	0.0139923
744.521	0.0139905
744.599	0.0139243
744.677	0.0138866
744.755	0.0138069
744.833	0.0138582
744.911	0.0138414
744.989	0.0138945
745.068	0.0138712
745.146	0.0139044
745.224	0.0139393
745.302	0.0139283
745.380	0.0140025
745.458	0.0139511
745.536	0.0138551
745.614	0.0139669
745.693	0.0139942
745.771	0.0139707
745.849	0.0138486
745.927	0.0138058
746.005	0.0137749
746.083	0.0138718
746.161	0.0138716
746.239	0.0137555
746.318	0.0138180
746.396	0.0138267
746.474	0.0138245
746.552	0.0137630
746.630	0.0138366
746.708	0.0138377
746.786	0.0138454
746.864	0.0139171
746.943	0.0138694
747.021	0.0139610
747.099	0.0138654
747.177	0.0138437
747.255	0.0138409
747.333	0.0139126
747.411	0.0139307
747.489	0.0139514
747.568	0.0138552
747.646	0.0139017
747.724	0.0140353
747.802	0.0139326
747.880	0.0139838
747.958	0.0138834
748.036	0.0139380
748.114	0.0140030
748.193	0.0139049
748.271	0.0139407
748.349	0.0138586
748.427	0.0138800
748.505	0.0139758
748.583	0.0141129
748.661	0.0139218
748.739	0.0139399
748.818	0.0139713
748.896	0.0137180
748.974	0.0139879
749.052	0.0140582
749.130	0.0139936
749.208	0.0138998
749.286	0.0138258
749.364	0.0139354
749.443	0.0138403
749.521	0.0140042
749.599	0.0138933
749.677	0.0138626
749.755	0.0139700
749.833	0.0139449
749.911	0.0138519
749.989	0.0137420
750.068	0.0138728
750.146	0.0138611
750.224	0.0139201
750.302	0.0139687
750.380	0.0139716
750.458	0.0139456
750.536	0.0138132
750.614	0.0138107
750.693	0.0138458
750.771	0.0138297
750.849	0.0139774
750.927	0.0138918
751.005	0.0138939
751.083	0.0138905
751.161	0.0139707
751.239	0.0139996
751.318	0.0139858
751.396	0.0138779
751.474	0.0139008
751.552	0.0140292
751.630	0.0139806
751.708	0.0138375
751.786	0.0138838
751.864	0.0138704
751.943	0.0139126
752.021	0.0138924
752.099	0.0139349
752.177	0.0137266
752.255	0.0138245
752.333	0.0139000
752.411	0.0137345
752.489	0.0137350
752.568	0.0138151
752.646	0.0137693
752.724	0.0138210
752.802	0.0138612
752.880	0.0138783
752.958	0.0138507
753.036	0.0139187
753.114	0.0138220
753.193	0.0138645
753.271	0.0139241
753.349	0.0139075
753.427	0.0138107
753.505	0.0138163
753.583	0.0138650
753.661	0.0138473
753.739	0.0138364
753.818	0.0139857
753.896	0.0139774
753.974	0.0139653
754.052	0.0138048
754.130	0.0139695
754.208	0.0138422
754.286	0.0140639
754.364	0.0140049
754.443	0.0138258
754.521	0.0138098
754.599	0.0138538
754.677	0.0138271
754.755	0.0139305
754.833	0.0140661
754.911	0.0139743
754.989	0.0139592
755.068	0.0138477
755.146	0.0139371
755.224	0.0138966
755.302	0.0139497
755.380	0.0138585
755.458	0.0139320
755.536	0.0138628
755.614	0.0138789
755.693	0.0140163
755.771	0.0139368
755.849	0.0140212
755.927	0.0139773
756.005	0.0139801
756.083	0.0139629
756.161	0.0139886
756.239	0.0137770
756.318	0.0138687
756.396	0.0139279
756.474	0.0139747
756.552	0.0138087
756.630	0.0139545
756.708	0.0139030
756.786	0.0139458
756.864	0.0139508
756.943	0.0139902
757.021	0.0139812
757.099	0.0138927
757.177	0.0139339
757.255	0.0139770
757.333	0.0139889
757.411	0.0139883
757.489	0.0139777
757.568	0.0139317
757.646	0.0140282
757.724	0.0138846
757.802	0.0139441
757.880	0.0139111
757.958	0.0138477
758.036	0.0139408
758.114	0.0140045
758.193	0.0139111
758.271	0.0138937
758.349	0.0139440
758.427	0.0139124
758.505	0.0139275
758.583	0.0138311
758.661	0.0138877
758.739	0.0138789
758.818	0.0139921
758.896	0.0137689
758.974	0.0138986
759.052	0.0139746
759.130	0.0138992
759.208	0.0139375
759.286	0.0139301
759.364	0.0138938
759.443	0.0138545
759.521	0.0138329
759.599	0.0139478
759.677	0.0139806
759.755	0.0140183
759.833	0.0139484
759.911	0.0139413
759.989	0.0140418
760.068	0.0139382
760.146	0.0139880
760.224	0.0139552
760.302	0.0139560
760.380	0.0141045
760.458	0.0139715
760.536	0.0139992
760.614	0.0141579
760.693	0.0139312
760.771	0.0138868
760.849	0.0138990
760.927	0.0141013
761.005	0.0140015
761.083	0.0139768
761.161	0.0139969
761.239	0.0141044
761.318	0.0139364
761.396	0.0139577
761.474	0.0141198
761.552	0.0139737
761.630	0.0138027
761.708	0.0139539
761.786	0.0139415
761.864	0.0140184
761.943	0.0139878
762.021	0.0138064
762.099	0.0138179
762.177	0.0137811
762.255	0.0139574
762.333	0.0140392
762.411	0.0140244
762.489	0.0139394
762.568	0.0139125
762.646	0.0141146
762.724	0.0139376
762.802	0.0139119
762.880	0.0139693
762.958	0.0138477
763.036	0.0139180
763.114	0.0139542
763.193	0.0138280
763.271	0.0138958
763.349	0.0138901
763.427	0.0140634
763.505	0.0139734
763.583	0.0139215
763.661	0.0139711
763.739	0.0139595
763.818	0.0138947
763.896	0.0140815
763.974	0.0138285
764.052	0.0138281
764.130	0.0138696
764.208	0.0137728
764.286	0.0139138
764.364	0.0140154
764.443	0.0140665
764.521	0.0139131
764.599	0.0139480
764.677	0.0140264
764.755	0.0140099
764.833	0.0138643
764.911	0.0139214
764.989	0.0139835
765.068	0.0140037
765.146	0.0140089
765.224	0.0138316
765.302	0.0138800
765.380	0.0138774
765.458	0.0139129
765.536	0.0137813
765.614	0.0138513
765.693	0.0138622
765.771	0.0139225
765.849	0.0138287
765.927	0.0139479
766.005	0.0138793
766.083	0.0138289
766.161	0.0137680
766.239	0.0138950
766.318	0.0138397
766.396	0.0137653
766.474	0.0138180
766.552	0.0138729
766.630	0.0140085
766.708	0.0138982
766.786	0.0138436
766.864	0.0137130
766.943	0.0138499
767.021	0.0139505
767.099	0.0140533
767.177	0.0138815
767.255	0.0139569
767.333	0.0138274
767.411	0.0139908
767.489	0.0139748
767.568	0.0139252
767.646	0.0138123
767.724	0.0138970
767.802	0.0138935
767.880	0.0139136
767.958	0.0139841
768.036	0.0138168
768.114	0.0138905
768.193	0.0139212
768.271	0.0139063
768.349	0.0139666
768.427	0.0139801
768.505	0.0139595
768.583	0.0138995
768.661	0.0139655
768.739	0.0139087
768.818	0.0139608
768.896	0.0139070
768.974	0.0138659
769.052	0.0139541
769.130	0.0140481
769.208	0.0139140
769.286	0.0138898
769.364	0.0138303
769.443	0.0139793
769.521	0.0139114
769.599	0.0142071
769.677	0.0138998
769.755	0.0139015
769.833	0.0139452
769.911	0.0139053
769.989	0.0139632
770.068	0.0138564
770.146	0.0139207
770.224	0.0139113
770.302	0.0139835
770.380	0.0140033
770.458	0.0140253
770.536	0.0138439
770.614	0.0139811
770.693	0.0138956
770.771	0.0138177
770.849	0.0140401
770.927	0.0139081
771.005	0.0138464
771.083	0.0139520
771.161	0.0139439
771.239	0.0140131
771.318	0.0138034
771.396	0.0138333
771.474	0.0139011
771.552	0.0137862
771.630	0.0138648
771.708	0.0138717
771.786	0.0138457
771.864	0.0137065
771.943	0.0138926
772.021	0.0139903
772.099	0.0139337
772.177	0.0138754
772.255	0.0137940
772.333	0.0139980
772.411	0.0138375
772.489	0.0137871
772.568	0.0139610
772.646	0.0137318
772.724	0.0139610
772.802	0.0139575
772.880	0.0139036
772.958	0.0138131
773.036	0.0138482
773.114	0.0138039
773.193	0.0139738
773.271	0.0138948
773.349	0.0138875
773.427	0.0139050
773.505	0.0139711
773.583	0.0138449
773.661	0.0139365
773.739	0.0139771
773.818	0.0139111
773.896	0.0139097
773.974	0.0138744
774.052	0.0139406
774.130	0.0138381
774.208	0.0138824
774.286	0.0139032
774.364	0.0138365
774.443	0.0139639
774.521	0.0139568
774.599	0.0139603
774.677	0.0138950
774.755	0.0139571
774.833	0.0139603
774.911	0.0139182
774.989	0.0137759
775.068	0.0140538
775.146	0.0137524
775.224	0.0138734
775.302	0.0139023
775.380	0.0137794
775.458	0.0138885
775.536	0.0138910
775.614	0.0138142
775.693	0.0139399
775.771	0.0138905
775.849	0.0138745
775.927	0.0138329
776.005	0.0138918
776.083	0.0139350
776.161	0.0138553
776.239	0.0138366
776.318	0.0137984
776.396	0.0138710
776.474	0.0137985
776.552	0.0137896
776.630	0.0137119
776.708	0.0138817
776.786	0.0139408
776.864	0.0138094
776.943	0.0139114
777.021	0.0138589
777.099	0.0137469
777.177	0.0137709
777.255	0.0138980
777.333	0.0139370
777.411	0.0139377
777.489	0.0138772
777.568	0.0138181
777.646	0.0139104
777.724	0.0139040
777.802	0.0138758
777.880	0.0139626
777.958	0.0140237
778.036	0.0139025
778.114	0.0138953
778.193	0.0139598
778.271	0.0139651
778.349	0.0138869
778.427	0.0139134
778.505	0.0138172
778.583	0.0139640
778.661	0.0139418
778.739	0.0140784
778.818	0.0139666
778.896	0.0137967
778.974	0.0139507
779.052	0.0140534
779.130	0.0139729
779.208	0.0140323
779.286	0.0140183
779.364	0.0140057
779.443	0.0139715
779.521	0.0138768
779.599	0.0138582
779.677	0.0139776
779.755	0.0139574
779.833	0.0140154
779.911	0.0139553
779.989	0.0140170
780.068	0.0140718
780.146	0.0139052
780.224	0.0138960
780.302	0.0139040
780.380	0.0140108
780.458	0.0139372
780.536	0.0139441
780.614	0.0139633
780.693	0.0139323
780.771	0.0139515
780.849	0.0139643
780.927	0.0139815
781.005	0.0141116
781.083	0.0140936
781.161	0.0139043
781.239	0.0138474
781.318	0.0139362
781.396	0.0139944
781.474	0.0139644
781.552	0.0139788
781.630	0.0139450
781.708	0.0139030
781.786	0.0139561
781.864	0.0139317
781.943	0.0140281
782.021	0.0140247
782.099	0.0139646
782.177	0.0139748
782.255	0.0139114
782.333	0.0140202
782.411	0.0139217
782.489	0.0139468
782.568	0.0139297
782.646	0.0140176
782.724	0.0139408
782.802	0.0138903
782.880	0.0139439
782.958	0.0141616
783.036	0.0139970
783.114	0.0139685
783.193	0.0139341
783.271	0.0138778
783.349	0.0140385
783.427	0.0139798
783.505	0.0139214
783.583	0.0139915
783.661	0.0138700
783.739	0.0138749
783.818	0.0139597
783.896	0.0139449
783.974	0.0139480
784.052	0.0139665
784.130	0.0139262
784.208	0.0138750
784.286	0.0138313
784.364	0.0139907
784.443	0.0140069
784.521	0.0140298
784.599	0.0140592
784.677	0.0139526
784.755	0.0139114
784.833	0.0139453
784.911	0.0140075
784.989	0.0139095
785.068	0.0138641
785.146	0.0139037
785.224	0.0141159
785.302	0.0140298
785.380	0.0138040
785.458	0.0138844
785.536	0.0138274
785.614	0.0138595
785.693	0.0140015
785.771	0.0139091
785.849	0.0138273
785.927	0.0138440
786.005	0.0138190
786.083	0.0137856
786.161	0.0138745
786.239	0.0140265
786.318	0.0137787
786.396	0.0138958
786.474	0.0138047
786.552	0.0138045
786.630	0.0137974
786.708	0.0137897
786.786	0.0140089
786.864	0.0139021
786.943	0.0138383
787.021	0.0139262
787.099	0.0139740
787.177	0.0139459
787.255	0.0139531
787.333	0.0139124
787.411	0.0140733
787.489	0.0140524
787.568	0.0141023
787.646	0.0139101
787.724	0.0138226
787.802	0.0139650
787.880	0.0141037
787.958	0.0140457
788.036	0.0139315
788.114	0.0140617
788.193	0.0140698
788.271	0.0138445
788.349	0.0139939
788.427	0.0139265
788.505	0.0140018
788.583	0.0140174
788.661	0.0139833
788.739	0.0139771
788.818	0.0139494
788.896	0.0139684
788.974	0.0139520
789.052	0.0141214
789.130	0.0139881
789.208	0.0139113
789.286	0.0140114
789.364	0.0139042
789.443	0.0141564
789.521	0.0140726
789.599	0.0140604
789.677	0.0141116
789.755	0.0139776
789.833	0.0139723
789.911	0.0139411
789.989	0.0139285
790.068	0.0138990
790.146	0.0139997
790.224	0.0139616
790.302	0.0140197
790.380	0.0140172
790.458	0.0139740
790.536	0.0138938
790.614	0.0138852
790.693	0.0139021
790.771	0.0139388
790.849	0.0139574
790.927	0.0140108
791.005	0.0137751
791.083	0.0138211
791.161	0.0139605
791.239	0.0138467
791.318	0.0138728
791.396	0.0139813
791.474	0.0139356
791.552	0.0138443
791.630	0.0138990
791.708	0.0140297
791.786	0.0137851
791.864	0.0139017
791.943	0.0139977
792.021	0.0139671
792.099	0.0138223
792.177	0.0138352
792.255	0.0139082
792.333	0.0139919
792.411	0.0139646
792.489	0.0138422
792.568	0.0138340
792.646	0.0140511
792.724	0.0138103
792.802	0.0139912
792.880	0.0139970
792.958	0.0138851
793.036	0.0140050
793.114	0.0139019
793.193	0.0139036
793.271	0.0139699
793.349	0.0140128
793.427	0.0138475
793.505	0.0139223
793.583	0.0139815
793.661	0.0140139
793.739	0.0140528
793.818	0.0139854
793.896	0.0140042
793.974	0.0139309
794.052	0.0140478
794.130	0.0140241
794.208	0.0138772
794.286	0.0141598
794.364	0.0140161
794.443	0.0138764
794.521	0.0139400
794.599	0.0140811
794.677	0.0140272
794.755	0.0139084
794.833	0.0140057
794.911	0.0138915
794.989	0.0139526
795.068	0.0139019
795.146	0.0139505
795.224	0.0139745
795.302	0.0140597
795.380	0.0139109
795.458	0.0138768
795.536	0.0139220
795.614	0.0139896
795.693	0.0138362
795.771	0.0140349
795.849	0.0139243
795.927	0.0140567
796.005	0.0139778
796.083	0.0140314
796.161	0.0140492
796.239	0.0139874
796.318	0.0140126
796.396	0.0140154
796.474	0.0138931
796.552	0.0140343
796.630	0.0139783
796.708	0.0140030
796.786	0.0138857
796.864	0.0139954
796.943	0.0138526
797.021	0.0139915
797.099	0.0140337
797.177	0.0139240
797.255	0.0140047
797.333	0.0139269
797.411	0.0138795
797.489	0.0139140
797.568	0.0138673
797.646	0.0138165
797.724	0.0139492
797.802	0.0137920
797.880	0.0138689
797.958	0.0139007
798.036	0.0139333
798.114	0.0138027
798.193	0.0138095
798.271	0.0138481
798.349	0.0139167
798.427	0.0139101
798.505	0.0138558
798.583	0.0138829
798.661	0.0139800
798.739	0.0140424
798.818	0.0139233
798.896	0.0137704
798.974	0.0138937
799.052	0.0140727
799.130	0.0139477
799.208	0.0139435
799.286	0.0138749
799.364	0.0138638
799.443	0.0138283
799.521	0.0138658
799.599	0.0139817
799.677	0.0139344
799.755	0.0139690
799.833	0.0139240
799.911	0.0138683
799.989	0.0138628
800.068	0.0137533
800.146	0.0138958
800.224	0.0138264
800.302	0.0138181
800.380	0.0139088
800.458	0.0138996
800.536	0.0138725
800.614	0.0138778
800.693	0.0138663
800.771	0.0138298
800.849	0.0139538
800.927	0.0139766
801.005	0.0139034
801.083	0.0137228
801.161	0.0138735
801.239	0.0139687
801.318	0.0139053
801.396	0.0137687
801.474	0.0139198
801.552	0.0139259
801.630	0.0138422
801.708	0.0139333
801.786	0.0139589
801.864	0.0139075
801.943	0.0138680
802.021	0.0139658
802.099	0.0140907
802.177	0.0139666
802.255	0.0139057
802.333	0.0138009
802.411	0.0139793
802.489	0.0141075
802.568	0.0138511
802.646	0.0138284
802.724	0.0139870
802.802	0.0139996
802.880	0.0138342
802.958	0.0138507
803.036	0.0138819
803.114	0.0139935
803.193	0.0139053
803.271	0.0139537
803.349	0.0138950
803.427	0.0139177
803.505	0.0139734
803.583	0.0138461
803.661	0.0138258
803.739	0.0138551
803.818	0.0137380
803.896	0.0139310
803.974	0.0140492
804.052	0.0139445
804.130	0.0138197
804.208	0.0138196
804.286	0.0138366
804.364	0.0138256
804.443	0.0139841
804.521	0.0139064
804.599	0.0139948
804.677	0.0139253
804.755	0.0138389
804.833	0.0139552
804.911	0.0138329
804.989	0.0140088
805.068	0.0138895
805.146	0.0140049
805.224	0.0139433
805.302	0.0138567
805.380	0.0139388
805.458	0.0139009
805.536	0.0139808
805.614	0.0139010
805.693	0.0138209
805.771	0.0139548
805.849	0.0139356
805.927	0.0139333
806.005	0.0140080
806.083	0.0140113
806.161	0.0139176
806.239	0.0138586
806.318	0.0138386
806.396	0.0139512
806.474	0.0139620
806.552	0.0140227
806.630	0.0139189
806.708	0.0139318
806.786	0.0140687
806.864	0.0139442
806.943	0.0138987
807.021	0.0139059
807.099	0.0139612
807.177	0.0137554
807.255	0.0138905
807.333	0.0139189
807.411	0.0139463
807.489	0.0139373
807.568	0.0138683
807.646	0.0139175
807.724	0.0138960
807.802	0.0139172
807.880	0.0139137
807.958	0.0138616
808.036	0.0139434
808.114	0.0139404
808.193	0.0139225
808.271	0.0140949
808.349	0.0138802
808.427	0.0139059
808.505	0.0139910
808.583	0.0138671
808.661	0.0140349
808.739	0.0139845
808.818	0.0138502
808.896	0.0139262
808.974	0.0138234
809.052	0.0139487
809.130	0.0139167
809.208	0.0138405
809.286	0.0138692
809.364	0.0139555
809.443	0.0139095
809.521	0.0138612
809.599	0.0139024
809.677	0.0138973
809.755	0.0139091
809.833	0.0138702
809.911	0.0139031
809.989	0.0139508
810.068	0.0139539
810.146	0.0140745
810.224	0.0138721
810.302	0.0140220
810.380	0.0139417
810.458	0.0138190
810.536	0.0138197
810.614	0.0140160
810.693	0.0140112
810.771	0.0138445
810.849	0.0139756
810.927	0.0139247
811.005	0.0139207
811.083	0.0138382
811.161	0.0137856
811.239	0.0138877
811.318	0.0138638
811.396	0.0139052
811.474	0.0138742
811.552	0.0140009
811.630	0.0139326
811.708	0.0138388
811.786	0.0140631
811.864	0.0140918
811.943	0.0141139
812.021	0.0139671
812.099	0.0140776
812.177	0.0139848
812.255	0.0139522
812.333	0.0140889
812.411	0.0138588
812.489	0.0137935
812.568	0.0139205
812.646	0.0139955
812.724	0.0140717
812.802	0.0140509
812.880	0.0139001
812.958	0.0138318
813.036	0.0139029
813.114	0.0140139
813.193	0.0139325
813.271	0.0139319
813.349	0.0139554
813.427	0.0139370
813.505	0.0139126
813.583	0.0139325
813.661	0.0140874
813.739	0.0138525
813.818	0.0139939
813.896	0.0139843
813.974	0.0139427
814.052	0.0139026
814.130	0.0139082
814.208	0.0139725
814.286	0.0137501
814.364	0.0138751
814.443	0.0138907
814.521	0.0139659
814.599	0.0139483
814.677	0.0138100
814.755	0.0139668
814.833	0.0139926
814.911	0.0139159
814.989	0.0139439
815.068	0.0138380
815.146	0.0139722
815.224	0.0136908
815.302	0.0137923
815.380	0.0139961
815.458	0.0140370
815.536	0.0139107
815.614	0.0138594
815.693	0.0139381
815.771	0.0140001
815.849	0.0139716
815.927	0.0139945
816.005	0.0139993
816.083	0.0139362
816.161	0.0141055
816.239	0.0140076
816.318	0.0141405
816.396	0.0140317
816.474	0.0138802
816.552	0.0139339
816.630	0.0141024
816.708	0.0140281
816.786	0.0140172
816.864	0.0139229
816.943	0.0140014
817.021	0.0141430
817.099	0.0139465
817.177	0.0139886
817.255	0.0139138
817.333	0.0140486
817.411	0.0139037
817.489	0.0139614
817.568	0.0139683
817.646	0.0140054
817.724	0.0138166
817.802	0.0139281
817.880	0.0140015
817.958	0.0137691
818.036	0.0137272
818.114	0.0137996
818.193	0.0138766
818.271	0.0138307
818.349	0.0137973
818.427	0.0137923
818.505	0.0138689
818.583	0.0138403
818.661	0.0137661
818.739	0.0137968
818.818	0.0139427
818.896	0.0138481
818.974	0.0138126
819.052	0.0139808
819.130	0.0138205
819.208	0.0138864
819.286	0.0139705
819.364	0.0140438
819.443	0.0138935
819.521	0.0140149
819.599	0.0139120
819.677	0.0140302
819.755	0.0140084
819.833	0.0140811
819.911	0.0142440
819.989	0.0140150
820.068	0.0140511
820.146	0.0141361
820.224	0.0140813
820.302	0.0139729
820.380	0.0140684
820.458	0.0140173
820.536	0.0140752
820.614	0.0140290
820.693	0.0141228
820.771	0.0139840
820.849	0.0140141
820.927	0.0139442
821.005	0.0139893
821.083	0.0139013
821.161	0.0139539
821.239	0.0138909
821.318	0.0137450
821.396	0.0137995
821.474	0.0138306
821.552	0.0137392
821.630	0.0138470
821.708	0.0136497
821.786	0.0137316
821.864	0.0136865
821.943	0.0138284
822.021	0.0137091
822.099	0.0137517
822.177	0.0138889
822.255	0.0137604
822.333	0.0137033
822.411	0.0138697
822.489	0.0137876
822.568	0.0138426
822.646	0.0138723
822.724	0.0140799
822.802	0.0139311
822.880	0.0139178
822.958	0.0140127
823.036	0.0140981
823.114	0.0141836
823.193	0.0141011
823.271	0.0142444
823.349	0.0141759
823.427	0.0141232
823.505	0.0141374
823.583	0.0141812
823.661	0.0141454
823.739	0.0140646
823.818	0.0139599
823.896	0.0139954
823.974	0.0140415
824.052	0.0141140
824.130	0.0141104
824.208	0.0140754
824.286	0.0139449
824.364	0.0140344
824.443	0.0139902
824.521	0.0139423
824.599	0.0139462
824.677	0.0138172
824.755	0.0137556
824.833	0.0139017
824.911	0.0138353
824.989	0.0138372
825.068	0.0138044
825.146	0.0136230
825.224	0.0137530
825.302	0.0138087
825.380	0.0136671
825.458	0.0136559
825.536	0.0135873
825.614	0.0136261
825.693	0.0136494
825.771	0.0136202
825.849	0.0136646
825.927	0.0136837
826.005	0.0136536
826.083	0.0137795
826.161	0.0137180
826.239	0.0136555
826.318	0.0137788
826.396	0.0138895
826.474	0.0139626
826.552	0.0138201
826.630	0.0138477
826.708	0.0139973
826.786	0.0137720
826.864	0.0140000
826.943	0.0139894
827.021	0.0141568
827.099	0.0141474
827.177	0.0141225
827.255	0.0141460
827.333	0.0140257
827.411	0.0141003
827.489	0.0141316
827.568	0.0140630
827.646	0.0141071
827.724	0.0140547
827.802	0.0141596
827.880	0.0141460
827.958	0.0141704
828.036	0.0141358
828.114	0.0140402
828.193	0.0138515
828.271	0.0139101
828.349	0.0140797
828.427	0.0139820
828.505	0.0139355
828.583	0.0138850
828.661	0.0140134
828.739	0.0140200
828.818	0.0139640
828.896	0.0139591
828.974	0.0139513
829.052	0.0138806
829.130	0.0139725
829.208	0.0139550
829.286	0.0138333
829.364	0.0138590
829.443	0.0137804
829.521	0.0137975
829.599	0.0138540
829.677	0.0138248
829.755	0.0136876
829.833	0.0138516
829.911	0.0136427
829.989	0.0137331
830.068	0.0137935
830.146	0.0136111
830.224	0.0138191
830.302	0.0136693
830.380	0.0136525
830.458	0.0138107
830.536	0.0136246
830.614	0.0137753
830.693	0.0138592
830.771	0.0138449
830.849	0.0136647
830.927	0.0134950
831.005	0.0137859
831.083	0.0137305
831.161	0.0137754
831.239	0.0135991
831.318	0.0138407
831.396	0.0136633
831.474	0.0136491
831.552	0.0139182
831.630	0.0137034
831.708	0.0139727
831.786	0.0140253
831.864	0.0141101
831.943	0.0138661
832.021	0.0139619
832.099	0.0142200
832.177	0.0141586
832.255	0.0141088
832.333	0.0141031
832.411	0.0141410
832.489	0.0141347
832.568	0.0141848
832.646	0.0143237
832.724	0.0142280
832.802	0.0142611
832.880	0.0142451
832.958	0.0141518
833.036	0.0142462
833.114	0.0141499
833.193	0.0140702
833.271	0.0140590
833.349	0.0141560
833.427	0.0140403
833.505	0.0139612
833.583	0.0140820
833.661	0.0140438
833.739	0.0140150
833.818	0.0139406
833.896	0.0137222
833.974	0.0138102
834.052	0.0139240
834.130	0.0138280
834.208	0.0138015
834.286	0.0136242
834.364	0.0138172
834.443	0.0137891
834.521	0.0136504
834.599	0.0135525
834.677	0.0136813
834.755	0.0136906
834.833	0.0137325
834.911	0.0135405
834.989	0.0136730
835.068	0.0136429
835.146	0.0135318
835.224	0.0135812
835.302	0.0136684
835.380	0.0137794
835.458	0.0138056
835.536	0.0135699
835.614	0.0137430
835.693	0.0137039
835.771	0.0136855
835.849	0.0138814
835.927	0.0139817
836.005	0.0139389
836.083	0.0139931
836.161	0.0140108
836.239	0.0140227
836.318	0.0141517
836.396	0.0140752
836.474	0.0141277
836.552	0.0140208
836.630	0.0141644
836.708	0.0141881
836.786	0.0142669
836.864	0.0141756
836.943	0.0141344
837.021	0.0141708
837.099	0.0140279
837.177	0.0141552
837.255	0.0142300
837.333	0.0141020
837.411	0.0140102
837.489	0.0140973
837.568	0.0140627
837.646	0.0140520
837.724	0.0139479
837.802	0.0138943
837.880	0.0140144
837.958	0.0139150
838.036	0.0138695
838.114	0.0139314
838.193	0.0139068
838.271	0.0138095
838.349	0.0138562
838.427	0.0139555
838.505	0.0137982
838.583	0.0139362
838.661	0.0137044
838.739	0.0137112
838.818	0.0138525
838.896	0.0140117
838.974	0.0138511
839.052	0.0138676
839.130	0.0139103
839.208	0.0138816
839.286	0.0138214
839.364	0.0139798
839.443	0.0138960
839.521	0.0139388
839.599	0.0138392
839.677	0.0138951
839.755	0.0139609
839.833	0.0138109
839.911	0.0137351
839.989	0.0138555
840.068	0.0138977
840.146	0.0138863
840.224	0.0139046
840.302	0.0137831
840.380	0.0137879
840.458	0.0138013
840.536	0.0138897
840.614	0.0137817
840.693	0.0139310
840.771	0.0137929
840.849	0.0136449
840.927	0.0137639
841.005	0.0137809
841.083	0.0138229
841.161	0.0136777
841.239	0.0137582
841.318	0.0137241
841.396	0.0137659
841.474	0.0137615
841.552	0.0138288
841.630	0.0138116
841.708	0.0138743
841.786	0.0137690
841.864	0.0139753
841.943	0.0138001
842.021	0.0141027
842.099	0.0140359
842.177	0.0139658
842.255	0.0139250
842.333	0.0139636
842.411	0.0140122
842.489	0.0141425
842.568	0.0140846
842.646	0.0140600
842.724	0.0141620
842.802	0.0141561
842.880	0.0141846
842.958	0.0142063
843.036	0.0141578
843.114	0.0141042
843.193	0.0140945
843.271	0.0142156
843.349	0.0142561
843.427	0.0142336
843.505	0.0141961
843.583	0.0141368
843.661	0.0143066
843.739	0.0142612
843.818	0.0141903
843.896	0.0141312
843.974	0.0142158
844.052	0.0141112
844.130	0.0140542
844.208	0.0141827
844.286	0.0140269
844.364	0.0141096
844.443	0.0138971
844.521	0.0140597
844.599	0.0141050
844.677	0.0139783
844.755	0.0139613
844.833	0.0139371
844.911	0.0137867
844.989	0.0137733
845.068	0.0137381
845.146	0.0136874
845.224	0.0137077
845.302	0.0136804
845.380	0.0135984
845.458	0.0135822
845.536	0.0135777
845.614	0.0136037
845.693	0.0134532
845.771	0.0136231
845.849	0.0136886
845.927	0.0135139
846.005	0.0136010
846.083	0.0135812
846.161	0.0136509
846.239	0.0136452
846.318	0.0136522
846.396	0.0137757
846.474	0.0137531
846.552	0.0137891
846.630	0.0138261
846.708	0.0137974
846.786	0.0140073
846.864	0.0140607
846.943	0.0140962
847.021	0.0143181
847.099	0.0142816
847.177	0.0141268
847.255	0.0142755
847.333	0.0143117
847.411	0.0143167
847.489	0.0143361
847.568	0.0141847
847.646	0.0143194
847.724	0.0143436
847.802	0.0141733
847.880	0.0142219
847.958	0.0144003
848.036	0.0143547
848.114	0.0142917
848.193	0.0141129
848.271	0.0140913
848.349	0.0141777
848.427	0.0142297
848.505	0.0140498
848.583	0.0139307
848.661	0.0140386
848.739	0.0140976
848.818	0.0139722
848.896	0.0138666
848.974	0.0137018
849.052	0.0138344
849.130	0.0138062
849.208	0.0135941
849.286	0.0137063
849.364	0.0137225
849.443	0.0137621
849.521	0.0136808
849.599	0.0136591
849.677	0.0136176
849.755	0.0136811
849.833	0.0137397
849.911	0.0137124
849.989	0.0136542
850.068	0.0137070
850.146	0.0137181
850.224	0.0137359
850.302	0.0136949
850.380	0.0136257
850.458	0.0137301
850.536	0.0137556
850.614	0.0136460
850.693	0.0135666
850.771	0.0135707
850.849	0.0137512
850.927	0.0136602
851.005	0.0137383
851.083	0.0136585
851.161	0.0137556
851.239	0.0139436
851.318	0.0136803
851.396	0.0138059
851.474	0.0137120
851.552	0.0138223
851.630	0.0138542
851.708	0.0138435
851.786	0.0139680
851.864	0.0139866
851.943	0.0140168
852.021	0.0138570
852.099	0.0141150
852.177	0.0141734
852.255	0.0139507
852.333	0.0140915
852.411	0.0141251
852.489	0.0141813
852.568	0.0141853
852.646	0.0141255
852.724	0.0140140
852.802	0.0140236
852.880	0.0140939
852.958	0.0140253
853.036	0.0139737
853.114	0.0139490
853.193	0.0140908
853.271	0.0140508
853.349	0.0139567
853.427	0.0140369
853.505	0.0139319
853.583	0.0139079
853.661	0.0139787
853.739	0.0138641
853.818	0.0138748
853.896	0.0138402
853.974	0.0139355
854.052	0.0138818
854.130	0.0139306
854.208	0.0137909
854.286	0.0138881
854.364	0.0139987
854.443	0.0138108
854.521	0.0138766
854.599	0.0139465
854.677	0.0137519
854.755	0.0137478
854.833	0.0137634
854.911	0.0139083
854.989	0.0138463
855.068	0.0138449
855.146	0.0138189
855.224	0.0137730
855.302	0.0138693
855.380	0.0138708
855.458	0.0138074
855.536	0.0138744
855.614	0.0139086
855.693	0.0138406
855.771	0.0138514
855.849	0.0138945
855.927	0.0138881
856.005	0.0138979
856.083	0.0139664
856.161	0.0139589
856.239	0.0138132
856.318	0.0137698
856.396	0.0138701
856.474	0.0139240
856.552	0.0139316
856.630	0.0138596
856.708	0.0137929
856.786	0.0138110
856.864	0.0139249
856.943	0.0138212
857.021	0.0139184
857.099	0.0138333
857.177	0.0139995
857.255	0.0139089
857.333	0.0139098
857.411	0.0138497
857.489	0.0139046
857.568	0.0137801
857.646	0.0138549
857.724	0.0140566
857.802	0.0141164
857.880	0.0141103
857.958	0.0138717
858.036	0.0139101
858.114	0.0140366
858.193	0.0139980
858.271	0.0139536
858.349	0.0140765
858.427	0.0140062
858.505	0.0139291
858.583	0.0140207
858.661	0.0139901
858.739	0.0141290
858.818	0.0140725
858.896	0.0141349
858.974	0.0139389
859.052	0.0140209
859.130	0.0140871
859.208	0.0139777
859.286	0.0140379
859.364	0.0139639
859.443	0.0139645
859.521	0.0139380
859.599	0.0138778
859.677	0.0139525
859.755	0.0139670
859.833	0.0140338
859.911	0.0139877
859.989	0.0139262
860.068	0.0139959
860.146	0.0138249
860.224	0.0138203
860.302	0.0138490
860.380	0.0139501
860.458	0.0138034
860.536	0.0138409
860.614	0.0139902
860.693	0.0140926
860.771	0.0138926
860.849	0.0138910
860.927	0.0139128
861.005	0.0139641
861.083	0.0140696
861.161	0.0139448
861.239	0.0141284
861.318	0.0138704
861.396	0.0140057
861.474	0.0140902
861.552	0.0138941
861.630	0.0139096
861.708	0.0139260
861.786	0.0139817
861.864	0.0140031
861.943	0.0141389
862.021	0.0140623
862.099	0.0139701
862.177	0.0139497
862.255	0.0138263
862.333	0.0137396
862.411	0.0140910
862.489	0.0140887
862.568	0.0139246
862.646	0.0140241
862.724	0.0139464
862.802	0.0140013
862.880	0.0140269
862.958	0.0139802
863.036	0.0140744
863.114	0.0141257
863.193	0.0139633
863.271	0.0140610
863.349	0.0140701
863.427	0.0138970
863.505	0.0139678
863.583	0.0139096
863.661	0.0139926
863.739	0.0140195
863.818	0.0141024
863.896	0.0139785
863.974	0.0138880
864.052	0.0139993
864.130	0.0141692
864.208	0.0140244
864.286	0.0141269
864.364	0.0139597
864.443	0.0139874
864.521	0.0140462
864.599	0.0140564
864.677	0.0138902
864.755	0.0139244
864.833	0.0138689
864.911	0.0138864
864.989	0.0138183
865.068	0.0140546
865.146	0.0138965
865.224	0.0138972
865.302	0.0138100
865.380	0.0137556
865.458	0.0138969
865.536	0.0139064
865.614	0.0139040
865.693	0.0138277
865.771	0.0138154
865.849	0.0138763
865.927	0.0139388
866.005	0.0138160
866.083	0.0140047
866.161	0.0138821
866.239	0.0138737
866.318	0.0140659
866.396	0.0139716
866.474	0.0139835
866.552	0.0141009
866.630	0.0140569
866.708	0.0141910
866.786	0.0140155
866.864	0.0141363
866.943	0.0143627
867.021	0.0141264
867.099	0.0141294
867.177	0.0142095
867.255	0.0141929
867.333	0.0142891
867.411	0.0142563
867.489	0.0142494
867.568	0.0141071
867.646	0.0144085
867.724	0.0142755
867.802	0.0142013
867.880	0.0143205
867.958	0.0140965
868.036	0.0141474
868.114	0.0141508
868.193	0.0139761
868.271	0.0140732
868.349	0.0140643
868.427	0.0138934
868.505	0.0139150
868.583	0.0138853
868.661	0.0138521
868.739	0.0138812
868.818	0.0139087
868.896	0.0136481
868.974	0.0138569
869.052	0.0137394
869.130	0.0137860
869.208	0.0137618
869.286	0.0137541
869.364	0.0136938
869.443	0.0136475
869.521	0.0138241
869.599	0.0137183
869.677	0.0136689
869.755	0.0136888
869.833	0.0137376
869.911	0.0137584
869.989	0.0137809
870.068	0.0136929
870.146	0.0137756
870.224	0.0136926
870.302	0.0137212
870.380	0.0136554
870.458	0.0137585
870.536	0.0139212
870.614	0.0138138
870.693	0.0136555
870.771	0.0137654
870.849	0.0139133
870.927	0.0140097
871.005	0.0139292
871.083	0.0139946
871.161	0.0138451
871.239	0.0140558
871.318	0.0140634
871.396	0.0140009
871.474	0.0140778
871.552	0.0140189
871.630	0.0139668
871.708	0.0140564
871.786	0.0141757
871.864	0.0141317
871.943	0.0140667
872.021	0.0140875
872.099	0.0142184
872.177	0.0142085
872.255	0.0140601
872.333	0.0141413
872.411	0.0141821
872.489	0.0141759
872.568	0.0142072
872.646	0.0142330
872.724	0.0141370
872.802	0.0141328
872.880	0.0142465
872.958	0.0139753
873.036	0.0139871
873.114	0.0139960
873.193	0.0141786
873.271	0.0140441
873.349	0.0140542
873.427	0.0139231
873.505	0.0139167
873.583	0.0138701
873.661	0.0138672
873.739	0.0138895
873.818	0.0138741
873.896	0.0138870
873.974	0.0138733
874.052	0.0137894
874.130	0.0137579
874.208	0.0137738
874.286	0.0138929
874.364	0.0138275
874.443	0.0137083
874.521	0.0138138
874.599	0.0138011
874.677	0.0137981
874.755	0.0137598
874.833	0.0137630
874.911	0.0136624
874.989	0.0137698
875.068	0.0138230
875.146	0.0138975
875.224	0.0137473
875.302	0.0137397
875.380	0.0138483
875.458	0.0138521
875.536	0.0138779
875.614	0.0138412
875.693	0.0139039
875.771	0.0137371
875.849	0.0139070
875.927	0.0139650
876.005	0.0139085
876.083	0.0138754
876.161	0.0138840
876.239	0.0137986
876.318	0.0138741
876.396	0.0138156
876.474	0.0138557
876.552	0.0137893
876.630	0.0138280
876.708	0.0137187
876.786	0.0137720
876.864	0.0138309
876.943	0.0138404
877.021	0.0137044
877.099	0.0136954
877.177	0.0138130
877.255	0.0138567
877.333	0.0137104
877.411	0.0138613
877.489	0.0138539
877.568	0.0138939
877.646	0.0138765
877.724	0.0138816
877.802	0.0138570
877.880	0.0138846
877.958	0.0140736
878.036	0.0139292
878.114	0.0138454
878.193	0.0137509
878.271	0.0138610
878.349	0.0139915
878.427	0.0139882
878.505	0.0139080
878.583	0.0138643
878.661	0.0139374
878.739	0.0140732
878.818	0.0141096
878.896	0.0141096
878.974	0.0140984
879.052	0.0141106
879.130	0.0141436
879.208	0.0141123
879.286	0.0141106
879.364	0.0143307
879.443	0.0142422
879.521	0.0141483
879.599	0.0142699
879.677	0.0142678
879.755	0.0143549
879.833	0.0144107
879.911	0.0141519
879.989	0.0141532
880.068	0.0142727
880.146	0.0141779
880.224	0.0142208
880.302	0.0142449
880.380	0.0140730
880.458	0.0139709
880.536	0.0141463
880.614	0.0141856
880.693	0.0141443
880.771	0.0141494
880.849	0.0140277
880.927	0.0138090
881.005	0.0139211
881.083	0.0140244
881.161	0.0139558
881.239	0.0138021
881.318	0.0137623
881.396	0.0139359
881.474	0.0138492
881.552	0.0136967
881.630	0.0137495
881.708	0.0137748
881.786	0.0136092
881.864	0.0137271
881.943	0.0136463
882.021	0.0135814
882.099	0.0136500
882.177	0.0137492
882.255	0.0136575
882.333	0.0137086
882.411	0.0136614
882.489	0.0136267
882.568	0.0137214
882.646	0.0137411
882.724	0.0138033
882.802	0.0137965
882.880	0.0139418
882.958	0.0138502
883.036	0.0139945
883.114	0.0138255
883.193	0.0139115
883.271	0.0139610
883.349	0.0139876
883.427	0.0140417
883.505	0.0141359
883.583	0.0140614
883.661	0.0140631
883.739	0.0141774
883.818	0.0140581
883.896	0.0140907
883.974	0.0141087
884.052	0.0142286
884.130	0.0143110
884.208	0.0141596
884.286	0.0143119
884.364	0.0142431
884.443	0.0142252
884.521	0.0142522
884.599	0.0142752
884.677	0.0142231
884.755	0.0142401
884.833	0.0142243
884.911	0.0142223
884.989	0.0139591
885.068	0.0142800
885.146	0.0143720
885.224	0.0140986
885.302	0.0141557
885.380	0.0142326
885.458	0.0141596
885.536	0.0141732
885.614	0.0141506
885.693	0.0140937
885.771	0.0141147
885.849	0.0140357
885.927	0.0140242
886.005	0.0138708
886.083	0.0140617
886.161	0.0140008
886.239	0.0140073
886.318	0.0138623
886.396	0.0139753
886.474	0.0139080
886.552	0.0138926
886.630	0.0138252
886.708	0.0139165
886.786	0.0140116
886.864	0.0139722
886.943	0.0138292
887.021	0.0138857
887.099	0.0139326
887.177	0.0137969
887.255	0.0137174
887.333	0.0138461
887.411	0.0137957
887.489	0.0138000
887.568	0.0138591
887.646	0.0138370
887.724	0.0137292
887.802	0.0138202
887.880	0.0140601
887.958	0.0138681
888.036	0.0138744
888.114	0.0138393
888.193	0.0137893
888.271	0.0138467
888.349	0.0139478
888.427	0.0139566
888.505	0.0138528
888.583	0.0139310
888.661	0.0138574
888.739	0.0138492
888.818	0.0139954
888.896	0.0138055
888.974	0.0137157
889.052	0.0138796
889.130	0.0138460
889.208	0.0138216
889.286	0.0138936
889.364	0.0138821
889.443	0.0139292
889.521	0.0138052
889.599	0.0139255
889.677	0.0138627
889.755	0.0138280
889.833	0.0138634
889.911	0.0139864
889.989	0.0140018
890.068	0.0139565
890.146	0.0139700
890.224	0.0140417
890.302	0.0140498
890.380	0.0140376
890.458	0.0140292
890.536	0.0140990
890.614	0.0141393
890.693	0.0142465
890.771	0.0141400
890.849	0.0141701
890.927	0.0143716
891.005	0.0143172
891.083	0.0141577
891.161	0.0142908
891.239	0.0141315
891.318	0.0143671
891.396	0.0142855
891.474	0.0141935
891.552	0.0140997
891.630	0.0141405
891.708	0.0140826
891.786	0.0141183
891.864	0.0140602
891.943	0.0140639
892.021	0.0141743
892.099	0.0140311
892.177	0.0140921
892.255	0.0140305
892.333	0.0139507
892.411	0.0140231
892.489	0.0139954
892.568	0.0138848
892.646	0.0138747
892.724	0.0138498
892.802	0.0138404
892.880	0.0139156
892.958	0.0137765
893.036	0.0137589
893.114	0.0138488
893.193	0.0138700
893.271	0.0136842
893.349	0.0137257
893.427	0.0136441
893.505	0.0137983
893.583	0.0137762
893.661	0.0137895
893.739	0.0136845
893.818	0.0136752
893.896	0.0137864
893.974	0.0137549
894.052	0.0138178
894.130	0.0137565
894.208	0.0136279
894.286	0.0137029
894.364	0.0138222
894.443	0.0138590
894.521	0.0136246
894.599	0.0137448
894.677	0.0138036
894.755	0.0138524
894.833	0.0137569
894.911	0.0138959
894.989	0.0140863
895.068	0.0139241
895.146	0.0140410
895.224	0.0139649
895.302	0.0141200
895.380	0.0141496
895.458	0.0141206
895.536	0.0141251
895.614	0.0141541
895.693	0.0142451
895.771	0.0141721
895.849	0.0140956
895.927	0.0140894
896.005	0.0142223
896.083	0.0142094
896.161	0.0142971
896.239	0.0141583
896.318	0.0141340
896.396	0.0140911
896.474	0.0141137
896.552	0.0142022
896.630	0.0140759
896.708	0.0140051
896.786	0.0141196
896.864	0.0140684
896.943	0.0140762
897.021	0.0141143
897.099	0.0138058
897.177	0.0138506
897.255	0.0139848
897.333	0.0139089
897.411	0.0140300
897.489	0.0138697
897.568	0.0138734
897.646	0.0137534
897.724	0.0138684
897.802	0.0137803
897.880	0.0137895
897.958	0.0137653
898.036	0.0137057
898.114	0.0137894
898.193	0.0139069
898.271	0.0135873
898.349	0.0137447
898.427	0.0139157
898.505	0.0136855
898.583	0.0137318
898.661	0.0137531
898.739	0.0139375
898.818	0.0138741
898.896	0.0137537
898.974	0.0137743
899.052	0.0138131
899.130	0.0137297
899.208	0.0138432
899.286	0.0138354
899.364	0.0139671
899.443	0.0139507
899.521	0.0138170
899.599	0.0139441
899.677	0.0140247
899.755	0.0139048
899.833	0.0139225
899.911	0.0139902
899.989	0.0140533
900.068	0.0140150
900.146	0.0140579
900.224	0.0139584
900.302	0.0140983
900.380	0.0140936
900.458	0.0140347
900.536	0.0140726
900.614	0.0139905
900.693	0.0140594
900.771	0.0140614
900.849	0.0139904
900.927	0.0140687
901.005	0.0140202
901.083	0.0139864
901.161	0.0140569
901.239	0.0141219
901.318	0.0140575
901.396	0.0139612
901.474	0.0139507
901.552	0.0140028
901.630	0.0140129
901.708	0.0140321
901.786	0.0138927
901.864	0.0137840
901.943	0.0138613
902.021	0.0137325
902.099	0.0139013
902.177	0.0138676
902.255	0.0138491
902.333	0.0137981
902.411	0.0138476
902.489	0.0138804
902.568	0.0139051
902.646	0.0137810
902.724	0.0138348
902.802	0.0138724
902.880	0.0139443
902.958	0.0139289
903.036	0.0140199
903.114	0.0139159
903.193	0.0137911
903.271	0.0137967
903.349	0.0139095
903.427	0.0139275
903.505	0.0139584
903.583	0.0138963
903.661	0.0138705
903.739	0.0138961
903.818	0.0139894
903.896	0.0139902
903.974	0.0140404
904.052	0.0140295
904.130	0.0139132
904.208	0.0139802
904.286	0.0139890
904.364	0.0139703
904.443	0.0139627
904.521	0.0138982
904.599	0.0139342
904.677	0.0139438
904.755	0.0139577
904.833	0.0139635
904.911	0.0140524
904.989	0.0140512
905.068	0.0142384
905.146	0.0138484
905.224	0.0139158
905.302	0.0141426
905.380	0.0140033
905.458	0.0139937
905.536	0.0138934
905.614	0.0139912
905.693	0.0139951
905.771	0.0138786
905.849	0.0139837
905.927	0.0139565
906.005	0.0140275
906.083	0.0139822
906.161	0.0139907
906.239	0.0140214
906.318	0.0139359
906.396	0.0138943
906.474	0.0138892
906.552	0.0140685
906.630	0.0140575
906.708	0.0139661
906.786	0.0140368
906.864	0.0139475
906.943	0.0139845
907.021	0.0139178
907.099	0.0139631
907.177	0.0138120
907.255	0.0139793
907.333	0.0141116
907.411	0.0141610
907.489	0.0139458
907.568	0.0139880
907.646	0.0140441
907.724	0.0141457
907.802	0.0140865
907.880	0.0141055
907.958	0.0139057
908.036	0.0139680
908.114	0.0140062
908.193	0.0140730
908.271	0.0139741
908.349	0.0139403
908.427	0.0140428
908.505	0.0140087
908.583	0.0139223
908.661	0.0139831
908.739	0.0140672
908.818	0.0140037
908.896	0.0141003
908.974	0.0139582
909.052	0.0140048
909.130	0.0138142
909.208	0.0139670
909.286	0.0139681
909.364	0.0139541
909.443	0.0138351
909.521	0.0138930
909.599	0.0140211
909.677	0.0139143
909.755	0.0139214
909.833	0.0139430
909.911	0.0139452
909.989	0.0138216
910.068	0.0139626
910.146	0.0138696
910.224	0.0138713
910.302	0.0138387
910.380	0.0138190
910.458	0.0138885
910.536	0.0137341
910.614	0.0139133
910.693	0.0138239
910.771	0.0139931
910.849	0.0138729
910.927	0.0138778
911.005	0.0138493
911.083	0.0138287
911.161	0.0139378
911.239	0.0139948
911.318	0.0138304
911.396	0.0139433
911.474	0.0138959
911.552	0.0138807
911.630	0.0139535
911.708	0.0138879
911.786	0.0138579
911.864	0.0138940
911.943	0.0139822
912.021	0.0139401
912.099	0.0140568
912.177	0.0140026
912.255	0.0138226
912.333	0.0139990
912.411	0.0139845
912.489	0.0139625
912.568	0.0140627
912.646	0.0140202
912.724	0.0139487
912.802	0.0139987
912.880	0.0140083
912.958	0.0139766
913.036	0.0139925
913.114	0.0139570
913.193	0.0139761
913.271	0.0140812
913.349	0.0138943
913.427	0.0140260
913.505	0.0139638
913.583	0.0138412
913.661	0.0139617
913.739	0.0139194
913.818	0.0139226
913.896	0.0138843
913.974	0.0140277
914.052	0.0138850
914.130	0.0138620
914.208	0.0139062
914.286	0.0139341
914.364	0.0138539
914.443	0.0138438
914.521	0.0139083
914.599	0.0139945
914.677	0.0139860
914.755	0.0139723
914.833	0.0138669
914.911	0.0139361
914.989	0.0139238
915.068	0.0138588
915.146	0.0139552
915.224	0.0138499
915.302	0.0139375
915.380	0.0137766
915.458	0.0140247
915.536	0.0140695
915.614	0.0137598
915.693	0.0139859
915.771	0.0138558
915.849	0.0139561
915.927	0.0139233
916.005	0.0137282
916.083	0.0140068
916.161	0.0139550
916.239	0.0138029
916.318	0.0138544
916.396	0.0139084
916.474	0.0139569
916.552	0.0138200
916.630	0.0138583
916.708	0.0139506
916.786	0.0138824
916.864	0.0138596
916.943	0.0138778
917.021	0.0138792
917.099	0.0138139
917.177	0.0137372
917.255	0.0138400
917.333	0.0138435
917.411	0.0137882
917.489	0.0138050
917.568	0.0137514
917.646	0.0138425
917.724	0.0139069
917.802	0.0138579
917.880	0.0138173
917.958	0.0137720
918.036	0.0138824
918.114	0.0138908
918.193	0.0139547
918.271	0.0138517
918.349	0.0137411
918.427	0.0138808
918.505	0.0139491
918.583	0.0138654
918.661	0.0139720
918.739	0.0139719
918.818	0.0139098
918.896	0.0139202
918.974	0.0140212
919.052	0.0139642
919.130	0.0140200
919.208	0.0141478
919.286	0.0141844
919.364	0.0140452
919.443	0.0140281
919.521	0.0139809
919.599	0.0140787
919.677	0.0139918
919.755	0.0140897
919.833	0.0140543
919.911	0.0139940
919.989	0.0139501
920.068	0.0140327
920.146	0.0139987
920.224	0.0139185
920.302	0.0138605
920.380	0.0140090
920.458	0.0140751
920.536	0.0139501
920.614	0.0139046
920.693	0.0139530
920.771	0.0139040
920.849	0.0138214
920.927	0.0137917
921.005	0.0139337
921.083	0.0138088
921.161	0.0139083
921.239	0.0139101
921.318	0.0139619
921.396	0.0137945
921.474	0.0137362
921.552	0.0137932
921.630	0.0138176
921.708	0.0137979
921.786	0.0137341
921.864	0.0137561
921.943	0.0135908
922.021	0.0137653
922.099	0.0136633
922.177	0.0136924
922.255	0.0136162
922.333	0.0137572
922.411	0.0137617
922.489	0.0136210
922.568	0.0137248
922.646	0.0137457
922.724	0.0137027
922.802	0.0137369
922.880	0.0137032
922.958	0.0136452
923.036	0.0137351
923.114	0.0137923
923.193	0.0137713
923.271	0.0138091
923.349	0.0138249
923.427	0.0139441
923.505	0.0139221
923.583	0.0139552
923.661	0.0139597
923.739	0.0139569
923.818	0.0140112
923.896	0.0139285
923.974	0.0139503
924.052	0.0140205
924.130	0.0140991
924.208	0.0141714
924.286	0.0140131
924.364	0.0141362
924.443	0.0140060
924.521	0.0141914
924.599	0.0140846
924.677	0.0140892
924.755	0.0140694
924.833	0.0142157
924.911	0.0140298
924.989	0.0139470
925.068	0.0140834
925.146	0.0140088
925.224	0.0140374
925.302	0.0139007
925.380	0.0138883
925.458	0.0139153
925.536	0.0139730
925.614	0.0140137
925.693	0.0139682
925.771	0.0139741
925.849	0.0139373
925.927	0.0138368
926.005	0.0139317
926.083	0.0139014
926.161	0.0139425
926.239	0.0138358
926.318	0.0136865
926.396	0.0138795
926.474	0.0139175
926.552	0.0137223
926.630	0.0136819
926.708	0.0138804
926.786	0.0139271
926.864	0.0137426
926.943	0.0137814
927.021	0.0138714
927.099	0.0138459
927.177	0.0137099
927.255	0.0137691
927.333	0.0139308
927.411	0.0138255
927.489	0.0139179
927.568	0.0139487
927.646	0.0138885
927.724	0.0138461
927.802	0.0139648
927.880	0.0138171
927.958	0.0138200
928.036	0.0139381
928.114	0.0139803
928.193	0.0138023
928.271	0.0138048
928.349	0.0138387
928.427	0.0137439
928.505	0.0138161
928.583	0.0138468
928.661	0.0138857
928.739	0.0139092
928.818	0.0139809
928.896	0.0138541
928.974	0.0140517
929.052	0.0138808
929.130	0.0139270
929.208	0.0139441
929.286	0.0139360
929.364	0.0138824
929.443	0.0138719
929.521	0.0139879
929.599	0.0139223
929.677	0.0139301
929.755	0.0140439
929.833	0.0139055
929.911	0.0139867
929.989	0.0138924
930.068	0.0140147
930.146	0.0139079
930.224	0.0139194
930.302	0.0139575
930.380	0.0138580
930.458	0.0137811
930.536	0.0138398
930.614	0.0138889
930.693	0.0138872
930.771	0.0138116
930.849	0.0136605
930.927	0.0138066
931.005	0.0137853
931.083	0.0137901
931.161	0.0136802
931.239	0.0136917
931.318	0.0136986
931.396	0.0137658
931.474	0.0137782
931.552	0.0138095
931.630	0.0138331
931.708	0.0139360
931.786	0.0137655
931.864	0.0139845
931.943	0.0138396
932.021	0.0138264
932.099	0.0138022
932.177	0.0138276
932.255	0.0140408
932.333	0.0139872
932.411	0.0137528
932.489	0.0136034
932.568	0.0139436
932.646	0.0138998
932.724	0.0137460
932.802	0.0138029
932.880	0.0139323
932.958	0.0139680
933.036	0.0139759
933.114	0.0139005
933.193	0.0140477
933.271	0.0139899
933.349	0.0138474
933.427	0.0139795
933.505	0.0139480
933.583	0.0140376
933.661	0.0139857
933.739	0.0139509
933.818	0.0139554
933.896	0.0138402
933.974	0.0139767
934.052	0.0139614
934.130	0.0140424
934.208	0.0137994
934.286	0.0138125
934.364	0.0139604
934.443	0.0139913
934.521	0.0138647
934.599	0.0140138
934.677	0.0139328
934.755	0.0138854
934.833	0.0139508
934.911	0.0137912
934.989	0.0137569
935.068	0.0137220
935.146	0.0138193
935.224	0.0138680
935.302	0.0138248
935.380	0.0137476
935.458	0.0137559
935.536	0.0138080
935.614	0.0136239
935.693	0.0137074
935.771	0.0138691
935.849	0.0137437
935.927	0.0138643
936.005	0.0137470
936.083	0.0138055
936.161	0.0137283
936.239	0.0138157
936.318	0.0138758
936.396	0.0139324
936.474	0.0138256
936.552	0.0139428
936.630	0.0139354
936.708	0.0140491
936.786	0.0138740
936.864	0.0138373
936.943	0.0138700
937.021	0.0140839
937.099	0.0139562
937.177	0.0138757
937.255	0.0140030
937.333	0.0140923
937.411	0.0139181
937.489	0.0139986
937.568	0.0140793
937.646	0.0141329
937.724	0.0140181
937.802	0.0140405
937.880	0.0141191
937.958	0.0139678
938.036	0.0139718
938.114	0.0140417
938.193	0.0139214
938.271	0.0139268
938.349	0.0139697
938.427	0.0140368
938.505	0.0139145
938.583	0.0139474
938.661	0.0140837
938.739	0.0139499
938.818	0.0139447
938.896	0.0137727
938.974	0.0139011
939.052	0.0138470
939.130	0.0138826
939.208	0.0140746
939.286	0.0139484
939.364	0.0138953
939.443	0.0138641
939.521	0.0139149
939.599	0.0138214
939.677	0.0138280
939.755	0.0139149
939.833	0.0138844
939.911	0.0138795
939.989	0.0138493
940.068	0.0139495
940.146	0.0138094
940.224	0.0138222
940.302	0.0139111
940.380	0.0138284
940.458	0.0138198
940.536	0.0139745
940.614	0.0139747
940.693	0.0138358
940.771	0.0138910
940.849	0.0141595
940.927	0.0140542
941.005	0.0138369
941.083	0.0138998
941.161	0.0139281
941.239	0.0139797
941.318	0.0139461
941.396	0.0138148
941.474	0.0138718
941.552	0.0138236
941.630	0.0138679
941.708	0.0139515
941.786	0.0139236
941.864	0.0138587
941.943	0.0139463
942.021	0.0140041
942.099	0.0139162
942.177	0.0138630
942.255	0.0139761
942.333	0.0138084
942.411	0.0138371
942.489	0.0140166
942.568	0.0138503
942.646	0.0140466
942.724	0.0139912
942.802	0.0139210
942.880	0.0139885
942.958	0.0139232
943.036	0.0138550
943.114	0.0139756
943.193	0.0139194
943.271	0.0140446
943.349	0.0139055
943.427	0.0140147
943.505	0.0140124
943.583	0.0140199
943.661	0.0139928
943.739	0.0139713
943.818	0.0138570
943.896	0.0139764
943.974	0.0138123
944.052	0.0139532
944.130	0.0138164
944.208	0.0139620
944.286	0.0139123
944.364	0.0140347
944.443	0.0140340
944.521	0.0139594
944.599	0.0138762
944.677	0.0139880
944.755	0.0139548
944.833	0.0137898
944.911	0.0138480
944.989	0.0138493
945.068	0.0137704
945.146	0.0139262
945.224	0.0137920
945.302	0.0138463
945.380	0.0138997
945.458	0.0137928
945.536	0.0138649
945.614	0.0138831
945.693	0.0138770
945.771	0.0138554
945.849	0.0139081
945.927	0.0138505
946.005	0.0139176
946.083	0.0138762
946.161	0.0138177
946.239	0.0138644
946.318	0.0138201
946.396	0.0139462
946.474	0.0139008
946.552	0.0139246
946.630	0.0138567
946.708	0.0139153
946.786	0.0139415
946.864	0.0138595
946.943	0.0138007
947.021	0.0138724
947.099	0.0138569
947.177	0.0139172
947.255	0.0140462
947.333	0.0139065
947.411	0.0139712
947.489	0.0139630
947.568	0.0139207
947.646	0.0139843
947.724	0.0140276
947.802	0.0139302
947.880	0.0139037
947.958	0.0140191
948.036	0.0140595
948.114	0.0140836
948.193	0.0139983
948.271	0.0139296
948.349	0.0139703
948.427	0.0139484
948.505	0.0139702
948.583	0.0140395
948.661	0.0140087
948.739	0.0138381
948.818	0.0140005
948.896	0.0138858
948.974	0.0140972
949.052	0.0140133
949.130	0.0139520
949.208	0.0139674
949.286	0.0139664
949.364	0.0140363
949.443	0.0139828
949.521	0.0139719
949.599	0.0138988
949.677	0.0138891
949.755	0.0139281
949.833	0.0139481
949.911	0.0139642
949.989	0.0140147
950.068	0.0140097
950.146	0.0139723
950.224	0.0140147
950.302	0.0138282
950.380	0.0139296
950.458	0.0139341
950.536	0.0139484
950.614	0.0138181
950.693	0.0139276
950.771	0.0140354
950.849	0.0139638
950.927	0.0138781
951.005	0.0139501
951.083	0.0140295
951.161	0.0139911
951.239	0.0138645
951.318	0.0139133
951.396	0.0139515
951.474	0.0139959
951.552	0.0138889
951.630	0.0139362
951.708	0.0139242
951.786	0.0139511
951.864	0.0140294
951.943	0.0140307
952.021	0.0138889
952.099	0.0139756
952.177	0.0140676
952.255	0.0140546
952.333	0.0139738
952.411	0.0138152
952.489	0.0140939
952.568	0.0139274
952.646	0.0139443
952.724	0.0140642
952.802	0.0138924
952.880	0.0138271
952.958	0.0139800
953.036	0.0138811
953.114	0.0139345
953.193	0.0139870
953.271	0.0137048
953.349	0.0138387
953.427	0.0138776
953.505	0.0138961
953.583	0.0139291
953.661	0.0138873
953.739	0.0139053
953.818	0.0138757
953.896	0.0138469
953.974	0.0138134
954.052	0.0137711
954.130	0.0138485
954.208	0.0138443
954.286	0.0139795
954.364	0.0139811
954.443	0.0139326
954.521	0.0140831
954.599	0.0140022
954.677	0.0140251
954.755	0.0139267
954.833	0.0139757
954.911	0.0140772
954.989	0.0139368
955.068	0.0140102
955.146	0.0140862
955.224	0.0139856
955.302	0.0139589
955.380	0.0140746
955.458	0.0139871
955.536	0.0139976
955.614	0.0140730
955.693	0.0139299
955.771	0.0138660
955.849	0.0139720
955.927	0.0139305
956.005	0.0139410
956.083	0.0140662
956.161	0.0139942
956.239	0.0140187
956.318	0.0139439
956.396	0.0140134
956.474	0.0140234
956.552	0.0139767
956.630	0.0140115
956.708	0.0140296
956.786	0.0139349
956.864	0.0139062
956.943	0.0139598
957.021	0.0138628
957.099	0.0139273
957.177	0.0138367
957.255	0.0139283
957.333	0.0139488
957.411	0.0138198
957.489	0.0138978
957.568	0.0137608
957.646	0.0138816
957.724	0.0137745
957.802	0.0138355
957.880	0.0139318
957.958	0.0139359
958.036	0.0138760
958.114	0.0138888
958.193	0.0139168
958.271	0.0139032
958.349	0.0139362
958.427	0.0139318
958.505	0.0138001
958.583	0.0138588
958.661	0.0138947
958.739	0.0140676
958.818	0.0139819
958.896	0.0139716
958.974	0.0140437
959.052	0.0139413
959.130	0.0139548
959.208	0.0139624
959.286	0.0141084
959.364	0.0138685
959.443	0.0140065
959.521	0.0140387
959.599	0.0138741
959.677	0.0139876
959.755	0.0140301
959.833	0.0139933
959.911	0.0141253
