05/14/2022	16:45:52	Ver.	4.1	UNKNOWN
Optical Delay	639.989416	Delta X		0.078125	Sweeps	1	Scan Rate	0/0
Coordinates	Axis 1	NaN	Axis 2	NaN	Axis 3	NaN	Axis 4	NaN	Axis 5	NaN	Axis 6	0.000000
TX Power	0.000000	RX Power	0.000000

639.989	0.0136298
640.068	0.0136108
640.146	0.0137186
640.224	0.0137029
640.302	0.0137480
640.380	0.0137743
640.458	0.0136967
640.536	0.0136121
640.614	0.0137180
640.693	0.0136715
640.771	0.0135586
640.849	0.0136301
640.927	0.0135831
641.005	0.0135759
641.083	0.0135230
641.161	0.0135731
641.239	0.0135495
641.318	0.0136999
641.396	0.0135359
641.474	0.0134374
641.552	0.0136562
641.630	0.0135694
641.708	0.0135870
641.786	0.0136761
641.864	0.0136913
641.943	0.0135268
642.021	0.0135893
642.099	0.0135378
642.177	0.0135091
642.255	0.0135237
642.333	0.0136568
642.411	0.0136042
642.489	0.0135384
642.568	0.0135219
642.646	0.0136536
642.724	0.0136897
642.802	0.0136115
642.880	0.0135733
642.958	0.0137099
643.036	0.0136979
643.114	0.0136210
643.193	0.0136501
643.271	0.0136437
643.349	0.0136863
643.427	0.0135886
643.505	0.0136651
643.583	0.0136883
643.661	0.0138387
643.739	0.0137622
643.818	0.0137820
643.896	0.0137848
643.974	0.0136472
644.052	0.0136861
644.130	0.0136638
644.208	0.0138014
644.286	0.0138332
644.364	0.0137785
644.443	0.0137513
644.521	0.0134865
644.599	0.0136037
644.677	0.0137463
644.755	0.0138829
644.833	0.0137891
644.911	0.0138208
644.989	0.0136394
645.068	0.0137160
645.146	0.0136965
645.224	0.0136271
645.302	0.0136857
645.380	0.0136532
645.458	0.0135655
645.536	0.0136461
645.614	0.0135953
645.693	0.0136794
645.771	0.0136256
645.849	0.0135717
645.927	0.0135523
646.005	0.0135262
646.083	0.0135675
646.161	0.0135972
646.239	0.0135928
646.318	0.0135321
646.396	0.0134950
646.474	0.0136122
646.552	0.0135834
646.630	0.0134380
646.708	0.0133552
646.786	0.0135685
646.864	0.0135485
646.943	0.0134185
647.021	0.0135055
647.099	0.0135212
647.177	0.0136806
647.255	0.0135710
647.333	0.0135455
647.411	0.0135766
647.489	0.0134543
647.568	0.0134280
647.646	0.0135054
647.724	0.0135912
647.802	0.0134160
647.880	0.0135490
647.958	0.0135710
648.036	0.0135429
648.114	0.0134361
648.193	0.0135097
648.271	0.0133578
648.349	0.0134952
648.427	0.0135354
648.505	0.0134406
648.583	0.0134528
648.661	0.0133131
648.739	0.0133916
648.818	0.0133170
648.896	0.0133237
648.974	0.0133656
649.052	0.0133967
649.130	0.0134865
649.208	0.0133900
649.286	0.0134106
649.364	0.0133521
649.443	0.0134078
649.521	0.0133379
649.599	0.0132442
649.677	0.0133831
649.755	0.0134948
649.833	0.0133335
649.911	0.0132035
649.989	0.0133234
650.068	0.0133905
650.146	0.0133213
650.224	0.0133733
650.302	0.0133849
650.380	0.0133450
650.458	0.0133124
650.536	0.0134312
650.614	0.0134186
650.693	0.0132603
650.771	0.0133823
650.849	0.0134945
650.927	0.0134940
651.005	0.0134864
651.083	0.0134543
651.161	0.0135078
651.239	0.0136469
651.318	0.0133746
651.396	0.0135040
651.474	0.0134751
651.552	0.0134601
651.630	0.0135499
651.708	0.0133847
651.786	0.0135767
651.864	0.0136375
651.943	0.0134972
652.021	0.0135416
652.099	0.0134957
652.177	0.0136225
652.255	0.0135632
652.333	0.0134901
652.411	0.0134982
652.489	0.0135594
652.568	0.0134547
652.646	0.0135020
652.724	0.0134249
652.802	0.0134432
652.880	0.0132861
652.958	0.0133632
653.036	0.0133315
653.114	0.0134783
653.193	0.0134920
653.271	0.0134516
653.349	0.0134464
653.427	0.0133967
653.505	0.0134641
653.583	0.0134692
653.661	0.0135800
653.739	0.0134378
653.818	0.0134282
653.896	0.0133566
653.974	0.0133239
654.052	0.0134061
654.130	0.0132909
654.208	0.0133064
654.286	0.0134586
654.364	0.0134317
654.443	0.0133875
654.521	0.0133664
654.599	0.0135728
654.677	0.0134718
654.755	0.0134478
654.833	0.0134785
654.911	0.0135682
654.989	0.0136142
655.068	0.0134888
655.146	0.0134501
655.224	0.0135453
655.302	0.0135838
655.380	0.0135928
655.458	0.0134907
655.536	0.0135281
655.614	0.0134515
655.693	0.0135903
655.771	0.0136414
655.849	0.0136066
655.927	0.0137743
656.005	0.0137996
656.083	0.0135404
656.161	0.0136115
656.239	0.0136732
656.318	0.0135783
656.396	0.0135943
656.474	0.0137784
656.552	0.0137669
656.630	0.0135853
656.708	0.0136963
656.786	0.0136219
656.864	0.0136069
656.943	0.0136317
657.021	0.0138989
657.099	0.0137788
657.177	0.0137685
657.255	0.0137585
657.333	0.0139509
657.411	0.0137985
657.489	0.0138052
657.568	0.0140210
657.646	0.0138773
657.724	0.0140681
657.802	0.0138703
657.880	0.0139595
657.958	0.0139140
658.036	0.0137238
658.114	0.0139291
658.193	0.0139428
658.271	0.0137971
658.349	0.0138884
658.427	0.0138839
658.505	0.0137806
658.583	0.0138807
658.661	0.0136819
658.739	0.0136234
658.818	0.0136915
658.896	0.0136361
658.974	0.0136928
659.052	0.0136578
659.130	0.0135480
659.208	0.0136893
659.286	0.0137431
659.364	0.0136185
659.443	0.0135123
659.521	0.0136249
659.599	0.0136819
659.677	0.0135542
659.755	0.0134857
659.833	0.0135246
659.911	0.0135580
659.989	0.0133541
660.068	0.0135289
660.146	0.0135073
660.224	0.0133847
660.302	0.0135254
660.380	0.0135059
660.458	0.0135407
660.536	0.0134845
660.614	0.0134695
660.693	0.0135342
660.771	0.0134553
660.849	0.0133208
660.927	0.0133614
661.005	0.0135068
661.083	0.0134023
661.161	0.0133979
661.239	0.0134849
661.318	0.0134609
661.396	0.0133666
661.474	0.0133723
661.552	0.0134323
661.630	0.0135655
661.708	0.0134251
661.786	0.0135965
661.864	0.0134493
661.943	0.0134478
662.021	0.0134974
662.099	0.0134348
662.177	0.0135520
662.255	0.0136559
662.333	0.0135545
662.411	0.0136029
662.489	0.0136723
662.568	0.0136014
662.646	0.0135900
662.724	0.0135796
662.802	0.0135454
662.880	0.0134363
662.958	0.0135007
663.036	0.0135223
663.114	0.0134818
663.193	0.0135956
663.271	0.0134753
663.349	0.0132980
663.427	0.0135049
663.505	0.0134267
663.583	0.0133202
663.661	0.0133736
663.739	0.0134100
663.818	0.0135251
663.896	0.0133121
663.974	0.0134785
664.052	0.0135203
664.130	0.0135013
664.208	0.0134605
664.286	0.0134143
664.364	0.0135770
664.443	0.0136734
664.521	0.0135525
664.599	0.0136055
664.677	0.0136569
664.755	0.0137050
664.833	0.0138680
664.911	0.0136552
664.989	0.0136333
665.068	0.0136475
665.146	0.0137054
665.224	0.0137706
665.302	0.0136277
665.380	0.0137274
665.458	0.0135680
665.536	0.0135187
665.614	0.0134914
665.693	0.0135413
665.771	0.0134798
665.849	0.0134308
665.927	0.0135075
666.005	0.0134913
666.083	0.0134641
666.161	0.0133460
666.239	0.0132030
666.318	0.0133617
666.396	0.0133996
666.474	0.0134344
666.552	0.0134245
666.630	0.0134392
666.708	0.0135078
666.786	0.0135265
666.864	0.0137114
666.943	0.0137385
667.021	0.0138717
667.099	0.0137740
667.177	0.0139562
667.255	0.0139975
667.333	0.0140392
667.411	0.0142180
667.489	0.0142082
667.568	0.0141048
667.646	0.0141122
667.724	0.0141473
667.802	0.0139557
667.880	0.0140347
667.958	0.0139619
668.036	0.0138480
668.114	0.0138488
668.193	0.0136481
668.271	0.0136414
668.349	0.0134140
668.427	0.0135733
668.505	0.0133590
668.583	0.0132504
668.661	0.0132594
668.739	0.0132775
668.818	0.0132215
668.896	0.0130986
668.974	0.0130712
669.052	0.0130827
669.130	0.0133085
669.208	0.0133382
669.286	0.0134093
669.364	0.0134430
669.443	0.0135233
669.521	0.0136189
669.599	0.0136921
669.677	0.0137831
669.755	0.0140785
669.833	0.0140781
669.911	0.0141223
669.989	0.0142509
670.068	0.0142207
670.146	0.0142277
670.224	0.0143383
670.302	0.0143998
670.380	0.0142803
670.458	0.0143066
670.536	0.0142274
670.614	0.0143516
670.693	0.0141862
670.771	0.0139670
670.849	0.0138879
670.927	0.0138346
671.005	0.0135538
671.083	0.0133978
671.161	0.0132265
671.239	0.0132810
671.318	0.0130397
671.396	0.0127686
671.474	0.0128642
671.552	0.0127066
671.630	0.0127531
671.708	0.0126082
671.786	0.0125779
671.864	0.0127501
671.943	0.0125381
672.021	0.0128610
672.099	0.0130342
672.177	0.0131154
672.255	0.0131222
672.333	0.0134132
672.411	0.0137572
672.489	0.0137448
672.568	0.0139500
672.646	0.0142083
672.724	0.0143714
672.802	0.0144729
672.880	0.0145876
672.958	0.0147322
673.036	0.0148824
673.114	0.0149167
673.193	0.0148000
673.271	0.0149767
673.349	0.0148130
673.427	0.0144942
673.505	0.0144910
673.583	0.0143763
673.661	0.0141882
673.739	0.0140742
673.818	0.0138583
673.896	0.0135399
673.974	0.0134460
674.052	0.0133270
674.130	0.0130330
674.208	0.0127566
674.286	0.0125393
674.364	0.0124000
674.443	0.0122274
674.521	0.0122185
674.599	0.0119450
674.677	0.0118762
674.755	0.0120280
674.833	0.0119445
674.911	0.0120190
674.989	0.0120609
675.068	0.0124179
675.146	0.0125579
675.224	0.0126856
675.302	0.0128663
675.380	0.0131209
675.458	0.0133916
675.536	0.0136009
675.614	0.0138017
675.693	0.0141383
675.771	0.0143694
675.849	0.0145498
675.927	0.0146015
676.005	0.0148573
676.083	0.0150655
676.161	0.0150755
676.239	0.0151448
676.318	0.0151009
676.396	0.0152010
676.474	0.0152025
676.552	0.0153104
676.630	0.0150918
676.708	0.0149587
676.786	0.0149696
676.864	0.0148012
676.943	0.0144469
677.021	0.0143318
677.099	0.0142686
677.177	0.0139672
677.255	0.0138770
677.333	0.0134778
677.411	0.0133833
677.489	0.0131075
677.568	0.0130126
677.646	0.0127585
677.724	0.0128146
677.802	0.0125984
677.880	0.0123823
677.958	0.0125459
678.036	0.0125233
678.114	0.0125208
678.193	0.0125206
678.271	0.0126308
678.349	0.0125587
678.427	0.0126791
678.505	0.0127469
678.583	0.0128645
678.661	0.0128434
678.739	0.0130521
678.818	0.0131206
678.896	0.0132651
678.974	0.0133460
679.052	0.0135214
679.130	0.0136219
679.208	0.0136741
679.286	0.0138553
679.364	0.0138622
679.443	0.0138453
679.521	0.0139446
679.599	0.0140842
679.677	0.0140806
679.755	0.0141468
679.833	0.0140949
679.911	0.0141016
679.989	0.0141497
680.068	0.0139706
680.146	0.0142194
680.224	0.0141220
680.302	0.0140069
680.380	0.0140391
680.458	0.0138672
680.536	0.0139758
680.614	0.0139684
680.693	0.0137629
680.771	0.0137990
680.849	0.0138806
680.927	0.0138163
681.005	0.0138487
681.083	0.0138747
681.161	0.0139036
681.239	0.0139587
681.318	0.0138158
681.396	0.0137934
681.474	0.0138435
681.552	0.0137582
681.630	0.0139236
681.708	0.0140273
681.786	0.0140288
681.864	0.0139632
681.943	0.0140057
682.021	0.0139999
682.099	0.0140010
682.177	0.0139880
682.255	0.0137557
682.333	0.0139363
682.411	0.0136894
682.489	0.0134004
682.568	0.0133513
682.646	0.0132317
682.724	0.0131154
682.802	0.0128677
682.880	0.0126764
682.958	0.0126097
683.036	0.0124606
683.114	0.0125520
683.193	0.0123260
683.271	0.0122849
683.349	0.0122517
683.427	0.0122957
683.505	0.0123019
683.583	0.0122752
683.661	0.0122747
683.739	0.0123757
683.818	0.0124179
683.896	0.0125732
683.974	0.0127148
684.052	0.0127818
684.130	0.0129181
684.208	0.0131517
684.286	0.0131431
684.364	0.0134796
684.443	0.0134225
684.521	0.0135835
684.599	0.0137872
684.677	0.0138023
684.755	0.0140132
684.833	0.0141978
684.911	0.0142104
684.989	0.0145615
685.068	0.0144857
685.146	0.0146655
685.224	0.0145159
685.302	0.0145039
685.380	0.0147524
685.458	0.0148143
685.536	0.0148708
685.614	0.0149310
685.693	0.0150306
685.771	0.0150489
685.849	0.0151115
685.927	0.0150471
686.005	0.0152867
686.083	0.0153342
686.161	0.0153351
686.239	0.0152618
686.318	0.0153043
686.396	0.0151631
686.474	0.0150345
686.552	0.0148123
686.630	0.0148522
686.708	0.0145000
686.786	0.0144131
686.864	0.0141200
686.943	0.0140591
687.021	0.0138202
687.099	0.0133323
687.177	0.0132290
687.255	0.0129903
687.333	0.0124657
687.411	0.0124088
687.489	0.0122491
687.568	0.0117505
687.646	0.0117120
687.724	0.0112338
687.802	0.0111315
687.880	0.0111440
687.958	0.0111475
688.036	0.0111043
688.114	0.0109503
688.193	0.0110892
688.271	0.0111820
688.349	0.0114037
688.427	0.0115815
688.505	0.0119323
688.583	0.0122128
688.661	0.0123998
688.739	0.0127876
688.818	0.0130727
688.896	0.0133220
688.974	0.0136415
689.052	0.0138746
689.130	0.0142883
689.208	0.0143282
689.286	0.0146645
689.364	0.0148076
689.443	0.0149756
689.521	0.0150368
689.599	0.0150980
689.677	0.0150919
689.755	0.0152309
689.833	0.0154118
689.911	0.0151614
689.989	0.0151080
690.068	0.0148384
690.146	0.0147776
690.224	0.0148344
690.302	0.0146526
690.380	0.0144098
690.458	0.0143901
690.536	0.0142081
690.614	0.0141237
690.693	0.0141116
690.771	0.0140024
690.849	0.0139163
690.927	0.0139475
691.005	0.0140514
691.083	0.0139525
691.161	0.0140789
691.239	0.0143116
691.318	0.0143994
691.396	0.0145696
691.474	0.0145251
691.552	0.0145499
691.630	0.0144477
691.708	0.0146989
691.786	0.0146840
691.864	0.0147200
691.943	0.0146100
692.021	0.0147077
692.099	0.0145844
692.177	0.0145817
692.255	0.0142851
692.333	0.0142558
692.411	0.0140312
692.489	0.0139446
692.568	0.0137263
692.646	0.0133721
692.724	0.0131046
692.802	0.0128451
692.880	0.0125036
692.958	0.0122359
693.036	0.0118720
693.114	0.0117070
693.193	0.0115112
693.271	0.0111729
693.349	0.0110188
693.427	0.0108698
693.505	0.0107742
693.583	0.0108163
693.661	0.0106964
693.739	0.0106378
693.818	0.0108515
693.896	0.0110545
693.974	0.0111653
694.052	0.0112820
694.130	0.0114162
694.208	0.0116116
694.286	0.0118372
694.364	0.0120537
694.443	0.0124572
694.521	0.0127470
694.599	0.0129195
694.677	0.0132314
694.755	0.0134265
694.833	0.0137753
694.911	0.0140910
694.989	0.0141867
695.068	0.0143579
695.146	0.0147375
695.224	0.0147829
695.302	0.0150484
695.380	0.0151694
695.458	0.0151672
695.536	0.0154738
695.614	0.0153777
695.693	0.0155689
695.771	0.0157417
695.849	0.0157627
695.927	0.0157913
696.005	0.0158973
696.083	0.0159950
696.161	0.0161733
696.239	0.0161023
696.318	0.0160747
696.396	0.0162080
696.474	0.0161215
696.552	0.0160853
696.630	0.0160255
696.708	0.0160283
696.786	0.0158698
696.864	0.0157600
696.943	0.0156069
697.021	0.0155943
697.099	0.0151645
697.177	0.0149558
697.255	0.0147150
697.333	0.0145300
697.411	0.0140902
697.489	0.0137525
697.568	0.0133748
697.646	0.0130415
697.724	0.0126640
697.802	0.0124233
697.880	0.0120561
697.958	0.0116357
698.036	0.0113987
698.114	0.0110812
698.193	0.0108537
698.271	0.0104310
698.349	0.0102139
698.427	0.0101296
698.505	0.00990509
698.583	0.00979309
698.661	0.00990623
698.739	0.00969788
698.818	0.00976402
698.896	0.00972794
698.974	0.00986511
699.052	0.0101154
699.130	0.0102175
699.208	0.0102863
699.286	0.0108034
699.364	0.0110280
699.443	0.0112663
699.521	0.0117062
699.599	0.0121645
699.677	0.0126071
699.755	0.0130386
699.833	0.0132584
699.911	0.0138176
699.989	0.0142426
700.068	0.0146967
700.146	0.0150437
700.224	0.0154192
700.302	0.0158485
700.380	0.0161697
700.458	0.0163481
700.536	0.0165992
700.614	0.0168266
700.693	0.0171277
700.771	0.0172314
700.849	0.0173986
700.927	0.0172578
701.005	0.0172414
701.083	0.0174204
701.161	0.0172894
701.239	0.0172842
701.318	0.0172635
701.396	0.0169014
701.474	0.0169162
701.552	0.0167335
701.630	0.0165130
701.708	0.0163503
701.786	0.0160122
701.864	0.0156963
701.943	0.0155473
702.021	0.0151380
702.099	0.0148421
702.177	0.0145889
702.255	0.0142573
702.333	0.0138639
702.411	0.0136159
702.489	0.0134354
702.568	0.0132274
702.646	0.0128053
702.724	0.0124950
702.802	0.0122483
702.880	0.0119441
702.958	0.0116930
703.036	0.0113636
703.114	0.0112323
703.193	0.0109052
703.271	0.0106959
703.349	0.0107999
703.427	0.0106054
703.505	0.0104317
703.583	0.0106120
703.661	0.0107261
703.739	0.0105931
703.818	0.0106694
703.896	0.0106570
703.974	0.0107304
704.052	0.0109502
704.130	0.0110733
704.208	0.0111572
704.286	0.0111682
704.364	0.0115794
704.443	0.0117089
704.521	0.0119604
704.599	0.0121894
704.677	0.0123582
704.755	0.0125284
704.833	0.0128883
704.911	0.0130783
704.989	0.0132909
705.068	0.0134629
705.146	0.0139040
705.224	0.0138523
705.302	0.0142416
705.380	0.0145253
705.458	0.0146669
705.536	0.0148102
705.614	0.0150896
705.693	0.0153156
705.771	0.0154177
705.849	0.0154561
705.927	0.0154687
706.005	0.0157934
706.083	0.0157800
706.161	0.0158086
706.239	0.0160795
706.318	0.0160239
706.396	0.0160264
706.474	0.0159036
706.552	0.0159242
706.630	0.0160120
706.708	0.0157622
706.786	0.0155621
706.864	0.0154874
706.943	0.0152550
707.021	0.0149994
707.099	0.0147861
707.177	0.0146574
707.255	0.0144121
707.333	0.0143537
707.411	0.0141908
707.489	0.0140874
707.568	0.0138610
707.646	0.0137639
707.724	0.0135972
707.802	0.0134864
707.880	0.0134943
707.958	0.0131812
708.036	0.0131086
708.114	0.0131329
708.193	0.0131158
708.271	0.0128829
708.349	0.0127411
708.427	0.0125788
708.505	0.0124316
708.583	0.0123093
708.661	0.0121700
708.739	0.0120675
708.818	0.0118989
708.896	0.0117915
708.974	0.0115734
709.052	0.0118413
709.130	0.0116663
709.208	0.0116187
709.286	0.0114767
709.364	0.0115131
709.443	0.0116460
709.521	0.0116735
709.599	0.0116574
709.677	0.0118393
709.755	0.0118628
709.833	0.0119083
709.911	0.0121130
709.989	0.0121381
710.068	0.0123143
710.146	0.0125287
710.224	0.0125081
710.302	0.0127067
710.380	0.0129977
710.458	0.0130182
710.536	0.0131467
710.614	0.0132854
710.693	0.0135153
710.771	0.0135602
710.849	0.0137664
710.927	0.0138047
711.005	0.0139065
711.083	0.0140054
711.161	0.0140563
711.239	0.0142226
711.318	0.0142625
711.396	0.0144297
711.474	0.0145873
711.552	0.0147868
711.630	0.0148605
711.708	0.0150106
711.786	0.0150147
711.864	0.0153141
711.943	0.0153875
712.021	0.0153458
712.099	0.0155001
712.177	0.0156469
712.255	0.0156246
712.333	0.0155744
712.411	0.0155925
712.489	0.0156852
712.568	0.0154531
712.646	0.0153719
712.724	0.0153477
712.802	0.0152008
712.880	0.0150808
712.958	0.0149567
713.036	0.0147327
713.114	0.0146515
713.193	0.0144257
713.271	0.0143841
713.349	0.0143060
713.427	0.0141004
713.505	0.0139213
713.583	0.0138604
713.661	0.0137233
713.739	0.0137472
713.818	0.0136395
713.896	0.0135143
713.974	0.0134461
714.052	0.0132590
714.130	0.0132345
714.208	0.0132388
714.286	0.0130163
714.364	0.0130334
714.443	0.0128198
714.521	0.0127128
714.599	0.0127386
714.677	0.0125354
714.755	0.0124885
714.833	0.0121483
714.911	0.0121043
714.989	0.0120144
715.068	0.0120473
715.146	0.0117830
715.224	0.0117931
715.302	0.0117569
715.380	0.0115401
715.458	0.0116814
715.536	0.0117638
715.614	0.0118833
715.693	0.0119670
715.771	0.0120295
715.849	0.0122018
715.927	0.0125052
716.005	0.0125372
716.083	0.0127197
716.161	0.0128243
716.239	0.0129814
716.318	0.0131799
716.396	0.0135020
716.474	0.0134515
716.552	0.0135367
716.630	0.0136782
716.708	0.0139039
716.786	0.0140607
716.864	0.0141159
716.943	0.0143341
717.021	0.0145046
717.099	0.0146644
717.177	0.0146545
717.255	0.0149560
717.333	0.0149490
717.411	0.0149400
717.489	0.0152412
717.568	0.0153976
717.646	0.0151585
717.724	0.0154098
717.802	0.0152766
717.880	0.0151199
717.958	0.0151664
718.036	0.0152686
718.114	0.0151425
718.193	0.0151940
718.271	0.0146189
718.349	0.0146777
718.427	0.0145488
718.505	0.0143129
718.583	0.0141856
718.661	0.0139294
718.739	0.0139063
718.818	0.0137671
718.896	0.0135715
718.974	0.0134155
719.052	0.0132645
719.130	0.0131963
719.208	0.0131372
719.286	0.0129559
719.364	0.0129937
719.443	0.0129156
719.521	0.0129727
719.599	0.0128944
719.677	0.0128780
719.755	0.0129629
719.833	0.0129234
719.911	0.0129477
719.989	0.0130249
720.068	0.0131699
720.146	0.0131217
720.224	0.0129880
720.302	0.0130549
720.380	0.0129826
720.458	0.0130058
720.536	0.0130546
720.614	0.0130113
720.693	0.0129326
720.771	0.0128554
720.849	0.0128580
720.927	0.0128506
721.005	0.0126841
721.083	0.0126904
721.161	0.0128321
721.239	0.0127113
721.318	0.0127381
721.396	0.0127776
721.474	0.0127467
721.552	0.0129756
721.630	0.0129298
721.708	0.0130128
721.786	0.0132760
721.864	0.0134051
721.943	0.0134130
722.021	0.0135433
722.099	0.0135205
722.177	0.0137678
722.255	0.0136794
722.333	0.0136188
722.411	0.0137062
722.489	0.0137984
722.568	0.0137641
722.646	0.0136349
722.724	0.0137458
722.802	0.0136861
722.880	0.0135562
722.958	0.0136192
723.036	0.0136079
723.114	0.0136744
723.193	0.0134839
723.271	0.0134528
723.349	0.0135132
723.427	0.0135069
723.505	0.0136366
723.583	0.0134526
723.661	0.0135691
723.739	0.0134356
723.818	0.0134512
723.896	0.0134052
723.974	0.0135046
724.052	0.0135572
724.130	0.0135072
724.208	0.0136553
724.286	0.0136017
724.364	0.0135791
724.443	0.0137937
724.521	0.0138924
724.599	0.0138765
724.677	0.0140392
724.755	0.0141560
724.833	0.0142225
724.911	0.0141838
724.989	0.0142989
725.068	0.0143917
725.146	0.0143912
725.224	0.0145248
725.302	0.0144109
725.380	0.0146246
725.458	0.0145576
725.536	0.0143667
725.614	0.0144717
725.693	0.0141148
725.771	0.0140435
725.849	0.0141210
725.927	0.0140841
726.005	0.0137894
726.083	0.0136609
726.161	0.0134514
726.239	0.0134873
726.318	0.0134029
726.396	0.0130935
726.474	0.0132246
726.552	0.0130230
726.630	0.0131337
726.708	0.0131829
726.786	0.0129549
726.864	0.0129934
726.943	0.0129488
727.021	0.0129716
727.099	0.0129046
727.177	0.0129834
727.255	0.0129101
727.333	0.0130080
727.411	0.0130595
727.489	0.0130848
727.568	0.0129677
727.646	0.0132047
727.724	0.0132030
727.802	0.0130282
727.880	0.0132323
727.958	0.0131509
728.036	0.0131284
728.114	0.0130730
728.193	0.0129359
728.271	0.0129536
728.349	0.0130774
728.427	0.0130300
728.505	0.0130928
728.583	0.0130867
728.661	0.0130293
728.739	0.0132883
728.818	0.0132581
728.896	0.0132623
728.974	0.0133774
729.052	0.0134414
729.130	0.0135411
729.208	0.0134756
729.286	0.0134603
729.364	0.0136687
729.443	0.0135046
729.521	0.0135313
729.599	0.0136591
729.677	0.0137666
729.755	0.0138173
729.833	0.0137538
729.911	0.0136884
729.989	0.0137376
730.068	0.0138356
730.146	0.0137834
730.224	0.0137596
730.302	0.0138737
730.380	0.0137848
730.458	0.0139314
730.536	0.0138749
730.614	0.0137871
730.693	0.0139516
730.771	0.0139082
730.849	0.0140016
730.927	0.0141733
731.005	0.0140175
731.083	0.0140345
731.161	0.0140479
731.239	0.0140125
731.318	0.0140656
731.396	0.0141926
731.474	0.0140043
731.552	0.0141344
731.630	0.0141252
731.708	0.0139210
731.786	0.0138605
731.864	0.0138230
731.943	0.0136410
732.021	0.0137162
732.099	0.0136227
732.177	0.0136459
732.255	0.0136248
732.333	0.0136021
732.411	0.0135722
732.489	0.0135587
732.568	0.0134747
732.646	0.0135005
732.724	0.0136182
732.802	0.0136028
732.880	0.0135908
732.958	0.0135579
733.036	0.0136494
733.114	0.0137862
733.193	0.0136092
733.271	0.0137209
733.349	0.0136765
733.427	0.0138116
733.505	0.0137648
733.583	0.0137775
733.661	0.0137537
733.739	0.0136838
733.818	0.0136670
733.896	0.0135939
733.974	0.0135441
734.052	0.0135289
734.130	0.0135403
734.208	0.0132755
734.286	0.0133140
734.364	0.0134161
734.443	0.0132493
734.521	0.0131709
734.599	0.0131503
734.677	0.0133159
734.755	0.0132506
734.833	0.0133379
734.911	0.0133898
734.989	0.0132310
735.068	0.0133504
735.146	0.0133453
735.224	0.0133106
735.302	0.0132179
735.380	0.0134477
735.458	0.0134831
735.536	0.0133990
735.614	0.0134426
735.693	0.0134702
735.771	0.0133967
735.849	0.0133963
735.927	0.0134019
736.005	0.0135031
736.083	0.0132301
736.161	0.0135099
736.239	0.0134122
736.318	0.0134579
736.396	0.0134898
736.474	0.0136272
736.552	0.0137245
736.630	0.0136481
736.708	0.0137376
736.786	0.0136699
736.864	0.0137679
736.943	0.0136322
737.021	0.0139411
737.099	0.0139507
737.177	0.0137874
737.255	0.0139030
737.333	0.0140826
737.411	0.0142244
737.489	0.0140316
737.568	0.0141406
737.646	0.0142236
737.724	0.0142194
737.802	0.0141190
737.880	0.0140498
737.958	0.0140765
738.036	0.0142321
738.114	0.0140971
738.193	0.0139820
738.271	0.0140072
738.349	0.0139312
738.427	0.0138698
738.505	0.0139607
738.583	0.0140755
738.661	0.0138796
738.739	0.0138503
738.818	0.0138251
738.896	0.0137346
738.974	0.0137673
739.052	0.0138363
739.130	0.0135860
739.208	0.0135268
739.286	0.0135551
739.364	0.0134662
739.443	0.0133829
739.521	0.0133512
739.599	0.0133205
739.677	0.0132077
739.755	0.0132133
739.833	0.0131709
739.911	0.0129444
739.989	0.0129902
740.068	0.0130305
740.146	0.0127277
740.224	0.0127664
740.302	0.0128310
740.380	0.0129584
740.458	0.0127335
740.536	0.0127902
740.614	0.0127967
740.693	0.0126305
740.771	0.0127254
740.849	0.0127721
740.927	0.0127666
741.005	0.0128246
741.083	0.0129964
741.161	0.0130401
741.239	0.0132613
741.318	0.0133542
741.396	0.0134305
741.474	0.0135735
741.552	0.0136983
741.630	0.0137550
741.708	0.0137537
741.786	0.0139082
741.864	0.0138285
741.943	0.0137912
742.021	0.0139135
742.099	0.0139561
742.177	0.0139696
742.255	0.0137422
742.333	0.0137360
742.411	0.0137890
742.489	0.0136857
742.568	0.0136145
742.646	0.0135837
742.724	0.0136137
742.802	0.0136993
742.880	0.0134042
742.958	0.0136143
743.036	0.0134631
743.114	0.0136192
743.193	0.0136912
743.271	0.0137496
743.349	0.0138567
743.427	0.0138941
743.505	0.0138093
743.583	0.0141325
743.661	0.0141221
743.739	0.0141339
743.818	0.0140568
743.896	0.0141528
743.974	0.0142950
744.052	0.0142551
744.130	0.0141753
744.208	0.0140113
744.286	0.0140080
744.364	0.0140263
744.443	0.0139782
744.521	0.0138912
744.599	0.0137845
744.677	0.0137215
744.755	0.0137604
744.833	0.0136443
744.911	0.0136473
744.989	0.0136471
745.068	0.0135777
745.146	0.0136501
745.224	0.0137122
745.302	0.0137539
745.380	0.0136180
745.458	0.0136752
745.536	0.0136120
745.614	0.0136333
745.693	0.0136829
745.771	0.0136059
745.849	0.0136475
745.927	0.0135311
746.005	0.0135152
746.083	0.0134725
746.161	0.0134827
746.239	0.0134157
746.318	0.0133397
746.396	0.0133036
746.474	0.0132181
746.552	0.0132646
746.630	0.0133134
746.708	0.0131171
746.786	0.0130499
746.864	0.0131234
746.943	0.0131242
747.021	0.0131720
747.099	0.0131317
747.177	0.0130576
747.255	0.0130962
747.333	0.0131709
747.411	0.0133033
747.489	0.0133266
747.568	0.0133655
747.646	0.0133308
747.724	0.0132959
747.802	0.0134064
747.880	0.0134512
747.958	0.0134041
748.036	0.0134202
748.114	0.0132258
748.193	0.0132562
748.271	0.0132807
748.349	0.0134189
748.427	0.0131844
748.505	0.0131474
748.583	0.0131367
748.661	0.0130910
748.739	0.0130864
748.818	0.0131538
748.896	0.0130107
748.974	0.0132634
749.052	0.0133862
749.130	0.0133466
749.208	0.0134712
749.286	0.0134325
749.364	0.0134009
749.443	0.0134748
749.521	0.0137640
749.599	0.0138139
749.677	0.0138148
749.755	0.0137890
749.833	0.0139967
749.911	0.0139918
749.989	0.0140849
750.068	0.0140791
750.146	0.0139399
750.224	0.0140932
750.302	0.0142162
750.380	0.0140776
750.458	0.0140780
750.536	0.0141160
750.614	0.0140141
750.693	0.0140482
750.771	0.0140858
750.849	0.0138687
750.927	0.0138418
751.005	0.0139352
751.083	0.0136835
751.161	0.0138613
751.239	0.0137708
751.318	0.0136573
751.396	0.0136885
751.474	0.0137212
751.552	0.0136877
751.630	0.0137161
751.708	0.0137577
751.786	0.0135581
751.864	0.0136877
751.943	0.0136557
752.021	0.0136525
752.099	0.0137361
752.177	0.0136663
752.255	0.0136777
752.333	0.0137289
752.411	0.0135690
752.489	0.0136997
752.568	0.0136338
752.646	0.0135776
752.724	0.0135246
752.802	0.0135004
752.880	0.0133923
752.958	0.0135177
753.036	0.0135027
753.114	0.0133353
753.193	0.0132847
753.271	0.0132381
753.349	0.0133341
753.427	0.0132512
753.505	0.0132851
753.583	0.0131779
753.661	0.0132778
753.739	0.0131935
753.818	0.0132411
753.896	0.0131045
753.974	0.0132106
754.052	0.0131677
754.130	0.0131622
754.208	0.0131329
754.286	0.0131060
754.364	0.0133517
754.443	0.0131029
754.521	0.0130612
754.599	0.0130880
754.677	0.0130698
754.755	0.0131178
754.833	0.0131134
754.911	0.0133945
754.989	0.0132562
755.068	0.0133225
755.146	0.0134746
755.224	0.0135904
755.302	0.0136556
755.380	0.0138875
755.458	0.0137608
755.536	0.0139985
755.614	0.0140769
755.693	0.0141209
755.771	0.0143135
755.849	0.0143230
755.927	0.0143428
756.005	0.0143361
756.083	0.0143589
756.161	0.0145085
756.239	0.0143470
756.318	0.0142785
756.396	0.0143307
756.474	0.0143264
756.552	0.0142764
756.630	0.0142773
756.708	0.0142686
756.786	0.0142010
756.864	0.0140929
756.943	0.0140562
757.021	0.0139138
757.099	0.0138748
757.177	0.0138944
757.255	0.0139782
757.333	0.0138306
757.411	0.0137968
757.489	0.0138239
757.568	0.0137057
757.646	0.0135786
757.724	0.0134884
757.802	0.0136160
757.880	0.0135646
757.958	0.0134222
758.036	0.0133756
758.114	0.0133196
758.193	0.0132583
758.271	0.0133190
758.349	0.0133370
758.427	0.0132806
758.505	0.0130298
758.583	0.0131273
758.661	0.0133118
758.739	0.0131800
758.818	0.0131154
758.896	0.0131738
758.974	0.0130935
759.052	0.0130980
759.130	0.0130342
759.208	0.0131854
759.286	0.0129700
759.364	0.0130333
759.443	0.0131046
759.521	0.0131212
759.599	0.0130692
759.677	0.0130868
759.755	0.0131493
759.833	0.0129758
759.911	0.0131776
759.989	0.0130010
760.068	0.0130259
760.146	0.0130730
760.224	0.0132290
760.302	0.0130951
760.380	0.0131547
760.458	0.0130576
760.536	0.0131953
760.614	0.0131728
760.693	0.0132069
760.771	0.0131354
760.849	0.0132909
760.927	0.0134522
761.005	0.0134097
761.083	0.0133251
761.161	0.0134009
761.239	0.0135948
761.318	0.0134327
761.396	0.0134288
761.474	0.0135748
761.552	0.0136453
761.630	0.0136008
761.708	0.0138139
761.786	0.0138910
761.864	0.0137959
761.943	0.0139055
762.021	0.0139718
762.099	0.0139558
762.177	0.0140878
762.255	0.0141434
762.333	0.0140277
762.411	0.0140851
762.489	0.0141341
762.568	0.0139416
762.646	0.0140723
762.724	0.0139867
762.802	0.0138789
762.880	0.0138866
762.958	0.0138768
763.036	0.0138194
763.114	0.0138371
763.193	0.0137612
763.271	0.0137886
763.349	0.0135825
763.427	0.0137060
763.505	0.0135807
763.583	0.0137193
763.661	0.0136335
763.739	0.0135262
763.818	0.0135686
763.896	0.0137560
763.974	0.0134836
764.052	0.0134737
764.130	0.0135419
764.208	0.0134174
764.286	0.0135239
764.364	0.0134730
764.443	0.0134698
764.521	0.0136167
764.599	0.0134363
764.677	0.0135831
764.755	0.0135344
764.833	0.0134623
764.911	0.0133357
764.989	0.0133954
765.068	0.0133162
765.146	0.0134380
765.224	0.0132966
765.302	0.0132640
765.380	0.0132274
765.458	0.0131433
765.536	0.0131740
765.614	0.0132265
765.693	0.0133012
765.771	0.0130820
765.849	0.0131137
765.927	0.0132615
766.005	0.0131585
766.083	0.0131092
766.161	0.0131145
766.239	0.0131548
766.318	0.0134405
766.396	0.0132903
766.474	0.0133269
766.552	0.0133282
766.630	0.0134449
766.708	0.0134422
766.786	0.0135467
766.864	0.0134913
766.943	0.0134816
767.021	0.0135757
767.099	0.0135149
767.177	0.0136630
767.255	0.0136800
767.333	0.0136976
767.411	0.0136440
767.489	0.0137457
767.568	0.0137782
767.646	0.0137225
767.724	0.0138092
767.802	0.0138068
767.880	0.0139346
767.958	0.0138284
768.036	0.0137447
768.114	0.0137778
768.193	0.0138046
768.271	0.0138493
768.349	0.0137754
768.427	0.0138441
768.505	0.0139154
768.583	0.0138649
768.661	0.0137222
768.739	0.0138229
768.818	0.0137238
768.896	0.0138292
768.974	0.0138079
769.052	0.0139099
769.130	0.0138258
769.208	0.0138995
769.286	0.0140067
769.364	0.0138786
769.443	0.0139012
769.521	0.0141619
769.599	0.0139123
769.677	0.0139807
769.755	0.0141264
769.833	0.0140986
769.911	0.0141071
769.989	0.0139879
770.068	0.0139276
770.146	0.0138894
770.224	0.0139008
770.302	0.0139204
770.380	0.0137930
770.458	0.0137061
770.536	0.0137711
770.614	0.0136852
770.693	0.0136053
770.771	0.0135036
770.849	0.0135793
770.927	0.0133402
771.005	0.0133532
771.083	0.0133642
771.161	0.0132517
771.239	0.0131409
771.318	0.0131416
771.396	0.0131236
771.474	0.0127908
771.552	0.0129333
771.630	0.0127584
771.708	0.0128297
771.786	0.0128774
771.864	0.0128320
771.943	0.0128595
772.021	0.0127669
772.099	0.0127361
772.177	0.0128551
772.255	0.0128845
772.333	0.0129359
772.411	0.0129461
772.489	0.0130421
772.568	0.0130488
772.646	0.0131157
772.724	0.0133941
772.802	0.0134344
772.880	0.0133887
772.958	0.0136119
773.036	0.0136339
773.114	0.0135634
773.193	0.0137742
773.271	0.0139434
773.349	0.0138738
773.427	0.0138933
773.505	0.0139514
773.583	0.0137981
773.661	0.0141219
773.739	0.0139535
773.818	0.0139330
773.896	0.0140973
773.974	0.0140533
774.052	0.0140261
774.130	0.0139725
774.208	0.0138321
774.286	0.0137926
774.364	0.0137421
774.443	0.0138283
774.521	0.0137987
774.599	0.0137714
774.677	0.0137726
774.755	0.0136261
774.833	0.0137663
774.911	0.0137849
774.989	0.0136783
775.068	0.0137753
775.146	0.0136347
775.224	0.0136534
775.302	0.0137532
775.380	0.0137320
775.458	0.0137040
775.536	0.0136222
775.614	0.0137553
775.693	0.0135454
775.771	0.0136269
775.849	0.0135654
775.927	0.0137196
776.005	0.0136608
776.083	0.0136089
776.161	0.0136562
776.239	0.0135225
776.318	0.0135263
776.396	0.0135417
776.474	0.0135958
776.552	0.0135917
776.630	0.0135339
776.708	0.0135105
776.786	0.0135378
776.864	0.0134504
776.943	0.0134383
777.021	0.0135133
777.099	0.0135267
777.177	0.0136008
777.255	0.0134382
777.333	0.0134192
777.411	0.0134930
777.489	0.0133673
777.568	0.0133456
777.646	0.0133339
777.724	0.0135683
777.802	0.0135963
777.880	0.0134858
777.958	0.0135918
778.036	0.0135249
778.114	0.0135834
778.193	0.0136343
778.271	0.0136668
778.349	0.0136352
778.427	0.0136587
778.505	0.0138211
778.583	0.0138829
778.661	0.0139391
778.739	0.0139264
778.818	0.0140456
778.896	0.0140059
778.974	0.0139483
779.052	0.0138352
779.130	0.0138724
779.208	0.0138612
779.286	0.0138911
779.364	0.0138894
779.443	0.0138159
779.521	0.0138091
779.599	0.0137996
779.677	0.0138017
779.755	0.0137276
779.833	0.0136775
779.911	0.0136057
779.989	0.0135548
780.068	0.0136225
780.146	0.0135233
780.224	0.0134763
780.302	0.0133634
780.380	0.0135712
780.458	0.0134891
780.536	0.0134173
780.614	0.0133079
780.693	0.0135787
780.771	0.0135338
780.849	0.0135051
780.927	0.0133968
781.005	0.0135423
781.083	0.0135417
781.161	0.0134531
781.239	0.0135375
781.318	0.0136919
781.396	0.0136163
781.474	0.0136143
781.552	0.0137781
781.630	0.0136982
781.708	0.0136638
781.786	0.0137164
781.864	0.0137284
781.943	0.0137635
782.021	0.0137786
782.099	0.0137102
782.177	0.0138435
782.255	0.0138795
782.333	0.0138313
782.411	0.0138556
782.489	0.0138781
782.568	0.0138201
782.646	0.0139053
782.724	0.0139346
782.802	0.0138552
782.880	0.0137104
782.958	0.0137064
783.036	0.0138335
783.114	0.0137065
783.193	0.0134782
783.271	0.0137260
783.349	0.0137540
783.427	0.0134923
783.505	0.0134394
783.583	0.0134412
783.661	0.0134391
783.739	0.0134457
783.818	0.0133340
783.896	0.0133344
783.974	0.0131660
784.052	0.0131906
784.130	0.0130929
784.208	0.0132126
784.286	0.0130737
784.364	0.0129953
784.443	0.0130904
784.521	0.0131165
784.599	0.0130363
784.677	0.0130751
784.755	0.0131386
784.833	0.0129747
784.911	0.0132658
784.989	0.0131870
785.068	0.0132083
785.146	0.0131828
785.224	0.0132763
785.302	0.0132431
785.380	0.0133409
785.458	0.0134560
785.536	0.0133957
785.614	0.0134248
785.693	0.0137228
785.771	0.0135411
785.849	0.0135791
785.927	0.0135960
786.005	0.0136163
786.083	0.0136600
786.161	0.0135606
786.239	0.0138456
786.318	0.0137814
786.396	0.0136213
786.474	0.0137370
786.552	0.0138808
786.630	0.0137171
786.708	0.0138582
786.786	0.0137813
786.864	0.0138253
786.943	0.0139114
787.021	0.0137520
787.099	0.0138645
787.177	0.0139153
787.255	0.0139728
787.333	0.0138604
787.411	0.0138943
787.489	0.0139646
787.568	0.0139250
787.646	0.0138309
787.724	0.0137903
787.802	0.0137055
787.880	0.0138544
787.958	0.0137901
788.036	0.0138353
788.114	0.0136742
788.193	0.0135687
788.271	0.0135135
788.349	0.0137289
788.427	0.0135452
788.505	0.0134373
788.583	0.0135504
788.661	0.0132507
788.739	0.0133343
788.818	0.0134158
788.896	0.0134437
788.974	0.0132719
789.052	0.0132966
789.130	0.0132813
789.208	0.0133807
789.286	0.0132634
789.364	0.0131365
789.443	0.0129928
789.521	0.0131031
789.599	0.0130311
789.677	0.0131104
789.755	0.0129821
789.833	0.0129183
789.911	0.0129190
789.989	0.0130134
790.068	0.0129810
790.146	0.0130060
790.224	0.0129333
790.302	0.0130186
790.380	0.0129974
790.458	0.0129197
790.536	0.0129503
790.614	0.0131302
790.693	0.0132240
790.771	0.0131613
790.849	0.0133258
790.927	0.0135343
791.005	0.0134699
791.083	0.0135693
791.161	0.0135822
791.239	0.0136839
791.318	0.0137196
791.396	0.0137362
791.474	0.0138951
791.552	0.0138842
791.630	0.0139780
791.708	0.0140742
791.786	0.0140489
791.864	0.0141875
791.943	0.0140690
792.021	0.0141582
792.099	0.0141045
792.177	0.0141993
792.255	0.0143111
792.333	0.0142159
792.411	0.0139765
792.489	0.0140688
792.568	0.0140937
792.646	0.0140818
792.724	0.0140816
792.802	0.0141158
792.880	0.0139838
792.958	0.0140346
793.036	0.0140838
793.114	0.0139693
793.193	0.0139958
793.271	0.0138708
793.349	0.0139278
793.427	0.0139127
793.505	0.0138559
793.583	0.0139227
793.661	0.0139010
793.739	0.0138383
793.818	0.0138344
793.896	0.0137366
793.974	0.0136235
794.052	0.0135065
794.130	0.0134744
794.208	0.0134431
794.286	0.0134470
794.364	0.0133029
794.443	0.0132364
794.521	0.0131125
794.599	0.0131989
794.677	0.0130604
794.755	0.0129558
794.833	0.0129900
794.911	0.0128839
794.989	0.0127352
795.068	0.0128920
795.146	0.0128264
795.224	0.0128203
795.302	0.0129355
795.380	0.0128407
795.458	0.0128436
795.536	0.0129780
795.614	0.0130247
795.693	0.0130844
795.771	0.0129337
795.849	0.0131028
795.927	0.0132456
796.005	0.0132848
796.083	0.0132594
796.161	0.0132298
796.239	0.0133085
796.318	0.0134728
796.396	0.0134715
796.474	0.0133773
796.552	0.0135874
796.630	0.0137311
796.708	0.0136317
796.786	0.0137895
796.864	0.0138052
796.943	0.0139261
797.021	0.0140457
797.099	0.0141631
797.177	0.0141656
797.255	0.0141035
797.333	0.0142898
797.411	0.0142850
797.489	0.0142812
797.568	0.0143562
797.646	0.0143394
797.724	0.0143931
797.802	0.0143171
797.880	0.0142632
797.958	0.0142456
798.036	0.0141479
798.114	0.0141717
798.193	0.0141467
798.271	0.0142702
798.349	0.0141550
798.427	0.0140569
798.505	0.0140984
798.583	0.0140753
798.661	0.0139423
798.739	0.0138935
798.818	0.0138531
798.896	0.0138464
798.974	0.0138753
799.052	0.0137997
799.130	0.0137103
799.208	0.0136642
799.286	0.0135209
799.364	0.0135688
799.443	0.0135833
799.521	0.0133943
799.599	0.0132917
799.677	0.0132286
799.755	0.0132088
799.833	0.0132789
799.911	0.0131931
799.989	0.0130022
800.068	0.0130805
800.146	0.0130755
800.224	0.0130770
800.302	0.0129601
800.380	0.0130372
800.458	0.0129433
800.536	0.0130062
800.614	0.0131762
800.693	0.0131229
800.771	0.0132148
800.849	0.0133024
800.927	0.0131942
801.005	0.0133866
801.083	0.0133501
801.161	0.0134479
801.239	0.0135255
801.318	0.0137251
801.396	0.0136624
801.474	0.0137498
801.552	0.0138721
801.630	0.0137970
801.708	0.0138799
801.786	0.0139637
801.864	0.0139023
801.943	0.0137832
802.021	0.0139362
802.099	0.0139751
802.177	0.0140625
802.255	0.0139216
802.333	0.0139541
802.411	0.0141061
802.489	0.0141249
802.568	0.0140917
802.646	0.0141216
802.724	0.0142087
802.802	0.0140455
802.880	0.0142427
802.958	0.0141812
803.036	0.0141030
803.114	0.0140705
803.193	0.0139892
803.271	0.0140881
803.349	0.0140910
803.427	0.0139091
803.505	0.0139342
803.583	0.0140733
803.661	0.0139232
803.739	0.0138863
803.818	0.0137386
803.896	0.0135555
803.974	0.0137916
804.052	0.0135373
804.130	0.0135017
804.208	0.0135714
804.286	0.0135420
804.364	0.0133633
804.443	0.0134882
804.521	0.0134041
804.599	0.0134246
804.677	0.0133408
804.755	0.0134258
804.833	0.0134058
804.911	0.0132915
804.989	0.0134480
805.068	0.0134112
805.146	0.0132520
805.224	0.0132933
805.302	0.0132959
805.380	0.0132918
805.458	0.0131905
805.536	0.0132722
805.614	0.0133059
805.693	0.0132260
805.771	0.0132256
805.849	0.0132115
805.927	0.0131346
806.005	0.0131507
806.083	0.0132338
806.161	0.0131046
806.239	0.0131722
806.318	0.0132108
806.396	0.0132551
806.474	0.0132059
806.552	0.0132027
806.630	0.0132241
806.708	0.0132241
806.786	0.0133846
806.864	0.0133418
806.943	0.0132528
807.021	0.0134007
807.099	0.0134387
807.177	0.0133567
807.255	0.0136196
807.333	0.0136569
807.411	0.0135851
807.489	0.0137502
807.568	0.0136694
807.646	0.0137412
807.724	0.0137057
807.802	0.0138442
807.880	0.0138822
807.958	0.0138917
808.036	0.0139587
808.114	0.0139403
808.193	0.0141048
808.271	0.0141547
808.349	0.0142325
808.427	0.0141204
808.505	0.0142319
808.583	0.0142448
808.661	0.0142464
808.739	0.0142043
808.818	0.0141852
808.896	0.0141396
808.974	0.0140288
809.052	0.0141234
809.130	0.0140735
809.208	0.0139537
809.286	0.0141198
809.364	0.0140765
809.443	0.0137872
809.521	0.0139089
809.599	0.0139575
809.677	0.0137830
809.755	0.0139309
809.833	0.0138104
809.911	0.0136837
809.989	0.0135923
810.068	0.0135580
810.146	0.0136008
810.224	0.0135349
810.302	0.0133847
810.380	0.0134422
810.458	0.0134492
810.536	0.0133770
810.614	0.0133031
810.693	0.0132250
810.771	0.0132254
810.849	0.0132555
810.927	0.0130931
811.005	0.0132143
811.083	0.0131168
811.161	0.0130888
811.239	0.0130054
811.318	0.0129088
811.396	0.0130211
811.474	0.0130205
811.552	0.0131232
811.630	0.0131219
811.708	0.0131191
811.786	0.0131061
811.864	0.0133141
811.943	0.0132155
812.021	0.0133099
812.099	0.0134366
812.177	0.0134277
812.255	0.0134029
812.333	0.0133681
812.411	0.0136470
812.489	0.0137264
812.568	0.0138366
812.646	0.0138231
812.724	0.0138734
812.802	0.0139820
812.880	0.0140259
812.958	0.0141093
813.036	0.0141210
813.114	0.0140516
813.193	0.0141382
813.271	0.0142322
813.349	0.0142968
813.427	0.0141673
813.505	0.0142017
813.583	0.0142585
813.661	0.0143030
813.739	0.0142711
813.818	0.0142986
813.896	0.0142576
813.974	0.0143221
814.052	0.0142542
814.130	0.0143313
814.208	0.0141811
814.286	0.0139993
814.364	0.0140469
814.443	0.0140440
814.521	0.0141881
814.599	0.0139899
814.677	0.0139020
814.755	0.0138850
814.833	0.0137806
814.911	0.0136285
814.989	0.0137083
815.068	0.0135814
815.146	0.0134312
815.224	0.0133038
815.302	0.0133240
815.380	0.0133320
815.458	0.0131094
815.536	0.0131675
815.614	0.0130019
815.693	0.0129710
815.771	0.0130148
815.849	0.0131504
815.927	0.0130088
816.005	0.0128115
816.083	0.0130350
816.161	0.0130581
816.239	0.0130167
816.318	0.0130877
816.396	0.0130566
816.474	0.0131953
816.552	0.0131547
816.630	0.0131876
816.708	0.0131953
816.786	0.0133638
816.864	0.0132859
816.943	0.0132143
817.021	0.0132948
817.099	0.0132909
817.177	0.0135482
817.255	0.0135600
817.333	0.0134160
817.411	0.0135260
817.489	0.0134948
817.568	0.0136115
817.646	0.0137042
817.724	0.0135520
817.802	0.0135717
817.880	0.0137141
817.958	0.0137465
818.036	0.0136800
818.114	0.0135427
818.193	0.0135965
818.271	0.0136958
818.349	0.0136749
818.427	0.0136586
818.505	0.0135360
818.583	0.0136113
818.661	0.0135884
818.739	0.0137988
818.818	0.0136469
818.896	0.0135600
818.974	0.0135612
819.052	0.0136179
819.130	0.0135652
819.208	0.0136593
819.286	0.0135729
819.364	0.0136110
819.443	0.0136355
819.521	0.0138002
819.599	0.0135911
819.677	0.0135578
819.755	0.0134852
819.833	0.0134584
819.911	0.0136042
819.989	0.0134791
820.068	0.0134496
820.146	0.0135539
820.224	0.0134312
820.302	0.0135527
820.380	0.0136147
820.458	0.0135522
820.536	0.0135343
820.614	0.0136139
820.693	0.0134415
820.771	0.0134663
820.849	0.0134149
820.927	0.0134840
821.005	0.0132481
821.083	0.0133369
821.161	0.0134046
821.239	0.0134737
821.318	0.0132412
821.396	0.0132470
821.474	0.0133662
821.552	0.0134702
821.630	0.0132365
821.708	0.0134290
821.786	0.0134135
821.864	0.0134911
821.943	0.0134055
822.021	0.0134551
822.099	0.0134277
822.177	0.0135810
822.255	0.0135120
822.333	0.0135480
822.411	0.0135946
822.489	0.0136671
822.568	0.0136694
822.646	0.0137534
822.724	0.0137731
822.802	0.0138284
822.880	0.0138272
822.958	0.0138190
823.036	0.0137421
823.114	0.0138332
823.193	0.0138482
823.271	0.0138538
823.349	0.0138179
823.427	0.0138333
823.505	0.0139188
823.583	0.0136764
823.661	0.0136330
823.739	0.0136516
823.818	0.0135907
823.896	0.0136030
823.974	0.0136303
824.052	0.0133996
824.130	0.0133012
824.208	0.0133633
824.286	0.0133294
824.364	0.0133455
824.443	0.0133596
824.521	0.0133076
824.599	0.0131263
824.677	0.0132761
824.755	0.0132391
824.833	0.0132553
824.911	0.0131969
824.989	0.0132560
825.068	0.0131140
825.146	0.0133146
825.224	0.0132764
825.302	0.0132533
825.380	0.0131757
825.458	0.0133530
825.536	0.0133556
825.614	0.0134393
825.693	0.0133842
825.771	0.0134454
825.849	0.0134898
825.927	0.0135071
826.005	0.0133759
826.083	0.0135918
826.161	0.0134711
826.239	0.0134342
826.318	0.0135336
826.396	0.0135659
826.474	0.0135836
826.552	0.0137045
826.630	0.0135602
826.708	0.0135506
826.786	0.0135922
826.864	0.0135505
826.943	0.0135497
827.021	0.0137850
827.099	0.0136675
827.177	0.0137606
827.255	0.0137298
827.333	0.0137708
827.411	0.0137110
827.489	0.0137325
827.568	0.0137324
827.646	0.0136979
827.724	0.0138303
827.802	0.0136384
827.880	0.0137302
827.958	0.0136552
828.036	0.0137331
828.114	0.0136595
828.193	0.0136383
828.271	0.0136410
828.349	0.0135405
828.427	0.0135210
828.505	0.0134685
828.583	0.0136117
828.661	0.0133994
828.739	0.0135828
828.818	0.0135568
828.896	0.0136469
828.974	0.0136160
829.052	0.0136725
829.130	0.0136817
829.208	0.0136288
829.286	0.0136675
829.364	0.0135835
829.443	0.0136802
829.521	0.0136974
829.599	0.0137379
829.677	0.0138446
829.755	0.0137338
829.833	0.0136914
829.911	0.0139314
829.989	0.0139373
830.068	0.0138129
830.146	0.0139841
830.224	0.0139812
830.302	0.0137548
830.380	0.0137882
830.458	0.0138010
830.536	0.0138531
830.614	0.0137877
830.693	0.0136603
830.771	0.0136930
830.849	0.0136057
830.927	0.0136409
831.005	0.0135221
831.083	0.0134404
831.161	0.0135155
831.239	0.0133312
831.318	0.0132442
831.396	0.0131881
831.474	0.0133157
831.552	0.0132323
831.630	0.0132267
831.708	0.0132714
831.786	0.0134327
831.864	0.0133543
831.943	0.0133612
832.021	0.0134862
832.099	0.0134049
832.177	0.0135806
832.255	0.0135920
832.333	0.0136131
832.411	0.0135368
832.489	0.0136234
832.568	0.0138326
832.646	0.0137817
832.724	0.0138464
832.802	0.0138347
832.880	0.0139260
832.958	0.0140106
833.036	0.0139986
833.114	0.0140018
833.193	0.0140811
833.271	0.0140652
833.349	0.0141556
833.427	0.0143161
833.505	0.0142735
833.583	0.0140210
833.661	0.0142617
833.739	0.0142673
833.818	0.0143103
833.896	0.0141595
833.974	0.0140933
834.052	0.0142369
834.130	0.0142068
834.208	0.0140458
834.286	0.0141198
834.364	0.0141525
834.443	0.0138876
834.521	0.0138287
834.599	0.0139729
834.677	0.0138547
834.755	0.0137926
834.833	0.0138064
834.911	0.0136946
834.989	0.0136494
835.068	0.0137840
835.146	0.0137676
835.224	0.0135326
835.302	0.0135555
835.380	0.0135520
835.458	0.0134431
835.536	0.0134731
835.614	0.0132413
835.693	0.0132185
835.771	0.0134267
835.849	0.0132529
835.927	0.0133050
836.005	0.0133185
836.083	0.0131028
836.161	0.0133504
836.239	0.0133108
836.318	0.0130975
836.396	0.0134614
836.474	0.0134347
836.552	0.0133961
836.630	0.0135017
836.708	0.0136029
836.786	0.0135735
836.864	0.0135011
836.943	0.0135158
837.021	0.0135133
837.099	0.0134694
837.177	0.0136176
837.255	0.0135343
837.333	0.0134304
837.411	0.0135828
837.489	0.0135847
837.568	0.0134752
837.646	0.0135452
837.724	0.0135255
837.802	0.0134319
837.880	0.0134963
837.958	0.0135389
838.036	0.0133099
838.114	0.0134667
838.193	0.0135335
838.271	0.0135607
838.349	0.0134978
838.427	0.0134663
838.505	0.0134984
838.583	0.0134723
838.661	0.0134738
838.739	0.0137695
838.818	0.0137353
838.896	0.0137108
838.974	0.0136014
839.052	0.0137736
839.130	0.0138818
839.208	0.0137633
839.286	0.0138253
839.364	0.0139465
839.443	0.0139404
839.521	0.0139204
839.599	0.0138958
839.677	0.0138626
839.755	0.0140028
839.833	0.0138821
839.911	0.0139542
839.989	0.0139020
840.068	0.0138184
840.146	0.0138252
840.224	0.0137608
840.302	0.0138185
840.380	0.0136472
840.458	0.0137299
840.536	0.0136892
840.614	0.0136160
840.693	0.0134323
840.771	0.0135662
840.849	0.0134510
840.927	0.0133536
841.005	0.0133321
841.083	0.0132841
841.161	0.0132974
841.239	0.0132045
841.318	0.0131406
841.396	0.0131093
841.474	0.0130887
841.552	0.0130878
841.630	0.0130417
841.708	0.0131673
841.786	0.0130128
841.864	0.0130715
841.943	0.0131979
842.021	0.0132001
842.099	0.0133415
842.177	0.0133060
842.255	0.0132296
842.333	0.0134941
842.411	0.0133749
842.489	0.0134572
842.568	0.0134801
842.646	0.0135239
842.724	0.0135130
842.802	0.0135220
842.880	0.0136982
842.958	0.0136884
843.036	0.0135239
843.114	0.0134663
843.193	0.0136954
843.271	0.0137273
843.349	0.0137344
843.427	0.0136896
843.505	0.0137276
843.583	0.0136393
843.661	0.0136345
843.739	0.0136282
843.818	0.0136460
843.896	0.0137115
843.974	0.0137262
844.052	0.0135830
844.130	0.0135549
844.208	0.0135364
844.286	0.0134219
844.364	0.0135016
844.443	0.0134616
844.521	0.0134155
844.599	0.0135497
844.677	0.0134591
844.755	0.0135701
844.833	0.0134877
844.911	0.0135654
844.989	0.0134978
845.068	0.0134479
845.146	0.0136472
845.224	0.0136015
845.302	0.0137000
845.380	0.0137256
845.458	0.0137800
845.536	0.0138145
845.614	0.0138168
845.693	0.0137578
845.771	0.0138158
845.849	0.0139732
845.927	0.0139399
846.005	0.0138903
846.083	0.0139684
846.161	0.0137794
846.239	0.0140723
846.318	0.0139512
846.396	0.0139757
846.474	0.0139122
846.552	0.0139185
846.630	0.0138930
846.708	0.0138239
846.786	0.0138622
846.864	0.0138364
846.943	0.0137286
847.021	0.0136798
847.099	0.0135818
847.177	0.0134676
847.255	0.0135027
847.333	0.0135319
847.411	0.0133443
847.489	0.0132996
847.568	0.0132690
847.646	0.0133950
847.724	0.0131633
847.802	0.0132903
847.880	0.0131982
847.958	0.0130489
848.036	0.0131309
848.114	0.0131929
848.193	0.0130383
848.271	0.0132328
848.349	0.0130909
848.427	0.0131462
848.505	0.0133518
848.583	0.0131749
848.661	0.0134087
848.739	0.0133010
848.818	0.0132909
848.896	0.0133726
848.974	0.0133565
849.052	0.0133857
849.130	0.0134580
849.208	0.0132734
849.286	0.0135056
849.364	0.0134420
849.443	0.0133285
849.521	0.0134015
849.599	0.0134326
849.677	0.0134927
849.755	0.0136406
849.833	0.0134641
849.911	0.0134789
849.989	0.0136153
850.068	0.0136724
850.146	0.0136085
850.224	0.0135841
850.302	0.0136449
850.380	0.0133821
850.458	0.0134400
850.536	0.0136119
850.614	0.0135161
850.693	0.0134851
850.771	0.0134898
850.849	0.0134711
850.927	0.0135516
851.005	0.0134424
851.083	0.0134404
851.161	0.0135123
851.239	0.0135632
851.318	0.0134945
851.396	0.0134178
851.474	0.0134910
851.552	0.0135193
851.630	0.0134290
851.708	0.0135272
851.786	0.0135223
851.864	0.0134698
851.943	0.0135174
852.021	0.0134525
852.099	0.0135042
852.177	0.0136069
852.255	0.0135965
852.333	0.0134826
852.411	0.0136919
852.489	0.0136461
852.568	0.0134596
852.646	0.0136563
852.724	0.0136332
852.802	0.0136127
852.880	0.0136198
852.958	0.0135660
853.036	0.0137370
853.114	0.0136520
853.193	0.0136009
853.271	0.0136102
853.349	0.0136552
853.427	0.0136973
853.505	0.0137561
853.583	0.0136547
853.661	0.0135624
853.739	0.0136228
853.818	0.0134571
853.896	0.0135445
853.974	0.0134447
854.052	0.0135278
854.130	0.0135523
854.208	0.0136440
854.286	0.0136075
854.364	0.0134493
854.443	0.0135907
854.521	0.0136106
854.599	0.0135780
854.677	0.0137587
854.755	0.0135735
854.833	0.0136234
854.911	0.0135941
854.989	0.0135349
855.068	0.0134925
855.146	0.0133671
855.224	0.0135225
855.302	0.0135771
855.380	0.0135857
855.458	0.0135004
855.536	0.0135871
855.614	0.0136560
855.693	0.0135440
855.771	0.0136737
855.849	0.0136283
855.927	0.0136958
856.005	0.0137705
856.083	0.0136563
856.161	0.0136743
856.239	0.0138518
856.318	0.0136994
856.396	0.0138290
856.474	0.0138366
856.552	0.0138780
856.630	0.0137923
856.708	0.0138683
856.786	0.0139876
856.864	0.0138197
856.943	0.0138206
857.021	0.0139973
857.099	0.0138377
857.177	0.0140366
857.255	0.0139391
857.333	0.0138846
857.411	0.0139713
857.489	0.0138686
857.568	0.0138578
857.646	0.0138735
857.724	0.0138806
857.802	0.0138493
857.880	0.0138507
857.958	0.0139568
858.036	0.0139077
858.114	0.0137664
858.193	0.0137187
858.271	0.0138358
858.349	0.0137585
858.427	0.0139364
858.505	0.0138490
858.583	0.0137489
858.661	0.0138032
858.739	0.0136419
858.818	0.0135961
858.896	0.0135696
858.974	0.0137527
859.052	0.0138421
859.130	0.0137302
859.208	0.0136391
859.286	0.0136848
859.364	0.0135155
859.443	0.0135390
859.521	0.0136023
859.599	0.0136364
859.677	0.0135081
859.755	0.0134442
859.833	0.0135757
859.911	0.0135542
859.989	0.0135333
860.068	0.0134238
860.146	0.0133496
860.224	0.0133636
860.302	0.0133102
860.380	0.0134152
860.458	0.0133372
860.536	0.0133456
860.614	0.0133461
860.693	0.0133034
860.771	0.0132939
860.849	0.0134181
860.927	0.0134541
861.005	0.0133093
861.083	0.0132475
861.161	0.0132851
861.239	0.0135059
861.318	0.0135240
861.396	0.0135851
861.474	0.0135077
861.552	0.0135528
861.630	0.0135693
861.708	0.0135883
861.786	0.0135810
861.864	0.0136034
861.943	0.0136918
862.021	0.0135209
862.099	0.0136260
862.177	0.0137905
862.255	0.0137407
862.333	0.0137283
862.411	0.0137508
862.489	0.0137412
862.568	0.0137350
862.646	0.0136674
862.724	0.0137388
862.802	0.0139352
862.880	0.0137119
862.958	0.0136445
863.036	0.0136636
863.114	0.0136423
863.193	0.0136272
863.271	0.0135342
863.349	0.0136565
863.427	0.0136034
863.505	0.0135930
863.583	0.0134840
863.661	0.0134328
863.739	0.0135062
863.818	0.0134595
863.896	0.0135574
863.974	0.0136290
864.052	0.0136266
864.130	0.0135734
864.208	0.0135577
864.286	0.0136103
864.364	0.0136235
864.443	0.0135793
864.521	0.0136355
864.599	0.0138229
864.677	0.0137084
864.755	0.0138136
864.833	0.0137642
864.911	0.0136643
864.989	0.0135578
865.068	0.0135377
865.146	0.0135945
865.224	0.0135664
865.302	0.0135739
865.380	0.0135611
865.458	0.0134653
865.536	0.0133583
865.614	0.0134466
865.693	0.0134344
865.771	0.0135456
865.849	0.0134229
865.927	0.0133620
866.005	0.0133799
866.083	0.0134470
866.161	0.0133282
866.239	0.0132760
866.318	0.0133374
866.396	0.0133780
866.474	0.0135155
866.552	0.0134888
866.630	0.0133442
866.708	0.0136398
866.786	0.0135720
866.864	0.0136198
866.943	0.0135766
867.021	0.0134740
867.099	0.0136670
867.177	0.0137299
867.255	0.0139229
867.333	0.0137601
867.411	0.0138052
867.489	0.0136856
867.568	0.0137334
867.646	0.0137771
867.724	0.0137653
867.802	0.0137597
867.880	0.0138307
867.958	0.0137398
868.036	0.0137192
868.114	0.0138151
868.193	0.0136186
868.271	0.0136189
868.349	0.0136732
868.427	0.0135728
868.505	0.0135234
868.583	0.0136222
868.661	0.0135910
868.739	0.0135661
868.818	0.0136787
868.896	0.0137207
868.974	0.0137531
869.052	0.0136949
869.130	0.0136284
869.208	0.0135432
869.286	0.0136059
869.364	0.0136130
869.443	0.0136091
869.521	0.0135620
869.599	0.0133855
869.677	0.0134855
869.755	0.0134447
869.833	0.0136057
869.911	0.0134885
869.989	0.0133878
870.068	0.0135751
870.146	0.0135998
870.224	0.0137203
870.302	0.0135082
870.380	0.0135457
870.458	0.0135706
870.536	0.0135806
870.614	0.0136718
870.693	0.0136529
870.771	0.0136236
870.849	0.0136118
870.927	0.0137060
871.005	0.0137160
871.083	0.0136184
871.161	0.0136803
871.239	0.0135986
871.318	0.0136721
871.396	0.0135305
871.474	0.0136176
871.552	0.0135075
871.630	0.0135296
871.708	0.0136135
871.786	0.0136337
871.864	0.0135801
871.943	0.0136323
872.021	0.0136004
872.099	0.0135409
872.177	0.0134604
872.255	0.0134427
872.333	0.0137781
872.411	0.0135420
872.489	0.0135148
872.568	0.0135590
872.646	0.0136323
872.724	0.0136935
872.802	0.0137273
872.880	0.0137218
872.958	0.0137183
873.036	0.0136757
873.114	0.0136633
873.193	0.0137958
873.271	0.0137853
873.349	0.0139189
873.427	0.0136986
873.505	0.0139038
873.583	0.0139371
873.661	0.0138684
873.739	0.0139626
873.818	0.0138956
873.896	0.0137838
873.974	0.0137854
874.052	0.0137997
874.130	0.0135415
874.208	0.0136297
874.286	0.0136529
874.364	0.0135644
874.443	0.0134776
874.521	0.0133959
874.599	0.0135706
874.677	0.0132930
874.755	0.0131925
874.833	0.0132662
874.911	0.0133556
874.989	0.0133316
875.068	0.0132822
875.146	0.0134116
875.224	0.0134248
875.302	0.0133211
875.380	0.0133372
875.458	0.0133915
875.536	0.0133811
875.614	0.0134448
875.693	0.0136163
875.771	0.0135779
875.849	0.0134449
875.927	0.0135777
876.005	0.0135075
876.083	0.0136406
876.161	0.0136172
876.239	0.0136383
876.318	0.0134579
876.396	0.0135183
876.474	0.0135130
876.552	0.0134263
876.630	0.0135129
876.708	0.0134175
876.786	0.0134630
876.864	0.0134814
876.943	0.0135255
877.021	0.0135344
877.099	0.0135644
877.177	0.0136456
877.255	0.0136388
877.333	0.0135958
877.411	0.0135319
877.489	0.0133667
877.568	0.0137045
877.646	0.0136881
877.724	0.0136151
877.802	0.0135944
877.880	0.0136823
877.958	0.0137133
878.036	0.0136023
878.114	0.0136240
878.193	0.0135423
878.271	0.0135308
878.349	0.0136957
878.427	0.0135442
878.505	0.0133897
878.583	0.0135178
878.661	0.0133355
878.739	0.0134029
878.818	0.0132920
878.896	0.0134444
878.974	0.0134985
879.052	0.0133546
879.130	0.0132598
879.208	0.0134241
879.286	0.0132851
879.364	0.0134030
879.443	0.0133717
879.521	0.0133929
879.599	0.0133172
879.677	0.0135725
879.755	0.0134342
879.833	0.0134937
879.911	0.0135785
879.989	0.0134824
880.068	0.0136488
880.146	0.0135407
880.224	0.0137952
880.302	0.0136649
880.380	0.0136372
880.458	0.0136061
880.536	0.0137368
880.614	0.0136483
880.693	0.0137511
880.771	0.0137144
880.849	0.0136178
880.927	0.0135941
881.005	0.0135844
881.083	0.0135198
881.161	0.0135587
881.239	0.0134809
881.318	0.0135023
881.396	0.0133268
881.474	0.0134020
881.552	0.0133396
881.630	0.0133676
881.708	0.0134090
881.786	0.0133642
881.864	0.0133560
881.943	0.0132835
882.021	0.0132077
882.099	0.0133381
882.177	0.0134263
882.255	0.0132246
882.333	0.0134086
882.411	0.0134479
882.489	0.0134730
882.568	0.0134097
882.646	0.0134448
882.724	0.0134956
882.802	0.0135841
882.880	0.0135081
882.958	0.0135715
883.036	0.0137077
883.114	0.0136328
883.193	0.0136731
883.271	0.0137506
883.349	0.0137102
883.427	0.0138605
883.505	0.0138714
883.583	0.0139135
883.661	0.0138627
883.739	0.0137849
883.818	0.0137827
883.896	0.0138499
883.974	0.0138000
884.052	0.0137999
884.130	0.0136807
884.208	0.0137029
884.286	0.0136979
884.364	0.0136649
884.443	0.0136641
884.521	0.0134910
884.599	0.0134984
884.677	0.0135520
884.755	0.0136725
884.833	0.0134522
884.911	0.0134802
884.989	0.0133642
885.068	0.0134638
885.146	0.0134415
885.224	0.0133428
885.302	0.0133169
885.380	0.0133750
885.458	0.0132315
885.536	0.0133630
885.614	0.0132636
885.693	0.0133833
885.771	0.0134090
885.849	0.0133953
885.927	0.0133614
886.005	0.0133401
886.083	0.0134577
886.161	0.0134220
886.239	0.0133244
886.318	0.0135083
886.396	0.0134631
886.474	0.0136127
886.552	0.0135403
886.630	0.0135421
886.708	0.0135244
886.786	0.0135379
886.864	0.0135568
886.943	0.0134684
887.021	0.0135394
887.099	0.0136662
887.177	0.0136002
887.255	0.0136869
887.333	0.0135500
887.411	0.0136917
887.489	0.0136069
887.568	0.0135278
887.646	0.0135767
887.724	0.0136922
887.802	0.0137892
887.880	0.0135632
887.958	0.0136339
888.036	0.0136596
888.114	0.0137895
888.193	0.0137755
888.271	0.0137591
888.349	0.0138364
888.427	0.0137565
888.505	0.0136871
888.583	0.0137653
888.661	0.0137676
888.739	0.0137498
888.818	0.0136887
888.896	0.0137637
888.974	0.0137661
889.052	0.0135979
889.130	0.0136351
889.208	0.0133918
889.286	0.0134615
889.364	0.0136037
889.443	0.0132635
889.521	0.0133706
889.599	0.0133959
889.677	0.0133688
889.755	0.0134231
889.833	0.0132787
889.911	0.0131557
889.989	0.0131235
890.068	0.0132999
890.146	0.0132988
890.224	0.0132569
890.302	0.0131826
890.380	0.0133136
890.458	0.0131390
890.536	0.0132481
890.614	0.0134492
890.693	0.0133624
890.771	0.0133138
890.849	0.0134116
890.927	0.0133827
891.005	0.0134985
891.083	0.0137316
891.161	0.0136852
891.239	0.0135382
891.318	0.0136694
891.396	0.0136126
891.474	0.0137405
891.552	0.0137656
891.630	0.0138227
891.708	0.0138029
891.786	0.0138120
891.864	0.0138496
891.943	0.0137098
892.021	0.0138866
892.099	0.0138451
892.177	0.0139017
892.255	0.0139462
892.333	0.0140578
892.411	0.0139465
892.489	0.0140377
892.568	0.0137849
892.646	0.0139172
892.724	0.0139098
892.802	0.0138383
892.880	0.0138324
892.958	0.0138340
893.036	0.0138035
893.114	0.0138432
893.193	0.0136635
893.271	0.0136235
893.349	0.0136971
893.427	0.0135841
893.505	0.0134982
893.583	0.0134589
893.661	0.0134958
893.739	0.0133860
893.818	0.0133050
893.896	0.0132635
893.974	0.0132983
894.052	0.0133260
894.130	0.0133208
894.208	0.0132796
894.286	0.0132148
894.364	0.0133675
894.443	0.0133022
894.521	0.0131194
894.599	0.0133211
894.677	0.0133537
894.755	0.0133026
894.833	0.0133052
894.911	0.0133923
894.989	0.0133946
895.068	0.0134101
895.146	0.0133739
895.224	0.0134835
895.302	0.0136497
895.380	0.0135080
895.458	0.0136328
895.536	0.0136247
895.614	0.0136985
895.693	0.0137103
895.771	0.0138167
895.849	0.0137309
895.927	0.0137363
896.005	0.0137743
896.083	0.0138780
896.161	0.0138116
896.239	0.0137770
896.318	0.0138957
896.396	0.0139185
896.474	0.0137691
896.552	0.0137301
896.630	0.0138001
896.708	0.0137833
896.786	0.0136654
896.864	0.0137002
896.943	0.0138036
897.021	0.0136702
897.099	0.0135443
897.177	0.0135746
897.255	0.0136752
897.333	0.0137872
897.411	0.0138104
897.489	0.0135141
897.568	0.0137618
897.646	0.0137159
897.724	0.0135925
897.802	0.0135880
897.880	0.0135032
897.958	0.0134705
898.036	0.0135764
898.114	0.0135796
898.193	0.0134004
898.271	0.0133922
898.349	0.0134350
898.427	0.0134807
898.505	0.0133501
898.583	0.0133461
898.661	0.0133423
898.739	0.0132305
898.818	0.0133320
898.896	0.0133611
898.974	0.0134777
899.052	0.0133343
899.130	0.0133291
899.208	0.0133788
899.286	0.0133483
899.364	0.0132190
899.443	0.0132100
899.521	0.0133363
899.599	0.0133137
899.677	0.0132899
899.755	0.0135104
899.833	0.0133924
899.911	0.0136506
899.989	0.0134912
900.068	0.0134777
900.146	0.0135940
900.224	0.0136497
900.302	0.0134981
900.380	0.0134426
900.458	0.0134457
900.536	0.0134310
900.614	0.0136806
900.693	0.0135055
900.771	0.0134502
900.849	0.0135299
900.927	0.0134319
901.005	0.0135635
901.083	0.0135471
901.161	0.0133380
901.239	0.0134421
901.318	0.0136193
901.396	0.0135755
901.474	0.0134935
901.552	0.0135853
901.630	0.0137586
901.708	0.0138774
901.786	0.0136476
901.864	0.0137407
901.943	0.0136890
902.021	0.0138391
902.099	0.0137665
902.177	0.0137647
902.255	0.0139206
902.333	0.0139120
902.411	0.0137206
902.489	0.0138219
902.568	0.0138704
902.646	0.0137815
902.724	0.0137624
902.802	0.0136674
902.880	0.0136870
902.958	0.0137766
903.036	0.0136414
903.114	0.0136194
903.193	0.0134635
903.271	0.0136463
903.349	0.0135915
903.427	0.0135023
903.505	0.0135159
903.583	0.0135423
903.661	0.0135128
903.739	0.0135697
903.818	0.0135396
903.896	0.0135123
903.974	0.0134216
904.052	0.0135239
904.130	0.0134925
904.208	0.0134081
904.286	0.0134563
904.364	0.0133708
904.443	0.0134877
904.521	0.0134583
904.599	0.0135107
904.677	0.0134458
904.755	0.0135781
904.833	0.0135302
904.911	0.0135728
904.989	0.0133887
905.068	0.0134378
905.146	0.0135365
905.224	0.0134946
905.302	0.0134669
905.380	0.0135488
905.458	0.0134529
905.536	0.0135575
905.614	0.0134430
905.693	0.0135842
905.771	0.0137106
905.849	0.0134830
905.927	0.0134531
906.005	0.0135361
906.083	0.0136146
906.161	0.0136971
906.239	0.0136288
906.318	0.0136113
906.396	0.0135703
906.474	0.0136108
906.552	0.0136031
906.630	0.0135239
906.708	0.0136300
906.786	0.0136150
906.864	0.0135750
906.943	0.0134852
907.021	0.0135456
907.099	0.0136008
907.177	0.0135125
907.255	0.0135770
907.333	0.0136416
907.411	0.0136589
907.489	0.0136173
907.568	0.0134746
907.646	0.0135349
907.724	0.0135028
907.802	0.0135744
907.880	0.0135326
907.958	0.0134499
908.036	0.0134138
908.114	0.0133904
908.193	0.0133601
908.271	0.0132854
908.349	0.0132955
908.427	0.0133974
908.505	0.0134114
908.583	0.0133010
908.661	0.0134292
908.739	0.0133507
908.818	0.0131569
908.896	0.0131815
908.974	0.0132508
909.052	0.0133291
909.130	0.0131651
909.208	0.0134264
909.286	0.0132939
909.364	0.0133225
909.443	0.0132744
909.521	0.0133110
909.599	0.0131960
909.677	0.0132790
909.755	0.0132641
909.833	0.0133439
909.911	0.0134464
909.989	0.0132876
910.068	0.0132471
910.146	0.0133443
910.224	0.0132853
910.302	0.0132175
910.380	0.0132674
910.458	0.0134885
910.536	0.0133662
910.614	0.0132214
910.693	0.0135493
910.771	0.0134533
910.849	0.0135015
910.927	0.0135159
911.005	0.0135403
911.083	0.0133916
911.161	0.0134821
911.239	0.0135906
911.318	0.0137518
911.396	0.0135992
911.474	0.0136109
911.552	0.0136697
911.630	0.0137151
911.708	0.0136326
911.786	0.0136984
911.864	0.0137258
911.943	0.0136776
912.021	0.0137126
912.099	0.0137653
912.177	0.0137050
912.255	0.0135714
912.333	0.0137848
912.411	0.0137206
912.489	0.0137013
912.568	0.0138211
912.646	0.0138239
912.724	0.0135912
912.802	0.0136459
912.880	0.0137414
912.958	0.0135477
913.036	0.0136471
913.114	0.0136092
913.193	0.0135929
913.271	0.0135172
913.349	0.0134960
913.427	0.0135833
913.505	0.0137083
913.583	0.0136868
913.661	0.0135262
913.739	0.0134709
913.818	0.0136790
913.896	0.0135823
913.974	0.0135744
914.052	0.0136941
914.130	0.0137296
914.208	0.0137305
914.286	0.0136945
914.364	0.0135682
914.443	0.0135471
914.521	0.0136313
914.599	0.0135632
914.677	0.0136290
914.755	0.0135668
914.833	0.0135200
914.911	0.0135655
914.989	0.0135461
915.068	0.0136354
915.146	0.0136088
915.224	0.0136501
915.302	0.0136026
915.380	0.0135851
915.458	0.0136915
915.536	0.0137083
915.614	0.0137296
915.693	0.0137286
915.771	0.0136146
915.849	0.0136163
915.927	0.0137376
916.005	0.0136673
916.083	0.0137496
916.161	0.0135927
916.239	0.0135542
916.318	0.0138150
916.396	0.0138069
916.474	0.0136428
916.552	0.0137192
916.630	0.0137251
916.708	0.0137505
916.786	0.0136790
916.864	0.0138912
916.943	0.0138078
917.021	0.0137454
917.099	0.0137229
917.177	0.0137082
917.255	0.0137885
917.333	0.0137433
917.411	0.0138126
917.489	0.0137939
917.568	0.0136752
917.646	0.0137880
917.724	0.0137180
917.802	0.0137727
917.880	0.0137358
917.958	0.0136776
918.036	0.0136443
918.114	0.0136446
918.193	0.0135893
918.271	0.0137135
918.349	0.0136953
918.427	0.0136515
918.505	0.0136060
918.583	0.0135226
918.661	0.0137257
918.739	0.0134841
918.818	0.0137162
918.896	0.0136154
918.974	0.0137138
919.052	0.0135596
919.130	0.0134937
919.208	0.0135249
919.286	0.0135212
919.364	0.0134352
919.443	0.0133759
919.521	0.0133761
919.599	0.0133110
919.677	0.0134706
919.755	0.0132952
919.833	0.0133459
919.911	0.0132908
919.989	0.0134496
920.068	0.0133274
920.146	0.0132816
920.224	0.0133548
920.302	0.0134483
920.380	0.0134243
920.458	0.0133800
920.536	0.0134992
920.614	0.0133537
920.693	0.0133734
920.771	0.0134782
920.849	0.0133968
920.927	0.0134109
921.005	0.0132738
921.083	0.0135857
921.161	0.0133990
921.239	0.0133366
921.318	0.0133984
921.396	0.0134461
921.474	0.0133835
921.552	0.0134367
921.630	0.0135215
921.708	0.0134695
921.786	0.0133701
921.864	0.0135241
921.943	0.0136213
922.021	0.0136213
922.099	0.0135596
922.177	0.0136384
922.255	0.0137149
922.333	0.0136742
922.411	0.0136783
922.489	0.0136848
922.568	0.0138148
922.646	0.0138571
922.724	0.0138708
922.802	0.0139046
922.880	0.0138555
922.958	0.0138465
923.036	0.0138929
923.114	0.0139757
923.193	0.0138203
923.271	0.0137062
923.349	0.0137888
923.427	0.0138156
923.505	0.0137085
923.583	0.0137099
923.661	0.0137815
923.739	0.0137633
923.818	0.0137691
923.896	0.0136470
923.974	0.0135885
924.052	0.0136372
924.130	0.0136208
924.208	0.0135030
924.286	0.0134856
924.364	0.0136371
924.443	0.0136485
924.521	0.0135738
924.599	0.0134662
924.677	0.0136541
924.755	0.0136278
924.833	0.0136873
924.911	0.0135770
924.989	0.0134995
925.068	0.0137164
925.146	0.0135927
925.224	0.0135638
925.302	0.0135722
925.380	0.0135905
925.458	0.0137170
925.536	0.0135834
925.614	0.0136790
925.693	0.0137341
925.771	0.0137213
925.849	0.0136176
925.927	0.0137221
926.005	0.0135881
926.083	0.0135576
926.161	0.0136851
926.239	0.0136285
926.318	0.0135799
926.396	0.0137286
926.474	0.0137138
926.552	0.0135868
926.630	0.0135852
926.708	0.0136764
926.786	0.0134933
926.864	0.0134827
926.943	0.0134933
927.021	0.0134627
927.099	0.0135234
927.177	0.0135159
927.255	0.0133556
927.333	0.0134521
927.411	0.0134454
927.489	0.0135434
927.568	0.0133688
927.646	0.0134256
927.724	0.0133507
927.802	0.0134496
927.880	0.0134521
927.958	0.0134809
928.036	0.0133928
928.114	0.0134002
928.193	0.0133633
928.271	0.0134297
928.349	0.0135432
928.427	0.0134560
928.505	0.0135641
928.583	0.0135273
928.661	0.0135215
928.739	0.0136489
928.818	0.0136622
928.896	0.0134705
928.974	0.0135120
929.052	0.0137412
929.130	0.0137875
929.208	0.0135577
929.286	0.0137661
929.364	0.0136614
929.443	0.0138476
929.521	0.0138072
929.599	0.0136724
929.677	0.0137154
929.755	0.0138161
929.833	0.0137142
929.911	0.0137747
929.989	0.0137641
930.068	0.0139403
930.146	0.0137363
930.224	0.0137586
930.302	0.0138133
930.380	0.0137117
930.458	0.0137827
930.536	0.0137254
930.614	0.0138582
930.693	0.0137448
930.771	0.0138698
930.849	0.0139320
930.927	0.0137886
931.005	0.0138455
931.083	0.0139581
931.161	0.0137149
931.239	0.0138084
931.318	0.0138314
931.396	0.0136853
931.474	0.0137825
931.552	0.0137502
931.630	0.0137794
931.708	0.0136533
931.786	0.0137117
931.864	0.0136971
931.943	0.0136383
932.021	0.0136366
932.099	0.0136588
932.177	0.0136201
932.255	0.0135041
932.333	0.0133900
932.411	0.0136046
932.489	0.0135323
932.568	0.0135002
932.646	0.0135089
932.724	0.0135760
932.802	0.0136086
932.880	0.0135748
932.958	0.0134995
933.036	0.0135720
933.114	0.0135374
933.193	0.0135783
933.271	0.0136652
933.349	0.0135822
933.427	0.0136025
933.505	0.0135415
933.583	0.0136008
933.661	0.0136514
933.739	0.0136917
933.818	0.0137199
933.896	0.0135661
933.974	0.0136205
934.052	0.0136458
934.130	0.0136127
934.208	0.0137003
934.286	0.0136837
934.364	0.0137017
934.443	0.0136990
934.521	0.0137240
934.599	0.0138927
934.677	0.0137923
934.755	0.0137994
934.833	0.0136729
934.911	0.0137998
934.989	0.0139284
935.068	0.0138027
935.146	0.0138494
935.224	0.0137626
935.302	0.0138428
935.380	0.0138475
935.458	0.0137762
935.536	0.0138463
935.614	0.0137688
935.693	0.0138363
935.771	0.0136370
935.849	0.0136969
935.927	0.0136626
936.005	0.0137117
936.083	0.0136255
936.161	0.0137003
936.239	0.0136396
936.318	0.0136401
936.396	0.0136992
936.474	0.0137293
936.552	0.0135437
936.630	0.0135626
936.708	0.0134851
936.786	0.0135798
936.864	0.0136273
936.943	0.0137360
937.021	0.0134208
937.099	0.0135194
937.177	0.0135021
937.255	0.0135936
937.333	0.0134529
937.411	0.0134677
937.489	0.0133681
937.568	0.0133962
937.646	0.0134055
937.724	0.0132753
937.802	0.0132841
937.880	0.0133331
937.958	0.0133592
938.036	0.0133450
938.114	0.0132565
938.193	0.0133694
938.271	0.0133465
938.349	0.0135297
938.427	0.0134776
938.505	0.0132692
938.583	0.0133178
938.661	0.0133437
938.739	0.0133080
938.818	0.0133668
938.896	0.0135301
938.974	0.0135600
939.052	0.0135876
939.130	0.0135712
939.208	0.0134654
939.286	0.0135683
939.364	0.0133772
939.443	0.0135994
939.521	0.0136227
939.599	0.0135697
939.677	0.0136604
939.755	0.0135240
939.833	0.0136125
939.911	0.0137598
939.989	0.0135148
940.068	0.0135239
940.146	0.0135579
940.224	0.0135160
940.302	0.0135265
940.380	0.0136909
940.458	0.0136192
940.536	0.0134767
940.614	0.0135899
940.693	0.0136702
940.771	0.0134989
940.849	0.0136191
940.927	0.0135038
941.005	0.0136480
941.083	0.0135500
941.161	0.0135506
941.239	0.0135897
941.318	0.0135795
941.396	0.0136127
941.474	0.0136211
941.552	0.0137657
941.630	0.0137552
941.708	0.0137263
941.786	0.0137287
941.864	0.0137299
941.943	0.0136456
942.021	0.0137737
942.099	0.0135568
942.177	0.0136864
942.255	0.0134853
942.333	0.0136838
942.411	0.0137343
942.489	0.0136916
942.568	0.0136945
942.646	0.0135017
942.724	0.0135581
942.802	0.0135809
942.880	0.0136558
942.958	0.0135928
943.036	0.0137180
943.114	0.0135493
943.193	0.0136492
943.271	0.0136553
943.349	0.0136776
943.427	0.0135685
943.505	0.0136486
943.583	0.0136264
943.661	0.0136772
943.739	0.0134824
943.818	0.0136278
943.896	0.0135686
943.974	0.0134438
944.052	0.0135983
944.130	0.0135471
944.208	0.0135520
944.286	0.0135002
944.364	0.0134143
944.443	0.0134397
944.521	0.0135903
944.599	0.0135405
944.677	0.0135866
944.755	0.0134825
944.833	0.0135065
944.911	0.0135231
944.989	0.0135270
945.068	0.0134937
945.146	0.0134741
945.224	0.0136280
945.302	0.0136607
945.380	0.0135769
945.458	0.0136051
945.536	0.0135412
945.614	0.0134805
945.693	0.0135214
945.771	0.0138009
945.849	0.0136734
945.927	0.0136442
946.005	0.0137237
946.083	0.0135963
946.161	0.0136498
946.239	0.0138332
946.318	0.0134996
946.396	0.0136411
946.474	0.0136494
946.552	0.0136275
946.630	0.0137425
946.708	0.0136964
946.786	0.0137385
946.864	0.0137103
946.943	0.0136932
947.021	0.0137887
947.099	0.0137850
947.177	0.0137069
947.255	0.0137733
947.333	0.0137607
947.411	0.0136433
947.489	0.0137231
947.568	0.0136275
947.646	0.0137385
947.724	0.0136238
947.802	0.0135175
947.880	0.0135076
947.958	0.0135921
948.036	0.0137811
948.114	0.0136365
948.193	0.0135063
948.271	0.0135072
948.349	0.0133939
948.427	0.0134940
948.505	0.0135040
948.583	0.0134353
948.661	0.0134641
948.739	0.0135614
948.818	0.0136889
948.896	0.0135780
948.974	0.0135787
949.052	0.0136181
949.130	0.0137161
949.208	0.0135337
949.286	0.0135425
949.364	0.0135841
949.443	0.0136800
949.521	0.0136217
949.599	0.0135927
949.677	0.0135280
949.755	0.0135696
949.833	0.0136598
949.911	0.0135606
949.989	0.0135863
950.068	0.0136076
950.146	0.0137210
950.224	0.0136302
950.302	0.0137153
950.380	0.0135573
950.458	0.0136079
950.536	0.0137663
950.614	0.0137018
950.693	0.0138721
950.771	0.0137316
950.849	0.0137178
950.927	0.0138008
951.005	0.0136832
951.083	0.0136967
951.161	0.0138110
951.239	0.0138358
951.318	0.0137609
951.396	0.0136301
951.474	0.0136161
951.552	0.0138126
951.630	0.0136501
951.708	0.0136723
951.786	0.0135953
951.864	0.0136485
951.943	0.0137209
952.021	0.0137485
952.099	0.0138227
952.177	0.0136939
952.255	0.0138179
952.333	0.0138245
952.411	0.0137572
952.489	0.0136015
952.568	0.0137249
952.646	0.0137981
952.724	0.0136550
952.802	0.0136622
952.880	0.0136845
952.958	0.0137621
953.036	0.0136949
953.114	0.0137421
953.193	0.0136638
953.271	0.0137492
953.349	0.0136944
953.427	0.0135924
953.505	0.0136277
953.583	0.0135725
953.661	0.0136466
953.739	0.0137529
953.818	0.0136230
953.896	0.0135442
953.974	0.0136414
954.052	0.0135847
954.130	0.0135178
954.208	0.0135997
954.286	0.0136516
954.364	0.0136488
954.443	0.0136184
954.521	0.0137558
954.599	0.0136540
954.677	0.0136176
954.755	0.0136191
954.833	0.0135754
954.911	0.0135912
954.989	0.0136094
955.068	0.0137188
955.146	0.0137006
955.224	0.0137260
955.302	0.0136302
955.380	0.0136043
955.458	0.0135944
955.536	0.0136551
955.614	0.0138473
955.693	0.0135402
955.771	0.0135317
955.849	0.0137813
955.927	0.0136776
956.005	0.0136682
956.083	0.0135302
956.161	0.0135326
956.239	0.0137575
956.318	0.0136889
956.396	0.0136636
956.474	0.0137509
956.552	0.0138540
956.630	0.0136673
956.708	0.0136929
956.786	0.0138426
956.864	0.0137514
956.943	0.0138342
957.021	0.0137759
957.099	0.0138428
957.177	0.0138982
957.255	0.0139058
957.333	0.0138518
957.411	0.0136469
957.489	0.0135577
957.568	0.0136598
957.646	0.0136469
957.724	0.0137584
957.802	0.0136621
957.880	0.0138298
957.958	0.0136454
958.036	0.0137717
958.114	0.0138248
958.193	0.0137319
958.271	0.0135853
958.349	0.0136538
958.427	0.0137004
958.505	0.0137514
958.583	0.0137137
958.661	0.0137011
958.739	0.0137601
958.818	0.0138138
958.896	0.0136224
958.974	0.0137036
959.052	0.0137234
959.130	0.0138399
959.208	0.0137948
959.286	0.0136436
959.364	0.0137881
959.443	0.0137453
959.521	0.0136820
959.599	0.0135600
959.677	0.0136477
959.755	0.0136190
959.833	0.0135413
959.911	0.0136811
