05/14/2022	16:46:07	Ver.	4.1	UNKNOWN
Optical Delay	639.989416	Delta X		0.078125	Sweeps	1	Scan Rate	0/0
Coordinates	Axis 1	NaN	Axis 2	NaN	Axis 3	NaN	Axis 4	NaN	Axis 5	NaN	Axis 6	0.000000
TX Power	0.000000	RX Power	0.000000

639.989	0.0132815
640.068	0.0132430
640.146	0.0133391
640.224	0.0133303
640.302	0.0132832
640.380	0.0134572
640.458	0.0133511
640.536	0.0134319
640.614	0.0133413
640.693	0.0134376
640.771	0.0133609
640.849	0.0134850
640.927	0.0133809
641.005	0.0133727
641.083	0.0132626
641.161	0.0131885
641.239	0.0133011
641.318	0.0134121
641.396	0.0133717
641.474	0.0134103
641.552	0.0133932
641.630	0.0134399
641.708	0.0133231
641.786	0.0133147
641.864	0.0132701
641.943	0.0132061
642.021	0.0134179
642.099	0.0133395
642.177	0.0134505
642.255	0.0133067
642.333	0.0132346
642.411	0.0131122
642.489	0.0133488
642.568	0.0132871
642.646	0.0133183
642.724	0.0132175
642.802	0.0131551
642.880	0.0132018
642.958	0.0132395
643.036	0.0130798
643.114	0.0132095
643.193	0.0132254
643.271	0.0131080
643.349	0.0130657
643.427	0.0131837
643.505	0.0132355
643.583	0.0131698
643.661	0.0130957
643.739	0.0131931
643.818	0.0132471
643.896	0.0132495
643.974	0.0130707
644.052	0.0131044
644.130	0.0131929
644.208	0.0131915
644.286	0.0130378
644.364	0.0130302
644.443	0.0130260
644.521	0.0131906
644.599	0.0132345
644.677	0.0131596
644.755	0.0131309
644.833	0.0132941
644.911	0.0131908
644.989	0.0131563
645.068	0.0131027
645.146	0.0130315
645.224	0.0131136
645.302	0.0130301
645.380	0.0130902
645.458	0.0131553
645.536	0.0131472
645.614	0.0129425
645.693	0.0129851
645.771	0.0132221
645.849	0.0131248
645.927	0.0132349
646.005	0.0130638
646.083	0.0131934
646.161	0.0131406
646.239	0.0130404
646.318	0.0131998
646.396	0.0132240
646.474	0.0130445
646.552	0.0130981
646.630	0.0131894
646.708	0.0131319
646.786	0.0131708
646.864	0.0130417
646.943	0.0131976
647.021	0.0131847
647.099	0.0132095
647.177	0.0131272
647.255	0.0133148
647.333	0.0132051
647.411	0.0130803
647.489	0.0131705
647.568	0.0132150
647.646	0.0132156
647.724	0.0132772
647.802	0.0132134
647.880	0.0131628
647.958	0.0132722
648.036	0.0132693
648.114	0.0132544
648.193	0.0133024
648.271	0.0132183
648.349	0.0132465
648.427	0.0131566
648.505	0.0134223
648.583	0.0130407
648.661	0.0131474
648.739	0.0132549
648.818	0.0131590
648.896	0.0131634
648.974	0.0131721
649.052	0.0132585
649.130	0.0131577
649.208	0.0132231
649.286	0.0132664
649.364	0.0130759
649.443	0.0131813
649.521	0.0131403
649.599	0.0132034
649.677	0.0131697
649.755	0.0131930
649.833	0.0130507
649.911	0.0131448
649.989	0.0131021
650.068	0.0131295
650.146	0.0130130
650.224	0.0131529
650.302	0.0132732
650.380	0.0131085
650.458	0.0132256
650.536	0.0131738
650.614	0.0131445
650.693	0.0132474
650.771	0.0130527
650.849	0.0132533
650.927	0.0132123
651.005	0.0131009
651.083	0.0132030
651.161	0.0132172
651.239	0.0130863
651.318	0.0132521
651.396	0.0132951
651.474	0.0131883
651.552	0.0132740
651.630	0.0132436
651.708	0.0132348
651.786	0.0132402
651.864	0.0132049
651.943	0.0132388
652.021	0.0132165
652.099	0.0132741
652.177	0.0133463
652.255	0.0131993
652.333	0.0131409
652.411	0.0133236
652.489	0.0133322
652.568	0.0132469
652.646	0.0134026
652.724	0.0132880
652.802	0.0132996
652.880	0.0133514
652.958	0.0134333
653.036	0.0134210
653.114	0.0133221
653.193	0.0134570
653.271	0.0135607
653.349	0.0136440
653.427	0.0134800
653.505	0.0135400
653.583	0.0134526
653.661	0.0135368
653.739	0.0134633
653.818	0.0134688
653.896	0.0135722
653.974	0.0135364
654.052	0.0133980
654.130	0.0133415
654.208	0.0134637
654.286	0.0134116
654.364	0.0133708
654.443	0.0132883
654.521	0.0133738
654.599	0.0133456
654.677	0.0133633
654.755	0.0134417
654.833	0.0132572
654.911	0.0132522
654.989	0.0130766
655.068	0.0133599
655.146	0.0132977
655.224	0.0132207
655.302	0.0133646
655.380	0.0131942
655.458	0.0131264
655.536	0.0132352
655.614	0.0131741
655.693	0.0131046
655.771	0.0131966
655.849	0.0131296
655.927	0.0131565
656.005	0.0131911
656.083	0.0132023
656.161	0.0130492
656.239	0.0130060
656.318	0.0132071
656.396	0.0132434
656.474	0.0131587
656.552	0.0131356
656.630	0.0131046
656.708	0.0131344
656.786	0.0131328
656.864	0.0131223
656.943	0.0131007
657.021	0.0131313
657.099	0.0132619
657.177	0.0131633
657.255	0.0131625
657.333	0.0130801
657.411	0.0131588
657.489	0.0131293
657.568	0.0130341
657.646	0.0131662
657.724	0.0131557
657.802	0.0131528
657.880	0.0131160
657.958	0.0130551
658.036	0.0130387
658.114	0.0132702
658.193	0.0131932
658.271	0.0132004
658.349	0.0131216
658.427	0.0132753
658.505	0.0131778
658.583	0.0131010
658.661	0.0131612
658.739	0.0131516
658.818	0.0131749
658.896	0.0131341
658.974	0.0132175
659.052	0.0131389
659.130	0.0131599
659.208	0.0132254
659.286	0.0133739
659.364	0.0131992
659.443	0.0132165
659.521	0.0132873
659.599	0.0132545
659.677	0.0132180
659.755	0.0130906
659.833	0.0132681
659.911	0.0133292
659.989	0.0133106
660.068	0.0132440
660.146	0.0131888
660.224	0.0131741
660.302	0.0132137
660.380	0.0132301
660.458	0.0131250
660.536	0.0133113
660.614	0.0132611
660.693	0.0130663
660.771	0.0132721
660.849	0.0131892
660.927	0.0131938
661.005	0.0132571
661.083	0.0131488
661.161	0.0131779
661.239	0.0132676
661.318	0.0131380
661.396	0.0132587
661.474	0.0133218
661.552	0.0131126
661.630	0.0130864
661.708	0.0131561
661.786	0.0132877
661.864	0.0132072
661.943	0.0132069
662.021	0.0132177
662.099	0.0133350
662.177	0.0132496
662.255	0.0132917
662.333	0.0133199
662.411	0.0132082
662.489	0.0132629
662.568	0.0131667
662.646	0.0133199
662.724	0.0132339
662.802	0.0130571
662.880	0.0132333
662.958	0.0131485
663.036	0.0132345
663.114	0.0130828
663.193	0.0132124
663.271	0.0131327
663.349	0.0131817
663.427	0.0133141
663.505	0.0133029
663.583	0.0132748
663.661	0.0130802
663.739	0.0132315
663.818	0.0131710
663.896	0.0133155
663.974	0.0131928
664.052	0.0133850
664.130	0.0133643
664.208	0.0132568
664.286	0.0133552
664.364	0.0135441
664.443	0.0134705
664.521	0.0134998
664.599	0.0135396
664.677	0.0136122
664.755	0.0136548
664.833	0.0135337
664.911	0.0135655
664.989	0.0135960
665.068	0.0134412
665.146	0.0134151
665.224	0.0134230
665.302	0.0134683
665.380	0.0132996
665.458	0.0132860
665.536	0.0132762
665.614	0.0132538
665.693	0.0132525
665.771	0.0130426
665.849	0.0131585
665.927	0.0131029
666.005	0.0130206
666.083	0.0131073
666.161	0.0131334
666.239	0.0129798
666.318	0.0131785
666.396	0.0130618
666.474	0.0132452
666.552	0.0133500
666.630	0.0134313
666.708	0.0133530
666.786	0.0134986
666.864	0.0134335
666.943	0.0134742
667.021	0.0136840
667.099	0.0137961
667.177	0.0139135
667.255	0.0138192
667.333	0.0138523
667.411	0.0137709
667.489	0.0137894
667.568	0.0137392
667.646	0.0138453
667.724	0.0136377
667.802	0.0135748
667.880	0.0135117
667.958	0.0133074
668.036	0.0131690
668.114	0.0130822
668.193	0.0129738
668.271	0.0129643
668.349	0.0129804
668.427	0.0128623
668.505	0.0127148
668.583	0.0128609
668.661	0.0126606
668.739	0.0127637
668.818	0.0127348
668.896	0.0127035
668.974	0.0129263
669.052	0.0129853
669.130	0.0128367
669.208	0.0130731
669.286	0.0131391
669.364	0.0132090
669.443	0.0133472
669.521	0.0135098
669.599	0.0135716
669.677	0.0135596
669.755	0.0137540
669.833	0.0138126
669.911	0.0139121
669.989	0.0139300
670.068	0.0138490
670.146	0.0138825
670.224	0.0140136
670.302	0.0138525
670.380	0.0138687
670.458	0.0138393
670.536	0.0136529
670.614	0.0136044
670.693	0.0134941
670.771	0.0132529
670.849	0.0131464
670.927	0.0129858
671.005	0.0128570
671.083	0.0128127
671.161	0.0125546
671.239	0.0126118
671.318	0.0124577
671.396	0.0123283
671.474	0.0123522
671.552	0.0123113
671.630	0.0125540
671.708	0.0123889
671.786	0.0125105
671.864	0.0126035
671.943	0.0128365
672.021	0.0130845
672.099	0.0130722
672.177	0.0132103
672.255	0.0134842
672.333	0.0135964
672.411	0.0138084
672.489	0.0142274
672.568	0.0141553
672.646	0.0143440
672.724	0.0143670
672.802	0.0145468
672.880	0.0147449
672.958	0.0146172
673.036	0.0146159
673.114	0.0147989
673.193	0.0145867
673.271	0.0144475
673.349	0.0143575
673.427	0.0141179
673.505	0.0140175
673.583	0.0138411
673.661	0.0137485
673.739	0.0135031
673.818	0.0132740
673.896	0.0131057
673.974	0.0127750
674.052	0.0127044
674.130	0.0124934
674.208	0.0123643
674.286	0.0122242
674.364	0.0121368
674.443	0.0119399
674.521	0.0117773
674.599	0.0117355
674.677	0.0118481
674.755	0.0119308
674.833	0.0120792
674.911	0.0122395
674.989	0.0123990
675.068	0.0125015
675.146	0.0126933
675.224	0.0130167
675.302	0.0132638
675.380	0.0134312
675.458	0.0138101
675.536	0.0139393
675.614	0.0141711
675.693	0.0143539
675.771	0.0145331
675.849	0.0145524
675.927	0.0148484
676.005	0.0149162
676.083	0.0149241
676.161	0.0151107
676.239	0.0148344
676.318	0.0149540
676.396	0.0149500
676.474	0.0148723
676.552	0.0147215
676.630	0.0145667
676.708	0.0144347
676.786	0.0141074
676.864	0.0138554
676.943	0.0137069
677.021	0.0135140
677.099	0.0131168
677.177	0.0129858
677.255	0.0126616
677.333	0.0124587
677.411	0.0121267
677.489	0.0120375
677.568	0.0118546
677.646	0.0119197
677.724	0.0118158
677.802	0.0117702
677.880	0.0116408
677.958	0.0117064
678.036	0.0118989
678.114	0.0119218
678.193	0.0119004
678.271	0.0121190
678.349	0.0123021
678.427	0.0123504
678.505	0.0124586
678.583	0.0126783
678.661	0.0127757
678.739	0.0128933
678.818	0.0128600
678.896	0.0132685
678.974	0.0133610
679.052	0.0135473
679.130	0.0135764
679.208	0.0136058
679.286	0.0136505
679.364	0.0137134
679.443	0.0138194
679.521	0.0137995
679.599	0.0138395
679.677	0.0139446
679.755	0.0138477
679.833	0.0136747
679.911	0.0138322
679.989	0.0136716
680.068	0.0135811
680.146	0.0136846
680.224	0.0135539
680.302	0.0133834
680.380	0.0135730
680.458	0.0134724
680.536	0.0135479
680.614	0.0134581
680.693	0.0135580
680.771	0.0136250
680.849	0.0134583
680.927	0.0136404
681.005	0.0136816
681.083	0.0137353
681.161	0.0138030
681.239	0.0138203
681.318	0.0138054
681.396	0.0139146
681.474	0.0139290
681.552	0.0139038
681.630	0.0139505
681.708	0.0139007
681.786	0.0139650
681.864	0.0139120
681.943	0.0138682
682.021	0.0138496
682.099	0.0137219
682.177	0.0137309
682.255	0.0134897
682.333	0.0134315
682.411	0.0132573
682.489	0.0131060
682.568	0.0128226
682.646	0.0128749
682.724	0.0126579
682.802	0.0124039
682.880	0.0122947
682.958	0.0121193
683.036	0.0122156
683.114	0.0122611
683.193	0.0120141
683.271	0.0120200
683.349	0.0119375
683.427	0.0119819
683.505	0.0120619
683.583	0.0121580
683.661	0.0122160
683.739	0.0122304
683.818	0.0122596
683.896	0.0123687
683.974	0.0124667
684.052	0.0126608
684.130	0.0127431
684.208	0.0128115
684.286	0.0130646
684.364	0.0131915
684.443	0.0132734
684.521	0.0134483
684.599	0.0135608
684.677	0.0135956
684.755	0.0138684
684.833	0.0139209
684.911	0.0139647
684.989	0.0140225
685.068	0.0142515
685.146	0.0143651
685.224	0.0144542
685.302	0.0144000
685.380	0.0144849
685.458	0.0146458
685.536	0.0146404
685.614	0.0148396
685.693	0.0148114
685.771	0.0149603
685.849	0.0149631
685.927	0.0151103
686.005	0.0150729
686.083	0.0150985
686.161	0.0151082
686.239	0.0150843
686.318	0.0151859
686.396	0.0147876
686.474	0.0147641
686.552	0.0147490
686.630	0.0145335
686.708	0.0143575
686.786	0.0141187
686.864	0.0138890
686.943	0.0136262
687.021	0.0132980
687.099	0.0130076
687.177	0.0126523
687.255	0.0123220
687.333	0.0120873
687.411	0.0117353
687.489	0.0115965
687.568	0.0112067
687.646	0.0109973
687.724	0.0109151
687.802	0.0107245
687.880	0.0104365
687.958	0.0105496
688.036	0.0106558
688.114	0.0106766
688.193	0.0108498
688.271	0.0109200
688.349	0.0111040
688.427	0.0114806
688.505	0.0116779
688.583	0.0119431
688.661	0.0122261
688.739	0.0125976
688.818	0.0129018
688.896	0.0132363
688.974	0.0134875
689.052	0.0138499
689.130	0.0138525
689.208	0.0140733
689.286	0.0144678
689.364	0.0144894
689.443	0.0144347
689.521	0.0145945
689.599	0.0146751
689.677	0.0145161
689.755	0.0148087
689.833	0.0147783
689.911	0.0144296
689.989	0.0143187
690.068	0.0143694
690.146	0.0141095
690.224	0.0140753
690.302	0.0139772
690.380	0.0139626
690.458	0.0136830
690.536	0.0137791
690.614	0.0135571
690.693	0.0134717
690.771	0.0135037
690.849	0.0135790
690.927	0.0134977
691.005	0.0136105
691.083	0.0137871
691.161	0.0137824
691.239	0.0139325
691.318	0.0139574
691.396	0.0139439
691.474	0.0140545
691.552	0.0141975
691.630	0.0141072
691.708	0.0141080
691.786	0.0142567
691.864	0.0142277
691.943	0.0141497
692.021	0.0139943
692.099	0.0139227
692.177	0.0139718
692.255	0.0136530
692.333	0.0135291
692.411	0.0131763
692.489	0.0131970
692.568	0.0127448
692.646	0.0126453
692.724	0.0124577
692.802	0.0119923
692.880	0.0117353
692.958	0.0116120
693.036	0.0114346
693.114	0.0112812
693.193	0.0108892
693.271	0.0108556
693.349	0.0109164
693.427	0.0108011
693.505	0.0108611
693.583	0.0108234
693.661	0.0109025
693.739	0.0111472
693.818	0.0111191
693.896	0.0113152
693.974	0.0114523
694.052	0.0115343
694.130	0.0118078
694.208	0.0121777
694.286	0.0124139
694.364	0.0125694
694.443	0.0128469
694.521	0.0130948
694.599	0.0134273
694.677	0.0137436
694.755	0.0137178
694.833	0.0140472
694.911	0.0142224
694.989	0.0143848
695.068	0.0146170
695.146	0.0148884
695.224	0.0150783
695.302	0.0150800
695.380	0.0152170
695.458	0.0154544
695.536	0.0152918
695.614	0.0153440
695.693	0.0154884
695.771	0.0156099
695.849	0.0157208
695.927	0.0155795
696.005	0.0156203
696.083	0.0156882
696.161	0.0156872
696.239	0.0157040
696.318	0.0155264
696.396	0.0154018
696.474	0.0153326
696.552	0.0154111
696.630	0.0153374
696.708	0.0152782
696.786	0.0149908
696.864	0.0147932
696.943	0.0147484
697.021	0.0146286
697.099	0.0144869
697.177	0.0140368
697.255	0.0139255
697.333	0.0138190
697.411	0.0134430
697.489	0.0131476
697.568	0.0127120
697.646	0.0125548
697.724	0.0122915
697.802	0.0120097
697.880	0.0115844
697.958	0.0111303
698.036	0.0109639
698.114	0.0107381
698.193	0.0103951
698.271	0.0101781
698.349	0.00982933
698.427	0.00964455
698.505	0.00956108
698.583	0.00945396
698.661	0.00946442
698.739	0.00936028
698.818	0.00953934
698.896	0.00959465
698.974	0.00971710
699.052	0.0101006
699.130	0.0101853
699.208	0.0104481
699.286	0.0108605
699.364	0.0112225
699.443	0.0116045
699.521	0.0118845
699.599	0.0124050
699.677	0.0127573
699.755	0.0133176
699.833	0.0137609
699.911	0.0143494
699.989	0.0145301
700.068	0.0150200
700.146	0.0153712
700.224	0.0157803
700.302	0.0160304
700.380	0.0161952
700.458	0.0163583
700.536	0.0166985
700.614	0.0168971
700.693	0.0167468
700.771	0.0168065
700.849	0.0168698
700.927	0.0168443
701.005	0.0168393
701.083	0.0167084
701.161	0.0167162
701.239	0.0166179
701.318	0.0165398
701.396	0.0163497
701.474	0.0160297
701.552	0.0160291
701.630	0.0157501
701.708	0.0155678
701.786	0.0151958
701.864	0.0149860
701.943	0.0147083
702.021	0.0145118
702.099	0.0140598
702.177	0.0137648
702.255	0.0133671
702.333	0.0130147
702.411	0.0127423
702.489	0.0123516
702.568	0.0120286
702.646	0.0119080
702.724	0.0114624
702.802	0.0112601
702.880	0.0109612
702.958	0.0108347
703.036	0.0104308
703.114	0.0103556
703.193	0.0102134
703.271	0.00993980
703.349	0.0100488
703.427	0.00978424
703.505	0.00981941
703.583	0.00985146
703.661	0.00978691
703.739	0.00988441
703.818	0.0101073
703.896	0.0101621
703.974	0.0102519
704.052	0.0105275
704.130	0.0106970
704.208	0.0108865
704.286	0.0110860
704.364	0.0113263
704.443	0.0116386
704.521	0.0119246
704.599	0.0120529
704.677	0.0123365
704.755	0.0125916
704.833	0.0128095
704.911	0.0131773
704.989	0.0133775
705.068	0.0138720
705.146	0.0139185
705.224	0.0143272
705.302	0.0147208
705.380	0.0149762
705.458	0.0151273
705.536	0.0153228
705.614	0.0154662
705.693	0.0157461
705.771	0.0158761
705.849	0.0158906
705.927	0.0158787
706.005	0.0160938
706.083	0.0161150
706.161	0.0160976
706.239	0.0160522
706.318	0.0161440
706.396	0.0161880
706.474	0.0160921
706.552	0.0159168
706.630	0.0158575
706.708	0.0157310
706.786	0.0157011
706.864	0.0154046
706.943	0.0152335
707.021	0.0150784
707.099	0.0147978
707.177	0.0145325
707.255	0.0143230
707.333	0.0141541
707.411	0.0137470
707.489	0.0136732
707.568	0.0134558
707.646	0.0130314
707.724	0.0130232
707.802	0.0128535
707.880	0.0126097
707.958	0.0124163
708.036	0.0122866
708.114	0.0121250
708.193	0.0119491
708.271	0.0117529
708.349	0.0114955
708.427	0.0114686
708.505	0.0113203
708.583	0.0112271
708.661	0.0111404
708.739	0.0111379
708.818	0.0111784
708.896	0.0111805
708.974	0.0112468
709.052	0.0111721
709.130	0.0113947
709.208	0.0113493
709.286	0.0114754
709.364	0.0114970
709.443	0.0116835
709.521	0.0116936
709.599	0.0118867
709.677	0.0120201
709.755	0.0122163
709.833	0.0123942
709.911	0.0125711
709.989	0.0125578
710.068	0.0127840
710.146	0.0129560
710.224	0.0130811
710.302	0.0132056
710.380	0.0132849
710.458	0.0133578
710.536	0.0135164
710.614	0.0135326
710.693	0.0136272
710.771	0.0136572
710.849	0.0136865
710.927	0.0136707
711.005	0.0135989
711.083	0.0137232
711.161	0.0139194
711.239	0.0139353
711.318	0.0141174
711.396	0.0142519
711.474	0.0143214
711.552	0.0144291
711.630	0.0144238
711.708	0.0145580
711.786	0.0147297
711.864	0.0147384
711.943	0.0150067
712.021	0.0150903
712.099	0.0151828
712.177	0.0151033
712.255	0.0151148
712.333	0.0151768
712.411	0.0150175
712.489	0.0152050
712.568	0.0150089
712.646	0.0149888
712.724	0.0146901
712.802	0.0147590
712.880	0.0144366
712.958	0.0145065
713.036	0.0142985
713.114	0.0140873
713.193	0.0139730
713.271	0.0138378
713.349	0.0137217
713.427	0.0136146
713.505	0.0135321
713.583	0.0134924
713.661	0.0132120
713.739	0.0130679
713.818	0.0131966
713.896	0.0128795
713.974	0.0128309
714.052	0.0128711
714.130	0.0126985
714.208	0.0126650
714.286	0.0125579
714.364	0.0122244
714.443	0.0121785
714.521	0.0121793
714.599	0.0122180
714.677	0.0119585
714.755	0.0117659
714.833	0.0118745
714.911	0.0118745
714.989	0.0116087
715.068	0.0114296
715.146	0.0116075
715.224	0.0115411
715.302	0.0114409
715.380	0.0111948
715.458	0.0113049
715.536	0.0114317
715.614	0.0114774
715.693	0.0116158
715.771	0.0117338
715.849	0.0117932
715.927	0.0118970
716.005	0.0120698
716.083	0.0122348
716.161	0.0124535
716.239	0.0126139
716.318	0.0127824
716.396	0.0128704
716.474	0.0129671
716.552	0.0130441
716.630	0.0131918
716.708	0.0133759
716.786	0.0136088
716.864	0.0137504
716.943	0.0139617
717.021	0.0140207
717.099	0.0142539
717.177	0.0144584
717.255	0.0145762
717.333	0.0147066
717.411	0.0149659
717.489	0.0150272
717.568	0.0150610
717.646	0.0151591
717.724	0.0151536
717.802	0.0152361
717.880	0.0153533
717.958	0.0152541
718.036	0.0153107
718.114	0.0151044
718.193	0.0150009
718.271	0.0149893
718.349	0.0149242
718.427	0.0147472
718.505	0.0144086
718.583	0.0143471
718.661	0.0141373
718.739	0.0139278
718.818	0.0136903
718.896	0.0135121
718.974	0.0133648
719.052	0.0131606
719.130	0.0130618
719.208	0.0127560
719.286	0.0126601
719.364	0.0126953
719.443	0.0125262
719.521	0.0125451
719.599	0.0125484
719.677	0.0125639
719.755	0.0124148
719.833	0.0123698
719.911	0.0122316
719.989	0.0123296
720.068	0.0121444
720.146	0.0123135
720.224	0.0121553
720.302	0.0122549
720.380	0.0121339
720.458	0.0122333
720.536	0.0122718
720.614	0.0123299
720.693	0.0121259
720.771	0.0121768
720.849	0.0122822
720.927	0.0122810
721.005	0.0122377
721.083	0.0122241
721.161	0.0122924
721.239	0.0123105
721.318	0.0121887
721.396	0.0123471
721.474	0.0123956
721.552	0.0124011
721.630	0.0124999
721.708	0.0126742
721.786	0.0127618
721.864	0.0129562
721.943	0.0130526
722.021	0.0131129
722.099	0.0133474
722.177	0.0134109
722.255	0.0136392
722.333	0.0136241
722.411	0.0137554
722.489	0.0138937
722.568	0.0139080
722.646	0.0139227
722.724	0.0138811
722.802	0.0140103
722.880	0.0140330
722.958	0.0139086
723.036	0.0139548
723.114	0.0138879
723.193	0.0139314
723.271	0.0138187
723.349	0.0137935
723.427	0.0138039
723.505	0.0136506
723.583	0.0137800
723.661	0.0135905
723.739	0.0135886
723.818	0.0136099
723.896	0.0135883
723.974	0.0135966
724.052	0.0134382
724.130	0.0133791
724.208	0.0132936
724.286	0.0133656
724.364	0.0133141
724.443	0.0133997
724.521	0.0132298
724.599	0.0131622
724.677	0.0133588
724.755	0.0133241
724.833	0.0133196
724.911	0.0133724
724.989	0.0133961
725.068	0.0134283
725.146	0.0135165
725.224	0.0135265
725.302	0.0135091
725.380	0.0136769
725.458	0.0137337
725.536	0.0136028
725.614	0.0136969
725.693	0.0135078
725.771	0.0135229
725.849	0.0133944
725.927	0.0132810
726.005	0.0131584
726.083	0.0129868
726.161	0.0129385
726.239	0.0130409
726.318	0.0129617
726.396	0.0127474
726.474	0.0126790
726.552	0.0126259
726.630	0.0127979
726.708	0.0126043
726.786	0.0126229
726.864	0.0125774
726.943	0.0125878
727.021	0.0127132
727.099	0.0126324
727.177	0.0126518
727.255	0.0127712
727.333	0.0129268
727.411	0.0127840
727.489	0.0128160
727.568	0.0129150
727.646	0.0129483
727.724	0.0128049
727.802	0.0129522
727.880	0.0130399
727.958	0.0130254
728.036	0.0129182
728.114	0.0131915
728.193	0.0130960
728.271	0.0129838
728.349	0.0131853
728.427	0.0132124
728.505	0.0131169
728.583	0.0131705
728.661	0.0132302
728.739	0.0131721
728.818	0.0132518
728.896	0.0133633
728.974	0.0134057
729.052	0.0134255
729.130	0.0136419
729.208	0.0136747
729.286	0.0137767
729.364	0.0137356
729.443	0.0138065
729.521	0.0139397
729.599	0.0138153
729.677	0.0138291
729.755	0.0139845
729.833	0.0138065
729.911	0.0138696
729.989	0.0138894
730.068	0.0140186
730.146	0.0138955
730.224	0.0137600
730.302	0.0137197
730.380	0.0137566
730.458	0.0138738
730.536	0.0137828
730.614	0.0138153
730.693	0.0137646
730.771	0.0137891
730.849	0.0136528
730.927	0.0136515
731.005	0.0135899
731.083	0.0136095
731.161	0.0136663
731.239	0.0136665
731.318	0.0134984
731.396	0.0134629
731.474	0.0135005
731.552	0.0134045
731.630	0.0134325
731.708	0.0134788
731.786	0.0133974
731.864	0.0133094
731.943	0.0131900
732.021	0.0131736
732.099	0.0130344
732.177	0.0130060
732.255	0.0129939
732.333	0.0130122
732.411	0.0130447
732.489	0.0129053
732.568	0.0128885
732.646	0.0128111
732.724	0.0128324
732.802	0.0129067
732.880	0.0129186
732.958	0.0128534
733.036	0.0129766
733.114	0.0129553
733.193	0.0129984
733.271	0.0129745
733.349	0.0129850
733.427	0.0131648
733.505	0.0130750
733.583	0.0130917
733.661	0.0131411
733.739	0.0131561
733.818	0.0131926
733.896	0.0132603
733.974	0.0131125
734.052	0.0132171
734.130	0.0131636
734.208	0.0131451
734.286	0.0132507
734.364	0.0132370
734.443	0.0132460
734.521	0.0132300
734.599	0.0131666
734.677	0.0133129
734.755	0.0132145
734.833	0.0132707
734.911	0.0132246
734.989	0.0132233
735.068	0.0132978
735.146	0.0132782
735.224	0.0132711
735.302	0.0132905
735.380	0.0131560
735.458	0.0133972
735.536	0.0133009
735.614	0.0132162
735.693	0.0134119
735.771	0.0132291
735.849	0.0132005
735.927	0.0130711
736.005	0.0130811
736.083	0.0130573
736.161	0.0128989
736.239	0.0129638
736.318	0.0128625
736.396	0.0129623
736.474	0.0128651
736.552	0.0128320
736.630	0.0130422
736.708	0.0130612
736.786	0.0129333
736.864	0.0129192
736.943	0.0133401
737.021	0.0132703
737.099	0.0134599
737.177	0.0132518
737.255	0.0133138
737.333	0.0135509
737.411	0.0137222
737.489	0.0138251
737.568	0.0137234
737.646	0.0137088
737.724	0.0139431
737.802	0.0139135
737.880	0.0139387
737.958	0.0137930
738.036	0.0139351
738.114	0.0139746
738.193	0.0138007
738.271	0.0138464
738.349	0.0139748
738.427	0.0137945
738.505	0.0137103
738.583	0.0136590
738.661	0.0136456
738.739	0.0137674
738.818	0.0136803
738.896	0.0135918
738.974	0.0135690
739.052	0.0136455
739.130	0.0137130
739.208	0.0136057
739.286	0.0134824
739.364	0.0134657
739.443	0.0134704
739.521	0.0133340
739.599	0.0132756
739.677	0.0130898
739.755	0.0129994
739.833	0.0129416
739.911	0.0129245
739.989	0.0127246
740.068	0.0126626
740.146	0.0126334
740.224	0.0126080
740.302	0.0126930
740.380	0.0125100
740.458	0.0124232
740.536	0.0123981
740.614	0.0123420
740.693	0.0124326
740.771	0.0125358
740.849	0.0126276
740.927	0.0126271
741.005	0.0125883
741.083	0.0125977
741.161	0.0127376
741.239	0.0126708
741.318	0.0128976
741.396	0.0131167
741.474	0.0131626
741.552	0.0130630
741.630	0.0132908
741.708	0.0131944
741.786	0.0134075
741.864	0.0134761
741.943	0.0134554
742.021	0.0135284
742.099	0.0135513
742.177	0.0136557
742.255	0.0136266
742.333	0.0134267
742.411	0.0135576
742.489	0.0134392
742.568	0.0133549
742.646	0.0133894
742.724	0.0133763
742.802	0.0133488
742.880	0.0134053
742.958	0.0134859
743.036	0.0133305
743.114	0.0132939
743.193	0.0134513
743.271	0.0132720
743.349	0.0135012
743.427	0.0133909
743.505	0.0134205
743.583	0.0134666
743.661	0.0135104
743.739	0.0136145
743.818	0.0134272
743.896	0.0135635
743.974	0.0134619
744.052	0.0136263
744.130	0.0136484
744.208	0.0135434
744.286	0.0134805
744.364	0.0136193
744.443	0.0134845
744.521	0.0133591
744.599	0.0133211
744.677	0.0133595
744.755	0.0133160
744.833	0.0131436
744.911	0.0131782
744.989	0.0131126
745.068	0.0130502
745.146	0.0129877
745.224	0.0130872
745.302	0.0130592
745.380	0.0130350
745.458	0.0131654
745.536	0.0131278
745.614	0.0130536
745.693	0.0131200
745.771	0.0131355
745.849	0.0131471
745.927	0.0131693
746.005	0.0132629
746.083	0.0130685
746.161	0.0131608
746.239	0.0132806
746.318	0.0131996
746.396	0.0130489
746.474	0.0131620
746.552	0.0131087
746.630	0.0131832
746.708	0.0129446
746.786	0.0129506
746.864	0.0128855
746.943	0.0129549
747.021	0.0129852
747.099	0.0130163
747.177	0.0129844
747.255	0.0129205
747.333	0.0131739
747.411	0.0131930
747.489	0.0131017
747.568	0.0131763
747.646	0.0134058
747.724	0.0132354
747.802	0.0134029
747.880	0.0132983
747.958	0.0133514
748.036	0.0133753
748.114	0.0133569
748.193	0.0131931
748.271	0.0132108
748.349	0.0132307
748.427	0.0131808
748.505	0.0131155
748.583	0.0131136
748.661	0.0130765
748.739	0.0131203
748.818	0.0129916
748.896	0.0130013
748.974	0.0130129
749.052	0.0129470
749.130	0.0130062
749.208	0.0130647
749.286	0.0131187
749.364	0.0131477
749.443	0.0132555
749.521	0.0132768
749.599	0.0133434
749.677	0.0132966
749.755	0.0134463
749.833	0.0136138
749.911	0.0135911
749.989	0.0136491
750.068	0.0137523
750.146	0.0136589
750.224	0.0138706
750.302	0.0139555
750.380	0.0136745
750.458	0.0137527
750.536	0.0137701
750.614	0.0137983
750.693	0.0137062
750.771	0.0136656
750.849	0.0136374
750.927	0.0137726
751.005	0.0137776
751.083	0.0137370
751.161	0.0137868
751.239	0.0136150
751.318	0.0137176
751.396	0.0136851
751.474	0.0136954
751.552	0.0136433
751.630	0.0135981
751.708	0.0136189
751.786	0.0135923
751.864	0.0135719
751.943	0.0135729
752.021	0.0135286
752.099	0.0136912
752.177	0.0136776
752.255	0.0135751
752.333	0.0135155
752.411	0.0135546
752.489	0.0135493
752.568	0.0135830
752.646	0.0135060
752.724	0.0134203
752.802	0.0135014
752.880	0.0133810
752.958	0.0133663
753.036	0.0133633
753.114	0.0132806
753.193	0.0131602
753.271	0.0131087
753.349	0.0129839
753.427	0.0130686
753.505	0.0129903
753.583	0.0127943
753.661	0.0127579
753.739	0.0128021
753.818	0.0127145
753.896	0.0126080
753.974	0.0128596
754.052	0.0128349
754.130	0.0127889
754.208	0.0126552
754.286	0.0125771
754.364	0.0126579
754.443	0.0125954
754.521	0.0125519
754.599	0.0126524
754.677	0.0126574
754.755	0.0127196
754.833	0.0125844
754.911	0.0127621
754.989	0.0126702
755.068	0.0125883
755.146	0.0129510
755.224	0.0129369
755.302	0.0129337
755.380	0.0128802
755.458	0.0131419
755.536	0.0132109
755.614	0.0133730
755.693	0.0134380
755.771	0.0135826
755.849	0.0136105
755.927	0.0136827
756.005	0.0137900
756.083	0.0138335
756.161	0.0139502
756.239	0.0139297
756.318	0.0138659
756.396	0.0140196
756.474	0.0139181
756.552	0.0139693
756.630	0.0139751
756.708	0.0138472
756.786	0.0138175
756.864	0.0138391
756.943	0.0137368
757.021	0.0137074
757.099	0.0137191
757.177	0.0136082
757.255	0.0137157
757.333	0.0135266
757.411	0.0134616
757.489	0.0134918
757.568	0.0134245
757.646	0.0133490
757.724	0.0132964
757.802	0.0133700
757.880	0.0132951
757.958	0.0130926
758.036	0.0132915
758.114	0.0132504
758.193	0.0131757
758.271	0.0131377
758.349	0.0131792
758.427	0.0131300
758.505	0.0131541
758.583	0.0133011
758.661	0.0133398
758.739	0.0132994
758.818	0.0131725
758.896	0.0131414
758.974	0.0133330
759.052	0.0130511
759.130	0.0129616
759.208	0.0129634
759.286	0.0130544
759.364	0.0129406
759.443	0.0128433
759.521	0.0127528
759.599	0.0128125
759.677	0.0128497
759.755	0.0126892
759.833	0.0126158
759.911	0.0127467
759.989	0.0127578
760.068	0.0127492
760.146	0.0125715
760.224	0.0126923
760.302	0.0126678
760.380	0.0127972
760.458	0.0128189
760.536	0.0128390
760.614	0.0128716
760.693	0.0129922
760.771	0.0129786
760.849	0.0128476
760.927	0.0130250
761.005	0.0129263
761.083	0.0130324
761.161	0.0131394
761.239	0.0130133
761.318	0.0131082
761.396	0.0131743
761.474	0.0131866
761.552	0.0132867
761.630	0.0133147
761.708	0.0133443
761.786	0.0132536
761.864	0.0135048
761.943	0.0135413
762.021	0.0135114
762.099	0.0136247
762.177	0.0137383
762.255	0.0137295
762.333	0.0137201
762.411	0.0138364
762.489	0.0137703
762.568	0.0136926
762.646	0.0138425
762.724	0.0138367
762.802	0.0138631
762.880	0.0140241
762.958	0.0138457
763.036	0.0138499
763.114	0.0136771
763.193	0.0138067
763.271	0.0137655
763.349	0.0137130
763.427	0.0136832
763.505	0.0136618
763.583	0.0136409
763.661	0.0135088
763.739	0.0135558
763.818	0.0134989
763.896	0.0135278
763.974	0.0135452
764.052	0.0135294
764.130	0.0134996
764.208	0.0134725
764.286	0.0134236
764.364	0.0134288
764.443	0.0134836
764.521	0.0133334
764.599	0.0134225
764.677	0.0134350
764.755	0.0134512
764.833	0.0133891
764.911	0.0134682
764.989	0.0132725
765.068	0.0132869
765.146	0.0132610
765.224	0.0133898
765.302	0.0131069
765.380	0.0133372
765.458	0.0132681
765.536	0.0131219
765.614	0.0130752
765.693	0.0130518
765.771	0.0129659
765.849	0.0129681
765.927	0.0129807
766.005	0.0129150
766.083	0.0129394
766.161	0.0128903
766.239	0.0130367
766.318	0.0129354
766.396	0.0129432
766.474	0.0131314
766.552	0.0129087
766.630	0.0128549
766.708	0.0129411
766.786	0.0128429
766.864	0.0129845
766.943	0.0129258
767.021	0.0129404
767.099	0.0130733
767.177	0.0130259
767.255	0.0130400
767.333	0.0129751
767.411	0.0130296
767.489	0.0131995
767.568	0.0132343
767.646	0.0132471
767.724	0.0131837
767.802	0.0132024
767.880	0.0133134
767.958	0.0132445
768.036	0.0131743
768.114	0.0132393
768.193	0.0131455
768.271	0.0133065
768.349	0.0134043
768.427	0.0132928
768.505	0.0132647
768.583	0.0132986
768.661	0.0134969
768.739	0.0134770
768.818	0.0136023
768.896	0.0134801
768.974	0.0135985
769.052	0.0137465
769.130	0.0137212
769.208	0.0135904
769.286	0.0135934
769.364	0.0137672
769.443	0.0136472
769.521	0.0135349
769.599	0.0138161
769.677	0.0138713
769.755	0.0137966
769.833	0.0137890
769.911	0.0136594
769.989	0.0138314
770.068	0.0139317
770.146	0.0137769
770.224	0.0137281
770.302	0.0135896
770.380	0.0135609
770.458	0.0134828
770.536	0.0134463
770.614	0.0133737
770.693	0.0133736
770.771	0.0133086
770.849	0.0130430
770.927	0.0132023
771.005	0.0131857
771.083	0.0130257
771.161	0.0129029
771.239	0.0128645
771.318	0.0128865
771.396	0.0128523
771.474	0.0127506
771.552	0.0127444
771.630	0.0126257
771.708	0.0125722
771.786	0.0125434
771.864	0.0125432
771.943	0.0126339
772.021	0.0126122
772.099	0.0125998
772.177	0.0127902
772.255	0.0127425
772.333	0.0128004
772.411	0.0126707
772.489	0.0129057
772.568	0.0128498
772.646	0.0128886
772.724	0.0130264
772.802	0.0130744
772.880	0.0132430
772.958	0.0133248
773.036	0.0134303
773.114	0.0134742
773.193	0.0135803
773.271	0.0137371
773.349	0.0137636
773.427	0.0137891
773.505	0.0139976
773.583	0.0139328
773.661	0.0138708
773.739	0.0139696
773.818	0.0140526
773.896	0.0140444
773.974	0.0139228
774.052	0.0140096
774.130	0.0139588
774.208	0.0138563
774.286	0.0138905
774.364	0.0138073
774.443	0.0137755
774.521	0.0138547
774.599	0.0137894
774.677	0.0137294
774.755	0.0135920
774.833	0.0135773
774.911	0.0135487
774.989	0.0135336
775.068	0.0135485
775.146	0.0136214
775.224	0.0134505
775.302	0.0132635
775.380	0.0135471
775.458	0.0136092
775.536	0.0133599
775.614	0.0135206
775.693	0.0134521
775.771	0.0133604
775.849	0.0135182
775.927	0.0133897
776.005	0.0135339
776.083	0.0134424
776.161	0.0133103
776.239	0.0134793
776.318	0.0134786
776.396	0.0133272
776.474	0.0132571
776.552	0.0132458
776.630	0.0132212
776.708	0.0133040
776.786	0.0133603
776.864	0.0132509
776.943	0.0131475
777.021	0.0133190
777.099	0.0131940
777.177	0.0130262
777.255	0.0132088
777.333	0.0132063
777.411	0.0131378
777.489	0.0130458
777.568	0.0130817
777.646	0.0130913
777.724	0.0129800
777.802	0.0130384
777.880	0.0129552
777.958	0.0130636
778.036	0.0130659
778.114	0.0130917
778.193	0.0131096
778.271	0.0129391
778.349	0.0130560
778.427	0.0132185
778.505	0.0132140
778.583	0.0131974
778.661	0.0132285
778.739	0.0131519
778.818	0.0133856
778.896	0.0133616
778.974	0.0133474
779.052	0.0134917
779.130	0.0134743
779.208	0.0135506
779.286	0.0134164
779.364	0.0133314
779.443	0.0134472
779.521	0.0135017
779.599	0.0134348
779.677	0.0134450
779.755	0.0133632
779.833	0.0134269
779.911	0.0131700
779.989	0.0132966
780.068	0.0131373
780.146	0.0131772
780.224	0.0130940
780.302	0.0130625
780.380	0.0130376
780.458	0.0129710
780.536	0.0130572
780.614	0.0130652
780.693	0.0129445
780.771	0.0128733
780.849	0.0129520
780.927	0.0128504
781.005	0.0131476
781.083	0.0130423
781.161	0.0131216
781.239	0.0131241
781.318	0.0132448
781.396	0.0133115
781.474	0.0133894
781.552	0.0133559
781.630	0.0132282
781.708	0.0134311
781.786	0.0134863
781.864	0.0134963
781.943	0.0133959
782.021	0.0134338
782.099	0.0135233
782.177	0.0134748
782.255	0.0135201
782.333	0.0135090
782.411	0.0134045
782.489	0.0134424
782.568	0.0135791
782.646	0.0135390
782.724	0.0134650
782.802	0.0134491
782.880	0.0133601
782.958	0.0133824
783.036	0.0134016
783.114	0.0135026
783.193	0.0134101
783.271	0.0133202
783.349	0.0132177
783.427	0.0132575
783.505	0.0131391
783.583	0.0130804
783.661	0.0129762
783.739	0.0128301
783.818	0.0128825
783.896	0.0128911
783.974	0.0127116
784.052	0.0125732
784.130	0.0126706
784.208	0.0127832
784.286	0.0126339
784.364	0.0127116
784.443	0.0127042
784.521	0.0125286
784.599	0.0126930
784.677	0.0126041
784.755	0.0127379
784.833	0.0128743
784.911	0.0129041
784.989	0.0129629
785.068	0.0128127
785.146	0.0129504
785.224	0.0129351
785.302	0.0131819
785.380	0.0130560
785.458	0.0131732
785.536	0.0132305
785.614	0.0134540
785.693	0.0133572
785.771	0.0132877
785.849	0.0133485
785.927	0.0133159
786.005	0.0133549
786.083	0.0134179
786.161	0.0134667
786.239	0.0134287
786.318	0.0135356
786.396	0.0134531
786.474	0.0136578
786.552	0.0136835
786.630	0.0137505
786.708	0.0136703
786.786	0.0135505
786.864	0.0136897
786.943	0.0136781
787.021	0.0136890
787.099	0.0136253
787.177	0.0137265
787.255	0.0137035
787.333	0.0136025
787.411	0.0136473
787.489	0.0136497
787.568	0.0136797
787.646	0.0136143
787.724	0.0136846
787.802	0.0136138
787.880	0.0135357
787.958	0.0136491
788.036	0.0135407
788.114	0.0135658
788.193	0.0135675
788.271	0.0133760
788.349	0.0134097
788.427	0.0135164
788.505	0.0133382
788.583	0.0133717
788.661	0.0131947
788.739	0.0131741
788.818	0.0131583
788.896	0.0131101
788.974	0.0131728
789.052	0.0129227
789.130	0.0129786
789.208	0.0130796
789.286	0.0128046
789.364	0.0127667
789.443	0.0129110
789.521	0.0129752
789.599	0.0129106
789.677	0.0128473
789.755	0.0127564
789.833	0.0127813
789.911	0.0128790
789.989	0.0130249
790.068	0.0130616
790.146	0.0129571
790.224	0.0129079
790.302	0.0129958
790.380	0.0131203
790.458	0.0130427
790.536	0.0130496
790.614	0.0131082
790.693	0.0130681
790.771	0.0131570
790.849	0.0132931
790.927	0.0133273
791.005	0.0133021
791.083	0.0133443
791.161	0.0134079
791.239	0.0132961
791.318	0.0134190
791.396	0.0134433
791.474	0.0135130
791.552	0.0135776
791.630	0.0135178
791.708	0.0136523
791.786	0.0137196
791.864	0.0136996
791.943	0.0137548
792.021	0.0136600
792.099	0.0138740
792.177	0.0137408
792.255	0.0138632
792.333	0.0137573
792.411	0.0137457
792.489	0.0137598
792.568	0.0137133
792.646	0.0137172
792.724	0.0136877
792.802	0.0136511
792.880	0.0136577
792.958	0.0135236
793.036	0.0134414
793.114	0.0135948
793.193	0.0134578
793.271	0.0135590
793.349	0.0135696
793.427	0.0133968
793.505	0.0134676
793.583	0.0133039
793.661	0.0135373
793.739	0.0134882
793.818	0.0133718
793.896	0.0134179
793.974	0.0133975
794.052	0.0132938
794.130	0.0131261
794.208	0.0131641
794.286	0.0131371
794.364	0.0130133
794.443	0.0130460
794.521	0.0130700
794.599	0.0128705
794.677	0.0128130
794.755	0.0127318
794.833	0.0126662
794.911	0.0126464
794.989	0.0126035
795.068	0.0124758
795.146	0.0126152
795.224	0.0126421
795.302	0.0127425
795.380	0.0126412
795.458	0.0127136
795.536	0.0127605
795.614	0.0128875
795.693	0.0129950
795.771	0.0129032
795.849	0.0130160
795.927	0.0132368
796.005	0.0132245
796.083	0.0132594
796.161	0.0133183
796.239	0.0134734
796.318	0.0134705
796.396	0.0134528
796.474	0.0136502
796.552	0.0136435
796.630	0.0136591
796.708	0.0137169
796.786	0.0138309
796.864	0.0138914
796.943	0.0139566
797.021	0.0138515
797.099	0.0139744
797.177	0.0140307
797.255	0.0139783
797.333	0.0139972
797.411	0.0140646
797.489	0.0139904
797.568	0.0140063
797.646	0.0140597
797.724	0.0141089
797.802	0.0141010
797.880	0.0141592
797.958	0.0140575
798.036	0.0140069
798.114	0.0140623
798.193	0.0139459
798.271	0.0138503
798.349	0.0138577
798.427	0.0139108
798.505	0.0137586
798.583	0.0137707
798.661	0.0135736
798.739	0.0135084
798.818	0.0135641
798.896	0.0134368
798.974	0.0131908
799.052	0.0132829
799.130	0.0132100
799.208	0.0130585
799.286	0.0130407
799.364	0.0129768
799.443	0.0128610
799.521	0.0126939
799.599	0.0126534
799.677	0.0126241
799.755	0.0124791
799.833	0.0124321
799.911	0.0124515
799.989	0.0124680
800.068	0.0123287
800.146	0.0123829
800.224	0.0123544
800.302	0.0124405
800.380	0.0123486
800.458	0.0125059
800.536	0.0124874
800.614	0.0124355
800.693	0.0126888
800.771	0.0127568
800.849	0.0127734
800.927	0.0126146
801.005	0.0127544
801.083	0.0128424
801.161	0.0129365
801.239	0.0130001
801.318	0.0129729
801.396	0.0130351
801.474	0.0133231
801.552	0.0132185
801.630	0.0133279
801.708	0.0134163
801.786	0.0135754
801.864	0.0135435
801.943	0.0136282
802.021	0.0136771
802.099	0.0137334
802.177	0.0136566
802.255	0.0138297
802.333	0.0138611
802.411	0.0138789
802.489	0.0138969
802.568	0.0139481
802.646	0.0140305
802.724	0.0139164
802.802	0.0140051
802.880	0.0139898
802.958	0.0140568
803.036	0.0140583
803.114	0.0139271
803.193	0.0139203
803.271	0.0137904
803.349	0.0138786
803.427	0.0139442
803.505	0.0139821
803.583	0.0138567
803.661	0.0137362
803.739	0.0137073
803.818	0.0137002
803.896	0.0136546
803.974	0.0135384
804.052	0.0135603
804.130	0.0134317
804.208	0.0131758
804.286	0.0132503
804.364	0.0131976
804.443	0.0131205
804.521	0.0129285
804.599	0.0128896
804.677	0.0129034
804.755	0.0128835
804.833	0.0128181
804.911	0.0128403
804.989	0.0128358
805.068	0.0127381
805.146	0.0127826
805.224	0.0128059
805.302	0.0127701
805.380	0.0126197
805.458	0.0126550
805.536	0.0126688
805.614	0.0127544
805.693	0.0126834
805.771	0.0126688
805.849	0.0126062
805.927	0.0129025
806.005	0.0128128
806.083	0.0128334
806.161	0.0127467
806.239	0.0128425
806.318	0.0129078
806.396	0.0129691
806.474	0.0130931
806.552	0.0131492
806.630	0.0131695
806.708	0.0132409
806.786	0.0134164
806.864	0.0132761
806.943	0.0132947
807.021	0.0134293
807.099	0.0133753
807.177	0.0134062
807.255	0.0135516
807.333	0.0134802
807.411	0.0136596
807.489	0.0134187
807.568	0.0136480
807.646	0.0137264
807.724	0.0138447
807.802	0.0137440
807.880	0.0137250
807.958	0.0137511
808.036	0.0137650
808.114	0.0137759
808.193	0.0139829
808.271	0.0140621
808.349	0.0140390
808.427	0.0141127
808.505	0.0141334
808.583	0.0140533
808.661	0.0140816
808.739	0.0139220
808.818	0.0140479
808.896	0.0139827
808.974	0.0139744
809.052	0.0139584
809.130	0.0140104
809.208	0.0138638
809.286	0.0136515
809.364	0.0137161
809.443	0.0137389
809.521	0.0135851
809.599	0.0135292
809.677	0.0135493
809.755	0.0133408
809.833	0.0133484
809.911	0.0131468
809.989	0.0132197
810.068	0.0134139
810.146	0.0133333
810.224	0.0129891
810.302	0.0131076
810.380	0.0131159
810.458	0.0130370
810.536	0.0128646
810.614	0.0128853
810.693	0.0129117
810.771	0.0130206
810.849	0.0128504
810.927	0.0127306
811.005	0.0126434
811.083	0.0127867
811.161	0.0125906
811.239	0.0125348
811.318	0.0125868
811.396	0.0126813
811.474	0.0126460
811.552	0.0126315
811.630	0.0125845
811.708	0.0125327
811.786	0.0127712
811.864	0.0126553
811.943	0.0125256
812.021	0.0127677
812.099	0.0126662
812.177	0.0126917
812.255	0.0128535
812.333	0.0130495
812.411	0.0129591
812.489	0.0130122
812.568	0.0131091
812.646	0.0131989
812.724	0.0132392
812.802	0.0133002
812.880	0.0133415
812.958	0.0134444
813.036	0.0134949
813.114	0.0136221
813.193	0.0136394
813.271	0.0136478
813.349	0.0136400
813.427	0.0137027
813.505	0.0136646
813.583	0.0137301
813.661	0.0139140
813.739	0.0138715
813.818	0.0136691
813.896	0.0137138
813.974	0.0139127
814.052	0.0137859
814.130	0.0138220
814.208	0.0137306
814.286	0.0137893
814.364	0.0137259
814.443	0.0139156
814.521	0.0138004
814.599	0.0137122
814.677	0.0137142
814.755	0.0135529
814.833	0.0136808
814.911	0.0134228
814.989	0.0134220
815.068	0.0134253
815.146	0.0135183
815.224	0.0132661
815.302	0.0130351
815.380	0.0129845
815.458	0.0129487
815.536	0.0128365
815.614	0.0126427
815.693	0.0127747
815.771	0.0126842
815.849	0.0126350
815.927	0.0124627
816.005	0.0123945
816.083	0.0123373
816.161	0.0124511
816.239	0.0124569
816.318	0.0125471
816.396	0.0126266
816.474	0.0124411
816.552	0.0125212
816.630	0.0126937
816.708	0.0128385
816.786	0.0127621
816.864	0.0129166
816.943	0.0130841
817.021	0.0131712
817.099	0.0131223
817.177	0.0131218
817.255	0.0133085
817.333	0.0133514
817.411	0.0132800
817.489	0.0135075
817.568	0.0134555
817.646	0.0134895
817.724	0.0135313
817.802	0.0135275
817.880	0.0135220
817.958	0.0135989
818.036	0.0135594
818.114	0.0135472
818.193	0.0136110
818.271	0.0135109
818.349	0.0134890
818.427	0.0134675
818.505	0.0134901
818.583	0.0135580
818.661	0.0133249
818.739	0.0134112
818.818	0.0134361
818.896	0.0133941
818.974	0.0132796
819.052	0.0132735
819.130	0.0133392
819.208	0.0133550
819.286	0.0133052
819.364	0.0131731
819.443	0.0132885
819.521	0.0132322
819.599	0.0133092
819.677	0.0133366
819.755	0.0133196
819.833	0.0132920
819.911	0.0132487
819.989	0.0133452
820.068	0.0135085
820.146	0.0133521
820.224	0.0133346
820.302	0.0135114
820.380	0.0133941
820.458	0.0132597
820.536	0.0131184
820.614	0.0131789
820.693	0.0131918
820.771	0.0131310
820.849	0.0130183
820.927	0.0130096
821.005	0.0129969
821.083	0.0129897
821.161	0.0129600
821.239	0.0129645
821.318	0.0130196
821.396	0.0128909
821.474	0.0128558
821.552	0.0131879
821.630	0.0130683
821.708	0.0128857
821.786	0.0131624
821.864	0.0131641
821.943	0.0131361
822.021	0.0132275
822.099	0.0132901
822.177	0.0133601
822.255	0.0134776
822.333	0.0134456
822.411	0.0134056
822.489	0.0134491
822.568	0.0134277
822.646	0.0134854
822.724	0.0134910
822.802	0.0135356
822.880	0.0136177
822.958	0.0134610
823.036	0.0135341
823.114	0.0135726
823.193	0.0135142
823.271	0.0136598
823.349	0.0136304
823.427	0.0134597
823.505	0.0135406
823.583	0.0134840
823.661	0.0134936
823.739	0.0134737
823.818	0.0134470
823.896	0.0133275
823.974	0.0133630
824.052	0.0134431
824.130	0.0133630
824.208	0.0133937
824.286	0.0132537
824.364	0.0131227
824.443	0.0132447
824.521	0.0131911
824.599	0.0130402
824.677	0.0129390
824.755	0.0131289
824.833	0.0129681
824.911	0.0128585
824.989	0.0130309
825.068	0.0130477
825.146	0.0129626
825.224	0.0130335
825.302	0.0130208
825.380	0.0131346
825.458	0.0130895
825.536	0.0131195
825.614	0.0131276
825.693	0.0131081
825.771	0.0131641
825.849	0.0132731
825.927	0.0131047
826.005	0.0132899
826.083	0.0133053
826.161	0.0132069
826.239	0.0132766
826.318	0.0133884
826.396	0.0134705
826.474	0.0133936
826.552	0.0134525
826.630	0.0135664
826.708	0.0136172
826.786	0.0135578
826.864	0.0135941
826.943	0.0136499
827.021	0.0136090
827.099	0.0135542
827.177	0.0137386
827.255	0.0135792
827.333	0.0136434
827.411	0.0135930
827.489	0.0136403
827.568	0.0137142
827.646	0.0137097
827.724	0.0137682
827.802	0.0136465
827.880	0.0135828
827.958	0.0137284
828.036	0.0136996
828.114	0.0136211
828.193	0.0136430
828.271	0.0135107
828.349	0.0136089
828.427	0.0135421
828.505	0.0133981
828.583	0.0134636
828.661	0.0134020
828.739	0.0133233
828.818	0.0133160
828.896	0.0133916
828.974	0.0134432
829.052	0.0134077
829.130	0.0135207
829.208	0.0134715
829.286	0.0135035
829.364	0.0136328
829.443	0.0136018
829.521	0.0135153
829.599	0.0136487
829.677	0.0137130
829.755	0.0137348
829.833	0.0136186
829.911	0.0137093
829.989	0.0136898
830.068	0.0137489
830.146	0.0137112
830.224	0.0136867
830.302	0.0137630
830.380	0.0136543
830.458	0.0136775
830.536	0.0136447
830.614	0.0136618
830.693	0.0135667
830.771	0.0134949
830.849	0.0133549
830.927	0.0131969
831.005	0.0132642
831.083	0.0132016
831.161	0.0131345
831.239	0.0131505
831.318	0.0131004
831.396	0.0130946
831.474	0.0130946
831.552	0.0129269
831.630	0.0128997
831.708	0.0129250
831.786	0.0129485
831.864	0.0129900
831.943	0.0130190
832.021	0.0130138
832.099	0.0130439
832.177	0.0130607
832.255	0.0129954
832.333	0.0130986
832.411	0.0132296
832.489	0.0133159
832.568	0.0132784
832.646	0.0132806
832.724	0.0133773
832.802	0.0133006
832.880	0.0134103
832.958	0.0133845
833.036	0.0133345
833.114	0.0134532
833.193	0.0134618
833.271	0.0135803
833.349	0.0135742
833.427	0.0135341
833.505	0.0135715
833.583	0.0135534
833.661	0.0136023
833.739	0.0135939
833.818	0.0137530
833.896	0.0135868
833.974	0.0136310
834.052	0.0135159
834.130	0.0136112
834.208	0.0136231
834.286	0.0135069
834.364	0.0136107
834.443	0.0135783
834.521	0.0135294
834.599	0.0134293
834.677	0.0134704
834.755	0.0134029
834.833	0.0135032
834.911	0.0133344
834.989	0.0133701
835.068	0.0132034
835.146	0.0131113
835.224	0.0131525
835.302	0.0130977
835.380	0.0130090
835.458	0.0129378
835.536	0.0131075
835.614	0.0129343
835.693	0.0129421
835.771	0.0127726
835.849	0.0127847
835.927	0.0127918
836.005	0.0128694
836.083	0.0129787
836.161	0.0127731
836.239	0.0127151
836.318	0.0127533
836.396	0.0128458
836.474	0.0129298
836.552	0.0128844
836.630	0.0129772
836.708	0.0129617
836.786	0.0129315
836.864	0.0129732
836.943	0.0129696
837.021	0.0130087
837.099	0.0130132
837.177	0.0129570
837.255	0.0130575
837.333	0.0130654
837.411	0.0131207
837.489	0.0131543
837.568	0.0131327
837.646	0.0131015
837.724	0.0130966
837.802	0.0130703
837.880	0.0131086
837.958	0.0131688
838.036	0.0132435
838.114	0.0131384
838.193	0.0131839
838.271	0.0131732
838.349	0.0132320
838.427	0.0132684
838.505	0.0133825
838.583	0.0134615
838.661	0.0134258
838.739	0.0134628
838.818	0.0135124
838.896	0.0136021
838.974	0.0135931
839.052	0.0134946
839.130	0.0135573
839.208	0.0136560
839.286	0.0135088
839.364	0.0135840
839.443	0.0136644
839.521	0.0134911
839.599	0.0134747
839.677	0.0134444
839.755	0.0134524
839.833	0.0133775
839.911	0.0134677
839.989	0.0134328
840.068	0.0133874
840.146	0.0133597
840.224	0.0134246
840.302	0.0132201
840.380	0.0132719
840.458	0.0132444
840.536	0.0131765
840.614	0.0132344
840.693	0.0130238
840.771	0.0131115
840.849	0.0129601
840.927	0.0130164
841.005	0.0130552
841.083	0.0129324
841.161	0.0127737
841.239	0.0126679
841.318	0.0127922
841.396	0.0130241
841.474	0.0128195
841.552	0.0127326
841.630	0.0129155
841.708	0.0128033
841.786	0.0128146
841.864	0.0128393
841.943	0.0128642
842.021	0.0129098
842.099	0.0130619
842.177	0.0130731
842.255	0.0131869
842.333	0.0131381
842.411	0.0133483
842.489	0.0134789
842.568	0.0134568
842.646	0.0134123
842.724	0.0135268
842.802	0.0134871
842.880	0.0135016
842.958	0.0134659
843.036	0.0134135
843.114	0.0135655
843.193	0.0136136
843.271	0.0135178
843.349	0.0134029
843.427	0.0133207
843.505	0.0134164
843.583	0.0135519
843.661	0.0134736
843.739	0.0131917
843.818	0.0131911
843.896	0.0132540
843.974	0.0131976
844.052	0.0131284
844.130	0.0130288
844.208	0.0130738
844.286	0.0131219
844.364	0.0132303
844.443	0.0131274
844.521	0.0131679
844.599	0.0131611
844.677	0.0130833
844.755	0.0130891
844.833	0.0132267
844.911	0.0133144
844.989	0.0132747
845.068	0.0133285
845.146	0.0133656
845.224	0.0133722
845.302	0.0132962
845.380	0.0133096
845.458	0.0133804
845.536	0.0134414
845.614	0.0133927
845.693	0.0132500
845.771	0.0133894
845.849	0.0132306
845.927	0.0132913
846.005	0.0131410
846.083	0.0131992
846.161	0.0133177
846.239	0.0132127
846.318	0.0133833
846.396	0.0133340
846.474	0.0133238
846.552	0.0132475
846.630	0.0132847
846.708	0.0132587
846.786	0.0134463
846.864	0.0131905
846.943	0.0131837
847.021	0.0131573
847.099	0.0131895
847.177	0.0132590
847.255	0.0132771
847.333	0.0131272
847.411	0.0130950
847.489	0.0130615
847.568	0.0130494
847.646	0.0130105
847.724	0.0129343
847.802	0.0130312
847.880	0.0130971
847.958	0.0129941
848.036	0.0129440
848.114	0.0128784
848.193	0.0130113
848.271	0.0131114
848.349	0.0129869
848.427	0.0129547
848.505	0.0130591
848.583	0.0130738
848.661	0.0132446
848.739	0.0131564
848.818	0.0130964
848.896	0.0132037
848.974	0.0132215
849.052	0.0131717
849.130	0.0133788
849.208	0.0133787
849.286	0.0133986
849.364	0.0135681
849.443	0.0135978
849.521	0.0135172
849.599	0.0135907
849.677	0.0134695
849.755	0.0135630
849.833	0.0138020
849.911	0.0136017
849.989	0.0137384
850.068	0.0137376
850.146	0.0135090
850.224	0.0137323
850.302	0.0135967
850.380	0.0134806
850.458	0.0135858
850.536	0.0135712
850.614	0.0134977
850.693	0.0134543
850.771	0.0133784
850.849	0.0136069
850.927	0.0134376
851.005	0.0133953
851.083	0.0134045
851.161	0.0131392
851.239	0.0133081
851.318	0.0134031
851.396	0.0134471
851.474	0.0133704
851.552	0.0132793
851.630	0.0134450
851.708	0.0132703
851.786	0.0134026
851.864	0.0132587
851.943	0.0132516
852.021	0.0134651
852.099	0.0133806
852.177	0.0135306
852.255	0.0134869
852.333	0.0134868
852.411	0.0135237
852.489	0.0134357
852.568	0.0134444
852.646	0.0135331
852.724	0.0134752
852.802	0.0134151
852.880	0.0134673
852.958	0.0133692
853.036	0.0133414
853.114	0.0133852
853.193	0.0133297
853.271	0.0134359
853.349	0.0133339
853.427	0.0133145
853.505	0.0134251
853.583	0.0134009
853.661	0.0133688
853.739	0.0134593
853.818	0.0134778
853.896	0.0133744
853.974	0.0133701
854.052	0.0134836
854.130	0.0133521
854.208	0.0133849
854.286	0.0134254
854.364	0.0134119
854.443	0.0134234
854.521	0.0133096
854.599	0.0135285
854.677	0.0135136
854.755	0.0133379
854.833	0.0133722
854.911	0.0133293
854.989	0.0133903
855.068	0.0134616
855.146	0.0134910
855.224	0.0134785
855.302	0.0133937
855.380	0.0133092
855.458	0.0132849
855.536	0.0132874
855.614	0.0133247
855.693	0.0134579
855.771	0.0133459
855.849	0.0134162
855.927	0.0133878
856.005	0.0133173
856.083	0.0133112
856.161	0.0134004
856.239	0.0133643
856.318	0.0133328
856.396	0.0132496
856.474	0.0132433
856.552	0.0133092
856.630	0.0132457
856.708	0.0133551
856.786	0.0132931
856.864	0.0133451
856.943	0.0134229
857.021	0.0132771
857.099	0.0132912
857.177	0.0133591
857.255	0.0134377
857.333	0.0132690
857.411	0.0132552
857.489	0.0133015
857.568	0.0133270
857.646	0.0134209
857.724	0.0132695
857.802	0.0131918
857.880	0.0131389
857.958	0.0132214
858.036	0.0132289
858.114	0.0131939
858.193	0.0132713
858.271	0.0131517
858.349	0.0132355
858.427	0.0132724
858.505	0.0131421
858.583	0.0130704
858.661	0.0131065
858.739	0.0131696
858.818	0.0131977
858.896	0.0131069
858.974	0.0131150
859.052	0.0131924
859.130	0.0132009
859.208	0.0133402
859.286	0.0132532
859.364	0.0131781
859.443	0.0132655
859.521	0.0131368
859.599	0.0132265
859.677	0.0132387
859.755	0.0132141
859.833	0.0131237
859.911	0.0132104
859.989	0.0132599
860.068	0.0131742
860.146	0.0129781
860.224	0.0130654
860.302	0.0131926
860.380	0.0130654
860.458	0.0131451
860.536	0.0131569
860.614	0.0131377
860.693	0.0130549
860.771	0.0130806
860.849	0.0133372
860.927	0.0131924
861.005	0.0132684
861.083	0.0133157
861.161	0.0133584
861.239	0.0131420
861.318	0.0132198
861.396	0.0134206
861.474	0.0134095
861.552	0.0132082
861.630	0.0133299
861.708	0.0133951
861.786	0.0132410
861.864	0.0133511
861.943	0.0134150
862.021	0.0133634
862.099	0.0133655
862.177	0.0133262
862.255	0.0134033
862.333	0.0133077
862.411	0.0135234
862.489	0.0133304
862.568	0.0133290
862.646	0.0133913
862.724	0.0132622
862.802	0.0132396
862.880	0.0132025
862.958	0.0132924
863.036	0.0133452
863.114	0.0132293
863.193	0.0131692
863.271	0.0131354
863.349	0.0130759
863.427	0.0131836
863.505	0.0130856
863.583	0.0131716
863.661	0.0132265
863.739	0.0131387
863.818	0.0132696
863.896	0.0132013
863.974	0.0132336
864.052	0.0132997
864.130	0.0133873
864.208	0.0133368
864.286	0.0133463
864.364	0.0133308
864.443	0.0134371
864.521	0.0133448
864.599	0.0134569
864.677	0.0134032
864.755	0.0135153
864.833	0.0135461
864.911	0.0135555
864.989	0.0134050
865.068	0.0133862
865.146	0.0133755
865.224	0.0133626
865.302	0.0132227
865.380	0.0132952
865.458	0.0133514
865.536	0.0131659
865.614	0.0133202
865.693	0.0134787
865.771	0.0132201
865.849	0.0131531
865.927	0.0131152
866.005	0.0132459
866.083	0.0131546
866.161	0.0130978
866.239	0.0132104
866.318	0.0132326
866.396	0.0134545
866.474	0.0132864
866.552	0.0133253
866.630	0.0135326
866.708	0.0134023
866.786	0.0133819
866.864	0.0134052
866.943	0.0135946
867.021	0.0135639
867.099	0.0134801
867.177	0.0134017
867.255	0.0135303
867.333	0.0135435
867.411	0.0135587
867.489	0.0136010
867.568	0.0135491
867.646	0.0134921
867.724	0.0134618
867.802	0.0135577
867.880	0.0133685
867.958	0.0134293
868.036	0.0134036
868.114	0.0134187
868.193	0.0133765
868.271	0.0134250
868.349	0.0133458
868.427	0.0132730
868.505	0.0132815
868.583	0.0132310
868.661	0.0134550
868.739	0.0132098
868.818	0.0132336
868.896	0.0132774
868.974	0.0132309
869.052	0.0133513
869.130	0.0132994
869.208	0.0132339
869.286	0.0132238
869.364	0.0131630
869.443	0.0131316
869.521	0.0132822
869.599	0.0132759
869.677	0.0132910
869.755	0.0132466
869.833	0.0132336
869.911	0.0133829
869.989	0.0132308
870.068	0.0133077
870.146	0.0132674
870.224	0.0133055
870.302	0.0132842
870.380	0.0133009
870.458	0.0132153
870.536	0.0133112
870.614	0.0133396
870.693	0.0133069
870.771	0.0132501
870.849	0.0133555
870.927	0.0134109
871.005	0.0133951
871.083	0.0133131
871.161	0.0132541
871.239	0.0133205
871.318	0.0134208
871.396	0.0132899
871.474	0.0133884
871.552	0.0132871
871.630	0.0132721
871.708	0.0132208
871.786	0.0132095
871.864	0.0132233
871.943	0.0133267
872.021	0.0132612
872.099	0.0132936
872.177	0.0132597
872.255	0.0132856
872.333	0.0134135
872.411	0.0131894
872.489	0.0132189
872.568	0.0133148
872.646	0.0132006
872.724	0.0133768
872.802	0.0133310
872.880	0.0133127
872.958	0.0132657
873.036	0.0134975
873.114	0.0134362
873.193	0.0134074
873.271	0.0133964
873.349	0.0135243
873.427	0.0135028
873.505	0.0134480
873.583	0.0134939
873.661	0.0134187
873.739	0.0134327
873.818	0.0133741
873.896	0.0132720
873.974	0.0133360
874.052	0.0133488
874.130	0.0133112
874.208	0.0132751
874.286	0.0132185
874.364	0.0131970
874.443	0.0132748
874.521	0.0129938
874.599	0.0129388
874.677	0.0131075
874.755	0.0130888
874.833	0.0128596
874.911	0.0129844
874.989	0.0129620
875.068	0.0129430
875.146	0.0129897
875.224	0.0129415
875.302	0.0130451
875.380	0.0130260
875.458	0.0131407
875.536	0.0131626
875.614	0.0130963
875.693	0.0130795
875.771	0.0132379
875.849	0.0131558
875.927	0.0131227
876.005	0.0130611
876.083	0.0131893
876.161	0.0131910
876.239	0.0131167
876.318	0.0131037
876.396	0.0131699
876.474	0.0132182
876.552	0.0130981
876.630	0.0132015
876.708	0.0131702
876.786	0.0132613
876.864	0.0132795
876.943	0.0133025
877.021	0.0134270
877.099	0.0133636
877.177	0.0133644
877.255	0.0133266
877.333	0.0134583
877.411	0.0135231
877.489	0.0135287
877.568	0.0134646
877.646	0.0136325
877.724	0.0135899
877.802	0.0135931
877.880	0.0135284
877.958	0.0135161
878.036	0.0135776
878.114	0.0135220
878.193	0.0133685
878.271	0.0134885
878.349	0.0133652
878.427	0.0133214
878.505	0.0132979
878.583	0.0132571
878.661	0.0132751
878.739	0.0132440
878.818	0.0132059
878.896	0.0131647
878.974	0.0130351
879.052	0.0131845
879.130	0.0131352
879.208	0.0130157
879.286	0.0130431
879.364	0.0132442
879.443	0.0131561
879.521	0.0131392
879.599	0.0132415
879.677	0.0132122
879.755	0.0132923
879.833	0.0132990
879.911	0.0133636
879.989	0.0132212
880.068	0.0134249
880.146	0.0133863
880.224	0.0135052
880.302	0.0134041
880.380	0.0134200
880.458	0.0135043
880.536	0.0134801
880.614	0.0134875
880.693	0.0132567
880.771	0.0134048
880.849	0.0133138
880.927	0.0131861
881.005	0.0131947
881.083	0.0132029
881.161	0.0131812
881.239	0.0130863
881.318	0.0130938
881.396	0.0129342
881.474	0.0131239
881.552	0.0130199
881.630	0.0129664
881.708	0.0130099
881.786	0.0130106
881.864	0.0129646
881.943	0.0130354
882.021	0.0129958
882.099	0.0130664
882.177	0.0130422
882.255	0.0130387
882.333	0.0130614
882.411	0.0130745
882.489	0.0132682
882.568	0.0132533
882.646	0.0131265
882.724	0.0131223
882.802	0.0132533
882.880	0.0133581
882.958	0.0134605
883.036	0.0133780
883.114	0.0134695
883.193	0.0134612
883.271	0.0134809
883.349	0.0134059
883.427	0.0135632
883.505	0.0136169
883.583	0.0136842
883.661	0.0136436
883.739	0.0135107
883.818	0.0135246
883.896	0.0134389
883.974	0.0134874
884.052	0.0135131
884.130	0.0135561
884.208	0.0133700
884.286	0.0132038
884.364	0.0132526
884.443	0.0133804
884.521	0.0131659
884.599	0.0132153
884.677	0.0131320
884.755	0.0130297
884.833	0.0130220
884.911	0.0129493
884.989	0.0131358
885.068	0.0132054
885.146	0.0131814
885.224	0.0131509
885.302	0.0131101
885.380	0.0131858
885.458	0.0131107
885.536	0.0130899
885.614	0.0129422
885.693	0.0131185
885.771	0.0132083
885.849	0.0131558
885.927	0.0131731
886.005	0.0132060
886.083	0.0131735
886.161	0.0132035
886.239	0.0132183
886.318	0.0131898
886.396	0.0132997
886.474	0.0132650
886.552	0.0132880
886.630	0.0133529
886.708	0.0134417
886.786	0.0134214
886.864	0.0132804
886.943	0.0133280
887.021	0.0133540
887.099	0.0132806
887.177	0.0133189
887.255	0.0133163
887.333	0.0133981
887.411	0.0134438
887.489	0.0135002
887.568	0.0133455
887.646	0.0135330
887.724	0.0134887
887.802	0.0133638
887.880	0.0134300
887.958	0.0134813
888.036	0.0134997
888.114	0.0135185
888.193	0.0134992
888.271	0.0135312
888.349	0.0135744
888.427	0.0135773
888.505	0.0135712
888.583	0.0133981
888.661	0.0134716
888.739	0.0135125
888.818	0.0135585
888.896	0.0135306
888.974	0.0134911
889.052	0.0135321
889.130	0.0134275
889.208	0.0134143
889.286	0.0133521
889.364	0.0132718
889.443	0.0131853
889.521	0.0130683
889.599	0.0131353
889.677	0.0129925
889.755	0.0130421
889.833	0.0130733
889.911	0.0129523
889.989	0.0130126
890.068	0.0128495
890.146	0.0127703
890.224	0.0130527
890.302	0.0130074
890.380	0.0129530
890.458	0.0130070
890.536	0.0129639
890.614	0.0130585
890.693	0.0131406
890.771	0.0131573
890.849	0.0133305
890.927	0.0132195
891.005	0.0132639
891.083	0.0133522
891.161	0.0134079
891.239	0.0133415
891.318	0.0134160
891.396	0.0132912
891.474	0.0134407
891.552	0.0132821
891.630	0.0134801
891.708	0.0135311
891.786	0.0134577
891.864	0.0134084
891.943	0.0135555
892.021	0.0135233
892.099	0.0134408
892.177	0.0134847
892.255	0.0135632
892.333	0.0134473
892.411	0.0135768
892.489	0.0136134
892.568	0.0135406
892.646	0.0136573
892.724	0.0135453
892.802	0.0135445
892.880	0.0134300
892.958	0.0134931
893.036	0.0134287
893.114	0.0133702
893.193	0.0132941
893.271	0.0134313
893.349	0.0133057
893.427	0.0132758
893.505	0.0131043
893.583	0.0130710
893.661	0.0131214
893.739	0.0130684
893.818	0.0131104
893.896	0.0130012
893.974	0.0129913
894.052	0.0130054
894.130	0.0130420
894.208	0.0129084
894.286	0.0128545
894.364	0.0129383
894.443	0.0131300
894.521	0.0129837
894.599	0.0128198
894.677	0.0129828
894.755	0.0131333
894.833	0.0130385
894.911	0.0131516
894.989	0.0130885
895.068	0.0129884
895.146	0.0131184
895.224	0.0131635
895.302	0.0129951
895.380	0.0132776
895.458	0.0130598
895.536	0.0131801
895.614	0.0131358
895.693	0.0132404
895.771	0.0133978
895.849	0.0134019
895.927	0.0133580
896.005	0.0132877
896.083	0.0133765
896.161	0.0132834
896.239	0.0134657
896.318	0.0134563
896.396	0.0133414
896.474	0.0131998
896.552	0.0133063
896.630	0.0135283
896.708	0.0133012
896.786	0.0132822
896.864	0.0132821
896.943	0.0133717
897.021	0.0133591
897.099	0.0132588
897.177	0.0132690
897.255	0.0132557
897.333	0.0133985
897.411	0.0133121
897.489	0.0133854
897.568	0.0132424
897.646	0.0134575
897.724	0.0134250
897.802	0.0133218
897.880	0.0133984
897.958	0.0133681
898.036	0.0134327
898.114	0.0134457
898.193	0.0133408
898.271	0.0132130
898.349	0.0132799
898.427	0.0134033
898.505	0.0132645
898.583	0.0132951
898.661	0.0131727
898.739	0.0131571
898.818	0.0131071
898.896	0.0132841
898.974	0.0131931
899.052	0.0131629
899.130	0.0132364
899.208	0.0131030
899.286	0.0131403
899.364	0.0132146
899.443	0.0131593
899.521	0.0132095
899.599	0.0131732
899.677	0.0131383
899.755	0.0132803
899.833	0.0134436
899.911	0.0132335
899.989	0.0131554
900.068	0.0132279
900.146	0.0131392
900.224	0.0133482
900.302	0.0131351
900.380	0.0132253
900.458	0.0131487
900.536	0.0132522
900.614	0.0131780
900.693	0.0132648
900.771	0.0131354
900.849	0.0132019
900.927	0.0131799
901.005	0.0132315
901.083	0.0134248
901.161	0.0132207
901.239	0.0132150
901.318	0.0132607
901.396	0.0132516
901.474	0.0133108
901.552	0.0133153
901.630	0.0134622
901.708	0.0133609
901.786	0.0133780
901.864	0.0133267
901.943	0.0133144
902.021	0.0132491
902.099	0.0132756
902.177	0.0133301
902.255	0.0132790
902.333	0.0132261
902.411	0.0132738
902.489	0.0132243
902.568	0.0131854
902.646	0.0132068
902.724	0.0130800
902.802	0.0131533
902.880	0.0131847
902.958	0.0130637
903.036	0.0130656
903.114	0.0129848
903.193	0.0131117
903.271	0.0130354
903.349	0.0130623
903.427	0.0130760
903.505	0.0130762
903.583	0.0129855
903.661	0.0131404
903.739	0.0129062
903.818	0.0130058
903.896	0.0130581
903.974	0.0129308
904.052	0.0129302
904.130	0.0129021
904.208	0.0129956
904.286	0.0130162
904.364	0.0131168
904.443	0.0130232
904.521	0.0129261
904.599	0.0129781
904.677	0.0129982
904.755	0.0130975
904.833	0.0130560
904.911	0.0130547
904.989	0.0131462
905.068	0.0130942
905.146	0.0130511
905.224	0.0129660
905.302	0.0130909
905.380	0.0132586
905.458	0.0132048
905.536	0.0132409
905.614	0.0132832
905.693	0.0132661
905.771	0.0133771
905.849	0.0132387
905.927	0.0133720
906.005	0.0133755
906.083	0.0133656
906.161	0.0133961
906.239	0.0133972
906.318	0.0133379
906.396	0.0133629
906.474	0.0133603
906.552	0.0134799
906.630	0.0133407
906.708	0.0132185
906.786	0.0133042
906.864	0.0132404
906.943	0.0132973
907.021	0.0132624
907.099	0.0133166
907.177	0.0134197
907.255	0.0133266
907.333	0.0133910
907.411	0.0133759
907.489	0.0132448
907.568	0.0133315
907.646	0.0132752
907.724	0.0133034
907.802	0.0133315
907.880	0.0133668
907.958	0.0132303
908.036	0.0131524
908.114	0.0133286
908.193	0.0132043
908.271	0.0131792
908.349	0.0132016
908.427	0.0131795
908.505	0.0131056
908.583	0.0131095
908.661	0.0131996
908.739	0.0131203
908.818	0.0132235
908.896	0.0130947
908.974	0.0130692
909.052	0.0130592
909.130	0.0131006
909.208	0.0131448
909.286	0.0131161
909.364	0.0130099
909.443	0.0129862
909.521	0.0131635
909.599	0.0131769
909.677	0.0131269
909.755	0.0131281
909.833	0.0131865
909.911	0.0131227
909.989	0.0131647
910.068	0.0131131
910.146	0.0132378
910.224	0.0132181
910.302	0.0133142
910.380	0.0132997
910.458	0.0132928
910.536	0.0132266
910.614	0.0132802
910.693	0.0133978
910.771	0.0133514
910.849	0.0133733
910.927	0.0133826
911.005	0.0135817
911.083	0.0135677
911.161	0.0135014
911.239	0.0136050
911.318	0.0137773
911.396	0.0138073
911.474	0.0136349
911.552	0.0137679
911.630	0.0136480
911.708	0.0137922
911.786	0.0137609
911.864	0.0135961
911.943	0.0137137
912.021	0.0137074
912.099	0.0136751
912.177	0.0136718
912.255	0.0135885
912.333	0.0135272
912.411	0.0135048
912.489	0.0134695
912.568	0.0134966
912.646	0.0133432
912.724	0.0133572
912.802	0.0134258
912.880	0.0133870
912.958	0.0133302
913.036	0.0132942
913.114	0.0133255
913.193	0.0131843
913.271	0.0133051
913.349	0.0131505
913.427	0.0131260
913.505	0.0131889
913.583	0.0132060
913.661	0.0132572
913.739	0.0132605
913.818	0.0131519
913.896	0.0132638
913.974	0.0131741
914.052	0.0132032
914.130	0.0129745
914.208	0.0132047
914.286	0.0131144
914.364	0.0130713
914.443	0.0131001
914.521	0.0133027
914.599	0.0129973
914.677	0.0131036
914.755	0.0131335
914.833	0.0131194
914.911	0.0131606
914.989	0.0131750
915.068	0.0130714
915.146	0.0131665
915.224	0.0131210
915.302	0.0130318
915.380	0.0131010
915.458	0.0132053
915.536	0.0132037
915.614	0.0131680
915.693	0.0131152
915.771	0.0131762
915.849	0.0131196
915.927	0.0131173
916.005	0.0130151
916.083	0.0131880
916.161	0.0132828
916.239	0.0131828
916.318	0.0132075
916.396	0.0131035
916.474	0.0133120
916.552	0.0132365
916.630	0.0132449
916.708	0.0133014
916.786	0.0132755
916.864	0.0133079
916.943	0.0133682
917.021	0.0133463
917.099	0.0133690
917.177	0.0132673
917.255	0.0134052
917.333	0.0133381
917.411	0.0133858
917.489	0.0132552
917.568	0.0133157
917.646	0.0132777
917.724	0.0132824
917.802	0.0133320
917.880	0.0131807
917.958	0.0132691
918.036	0.0132850
918.114	0.0133667
918.193	0.0132018
918.271	0.0132636
918.349	0.0132998
918.427	0.0132371
918.505	0.0133368
918.583	0.0132166
918.661	0.0133443
918.739	0.0133018
918.818	0.0131860
918.896	0.0132887
918.974	0.0133521
919.052	0.0133199
919.130	0.0133955
919.208	0.0133625
919.286	0.0133530
919.364	0.0133730
919.443	0.0134622
919.521	0.0134621
919.599	0.0133231
919.677	0.0134109
919.755	0.0134052
919.833	0.0134113
919.911	0.0133885
919.989	0.0134801
920.068	0.0133675
920.146	0.0133392
920.224	0.0134415
920.302	0.0133798
920.380	0.0132648
920.458	0.0132697
920.536	0.0132718
920.614	0.0133212
920.693	0.0131141
920.771	0.0131843
920.849	0.0133514
920.927	0.0132903
921.005	0.0131711
921.083	0.0132745
921.161	0.0132410
921.239	0.0131773
921.318	0.0131867
921.396	0.0132192
921.474	0.0132722
921.552	0.0132610
921.630	0.0131592
921.708	0.0131734
921.786	0.0131977
921.864	0.0131516
921.943	0.0132214
922.021	0.0133275
922.099	0.0131399
922.177	0.0133316
922.255	0.0133152
922.333	0.0131503
922.411	0.0132045
922.489	0.0132044
922.568	0.0132762
922.646	0.0133019
922.724	0.0133318
922.802	0.0132697
922.880	0.0132054
922.958	0.0133371
923.036	0.0133134
923.114	0.0133146
923.193	0.0133614
923.271	0.0134285
923.349	0.0135953
923.427	0.0134988
923.505	0.0134893
923.583	0.0133900
923.661	0.0133906
923.739	0.0133006
923.818	0.0135254
923.896	0.0132674
923.974	0.0132683
924.052	0.0132896
924.130	0.0133035
924.208	0.0132830
924.286	0.0132693
924.364	0.0133258
924.443	0.0133484
924.521	0.0132246
924.599	0.0132581
924.677	0.0132034
924.755	0.0131876
924.833	0.0132484
924.911	0.0133215
924.989	0.0131638
925.068	0.0132999
925.146	0.0132536
925.224	0.0133849
925.302	0.0135336
925.380	0.0133898
925.458	0.0133624
925.536	0.0134007
925.614	0.0133790
925.693	0.0133823
925.771	0.0134676
925.849	0.0133105
925.927	0.0134496
926.005	0.0135162
926.083	0.0134389
926.161	0.0134397
926.239	0.0134846
926.318	0.0135616
926.396	0.0135777
926.474	0.0136029
926.552	0.0134990
926.630	0.0135121
926.708	0.0136111
926.786	0.0135596
926.864	0.0134489
926.943	0.0135802
927.021	0.0135342
927.099	0.0135137
927.177	0.0134531
927.255	0.0135304
927.333	0.0134290
927.411	0.0133744
927.489	0.0134262
927.568	0.0135530
927.646	0.0134148
927.724	0.0133555
927.802	0.0135143
927.880	0.0133121
927.958	0.0133015
928.036	0.0132529
928.114	0.0133135
928.193	0.0133372
928.271	0.0133136
928.349	0.0131662
928.427	0.0133144
928.505	0.0133220
928.583	0.0133841
928.661	0.0132005
928.739	0.0132295
928.818	0.0133803
928.896	0.0133385
928.974	0.0133843
929.052	0.0132715
929.130	0.0133817
929.208	0.0132800
929.286	0.0133209
929.364	0.0132790
929.443	0.0134081
929.521	0.0134022
929.599	0.0134814
929.677	0.0134798
929.755	0.0134367
929.833	0.0133981
929.911	0.0135539
929.989	0.0134988
930.068	0.0135694
930.146	0.0134415
930.224	0.0134535
930.302	0.0135278
930.380	0.0135291
930.458	0.0134676
930.536	0.0132920
930.614	0.0134239
930.693	0.0135216
930.771	0.0135189
930.849	0.0133525
930.927	0.0135233
931.005	0.0135641
931.083	0.0135092
931.161	0.0135471
931.239	0.0132914
931.318	0.0133746
931.396	0.0134778
931.474	0.0133990
931.552	0.0133012
931.630	0.0132501
931.708	0.0132218
931.786	0.0133054
931.864	0.0133786
931.943	0.0131761
932.021	0.0130858
932.099	0.0131311
932.177	0.0131240
932.255	0.0131759
932.333	0.0131313
932.411	0.0130698
932.489	0.0129330
932.568	0.0131528
932.646	0.0131178
932.724	0.0132166
932.802	0.0132305
932.880	0.0131393
932.958	0.0131708
933.036	0.0131762
933.114	0.0131571
933.193	0.0131838
933.271	0.0133212
933.349	0.0132692
933.427	0.0132043
933.505	0.0131766
933.583	0.0132834
933.661	0.0131490
933.739	0.0132093
933.818	0.0131554
933.896	0.0133144
933.974	0.0132196
934.052	0.0133652
934.130	0.0133547
934.208	0.0132525
934.286	0.0132716
934.364	0.0132651
934.443	0.0132534
934.521	0.0132632
934.599	0.0133201
934.677	0.0133959
934.755	0.0133014
934.833	0.0132652
934.911	0.0132747
934.989	0.0133473
935.068	0.0133186
935.146	0.0133282
935.224	0.0133344
935.302	0.0133012
935.380	0.0132984
935.458	0.0133099
935.536	0.0133160
935.614	0.0133234
935.693	0.0134035
935.771	0.0134448
935.849	0.0134024
935.927	0.0133683
936.005	0.0132189
936.083	0.0132729
936.161	0.0133059
936.239	0.0134315
936.318	0.0132996
936.396	0.0133175
936.474	0.0132937
936.552	0.0132508
936.630	0.0133088
936.708	0.0133267
936.786	0.0132253
936.864	0.0133453
936.943	0.0131781
937.021	0.0130901
937.099	0.0131747
937.177	0.0130291
937.255	0.0129398
937.333	0.0131242
937.411	0.0130365
937.489	0.0129498
937.568	0.0129804
937.646	0.0130022
937.724	0.0129028
937.802	0.0130093
937.880	0.0129266
937.958	0.0129295
938.036	0.0130112
938.114	0.0129560
938.193	0.0130196
938.271	0.0130691
938.349	0.0131693
938.427	0.0131348
938.505	0.0130603
938.583	0.0132809
938.661	0.0134222
938.739	0.0132843
938.818	0.0132225
938.896	0.0132809
938.974	0.0134180
939.052	0.0134825
939.130	0.0134840
939.208	0.0134084
939.286	0.0134452
939.364	0.0134511
939.443	0.0134807
939.521	0.0135398
939.599	0.0134641
939.677	0.0134232
939.755	0.0135583
939.833	0.0134884
939.911	0.0134818
939.989	0.0134969
940.068	0.0135406
940.146	0.0135095
940.224	0.0134293
940.302	0.0134525
940.380	0.0135391
940.458	0.0134638
940.536	0.0134141
940.614	0.0135207
940.693	0.0134299
940.771	0.0133578
940.849	0.0133884
940.927	0.0134736
941.005	0.0134939
941.083	0.0133624
941.161	0.0134163
941.239	0.0133751
941.318	0.0135444
941.396	0.0134348
941.474	0.0134252
941.552	0.0133136
941.630	0.0134464
941.708	0.0135445
941.786	0.0135155
941.864	0.0134618
941.943	0.0133578
942.021	0.0134691
942.099	0.0133923
942.177	0.0133206
942.255	0.0135271
942.333	0.0134433
942.411	0.0132687
942.489	0.0131905
942.568	0.0133957
942.646	0.0132703
942.724	0.0131917
942.802	0.0132013
942.880	0.0132652
942.958	0.0132001
943.036	0.0131950
943.114	0.0132198
943.193	0.0133106
943.271	0.0132821
943.349	0.0132341
943.427	0.0131601
943.505	0.0132238
943.583	0.0133854
943.661	0.0133409
943.739	0.0132797
943.818	0.0132486
943.896	0.0132781
943.974	0.0132452
944.052	0.0131350
944.130	0.0131664
944.208	0.0132570
944.286	0.0134141
944.364	0.0132905
944.443	0.0132915
944.521	0.0132904
944.599	0.0132408
944.677	0.0132747
944.755	0.0133114
944.833	0.0133073
944.911	0.0134409
944.989	0.0133736
945.068	0.0133642
945.146	0.0133628
945.224	0.0134835
945.302	0.0134134
945.380	0.0135049
945.458	0.0133595
945.536	0.0134407
945.614	0.0134259
945.693	0.0134029
945.771	0.0135514
945.849	0.0135989
945.927	0.0135812
946.005	0.0137135
946.083	0.0136790
946.161	0.0136723
946.239	0.0134523
946.318	0.0136689
946.396	0.0136443
946.474	0.0135779
946.552	0.0135305
946.630	0.0135297
946.708	0.0135751
946.786	0.0135226
946.864	0.0135635
946.943	0.0135352
947.021	0.0135757
947.099	0.0136417
947.177	0.0135236
947.255	0.0135201
947.333	0.0135272
947.411	0.0135656
947.489	0.0134390
947.568	0.0133336
947.646	0.0134269
947.724	0.0133685
947.802	0.0133062
947.880	0.0133820
947.958	0.0134063
948.036	0.0132516
948.114	0.0132236
948.193	0.0131378
948.271	0.0132564
948.349	0.0132838
948.427	0.0130952
948.505	0.0130037
948.583	0.0131974
948.661	0.0133276
948.739	0.0131790
948.818	0.0132330
948.896	0.0131599
948.974	0.0132899
949.052	0.0133225
949.130	0.0132667
949.208	0.0132152
949.286	0.0132869
949.364	0.0133965
949.443	0.0134621
949.521	0.0133581
949.599	0.0133754
949.677	0.0134364
949.755	0.0133815
949.833	0.0133083
949.911	0.0135237
949.989	0.0135535
950.068	0.0134095
950.146	0.0135345
950.224	0.0134988
950.302	0.0133845
950.380	0.0135696
950.458	0.0135290
950.536	0.0135191
950.614	0.0136171
950.693	0.0134435
950.771	0.0134948
950.849	0.0135194
950.927	0.0134459
951.005	0.0135669
951.083	0.0137078
951.161	0.0135443
951.239	0.0134953
951.318	0.0134371
951.396	0.0134957
951.474	0.0135323
951.552	0.0134085
951.630	0.0134026
951.708	0.0136648
951.786	0.0135608
951.864	0.0134064
951.943	0.0134978
952.021	0.0133058
952.099	0.0134380
952.177	0.0135168
952.255	0.0134309
952.333	0.0135124
952.411	0.0134564
952.489	0.0134318
952.568	0.0134720
952.646	0.0134843
952.724	0.0134936
952.802	0.0134312
952.880	0.0134760
952.958	0.0133520
953.036	0.0134872
953.114	0.0134078
953.193	0.0133734
953.271	0.0134003
953.349	0.0133637
953.427	0.0133938
953.505	0.0134401
953.583	0.0133225
953.661	0.0133799
953.739	0.0132629
953.818	0.0133683
953.896	0.0131783
953.974	0.0131944
954.052	0.0132861
954.130	0.0132279
954.208	0.0133189
954.286	0.0133900
954.364	0.0133672
954.443	0.0133603
954.521	0.0133768
954.599	0.0133115
954.677	0.0132952
954.755	0.0133318
954.833	0.0132648
954.911	0.0133649
954.989	0.0133439
955.068	0.0132652
955.146	0.0134347
955.224	0.0134492
955.302	0.0134264
955.380	0.0134479
955.458	0.0133852
955.536	0.0135358
955.614	0.0133636
955.693	0.0135642
955.771	0.0133261
955.849	0.0135321
955.927	0.0134597
956.005	0.0134747
956.083	0.0133810
956.161	0.0134562
956.239	0.0134923
956.318	0.0134208
956.396	0.0134510
956.474	0.0134070
956.552	0.0133956
956.630	0.0134234
956.708	0.0134744
956.786	0.0133453
956.864	0.0133632
956.943	0.0133949
957.021	0.0135349
957.099	0.0133878
957.177	0.0132712
957.255	0.0133293
957.333	0.0132344
957.411	0.0132999
957.489	0.0133036
957.568	0.0133161
957.646	0.0132101
957.724	0.0132332
957.802	0.0132697
957.880	0.0133301
957.958	0.0132070
958.036	0.0131676
958.114	0.0131153
958.193	0.0130975
958.271	0.0131625
958.349	0.0131909
958.427	0.0132087
958.505	0.0130608
958.583	0.0130533
958.661	0.0131064
958.739	0.0131257
958.818	0.0130629
958.896	0.0131878
958.974	0.0130671
959.052	0.0132339
959.130	0.0130435
959.208	0.0130663
959.286	0.0131082
959.364	0.0130413
959.443	0.0130160
959.521	0.0131133
959.599	0.0131072
959.677	0.0131363
959.755	0.0132449
959.833	0.0130530
959.911	0.0131326
