05/14/2022	16:46:22	Ver.	4.1	UNKNOWN
Optical Delay	639.989416	Delta X		0.078125	Sweeps	1	Scan Rate	0/0
Coordinates	Axis 1	NaN	Axis 2	NaN	Axis 3	NaN	Axis 4	NaN	Axis 5	NaN	Axis 6	0.000000
TX Power	0.000000	RX Power	0.000000

639.989	0.0134791
640.068	0.0135033
640.146	0.0133485
640.224	0.0133450
640.302	0.0134367
640.380	0.0133682
640.458	0.0134821
640.536	0.0134154
640.614	0.0134750
640.693	0.0133834
640.771	0.0133318
640.849	0.0132529
640.927	0.0133035
641.005	0.0134081
641.083	0.0132817
641.161	0.0134754
641.239	0.0133455
641.318	0.0134391
641.396	0.0134437
641.474	0.0132883
641.552	0.0132778
641.630	0.0133289
641.708	0.0134657
641.786	0.0134010
641.864	0.0132954
641.943	0.0134046
642.021	0.0134083
642.099	0.0131784
642.177	0.0133640
642.255	0.0136004
642.333	0.0133249
642.411	0.0132825
642.489	0.0134004
642.568	0.0134553
642.646	0.0132666
642.724	0.0134471
642.802	0.0133649
642.880	0.0133740
642.958	0.0134235
643.036	0.0133987
643.114	0.0135326
643.193	0.0133624
643.271	0.0134525
643.349	0.0135679
643.427	0.0134028
643.505	0.0133620
643.583	0.0135028
643.661	0.0134656
643.739	0.0133264
643.818	0.0134866
643.896	0.0135020
643.974	0.0134702
644.052	0.0134668
644.130	0.0133433
644.208	0.0133661
644.286	0.0134154
644.364	0.0134396
644.443	0.0134030
644.521	0.0134863
644.599	0.0133522
644.677	0.0133252
644.755	0.0133833
644.833	0.0135258
644.911	0.0134996
644.989	0.0134654
645.068	0.0136408
645.146	0.0134445
645.224	0.0134250
645.302	0.0134172
645.380	0.0133800
645.458	0.0134794
645.536	0.0134393
645.614	0.0134844
645.693	0.0132459
645.771	0.0133948
645.849	0.0133827
645.927	0.0135258
646.005	0.0134171
646.083	0.0134752
646.161	0.0134500
646.239	0.0134005
646.318	0.0133046
646.396	0.0135077
646.474	0.0135286
646.552	0.0134375
646.630	0.0133548
646.708	0.0133897
646.786	0.0133774
646.864	0.0133863
646.943	0.0134739
647.021	0.0134578
647.099	0.0135081
647.177	0.0132729
647.255	0.0134514
647.333	0.0134840
647.411	0.0134908
647.489	0.0134381
647.568	0.0134978
647.646	0.0133639
647.724	0.0134576
647.802	0.0135810
647.880	0.0135123
647.958	0.0134535
648.036	0.0133157
648.114	0.0134417
648.193	0.0135702
648.271	0.0134118
648.349	0.0134534
648.427	0.0134225
648.505	0.0135283
648.583	0.0133712
648.661	0.0134230
648.739	0.0135120
648.818	0.0135791
648.896	0.0136535
648.974	0.0137000
649.052	0.0136371
649.130	0.0134969
649.208	0.0136993
649.286	0.0136631
649.364	0.0136810
649.443	0.0136302
649.521	0.0136773
649.599	0.0136704
649.677	0.0136901
649.755	0.0137418
649.833	0.0138005
649.911	0.0137843
649.989	0.0137146
650.068	0.0136878
650.146	0.0136847
650.224	0.0137284
650.302	0.0136739
650.380	0.0136996
650.458	0.0136549
650.536	0.0135419
650.614	0.0136372
650.693	0.0136596
650.771	0.0135281
650.849	0.0135112
650.927	0.0136140
651.005	0.0136183
651.083	0.0134863
651.161	0.0134675
651.239	0.0135661
651.318	0.0136071
651.396	0.0135996
651.474	0.0134394
651.552	0.0134678
651.630	0.0134684
651.708	0.0133527
651.786	0.0134355
651.864	0.0133825
651.943	0.0133477
652.021	0.0133335
652.099	0.0135261
652.177	0.0133994
652.255	0.0133952
652.333	0.0133329
652.411	0.0133408
652.489	0.0133556
652.568	0.0133295
652.646	0.0133736
652.724	0.0135085
652.802	0.0133223
652.880	0.0133201
652.958	0.0132730
653.036	0.0132413
653.114	0.0133344
653.193	0.0132806
653.271	0.0133265
653.349	0.0133232
653.427	0.0133257
653.505	0.0133818
653.583	0.0133374
653.661	0.0134393
653.739	0.0133235
653.818	0.0132365
653.896	0.0132099
653.974	0.0133485
654.052	0.0134397
654.130	0.0133566
654.208	0.0133507
654.286	0.0133032
654.364	0.0134995
654.443	0.0133824
654.521	0.0134244
654.599	0.0133908
654.677	0.0135287
654.755	0.0135506
654.833	0.0135996
654.911	0.0134548
654.989	0.0134538
655.068	0.0133860
655.146	0.0135528
655.224	0.0135010
655.302	0.0134113
655.380	0.0134067
655.458	0.0135159
655.536	0.0134343
655.614	0.0133913
655.693	0.0133452
655.771	0.0133665
655.849	0.0134454
655.927	0.0135634
656.005	0.0135072
656.083	0.0134554
656.161	0.0134909
656.239	0.0133392
656.318	0.0133921
656.396	0.0134370
656.474	0.0135409
656.552	0.0134798
656.630	0.0134215
656.708	0.0133346
656.786	0.0133271
656.864	0.0134791
656.943	0.0135941
657.021	0.0132841
657.099	0.0132804
657.177	0.0133176
657.255	0.0132109
657.333	0.0133769
657.411	0.0133562
657.489	0.0133547
657.568	0.0133898
657.646	0.0133528
657.724	0.0132671
657.802	0.0134761
657.880	0.0135741
657.958	0.0134721
658.036	0.0133530
658.114	0.0133580
658.193	0.0134744
658.271	0.0132194
658.349	0.0133907
658.427	0.0134419
658.505	0.0133397
658.583	0.0133356
658.661	0.0132114
658.739	0.0134164
658.818	0.0134768
658.896	0.0133936
658.974	0.0133491
659.052	0.0134132
659.130	0.0134650
659.208	0.0135046
659.286	0.0134535
659.364	0.0134241
659.443	0.0133144
659.521	0.0134899
659.599	0.0135133
659.677	0.0133926
659.755	0.0134277
659.833	0.0135915
659.911	0.0134969
659.989	0.0135194
660.068	0.0137025
660.146	0.0136444
660.224	0.0135429
660.302	0.0134776
660.380	0.0135988
660.458	0.0135379
660.536	0.0134867
660.614	0.0135377
660.693	0.0135941
660.771	0.0134662
660.849	0.0136526
660.927	0.0135339
661.005	0.0136931
661.083	0.0137325
661.161	0.0135480
661.239	0.0136559
661.318	0.0136976
661.396	0.0136398
661.474	0.0136430
661.552	0.0136573
661.630	0.0135180
661.708	0.0136504
661.786	0.0135935
661.864	0.0135569
661.943	0.0136392
662.021	0.0137115
662.099	0.0136562
662.177	0.0136337
662.255	0.0135018
662.333	0.0134898
662.411	0.0135265
662.489	0.0134367
662.568	0.0134029
662.646	0.0134377
662.724	0.0135030
662.802	0.0135102
662.880	0.0134956
662.958	0.0133778
663.036	0.0135206
663.114	0.0135838
663.193	0.0135158
663.271	0.0135487
663.349	0.0134180
663.427	0.0135684
663.505	0.0134219
663.583	0.0134653
663.661	0.0134357
663.739	0.0134950
663.818	0.0135139
663.896	0.0135555
663.974	0.0135638
664.052	0.0135937
664.130	0.0136568
664.208	0.0137531
664.286	0.0136442
664.364	0.0137776
664.443	0.0137060
664.521	0.0137324
664.599	0.0137313
664.677	0.0136835
664.755	0.0137625
664.833	0.0137093
664.911	0.0134383
664.989	0.0135064
665.068	0.0135553
665.146	0.0134899
665.224	0.0134110
665.302	0.0133717
665.380	0.0134529
665.458	0.0132414
665.536	0.0133208
665.614	0.0132143
665.693	0.0131212
665.771	0.0131673
665.849	0.0131746
665.927	0.0132578
666.005	0.0132779
666.083	0.0132399
666.161	0.0133556
666.239	0.0134004
666.318	0.0135310
666.396	0.0135516
666.474	0.0135323
666.552	0.0136987
666.630	0.0137960
666.708	0.0137502
666.786	0.0138574
666.864	0.0138592
666.943	0.0140442
667.021	0.0139587
667.099	0.0139902
667.177	0.0140177
667.255	0.0139815
667.333	0.0138584
667.411	0.0138239
667.489	0.0138736
667.568	0.0137846
667.646	0.0136973
667.724	0.0135616
667.802	0.0133694
667.880	0.0134365
667.958	0.0132594
668.036	0.0133289
668.114	0.0132162
668.193	0.0130772
668.271	0.0131271
668.349	0.0131335
668.427	0.0130348
668.505	0.0131128
668.583	0.0131001
668.661	0.0131497
668.739	0.0132988
668.818	0.0134193
668.896	0.0133915
668.974	0.0134981
669.052	0.0135952
669.130	0.0136975
669.208	0.0138345
669.286	0.0138883
669.364	0.0140355
669.443	0.0141528
669.521	0.0141617
669.599	0.0142891
669.677	0.0142276
669.755	0.0142685
669.833	0.0144151
669.911	0.0143326
669.989	0.0142802
670.068	0.0141715
670.146	0.0142380
670.224	0.0141776
670.302	0.0140469
670.380	0.0138793
670.458	0.0137048
670.536	0.0135195
670.614	0.0134653
670.693	0.0132977
670.771	0.0132176
670.849	0.0131546
670.927	0.0130431
671.005	0.0128534
671.083	0.0128905
671.161	0.0127591
671.239	0.0126413
671.318	0.0128532
671.396	0.0127728
671.474	0.0127894
671.552	0.0129274
671.630	0.0130115
671.708	0.0131673
671.786	0.0132027
671.864	0.0134214
671.943	0.0135831
672.021	0.0135853
672.099	0.0138239
672.177	0.0141697
672.255	0.0141924
672.333	0.0145441
672.411	0.0145944
672.489	0.0144504
672.568	0.0145911
672.646	0.0148865
672.724	0.0147761
672.802	0.0146761
672.880	0.0145950
672.958	0.0145760
673.036	0.0145214
673.114	0.0143488
673.193	0.0141749
673.271	0.0138913
673.349	0.0137144
673.427	0.0135481
673.505	0.0132935
673.583	0.0130000
673.661	0.0129708
673.739	0.0127258
673.818	0.0123351
673.896	0.0121896
673.974	0.0121761
674.052	0.0119379
674.130	0.0118209
674.208	0.0116970
674.286	0.0118434
674.364	0.0118502
674.443	0.0116944
674.521	0.0118900
674.599	0.0119376
674.677	0.0121534
674.755	0.0123165
674.833	0.0124860
674.911	0.0125002
674.989	0.0129256
675.068	0.0132259
675.146	0.0136118
675.224	0.0136086
675.302	0.0139037
675.380	0.0141909
675.458	0.0144691
675.536	0.0144553
675.614	0.0146363
675.693	0.0147454
675.771	0.0150553
675.849	0.0149640
675.927	0.0151109
676.005	0.0150842
676.083	0.0150226
676.161	0.0150163
676.239	0.0149190
676.318	0.0147865
676.396	0.0147083
676.474	0.0144968
676.552	0.0142741
676.630	0.0142668
676.708	0.0138563
676.786	0.0136666
676.864	0.0135972
676.943	0.0133234
677.021	0.0132504
677.099	0.0127510
677.177	0.0126425
677.255	0.0125768
677.333	0.0123941
677.411	0.0123065
677.489	0.0121659
677.568	0.0121716
677.646	0.0121081
677.724	0.0122479
677.802	0.0122369
677.880	0.0122769
677.958	0.0124427
678.036	0.0125450
678.114	0.0126534
678.193	0.0128481
678.271	0.0129082
678.349	0.0130416
678.427	0.0131329
678.505	0.0133474
678.583	0.0134161
678.661	0.0136195
678.739	0.0136608
678.818	0.0136950
678.896	0.0139314
678.974	0.0137903
679.052	0.0140221
679.130	0.0140741
679.208	0.0139348
679.286	0.0140375
679.364	0.0141563
679.443	0.0141015
679.521	0.0140584
679.599	0.0139188
679.677	0.0140039
679.755	0.0137978
679.833	0.0138814
679.911	0.0137715
679.989	0.0137331
680.068	0.0139013
680.146	0.0136919
680.224	0.0137061
680.302	0.0136394
680.380	0.0135351
680.458	0.0135781
680.536	0.0136996
680.614	0.0136628
680.693	0.0136335
680.771	0.0136523
680.849	0.0137310
680.927	0.0137743
681.005	0.0138796
681.083	0.0137495
681.161	0.0140180
681.239	0.0141100
681.318	0.0141049
681.396	0.0141168
681.474	0.0142153
681.552	0.0142112
681.630	0.0142796
681.708	0.0142305
681.786	0.0142532
681.864	0.0142469
681.943	0.0140945
682.021	0.0141441
682.099	0.0138656
682.177	0.0138332
682.255	0.0137045
682.333	0.0133572
682.411	0.0133942
682.489	0.0132367
682.568	0.0129061
682.646	0.0129839
682.724	0.0126875
682.802	0.0126579
682.880	0.0126430
682.958	0.0125387
683.036	0.0124506
683.114	0.0123962
683.193	0.0124663
683.271	0.0124848
683.349	0.0124669
683.427	0.0123017
683.505	0.0125958
683.583	0.0124994
683.661	0.0124081
683.739	0.0124879
683.818	0.0129062
683.896	0.0128121
683.974	0.0129730
684.052	0.0131013
684.130	0.0132262
684.208	0.0132871
684.286	0.0135187
684.364	0.0135495
684.443	0.0136562
684.521	0.0137737
684.599	0.0139789
684.677	0.0139608
684.755	0.0140408
684.833	0.0141333
684.911	0.0141525
684.989	0.0142165
685.068	0.0142827
685.146	0.0143587
685.224	0.0144741
685.302	0.0143930
685.380	0.0144582
685.458	0.0146272
685.536	0.0146786
685.614	0.0146898
685.693	0.0148627
685.771	0.0148262
685.849	0.0146470
685.927	0.0148312
686.005	0.0149095
686.083	0.0148758
686.161	0.0147686
686.239	0.0146939
686.318	0.0145895
686.396	0.0144363
686.474	0.0141975
686.552	0.0140105
686.630	0.0138807
686.708	0.0137009
686.786	0.0134509
686.864	0.0131607
686.943	0.0129218
687.021	0.0126307
687.099	0.0123447
687.177	0.0119878
687.255	0.0117747
687.333	0.0116887
687.411	0.0113431
687.489	0.0112508
687.568	0.0111577
687.646	0.0108685
687.724	0.0109528
687.802	0.0109026
687.880	0.0108083
687.958	0.0111005
688.036	0.0111565
688.114	0.0112646
688.193	0.0114766
688.271	0.0116060
688.349	0.0120632
688.427	0.0124143
688.505	0.0126255
688.583	0.0129150
688.661	0.0133212
688.739	0.0135069
688.818	0.0138036
688.896	0.0141630
688.974	0.0144267
689.052	0.0145854
689.130	0.0148148
689.208	0.0148228
689.286	0.0150191
689.364	0.0151781
689.443	0.0150854
689.521	0.0150195
689.599	0.0150808
689.677	0.0150233
689.755	0.0149911
689.833	0.0150531
689.911	0.0149073
689.989	0.0147572
690.068	0.0145158
690.146	0.0146457
690.224	0.0145134
690.302	0.0143333
690.380	0.0142966
690.458	0.0140451
690.536	0.0141989
690.614	0.0142150
690.693	0.0140850
690.771	0.0140033
690.849	0.0141513
690.927	0.0142131
691.005	0.0142680
691.083	0.0141402
691.161	0.0143475
691.239	0.0144581
691.318	0.0143199
691.396	0.0144352
691.474	0.0143379
691.552	0.0143997
691.630	0.0145090
691.708	0.0140977
691.786	0.0140626
691.864	0.0140600
691.943	0.0139235
692.021	0.0138562
692.099	0.0134873
692.177	0.0134428
692.255	0.0133183
692.333	0.0129532
692.411	0.0127020
692.489	0.0124150
692.568	0.0123704
692.646	0.0121054
692.724	0.0117582
692.802	0.0115812
692.880	0.0114909
692.958	0.0112450
693.036	0.0110891
693.114	0.0111147
693.193	0.0112241
693.271	0.0110822
693.349	0.0113047
693.427	0.0113797
693.505	0.0115491
693.583	0.0116904
693.661	0.0117518
693.739	0.0119402
693.818	0.0120795
693.896	0.0122910
693.974	0.0124508
694.052	0.0126965
694.130	0.0126802
694.208	0.0130923
694.286	0.0133361
694.364	0.0135670
694.443	0.0138553
694.521	0.0140487
694.599	0.0141846
694.677	0.0145273
694.755	0.0146306
694.833	0.0147360
694.911	0.0150002
694.989	0.0149905
695.068	0.0151460
695.146	0.0153228
695.224	0.0155350
695.302	0.0153828
695.380	0.0154888
695.458	0.0155444
695.536	0.0156311
695.614	0.0155102
695.693	0.0155834
695.771	0.0155828
695.849	0.0158121
695.927	0.0156484
696.005	0.0153996
696.083	0.0154585
696.161	0.0155516
696.239	0.0154333
696.318	0.0152766
696.396	0.0152000
696.474	0.0152568
696.552	0.0149901
696.630	0.0146904
696.708	0.0146791
696.786	0.0145681
696.864	0.0143964
696.943	0.0142840
697.021	0.0140320
697.099	0.0137928
697.177	0.0135555
697.255	0.0134070
697.333	0.0130614
697.411	0.0127947
697.489	0.0125346
697.568	0.0122521
697.646	0.0119762
697.724	0.0116901
697.802	0.0114146
697.880	0.0110689
697.958	0.0107479
698.036	0.0104167
698.114	0.0102723
698.193	0.0100690
698.271	0.0100348
698.349	0.00975426
698.427	0.00956993
698.505	0.00960114
698.583	0.00961853
698.661	0.00959053
698.739	0.00979187
698.818	0.00985252
698.896	0.0101357
698.974	0.0104502
699.052	0.0108023
699.130	0.0112124
699.208	0.0115316
699.286	0.0119209
699.364	0.0122270
699.443	0.0126096
699.521	0.0130575
699.599	0.0135535
699.677	0.0139443
699.755	0.0144596
699.833	0.0149760
699.911	0.0152982
699.989	0.0157616
700.068	0.0158297
700.146	0.0162314
700.224	0.0165734
700.302	0.0167229
700.380	0.0169089
700.458	0.0168906
700.536	0.0171375
700.614	0.0172561
700.693	0.0171024
700.771	0.0171577
700.849	0.0172067
700.927	0.0170684
701.005	0.0170246
701.083	0.0168292
701.161	0.0166652
701.239	0.0166554
701.318	0.0163889
701.396	0.0162489
701.474	0.0160874
701.552	0.0157635
701.630	0.0154742
701.708	0.0153057
701.786	0.0148904
701.864	0.0145660
701.943	0.0143314
702.021	0.0139072
702.099	0.0136114
702.177	0.0132670
702.255	0.0128569
702.333	0.0125185
702.411	0.0122489
702.489	0.0119286
702.568	0.0117657
702.646	0.0114574
702.724	0.0112297
702.802	0.0108582
702.880	0.0106470
702.958	0.0106332
703.036	0.0103941
703.114	0.0101514
703.193	0.0101003
703.271	0.0102390
703.349	0.0100817
703.427	0.0100356
703.505	0.0101103
703.583	0.0101576
703.661	0.0101810
703.739	0.0104808
703.818	0.0105032
703.896	0.0107635
703.974	0.0109063
704.052	0.0111980
704.130	0.0114986
704.208	0.0115680
704.286	0.0120580
704.364	0.0123000
704.443	0.0124713
704.521	0.0127585
704.599	0.0130559
704.677	0.0132163
704.755	0.0134382
704.833	0.0139172
704.911	0.0141690
704.989	0.0144683
705.068	0.0147558
705.146	0.0150150
705.224	0.0152428
705.302	0.0155458
705.380	0.0157540
705.458	0.0159331
705.536	0.0160704
705.614	0.0163795
705.693	0.0163220
705.771	0.0163574
705.849	0.0164899
705.927	0.0166608
706.005	0.0166618
706.083	0.0166237
706.161	0.0163920
706.239	0.0164460
706.318	0.0164224
706.396	0.0162761
706.474	0.0162782
706.552	0.0161021
706.630	0.0158471
706.708	0.0156111
706.786	0.0155045
706.864	0.0152053
706.943	0.0149271
707.021	0.0148166
707.099	0.0143710
707.177	0.0141621
707.255	0.0140411
707.333	0.0136479
707.411	0.0133390
707.489	0.0132810
707.568	0.0129967
707.646	0.0126975
707.724	0.0124976
707.802	0.0123607
707.880	0.0120210
707.958	0.0118415
708.036	0.0115088
708.114	0.0114186
708.193	0.0112744
708.271	0.0112598
708.349	0.0110390
708.427	0.0110007
708.505	0.0109766
708.583	0.0108428
708.661	0.0109177
708.739	0.0109956
708.818	0.0109870
708.896	0.0110875
708.974	0.0110693
709.052	0.0113514
709.130	0.0113563
709.208	0.0117001
709.286	0.0117662
709.364	0.0119135
709.443	0.0122854
709.521	0.0123048
709.599	0.0125345
709.677	0.0127303
709.755	0.0129810
709.833	0.0131760
709.911	0.0134454
709.989	0.0136857
710.068	0.0137817
710.146	0.0138797
710.224	0.0140960
710.302	0.0141757
710.380	0.0141927
710.458	0.0142747
710.536	0.0143399
710.614	0.0142900
710.693	0.0142303
710.771	0.0143496
710.849	0.0142124
710.927	0.0143704
711.005	0.0143533
711.083	0.0143280
711.161	0.0144357
711.239	0.0144954
711.318	0.0146037
711.396	0.0144521
711.474	0.0145186
711.552	0.0145467
711.630	0.0145528
711.708	0.0147317
711.786	0.0147816
711.864	0.0147881
711.943	0.0145224
712.021	0.0148640
712.099	0.0149155
712.177	0.0146845
712.255	0.0146283
712.333	0.0147296
712.411	0.0146531
712.489	0.0147398
712.568	0.0145817
712.646	0.0144757
712.724	0.0144999
712.802	0.0142439
712.880	0.0142057
712.958	0.0140214
713.036	0.0140063
713.114	0.0139431
713.193	0.0137634
713.271	0.0137530
713.349	0.0135867
713.427	0.0134468
713.505	0.0132938
713.583	0.0133584
713.661	0.0133645
713.739	0.0132289
713.818	0.0131763
713.896	0.0130245
713.974	0.0129105
714.052	0.0129058
714.130	0.0127429
714.208	0.0125997
714.286	0.0126180
714.364	0.0124014
714.443	0.0121814
714.521	0.0121859
714.599	0.0121394
714.677	0.0119897
714.755	0.0118571
714.833	0.0118562
714.911	0.0118123
714.989	0.0116650
715.068	0.0116525
715.146	0.0116559
715.224	0.0116984
715.302	0.0116075
715.380	0.0116261
715.458	0.0117500
715.536	0.0118261
715.614	0.0119615
715.693	0.0120358
715.771	0.0119719
715.849	0.0122541
715.927	0.0125155
716.005	0.0125855
716.083	0.0127608
716.161	0.0128899
716.239	0.0129362
716.318	0.0131143
716.396	0.0132377
716.474	0.0133015
716.552	0.0134933
716.630	0.0137402
716.708	0.0138606
716.786	0.0140635
716.864	0.0142670
716.943	0.0142398
717.021	0.0144331
717.099	0.0147330
717.177	0.0147726
717.255	0.0150677
717.333	0.0152203
717.411	0.0152480
717.489	0.0153913
717.568	0.0155512
717.646	0.0156701
717.724	0.0155733
717.802	0.0155718
717.880	0.0154413
717.958	0.0155264
718.036	0.0155279
718.114	0.0155217
718.193	0.0153831
718.271	0.0151974
718.349	0.0149930
718.427	0.0149403
718.505	0.0145604
718.583	0.0144473
718.661	0.0142387
718.739	0.0140054
718.818	0.0137037
718.896	0.0134505
718.974	0.0132440
719.052	0.0132567
719.130	0.0130751
719.208	0.0129082
719.286	0.0129274
719.364	0.0128577
719.443	0.0127158
719.521	0.0125474
719.599	0.0125153
719.677	0.0124185
719.755	0.0122846
719.833	0.0122272
719.911	0.0121564
719.989	0.0121861
720.068	0.0122461
720.146	0.0120951
720.224	0.0119987
720.302	0.0119965
720.380	0.0119950
720.458	0.0120634
720.536	0.0120238
720.614	0.0120501
720.693	0.0120486
720.771	0.0121387
720.849	0.0121362
720.927	0.0121661
721.005	0.0121716
721.083	0.0122646
721.161	0.0123307
721.239	0.0123785
721.318	0.0124419
721.396	0.0125917
721.474	0.0124869
721.552	0.0126279
721.630	0.0128111
721.708	0.0128644
721.786	0.0131564
721.864	0.0132748
721.943	0.0133244
722.021	0.0134710
722.099	0.0136879
722.177	0.0139224
722.255	0.0139941
722.333	0.0139234
722.411	0.0141396
722.489	0.0141947
722.568	0.0143829
722.646	0.0144774
722.724	0.0144809
722.802	0.0145692
722.880	0.0146577
722.958	0.0146801
723.036	0.0147488
723.114	0.0146142
723.193	0.0147628
723.271	0.0147667
723.349	0.0145837
723.427	0.0144009
723.505	0.0145324
723.583	0.0145037
723.661	0.0143961
723.739	0.0143011
723.818	0.0142937
723.896	0.0141496
723.974	0.0141749
724.052	0.0140819
724.130	0.0139722
724.208	0.0138989
724.286	0.0137643
724.364	0.0138325
724.443	0.0137636
724.521	0.0136301
724.599	0.0134628
724.677	0.0135280
724.755	0.0135165
724.833	0.0135886
724.911	0.0135200
724.989	0.0133376
725.068	0.0135000
725.146	0.0134884
725.224	0.0134103
725.302	0.0134989
725.380	0.0136029
725.458	0.0136237
725.536	0.0135145
725.614	0.0135383
725.693	0.0134280
725.771	0.0134931
725.849	0.0134166
725.927	0.0132623
726.005	0.0133419
726.083	0.0132759
726.161	0.0132150
726.239	0.0131725
726.318	0.0132088
726.396	0.0130296
726.474	0.0129945
726.552	0.0129834
726.630	0.0129763
726.708	0.0129788
726.786	0.0132083
726.864	0.0128718
726.943	0.0129576
727.021	0.0131561
727.099	0.0129839
727.177	0.0131138
727.255	0.0130807
727.333	0.0131439
727.411	0.0132388
727.489	0.0131786
727.568	0.0130046
727.646	0.0132109
727.724	0.0132784
727.802	0.0133933
727.880	0.0134364
727.958	0.0133633
728.036	0.0134285
728.114	0.0135692
728.193	0.0134843
728.271	0.0134297
728.349	0.0135771
728.427	0.0134666
728.505	0.0135564
728.583	0.0134717
728.661	0.0135788
728.739	0.0135830
728.818	0.0135807
728.896	0.0135663
728.974	0.0137143
729.052	0.0137073
729.130	0.0135056
729.208	0.0136545
729.286	0.0139059
729.364	0.0139246
729.443	0.0139559
729.521	0.0139612
729.599	0.0140191
729.677	0.0140761
729.755	0.0140327
729.833	0.0137572
729.911	0.0139155
729.989	0.0139023
730.068	0.0138725
730.146	0.0139258
730.224	0.0139412
730.302	0.0138562
730.380	0.0137614
730.458	0.0137711
730.536	0.0137624
730.614	0.0137779
730.693	0.0136021
730.771	0.0136605
730.849	0.0137217
730.927	0.0136311
731.005	0.0136021
731.083	0.0136871
731.161	0.0135516
731.239	0.0136034
731.318	0.0136251
731.396	0.0134985
731.474	0.0135357
731.552	0.0134457
731.630	0.0133855
731.708	0.0132545
731.786	0.0133685
731.864	0.0133547
731.943	0.0131374
732.021	0.0132383
732.099	0.0132402
732.177	0.0131136
732.255	0.0131444
732.333	0.0130112
732.411	0.0128756
732.489	0.0130270
732.568	0.0130749
732.646	0.0129724
732.724	0.0129675
732.802	0.0129096
732.880	0.0129944
732.958	0.0129247
733.036	0.0130935
733.114	0.0132291
733.193	0.0131970
733.271	0.0132004
733.349	0.0132380
733.427	0.0132452
733.505	0.0134653
733.583	0.0134338
733.661	0.0134224
733.739	0.0136022
733.818	0.0135171
733.896	0.0134980
733.974	0.0135651
734.052	0.0136238
734.130	0.0137945
734.208	0.0136746
734.286	0.0137749
734.364	0.0136893
734.443	0.0137841
734.521	0.0138052
734.599	0.0138107
734.677	0.0139594
734.755	0.0138374
734.833	0.0139583
734.911	0.0139382
734.989	0.0140330
735.068	0.0138005
735.146	0.0138917
735.224	0.0137769
735.302	0.0137997
735.380	0.0137411
735.458	0.0135373
735.536	0.0135715
735.614	0.0137018
735.693	0.0134400
735.771	0.0133581
735.849	0.0133559
735.927	0.0131625
736.005	0.0132008
736.083	0.0129859
736.161	0.0131438
736.239	0.0130773
736.318	0.0130707
736.396	0.0131286
736.474	0.0129419
736.552	0.0130304
736.630	0.0130714
736.708	0.0129152
736.786	0.0130775
736.864	0.0131403
736.943	0.0131976
737.021	0.0131213
737.099	0.0132839
737.177	0.0133048
737.255	0.0134477
737.333	0.0135057
737.411	0.0135631
737.489	0.0136511
737.568	0.0136728
737.646	0.0138017
737.724	0.0138374
737.802	0.0139334
737.880	0.0140130
737.958	0.0139818
738.036	0.0140321
738.114	0.0138903
738.193	0.0139143
738.271	0.0139138
738.349	0.0138145
738.427	0.0137181
738.505	0.0138319
738.583	0.0137809
738.661	0.0137199
738.739	0.0137412
738.818	0.0137675
738.896	0.0138571
738.974	0.0137473
739.052	0.0136871
739.130	0.0138502
739.208	0.0136421
739.286	0.0136473
739.364	0.0135855
739.443	0.0136401
739.521	0.0135022
739.599	0.0135015
739.677	0.0134908
739.755	0.0133454
739.833	0.0131914
739.911	0.0130766
739.989	0.0131354
740.068	0.0130074
740.146	0.0128453
740.224	0.0127767
740.302	0.0127420
740.380	0.0127175
740.458	0.0127460
740.536	0.0127181
740.614	0.0126382
740.693	0.0126236
740.771	0.0125918
740.849	0.0128040
740.927	0.0128588
741.005	0.0127872
741.083	0.0128953
741.161	0.0129879
741.239	0.0129935
741.318	0.0131298
741.396	0.0131293
741.474	0.0132335
741.552	0.0133545
741.630	0.0134760
741.708	0.0134170
741.786	0.0136310
741.864	0.0136185
741.943	0.0137177
742.021	0.0137622
742.099	0.0137414
742.177	0.0137180
742.255	0.0137370
742.333	0.0138126
742.411	0.0138545
742.489	0.0137377
742.568	0.0137249
742.646	0.0138357
742.724	0.0138223
742.802	0.0137411
742.880	0.0138937
742.958	0.0139267
743.036	0.0138793
743.114	0.0138947
743.193	0.0138096
743.271	0.0137146
743.349	0.0137882
743.427	0.0138475
743.505	0.0138461
743.583	0.0138077
743.661	0.0137289
743.739	0.0137326
743.818	0.0137642
743.896	0.0136508
743.974	0.0137495
744.052	0.0135469
744.130	0.0136316
744.208	0.0135268
744.286	0.0134971
744.364	0.0135006
744.443	0.0134597
744.521	0.0134501
744.599	0.0134644
744.677	0.0135169
744.755	0.0135244
744.833	0.0133140
744.911	0.0132958
744.989	0.0133702
745.068	0.0134887
745.146	0.0132612
745.224	0.0133017
745.302	0.0132651
745.380	0.0133395
745.458	0.0133054
745.536	0.0134273
745.614	0.0133289
745.693	0.0132368
745.771	0.0132201
745.849	0.0133012
745.927	0.0133916
746.005	0.0133388
746.083	0.0132434
746.161	0.0132896
746.239	0.0134188
746.318	0.0134919
746.396	0.0134873
746.474	0.0134722
746.552	0.0134769
746.630	0.0135587
746.708	0.0135159
746.786	0.0135921
746.864	0.0136833
746.943	0.0136796
747.021	0.0137941
747.099	0.0137078
747.177	0.0137547
747.255	0.0137605
747.333	0.0138003
747.411	0.0138177
747.489	0.0137920
747.568	0.0137277
747.646	0.0138834
747.724	0.0136741
747.802	0.0138707
747.880	0.0138173
747.958	0.0138818
748.036	0.0138155
748.114	0.0138712
748.193	0.0136852
748.271	0.0136175
748.349	0.0135370
748.427	0.0135318
748.505	0.0135223
748.583	0.0134840
748.661	0.0133588
748.739	0.0133362
748.818	0.0132933
748.896	0.0132819
748.974	0.0132731
749.052	0.0132743
749.130	0.0131577
749.208	0.0133419
749.286	0.0132874
749.364	0.0131622
749.443	0.0131848
749.521	0.0133169
749.599	0.0133586
749.677	0.0132903
749.755	0.0134306
749.833	0.0134943
749.911	0.0135602
749.989	0.0136237
750.068	0.0136656
750.146	0.0135728
750.224	0.0135982
750.302	0.0136925
750.380	0.0137023
750.458	0.0136647
750.536	0.0135728
750.614	0.0138223
750.693	0.0137110
750.771	0.0136699
750.849	0.0137333
750.927	0.0135765
751.005	0.0136695
751.083	0.0136776
751.161	0.0136728
751.239	0.0136317
751.318	0.0135528
751.396	0.0136256
751.474	0.0137170
751.552	0.0136510
751.630	0.0135506
751.708	0.0136761
751.786	0.0137197
751.864	0.0135412
751.943	0.0137148
752.021	0.0136452
752.099	0.0135901
752.177	0.0136211
752.255	0.0136117
752.333	0.0135960
752.411	0.0136128
752.489	0.0136093
752.568	0.0134920
752.646	0.0136335
752.724	0.0134692
752.802	0.0133537
752.880	0.0133970
752.958	0.0134679
753.036	0.0134000
753.114	0.0133514
753.193	0.0131609
753.271	0.0131322
753.349	0.0132695
753.427	0.0130579
753.505	0.0130207
753.583	0.0129014
753.661	0.0128870
753.739	0.0128917
753.818	0.0130539
753.896	0.0128785
753.974	0.0128659
754.052	0.0128040
754.130	0.0128743
754.208	0.0129186
754.286	0.0128326
754.364	0.0128460
754.443	0.0128803
754.521	0.0127866
754.599	0.0127488
754.677	0.0127969
754.755	0.0128493
754.833	0.0127945
754.911	0.0127921
754.989	0.0128461
755.068	0.0128558
755.146	0.0128635
755.224	0.0130083
755.302	0.0129036
755.380	0.0130744
755.458	0.0130683
755.536	0.0131725
755.614	0.0135140
755.693	0.0134891
755.771	0.0134765
755.849	0.0136291
755.927	0.0138218
756.005	0.0138575
756.083	0.0137834
756.161	0.0139314
756.239	0.0138900
756.318	0.0138915
756.396	0.0139847
756.474	0.0140832
756.552	0.0140753
756.630	0.0140316
756.708	0.0139465
756.786	0.0139127
756.864	0.0139250
756.943	0.0140573
757.021	0.0138920
757.099	0.0137144
757.177	0.0137884
757.255	0.0137743
757.333	0.0135365
757.411	0.0136861
757.489	0.0134911
757.568	0.0134498
757.646	0.0134741
757.724	0.0135629
757.802	0.0133869
757.880	0.0136344
757.958	0.0135619
758.036	0.0136170
758.114	0.0135434
758.193	0.0133921
758.271	0.0134357
758.349	0.0136452
758.427	0.0136926
758.505	0.0137448
758.583	0.0136597
758.661	0.0135486
758.739	0.0138259
758.818	0.0136966
758.896	0.0135065
758.974	0.0136504
759.052	0.0135048
759.130	0.0136944
759.208	0.0136089
759.286	0.0135059
759.364	0.0135398
759.443	0.0134901
759.521	0.0133957
759.599	0.0133236
759.677	0.0133282
759.755	0.0133638
759.833	0.0132403
759.911	0.0132071
759.989	0.0132979
760.068	0.0132633
760.146	0.0132791
760.224	0.0132378
760.302	0.0130866
760.380	0.0132583
760.458	0.0132732
760.536	0.0131379
760.614	0.0130493
760.693	0.0132635
760.771	0.0132984
760.849	0.0132968
760.927	0.0132558
761.005	0.0133739
761.083	0.0132458
761.161	0.0134058
761.239	0.0134485
761.318	0.0134187
761.396	0.0133860
761.474	0.0134496
761.552	0.0134917
761.630	0.0136470
761.708	0.0135638
761.786	0.0136099
761.864	0.0135503
761.943	0.0136740
762.021	0.0136758
762.099	0.0136940
762.177	0.0136830
762.255	0.0137158
762.333	0.0138529
762.411	0.0137844
762.489	0.0139243
762.568	0.0137617
762.646	0.0137511
762.724	0.0138460
762.802	0.0138434
762.880	0.0140076
762.958	0.0139149
763.036	0.0138349
763.114	0.0137330
763.193	0.0138769
763.271	0.0138078
763.349	0.0138312
763.427	0.0136878
763.505	0.0137432
763.583	0.0137106
763.661	0.0136536
763.739	0.0137274
763.818	0.0137083
763.896	0.0135714
763.974	0.0136304
764.052	0.0137214
764.130	0.0135696
764.208	0.0135716
764.286	0.0135903
764.364	0.0135457
764.443	0.0135846
764.521	0.0135645
764.599	0.0135045
764.677	0.0135089
764.755	0.0135307
764.833	0.0135661
764.911	0.0135016
764.989	0.0137119
765.068	0.0135868
765.146	0.0134459
765.224	0.0134643
765.302	0.0134796
765.380	0.0134599
765.458	0.0133993
765.536	0.0132745
765.614	0.0134161
765.693	0.0133706
765.771	0.0133336
765.849	0.0131961
765.927	0.0131180
766.005	0.0131570
766.083	0.0131409
766.161	0.0131208
766.239	0.0130331
766.318	0.0130872
766.396	0.0130756
766.474	0.0131601
766.552	0.0131216
766.630	0.0129671
766.708	0.0130212
766.786	0.0131080
766.864	0.0130285
766.943	0.0132166
767.021	0.0131519
767.099	0.0131032
767.177	0.0131098
767.255	0.0131029
767.333	0.0132003
767.411	0.0131931
767.489	0.0130986
767.568	0.0132884
767.646	0.0132597
767.724	0.0132650
767.802	0.0133150
767.880	0.0131758
767.958	0.0131861
768.036	0.0133679
768.114	0.0134035
768.193	0.0134047
768.271	0.0136038
768.349	0.0135252
768.427	0.0134961
768.505	0.0136516
768.583	0.0136954
768.661	0.0137979
768.739	0.0138395
768.818	0.0139352
768.896	0.0140498
768.974	0.0139412
769.052	0.0141674
769.130	0.0142399
769.208	0.0142960
769.286	0.0141363
769.364	0.0142783
769.443	0.0141921
769.521	0.0142220
769.599	0.0142629
769.677	0.0142493
769.755	0.0142030
769.833	0.0142657
769.911	0.0140881
769.989	0.0140962
770.068	0.0142539
770.146	0.0140360
770.224	0.0139631
770.302	0.0140855
770.380	0.0139813
770.458	0.0138519
770.536	0.0137849
770.614	0.0136152
770.693	0.0137012
770.771	0.0136401
770.849	0.0134381
770.927	0.0135620
771.005	0.0134575
771.083	0.0132756
771.161	0.0132841
771.239	0.0133620
771.318	0.0131264
771.396	0.0130080
771.474	0.0129004
771.552	0.0129031
771.630	0.0131511
771.708	0.0128417
771.786	0.0128731
771.864	0.0129342
771.943	0.0129677
772.021	0.0130126
772.099	0.0129919
772.177	0.0129648
772.255	0.0130038
772.333	0.0131742
772.411	0.0132607
772.489	0.0131145
772.568	0.0132265
772.646	0.0132396
772.724	0.0133213
772.802	0.0133223
772.880	0.0134334
772.958	0.0134863
773.036	0.0135062
773.114	0.0135615
773.193	0.0135927
773.271	0.0135667
773.349	0.0136590
773.427	0.0136396
773.505	0.0134963
773.583	0.0137436
773.661	0.0136542
773.739	0.0136681
773.818	0.0136257
773.896	0.0136122
773.974	0.0137212
774.052	0.0136814
774.130	0.0137759
774.208	0.0136703
774.286	0.0136025
774.364	0.0136459
774.443	0.0136929
774.521	0.0136245
774.599	0.0135275
774.677	0.0136141
774.755	0.0135696
774.833	0.0135961
774.911	0.0135986
774.989	0.0137154
775.068	0.0136557
775.146	0.0137201
775.224	0.0135424
775.302	0.0134981
775.380	0.0135339
775.458	0.0135037
775.536	0.0135554
775.614	0.0135909
775.693	0.0135124
775.771	0.0135802
775.849	0.0134628
775.927	0.0135936
776.005	0.0137391
776.083	0.0135735
776.161	0.0135262
776.239	0.0134286
776.318	0.0135041
776.396	0.0135416
776.474	0.0133571
776.552	0.0133406
776.630	0.0133507
776.708	0.0132127
776.786	0.0132650
776.864	0.0133089
776.943	0.0131760
777.021	0.0131946
777.099	0.0132182
777.177	0.0131918
777.255	0.0131759
777.333	0.0132354
777.411	0.0131288
777.489	0.0131837
777.568	0.0131159
777.646	0.0132626
777.724	0.0132350
777.802	0.0133451
777.880	0.0133008
777.958	0.0133582
778.036	0.0133813
778.114	0.0133109
778.193	0.0133019
778.271	0.0134182
778.349	0.0134590
778.427	0.0134151
778.505	0.0134244
778.583	0.0133993
778.661	0.0135416
778.739	0.0134768
778.818	0.0134177
778.896	0.0134074
778.974	0.0133290
779.052	0.0134477
779.130	0.0136150
779.208	0.0135199
779.286	0.0134261
779.364	0.0134010
779.443	0.0135742
779.521	0.0135788
779.599	0.0134700
779.677	0.0134101
779.755	0.0134663
779.833	0.0133971
779.911	0.0134145
779.989	0.0133835
780.068	0.0133485
780.146	0.0132561
780.224	0.0132289
780.302	0.0133930
780.380	0.0133498
780.458	0.0132730
780.536	0.0133318
780.614	0.0133244
780.693	0.0132643
780.771	0.0133369
780.849	0.0135412
780.927	0.0134953
781.005	0.0134084
781.083	0.0133357
781.161	0.0133801
781.239	0.0134406
781.318	0.0134855
781.396	0.0135204
781.474	0.0134174
781.552	0.0135677
781.630	0.0136089
781.708	0.0135450
781.786	0.0136195
781.864	0.0138025
781.943	0.0138881
782.021	0.0137134
782.099	0.0137641
782.177	0.0137298
782.255	0.0136597
782.333	0.0138406
782.411	0.0137878
782.489	0.0138772
782.568	0.0139054
782.646	0.0137766
782.724	0.0136600
782.802	0.0137723
782.880	0.0137107
782.958	0.0137424
783.036	0.0135893
783.114	0.0136353
783.193	0.0136156
783.271	0.0136111
783.349	0.0135953
783.427	0.0135583
783.505	0.0133887
783.583	0.0132349
783.661	0.0132420
783.739	0.0132140
783.818	0.0132090
783.896	0.0131355
783.974	0.0131510
784.052	0.0129900
784.130	0.0131494
784.208	0.0129880
784.286	0.0129469
784.364	0.0128004
784.443	0.0129079
784.521	0.0129897
784.599	0.0130847
784.677	0.0130761
784.755	0.0131333
784.833	0.0131776
784.911	0.0130826
784.989	0.0132187
785.068	0.0133837
785.146	0.0135416
785.224	0.0134306
785.302	0.0134860
785.380	0.0135442
785.458	0.0136074
785.536	0.0136805
785.614	0.0138649
785.693	0.0137757
785.771	0.0139195
785.849	0.0139276
785.927	0.0139304
786.005	0.0139702
786.083	0.0141204
786.161	0.0140090
786.239	0.0140096
786.318	0.0139740
786.396	0.0139011
786.474	0.0139226
786.552	0.0140022
786.630	0.0140102
786.708	0.0139175
786.786	0.0138563
786.864	0.0139987
786.943	0.0138985
787.021	0.0138188
787.099	0.0137791
787.177	0.0138831
787.255	0.0138564
787.333	0.0138519
787.411	0.0136910
787.489	0.0137019
787.568	0.0136250
787.646	0.0135835
787.724	0.0136147
787.802	0.0136008
787.880	0.0136159
787.958	0.0135399
788.036	0.0134758
788.114	0.0134678
788.193	0.0134145
788.271	0.0134338
788.349	0.0135920
788.427	0.0134277
788.505	0.0133530
788.583	0.0133240
788.661	0.0132334
788.739	0.0133205
788.818	0.0132217
788.896	0.0131896
788.974	0.0132043
789.052	0.0132299
789.130	0.0131709
789.208	0.0130394
789.286	0.0130466
789.364	0.0129710
789.443	0.0131734
789.521	0.0129629
789.599	0.0130975
789.677	0.0129813
789.755	0.0129891
789.833	0.0131655
789.911	0.0130949
789.989	0.0129729
790.068	0.0131074
790.146	0.0131805
790.224	0.0131573
790.302	0.0132012
790.380	0.0132465
790.458	0.0133781
790.536	0.0134254
790.614	0.0135332
790.693	0.0135213
790.771	0.0135876
790.849	0.0137215
790.927	0.0137096
791.005	0.0135420
791.083	0.0137488
791.161	0.0138529
791.239	0.0138479
791.318	0.0138853
791.396	0.0138455
791.474	0.0139271
791.552	0.0138359
791.630	0.0139091
791.708	0.0138831
791.786	0.0139079
791.864	0.0138464
791.943	0.0139776
792.021	0.0140196
792.099	0.0140276
792.177	0.0139753
792.255	0.0138976
792.333	0.0140945
792.411	0.0139949
792.489	0.0139462
792.568	0.0139433
792.646	0.0139545
792.724	0.0138960
792.802	0.0138385
792.880	0.0139098
792.958	0.0138948
793.036	0.0137693
793.114	0.0139299
793.193	0.0138223
793.271	0.0136272
793.349	0.0138772
793.427	0.0138210
793.505	0.0137293
793.583	0.0136771
793.661	0.0135948
793.739	0.0137591
793.818	0.0136570
793.896	0.0136140
793.974	0.0135860
794.052	0.0134811
794.130	0.0132343
794.208	0.0133370
794.286	0.0131591
794.364	0.0132143
794.443	0.0131915
794.521	0.0130933
794.599	0.0129716
794.677	0.0129570
794.755	0.0128345
794.833	0.0130527
794.911	0.0128838
794.989	0.0127243
795.068	0.0128957
795.146	0.0128735
795.224	0.0126202
795.302	0.0127568
795.380	0.0127531
795.458	0.0129330
795.536	0.0131641
795.614	0.0129616
795.693	0.0131847
795.771	0.0132467
795.849	0.0131329
795.927	0.0133076
796.005	0.0132718
796.083	0.0133564
796.161	0.0136179
796.239	0.0135485
796.318	0.0136982
796.396	0.0137253
796.474	0.0138120
796.552	0.0138978
796.630	0.0138470
796.708	0.0139227
796.786	0.0140767
796.864	0.0139523
796.943	0.0139471
797.021	0.0139709
797.099	0.0140782
797.177	0.0141863
797.255	0.0140665
797.333	0.0142427
797.411	0.0140598
797.489	0.0141698
797.568	0.0141473
797.646	0.0140112
797.724	0.0139747
797.802	0.0140654
797.880	0.0140224
797.958	0.0139504
798.036	0.0138892
798.114	0.0139147
798.193	0.0137068
798.271	0.0139371
798.349	0.0137921
798.427	0.0138742
798.505	0.0139256
798.583	0.0137801
798.661	0.0138367
798.739	0.0136356
798.818	0.0137338
798.896	0.0135880
798.974	0.0134790
799.052	0.0135353
799.130	0.0132296
799.208	0.0131610
799.286	0.0131357
799.364	0.0130624
799.443	0.0130055
799.521	0.0128938
799.599	0.0126336
799.677	0.0128278
799.755	0.0128248
799.833	0.0126576
799.911	0.0126679
799.989	0.0127143
800.068	0.0126397
800.146	0.0126873
800.224	0.0126339
800.302	0.0127819
800.380	0.0128836
800.458	0.0128305
800.536	0.0128722
800.614	0.0129169
800.693	0.0132353
800.771	0.0132494
800.849	0.0132465
800.927	0.0132467
801.005	0.0133237
801.083	0.0134260
801.161	0.0134500
801.239	0.0135902
801.318	0.0134688
801.396	0.0135422
801.474	0.0136031
801.552	0.0137466
801.630	0.0136440
801.708	0.0137473
801.786	0.0138898
801.864	0.0139539
801.943	0.0139917
802.021	0.0139777
802.099	0.0140316
802.177	0.0141229
802.255	0.0142441
802.333	0.0141857
802.411	0.0143540
802.489	0.0143683
802.568	0.0143080
802.646	0.0144476
802.724	0.0143995
802.802	0.0142586
802.880	0.0144320
802.958	0.0143987
803.036	0.0143501
803.114	0.0143368
803.193	0.0143040
803.271	0.0140962
803.349	0.0141021
803.427	0.0141648
803.505	0.0140470
803.583	0.0139485
803.661	0.0137214
803.739	0.0137405
803.818	0.0139289
803.896	0.0138116
803.974	0.0136179
804.052	0.0135767
804.130	0.0135427
804.208	0.0135502
804.286	0.0134101
804.364	0.0132452
804.443	0.0133106
804.521	0.0132109
804.599	0.0132032
804.677	0.0131264
804.755	0.0130578
804.833	0.0129259
804.911	0.0129650
804.989	0.0131187
805.068	0.0129748
805.146	0.0130149
805.224	0.0130171
805.302	0.0129699
805.380	0.0129412
805.458	0.0130222
805.536	0.0130889
805.614	0.0131497
805.693	0.0131389
805.771	0.0132477
805.849	0.0130563
805.927	0.0130844
806.005	0.0130924
806.083	0.0131695
806.161	0.0132964
806.239	0.0131932
806.318	0.0132175
806.396	0.0133167
806.474	0.0135569
806.552	0.0135159
806.630	0.0135267
806.708	0.0135024
806.786	0.0136536
806.864	0.0137168
806.943	0.0136825
807.021	0.0136809
807.099	0.0138113
807.177	0.0137913
807.255	0.0138518
807.333	0.0137376
807.411	0.0139603
807.489	0.0139191
807.568	0.0139038
807.646	0.0139536
807.724	0.0139336
807.802	0.0138806
807.880	0.0138924
807.958	0.0139605
808.036	0.0137289
808.114	0.0137946
808.193	0.0138784
808.271	0.0139795
808.349	0.0138179
808.427	0.0138926
808.505	0.0139429
808.583	0.0138108
808.661	0.0137807
808.739	0.0138633
808.818	0.0138556
808.896	0.0137907
808.974	0.0136681
809.052	0.0137100
809.130	0.0137293
809.208	0.0135553
809.286	0.0135313
809.364	0.0135050
809.443	0.0134068
809.521	0.0133810
809.599	0.0134186
809.677	0.0133667
809.755	0.0132207
809.833	0.0133054
809.911	0.0132881
809.989	0.0133006
810.068	0.0132226
810.146	0.0132601
810.224	0.0131371
810.302	0.0132504
810.380	0.0131426
810.458	0.0131300
810.536	0.0131470
810.614	0.0131368
810.693	0.0132338
810.771	0.0130524
810.849	0.0132423
810.927	0.0131030
811.005	0.0131168
811.083	0.0131070
811.161	0.0130976
811.239	0.0131392
811.318	0.0129972
811.396	0.0129276
811.474	0.0129534
811.552	0.0130555
811.630	0.0129598
811.708	0.0130585
811.786	0.0131236
811.864	0.0130228
811.943	0.0129462
812.021	0.0130568
812.099	0.0131815
812.177	0.0131747
812.255	0.0130155
812.333	0.0131939
812.411	0.0131982
812.489	0.0132043
812.568	0.0132368
812.646	0.0132531
812.724	0.0133144
812.802	0.0133864
812.880	0.0135738
812.958	0.0136169
813.036	0.0136113
813.114	0.0137137
813.193	0.0138010
813.271	0.0137657
813.349	0.0139153
813.427	0.0137577
813.505	0.0137563
813.583	0.0139019
813.661	0.0139259
813.739	0.0139198
813.818	0.0139594
813.896	0.0140302
813.974	0.0139968
814.052	0.0140641
814.130	0.0140141
814.208	0.0140721
814.286	0.0140068
814.364	0.0140708
814.443	0.0139408
814.521	0.0139474
814.599	0.0140547
814.677	0.0138842
814.755	0.0139648
814.833	0.0137963
814.911	0.0138341
814.989	0.0137583
815.068	0.0135822
815.146	0.0136646
815.224	0.0134426
815.302	0.0135172
815.380	0.0133611
815.458	0.0133447
815.536	0.0131872
815.614	0.0131127
815.693	0.0130866
815.771	0.0130061
815.849	0.0129857
815.927	0.0128036
816.005	0.0125983
816.083	0.0127612
816.161	0.0126794
816.239	0.0127093
816.318	0.0127065
816.396	0.0126765
816.474	0.0127591
816.552	0.0129280
816.630	0.0128156
816.708	0.0128735
816.786	0.0130302
816.864	0.0131107
816.943	0.0130687
817.021	0.0131638
817.099	0.0133362
817.177	0.0134467
817.255	0.0134190
817.333	0.0136719
817.411	0.0137196
817.489	0.0136391
817.568	0.0137015
817.646	0.0137743
817.724	0.0137109
817.802	0.0137669
817.880	0.0137359
817.958	0.0138376
818.036	0.0137965
818.114	0.0138784
818.193	0.0138751
818.271	0.0139213
818.349	0.0137244
818.427	0.0137009
818.505	0.0137520
818.583	0.0137749
818.661	0.0136658
818.739	0.0136207
818.818	0.0135326
818.896	0.0136120
818.974	0.0136530
819.052	0.0137210
819.130	0.0134931
819.208	0.0134865
819.286	0.0135032
819.364	0.0135065
819.443	0.0134389
819.521	0.0134134
819.599	0.0134961
819.677	0.0136273
819.755	0.0136069
819.833	0.0134759
819.911	0.0136411
819.989	0.0136187
820.068	0.0136710
820.146	0.0136671
820.224	0.0136029
820.302	0.0135861
820.380	0.0135284
820.458	0.0136254
820.536	0.0136884
820.614	0.0136088
820.693	0.0136104
820.771	0.0136691
820.849	0.0135098
820.927	0.0135768
821.005	0.0133849
821.083	0.0134046
821.161	0.0133456
821.239	0.0132668
821.318	0.0132265
821.396	0.0132471
821.474	0.0132275
821.552	0.0131948
821.630	0.0132746
821.708	0.0132812
821.786	0.0132684
821.864	0.0133768
821.943	0.0134055
822.021	0.0132840
822.099	0.0134911
822.177	0.0134286
822.255	0.0135746
822.333	0.0137146
822.411	0.0136678
822.489	0.0136906
822.568	0.0136013
822.646	0.0136405
822.724	0.0138412
822.802	0.0137224
822.880	0.0138130
822.958	0.0139378
823.036	0.0139103
823.114	0.0138820
823.193	0.0139706
823.271	0.0138816
823.349	0.0139552
823.427	0.0138484
823.505	0.0138896
823.583	0.0138906
823.661	0.0139404
823.739	0.0137388
823.818	0.0138260
823.896	0.0138072
823.974	0.0137036
824.052	0.0137817
824.130	0.0137354
824.208	0.0137654
824.286	0.0137564
824.364	0.0136247
824.443	0.0135653
824.521	0.0136025
824.599	0.0136606
824.677	0.0134356
824.755	0.0134691
824.833	0.0134516
824.911	0.0135612
824.989	0.0133723
825.068	0.0133475
825.146	0.0134838
825.224	0.0133898
825.302	0.0132990
825.380	0.0134014
825.458	0.0134408
825.536	0.0135950
825.614	0.0135597
825.693	0.0135310
825.771	0.0136002
825.849	0.0136515
825.927	0.0138113
826.005	0.0138438
826.083	0.0137513
826.161	0.0137573
826.239	0.0138402
826.318	0.0139075
826.396	0.0137498
826.474	0.0139510
826.552	0.0138438
826.630	0.0139767
826.708	0.0139668
826.786	0.0140176
826.864	0.0140160
826.943	0.0139902
827.021	0.0139153
827.099	0.0138567
827.177	0.0140344
827.255	0.0137876
827.333	0.0137778
827.411	0.0137954
827.489	0.0138138
827.568	0.0136950
827.646	0.0136361
827.724	0.0137261
827.802	0.0135966
827.880	0.0135011
827.958	0.0136455
828.036	0.0137739
828.114	0.0136217
828.193	0.0134293
828.271	0.0134232
828.349	0.0134471
828.427	0.0135095
828.505	0.0135771
828.583	0.0133098
828.661	0.0132337
828.739	0.0132261
828.818	0.0132759
828.896	0.0133166
828.974	0.0133443
829.052	0.0132791
829.130	0.0133470
829.208	0.0133663
829.286	0.0133693
829.364	0.0133006
829.443	0.0133581
829.521	0.0134092
829.599	0.0134779
829.677	0.0135914
829.755	0.0135738
829.833	0.0136568
829.911	0.0136337
829.989	0.0136064
830.068	0.0135944
830.146	0.0136555
830.224	0.0137098
830.302	0.0137064
830.380	0.0135079
830.458	0.0134399
830.536	0.0134847
830.614	0.0134912
830.693	0.0134995
830.771	0.0135588
830.849	0.0132919
830.927	0.0134677
831.005	0.0134511
831.083	0.0133429
831.161	0.0134325
831.239	0.0132783
831.318	0.0133691
831.396	0.0134970
831.474	0.0132362
831.552	0.0132858
831.630	0.0131455
831.708	0.0130736
831.786	0.0131965
831.864	0.0131394
831.943	0.0130657
832.021	0.0130897
832.099	0.0130904
832.177	0.0132009
832.255	0.0131625
832.333	0.0132114
832.411	0.0132276
832.489	0.0132573
832.568	0.0132740
832.646	0.0133330
832.724	0.0133601
832.802	0.0136469
832.880	0.0134675
832.958	0.0133472
833.036	0.0135467
833.114	0.0133732
833.193	0.0136060
833.271	0.0136397
833.349	0.0136047
833.427	0.0136219
833.505	0.0134242
833.583	0.0134923
833.661	0.0136759
833.739	0.0137268
833.818	0.0136311
833.896	0.0136124
833.974	0.0136962
834.052	0.0137071
834.130	0.0135563
834.208	0.0135911
834.286	0.0137058
834.364	0.0136719
834.443	0.0137086
834.521	0.0136492
834.599	0.0135973
834.677	0.0135656
834.755	0.0136681
834.833	0.0137092
834.911	0.0135363
834.989	0.0134608
835.068	0.0135484
835.146	0.0133758
835.224	0.0134318
835.302	0.0133890
835.380	0.0133928
835.458	0.0132216
835.536	0.0133310
835.614	0.0132102
835.693	0.0131215
835.771	0.0131747
835.849	0.0131104
835.927	0.0130842
836.005	0.0129834
836.083	0.0128419
836.161	0.0129813
836.239	0.0129952
836.318	0.0129942
836.396	0.0129197
836.474	0.0130128
836.552	0.0130433
836.630	0.0128535
836.708	0.0130447
836.786	0.0130296
836.864	0.0129237
836.943	0.0132069
837.021	0.0132068
837.099	0.0132513
837.177	0.0131410
837.255	0.0131486
837.333	0.0131499
837.411	0.0131435
837.489	0.0133136
837.568	0.0132375
837.646	0.0133141
837.724	0.0132307
837.802	0.0132710
837.880	0.0134190
837.958	0.0134734
838.036	0.0135134
838.114	0.0136522
838.193	0.0135891
838.271	0.0136169
838.349	0.0138688
838.427	0.0138339
838.505	0.0137264
838.583	0.0139056
838.661	0.0140092
838.739	0.0139110
838.818	0.0139176
838.896	0.0141631
838.974	0.0139800
839.052	0.0140218
839.130	0.0140607
839.208	0.0138783
839.286	0.0140729
839.364	0.0139973
839.443	0.0139639
839.521	0.0140209
839.599	0.0139271
839.677	0.0140283
839.755	0.0138319
839.833	0.0137829
839.911	0.0139246
839.989	0.0137269
840.068	0.0136488
840.146	0.0136621
840.224	0.0136837
840.302	0.0134822
840.380	0.0135329
840.458	0.0134142
840.536	0.0134269
840.614	0.0133192
840.693	0.0132289
840.771	0.0131628
840.849	0.0130962
840.927	0.0131084
841.005	0.0130962
841.083	0.0130182
841.161	0.0130829
841.239	0.0129312
841.318	0.0130151
841.396	0.0129740
841.474	0.0130357
841.552	0.0131730
841.630	0.0130645
841.708	0.0130761
841.786	0.0131881
841.864	0.0132390
841.943	0.0133095
842.021	0.0133685
842.099	0.0133149
842.177	0.0132528
842.255	0.0134623
842.333	0.0133794
842.411	0.0135677
842.489	0.0136916
842.568	0.0135516
842.646	0.0134705
842.724	0.0135507
842.802	0.0134818
842.880	0.0135619
842.958	0.0136694
843.036	0.0135910
843.114	0.0136488
843.193	0.0136185
843.271	0.0137271
843.349	0.0134712
843.427	0.0135945
843.505	0.0134539
843.583	0.0134413
843.661	0.0135414
843.739	0.0134747
843.818	0.0134855
843.896	0.0134533
843.974	0.0134363
844.052	0.0135758
844.130	0.0134344
844.208	0.0133641
844.286	0.0134962
844.364	0.0135135
844.443	0.0135097
844.521	0.0135829
844.599	0.0136408
844.677	0.0135263
844.755	0.0134430
844.833	0.0136671
844.911	0.0136335
844.989	0.0137615
845.068	0.0137386
845.146	0.0137434
845.224	0.0137676
845.302	0.0138609
845.380	0.0137065
845.458	0.0137366
845.536	0.0137568
845.614	0.0137506
845.693	0.0137489
845.771	0.0136060
845.849	0.0136503
845.927	0.0137019
846.005	0.0136475
846.083	0.0135820
846.161	0.0136060
846.239	0.0135536
846.318	0.0136449
846.396	0.0136873
846.474	0.0136166
846.552	0.0137368
846.630	0.0137009
846.708	0.0136196
846.786	0.0135365
846.864	0.0137797
846.943	0.0137401
847.021	0.0135071
847.099	0.0135806
847.177	0.0134934
847.255	0.0134145
847.333	0.0135781
847.411	0.0134550
847.489	0.0134940
847.568	0.0131167
847.646	0.0133322
847.724	0.0133917
847.802	0.0134277
847.880	0.0134386
847.958	0.0133392
848.036	0.0132481
848.114	0.0134284
848.193	0.0134082
848.271	0.0133365
848.349	0.0133456
848.427	0.0133221
848.505	0.0132783
848.583	0.0134850
848.661	0.0133608
848.739	0.0134194
848.818	0.0133887
848.896	0.0135432
848.974	0.0136588
849.052	0.0137769
849.130	0.0136151
849.208	0.0138003
849.286	0.0137727
849.364	0.0136890
849.443	0.0138313
849.521	0.0139422
849.599	0.0138988
849.677	0.0138423
849.755	0.0139108
849.833	0.0139355
849.911	0.0140214
849.989	0.0139724
850.068	0.0138801
850.146	0.0138863
850.224	0.0137672
850.302	0.0138855
850.380	0.0137998
850.458	0.0138181
850.536	0.0138150
850.614	0.0137495
850.693	0.0137469
850.771	0.0137309
850.849	0.0136062
850.927	0.0138076
851.005	0.0135371
851.083	0.0135385
851.161	0.0135606
851.239	0.0135367
851.318	0.0134591
851.396	0.0134459
851.474	0.0134279
851.552	0.0134929
851.630	0.0135066
851.708	0.0136333
851.786	0.0135777
851.864	0.0133613
851.943	0.0134898
852.021	0.0136180
852.099	0.0135256
852.177	0.0134931
852.255	0.0134229
852.333	0.0135199
852.411	0.0134560
852.489	0.0136368
852.568	0.0134855
852.646	0.0134519
852.724	0.0134460
852.802	0.0134867
852.880	0.0135275
852.958	0.0134140
853.036	0.0135054
853.114	0.0133073
853.193	0.0134521
853.271	0.0133311
853.349	0.0132877
853.427	0.0134553
853.505	0.0133566
853.583	0.0132132
853.661	0.0133688
853.739	0.0133900
853.818	0.0132815
853.896	0.0132172
853.974	0.0131558
854.052	0.0133312
854.130	0.0131969
854.208	0.0133230
854.286	0.0133482
854.364	0.0133583
854.443	0.0133056
854.521	0.0132519
854.599	0.0134035
854.677	0.0133337
854.755	0.0133269
854.833	0.0135495
854.911	0.0135187
854.989	0.0133031
855.068	0.0134195
855.146	0.0134392
855.224	0.0133585
855.302	0.0134653
855.380	0.0133744
855.458	0.0133289
855.536	0.0134223
855.614	0.0136127
855.693	0.0134483
855.771	0.0133884
855.849	0.0136610
855.927	0.0134948
856.005	0.0134965
856.083	0.0135065
856.161	0.0134684
856.239	0.0135461
856.318	0.0134818
856.396	0.0134588
856.474	0.0134360
856.552	0.0134133
856.630	0.0135423
856.708	0.0135842
856.786	0.0134080
856.864	0.0135390
856.943	0.0133887
857.021	0.0134742
857.099	0.0134256
857.177	0.0134247
857.255	0.0134801
857.333	0.0133838
857.411	0.0134711
857.489	0.0133949
857.568	0.0134813
857.646	0.0134200
857.724	0.0133221
857.802	0.0134264
857.880	0.0135085
857.958	0.0133650
858.036	0.0135361
858.114	0.0134760
858.193	0.0135207
858.271	0.0135647
858.349	0.0134499
858.427	0.0134596
858.505	0.0134632
858.583	0.0133138
858.661	0.0134601
858.739	0.0136501
858.818	0.0134902
858.896	0.0134621
858.974	0.0134591
859.052	0.0136129
859.130	0.0134157
859.208	0.0135085
859.286	0.0136279
859.364	0.0134669
859.443	0.0135015
859.521	0.0134501
859.599	0.0134718
859.677	0.0134724
859.755	0.0133958
859.833	0.0133755
859.911	0.0133864
859.989	0.0134086
860.068	0.0132973
860.146	0.0133717
860.224	0.0134657
860.302	0.0134075
860.380	0.0134473
860.458	0.0136505
860.536	0.0134904
860.614	0.0134083
860.693	0.0135152
860.771	0.0136147
860.849	0.0136345
860.927	0.0136702
861.005	0.0136761
861.083	0.0135777
861.161	0.0135286
861.239	0.0136469
861.318	0.0136803
861.396	0.0136691
861.474	0.0136099
861.552	0.0137819
861.630	0.0137851
861.708	0.0138215
861.786	0.0135862
861.864	0.0136841
861.943	0.0136314
862.021	0.0136359
862.099	0.0136618
862.177	0.0138081
862.255	0.0135844
862.333	0.0135606
862.411	0.0136278
862.489	0.0135046
862.568	0.0135445
862.646	0.0135487
862.724	0.0134427
862.802	0.0135704
862.880	0.0135707
862.958	0.0134218
863.036	0.0135073
863.114	0.0133924
863.193	0.0132869
863.271	0.0132387
863.349	0.0132766
863.427	0.0133120
863.505	0.0133702
863.583	0.0134652
863.661	0.0133076
863.739	0.0133825
863.818	0.0134413
863.896	0.0133639
863.974	0.0135284
864.052	0.0134689
864.130	0.0134207
864.208	0.0134025
864.286	0.0134386
864.364	0.0133735
864.443	0.0135506
864.521	0.0134359
864.599	0.0134267
864.677	0.0133736
864.755	0.0133775
864.833	0.0135425
864.911	0.0135303
864.989	0.0133900
865.068	0.0133816
865.146	0.0134052
865.224	0.0135001
865.302	0.0134174
865.380	0.0134797
865.458	0.0135613
865.536	0.0136427
865.614	0.0135362
865.693	0.0135164
865.771	0.0136018
865.849	0.0135570
865.927	0.0135024
866.005	0.0135664
866.083	0.0137207
866.161	0.0137633
866.239	0.0134951
866.318	0.0136355
866.396	0.0138226
866.474	0.0137926
866.552	0.0136997
866.630	0.0136652
866.708	0.0136878
866.786	0.0138174
866.864	0.0137467
866.943	0.0136196
867.021	0.0135709
867.099	0.0137323
867.177	0.0136950
867.255	0.0136334
867.333	0.0135557
867.411	0.0137125
867.489	0.0135915
867.568	0.0136861
867.646	0.0136146
867.724	0.0136732
867.802	0.0137241
867.880	0.0135981
867.958	0.0137089
868.036	0.0136524
868.114	0.0135907
868.193	0.0136952
868.271	0.0136044
868.349	0.0136543
868.427	0.0135226
868.505	0.0135862
868.583	0.0134579
868.661	0.0133086
868.739	0.0135582
868.818	0.0134441
868.896	0.0133154
868.974	0.0134228
869.052	0.0133504
869.130	0.0133405
869.208	0.0133655
869.286	0.0134106
869.364	0.0132213
869.443	0.0134146
869.521	0.0132521
869.599	0.0133416
869.677	0.0133981
869.755	0.0133721
869.833	0.0132981
869.911	0.0133129
869.989	0.0134784
870.068	0.0133796
870.146	0.0133963
870.224	0.0135159
870.302	0.0134865
870.380	0.0134715
870.458	0.0135207
870.536	0.0135408
870.614	0.0136061
870.693	0.0135281
870.771	0.0136369
870.849	0.0136307
870.927	0.0135984
871.005	0.0135478
871.083	0.0134142
871.161	0.0135687
871.239	0.0135780
871.318	0.0134570
871.396	0.0134457
871.474	0.0133405
871.552	0.0134533
871.630	0.0133112
871.708	0.0133428
871.786	0.0133882
871.864	0.0132978
871.943	0.0132446
872.021	0.0132444
872.099	0.0133385
872.177	0.0134014
872.255	0.0132970
872.333	0.0133766
872.411	0.0135216
872.489	0.0133119
872.568	0.0133528
872.646	0.0135301
872.724	0.0135194
872.802	0.0135705
872.880	0.0135468
872.958	0.0136092
873.036	0.0135219
873.114	0.0136608
873.193	0.0137667
873.271	0.0136937
873.349	0.0137301
873.427	0.0135964
873.505	0.0136964
873.583	0.0135278
873.661	0.0135194
873.739	0.0134635
873.818	0.0134639
873.896	0.0134946
873.974	0.0134955
874.052	0.0134150
874.130	0.0134402
874.208	0.0134674
874.286	0.0133039
874.364	0.0134114
874.443	0.0133332
874.521	0.0134599
874.599	0.0133301
874.677	0.0133810
874.755	0.0133695
874.833	0.0133080
874.911	0.0134513
874.989	0.0133142
875.068	0.0134260
875.146	0.0133719
875.224	0.0134687
875.302	0.0133717
875.380	0.0132752
875.458	0.0133546
875.536	0.0134409
875.614	0.0134480
875.693	0.0134277
875.771	0.0133685
875.849	0.0134793
875.927	0.0133514
876.005	0.0134079
876.083	0.0134290
876.161	0.0133414
876.239	0.0134976
876.318	0.0136256
876.396	0.0135475
876.474	0.0134669
876.552	0.0134543
876.630	0.0136076
876.708	0.0136421
876.786	0.0134174
876.864	0.0136463
876.943	0.0137478
877.021	0.0135992
877.099	0.0136794
877.177	0.0135869
877.255	0.0135934
877.333	0.0136739
877.411	0.0135605
877.489	0.0135941
877.568	0.0137322
877.646	0.0137310
877.724	0.0136456
877.802	0.0135221
877.880	0.0135437
877.958	0.0134219
878.036	0.0135655
878.114	0.0135588
878.193	0.0133757
878.271	0.0133453
878.349	0.0133766
878.427	0.0133591
878.505	0.0133594
878.583	0.0134776
878.661	0.0132976
878.739	0.0134808
878.818	0.0133344
878.896	0.0132391
878.974	0.0133470
879.052	0.0132933
879.130	0.0134179
879.208	0.0134157
879.286	0.0134920
879.364	0.0132072
879.443	0.0132871
879.521	0.0134740
879.599	0.0135794
879.677	0.0136018
879.755	0.0134883
879.833	0.0135400
879.911	0.0135941
879.989	0.0135528
880.068	0.0136346
880.146	0.0135567
880.224	0.0135781
880.302	0.0136941
880.380	0.0137225
880.458	0.0136674
880.536	0.0135973
880.614	0.0135921
880.693	0.0134965
880.771	0.0135176
880.849	0.0133964
880.927	0.0133707
881.005	0.0134005
881.083	0.0132963
881.161	0.0133543
881.239	0.0133644
881.318	0.0131935
881.396	0.0133319
881.474	0.0132320
881.552	0.0133441
881.630	0.0132370
881.708	0.0133283
881.786	0.0132828
881.864	0.0132669
881.943	0.0133536
882.021	0.0134017
882.099	0.0135683
882.177	0.0134180
882.255	0.0135119
882.333	0.0135332
882.411	0.0135319
882.489	0.0137531
882.568	0.0136508
882.646	0.0139110
882.724	0.0137749
882.802	0.0137632
882.880	0.0138554
882.958	0.0139238
883.036	0.0139908
883.114	0.0140071
883.193	0.0139034
883.271	0.0138726
883.349	0.0140601
883.427	0.0138750
883.505	0.0138754
883.583	0.0138869
883.661	0.0138396
883.739	0.0138660
883.818	0.0137696
883.896	0.0137110
883.974	0.0137009
884.052	0.0137646
884.130	0.0135893
884.208	0.0135058
884.286	0.0134547
884.364	0.0134778
884.443	0.0135386
884.521	0.0133585
884.599	0.0133859
884.677	0.0133484
884.755	0.0133076
884.833	0.0133441
884.911	0.0132419
884.989	0.0132929
885.068	0.0134501
885.146	0.0133453
885.224	0.0133691
885.302	0.0133521
885.380	0.0134025
885.458	0.0132058
885.536	0.0134384
885.614	0.0133684
885.693	0.0134396
885.771	0.0134719
885.849	0.0134264
885.927	0.0134314
886.005	0.0135143
886.083	0.0135413
886.161	0.0134435
886.239	0.0134687
886.318	0.0134026
886.396	0.0133112
886.474	0.0134065
886.552	0.0135099
886.630	0.0134817
886.708	0.0134683
886.786	0.0134993
886.864	0.0133861
886.943	0.0135329
887.021	0.0133347
887.099	0.0136134
887.177	0.0134245
887.255	0.0135651
887.333	0.0136209
887.411	0.0134737
887.489	0.0135523
887.568	0.0135234
887.646	0.0135406
887.724	0.0136165
887.802	0.0137754
887.880	0.0137617
887.958	0.0137662
888.036	0.0137271
888.114	0.0137218
888.193	0.0137374
888.271	0.0138582
888.349	0.0137257
888.427	0.0137479
888.505	0.0137268
888.583	0.0136379
888.661	0.0137551
888.739	0.0137375
888.818	0.0135975
888.896	0.0137115
888.974	0.0135507
889.052	0.0134936
889.130	0.0135565
889.208	0.0134591
889.286	0.0132493
889.364	0.0134022
889.443	0.0133827
889.521	0.0132426
889.599	0.0132024
889.677	0.0133023
889.755	0.0132069
889.833	0.0131726
889.911	0.0130978
889.989	0.0131834
890.068	0.0131867
890.146	0.0131278
890.224	0.0132753
890.302	0.0133480
890.380	0.0132782
890.458	0.0132087
890.536	0.0132301
890.614	0.0134523
890.693	0.0134064
890.771	0.0134254
890.849	0.0134579
890.927	0.0135116
891.005	0.0135809
891.083	0.0135493
891.161	0.0134667
891.239	0.0135197
891.318	0.0136156
891.396	0.0136063
891.474	0.0135822
891.552	0.0135629
891.630	0.0136150
891.708	0.0136272
891.786	0.0137221
891.864	0.0136420
891.943	0.0135038
892.021	0.0136766
892.099	0.0134821
892.177	0.0136864
892.255	0.0135352
892.333	0.0136078
892.411	0.0136457
892.489	0.0135797
892.568	0.0136703
892.646	0.0135299
892.724	0.0136290
892.802	0.0136659
892.880	0.0134959
892.958	0.0135633
893.036	0.0136613
893.114	0.0135333
893.193	0.0135865
893.271	0.0135536
893.349	0.0134880
893.427	0.0135915
893.505	0.0134585
893.583	0.0134427
893.661	0.0132218
893.739	0.0132180
893.818	0.0133568
893.896	0.0133228
893.974	0.0132837
894.052	0.0133620
894.130	0.0133338
894.208	0.0134007
894.286	0.0131676
894.364	0.0131248
894.443	0.0134242
894.521	0.0132749
894.599	0.0133197
894.677	0.0132561
894.755	0.0133698
894.833	0.0134055
894.911	0.0134286
894.989	0.0133914
895.068	0.0135324
895.146	0.0134074
895.224	0.0136118
895.302	0.0134018
895.380	0.0135168
895.458	0.0135233
895.536	0.0137007
895.614	0.0135255
895.693	0.0135517
895.771	0.0135057
895.849	0.0136666
895.927	0.0137052
896.005	0.0136758
896.083	0.0136117
896.161	0.0135607
896.239	0.0136636
896.318	0.0136221
896.396	0.0136512
896.474	0.0136620
896.552	0.0135802
896.630	0.0135595
896.708	0.0135207
896.786	0.0136054
896.864	0.0136140
896.943	0.0134423
897.021	0.0136057
897.099	0.0134836
897.177	0.0135861
897.255	0.0135177
897.333	0.0133583
897.411	0.0136037
897.489	0.0136797
897.568	0.0136159
897.646	0.0133825
897.724	0.0134879
897.802	0.0135487
897.880	0.0134373
897.958	0.0135733
898.036	0.0134217
898.114	0.0135143
898.193	0.0135302
898.271	0.0135027
898.349	0.0133693
898.427	0.0132414
898.505	0.0134068
898.583	0.0134065
898.661	0.0134147
898.739	0.0132431
898.818	0.0132935
898.896	0.0133068
898.974	0.0132000
899.052	0.0133043
899.130	0.0133022
899.208	0.0132143
899.286	0.0132395
899.364	0.0133719
899.443	0.0133149
899.521	0.0133490
899.599	0.0133651
899.677	0.0132574
899.755	0.0132758
899.833	0.0133432
899.911	0.0133406
899.989	0.0132838
900.068	0.0133009
900.146	0.0132640
900.224	0.0133270
900.302	0.0134951
900.380	0.0134607
900.458	0.0134274
900.536	0.0133521
900.614	0.0134115
900.693	0.0133900
900.771	0.0133140
900.849	0.0134830
900.927	0.0135081
901.005	0.0133317
901.083	0.0134685
901.161	0.0135257
901.239	0.0135157
901.318	0.0133832
901.396	0.0136655
901.474	0.0135262
901.552	0.0133862
901.630	0.0134444
901.708	0.0135854
901.786	0.0136163
901.864	0.0137325
901.943	0.0137041
902.021	0.0135854
902.099	0.0135069
902.177	0.0137148
902.255	0.0135176
902.333	0.0134547
902.411	0.0136839
902.489	0.0135713
902.568	0.0134010
902.646	0.0134045
902.724	0.0134479
902.802	0.0133598
902.880	0.0134885
902.958	0.0134510
903.036	0.0134084
903.114	0.0132421
903.193	0.0134890
903.271	0.0132850
903.349	0.0134089
903.427	0.0134133
903.505	0.0133868
903.583	0.0133233
903.661	0.0133516
903.739	0.0134385
903.818	0.0135062
903.896	0.0132690
903.974	0.0132806
904.052	0.0133762
904.130	0.0133855
904.208	0.0133249
904.286	0.0131313
904.364	0.0132421
904.443	0.0132420
904.521	0.0131609
904.599	0.0131956
904.677	0.0132198
904.755	0.0133382
904.833	0.0133726
904.911	0.0133192
904.989	0.0133247
905.068	0.0133765
905.146	0.0134433
905.224	0.0133862
905.302	0.0134559
905.380	0.0136895
905.458	0.0134612
905.536	0.0135967
905.614	0.0136331
905.693	0.0136108
905.771	0.0135918
905.849	0.0136006
905.927	0.0135915
906.005	0.0136234
906.083	0.0136293
906.161	0.0136967
906.239	0.0136981
906.318	0.0136798
906.396	0.0136236
906.474	0.0135768
906.552	0.0136374
906.630	0.0135915
906.708	0.0137939
906.786	0.0136640
906.864	0.0135732
906.943	0.0137052
907.021	0.0136562
907.099	0.0136649
907.177	0.0136977
907.255	0.0137247
907.333	0.0138447
907.411	0.0136957
907.489	0.0136404
907.568	0.0136875
907.646	0.0137233
907.724	0.0137895
907.802	0.0137462
907.880	0.0137551
907.958	0.0136327
908.036	0.0136140
908.114	0.0135357
908.193	0.0135873
908.271	0.0137617
908.349	0.0135815
908.427	0.0135190
908.505	0.0133726
908.583	0.0134344
908.661	0.0134077
908.739	0.0133376
908.818	0.0134377
908.896	0.0135726
908.974	0.0133894
909.052	0.0133555
909.130	0.0132883
909.208	0.0134090
909.286	0.0133438
909.364	0.0133717
909.443	0.0132575
909.521	0.0134354
909.599	0.0135765
909.677	0.0134244
909.755	0.0134410
909.833	0.0134096
909.911	0.0133971
909.989	0.0134870
910.068	0.0133569
910.146	0.0135198
910.224	0.0135264
910.302	0.0135396
910.380	0.0133949
910.458	0.0135275
910.536	0.0134975
910.614	0.0136185
910.693	0.0135531
910.771	0.0136371
910.849	0.0135870
910.927	0.0136587
911.005	0.0136940
911.083	0.0135552
911.161	0.0136256
911.239	0.0137005
911.318	0.0136533
911.396	0.0138552
911.474	0.0137388
911.552	0.0136913
911.630	0.0136163
911.708	0.0136942
911.786	0.0135996
911.864	0.0137611
911.943	0.0136220
912.021	0.0135874
912.099	0.0136164
912.177	0.0134769
912.255	0.0134086
912.333	0.0135098
912.411	0.0135175
912.489	0.0134128
912.568	0.0133781
912.646	0.0132883
912.724	0.0134033
912.802	0.0133353
912.880	0.0132368
912.958	0.0132636
913.036	0.0132800
913.114	0.0133398
913.193	0.0132765
913.271	0.0133279
913.349	0.0132311
913.427	0.0132718
913.505	0.0133522
913.583	0.0134248
913.661	0.0134629
913.739	0.0133362
913.818	0.0133174
913.896	0.0133507
913.974	0.0133325
914.052	0.0133014
914.130	0.0133701
914.208	0.0134349
914.286	0.0133482
914.364	0.0133710
914.443	0.0134692
914.521	0.0134235
914.599	0.0136341
914.677	0.0134776
914.755	0.0134104
914.833	0.0133990
914.911	0.0135303
914.989	0.0135493
915.068	0.0136160
915.146	0.0134578
915.224	0.0134798
915.302	0.0136175
915.380	0.0134435
915.458	0.0135670
915.536	0.0134968
915.614	0.0135596
915.693	0.0134814
915.771	0.0134942
915.849	0.0135929
915.927	0.0134941
916.005	0.0135780
916.083	0.0135734
916.161	0.0135693
916.239	0.0135793
916.318	0.0135964
916.396	0.0136453
916.474	0.0135406
916.552	0.0136172
916.630	0.0136343
916.708	0.0136283
916.786	0.0136697
916.864	0.0138178
916.943	0.0137086
917.021	0.0134830
917.099	0.0135633
917.177	0.0135654
917.255	0.0136314
917.333	0.0136659
917.411	0.0136514
917.489	0.0136267
917.568	0.0135307
917.646	0.0135744
917.724	0.0134708
917.802	0.0135644
917.880	0.0135242
917.958	0.0133725
918.036	0.0135709
918.114	0.0135361
918.193	0.0135917
918.271	0.0132700
918.349	0.0134245
918.427	0.0135329
918.505	0.0135243
918.583	0.0134544
918.661	0.0133808
918.739	0.0134444
918.818	0.0135047
918.896	0.0134566
918.974	0.0135697
919.052	0.0135725
919.130	0.0135294
919.208	0.0134161
919.286	0.0136155
919.364	0.0136536
919.443	0.0135997
919.521	0.0135793
919.599	0.0135705
919.677	0.0134816
919.755	0.0135905
919.833	0.0134872
919.911	0.0135100
919.989	0.0135516
920.068	0.0135303
920.146	0.0135495
920.224	0.0135551
920.302	0.0135847
920.380	0.0133799
920.458	0.0136388
920.536	0.0134389
920.614	0.0134956
920.693	0.0134368
920.771	0.0134824
920.849	0.0134698
920.927	0.0134844
921.005	0.0134264
921.083	0.0133070
921.161	0.0134643
921.239	0.0135028
921.318	0.0133440
921.396	0.0133723
921.474	0.0134491
921.552	0.0134406
921.630	0.0133575
921.708	0.0134439
921.786	0.0134549
921.864	0.0135664
921.943	0.0133452
922.021	0.0134486
922.099	0.0136857
922.177	0.0136605
922.255	0.0136043
922.333	0.0138177
922.411	0.0136631
922.489	0.0137614
922.568	0.0137423
922.646	0.0137756
922.724	0.0137331
922.802	0.0138960
922.880	0.0138338
922.958	0.0137016
923.036	0.0138600
923.114	0.0138667
923.193	0.0138531
923.271	0.0137965
923.349	0.0136533
923.427	0.0137704
923.505	0.0138482
923.583	0.0137806
923.661	0.0137636
923.739	0.0137340
923.818	0.0136551
923.896	0.0136624
923.974	0.0136521
924.052	0.0136990
924.130	0.0136264
924.208	0.0134927
924.286	0.0136118
924.364	0.0136877
924.443	0.0136008
924.521	0.0133911
924.599	0.0136221
924.677	0.0135865
924.755	0.0134689
924.833	0.0136444
924.911	0.0135406
924.989	0.0135668
925.068	0.0134125
925.146	0.0134674
925.224	0.0135075
925.302	0.0135208
925.380	0.0134048
925.458	0.0136317
925.536	0.0136414
925.614	0.0134258
925.693	0.0135353
925.771	0.0135209
925.849	0.0135959
925.927	0.0135575
926.005	0.0135082
926.083	0.0135076
926.161	0.0135681
926.239	0.0135563
926.318	0.0134960
926.396	0.0135799
926.474	0.0135121
926.552	0.0135902
926.630	0.0134203
926.708	0.0134533
926.786	0.0135723
926.864	0.0135297
926.943	0.0134687
927.021	0.0136800
927.099	0.0134831
927.177	0.0134367
927.255	0.0135777
927.333	0.0135475
927.411	0.0134882
927.489	0.0134293
927.568	0.0134962
927.646	0.0135059
927.724	0.0134791
927.802	0.0133118
927.880	0.0133865
927.958	0.0133627
928.036	0.0133954
928.114	0.0135566
928.193	0.0134472
928.271	0.0134348
928.349	0.0134171
928.427	0.0134881
928.505	0.0134861
928.583	0.0135561
928.661	0.0135538
928.739	0.0134332
928.818	0.0136304
928.896	0.0136668
928.974	0.0137262
929.052	0.0136280
929.130	0.0137471
929.208	0.0137160
929.286	0.0137146
929.364	0.0136815
929.443	0.0137075
929.521	0.0137761
929.599	0.0136747
929.677	0.0135432
929.755	0.0136676
929.833	0.0136954
929.911	0.0136040
929.989	0.0136818
930.068	0.0137572
930.146	0.0136237
930.224	0.0136392
930.302	0.0137581
930.380	0.0136517
930.458	0.0134984
930.536	0.0135622
930.614	0.0135158
930.693	0.0134823
930.771	0.0135268
930.849	0.0136300
930.927	0.0136897
931.005	0.0134893
931.083	0.0134064
931.161	0.0134766
931.239	0.0134766
931.318	0.0133736
931.396	0.0134706
931.474	0.0134550
931.552	0.0133615
931.630	0.0132934
931.708	0.0132659
931.786	0.0131617
931.864	0.0131041
931.943	0.0133105
932.021	0.0132287
932.099	0.0132354
932.177	0.0132172
932.255	0.0131450
932.333	0.0130259
932.411	0.0133211
932.489	0.0132809
932.568	0.0131992
932.646	0.0131798
932.724	0.0132721
932.802	0.0131976
932.880	0.0132319
932.958	0.0132819
933.036	0.0132224
933.114	0.0132693
933.193	0.0132923
933.271	0.0133506
933.349	0.0134311
933.427	0.0132048
933.505	0.0132371
933.583	0.0134093
933.661	0.0133858
933.739	0.0133096
933.818	0.0134705
933.896	0.0133512
933.974	0.0132587
934.052	0.0134560
934.130	0.0134548
934.208	0.0134884
934.286	0.0135645
934.364	0.0136146
934.443	0.0136057
934.521	0.0134675
934.599	0.0136406
934.677	0.0137430
934.755	0.0137318
934.833	0.0135380
934.911	0.0137600
934.989	0.0137296
935.068	0.0137368
935.146	0.0136836
935.224	0.0137335
935.302	0.0138288
935.380	0.0137527
935.458	0.0136960
935.536	0.0137658
935.614	0.0137753
935.693	0.0136543
935.771	0.0136466
935.849	0.0137621
935.927	0.0136895
936.005	0.0137711
936.083	0.0136253
936.161	0.0136398
936.239	0.0136138
936.318	0.0137060
936.396	0.0137122
936.474	0.0136384
936.552	0.0136359
936.630	0.0136171
936.708	0.0135701
936.786	0.0135372
936.864	0.0134711
936.943	0.0135065
937.021	0.0134697
937.099	0.0135573
937.177	0.0134050
937.255	0.0134063
937.333	0.0133734
937.411	0.0134176
937.489	0.0133183
937.568	0.0134367
937.646	0.0132684
937.724	0.0134170
937.802	0.0134445
937.880	0.0133640
937.958	0.0133590
938.036	0.0134411
938.114	0.0133832
938.193	0.0134927
938.271	0.0134830
938.349	0.0135214
938.427	0.0136333
938.505	0.0134666
938.583	0.0135272
938.661	0.0135908
938.739	0.0136346
938.818	0.0135925
938.896	0.0135813
938.974	0.0136081
939.052	0.0137917
939.130	0.0135856
939.208	0.0137180
939.286	0.0138094
939.364	0.0137902
939.443	0.0137090
939.521	0.0137302
939.599	0.0136675
939.677	0.0138406
939.755	0.0136365
939.833	0.0137592
939.911	0.0136193
939.989	0.0136146
940.068	0.0136777
940.146	0.0136414
940.224	0.0136134
940.302	0.0136629
940.380	0.0135434
940.458	0.0136458
940.536	0.0136400
940.614	0.0135567
940.693	0.0136304
940.771	0.0135110
940.849	0.0136525
940.927	0.0136594
941.005	0.0134447
941.083	0.0135078
941.161	0.0136475
941.239	0.0135175
941.318	0.0136859
941.396	0.0138434
941.474	0.0137778
941.552	0.0136766
941.630	0.0135867
941.708	0.0137289
941.786	0.0136339
941.864	0.0135722
941.943	0.0135930
942.021	0.0136618
942.099	0.0136390
942.177	0.0135656
942.255	0.0135281
942.333	0.0136717
942.411	0.0135357
942.489	0.0134283
942.568	0.0135874
942.646	0.0135448
942.724	0.0134063
942.802	0.0134389
942.880	0.0134012
942.958	0.0135754
943.036	0.0135471
943.114	0.0134081
943.193	0.0134544
943.271	0.0133733
943.349	0.0134551
943.427	0.0134892
943.505	0.0134813
943.583	0.0133883
943.661	0.0133904
943.739	0.0134415
943.818	0.0134271
943.896	0.0134443
943.974	0.0133732
944.052	0.0133649
944.130	0.0133082
944.208	0.0133246
944.286	0.0134147
944.364	0.0134552
944.443	0.0133923
944.521	0.0134726
944.599	0.0134399
944.677	0.0134795
944.755	0.0133874
944.833	0.0134950
944.911	0.0134895
944.989	0.0137001
945.068	0.0135373
945.146	0.0135544
945.224	0.0135951
945.302	0.0136620
945.380	0.0136351
945.458	0.0136675
945.536	0.0136770
945.614	0.0136932
945.693	0.0138065
945.771	0.0137407
945.849	0.0137008
945.927	0.0138898
946.005	0.0138931
946.083	0.0137170
946.161	0.0137119
946.239	0.0137461
946.318	0.0137645
946.396	0.0137297
946.474	0.0137934
946.552	0.0138666
946.630	0.0137212
946.708	0.0137549
946.786	0.0138088
946.864	0.0137455
946.943	0.0136056
947.021	0.0136184
947.099	0.0137727
947.177	0.0138263
947.255	0.0136689
947.333	0.0136563
947.411	0.0136059
947.489	0.0136608
947.568	0.0135947
947.646	0.0135866
947.724	0.0134195
947.802	0.0135513
947.880	0.0134798
947.958	0.0135516
948.036	0.0135303
948.114	0.0134209
948.193	0.0133380
948.271	0.0135352
948.349	0.0134437
948.427	0.0132990
948.505	0.0133320
948.583	0.0133670
948.661	0.0133865
948.739	0.0134261
948.818	0.0134308
948.896	0.0133893
948.974	0.0134909
949.052	0.0133865
949.130	0.0134310
949.208	0.0134400
949.286	0.0134466
949.364	0.0135477
949.443	0.0133933
949.521	0.0135553
949.599	0.0135966
949.677	0.0135807
949.755	0.0133768
949.833	0.0136297
949.911	0.0137177
949.989	0.0135329
950.068	0.0134522
950.146	0.0136228
950.224	0.0134952
950.302	0.0135178
950.380	0.0135883
950.458	0.0136736
950.536	0.0136987
950.614	0.0135429
950.693	0.0133392
950.771	0.0136990
950.849	0.0136472
950.927	0.0135069
951.005	0.0136658
951.083	0.0136733
951.161	0.0136647
951.239	0.0135859
951.318	0.0135822
951.396	0.0136668
951.474	0.0136292
951.552	0.0135117
951.630	0.0136500
951.708	0.0135673
951.786	0.0135518
951.864	0.0135124
951.943	0.0133856
952.021	0.0135198
952.099	0.0135290
952.177	0.0136038
952.255	0.0135919
952.333	0.0135445
952.411	0.0135458
952.489	0.0134590
952.568	0.0133907
952.646	0.0134580
952.724	0.0134795
952.802	0.0136098
952.880	0.0136214
952.958	0.0136039
953.036	0.0135950
953.114	0.0135258
953.193	0.0135628
953.271	0.0136028
953.349	0.0136770
953.427	0.0135374
953.505	0.0133901
953.583	0.0133862
953.661	0.0135281
953.739	0.0134690
953.818	0.0134274
953.896	0.0132423
953.974	0.0133550
954.052	0.0134182
954.130	0.0132065
954.208	0.0133334
954.286	0.0133492
954.364	0.0133228
954.443	0.0133207
954.521	0.0134219
954.599	0.0133051
954.677	0.0132532
954.755	0.0133211
954.833	0.0132565
954.911	0.0133768
954.989	0.0132715
955.068	0.0132771
955.146	0.0133263
955.224	0.0134666
955.302	0.0132976
955.380	0.0133509
955.458	0.0133781
955.536	0.0133353
955.614	0.0133005
955.693	0.0132455
955.771	0.0134175
955.849	0.0133983
955.927	0.0134968
956.005	0.0134683
956.083	0.0133966
956.161	0.0135517
956.239	0.0133961
956.318	0.0132828
956.396	0.0133430
956.474	0.0133522
956.552	0.0133292
956.630	0.0133512
956.708	0.0132419
956.786	0.0133002
956.864	0.0134561
956.943	0.0133838
957.021	0.0134384
957.099	0.0133167
957.177	0.0133694
957.255	0.0132738
957.333	0.0133296
957.411	0.0132572
957.489	0.0133004
957.568	0.0131631
957.646	0.0132316
957.724	0.0132761
957.802	0.0132382
957.880	0.0132343
957.958	0.0132059
958.036	0.0131947
958.114	0.0132339
958.193	0.0132804
958.271	0.0132828
958.349	0.0132056
958.427	0.0132368
958.505	0.0133433
958.583	0.0133195
958.661	0.0133987
958.739	0.0133651
958.818	0.0133535
958.896	0.0133984
958.974	0.0134338
959.052	0.0133983
959.130	0.0134441
959.208	0.0134143
959.286	0.0134241
959.364	0.0134308
959.443	0.0134723
959.521	0.0134807
959.599	0.0135463
959.677	0.0135494
959.755	0.0134527
959.833	0.0136124
959.911	0.0135438
