05/14/2022	16:46:32	Ver.	4.1	UNKNOWN
Optical Delay	639.989416	Delta X		0.078125	Sweeps	1	Scan Rate	0/0
Coordinates	Axis 1	NaN	Axis 2	NaN	Axis 3	NaN	Axis 4	NaN	Axis 5	NaN	Axis 6	0.000000
TX Power	0.000000	RX Power	0.000000

639.989	0.0136256
640.068	0.0137596
640.146	0.0135915
640.224	0.0135636
640.302	0.0137361
640.380	0.0136284
640.458	0.0136068
640.536	0.0136188
640.614	0.0135470
640.693	0.0136559
640.771	0.0136381
640.849	0.0135522
640.927	0.0136946
641.005	0.0136276
641.083	0.0135542
641.161	0.0135830
641.239	0.0137446
641.318	0.0135633
641.396	0.0136285
641.474	0.0134628
641.552	0.0135181
641.630	0.0136049
641.708	0.0135784
641.786	0.0134431
641.864	0.0135656
641.943	0.0135881
642.021	0.0136108
642.099	0.0135921
642.177	0.0136229
642.255	0.0136267
642.333	0.0134472
642.411	0.0135895
642.489	0.0135330
642.568	0.0136399
642.646	0.0135917
642.724	0.0136007
642.802	0.0135508
642.880	0.0136591
642.958	0.0135693
643.036	0.0134147
643.114	0.0134940
643.193	0.0136533
643.271	0.0136985
643.349	0.0135442
643.427	0.0134929
643.505	0.0134404
643.583	0.0137122
643.661	0.0136729
643.739	0.0135539
643.818	0.0135886
643.896	0.0137255
643.974	0.0135310
644.052	0.0134860
644.130	0.0136570
644.208	0.0136243
644.286	0.0135977
644.364	0.0136127
644.443	0.0136899
644.521	0.0137813
644.599	0.0136411
644.677	0.0136436
644.755	0.0135851
644.833	0.0136640
644.911	0.0136271
644.989	0.0136454
645.068	0.0136612
645.146	0.0137285
645.224	0.0137090
645.302	0.0137118
645.380	0.0136174
645.458	0.0138196
645.536	0.0136666
645.614	0.0136272
645.693	0.0137234
645.771	0.0137107
645.849	0.0137238
645.927	0.0136932
646.005	0.0136911
646.083	0.0137742
646.161	0.0135925
646.239	0.0137018
646.318	0.0138453
646.396	0.0138130
646.474	0.0136308
646.552	0.0137411
646.630	0.0137849
646.708	0.0138124
646.786	0.0137275
646.864	0.0137588
646.943	0.0136687
647.021	0.0137003
647.099	0.0137279
647.177	0.0139115
647.255	0.0137154
647.333	0.0135632
647.411	0.0137235
647.489	0.0136579
647.568	0.0136020
647.646	0.0138524
647.724	0.0136848
647.802	0.0135345
647.880	0.0136233
647.958	0.0137380
648.036	0.0136965
648.114	0.0137569
648.193	0.0136791
648.271	0.0136939
648.349	0.0136463
648.427	0.0136273
648.505	0.0137448
648.583	0.0137067
648.661	0.0136803
648.739	0.0136791
648.818	0.0135240
648.896	0.0135683
648.974	0.0137139
649.052	0.0137988
649.130	0.0135230
649.208	0.0137479
649.286	0.0137852
649.364	0.0136459
649.443	0.0136713
649.521	0.0135946
649.599	0.0136044
649.677	0.0136402
649.755	0.0136600
649.833	0.0136063
649.911	0.0136022
649.989	0.0135941
650.068	0.0136810
650.146	0.0136580
650.224	0.0136872
650.302	0.0138213
650.380	0.0136486
650.458	0.0135818
650.536	0.0136305
650.614	0.0136662
650.693	0.0136105
650.771	0.0135226
650.849	0.0135630
650.927	0.0136320
651.005	0.0135128
651.083	0.0135155
651.161	0.0136298
651.239	0.0136926
651.318	0.0135294
651.396	0.0136339
651.474	0.0135772
651.552	0.0136250
651.630	0.0136329
651.708	0.0135483
651.786	0.0137647
651.864	0.0135866
651.943	0.0135889
652.021	0.0136278
652.099	0.0135336
652.177	0.0134758
652.255	0.0135844
652.333	0.0135287
652.411	0.0135363
652.489	0.0135720
652.568	0.0134730
652.646	0.0135736
652.724	0.0135965
652.802	0.0136400
652.880	0.0136475
652.958	0.0135558
653.036	0.0135065
653.114	0.0135101
653.193	0.0135075
653.271	0.0135368
653.349	0.0134544
653.427	0.0135976
653.505	0.0134953
653.583	0.0135977
653.661	0.0135998
653.739	0.0134607
653.818	0.0133759
653.896	0.0135516
653.974	0.0135680
654.052	0.0136618
654.130	0.0135291
654.208	0.0135497
654.286	0.0136369
654.364	0.0135581
654.443	0.0137177
654.521	0.0136138
654.599	0.0135069
654.677	0.0135186
654.755	0.0136273
654.833	0.0136294
654.911	0.0135258
654.989	0.0135101
655.068	0.0135527
655.146	0.0136305
655.224	0.0135645
655.302	0.0136348
655.380	0.0136620
655.458	0.0136622
655.536	0.0138042
655.614	0.0136115
655.693	0.0136890
655.771	0.0136797
655.849	0.0135664
655.927	0.0136778
656.005	0.0136303
656.083	0.0135275
656.161	0.0136472
656.239	0.0136485
656.318	0.0135741
656.396	0.0136064
656.474	0.0137286
656.552	0.0136832
656.630	0.0137384
656.708	0.0136998
656.786	0.0135888
656.864	0.0135124
656.943	0.0136945
657.021	0.0136956
657.099	0.0134978
657.177	0.0135159
657.255	0.0135026
657.333	0.0135854
657.411	0.0135687
657.489	0.0137015
657.568	0.0136881
657.646	0.0135941
657.724	0.0135535
657.802	0.0137230
657.880	0.0136925
657.958	0.0134874
658.036	0.0136264
658.114	0.0136143
658.193	0.0136420
658.271	0.0134487
658.349	0.0138146
658.427	0.0136246
658.505	0.0134574
658.583	0.0135164
658.661	0.0137135
658.739	0.0136276
658.818	0.0137154
658.896	0.0135036
658.974	0.0136398
659.052	0.0137803
659.130	0.0136001
659.208	0.0136877
659.286	0.0136409
659.364	0.0135249
659.443	0.0135782
659.521	0.0135453
659.599	0.0136925
659.677	0.0136258
659.755	0.0137697
659.833	0.0136687
659.911	0.0137036
659.989	0.0136858
660.068	0.0136157
660.146	0.0137725
660.224	0.0137562
660.302	0.0137257
660.380	0.0136954
660.458	0.0136433
660.536	0.0136598
660.614	0.0136675
660.693	0.0136761
660.771	0.0137325
660.849	0.0136915
660.927	0.0138270
661.005	0.0137459
661.083	0.0137210
661.161	0.0137222
661.239	0.0136233
661.318	0.0138482
661.396	0.0136965
661.474	0.0138190
661.552	0.0137379
661.630	0.0138638
661.708	0.0138931
661.786	0.0137525
661.864	0.0137196
661.943	0.0138051
662.021	0.0138545
662.099	0.0138557
662.177	0.0137575
662.255	0.0137793
662.333	0.0138723
662.411	0.0136589
662.489	0.0137119
662.568	0.0135849
662.646	0.0137058
662.724	0.0137372
662.802	0.0135989
662.880	0.0136756
662.958	0.0137553
663.036	0.0134863
663.114	0.0136732
663.193	0.0135786
663.271	0.0136342
663.349	0.0137038
663.427	0.0136963
663.505	0.0136995
663.583	0.0136484
663.661	0.0136445
663.739	0.0136788
663.818	0.0137210
663.896	0.0138241
663.974	0.0136941
664.052	0.0138558
664.130	0.0138290
664.208	0.0138676
664.286	0.0138728
664.364	0.0138778
664.443	0.0138126
664.521	0.0138551
664.599	0.0139114
664.677	0.0139149
664.755	0.0138503
664.833	0.0137363
664.911	0.0139127
664.989	0.0138681
665.068	0.0137891
665.146	0.0137567
665.224	0.0136906
665.302	0.0135807
665.380	0.0136044
665.458	0.0135400
665.536	0.0135581
665.614	0.0133634
665.693	0.0134274
665.771	0.0135397
665.849	0.0135068
665.927	0.0136108
666.005	0.0136826
666.083	0.0135677
666.161	0.0134735
666.239	0.0136900
666.318	0.0137584
666.396	0.0137640
666.474	0.0138909
666.552	0.0138868
666.630	0.0141914
666.708	0.0140410
666.786	0.0140446
666.864	0.0142088
666.943	0.0141811
667.021	0.0142632
667.099	0.0142355
667.177	0.0142616
667.255	0.0141383
667.333	0.0143157
667.411	0.0142174
667.489	0.0139696
667.568	0.0140149
667.646	0.0140310
667.724	0.0137817
667.802	0.0135860
667.880	0.0136717
667.958	0.0136004
668.036	0.0135005
668.114	0.0134742
668.193	0.0133466
668.271	0.0133997
668.349	0.0133141
668.427	0.0132830
668.505	0.0132684
668.583	0.0131599
668.661	0.0133903
668.739	0.0136309
668.818	0.0134394
668.896	0.0135497
668.974	0.0136901
669.052	0.0137549
669.130	0.0136910
669.208	0.0138297
669.286	0.0140772
669.364	0.0141668
669.443	0.0141911
669.521	0.0142093
669.599	0.0143255
669.677	0.0144620
669.755	0.0145578
669.833	0.0143893
669.911	0.0144666
669.989	0.0143750
670.068	0.0143528
670.146	0.0143855
670.224	0.0142346
670.302	0.0140087
670.380	0.0138943
670.458	0.0138776
670.536	0.0137962
670.614	0.0134988
670.693	0.0132863
670.771	0.0132420
670.849	0.0131794
670.927	0.0130609
671.005	0.0129813
671.083	0.0128331
671.161	0.0126579
671.239	0.0127210
671.318	0.0126953
671.396	0.0128449
671.474	0.0128071
671.552	0.0128664
671.630	0.0129443
671.708	0.0131046
671.786	0.0131200
671.864	0.0131705
671.943	0.0135883
672.021	0.0137187
672.099	0.0138656
672.177	0.0141653
672.255	0.0142751
672.333	0.0143549
672.411	0.0144427
672.489	0.0147303
672.568	0.0148494
672.646	0.0147723
672.724	0.0148322
672.802	0.0149020
672.880	0.0148688
672.958	0.0149020
673.036	0.0148281
673.114	0.0147142
673.193	0.0145515
673.271	0.0143577
673.349	0.0142020
673.427	0.0139761
673.505	0.0138913
673.583	0.0136342
673.661	0.0133466
673.739	0.0131906
673.818	0.0129831
673.896	0.0128827
673.974	0.0126857
674.052	0.0125010
674.130	0.0124496
674.208	0.0123305
674.286	0.0120934
674.364	0.0122417
674.443	0.0122034
674.521	0.0123446
674.599	0.0121230
674.677	0.0123958
674.755	0.0126119
674.833	0.0126610
674.911	0.0129794
674.989	0.0130538
675.068	0.0133204
675.146	0.0134850
675.224	0.0136164
675.302	0.0138943
675.380	0.0140623
675.458	0.0143205
675.536	0.0144962
675.614	0.0148067
675.693	0.0150091
675.771	0.0150147
675.849	0.0151995
675.927	0.0151794
676.005	0.0151974
676.083	0.0153510
676.161	0.0151810
676.239	0.0151765
676.318	0.0151682
676.396	0.0150864
676.474	0.0147338
676.552	0.0146340
676.630	0.0146450
676.708	0.0143285
676.786	0.0139760
676.864	0.0136337
676.943	0.0136216
677.021	0.0134729
677.099	0.0131495
677.177	0.0131067
677.255	0.0127702
677.333	0.0125646
677.411	0.0126402
677.489	0.0123969
677.568	0.0124018
677.646	0.0123263
677.724	0.0123715
677.802	0.0124310
677.880	0.0125433
677.958	0.0126418
678.036	0.0127145
678.114	0.0128548
678.193	0.0129716
678.271	0.0129919
678.349	0.0131888
678.427	0.0132922
678.505	0.0134270
678.583	0.0136641
678.661	0.0136861
678.739	0.0137599
678.818	0.0138609
678.896	0.0139502
678.974	0.0142632
679.052	0.0142648
679.130	0.0143730
679.208	0.0143031
679.286	0.0144924
679.364	0.0143611
679.443	0.0142728
679.521	0.0143468
679.599	0.0142063
679.677	0.0142852
679.755	0.0142492
679.833	0.0141272
679.911	0.0140320
679.989	0.0140704
680.068	0.0139996
680.146	0.0139455
680.224	0.0138585
680.302	0.0138302
680.380	0.0136932
680.458	0.0137368
680.536	0.0138411
680.614	0.0136975
680.693	0.0138291
680.771	0.0136864
680.849	0.0137952
680.927	0.0139558
681.005	0.0139184
681.083	0.0139848
681.161	0.0139034
681.239	0.0139623
681.318	0.0141520
681.396	0.0143903
681.474	0.0142542
681.552	0.0143682
681.630	0.0144618
681.708	0.0143999
681.786	0.0143242
681.864	0.0141808
681.943	0.0143121
682.021	0.0141624
682.099	0.0140216
682.177	0.0140191
682.255	0.0139595
682.333	0.0137344
682.411	0.0135293
682.489	0.0135209
682.568	0.0133039
682.646	0.0130414
682.724	0.0129077
682.802	0.0128489
682.880	0.0126881
682.958	0.0126865
683.036	0.0125965
683.114	0.0126659
683.193	0.0124684
683.271	0.0125448
683.349	0.0125237
683.427	0.0124935
683.505	0.0125858
683.583	0.0127924
683.661	0.0126910
683.739	0.0127547
683.818	0.0126991
683.896	0.0128719
683.974	0.0129947
684.052	0.0131792
684.130	0.0132307
684.208	0.0133984
684.286	0.0135177
684.364	0.0136951
684.443	0.0137780
684.521	0.0139680
684.599	0.0140535
684.677	0.0139970
684.755	0.0142811
684.833	0.0143767
684.911	0.0143501
684.989	0.0144701
685.068	0.0144341
685.146	0.0144727
685.224	0.0145806
685.302	0.0146852
685.380	0.0147060
685.458	0.0146974
685.536	0.0147262
685.614	0.0147447
685.693	0.0149150
685.771	0.0150475
685.849	0.0151150
685.927	0.0150244
686.005	0.0149481
686.083	0.0148889
686.161	0.0149836
686.239	0.0149683
686.318	0.0148408
686.396	0.0148248
686.474	0.0145039
686.552	0.0145277
686.630	0.0143354
686.708	0.0141572
686.786	0.0139587
686.864	0.0135735
686.943	0.0133312
687.021	0.0131053
687.099	0.0128462
687.177	0.0126261
687.255	0.0123882
687.333	0.0120822
687.411	0.0117075
687.489	0.0116918
687.568	0.0114887
687.646	0.0114412
687.724	0.0111803
687.802	0.0111131
687.880	0.0110280
687.958	0.0110899
688.036	0.0113296
688.114	0.0114001
688.193	0.0116084
688.271	0.0117375
688.349	0.0119964
688.427	0.0122224
688.505	0.0124974
688.583	0.0128620
688.661	0.0132037
688.739	0.0134277
688.818	0.0137833
688.896	0.0139750
688.974	0.0142033
689.052	0.0144590
689.130	0.0146957
689.208	0.0149835
689.286	0.0151013
689.364	0.0150919
689.443	0.0152702
689.521	0.0152673
689.599	0.0153111
689.677	0.0152526
689.755	0.0153375
689.833	0.0152213
689.911	0.0149976
689.989	0.0151509
690.068	0.0150611
690.146	0.0148183
690.224	0.0147662
690.302	0.0147298
690.380	0.0145510
690.458	0.0144601
690.536	0.0145196
690.614	0.0144579
690.693	0.0143919
690.771	0.0144587
690.849	0.0143769
690.927	0.0143385
691.005	0.0144831
691.083	0.0144768
691.161	0.0144341
691.239	0.0145029
691.318	0.0144894
691.396	0.0145075
691.474	0.0145602
691.552	0.0144975
691.630	0.0143732
691.708	0.0142716
691.786	0.0142014
691.864	0.0142637
691.943	0.0139938
692.021	0.0140375
692.099	0.0137288
692.177	0.0134985
692.255	0.0134127
692.333	0.0132426
692.411	0.0129039
692.489	0.0127817
692.568	0.0125848
692.646	0.0122926
692.724	0.0120992
692.802	0.0120013
692.880	0.0116719
692.958	0.0113991
693.036	0.0114248
693.114	0.0114749
693.193	0.0113300
693.271	0.0114705
693.349	0.0114054
693.427	0.0115236
693.505	0.0115578
693.583	0.0116985
693.661	0.0120699
693.739	0.0121858
693.818	0.0122470
693.896	0.0124336
693.974	0.0124735
694.052	0.0129086
694.130	0.0129607
694.208	0.0133015
694.286	0.0134358
694.364	0.0136198
694.443	0.0139297
694.521	0.0139465
694.599	0.0140469
694.677	0.0144673
694.755	0.0145357
694.833	0.0148061
694.911	0.0149973
694.989	0.0152114
695.068	0.0154376
695.146	0.0152612
695.224	0.0153667
695.302	0.0156455
695.380	0.0156013
695.458	0.0157507
695.536	0.0157004
695.614	0.0156921
695.693	0.0157830
695.771	0.0156815
695.849	0.0156384
695.927	0.0157150
696.005	0.0156138
696.083	0.0157443
696.161	0.0157253
696.239	0.0155723
696.318	0.0154283
696.396	0.0153513
696.474	0.0152328
696.552	0.0150857
696.630	0.0149789
696.708	0.0150295
696.786	0.0147292
696.864	0.0145390
696.943	0.0143916
697.021	0.0142757
697.099	0.0138687
697.177	0.0139197
697.255	0.0136914
697.333	0.0135036
697.411	0.0133887
697.489	0.0128725
697.568	0.0126263
697.646	0.0125288
697.724	0.0121880
697.802	0.0120354
697.880	0.0117809
697.958	0.0113197
698.036	0.0111713
698.114	0.0109277
698.193	0.0106777
698.271	0.0104896
698.349	0.0102216
698.427	0.0102080
698.505	0.0102359
698.583	0.00994621
698.661	0.00995834
698.739	0.0101081
698.818	0.0101643
698.896	0.0102249
698.974	0.0104832
699.052	0.0108414
699.130	0.0110459
699.208	0.0114812
699.286	0.0117030
699.364	0.0121250
699.443	0.0126012
699.521	0.0131145
699.599	0.0134889
699.677	0.0137976
699.755	0.0141771
699.833	0.0147194
699.911	0.0150608
699.989	0.0153748
700.068	0.0158438
700.146	0.0161322
700.224	0.0163123
700.302	0.0165518
700.380	0.0167780
700.458	0.0168621
700.536	0.0170644
700.614	0.0170578
700.693	0.0173351
700.771	0.0172923
700.849	0.0172147
700.927	0.0172665
701.005	0.0172003
701.083	0.0173222
701.161	0.0172006
701.239	0.0169601
701.318	0.0168391
701.396	0.0165427
701.474	0.0164674
701.552	0.0162518
701.630	0.0160584
701.708	0.0158245
701.786	0.0154464
701.864	0.0151801
701.943	0.0148743
702.021	0.0145873
702.099	0.0141307
702.177	0.0138663
702.255	0.0134389
702.333	0.0131721
702.411	0.0128775
702.489	0.0124396
702.568	0.0122287
702.646	0.0118065
702.724	0.0115798
702.802	0.0114178
702.880	0.0110730
702.958	0.0109343
703.036	0.0107800
703.114	0.0104946
703.193	0.0103807
703.271	0.0102870
703.349	0.0102692
703.427	0.0102511
703.505	0.0101866
703.583	0.0103450
703.661	0.0103940
703.739	0.0103378
703.818	0.0105752
703.896	0.0107302
703.974	0.0110033
704.052	0.0111527
704.130	0.0112302
704.208	0.0115823
704.286	0.0119539
704.364	0.0122029
704.443	0.0123754
704.521	0.0126436
704.599	0.0128703
704.677	0.0133515
704.755	0.0135043
704.833	0.0137131
704.911	0.0140917
704.989	0.0143922
705.068	0.0146021
705.146	0.0149072
705.224	0.0150894
705.302	0.0154398
705.380	0.0157021
705.458	0.0158656
705.536	0.0161269
705.614	0.0162314
705.693	0.0164631
705.771	0.0164837
705.849	0.0166229
705.927	0.0166702
706.005	0.0166561
706.083	0.0167099
706.161	0.0166194
706.239	0.0166657
706.318	0.0167175
706.396	0.0167060
706.474	0.0165477
706.552	0.0163580
706.630	0.0163593
706.708	0.0159447
706.786	0.0159551
706.864	0.0157632
706.943	0.0154940
707.021	0.0153242
707.099	0.0151810
707.177	0.0147998
707.255	0.0144317
707.333	0.0141626
707.411	0.0140714
707.489	0.0136241
707.568	0.0134882
707.646	0.0132502
707.724	0.0129247
707.802	0.0125721
707.880	0.0124725
707.958	0.0121870
708.036	0.0117406
708.114	0.0117014
708.193	0.0115339
708.271	0.0112860
708.349	0.0109718
708.427	0.0110323
708.505	0.0108074
708.583	0.0108380
708.661	0.0107783
708.739	0.0108428
708.818	0.0108630
708.896	0.0109434
708.974	0.0111189
709.052	0.0112187
709.130	0.0113915
709.208	0.0116347
709.286	0.0116029
709.364	0.0118523
709.443	0.0118994
709.521	0.0122299
709.599	0.0125968
709.677	0.0128151
709.755	0.0128107
709.833	0.0132684
709.911	0.0133439
709.989	0.0135357
710.068	0.0138059
710.146	0.0140281
710.224	0.0141961
710.302	0.0143958
710.380	0.0143552
710.458	0.0145894
710.536	0.0146947
710.614	0.0146012
710.693	0.0145866
710.771	0.0147324
710.849	0.0145592
710.927	0.0148176
711.005	0.0146977
711.083	0.0146267
711.161	0.0148042
711.239	0.0148433
711.318	0.0148060
711.396	0.0146992
711.474	0.0147087
711.552	0.0148595
711.630	0.0150078
711.708	0.0149523
711.786	0.0148653
711.864	0.0148280
711.943	0.0147579
712.021	0.0147906
712.099	0.0148396
712.177	0.0147002
712.255	0.0148385
712.333	0.0147668
712.411	0.0148110
712.489	0.0145685
712.568	0.0146375
712.646	0.0145508
712.724	0.0145084
712.802	0.0142631
712.880	0.0143076
712.958	0.0142677
713.036	0.0141373
713.114	0.0141920
713.193	0.0139914
713.271	0.0138837
713.349	0.0138051
713.427	0.0137973
713.505	0.0137591
713.583	0.0134620
713.661	0.0134103
713.739	0.0134917
713.818	0.0135338
713.896	0.0132658
713.974	0.0131995
714.052	0.0133247
714.130	0.0131257
714.208	0.0130227
714.286	0.0128770
714.364	0.0127332
714.443	0.0126264
714.521	0.0123876
714.599	0.0123234
714.677	0.0124447
714.755	0.0122197
714.833	0.0122032
714.911	0.0121204
714.989	0.0119296
715.068	0.0119341
715.146	0.0118958
715.224	0.0119106
715.302	0.0119113
715.380	0.0118067
715.458	0.0117746
715.536	0.0118292
715.614	0.0119001
715.693	0.0120765
715.771	0.0121918
715.849	0.0123898
715.927	0.0122816
716.005	0.0125922
716.083	0.0126927
716.161	0.0128361
716.239	0.0129884
716.318	0.0131744
716.396	0.0132092
716.474	0.0135567
716.552	0.0137270
716.630	0.0138687
716.708	0.0139770
716.786	0.0141135
716.864	0.0142664
716.943	0.0143298
717.021	0.0145181
717.099	0.0146677
717.177	0.0149644
717.255	0.0150605
717.333	0.0151727
717.411	0.0153180
717.489	0.0155133
717.568	0.0155193
717.646	0.0156023
717.724	0.0157691
717.802	0.0157169
717.880	0.0156979
717.958	0.0156686
718.036	0.0155749
718.114	0.0155687
718.193	0.0155325
718.271	0.0154581
718.349	0.0153925
718.427	0.0151358
718.505	0.0150500
718.583	0.0148762
718.661	0.0146548
718.739	0.0144550
718.818	0.0141917
718.896	0.0140324
718.974	0.0137505
719.052	0.0136454
719.130	0.0134013
719.208	0.0133257
719.286	0.0132635
719.364	0.0131982
719.443	0.0130358
719.521	0.0129596
719.599	0.0127567
719.677	0.0127291
719.755	0.0127203
719.833	0.0126270
719.911	0.0125455
719.989	0.0124660
720.068	0.0123627
720.146	0.0122247
720.224	0.0122413
720.302	0.0122266
720.380	0.0121027
720.458	0.0122175
720.536	0.0122173
720.614	0.0123298
720.693	0.0122962
720.771	0.0121613
720.849	0.0122930
720.927	0.0122584
721.005	0.0123188
721.083	0.0123211
721.161	0.0124368
721.239	0.0124080
721.318	0.0125924
721.396	0.0127586
721.474	0.0128131
721.552	0.0127170
721.630	0.0129777
721.708	0.0130218
721.786	0.0132372
721.864	0.0133971
721.943	0.0134994
722.021	0.0137296
722.099	0.0138513
722.177	0.0138734
722.255	0.0141048
722.333	0.0142329
722.411	0.0142815
722.489	0.0144854
722.568	0.0144568
722.646	0.0146762
722.724	0.0149222
722.802	0.0149289
722.880	0.0149348
722.958	0.0150792
723.036	0.0148907
723.114	0.0151102
723.193	0.0150865
723.271	0.0148351
723.349	0.0150462
723.427	0.0150948
723.505	0.0149099
723.583	0.0149974
723.661	0.0149096
723.739	0.0147697
723.818	0.0148090
723.896	0.0145894
723.974	0.0145602
724.052	0.0143696
724.130	0.0144192
724.208	0.0143170
724.286	0.0142039
724.364	0.0141274
724.443	0.0138763
724.521	0.0136259
724.599	0.0137897
724.677	0.0136805
724.755	0.0135869
724.833	0.0136411
724.911	0.0133867
724.989	0.0134591
725.068	0.0133143
725.146	0.0133694
725.224	0.0133335
725.302	0.0132587
725.380	0.0133779
725.458	0.0134824
725.536	0.0134541
725.614	0.0134523
725.693	0.0133880
725.771	0.0133250
725.849	0.0133354
725.927	0.0134199
726.005	0.0133165
726.083	0.0134185
726.161	0.0131445
726.239	0.0133066
726.318	0.0132317
726.396	0.0131896
726.474	0.0131269
726.552	0.0130563
726.630	0.0131007
726.708	0.0130590
726.786	0.0130450
726.864	0.0132047
726.943	0.0130312
727.021	0.0132052
727.099	0.0132270
727.177	0.0132569
727.255	0.0132079
727.333	0.0132601
727.411	0.0132953
727.489	0.0133096
727.568	0.0132327
727.646	0.0132812
727.724	0.0133665
727.802	0.0134650
727.880	0.0135754
727.958	0.0134103
728.036	0.0136505
728.114	0.0135704
728.193	0.0136240
728.271	0.0137476
728.349	0.0136945
728.427	0.0137663
728.505	0.0137067
728.583	0.0137241
728.661	0.0138388
728.739	0.0136869
728.818	0.0139002
728.896	0.0138776
728.974	0.0139018
729.052	0.0137994
729.130	0.0140281
729.208	0.0140401
729.286	0.0140139
729.364	0.0141345
729.443	0.0141390
729.521	0.0140926
729.599	0.0140640
729.677	0.0140924
729.755	0.0142898
729.833	0.0142435
729.911	0.0140670
729.989	0.0140975
730.068	0.0142097
730.146	0.0141640
730.224	0.0140388
730.302	0.0139940
730.380	0.0140533
730.458	0.0140664
730.536	0.0141232
730.614	0.0138546
730.693	0.0139019
730.771	0.0137932
730.849	0.0136813
730.927	0.0138654
731.005	0.0137588
731.083	0.0135963
731.161	0.0137423
731.239	0.0137094
731.318	0.0137862
731.396	0.0136453
731.474	0.0135486
731.552	0.0134407
731.630	0.0136246
731.708	0.0135310
731.786	0.0134309
731.864	0.0135220
731.943	0.0136167
732.021	0.0134521
732.099	0.0134035
732.177	0.0134701
732.255	0.0133634
732.333	0.0132790
732.411	0.0131525
732.489	0.0132256
732.568	0.0132162
732.646	0.0131248
732.724	0.0132144
732.802	0.0130784
732.880	0.0132597
732.958	0.0131572
733.036	0.0131736
733.114	0.0131496
733.193	0.0133973
733.271	0.0133776
733.349	0.0132933
733.427	0.0133971
733.505	0.0134156
733.583	0.0134438
733.661	0.0135067
733.739	0.0136813
733.818	0.0135815
733.896	0.0136830
733.974	0.0135899
734.052	0.0136531
734.130	0.0138367
734.208	0.0139071
734.286	0.0139234
734.364	0.0138981
734.443	0.0138787
734.521	0.0139382
734.599	0.0140060
734.677	0.0139735
734.755	0.0139237
734.833	0.0141670
734.911	0.0141425
734.989	0.0141873
735.068	0.0142399
735.146	0.0141184
735.224	0.0141125
735.302	0.0140272
735.380	0.0141145
735.458	0.0138432
735.536	0.0138999
735.614	0.0138355
735.693	0.0136430
735.771	0.0137070
735.849	0.0137286
735.927	0.0136388
736.005	0.0133640
736.083	0.0132542
736.161	0.0132918
736.239	0.0131326
736.318	0.0132026
736.396	0.0131527
736.474	0.0132016
736.552	0.0131345
736.630	0.0130819
736.708	0.0132240
736.786	0.0131749
736.864	0.0130985
736.943	0.0132775
737.021	0.0131447
737.099	0.0132672
737.177	0.0133121
737.255	0.0134404
737.333	0.0135177
737.411	0.0134511
737.489	0.0137531
737.568	0.0137691
737.646	0.0138377
737.724	0.0139468
737.802	0.0141766
737.880	0.0139372
737.958	0.0140623
738.036	0.0140512
738.114	0.0140775
738.193	0.0140836
738.271	0.0142159
738.349	0.0140399
738.427	0.0140493
738.505	0.0139572
738.583	0.0140249
738.661	0.0139507
738.739	0.0138654
738.818	0.0140058
738.896	0.0138688
738.974	0.0139697
739.052	0.0141044
739.130	0.0141034
739.208	0.0139535
739.286	0.0136830
739.364	0.0139352
739.443	0.0139219
739.521	0.0139268
739.599	0.0138592
739.677	0.0136757
739.755	0.0137176
739.833	0.0138479
739.911	0.0138137
739.989	0.0135440
740.068	0.0133183
740.146	0.0134141
740.224	0.0132077
740.302	0.0131686
740.380	0.0131123
740.458	0.0129117
740.536	0.0129493
740.614	0.0129391
740.693	0.0128280
740.771	0.0128189
740.849	0.0128838
740.927	0.0128983
741.005	0.0130233
741.083	0.0128960
741.161	0.0131017
741.239	0.0130754
741.318	0.0131178
741.396	0.0131001
741.474	0.0132466
741.552	0.0133501
741.630	0.0134068
741.708	0.0135893
741.786	0.0134212
741.864	0.0136857
741.943	0.0136294
742.021	0.0137447
742.099	0.0138711
742.177	0.0138847
742.255	0.0138374
742.333	0.0137640
742.411	0.0140434
742.489	0.0139056
742.568	0.0139467
742.646	0.0140715
742.724	0.0139004
742.802	0.0140047
742.880	0.0140541
742.958	0.0141707
743.036	0.0141392
743.114	0.0140246
743.193	0.0141757
743.271	0.0140565
743.349	0.0140228
743.427	0.0142498
743.505	0.0141521
743.583	0.0142149
743.661	0.0141407
743.739	0.0140515
743.818	0.0140101
743.896	0.0140504
743.974	0.0138383
744.052	0.0140141
744.130	0.0139768
744.208	0.0138129
744.286	0.0138891
744.364	0.0138737
744.443	0.0137231
744.521	0.0136504
744.599	0.0138319
744.677	0.0137242
744.755	0.0136166
744.833	0.0135820
744.911	0.0134219
744.989	0.0134935
745.068	0.0135110
745.146	0.0136132
745.224	0.0134090
745.302	0.0135112
745.380	0.0135402
745.458	0.0134687
745.536	0.0134338
745.614	0.0135535
745.693	0.0135522
745.771	0.0135798
745.849	0.0135304
745.927	0.0134267
746.005	0.0133514
746.083	0.0134853
746.161	0.0134705
746.239	0.0134833
746.318	0.0134524
746.396	0.0134880
746.474	0.0134969
746.552	0.0136211
746.630	0.0136201
746.708	0.0136162
746.786	0.0136903
746.864	0.0136272
746.943	0.0138789
747.021	0.0137694
747.099	0.0137861
747.177	0.0139299
747.255	0.0139664
747.333	0.0139095
747.411	0.0138896
747.489	0.0139247
747.568	0.0138866
747.646	0.0140439
747.724	0.0140479
747.802	0.0138427
747.880	0.0138850
747.958	0.0139202
748.036	0.0138252
748.114	0.0137898
748.193	0.0138141
748.271	0.0137610
748.349	0.0136970
748.427	0.0136556
748.505	0.0135398
748.583	0.0136083
748.661	0.0135319
748.739	0.0134363
748.818	0.0135083
748.896	0.0133652
748.974	0.0134144
749.052	0.0133712
749.130	0.0132263
749.208	0.0132234
749.286	0.0133123
749.364	0.0133537
749.443	0.0132727
749.521	0.0133367
749.599	0.0132751
749.677	0.0132230
749.755	0.0134740
749.833	0.0135129
749.911	0.0133059
749.989	0.0135320
750.068	0.0136618
750.146	0.0135425
750.224	0.0135957
750.302	0.0137473
750.380	0.0137171
750.458	0.0136812
750.536	0.0138365
750.614	0.0136369
750.693	0.0137053
750.771	0.0137520
750.849	0.0136084
750.927	0.0137966
751.005	0.0136759
751.083	0.0136677
751.161	0.0137349
751.239	0.0137420
751.318	0.0137744
751.396	0.0138741
751.474	0.0138232
751.552	0.0138461
751.630	0.0139145
751.708	0.0138053
751.786	0.0137452
751.864	0.0138155
751.943	0.0139268
752.021	0.0139344
752.099	0.0137847
752.177	0.0139704
752.255	0.0138693
752.333	0.0137997
752.411	0.0137350
752.489	0.0138501
752.568	0.0137343
752.646	0.0135581
752.724	0.0137903
752.802	0.0136999
752.880	0.0135568
752.958	0.0135864
753.036	0.0135323
753.114	0.0135455
753.193	0.0134324
753.271	0.0134382
753.349	0.0134061
753.427	0.0132779
753.505	0.0133556
753.583	0.0133909
753.661	0.0133730
753.739	0.0132842
753.818	0.0132918
753.896	0.0131188
753.974	0.0131184
754.052	0.0131832
754.130	0.0131563
754.208	0.0129693
754.286	0.0131104
754.364	0.0131747
754.443	0.0130956
754.521	0.0130420
754.599	0.0130803
754.677	0.0130765
754.755	0.0129944
754.833	0.0130111
754.911	0.0129680
754.989	0.0131278
755.068	0.0131490
755.146	0.0131525
755.224	0.0131423
755.302	0.0132108
755.380	0.0133620
755.458	0.0133914
755.536	0.0133883
755.614	0.0135419
755.693	0.0135976
755.771	0.0137766
755.849	0.0137128
755.927	0.0136925
756.005	0.0138148
756.083	0.0140799
756.161	0.0141022
756.239	0.0139939
756.318	0.0141509
756.396	0.0142560
756.474	0.0139948
756.552	0.0142095
756.630	0.0142413
756.708	0.0143539
756.786	0.0141401
756.864	0.0141946
756.943	0.0141774
757.021	0.0143243
757.099	0.0142057
757.177	0.0140523
757.255	0.0138686
757.333	0.0140274
757.411	0.0139965
757.489	0.0139273
757.568	0.0138595
757.646	0.0138625
757.724	0.0139380
757.802	0.0138357
757.880	0.0138087
757.958	0.0137608
758.036	0.0138442
758.114	0.0138518
758.193	0.0137250
758.271	0.0138519
758.349	0.0139855
758.427	0.0137728
758.505	0.0138863
758.583	0.0139924
758.661	0.0139840
758.739	0.0137267
758.818	0.0139194
758.896	0.0137866
758.974	0.0138674
759.052	0.0138110
759.130	0.0137954
759.208	0.0138100
759.286	0.0137418
759.364	0.0138626
759.443	0.0136801
759.521	0.0136755
759.599	0.0136568
759.677	0.0135856
759.755	0.0136141
759.833	0.0135118
759.911	0.0134173
759.989	0.0132842
760.068	0.0134099
760.146	0.0133916
760.224	0.0132934
760.302	0.0133901
760.380	0.0133198
760.458	0.0132060
760.536	0.0133418
760.614	0.0132436
760.693	0.0133630
760.771	0.0132984
760.849	0.0133582
760.927	0.0133686
761.005	0.0133540
761.083	0.0132870
761.161	0.0134496
761.239	0.0134224
761.318	0.0134739
761.396	0.0134629
761.474	0.0134728
761.552	0.0135944
761.630	0.0135024
761.708	0.0135782
761.786	0.0136835
761.864	0.0134704
761.943	0.0135655
762.021	0.0135971
762.099	0.0137501
762.177	0.0136875
762.255	0.0136240
762.333	0.0137427
762.411	0.0137785
762.489	0.0137480
762.568	0.0138283
762.646	0.0138883
762.724	0.0138894
762.802	0.0139523
762.880	0.0139865
762.958	0.0139270
763.036	0.0138930
763.114	0.0139464
763.193	0.0139883
763.271	0.0139233
763.349	0.0139190
763.427	0.0139403
763.505	0.0139673
763.583	0.0140045
763.661	0.0140077
763.739	0.0139997
763.818	0.0138432
763.896	0.0137042
763.974	0.0138649
764.052	0.0138165
764.130	0.0138218
764.208	0.0137383
764.286	0.0137355
764.364	0.0138049
764.443	0.0137708
764.521	0.0138277
764.599	0.0137314
764.677	0.0136963
764.755	0.0138081
764.833	0.0139095
764.911	0.0139707
764.989	0.0137332
765.068	0.0136931
765.146	0.0137672
765.224	0.0137420
765.302	0.0137562
765.380	0.0137376
765.458	0.0138005
765.536	0.0136520
765.614	0.0136546
765.693	0.0136903
765.771	0.0136270
765.849	0.0136856
765.927	0.0134721
766.005	0.0133667
766.083	0.0134135
766.161	0.0134676
766.239	0.0134825
766.318	0.0133167
766.396	0.0132417
766.474	0.0132875
766.552	0.0132138
766.630	0.0133043
766.708	0.0132472
766.786	0.0132703
766.864	0.0131900
766.943	0.0132951
767.021	0.0133713
767.099	0.0132994
767.177	0.0133522
767.255	0.0133827
767.333	0.0133685
767.411	0.0134692
767.489	0.0134146
767.568	0.0135242
767.646	0.0134885
767.724	0.0134624
767.802	0.0134714
767.880	0.0134801
767.958	0.0133487
768.036	0.0134625
768.114	0.0137078
768.193	0.0137401
768.271	0.0134998
768.349	0.0137378
768.427	0.0136460
768.505	0.0138106
768.583	0.0138320
768.661	0.0138157
768.739	0.0139635
768.818	0.0139946
768.896	0.0139623
768.974	0.0141728
769.052	0.0141151
769.130	0.0142669
769.208	0.0143044
769.286	0.0142545
769.364	0.0144825
769.443	0.0143042
769.521	0.0141903
769.599	0.0143065
769.677	0.0142860
769.755	0.0143427
769.833	0.0142205
769.911	0.0143681
769.989	0.0142548
770.068	0.0142343
770.146	0.0142859
770.224	0.0141402
770.302	0.0141060
770.380	0.0140109
770.458	0.0141385
770.536	0.0139450
770.614	0.0139304
770.693	0.0137968
770.771	0.0137508
770.849	0.0138022
770.927	0.0136298
771.005	0.0134806
771.083	0.0136147
771.161	0.0134037
771.239	0.0134358
771.318	0.0133876
771.396	0.0133103
771.474	0.0132669
771.552	0.0132817
771.630	0.0132616
771.708	0.0131763
771.786	0.0131864
771.864	0.0130656
771.943	0.0132415
772.021	0.0132078
772.099	0.0130140
772.177	0.0130389
772.255	0.0132336
772.333	0.0131258
772.411	0.0132773
772.489	0.0133903
772.568	0.0132898
772.646	0.0133904
772.724	0.0135104
772.802	0.0134673
772.880	0.0135071
772.958	0.0135186
773.036	0.0135721
773.114	0.0136641
773.193	0.0137007
773.271	0.0136583
773.349	0.0135538
773.427	0.0138386
773.505	0.0136834
773.583	0.0137145
773.661	0.0137847
773.739	0.0137524
773.818	0.0136527
773.896	0.0136869
773.974	0.0137416
774.052	0.0138126
774.130	0.0137600
774.208	0.0137804
774.286	0.0138673
774.364	0.0138325
774.443	0.0137462
774.521	0.0137072
774.599	0.0137923
774.677	0.0138378
774.755	0.0137984
774.833	0.0135970
774.911	0.0137807
774.989	0.0138924
775.068	0.0137736
775.146	0.0136581
775.224	0.0137705
775.302	0.0138111
775.380	0.0138757
775.458	0.0137885
775.536	0.0136953
775.614	0.0138390
775.693	0.0139044
775.771	0.0136794
775.849	0.0138280
775.927	0.0138861
776.005	0.0138271
776.083	0.0138135
776.161	0.0136806
776.239	0.0137277
776.318	0.0138339
776.396	0.0137457
776.474	0.0137474
776.552	0.0137085
776.630	0.0135708
776.708	0.0136871
776.786	0.0137231
776.864	0.0136236
776.943	0.0135286
777.021	0.0135723
777.099	0.0134151
777.177	0.0133498
777.255	0.0134654
777.333	0.0134314
777.411	0.0133511
777.489	0.0134288
777.568	0.0132909
777.646	0.0132936
777.724	0.0134073
777.802	0.0135165
777.880	0.0135098
777.958	0.0134774
778.036	0.0134167
778.114	0.0135937
778.193	0.0135951
778.271	0.0136774
778.349	0.0135504
778.427	0.0136668
778.505	0.0136042
778.583	0.0135469
778.661	0.0135846
778.739	0.0137745
778.818	0.0137429
778.896	0.0136611
778.974	0.0137365
779.052	0.0136212
779.130	0.0135276
779.208	0.0137759
779.286	0.0137440
779.364	0.0136057
779.443	0.0136903
779.521	0.0136899
779.599	0.0136116
779.677	0.0137145
779.755	0.0135255
779.833	0.0136520
779.911	0.0135782
779.989	0.0135050
780.068	0.0134567
780.146	0.0135402
780.224	0.0133864
780.302	0.0135009
780.380	0.0135382
780.458	0.0134776
780.536	0.0135115
780.614	0.0135878
780.693	0.0135002
780.771	0.0133974
780.849	0.0135903
780.927	0.0136172
781.005	0.0137133
781.083	0.0136535
781.161	0.0137917
781.239	0.0138397
781.318	0.0136713
781.396	0.0136858
781.474	0.0139687
781.552	0.0137545
781.630	0.0139933
781.708	0.0139944
781.786	0.0139543
781.864	0.0140831
781.943	0.0139925
782.021	0.0140689
782.099	0.0141194
782.177	0.0141231
782.255	0.0140429
782.333	0.0139709
782.411	0.0139341
782.489	0.0141291
782.568	0.0141473
782.646	0.0139539
782.724	0.0139612
782.802	0.0140190
782.880	0.0140921
782.958	0.0139780
783.036	0.0138537
783.114	0.0139417
783.193	0.0138882
783.271	0.0137872
783.349	0.0138464
783.427	0.0137045
783.505	0.0135974
783.583	0.0137769
783.661	0.0136879
783.739	0.0134355
783.818	0.0133749
783.896	0.0132452
783.974	0.0132678
784.052	0.0133305
784.130	0.0132224
784.208	0.0130356
784.286	0.0131326
784.364	0.0130235
784.443	0.0131226
784.521	0.0131066
784.599	0.0130984
784.677	0.0131597
784.755	0.0132175
784.833	0.0132327
784.911	0.0132309
784.989	0.0133356
785.068	0.0132702
785.146	0.0133715
785.224	0.0133854
785.302	0.0135057
785.380	0.0137142
785.458	0.0136813
785.536	0.0137081
785.614	0.0138666
785.693	0.0138624
785.771	0.0138277
785.849	0.0140154
785.927	0.0141286
786.005	0.0140533
786.083	0.0140495
786.161	0.0139468
786.239	0.0142500
786.318	0.0142420
786.396	0.0141045
786.474	0.0140977
786.552	0.0142132
786.630	0.0143536
786.708	0.0140843
786.786	0.0140811
786.864	0.0139909
786.943	0.0140964
787.021	0.0140665
787.099	0.0140579
787.177	0.0140015
787.255	0.0140454
787.333	0.0140206
787.411	0.0140240
787.489	0.0139639
787.568	0.0139516
787.646	0.0139144
787.724	0.0138763
787.802	0.0137289
787.880	0.0137793
787.958	0.0136615
788.036	0.0137867
788.114	0.0137130
788.193	0.0137804
788.271	0.0136809
788.349	0.0135651
788.427	0.0136482
788.505	0.0134262
788.583	0.0134933
788.661	0.0134823
788.739	0.0134711
788.818	0.0134483
788.896	0.0133413
788.974	0.0134174
789.052	0.0134908
789.130	0.0133079
789.208	0.0131882
789.286	0.0132287
789.364	0.0132157
789.443	0.0133398
789.521	0.0132253
789.599	0.0132652
789.677	0.0133417
789.755	0.0133619
789.833	0.0134316
789.911	0.0133134
789.989	0.0133216
790.068	0.0133432
790.146	0.0134543
790.224	0.0135826
790.302	0.0135288
790.380	0.0136291
790.458	0.0135683
790.536	0.0135661
790.614	0.0136853
790.693	0.0137141
790.771	0.0137506
790.849	0.0137917
790.927	0.0137545
791.005	0.0137825
791.083	0.0139301
791.161	0.0140750
791.239	0.0140019
791.318	0.0139586
791.396	0.0140202
791.474	0.0139854
791.552	0.0140662
791.630	0.0140046
791.708	0.0140459
791.786	0.0140974
791.864	0.0140061
791.943	0.0140605
792.021	0.0141325
792.099	0.0141331
792.177	0.0140595
792.255	0.0140980
792.333	0.0142072
792.411	0.0141136
792.489	0.0140477
792.568	0.0140496
792.646	0.0140479
792.724	0.0140524
792.802	0.0139361
792.880	0.0139063
792.958	0.0139666
793.036	0.0139107
793.114	0.0138397
793.193	0.0139664
793.271	0.0139239
793.349	0.0138951
793.427	0.0138975
793.505	0.0139633
793.583	0.0139426
793.661	0.0138068
793.739	0.0137971
793.818	0.0137149
793.896	0.0136661
793.974	0.0136044
794.052	0.0137023
794.130	0.0134563
794.208	0.0135114
794.286	0.0134219
794.364	0.0133905
794.443	0.0133139
794.521	0.0133092
794.599	0.0132364
794.677	0.0131927
794.755	0.0133204
794.833	0.0131705
794.911	0.0128856
794.989	0.0130833
795.068	0.0128304
795.146	0.0129797
795.224	0.0128086
795.302	0.0130296
795.380	0.0131076
795.458	0.0129108
795.536	0.0129527
795.614	0.0131655
795.693	0.0131692
795.771	0.0130795
795.849	0.0133897
795.927	0.0135244
796.005	0.0134583
796.083	0.0136089
796.161	0.0135506
796.239	0.0135909
796.318	0.0136938
796.396	0.0140952
796.474	0.0138678
796.552	0.0139421
796.630	0.0140832
796.708	0.0140597
796.786	0.0141529
796.864	0.0142278
796.943	0.0143031
797.021	0.0142455
797.099	0.0142211
797.177	0.0142573
797.255	0.0143255
797.333	0.0143100
797.411	0.0143365
797.489	0.0144106
797.568	0.0143195
797.646	0.0142006
797.724	0.0143048
797.802	0.0142088
797.880	0.0142837
797.958	0.0142599
798.036	0.0141837
798.114	0.0141652
798.193	0.0140696
798.271	0.0142960
798.349	0.0141805
798.427	0.0141396
798.505	0.0139936
798.583	0.0140185
798.661	0.0139706
798.739	0.0140273
798.818	0.0138484
798.896	0.0138905
798.974	0.0137502
799.052	0.0135603
799.130	0.0137161
799.208	0.0136939
799.286	0.0135137
799.364	0.0133186
799.443	0.0134020
799.521	0.0133296
799.599	0.0131535
799.677	0.0130302
799.755	0.0129821
799.833	0.0128682
799.911	0.0129388
799.989	0.0130254
800.068	0.0129234
800.146	0.0128648
800.224	0.0128692
800.302	0.0129141
800.380	0.0128716
800.458	0.0129939
800.536	0.0130193
800.614	0.0129963
800.693	0.0130754
800.771	0.0130289
800.849	0.0132336
800.927	0.0133723
801.005	0.0135529
801.083	0.0134772
801.161	0.0134534
801.239	0.0135683
801.318	0.0136139
801.396	0.0138017
801.474	0.0139361
801.552	0.0138277
801.630	0.0139237
801.708	0.0139977
801.786	0.0140900
801.864	0.0141174
801.943	0.0143039
802.021	0.0142484
802.099	0.0143816
802.177	0.0144006
802.255	0.0143321
802.333	0.0145228
802.411	0.0144631
802.489	0.0145884
802.568	0.0144623
802.646	0.0145784
802.724	0.0146546
802.802	0.0145451
802.880	0.0146320
802.958	0.0144570
803.036	0.0144851
803.114	0.0144942
803.193	0.0146028
803.271	0.0144894
803.349	0.0144633
803.427	0.0144427
803.505	0.0142628
803.583	0.0141496
803.661	0.0141997
803.739	0.0140587
803.818	0.0139779
803.896	0.0140075
803.974	0.0138747
804.052	0.0139771
804.130	0.0137659
804.208	0.0135290
804.286	0.0135266
804.364	0.0136048
804.443	0.0136220
804.521	0.0132773
804.599	0.0131888
804.677	0.0132251
804.755	0.0130143
804.833	0.0131717
804.911	0.0130817
804.989	0.0130656
805.068	0.0131223
805.146	0.0129361
805.224	0.0129228
805.302	0.0129114
805.380	0.0130654
805.458	0.0129691
805.536	0.0129973
805.614	0.0129087
805.693	0.0132740
805.771	0.0131233
805.849	0.0131338
805.927	0.0130785
806.005	0.0132704
806.083	0.0133086
806.161	0.0134000
806.239	0.0134329
806.318	0.0134756
806.396	0.0135033
806.474	0.0135416
806.552	0.0135307
806.630	0.0135126
806.708	0.0135779
806.786	0.0138117
806.864	0.0138010
806.943	0.0137736
807.021	0.0137753
807.099	0.0139752
807.177	0.0138947
807.255	0.0139836
807.333	0.0140136
807.411	0.0140511
807.489	0.0140943
807.568	0.0140311
807.646	0.0142237
807.724	0.0141232
807.802	0.0140125
807.880	0.0141366
807.958	0.0142017
808.036	0.0140485
808.114	0.0139894
808.193	0.0142729
808.271	0.0141201
808.349	0.0140473
808.427	0.0140124
808.505	0.0139668
808.583	0.0140519
808.661	0.0140274
808.739	0.0140261
808.818	0.0139737
808.896	0.0137575
808.974	0.0138335
809.052	0.0139246
809.130	0.0139099
809.208	0.0139524
809.286	0.0136726
809.364	0.0136420
809.443	0.0136798
809.521	0.0136293
809.599	0.0135919
809.677	0.0134892
809.755	0.0134776
809.833	0.0134169
809.911	0.0132767
809.989	0.0133230
810.068	0.0132793
810.146	0.0133598
810.224	0.0132648
810.302	0.0132539
810.380	0.0132044
810.458	0.0132169
810.536	0.0133513
810.614	0.0132829
810.693	0.0132323
810.771	0.0131558
810.849	0.0133044
810.927	0.0133050
811.005	0.0132787
811.083	0.0134013
811.161	0.0132517
811.239	0.0132578
811.318	0.0133257
811.396	0.0131741
811.474	0.0134082
811.552	0.0132880
811.630	0.0133497
811.708	0.0131729
811.786	0.0132816
811.864	0.0133459
811.943	0.0133219
812.021	0.0133389
812.099	0.0133759
812.177	0.0132764
812.255	0.0133894
812.333	0.0134831
812.411	0.0133827
812.489	0.0134581
812.568	0.0134393
812.646	0.0135712
812.724	0.0135519
812.802	0.0136684
812.880	0.0137550
812.958	0.0136293
813.036	0.0136819
813.114	0.0137257
813.193	0.0138361
813.271	0.0138538
813.349	0.0138325
813.427	0.0139857
813.505	0.0140443
813.583	0.0138507
813.661	0.0139682
813.739	0.0140694
813.818	0.0141518
813.896	0.0141582
813.974	0.0143634
814.052	0.0142725
814.130	0.0142265
814.208	0.0140409
814.286	0.0141768
814.364	0.0144248
814.443	0.0142619
814.521	0.0143700
814.599	0.0143063
814.677	0.0141685
814.755	0.0141846
814.833	0.0140195
814.911	0.0139664
814.989	0.0140253
815.068	0.0138851
815.146	0.0138529
815.224	0.0137648
815.302	0.0137921
815.380	0.0138120
815.458	0.0136785
815.536	0.0135812
815.614	0.0133145
815.693	0.0133125
815.771	0.0133134
815.849	0.0130714
815.927	0.0132250
816.005	0.0131295
816.083	0.0128780
816.161	0.0129641
816.239	0.0129063
816.318	0.0129060
816.396	0.0129556
816.474	0.0129110
816.552	0.0128413
816.630	0.0130511
816.708	0.0127728
816.786	0.0128172
816.864	0.0131277
816.943	0.0131236
817.021	0.0132975
817.099	0.0133425
817.177	0.0133471
817.255	0.0134243
817.333	0.0135047
817.411	0.0136185
817.489	0.0136509
817.568	0.0138358
817.646	0.0138474
817.724	0.0139393
817.802	0.0139452
817.880	0.0141058
817.958	0.0139538
818.036	0.0140076
818.114	0.0141747
818.193	0.0141782
818.271	0.0141508
818.349	0.0142449
818.427	0.0140285
818.505	0.0140731
818.583	0.0140353
818.661	0.0138983
818.739	0.0138692
818.818	0.0138816
818.896	0.0139120
818.974	0.0138498
819.052	0.0137750
819.130	0.0139067
819.208	0.0137142
819.286	0.0137299
819.364	0.0137356
819.443	0.0137257
819.521	0.0135688
819.599	0.0137484
819.677	0.0136900
819.755	0.0135798
819.833	0.0137117
819.911	0.0137265
819.989	0.0137212
820.068	0.0137967
820.146	0.0138274
820.224	0.0138285
820.302	0.0137821
820.380	0.0138753
820.458	0.0137472
820.536	0.0138455
820.614	0.0139616
820.693	0.0137550
820.771	0.0136909
820.849	0.0136540
820.927	0.0137897
821.005	0.0135887
821.083	0.0135564
821.161	0.0134887
821.239	0.0135597
821.318	0.0135216
821.396	0.0135072
821.474	0.0134895
821.552	0.0132802
821.630	0.0134567
821.708	0.0134122
821.786	0.0134488
821.864	0.0135375
821.943	0.0136046
822.021	0.0136169
822.099	0.0134839
822.177	0.0135658
822.255	0.0137730
822.333	0.0137253
822.411	0.0138339
822.489	0.0137826
822.568	0.0139433
822.646	0.0138637
822.724	0.0139931
822.802	0.0141792
822.880	0.0139323
822.958	0.0140907
823.036	0.0140516
823.114	0.0141034
823.193	0.0140067
823.271	0.0141185
823.349	0.0141444
823.427	0.0140254
823.505	0.0140936
823.583	0.0141448
823.661	0.0140012
823.739	0.0140665
823.818	0.0141064
823.896	0.0140153
823.974	0.0138853
824.052	0.0138900
824.130	0.0139019
824.208	0.0139796
824.286	0.0139314
824.364	0.0139509
824.443	0.0140179
824.521	0.0138170
824.599	0.0136530
824.677	0.0136619
824.755	0.0137470
824.833	0.0136401
824.911	0.0137112
824.989	0.0135316
825.068	0.0133766
825.146	0.0135718
825.224	0.0135925
825.302	0.0136605
825.380	0.0134854
825.458	0.0135234
825.536	0.0134744
825.614	0.0136143
825.693	0.0136443
825.771	0.0135867
825.849	0.0136204
825.927	0.0137510
826.005	0.0139125
826.083	0.0137675
826.161	0.0138017
826.239	0.0138304
826.318	0.0137531
826.396	0.0139621
826.474	0.0139988
826.552	0.0139828
826.630	0.0139542
826.708	0.0140940
826.786	0.0139487
826.864	0.0139931
826.943	0.0139924
827.021	0.0140842
827.099	0.0142041
827.177	0.0141341
827.255	0.0139310
827.333	0.0141002
827.411	0.0139888
827.489	0.0140272
827.568	0.0140141
827.646	0.0139874
827.724	0.0138843
827.802	0.0137325
827.880	0.0137592
827.958	0.0138051
828.036	0.0139221
828.114	0.0136042
828.193	0.0136293
828.271	0.0137861
828.349	0.0135886
828.427	0.0135310
828.505	0.0136299
828.583	0.0136711
828.661	0.0135231
828.739	0.0135479
828.818	0.0132930
828.896	0.0133254
828.974	0.0134148
829.052	0.0134457
829.130	0.0133669
829.208	0.0134115
829.286	0.0135476
829.364	0.0134862
829.443	0.0134346
829.521	0.0134125
829.599	0.0134432
829.677	0.0134727
829.755	0.0135534
829.833	0.0136147
829.911	0.0136400
829.989	0.0135558
830.068	0.0137116
830.146	0.0134935
830.224	0.0137007
830.302	0.0136887
830.380	0.0136532
830.458	0.0137176
830.536	0.0135977
830.614	0.0135989
830.693	0.0134969
830.771	0.0134896
830.849	0.0136698
830.927	0.0136945
831.005	0.0134317
831.083	0.0134985
831.161	0.0134727
831.239	0.0135275
831.318	0.0134751
831.396	0.0133707
831.474	0.0134926
831.552	0.0133577
831.630	0.0133845
831.708	0.0133452
831.786	0.0132740
831.864	0.0133655
831.943	0.0134146
832.021	0.0135219
832.099	0.0133578
832.177	0.0132383
832.255	0.0132922
832.333	0.0133002
832.411	0.0133710
832.489	0.0134390
832.568	0.0134340
832.646	0.0134608
832.724	0.0135468
832.802	0.0135744
832.880	0.0136458
832.958	0.0136984
833.036	0.0136504
833.114	0.0136599
833.193	0.0137138
833.271	0.0138242
833.349	0.0137994
833.427	0.0136845
833.505	0.0139541
833.583	0.0137787
833.661	0.0137920
833.739	0.0137727
833.818	0.0138393
833.896	0.0139922
833.974	0.0137772
834.052	0.0137650
834.130	0.0137939
834.208	0.0139188
834.286	0.0137813
834.364	0.0138293
834.443	0.0138355
834.521	0.0138852
834.599	0.0138593
834.677	0.0138220
834.755	0.0139407
834.833	0.0140329
834.911	0.0138671
834.989	0.0137299
835.068	0.0138539
835.146	0.0138604
835.224	0.0137975
835.302	0.0138132
835.380	0.0136971
835.458	0.0137235
835.536	0.0135451
835.614	0.0136315
835.693	0.0135801
835.771	0.0134943
835.849	0.0133631
835.927	0.0134789
836.005	0.0133810
836.083	0.0133761
836.161	0.0132092
836.239	0.0132886
836.318	0.0132996
836.396	0.0132224
836.474	0.0132224
836.552	0.0132681
836.630	0.0132401
836.708	0.0133414
836.786	0.0133710
836.864	0.0133981
836.943	0.0134392
837.021	0.0134242
837.099	0.0132047
837.177	0.0133703
837.255	0.0133607
837.333	0.0133344
837.411	0.0133674
837.489	0.0134133
837.568	0.0135265
837.646	0.0135116
837.724	0.0134764
837.802	0.0135180
837.880	0.0135304
837.958	0.0135294
838.036	0.0137024
838.114	0.0138207
838.193	0.0137057
838.271	0.0136078
838.349	0.0138143
838.427	0.0138693
838.505	0.0139191
838.583	0.0138760
838.661	0.0140267
838.739	0.0139445
838.818	0.0139941
838.896	0.0141257
838.974	0.0142117
839.052	0.0140331
839.130	0.0140094
839.208	0.0141404
839.286	0.0140681
839.364	0.0140848
839.443	0.0140294
839.521	0.0139320
839.599	0.0140581
839.677	0.0139360
839.755	0.0139797
839.833	0.0139691
839.911	0.0138725
839.989	0.0138997
840.068	0.0138557
840.146	0.0136925
840.224	0.0137247
840.302	0.0138863
840.380	0.0136336
840.458	0.0135689
840.536	0.0136362
840.614	0.0136012
840.693	0.0135650
840.771	0.0133716
840.849	0.0134177
840.927	0.0133042
841.005	0.0133709
841.083	0.0134033
841.161	0.0132024
841.239	0.0130619
841.318	0.0133467
841.396	0.0131503
841.474	0.0131353
841.552	0.0134232
841.630	0.0133865
841.708	0.0133755
841.786	0.0132684
841.864	0.0135014
841.943	0.0132828
842.021	0.0134930
842.099	0.0136330
842.177	0.0136660
842.255	0.0137186
842.333	0.0136752
842.411	0.0136868
842.489	0.0137478
842.568	0.0136173
842.646	0.0137872
842.724	0.0139424
842.802	0.0138650
842.880	0.0137468
842.958	0.0136726
843.036	0.0136862
843.114	0.0138893
843.193	0.0137707
843.271	0.0137046
843.349	0.0136237
843.427	0.0137778
843.505	0.0137683
843.583	0.0136736
843.661	0.0136596
843.739	0.0136069
843.818	0.0137627
843.896	0.0135593
843.974	0.0135743
844.052	0.0137084
844.130	0.0136822
844.208	0.0136440
844.286	0.0136213
844.364	0.0136445
844.443	0.0137783
844.521	0.0137281
844.599	0.0136610
844.677	0.0138052
844.755	0.0138531
844.833	0.0138775
844.911	0.0138811
844.989	0.0136880
845.068	0.0138250
845.146	0.0138387
845.224	0.0139240
845.302	0.0139253
845.380	0.0139945
845.458	0.0139036
845.536	0.0139452
845.614	0.0139612
845.693	0.0138405
845.771	0.0139310
845.849	0.0138863
845.927	0.0138483
846.005	0.0140572
846.083	0.0138586
846.161	0.0138528
846.239	0.0137761
846.318	0.0138383
846.396	0.0137418
846.474	0.0137518
846.552	0.0137173
846.630	0.0137558
846.708	0.0138934
846.786	0.0138017
846.864	0.0136749
846.943	0.0137943
847.021	0.0137420
847.099	0.0136332
847.177	0.0135482
847.255	0.0136968
847.333	0.0135433
847.411	0.0135390
847.489	0.0135469
847.568	0.0136485
847.646	0.0135151
847.724	0.0136482
847.802	0.0134729
847.880	0.0134002
847.958	0.0133749
848.036	0.0135043
848.114	0.0135436
848.193	0.0134937
848.271	0.0134456
848.349	0.0136005
848.427	0.0136269
848.505	0.0136035
848.583	0.0135736
848.661	0.0136000
848.739	0.0138032
848.818	0.0138676
848.896	0.0136565
848.974	0.0136853
849.052	0.0137907
849.130	0.0137561
849.208	0.0136449
849.286	0.0138973
849.364	0.0140281
849.443	0.0139127
849.521	0.0139122
849.599	0.0139790
849.677	0.0139140
849.755	0.0139355
849.833	0.0138776
849.911	0.0139501
849.989	0.0139791
850.068	0.0140257
850.146	0.0140049
850.224	0.0139918
850.302	0.0139142
850.380	0.0139243
850.458	0.0138844
850.536	0.0138049
850.614	0.0137763
850.693	0.0138490
850.771	0.0136658
850.849	0.0137412
850.927	0.0136797
851.005	0.0136624
851.083	0.0135997
851.161	0.0136860
851.239	0.0135561
851.318	0.0135747
851.396	0.0136730
851.474	0.0136933
851.552	0.0136423
851.630	0.0135174
851.708	0.0135094
851.786	0.0135737
851.864	0.0135956
851.943	0.0134974
852.021	0.0135883
852.099	0.0135123
852.177	0.0135590
852.255	0.0135280
852.333	0.0135685
852.411	0.0134985
852.489	0.0135754
852.568	0.0137438
852.646	0.0135715
852.724	0.0135713
852.802	0.0136343
852.880	0.0135659
852.958	0.0136445
853.036	0.0134679
853.114	0.0134479
853.193	0.0135139
853.271	0.0135547
853.349	0.0134995
853.427	0.0134402
853.505	0.0135626
853.583	0.0132706
853.661	0.0133910
853.739	0.0134714
853.818	0.0132975
853.896	0.0133508
853.974	0.0133522
854.052	0.0133421
854.130	0.0133672
854.208	0.0133580
854.286	0.0134052
854.364	0.0134322
854.443	0.0133817
854.521	0.0134482
854.599	0.0134071
854.677	0.0135183
854.755	0.0135712
854.833	0.0136191
854.911	0.0136519
854.989	0.0135107
855.068	0.0136323
855.146	0.0136543
855.224	0.0136146
855.302	0.0136967
855.380	0.0135561
855.458	0.0136508
855.536	0.0138264
855.614	0.0137569
855.693	0.0137876
855.771	0.0136285
855.849	0.0137072
855.927	0.0137297
856.005	0.0137621
856.083	0.0137764
856.161	0.0136533
856.239	0.0136561
856.318	0.0137975
856.396	0.0136768
856.474	0.0137829
856.552	0.0137456
856.630	0.0138975
856.708	0.0138488
856.786	0.0137051
856.864	0.0137057
856.943	0.0136924
857.021	0.0137009
857.099	0.0135486
857.177	0.0136115
857.255	0.0135368
857.333	0.0136869
857.411	0.0135552
857.489	0.0136417
857.568	0.0134079
857.646	0.0136372
857.724	0.0135188
857.802	0.0136015
857.880	0.0135551
857.958	0.0135079
858.036	0.0135860
858.114	0.0134376
858.193	0.0133367
858.271	0.0135715
858.349	0.0136183
858.427	0.0135350
858.505	0.0135301
858.583	0.0136203
858.661	0.0135038
858.739	0.0135543
858.818	0.0135723
858.896	0.0136201
858.974	0.0138272
859.052	0.0136764
859.130	0.0136244
859.208	0.0137320
859.286	0.0136914
859.364	0.0136789
859.443	0.0136771
859.521	0.0138196
859.599	0.0137616
859.677	0.0136654
859.755	0.0137334
859.833	0.0138237
859.911	0.0135268
859.989	0.0135841
860.068	0.0135589
860.146	0.0136248
860.224	0.0135538
860.302	0.0137543
860.380	0.0137077
860.458	0.0136176
860.536	0.0136626
860.614	0.0136591
860.693	0.0137251
860.771	0.0137389
860.849	0.0136465
860.927	0.0138117
861.005	0.0137551
861.083	0.0138203
861.161	0.0137985
861.239	0.0137662
861.318	0.0137125
861.396	0.0136957
861.474	0.0138086
861.552	0.0139275
861.630	0.0138760
861.708	0.0138565
861.786	0.0138061
861.864	0.0138407
861.943	0.0138324
862.021	0.0137643
862.099	0.0138638
862.177	0.0137616
862.255	0.0138789
862.333	0.0137608
862.411	0.0137277
862.489	0.0139122
862.568	0.0137946
862.646	0.0137022
862.724	0.0138004
862.802	0.0136664
862.880	0.0137363
862.958	0.0136443
863.036	0.0137514
863.114	0.0137675
863.193	0.0135923
863.271	0.0136806
863.349	0.0135664
863.427	0.0135870
863.505	0.0135886
863.583	0.0136049
863.661	0.0135492
863.739	0.0136195
863.818	0.0135391
863.896	0.0135809
863.974	0.0135812
864.052	0.0136029
864.130	0.0136617
864.208	0.0136789
864.286	0.0137261
864.364	0.0136921
864.443	0.0136053
864.521	0.0136419
864.599	0.0137077
864.677	0.0135797
864.755	0.0136853
864.833	0.0137350
864.911	0.0137003
864.989	0.0136137
865.068	0.0136903
865.146	0.0135486
865.224	0.0135464
865.302	0.0136402
865.380	0.0135838
865.458	0.0136704
865.536	0.0137547
865.614	0.0135379
865.693	0.0135555
865.771	0.0136703
865.849	0.0137538
865.927	0.0136485
866.005	0.0137423
866.083	0.0137576
866.161	0.0137952
866.239	0.0138644
866.318	0.0139021
866.396	0.0138560
866.474	0.0137238
866.552	0.0139000
866.630	0.0138483
866.708	0.0139728
866.786	0.0138715
866.864	0.0140208
866.943	0.0138731
867.021	0.0138451
867.099	0.0138785
867.177	0.0138257
867.255	0.0138566
867.333	0.0138967
867.411	0.0137368
867.489	0.0138065
867.568	0.0138886
867.646	0.0138313
867.724	0.0136665
867.802	0.0138325
867.880	0.0137166
867.958	0.0137178
868.036	0.0138276
868.114	0.0138673
868.193	0.0137947
868.271	0.0137476
868.349	0.0137074
868.427	0.0136976
868.505	0.0136119
868.583	0.0134833
868.661	0.0136681
868.739	0.0136629
868.818	0.0135725
868.896	0.0135423
868.974	0.0135131
869.052	0.0133646
869.130	0.0134050
869.208	0.0133514
869.286	0.0133250
869.364	0.0133865
869.443	0.0134249
869.521	0.0134937
869.599	0.0133727
869.677	0.0133675
869.755	0.0134677
869.833	0.0134480
869.911	0.0134712
869.989	0.0135219
870.068	0.0136256
870.146	0.0135932
870.224	0.0135149
870.302	0.0135479
870.380	0.0136103
870.458	0.0137586
870.536	0.0137256
870.614	0.0138011
870.693	0.0136768
870.771	0.0137065
870.849	0.0137052
870.927	0.0136942
871.005	0.0136343
871.083	0.0135447
871.161	0.0135753
871.239	0.0135765
871.318	0.0136720
871.396	0.0137152
871.474	0.0137551
871.552	0.0137062
871.630	0.0135667
871.708	0.0136760
871.786	0.0136092
871.864	0.0136214
871.943	0.0134579
872.021	0.0134904
872.099	0.0135087
872.177	0.0135408
872.255	0.0135760
872.333	0.0135238
872.411	0.0136603
872.489	0.0135670
872.568	0.0136209
872.646	0.0135732
872.724	0.0136811
872.802	0.0137459
872.880	0.0138452
872.958	0.0137881
873.036	0.0137576
873.114	0.0138947
873.193	0.0139101
873.271	0.0138873
873.349	0.0138059
873.427	0.0136552
873.505	0.0138918
873.583	0.0139269
873.661	0.0139108
873.739	0.0137322
873.818	0.0137480
873.896	0.0136912
873.974	0.0136504
874.052	0.0138679
874.130	0.0137081
874.208	0.0135241
874.286	0.0136800
874.364	0.0136481
874.443	0.0135387
874.521	0.0136211
874.599	0.0135351
874.677	0.0135251
874.755	0.0134418
874.833	0.0136074
874.911	0.0134937
874.989	0.0134344
875.068	0.0134258
875.146	0.0133819
875.224	0.0134699
875.302	0.0134260
875.380	0.0135492
875.458	0.0136920
875.536	0.0136277
875.614	0.0134754
875.693	0.0135295
875.771	0.0135613
875.849	0.0135522
875.927	0.0135555
876.005	0.0134891
876.083	0.0135909
876.161	0.0134848
876.239	0.0136263
876.318	0.0135443
876.396	0.0134730
876.474	0.0135251
876.552	0.0135374
876.630	0.0136065
876.708	0.0136815
876.786	0.0135162
876.864	0.0136878
876.943	0.0138242
877.021	0.0137836
877.099	0.0138194
877.177	0.0137177
877.255	0.0138072
877.333	0.0139339
877.411	0.0137963
877.489	0.0138219
877.568	0.0138828
877.646	0.0138491
877.724	0.0137431
877.802	0.0138432
877.880	0.0138240
877.958	0.0137871
878.036	0.0137474
878.114	0.0136375
878.193	0.0137124
878.271	0.0136597
878.349	0.0138425
878.427	0.0136882
878.505	0.0136264
878.583	0.0136028
878.661	0.0134660
878.739	0.0136316
878.818	0.0135612
878.896	0.0135075
878.974	0.0134293
879.052	0.0135314
879.130	0.0134812
879.208	0.0134374
879.286	0.0136132
879.364	0.0136761
879.443	0.0136641
879.521	0.0136488
879.599	0.0136359
879.677	0.0137763
879.755	0.0137522
879.833	0.0136178
879.911	0.0138528
879.989	0.0138477
880.068	0.0138845
880.146	0.0138629
880.224	0.0138789
880.302	0.0138274
880.380	0.0138663
880.458	0.0138286
880.536	0.0138921
880.614	0.0137624
880.693	0.0136092
880.771	0.0137959
880.849	0.0136063
880.927	0.0135731
881.005	0.0137612
881.083	0.0134792
881.161	0.0134679
881.239	0.0133957
881.318	0.0135030
881.396	0.0136182
881.474	0.0134825
881.552	0.0134155
881.630	0.0134851
881.708	0.0134428
881.786	0.0134255
881.864	0.0134467
881.943	0.0133151
882.021	0.0134926
882.099	0.0135387
882.177	0.0133526
882.255	0.0135885
882.333	0.0134735
882.411	0.0136593
882.489	0.0135714
882.568	0.0136495
882.646	0.0136172
882.724	0.0137280
882.802	0.0137809
882.880	0.0139446
882.958	0.0138999
883.036	0.0138763
883.114	0.0139221
883.193	0.0140330
883.271	0.0139308
883.349	0.0139195
883.427	0.0140797
883.505	0.0139595
883.583	0.0138820
883.661	0.0140114
883.739	0.0139625
883.818	0.0139015
883.896	0.0139008
883.974	0.0138080
884.052	0.0138335
884.130	0.0137170
884.208	0.0137925
884.286	0.0137468
884.364	0.0135376
884.443	0.0134299
884.521	0.0135811
884.599	0.0135174
884.677	0.0135553
884.755	0.0134822
884.833	0.0134203
884.911	0.0135116
884.989	0.0135571
885.068	0.0135937
885.146	0.0135061
885.224	0.0135258
885.302	0.0135654
885.380	0.0134491
885.458	0.0136201
885.536	0.0136185
885.614	0.0135409
885.693	0.0135339
885.771	0.0136357
885.849	0.0137184
885.927	0.0137711
886.005	0.0135359
886.083	0.0135813
886.161	0.0137163
886.239	0.0136258
886.318	0.0135527
886.396	0.0135882
886.474	0.0135255
886.552	0.0137684
886.630	0.0135683
886.708	0.0136803
886.786	0.0136566
886.864	0.0135199
886.943	0.0136007
887.021	0.0135398
887.099	0.0136510
887.177	0.0136739
887.255	0.0135663
887.333	0.0136197
887.411	0.0135369
887.489	0.0136497
887.568	0.0136717
887.646	0.0135773
887.724	0.0137315
887.802	0.0137980
887.880	0.0136413
887.958	0.0138162
888.036	0.0138640
888.114	0.0138146
888.193	0.0138560
888.271	0.0138842
888.349	0.0138319
888.427	0.0138960
888.505	0.0137481
888.583	0.0138541
888.661	0.0139801
888.739	0.0139474
888.818	0.0139563
888.896	0.0138557
888.974	0.0136066
889.052	0.0136681
889.130	0.0137347
889.208	0.0137714
889.286	0.0135313
889.364	0.0137184
889.443	0.0135051
889.521	0.0134843
889.599	0.0134134
889.677	0.0133392
889.755	0.0134852
889.833	0.0134257
889.911	0.0132732
889.989	0.0133772
890.068	0.0132821
890.146	0.0133704
890.224	0.0133113
890.302	0.0133511
890.380	0.0134694
890.458	0.0134260
890.536	0.0133324
890.614	0.0135434
890.693	0.0135563
890.771	0.0135980
890.849	0.0135968
890.927	0.0135548
891.005	0.0137420
891.083	0.0137571
891.161	0.0137476
891.239	0.0136426
891.318	0.0136638
891.396	0.0137423
891.474	0.0138514
891.552	0.0137347
891.630	0.0137442
891.708	0.0138171
891.786	0.0138406
891.864	0.0138645
891.943	0.0138582
892.021	0.0137915
892.099	0.0137686
892.177	0.0138275
892.255	0.0137957
892.333	0.0138156
892.411	0.0138957
892.489	0.0138735
892.568	0.0137041
892.646	0.0136993
892.724	0.0136961
892.802	0.0137968
892.880	0.0139307
892.958	0.0138540
893.036	0.0138625
893.114	0.0138111
893.193	0.0137539
893.271	0.0137865
893.349	0.0136607
893.427	0.0136610
893.505	0.0136839
893.583	0.0136795
893.661	0.0134811
893.739	0.0135564
893.818	0.0135287
893.896	0.0137374
893.974	0.0135092
894.052	0.0135354
894.130	0.0134112
894.208	0.0133852
894.286	0.0135349
894.364	0.0134283
894.443	0.0134073
894.521	0.0133497
894.599	0.0134695
894.677	0.0134638
894.755	0.0134609
894.833	0.0135119
894.911	0.0136185
894.989	0.0134943
895.068	0.0135831
895.146	0.0135860
895.224	0.0137254
895.302	0.0136833
895.380	0.0137421
895.458	0.0138203
895.536	0.0137860
895.614	0.0137605
895.693	0.0137925
895.771	0.0137974
895.849	0.0137694
895.927	0.0137261
896.005	0.0138240
896.083	0.0138850
896.161	0.0138097
896.239	0.0137049
896.318	0.0137297
896.396	0.0138366
896.474	0.0138864
896.552	0.0137086
896.630	0.0137370
896.708	0.0138215
896.786	0.0137387
896.864	0.0137415
896.943	0.0137299
897.021	0.0136610
897.099	0.0137000
897.177	0.0137260
897.255	0.0136678
897.333	0.0137651
897.411	0.0136076
897.489	0.0136143
897.568	0.0136333
897.646	0.0135773
897.724	0.0136286
897.802	0.0135263
897.880	0.0135789
897.958	0.0136855
898.036	0.0136645
898.114	0.0136586
898.193	0.0135986
898.271	0.0134913
898.349	0.0134514
898.427	0.0135853
898.505	0.0135222
898.583	0.0135302
898.661	0.0136425
898.739	0.0135068
898.818	0.0134611
898.896	0.0135035
898.974	0.0135648
899.052	0.0134084
899.130	0.0134628
899.208	0.0134231
899.286	0.0134713
899.364	0.0135777
899.443	0.0135207
899.521	0.0134663
899.599	0.0134487
899.677	0.0134190
899.755	0.0134248
899.833	0.0135306
899.911	0.0135362
899.989	0.0135536
900.068	0.0133630
900.146	0.0135080
900.224	0.0134869
900.302	0.0135416
900.380	0.0136539
900.458	0.0135777
900.536	0.0135902
900.614	0.0134612
900.693	0.0136578
900.771	0.0136546
900.849	0.0136166
900.927	0.0135612
901.005	0.0136198
901.083	0.0137170
901.161	0.0136021
901.239	0.0138057
901.318	0.0138655
901.396	0.0136913
901.474	0.0136750
901.552	0.0138307
901.630	0.0136120
901.708	0.0138053
901.786	0.0137250
901.864	0.0138390
901.943	0.0138660
902.021	0.0138424
902.099	0.0138350
902.177	0.0137433
902.255	0.0137935
902.333	0.0137899
902.411	0.0137856
902.489	0.0137322
902.568	0.0137599
902.646	0.0136511
902.724	0.0137222
902.802	0.0137397
902.880	0.0136858
902.958	0.0136072
903.036	0.0137316
903.114	0.0135780
903.193	0.0135722
903.271	0.0135451
903.349	0.0136121
903.427	0.0136030
903.505	0.0135172
903.583	0.0135523
903.661	0.0135493
903.739	0.0136641
903.818	0.0136623
903.896	0.0136732
903.974	0.0134968
904.052	0.0135349
904.130	0.0135144
904.208	0.0135725
904.286	0.0134234
904.364	0.0135553
904.443	0.0135960
904.521	0.0134256
904.599	0.0136771
904.677	0.0134953
904.755	0.0135188
904.833	0.0135775
904.911	0.0136411
904.989	0.0136460
905.068	0.0135832
905.146	0.0136626
905.224	0.0136469
905.302	0.0137359
905.380	0.0136356
905.458	0.0136583
905.536	0.0137975
905.614	0.0137582
905.693	0.0138234
905.771	0.0139147
905.849	0.0139830
905.927	0.0137918
906.005	0.0138981
906.083	0.0140243
906.161	0.0138392
906.239	0.0137875
906.318	0.0138425
906.396	0.0137003
906.474	0.0137550
906.552	0.0139267
906.630	0.0139410
906.708	0.0137549
906.786	0.0138095
906.864	0.0138657
906.943	0.0139776
907.021	0.0138123
907.099	0.0139218
907.177	0.0138885
907.255	0.0138733
907.333	0.0138345
907.411	0.0137203
907.489	0.0138218
907.568	0.0138646
907.646	0.0137851
907.724	0.0137730
907.802	0.0137526
907.880	0.0138345
907.958	0.0138700
908.036	0.0138891
908.114	0.0139089
908.193	0.0137978
908.271	0.0136130
908.349	0.0137818
908.427	0.0137371
908.505	0.0136036
908.583	0.0136964
908.661	0.0136913
908.739	0.0136208
908.818	0.0135655
908.896	0.0135370
908.974	0.0135397
909.052	0.0135814
909.130	0.0134948
909.208	0.0135030
909.286	0.0134768
909.364	0.0134009
909.443	0.0134285
909.521	0.0134127
909.599	0.0133920
909.677	0.0135079
909.755	0.0134302
909.833	0.0135153
909.911	0.0135429
909.989	0.0135452
910.068	0.0136191
910.146	0.0137344
910.224	0.0134719
910.302	0.0134646
910.380	0.0136207
910.458	0.0136782
910.536	0.0135921
910.614	0.0135703
910.693	0.0135918
910.771	0.0138656
910.849	0.0138469
910.927	0.0137536
911.005	0.0138980
911.083	0.0136851
911.161	0.0138202
911.239	0.0138487
911.318	0.0139333
911.396	0.0139499
911.474	0.0139366
911.552	0.0138023
911.630	0.0139548
911.708	0.0139506
911.786	0.0139436
911.864	0.0140388
911.943	0.0138683
912.021	0.0137637
912.099	0.0138622
912.177	0.0138491
912.255	0.0139299
912.333	0.0137637
912.411	0.0136542
912.489	0.0137713
912.568	0.0136907
912.646	0.0137141
912.724	0.0136491
912.802	0.0136710
912.880	0.0137048
912.958	0.0137080
913.036	0.0134726
913.114	0.0135931
913.193	0.0135026
913.271	0.0135485
913.349	0.0135966
913.427	0.0134592
913.505	0.0134222
913.583	0.0136182
913.661	0.0137895
913.739	0.0134550
913.818	0.0135049
913.896	0.0135428
913.974	0.0135733
914.052	0.0136955
914.130	0.0137014
914.208	0.0135887
914.286	0.0136117
914.364	0.0136319
914.443	0.0137024
914.521	0.0135811
914.599	0.0135938
914.677	0.0137012
914.755	0.0136426
914.833	0.0136836
914.911	0.0138592
914.989	0.0135482
915.068	0.0135551
915.146	0.0137132
915.224	0.0136376
915.302	0.0137820
915.380	0.0136742
915.458	0.0136661
915.536	0.0135442
915.614	0.0137635
915.693	0.0137292
915.771	0.0136903
915.849	0.0136337
915.927	0.0136810
916.005	0.0138292
916.083	0.0137018
916.161	0.0136913
916.239	0.0136553
916.318	0.0137514
916.396	0.0137695
916.474	0.0137477
916.552	0.0137870
916.630	0.0136070
916.708	0.0136926
916.786	0.0137199
916.864	0.0138860
916.943	0.0138107
917.021	0.0137029
917.099	0.0137881
917.177	0.0137839
917.255	0.0138980
917.333	0.0137978
917.411	0.0138039
917.489	0.0137247
917.568	0.0137878
917.646	0.0136489
917.724	0.0138759
917.802	0.0135729
917.880	0.0135316
917.958	0.0136427
918.036	0.0137344
918.114	0.0135982
918.193	0.0135825
918.271	0.0135619
918.349	0.0136411
918.427	0.0136147
918.505	0.0135981
918.583	0.0136574
918.661	0.0136985
918.739	0.0137313
918.818	0.0134237
918.896	0.0136432
918.974	0.0137642
919.052	0.0136425
919.130	0.0136781
919.208	0.0136584
919.286	0.0138077
919.364	0.0136989
919.443	0.0138662
919.521	0.0137168
919.599	0.0137060
919.677	0.0137298
919.755	0.0139014
919.833	0.0137545
919.911	0.0137798
919.989	0.0138532
920.068	0.0138329
920.146	0.0138620
920.224	0.0138858
920.302	0.0137194
920.380	0.0136359
920.458	0.0137431
920.536	0.0138605
920.614	0.0137658
920.693	0.0136703
920.771	0.0136954
920.849	0.0138720
920.927	0.0136869
921.005	0.0137226
921.083	0.0137560
921.161	0.0136082
921.239	0.0135552
921.318	0.0136087
921.396	0.0136195
921.474	0.0137065
921.552	0.0134757
921.630	0.0135759
921.708	0.0136344
921.786	0.0137458
921.864	0.0138492
921.943	0.0137144
922.021	0.0136100
922.099	0.0135849
922.177	0.0138142
922.255	0.0137499
922.333	0.0137605
922.411	0.0137234
922.489	0.0137359
922.568	0.0136909
922.646	0.0139512
922.724	0.0138480
922.802	0.0138001
922.880	0.0139841
922.958	0.0139108
923.036	0.0138273
923.114	0.0138937
923.193	0.0139178
923.271	0.0138805
923.349	0.0139175
923.427	0.0137984
923.505	0.0139722
923.583	0.0138123
923.661	0.0137962
923.739	0.0137119
923.818	0.0138026
923.896	0.0137112
923.974	0.0138534
924.052	0.0138586
924.130	0.0137650
924.208	0.0138046
924.286	0.0136797
924.364	0.0136650
924.443	0.0136100
924.521	0.0137547
924.599	0.0137901
924.677	0.0136320
924.755	0.0136750
924.833	0.0137108
924.911	0.0137383
924.989	0.0136955
925.068	0.0136308
925.146	0.0135843
925.224	0.0136542
925.302	0.0136726
925.380	0.0136440
925.458	0.0136057
925.536	0.0137185
925.614	0.0136639
925.693	0.0136496
925.771	0.0137816
925.849	0.0136468
925.927	0.0137197
926.005	0.0136005
926.083	0.0137888
926.161	0.0136802
926.239	0.0137210
926.318	0.0137791
926.396	0.0137160
926.474	0.0138469
926.552	0.0135716
926.630	0.0135075
926.708	0.0136832
926.786	0.0136726
926.864	0.0137243
926.943	0.0136770
927.021	0.0137804
927.099	0.0136158
927.177	0.0136016
927.255	0.0136066
927.333	0.0136954
927.411	0.0136249
927.489	0.0136011
927.568	0.0136815
927.646	0.0136240
927.724	0.0134745
927.802	0.0136728
927.880	0.0136867
927.958	0.0135691
928.036	0.0136796
928.114	0.0135294
928.193	0.0135760
928.271	0.0135968
928.349	0.0136198
928.427	0.0137157
928.505	0.0135404
928.583	0.0135201
928.661	0.0135670
928.739	0.0136813
928.818	0.0136308
928.896	0.0135833
928.974	0.0136217
929.052	0.0136920
929.130	0.0136343
929.208	0.0137044
929.286	0.0137367
929.364	0.0136864
929.443	0.0137320
929.521	0.0136753
929.599	0.0137573
929.677	0.0138176
929.755	0.0136521
929.833	0.0137482
929.911	0.0138132
929.989	0.0136935
930.068	0.0137921
930.146	0.0137491
930.224	0.0136649
930.302	0.0136628
930.380	0.0136578
930.458	0.0137027
930.536	0.0136465
930.614	0.0137688
930.693	0.0135901
930.771	0.0137653
930.849	0.0136645
930.927	0.0137311
931.005	0.0137493
931.083	0.0138181
931.161	0.0135181
931.239	0.0136528
931.318	0.0136395
931.396	0.0136882
931.474	0.0136367
931.552	0.0137109
931.630	0.0134648
931.708	0.0135386
931.786	0.0135441
931.864	0.0133864
931.943	0.0134795
932.021	0.0134118
932.099	0.0133935
932.177	0.0133685
932.255	0.0134013
932.333	0.0133495
932.411	0.0132922
932.489	0.0133463
932.568	0.0132910
932.646	0.0134296
932.724	0.0134574
932.802	0.0135165
932.880	0.0133746
932.958	0.0135313
933.036	0.0135523
933.114	0.0134548
933.193	0.0135720
933.271	0.0134023
933.349	0.0135156
933.427	0.0135755
933.505	0.0136443
933.583	0.0135925
933.661	0.0136753
933.739	0.0136417
933.818	0.0137302
933.896	0.0135176
933.974	0.0135980
934.052	0.0136015
934.130	0.0136387
934.208	0.0137353
934.286	0.0137273
934.364	0.0137962
934.443	0.0137874
934.521	0.0137434
934.599	0.0137890
934.677	0.0137647
934.755	0.0137506
934.833	0.0138282
934.911	0.0139771
934.989	0.0139606
935.068	0.0138995
935.146	0.0139098
935.224	0.0139230
935.302	0.0139342
935.380	0.0139145
935.458	0.0139841
935.536	0.0139162
935.614	0.0139663
935.693	0.0139436
935.771	0.0140177
935.849	0.0140259
935.927	0.0138696
936.005	0.0139127
936.083	0.0137888
936.161	0.0138730
936.239	0.0138625
936.318	0.0137747
936.396	0.0139544
936.474	0.0137658
936.552	0.0137028
936.630	0.0137351
936.708	0.0137548
936.786	0.0137807
936.864	0.0136333
936.943	0.0136024
937.021	0.0137151
937.099	0.0136651
937.177	0.0135989
937.255	0.0136614
937.333	0.0135710
937.411	0.0134512
937.489	0.0137306
937.568	0.0135685
937.646	0.0134359
937.724	0.0134756
937.802	0.0135289
937.880	0.0132729
937.958	0.0135502
938.036	0.0134902
938.114	0.0133907
938.193	0.0135720
938.271	0.0134366
938.349	0.0135901
938.427	0.0136407
938.505	0.0135204
938.583	0.0136776
938.661	0.0135621
938.739	0.0136475
938.818	0.0136008
938.896	0.0137704
938.974	0.0137186
939.052	0.0138194
939.130	0.0137305
939.208	0.0137326
939.286	0.0138591
939.364	0.0138011
939.443	0.0137711
939.521	0.0138808
939.599	0.0137785
939.677	0.0139111
939.755	0.0137817
939.833	0.0139066
939.911	0.0139560
939.989	0.0137579
940.068	0.0137733
940.146	0.0138103
940.224	0.0137098
940.302	0.0137469
940.380	0.0137512
940.458	0.0136962
940.536	0.0138413
940.614	0.0138170
940.693	0.0135355
940.771	0.0135669
940.849	0.0136859
940.927	0.0137620
941.005	0.0137591
941.083	0.0137656
941.161	0.0137777
941.239	0.0137199
941.318	0.0138281
941.396	0.0137515
941.474	0.0137678
941.552	0.0138919
941.630	0.0137315
941.708	0.0138905
941.786	0.0139203
941.864	0.0138203
941.943	0.0137502
942.021	0.0137076
942.099	0.0137988
942.177	0.0136949
942.255	0.0137100
942.333	0.0138106
942.411	0.0138405
942.489	0.0135601
942.568	0.0137782
942.646	0.0137671
942.724	0.0137112
942.802	0.0136890
942.880	0.0136629
942.958	0.0136564
943.036	0.0136414
943.114	0.0136230
943.193	0.0136602
943.271	0.0136799
943.349	0.0135719
943.427	0.0136425
943.505	0.0135342
943.583	0.0136788
943.661	0.0136443
943.739	0.0135806
943.818	0.0135900
943.896	0.0136118
943.974	0.0135280
944.052	0.0136869
944.130	0.0135001
944.208	0.0134813
944.286	0.0135136
944.364	0.0136704
944.443	0.0136829
944.521	0.0136770
944.599	0.0137265
944.677	0.0135744
944.755	0.0136057
944.833	0.0136243
944.911	0.0137343
944.989	0.0137359
945.068	0.0138153
945.146	0.0137728
945.224	0.0137121
945.302	0.0137577
945.380	0.0137218
945.458	0.0137526
945.536	0.0138429
945.614	0.0138859
945.693	0.0139107
945.771	0.0137933
945.849	0.0138086
945.927	0.0138954
946.005	0.0139011
946.083	0.0139450
946.161	0.0139043
946.239	0.0139252
946.318	0.0139725
946.396	0.0139471
946.474	0.0139339
946.552	0.0139365
946.630	0.0138129
946.708	0.0139790
946.786	0.0139194
946.864	0.0138969
946.943	0.0139085
947.021	0.0138400
947.099	0.0138355
947.177	0.0137533
947.255	0.0137184
947.333	0.0137161
947.411	0.0137466
947.489	0.0136471
947.568	0.0137131
947.646	0.0136701
947.724	0.0136562
947.802	0.0137158
947.880	0.0136961
947.958	0.0135493
948.036	0.0136629
948.114	0.0136047
948.193	0.0135932
948.271	0.0137644
948.349	0.0135708
948.427	0.0135786
948.505	0.0135428
948.583	0.0134485
948.661	0.0135657
948.739	0.0136469
948.818	0.0134487
948.896	0.0135951
948.974	0.0136480
949.052	0.0134791
949.130	0.0135721
949.208	0.0135840
949.286	0.0136475
949.364	0.0135426
949.443	0.0136816
949.521	0.0136417
949.599	0.0135605
949.677	0.0135790
949.755	0.0137519
949.833	0.0135786
949.911	0.0136356
949.989	0.0136800
950.068	0.0137086
950.146	0.0136607
950.224	0.0137335
950.302	0.0137969
950.380	0.0138299
950.458	0.0137743
950.536	0.0138424
950.614	0.0138988
950.693	0.0137668
950.771	0.0136932
950.849	0.0137448
950.927	0.0138313
951.005	0.0137801
951.083	0.0138541
951.161	0.0139180
951.239	0.0137783
951.318	0.0137242
951.396	0.0137434
951.474	0.0136031
951.552	0.0137599
951.630	0.0139055
951.708	0.0136593
951.786	0.0137546
951.864	0.0135443
951.943	0.0136154
952.021	0.0136819
952.099	0.0137515
952.177	0.0135744
952.255	0.0134108
952.333	0.0135572
952.411	0.0136449
952.489	0.0136754
952.568	0.0135780
952.646	0.0135900
952.724	0.0136093
952.802	0.0135590
952.880	0.0136019
952.958	0.0135563
953.036	0.0136812
953.114	0.0137321
953.193	0.0135650
953.271	0.0136739
953.349	0.0135800
953.427	0.0134721
953.505	0.0135441
953.583	0.0136237
953.661	0.0135047
953.739	0.0135661
953.818	0.0134271
953.896	0.0135030
953.974	0.0134855
954.052	0.0133649
954.130	0.0135082
954.208	0.0133636
954.286	0.0133786
954.364	0.0135945
954.443	0.0134129
954.521	0.0133389
954.599	0.0133913
954.677	0.0134561
954.755	0.0132550
954.833	0.0134888
954.911	0.0133781
954.989	0.0133313
955.068	0.0133817
955.146	0.0135784
955.224	0.0136026
955.302	0.0133986
955.380	0.0134731
955.458	0.0136555
955.536	0.0134778
955.614	0.0135429
955.693	0.0135297
955.771	0.0134663
955.849	0.0135374
955.927	0.0137151
956.005	0.0136465
956.083	0.0135538
956.161	0.0135343
956.239	0.0137010
956.318	0.0137182
956.396	0.0136348
956.474	0.0136196
956.552	0.0137693
956.630	0.0136671
956.708	0.0137744
956.786	0.0138115
956.864	0.0137321
956.943	0.0137273
957.021	0.0137790
957.099	0.0137527
957.177	0.0136019
957.255	0.0136435
957.333	0.0138142
957.411	0.0137239
957.489	0.0135077
957.568	0.0136169
957.646	0.0136488
957.724	0.0136605
957.802	0.0136672
957.880	0.0136156
957.958	0.0136777
958.036	0.0135602
958.114	0.0135790
958.193	0.0136024
958.271	0.0136436
958.349	0.0135431
958.427	0.0134939
958.505	0.0135380
958.583	0.0138489
958.661	0.0135245
958.739	0.0136790
958.818	0.0137849
958.896	0.0136491
958.974	0.0136189
959.052	0.0136497
959.130	0.0136839
959.208	0.0137903
959.286	0.0137660
959.364	0.0137795
959.443	0.0138527
959.521	0.0137599
959.599	0.0136708
959.677	0.0137465
959.755	0.0138180
959.833	0.0138103
959.911	0.0137934
