05/14/2022	16:46:47	Ver.	4.1	UNKNOWN
Optical Delay	639.989416	Delta X		0.078125	Sweeps	1	Scan Rate	0/0
Coordinates	Axis 1	NaN	Axis 2	NaN	Axis 3	NaN	Axis 4	NaN	Axis 5	NaN	Axis 6	0.000000
TX Power	0.000000	RX Power	0.000000

639.989	0.0139295
640.068	0.0140463
640.146	0.0139027
640.224	0.0138607
640.302	0.0139004
640.380	0.0137328
640.458	0.0139882
640.536	0.0141019
640.614	0.0139668
640.693	0.0139552
640.771	0.0139977
640.849	0.0140423
640.927	0.0139993
641.005	0.0138678
641.083	0.0139651
641.161	0.0139509
641.239	0.0140533
641.318	0.0140169
641.396	0.0140084
641.474	0.0140083
641.552	0.0141376
641.630	0.0141946
641.708	0.0139159
641.786	0.0140434
641.864	0.0140476
641.943	0.0141916
642.021	0.0140878
642.099	0.0142107
642.177	0.0141592
642.255	0.0141123
642.333	0.0140601
642.411	0.0142195
642.489	0.0143466
642.568	0.0143100
642.646	0.0142673
642.724	0.0142017
642.802	0.0142114
642.880	0.0141891
642.958	0.0141467
643.036	0.0142652
643.114	0.0140853
643.193	0.0141391
643.271	0.0142770
643.349	0.0141990
643.427	0.0143701
643.505	0.0141999
643.583	0.0141533
643.661	0.0141817
643.739	0.0141615
643.818	0.0140307
643.896	0.0142378
643.974	0.0141156
644.052	0.0140537
644.130	0.0140103
644.208	0.0140397
644.286	0.0140514
644.364	0.0140929
644.443	0.0141044
644.521	0.0140387
644.599	0.0139639
644.677	0.0141405
644.755	0.0140199
644.833	0.0141251
644.911	0.0139412
644.989	0.0139772
645.068	0.0139983
645.146	0.0140190
645.224	0.0137990
645.302	0.0140105
645.380	0.0138992
645.458	0.0140001
645.536	0.0139496
645.614	0.0137972
645.693	0.0138727
645.771	0.0139146
645.849	0.0139338
645.927	0.0138794
646.005	0.0137745
646.083	0.0137435
646.161	0.0138253
646.239	0.0138081
646.318	0.0137852
646.396	0.0137917
646.474	0.0137929
646.552	0.0137411
646.630	0.0137598
646.708	0.0138551
646.786	0.0137292
646.864	0.0137783
646.943	0.0137699
647.021	0.0137393
647.099	0.0138338
647.177	0.0138699
647.255	0.0137963
647.333	0.0137669
647.411	0.0138447
647.489	0.0137643
647.568	0.0138496
647.646	0.0138709
647.724	0.0138725
647.802	0.0138326
647.880	0.0137776
647.958	0.0138212
648.036	0.0138573
648.114	0.0137679
648.193	0.0138062
648.271	0.0138700
648.349	0.0139729
648.427	0.0138521
648.505	0.0138718
648.583	0.0138460
648.661	0.0138112
648.739	0.0139145
648.818	0.0138792
648.896	0.0139052
648.974	0.0139484
649.052	0.0139614
649.130	0.0139059
649.208	0.0140588
649.286	0.0139123
649.364	0.0139832
649.443	0.0139261
649.521	0.0137838
649.599	0.0139360
649.677	0.0139949
649.755	0.0138002
649.833	0.0139376
649.911	0.0139938
649.989	0.0138834
650.068	0.0138976
650.146	0.0139127
650.224	0.0139520
650.302	0.0137206
650.380	0.0139164
650.458	0.0138830
650.536	0.0138990
650.614	0.0139916
650.693	0.0138739
650.771	0.0139008
650.849	0.0137935
650.927	0.0137424
651.005	0.0139323
651.083	0.0138637
651.161	0.0139894
651.239	0.0139016
651.318	0.0139013
651.396	0.0139024
651.474	0.0140353
651.552	0.0139785
651.630	0.0139054
651.708	0.0139753
651.786	0.0139398
651.864	0.0139005
651.943	0.0140424
652.021	0.0138281
652.099	0.0138543
652.177	0.0139189
652.255	0.0139710
652.333	0.0139745
652.411	0.0140216
652.489	0.0138963
652.568	0.0140239
652.646	0.0140060
652.724	0.0139494
652.802	0.0140145
652.880	0.0140417
652.958	0.0141150
653.036	0.0139843
653.114	0.0139344
653.193	0.0140289
653.271	0.0141601
653.349	0.0140811
653.427	0.0140004
653.505	0.0140974
653.583	0.0140112
653.661	0.0140653
653.739	0.0138698
653.818	0.0140631
653.896	0.0141535
653.974	0.0138995
654.052	0.0139156
654.130	0.0140662
654.208	0.0140840
654.286	0.0139904
654.364	0.0140043
654.443	0.0139333
654.521	0.0139554
654.599	0.0140182
654.677	0.0139969
654.755	0.0139626
654.833	0.0140046
654.911	0.0139513
654.989	0.0140015
655.068	0.0140101
655.146	0.0140347
655.224	0.0140549
655.302	0.0141248
655.380	0.0139813
655.458	0.0141156
655.536	0.0140357
655.614	0.0138980
655.693	0.0139341
655.771	0.0141031
655.849	0.0139782
655.927	0.0138955
656.005	0.0139481
656.083	0.0139745
656.161	0.0139885
656.239	0.0140540
656.318	0.0140608
656.396	0.0140369
656.474	0.0139987
656.552	0.0140405
656.630	0.0139866
656.708	0.0138598
656.786	0.0139880
656.864	0.0139745
656.943	0.0140035
657.021	0.0141595
657.099	0.0141267
657.177	0.0141057
657.255	0.0141720
657.333	0.0139602
657.411	0.0140577
657.489	0.0140553
657.568	0.0140973
657.646	0.0140505
657.724	0.0140938
657.802	0.0140715
657.880	0.0140863
657.958	0.0139258
658.036	0.0139467
658.114	0.0141176
658.193	0.0139902
658.271	0.0139955
658.349	0.0140722
658.427	0.0140992
658.505	0.0140067
658.583	0.0140356
658.661	0.0140069
658.739	0.0140494
658.818	0.0139091
658.896	0.0139663
658.974	0.0139952
659.052	0.0139269
659.130	0.0139986
659.208	0.0139708
659.286	0.0138269
659.364	0.0139855
659.443	0.0139738
659.521	0.0139207
659.599	0.0140320
659.677	0.0140327
659.755	0.0139563
659.833	0.0140108
659.911	0.0139796
659.989	0.0140571
660.068	0.0140225
660.146	0.0140836
660.224	0.0139720
660.302	0.0141047
660.380	0.0142657
660.458	0.0139619
660.536	0.0139909
660.614	0.0140423
660.693	0.0141419
660.771	0.0140841
660.849	0.0140807
660.927	0.0141409
661.005	0.0141541
661.083	0.0140672
661.161	0.0141518
661.239	0.0142015
661.318	0.0141803
661.396	0.0140725
661.474	0.0141341
661.552	0.0141946
661.630	0.0141264
661.708	0.0142429
661.786	0.0141643
661.864	0.0141607
661.943	0.0142513
662.021	0.0141428
662.099	0.0140086
662.177	0.0141652
662.255	0.0142596
662.333	0.0140264
662.411	0.0141113
662.489	0.0142541
662.568	0.0141700
662.646	0.0140897
662.724	0.0139361
662.802	0.0138991
662.880	0.0140173
662.958	0.0139779
663.036	0.0140638
663.114	0.0139787
663.193	0.0140814
663.271	0.0140827
663.349	0.0141560
663.427	0.0140945
663.505	0.0140559
663.583	0.0140987
663.661	0.0142433
663.739	0.0141315
663.818	0.0141416
663.896	0.0141501
663.974	0.0139863
664.052	0.0141519
664.130	0.0141169
664.208	0.0142351
664.286	0.0143043
664.364	0.0143208
664.443	0.0142001
664.521	0.0143786
664.599	0.0144979
664.677	0.0142379
664.755	0.0140917
664.833	0.0140868
664.911	0.0142489
664.989	0.0141055
665.068	0.0140713
665.146	0.0139899
665.224	0.0140408
665.302	0.0139474
665.380	0.0138520
665.458	0.0138091
665.536	0.0137865
665.614	0.0138303
665.693	0.0137576
665.771	0.0137238
665.849	0.0138127
665.927	0.0138201
666.005	0.0138378
666.083	0.0138170
666.161	0.0137179
666.239	0.0138052
666.318	0.0139721
666.396	0.0139935
666.474	0.0139384
666.552	0.0139259
666.630	0.0140302
666.708	0.0140364
666.786	0.0141163
666.864	0.0140929
666.943	0.0142079
667.021	0.0142117
667.099	0.0142690
667.177	0.0141840
667.255	0.0141179
667.333	0.0140812
667.411	0.0141747
667.489	0.0140849
667.568	0.0141861
667.646	0.0139194
667.724	0.0138461
667.802	0.0137236
667.880	0.0137591
667.958	0.0137417
668.036	0.0135528
668.114	0.0137260
668.193	0.0136341
668.271	0.0134315
668.349	0.0135764
668.427	0.0134859
668.505	0.0134251
668.583	0.0133818
668.661	0.0134387
668.739	0.0134842
668.818	0.0135825
668.896	0.0136925
668.974	0.0137365
669.052	0.0138223
669.130	0.0139145
669.208	0.0141107
669.286	0.0141257
669.364	0.0142044
669.443	0.0142891
669.521	0.0143180
669.599	0.0144099
669.677	0.0144549
669.755	0.0145698
669.833	0.0144786
669.911	0.0146233
669.989	0.0146476
670.068	0.0144344
670.146	0.0146569
670.224	0.0146042
670.302	0.0145542
670.380	0.0143262
670.458	0.0142314
670.536	0.0143933
670.614	0.0142368
670.693	0.0140357
670.771	0.0140265
670.849	0.0137923
670.927	0.0136709
671.005	0.0135500
671.083	0.0134260
671.161	0.0134018
671.239	0.0134263
671.318	0.0132932
671.396	0.0131390
671.474	0.0132026
671.552	0.0132475
671.630	0.0132536
671.708	0.0132953
671.786	0.0134306
671.864	0.0134046
671.943	0.0135457
672.021	0.0137737
672.099	0.0138285
672.177	0.0141355
672.255	0.0141930
672.333	0.0143623
672.411	0.0146593
672.489	0.0147507
672.568	0.0147634
672.646	0.0149673
672.724	0.0150638
672.802	0.0150702
672.880	0.0150529
672.958	0.0151051
673.036	0.0149928
673.114	0.0150832
673.193	0.0149902
673.271	0.0148795
673.349	0.0146552
673.427	0.0144459
673.505	0.0142976
673.583	0.0141052
673.661	0.0140189
673.739	0.0139120
673.818	0.0136731
673.896	0.0135868
673.974	0.0134020
674.052	0.0132337
674.130	0.0130542
674.208	0.0129823
674.286	0.0128921
674.364	0.0127187
674.443	0.0126982
674.521	0.0127332
674.599	0.0127860
674.677	0.0128475
674.755	0.0129050
674.833	0.0129995
674.911	0.0130923
674.989	0.0133359
675.068	0.0134720
675.146	0.0136647
675.224	0.0137087
675.302	0.0140100
675.380	0.0142532
675.458	0.0144916
675.536	0.0145075
675.614	0.0149155
675.693	0.0149030
675.771	0.0151772
675.849	0.0154076
675.927	0.0154935
676.005	0.0155767
676.083	0.0156153
676.161	0.0155560
676.239	0.0156902
676.318	0.0156280
676.396	0.0155225
676.474	0.0154122
676.552	0.0150991
676.630	0.0149221
676.708	0.0148422
676.786	0.0146048
676.864	0.0141816
676.943	0.0141042
677.021	0.0139505
677.099	0.0136462
677.177	0.0134635
677.255	0.0130821
677.333	0.0130140
677.411	0.0129916
677.489	0.0127292
677.568	0.0126842
677.646	0.0125420
677.724	0.0123803
677.802	0.0125660
677.880	0.0125648
677.958	0.0125865
678.036	0.0127271
678.114	0.0129064
678.193	0.0130270
678.271	0.0130710
678.349	0.0133527
678.427	0.0135919
678.505	0.0136012
678.583	0.0138617
678.661	0.0139157
678.739	0.0141322
678.818	0.0142976
678.896	0.0142438
678.974	0.0144357
679.052	0.0145989
679.130	0.0146836
679.208	0.0146516
679.286	0.0145770
679.364	0.0146007
679.443	0.0147121
679.521	0.0146394
679.599	0.0146187
679.677	0.0144019
679.755	0.0144946
679.833	0.0143494
679.911	0.0143555
679.989	0.0142101
680.068	0.0141112
680.146	0.0140228
680.224	0.0139905
680.302	0.0138980
680.380	0.0138837
680.458	0.0137376
680.536	0.0137741
680.614	0.0136692
680.693	0.0136482
680.771	0.0137280
680.849	0.0139401
680.927	0.0139561
681.005	0.0138522
681.083	0.0139584
681.161	0.0139222
681.239	0.0140792
681.318	0.0140854
681.396	0.0142339
681.474	0.0142542
681.552	0.0143259
681.630	0.0143767
681.708	0.0144352
681.786	0.0144885
681.864	0.0145332
681.943	0.0144743
682.021	0.0143811
682.099	0.0144479
682.177	0.0143375
682.255	0.0144028
682.333	0.0142088
682.411	0.0140593
682.489	0.0138725
682.568	0.0138276
682.646	0.0137508
682.724	0.0135217
682.802	0.0132982
682.880	0.0132816
682.958	0.0131895
683.036	0.0132052
683.114	0.0130672
683.193	0.0130190
683.271	0.0129030
683.349	0.0130244
683.427	0.0129601
683.505	0.0129272
683.583	0.0130847
683.661	0.0131006
683.739	0.0129709
683.818	0.0130952
683.896	0.0131104
683.974	0.0131533
684.052	0.0133420
684.130	0.0135492
684.208	0.0136108
684.286	0.0136284
684.364	0.0137454
684.443	0.0140024
684.521	0.0141716
684.599	0.0142509
684.677	0.0143679
684.755	0.0144577
684.833	0.0146466
684.911	0.0147847
684.989	0.0147167
685.068	0.0148437
685.146	0.0148245
685.224	0.0149817
685.302	0.0150245
685.380	0.0151884
685.458	0.0150147
685.536	0.0150839
685.614	0.0151876
685.693	0.0151311
685.771	0.0151892
685.849	0.0152296
685.927	0.0152388
686.005	0.0151994
686.083	0.0152066
686.161	0.0152959
686.239	0.0153313
686.318	0.0151447
686.396	0.0151254
686.474	0.0150318
686.552	0.0148550
686.630	0.0149968
686.708	0.0148595
686.786	0.0146622
686.864	0.0143191
686.943	0.0141038
687.021	0.0140239
687.099	0.0137590
687.177	0.0133228
687.255	0.0133332
687.333	0.0130966
687.411	0.0127099
687.489	0.0126048
687.568	0.0125652
687.646	0.0120794
687.724	0.0121318
687.802	0.0121519
687.880	0.0118694
687.958	0.0119084
688.036	0.0119099
688.114	0.0117723
688.193	0.0119229
688.271	0.0120708
688.349	0.0121382
688.427	0.0123917
688.505	0.0124701
688.583	0.0127177
688.661	0.0129086
688.739	0.0130524
688.818	0.0134478
688.896	0.0137506
688.974	0.0139374
689.052	0.0141498
689.130	0.0145183
689.208	0.0145778
689.286	0.0149514
689.364	0.0150237
689.443	0.0152110
689.521	0.0153629
689.599	0.0155012
689.677	0.0154955
689.755	0.0155812
689.833	0.0156489
689.911	0.0155251
689.989	0.0155663
690.068	0.0153879
690.146	0.0153368
690.224	0.0152791
690.302	0.0152700
690.380	0.0151892
690.458	0.0150701
690.536	0.0148699
690.614	0.0149528
690.693	0.0148345
690.771	0.0148948
690.849	0.0149246
690.927	0.0146889
691.005	0.0149426
691.083	0.0148604
691.161	0.0147059
691.239	0.0148483
691.318	0.0147652
691.396	0.0149613
691.474	0.0148842
691.552	0.0145732
691.630	0.0146243
691.708	0.0145302
691.786	0.0143087
691.864	0.0141552
691.943	0.0141827
692.021	0.0141520
692.099	0.0138247
692.177	0.0137132
692.255	0.0135721
692.333	0.0132726
692.411	0.0131236
692.489	0.0129942
692.568	0.0127682
692.646	0.0126647
692.724	0.0124233
692.802	0.0122888
692.880	0.0121513
692.958	0.0120367
693.036	0.0119923
693.114	0.0118137
693.193	0.0118700
693.271	0.0120849
693.349	0.0119048
693.427	0.0120467
693.505	0.0122018
693.583	0.0123523
693.661	0.0125041
693.739	0.0127058
693.818	0.0129160
693.896	0.0129328
693.974	0.0131494
694.052	0.0132782
694.130	0.0133032
694.208	0.0136786
694.286	0.0138609
694.364	0.0140654
694.443	0.0144209
694.521	0.0143295
694.599	0.0145125
694.677	0.0145573
694.755	0.0146629
694.833	0.0149041
694.911	0.0151193
694.989	0.0150710
695.068	0.0151988
695.146	0.0153112
695.224	0.0154581
695.302	0.0155132
695.380	0.0155581
695.458	0.0155731
695.536	0.0158625
695.614	0.0158669
695.693	0.0158406
695.771	0.0159572
695.849	0.0158589
695.927	0.0159507
696.005	0.0160049
696.083	0.0159326
696.161	0.0159491
696.239	0.0158014
696.318	0.0158075
696.396	0.0157827
696.474	0.0156924
696.552	0.0156660
696.630	0.0154846
696.708	0.0152955
696.786	0.0152719
696.864	0.0152094
696.943	0.0150626
697.021	0.0148038
697.099	0.0145677
697.177	0.0144836
697.255	0.0141628
697.333	0.0139746
697.411	0.0137161
697.489	0.0135320
697.568	0.0131580
697.646	0.0129926
697.724	0.0128146
697.802	0.0125279
697.880	0.0122433
697.958	0.0119583
698.036	0.0117075
698.114	0.0115434
698.193	0.0114336
698.271	0.0112163
698.349	0.0111278
698.427	0.0109960
698.505	0.0109931
698.583	0.0109756
698.661	0.0109480
698.739	0.0109771
698.818	0.0110368
698.896	0.0111004
698.974	0.0112050
699.052	0.0113569
699.130	0.0115989
699.208	0.0116206
699.286	0.0120080
699.364	0.0122865
699.443	0.0125577
699.521	0.0128761
699.599	0.0132329
699.677	0.0135485
699.755	0.0138575
699.833	0.0144147
699.911	0.0145832
699.989	0.0149448
700.068	0.0152370
700.146	0.0155458
700.224	0.0158447
700.302	0.0159532
700.380	0.0162788
700.458	0.0163782
700.536	0.0166270
700.614	0.0167501
700.693	0.0168464
700.771	0.0170821
700.849	0.0171378
700.927	0.0172234
701.005	0.0171393
701.083	0.0171041
701.161	0.0171577
701.239	0.0171909
701.318	0.0173640
701.396	0.0171232
701.474	0.0168565
701.552	0.0169677
701.630	0.0167184
701.708	0.0166681
701.786	0.0162749
701.864	0.0161574
701.943	0.0159236
702.021	0.0154102
702.099	0.0151215
702.177	0.0148010
702.255	0.0145331
702.333	0.0142009
702.411	0.0138187
702.489	0.0135905
702.568	0.0133187
702.646	0.0128772
702.724	0.0125692
702.802	0.0122787
702.880	0.0118996
702.958	0.0115864
703.036	0.0114658
703.114	0.0112526
703.193	0.0109308
703.271	0.0107082
703.349	0.0106256
703.427	0.0105563
703.505	0.0103856
703.583	0.0103863
703.661	0.0103278
703.739	0.0103489
703.818	0.0106364
703.896	0.0106490
703.974	0.0109750
704.052	0.0109023
704.130	0.0112141
704.208	0.0114677
704.286	0.0118155
704.364	0.0119146
704.443	0.0122759
704.521	0.0126013
704.599	0.0127654
704.677	0.0131965
704.755	0.0135703
704.833	0.0137416
704.911	0.0139571
704.989	0.0143095
705.068	0.0145982
705.146	0.0148907
705.224	0.0151530
705.302	0.0154411
705.380	0.0155689
705.458	0.0156631
705.536	0.0158997
705.614	0.0161861
705.693	0.0162560
705.771	0.0163872
705.849	0.0165966
705.927	0.0166397
706.005	0.0166915
706.083	0.0167036
706.161	0.0166706
706.239	0.0167815
706.318	0.0169166
706.396	0.0170063
706.474	0.0169231
706.552	0.0169527
706.630	0.0168689
706.708	0.0167738
706.786	0.0166562
706.864	0.0165851
706.943	0.0164730
707.021	0.0162202
707.099	0.0160876
707.177	0.0158311
707.255	0.0156707
707.333	0.0152733
707.411	0.0150652
707.489	0.0148141
707.568	0.0145430
707.646	0.0143254
707.724	0.0137366
707.802	0.0135860
707.880	0.0132680
707.958	0.0129330
708.036	0.0123839
708.114	0.0122659
708.193	0.0119228
708.271	0.0116362
708.349	0.0114045
708.427	0.0111410
708.505	0.0109519
708.583	0.0108316
708.661	0.0107166
708.739	0.0107067
708.818	0.0105834
708.896	0.0106499
708.974	0.0104730
709.052	0.0107320
709.130	0.0108575
709.208	0.0109778
709.286	0.0110375
709.364	0.0111152
709.443	0.0115344
709.521	0.0116328
709.599	0.0118095
709.677	0.0121121
709.755	0.0123888
709.833	0.0126053
709.911	0.0130032
709.989	0.0131835
710.068	0.0135841
710.146	0.0138121
710.224	0.0140179
710.302	0.0142600
710.380	0.0145863
710.458	0.0147156
710.536	0.0149754
710.614	0.0152159
710.693	0.0151634
710.771	0.0153452
710.849	0.0154203
710.927	0.0154945
711.005	0.0156171
711.083	0.0158524
711.161	0.0157841
711.239	0.0156738
711.318	0.0157458
711.396	0.0157232
711.474	0.0156966
711.552	0.0155962
711.630	0.0155106
711.708	0.0157465
711.786	0.0156039
711.864	0.0156792
711.943	0.0153799
712.021	0.0154174
712.099	0.0152235
712.177	0.0150056
712.255	0.0150823
712.333	0.0148026
712.411	0.0146616
712.489	0.0146929
712.568	0.0146137
712.646	0.0145263
712.724	0.0142295
712.802	0.0142093
712.880	0.0141378
712.958	0.0140122
713.036	0.0138152
713.114	0.0138343
713.193	0.0138523
713.271	0.0137453
713.349	0.0136983
713.427	0.0135830
713.505	0.0135758
713.583	0.0136253
713.661	0.0135304
713.739	0.0135865
713.818	0.0135801
713.896	0.0137054
713.974	0.0137172
714.052	0.0136150
714.130	0.0136212
714.208	0.0135779
714.286	0.0136237
714.364	0.0133225
714.443	0.0133934
714.521	0.0133497
714.599	0.0132751
714.677	0.0131892
714.755	0.0129830
714.833	0.0129307
714.911	0.0127053
714.989	0.0127549
715.068	0.0126199
715.146	0.0125082
715.224	0.0126543
715.302	0.0124047
715.380	0.0123549
715.458	0.0123811
715.536	0.0123796
715.614	0.0123561
715.693	0.0124000
715.771	0.0123926
715.849	0.0123721
715.927	0.0123743
716.005	0.0125193
716.083	0.0127689
716.161	0.0130048
716.239	0.0129959
716.318	0.0130062
716.396	0.0131206
716.474	0.0134495
716.552	0.0136703
716.630	0.0138142
716.708	0.0139513
716.786	0.0141441
716.864	0.0143956
716.943	0.0145222
717.021	0.0148569
717.099	0.0151479
717.177	0.0150587
717.255	0.0152232
717.333	0.0154449
717.411	0.0154772
717.489	0.0156561
717.568	0.0156551
717.646	0.0158667
717.724	0.0160413
717.802	0.0161144
717.880	0.0161758
717.958	0.0162070
718.036	0.0161196
718.114	0.0161663
718.193	0.0162215
718.271	0.0161364
718.349	0.0160454
718.427	0.0158632
718.505	0.0158509
718.583	0.0156222
718.661	0.0155553
718.739	0.0153621
718.818	0.0150867
718.896	0.0149390
718.974	0.0148854
719.052	0.0147192
719.130	0.0144037
719.208	0.0142638
719.286	0.0141975
719.364	0.0140038
719.443	0.0139859
719.521	0.0138625
719.599	0.0139105
719.677	0.0135046
719.755	0.0135745
719.833	0.0133589
719.911	0.0132346
719.989	0.0132716
720.068	0.0130865
720.146	0.0130596
720.224	0.0127958
720.302	0.0128673
720.380	0.0129051
720.458	0.0126035
720.536	0.0124840
720.614	0.0126879
720.693	0.0125179
720.771	0.0125211
720.849	0.0124446
720.927	0.0123877
721.005	0.0124110
721.083	0.0122636
721.161	0.0124978
721.239	0.0124061
721.318	0.0123656
721.396	0.0125724
721.474	0.0125960
721.552	0.0125508
721.630	0.0127934
721.708	0.0130450
721.786	0.0130066
721.864	0.0132349
721.943	0.0133675
722.021	0.0134538
722.099	0.0137394
722.177	0.0137685
722.255	0.0139555
722.333	0.0141074
722.411	0.0142785
722.489	0.0142245
722.568	0.0146028
722.646	0.0145930
722.724	0.0147761
722.802	0.0149137
722.880	0.0148848
722.958	0.0149972
723.036	0.0150840
723.114	0.0151173
723.193	0.0152074
723.271	0.0155337
723.349	0.0153428
723.427	0.0153088
723.505	0.0154159
723.583	0.0153986
723.661	0.0154836
723.739	0.0153931
723.818	0.0153780
723.896	0.0154029
723.974	0.0153927
724.052	0.0153172
724.130	0.0151238
724.208	0.0151290
724.286	0.0150559
724.364	0.0149758
724.443	0.0147490
724.521	0.0148322
724.599	0.0146836
724.677	0.0144588
724.755	0.0143018
724.833	0.0141456
724.911	0.0139114
724.989	0.0139355
725.068	0.0137980
725.146	0.0138105
725.224	0.0135046
725.302	0.0133779
725.380	0.0134335
725.458	0.0131907
725.536	0.0132533
725.614	0.0131461
725.693	0.0131073
725.771	0.0130839
725.849	0.0129840
725.927	0.0132121
726.005	0.0131103
726.083	0.0130853
726.161	0.0132214
726.239	0.0130678
726.318	0.0132925
726.396	0.0131845
726.474	0.0131752
726.552	0.0132900
726.630	0.0133115
726.708	0.0133912
726.786	0.0133646
726.864	0.0133239
726.943	0.0134168
727.021	0.0134443
727.099	0.0135048
727.177	0.0133116
727.255	0.0134163
727.333	0.0133711
727.411	0.0134777
727.489	0.0134924
727.568	0.0136411
727.646	0.0136038
727.724	0.0136942
727.802	0.0136823
727.880	0.0137823
727.958	0.0137557
728.036	0.0138222
728.114	0.0138703
728.193	0.0139536
728.271	0.0139474
728.349	0.0140263
728.427	0.0140187
728.505	0.0141539
728.583	0.0142128
728.661	0.0141598
728.739	0.0143731
728.818	0.0144765
728.896	0.0144564
728.974	0.0143931
729.052	0.0145689
729.130	0.0145995
729.208	0.0145553
729.286	0.0144387
729.364	0.0146217
729.443	0.0146531
729.521	0.0147196
729.599	0.0147395
729.677	0.0145603
729.755	0.0146857
729.833	0.0147356
729.911	0.0145650
729.989	0.0146717
730.068	0.0146153
730.146	0.0146896
730.224	0.0144936
730.302	0.0143919
730.380	0.0145273
730.458	0.0143536
730.536	0.0143789
730.614	0.0141572
730.693	0.0142142
730.771	0.0141592
730.849	0.0141147
730.927	0.0140553
731.005	0.0140701
731.083	0.0138894
731.161	0.0138268
731.239	0.0136061
731.318	0.0136362
731.396	0.0136362
731.474	0.0135709
731.552	0.0136459
731.630	0.0136772
731.708	0.0135033
731.786	0.0134217
731.864	0.0135919
731.943	0.0134707
732.021	0.0135768
732.099	0.0136813
732.177	0.0136252
732.255	0.0135663
732.333	0.0136171
732.411	0.0135361
732.489	0.0135542
732.568	0.0134967
732.646	0.0135143
732.724	0.0135084
732.802	0.0133662
732.880	0.0134070
732.958	0.0134576
733.036	0.0134097
733.114	0.0133459
733.193	0.0134681
733.271	0.0133054
733.349	0.0134782
733.427	0.0134074
733.505	0.0134590
733.583	0.0135641
733.661	0.0135461
733.739	0.0136115
733.818	0.0136118
733.896	0.0136863
733.974	0.0138417
734.052	0.0139593
734.130	0.0139740
734.208	0.0141374
734.286	0.0141190
734.364	0.0143763
734.443	0.0142837
734.521	0.0144606
734.599	0.0145215
734.677	0.0145525
734.755	0.0145408
734.833	0.0145756
734.911	0.0146669
734.989	0.0146232
735.068	0.0148515
735.146	0.0147530
735.224	0.0148303
735.302	0.0147633
735.380	0.0145668
735.458	0.0146746
735.536	0.0146682
735.614	0.0146387
735.693	0.0144382
735.771	0.0143945
735.849	0.0141920
735.927	0.0141032
736.005	0.0141357
736.083	0.0139471
736.161	0.0139561
736.239	0.0139373
736.318	0.0137589
736.396	0.0136149
736.474	0.0135195
736.552	0.0135133
736.630	0.0134885
736.708	0.0135464
736.786	0.0135454
736.864	0.0134229
736.943	0.0133508
737.021	0.0134586
737.099	0.0133913
737.177	0.0133349
737.255	0.0134086
737.333	0.0136228
737.411	0.0137003
737.489	0.0137444
737.568	0.0138149
737.646	0.0137212
737.724	0.0138253
737.802	0.0138434
737.880	0.0140199
737.958	0.0138398
738.036	0.0140166
738.114	0.0140282
738.193	0.0141646
738.271	0.0141317
738.349	0.0140887
738.427	0.0139730
738.505	0.0141283
738.583	0.0141637
738.661	0.0141512
738.739	0.0141481
738.818	0.0141050
738.896	0.0142476
738.974	0.0143537
739.052	0.0141808
739.130	0.0143211
739.208	0.0143672
739.286	0.0143958
739.364	0.0143833
739.443	0.0144527
739.521	0.0144352
739.599	0.0143779
739.677	0.0144633
739.755	0.0144341
739.833	0.0143843
739.911	0.0144777
739.989	0.0143282
740.068	0.0142383
740.146	0.0142910
740.224	0.0141792
740.302	0.0141366
740.380	0.0140654
740.458	0.0140296
740.536	0.0138667
740.614	0.0139545
740.693	0.0137466
740.771	0.0136708
740.849	0.0135150
740.927	0.0134872
741.005	0.0135355
741.083	0.0134302
741.161	0.0133110
741.239	0.0134599
741.318	0.0134518
741.396	0.0134079
741.474	0.0133116
741.552	0.0133784
741.630	0.0132314
741.708	0.0134753
741.786	0.0134218
741.864	0.0135824
741.943	0.0136740
742.021	0.0136800
742.099	0.0137749
742.177	0.0136118
742.255	0.0138775
742.333	0.0138902
742.411	0.0140372
742.489	0.0139164
742.568	0.0139747
742.646	0.0140675
742.724	0.0141582
742.802	0.0142728
742.880	0.0141766
742.958	0.0142363
743.036	0.0142149
743.114	0.0143141
743.193	0.0143047
743.271	0.0144288
743.349	0.0146011
743.427	0.0145266
743.505	0.0145255
743.583	0.0143816
743.661	0.0144801
743.739	0.0145021
743.818	0.0145163
743.896	0.0145557
743.974	0.0145102
744.052	0.0143884
744.130	0.0144599
744.208	0.0142797
744.286	0.0142317
744.364	0.0141825
744.443	0.0141744
744.521	0.0141412
744.599	0.0141073
744.677	0.0141261
744.755	0.0139104
744.833	0.0138803
744.911	0.0139539
744.989	0.0138538
745.068	0.0138714
745.146	0.0138542
745.224	0.0137608
745.302	0.0137108
745.380	0.0138236
745.458	0.0138065
745.536	0.0136462
745.614	0.0135899
745.693	0.0136403
745.771	0.0135445
745.849	0.0136411
745.927	0.0135562
746.005	0.0135063
746.083	0.0136823
746.161	0.0135835
746.239	0.0135786
746.318	0.0135446
746.396	0.0136698
746.474	0.0135783
746.552	0.0135321
746.630	0.0137321
746.708	0.0135439
746.786	0.0135651
746.864	0.0136928
746.943	0.0136111
747.021	0.0136673
747.099	0.0136885
747.177	0.0137290
747.255	0.0138860
747.333	0.0139249
747.411	0.0141159
747.489	0.0140562
747.568	0.0141433
747.646	0.0141493
747.724	0.0141853
747.802	0.0141287
747.880	0.0143085
747.958	0.0142282
748.036	0.0143076
748.114	0.0142732
748.193	0.0141955
748.271	0.0143185
748.349	0.0141296
748.427	0.0142043
748.505	0.0141410
748.583	0.0140195
748.661	0.0140319
748.739	0.0140047
748.818	0.0138582
748.896	0.0138201
748.974	0.0136703
749.052	0.0137701
749.130	0.0137719
749.208	0.0136291
749.286	0.0137103
749.364	0.0136329
749.443	0.0136065
749.521	0.0135735
749.599	0.0134570
749.677	0.0135601
749.755	0.0135794
749.833	0.0137382
749.911	0.0135580
749.989	0.0136636
750.068	0.0136155
750.146	0.0136242
750.224	0.0137833
750.302	0.0137178
750.380	0.0138644
750.458	0.0136241
750.536	0.0137463
750.614	0.0137301
750.693	0.0137112
750.771	0.0136842
750.849	0.0139101
750.927	0.0138020
751.005	0.0138799
751.083	0.0138953
751.161	0.0138503
751.239	0.0138508
751.318	0.0140428
751.396	0.0141528
751.474	0.0139610
751.552	0.0140948
751.630	0.0140955
751.708	0.0141555
751.786	0.0143501
751.864	0.0141776
751.943	0.0141785
752.021	0.0142709
752.099	0.0143354
752.177	0.0143747
752.255	0.0145168
752.333	0.0143821
752.411	0.0143019
752.489	0.0144325
752.568	0.0143883
752.646	0.0142974
752.724	0.0142847
752.802	0.0143710
752.880	0.0141925
752.958	0.0143167
753.036	0.0143018
753.114	0.0141508
753.193	0.0142381
753.271	0.0142268
753.349	0.0141469
753.427	0.0141235
753.505	0.0139688
753.583	0.0139803
753.661	0.0138150
753.739	0.0139364
753.818	0.0139828
753.896	0.0138840
753.974	0.0139700
754.052	0.0139993
754.130	0.0137981
754.208	0.0138541
754.286	0.0138728
754.364	0.0137108
754.443	0.0137855
754.521	0.0138374
754.599	0.0138129
754.677	0.0137203
754.755	0.0138219
754.833	0.0136880
754.911	0.0135723
754.989	0.0136798
755.068	0.0136423
755.146	0.0135847
755.224	0.0134861
755.302	0.0135688
755.380	0.0137856
755.458	0.0135890
755.536	0.0135966
755.614	0.0137396
755.693	0.0137032
755.771	0.0136980
755.849	0.0136745
755.927	0.0137524
756.005	0.0138309
756.083	0.0138275
756.161	0.0140316
756.239	0.0140341
756.318	0.0140390
756.396	0.0141367
756.474	0.0141428
756.552	0.0142336
756.630	0.0141110
756.708	0.0143422
756.786	0.0142795
756.864	0.0143085
756.943	0.0142599
757.021	0.0142804
757.099	0.0142833
757.177	0.0143828
757.255	0.0143471
757.333	0.0143168
757.411	0.0144694
757.489	0.0144301
757.568	0.0143513
757.646	0.0141159
757.724	0.0142912
757.802	0.0143111
757.880	0.0142133
757.958	0.0142864
758.036	0.0142629
758.114	0.0141376
758.193	0.0141377
758.271	0.0143198
758.349	0.0143679
758.427	0.0140956
758.505	0.0140386
758.583	0.0140880
758.661	0.0141972
758.739	0.0140822
758.818	0.0141310
758.896	0.0141246
758.974	0.0140971
759.052	0.0139833
759.130	0.0140931
759.208	0.0140561
759.286	0.0140006
759.364	0.0139672
759.443	0.0140577
759.521	0.0141347
759.599	0.0141043
759.677	0.0138904
759.755	0.0139780
759.833	0.0140290
759.911	0.0138302
759.989	0.0138783
760.068	0.0137904
760.146	0.0137495
760.224	0.0136278
760.302	0.0138400
760.380	0.0137508
760.458	0.0135788
760.536	0.0136949
760.614	0.0135931
760.693	0.0136978
760.771	0.0136633
760.849	0.0136463
760.927	0.0135358
761.005	0.0137055
761.083	0.0137277
761.161	0.0136660
761.239	0.0134975
761.318	0.0137276
761.396	0.0135699
761.474	0.0135899
761.552	0.0136057
761.630	0.0135905
761.708	0.0135657
761.786	0.0135794
761.864	0.0136969
761.943	0.0135677
762.021	0.0136989
762.099	0.0136623
762.177	0.0137117
762.255	0.0138351
762.333	0.0138254
762.411	0.0139910
762.489	0.0139366
762.568	0.0139626
762.646	0.0140978
762.724	0.0141150
762.802	0.0142111
762.880	0.0142793
762.958	0.0141497
763.036	0.0142677
763.114	0.0142943
763.193	0.0144492
763.271	0.0142290
763.349	0.0143124
763.427	0.0145566
763.505	0.0144183
763.583	0.0144633
763.661	0.0145853
763.739	0.0145106
763.818	0.0144659
763.896	0.0143915
763.974	0.0143332
764.052	0.0143781
764.130	0.0143594
764.208	0.0142726
764.286	0.0142857
764.364	0.0143347
764.443	0.0142912
764.521	0.0141969
764.599	0.0142982
764.677	0.0141807
764.755	0.0141628
764.833	0.0142644
764.911	0.0142941
764.989	0.0143687
765.068	0.0142840
765.146	0.0142725
765.224	0.0144693
765.302	0.0142140
765.380	0.0141772
765.458	0.0142543
765.536	0.0143229
765.614	0.0144705
765.693	0.0143453
765.771	0.0142641
765.849	0.0141818
765.927	0.0142004
766.005	0.0141042
766.083	0.0140382
766.161	0.0142883
766.239	0.0141326
766.318	0.0139811
766.396	0.0139838
766.474	0.0137933
766.552	0.0138829
766.630	0.0136393
766.708	0.0137437
766.786	0.0135912
766.864	0.0136304
766.943	0.0134532
767.021	0.0135739
767.099	0.0135017
767.177	0.0135141
767.255	0.0135881
767.333	0.0135897
767.411	0.0136127
767.489	0.0136453
767.568	0.0134650
767.646	0.0135334
767.724	0.0135625
767.802	0.0134961
767.880	0.0135326
767.958	0.0137292
768.036	0.0135873
768.114	0.0136420
768.193	0.0136837
768.271	0.0135661
768.349	0.0135888
768.427	0.0136114
768.505	0.0137761
768.583	0.0138795
768.661	0.0139172
768.739	0.0140087
768.818	0.0140315
768.896	0.0141382
768.974	0.0140512
769.052	0.0141782
769.130	0.0142540
769.208	0.0143012
769.286	0.0141875
769.364	0.0144778
769.443	0.0145732
769.521	0.0143888
769.599	0.0145298
769.677	0.0145647
769.755	0.0145330
769.833	0.0145303
769.911	0.0145093
769.989	0.0147167
770.068	0.0145768
770.146	0.0146385
770.224	0.0145663
770.302	0.0145359
770.380	0.0145016
770.458	0.0144286
770.536	0.0143197
770.614	0.0142724
770.693	0.0142448
770.771	0.0142497
770.849	0.0140866
770.927	0.0141563
771.005	0.0139916
771.083	0.0139735
771.161	0.0139585
771.239	0.0138158
771.318	0.0137754
771.396	0.0137723
771.474	0.0136329
771.552	0.0137336
771.630	0.0137409
771.708	0.0136411
771.786	0.0137124
771.864	0.0136259
771.943	0.0137320
772.021	0.0136824
772.099	0.0135631
772.177	0.0137126
772.255	0.0136150
772.333	0.0136835
772.411	0.0137498
772.489	0.0137097
772.568	0.0137422
772.646	0.0137987
772.724	0.0138499
772.802	0.0137926
772.880	0.0137571
772.958	0.0137105
773.036	0.0138424
773.114	0.0138037
773.193	0.0139806
773.271	0.0138885
773.349	0.0137375
773.427	0.0139590
773.505	0.0139274
773.583	0.0139700
773.661	0.0140169
773.739	0.0140832
773.818	0.0139692
773.896	0.0140831
773.974	0.0140828
774.052	0.0140637
774.130	0.0141203
774.208	0.0140989
774.286	0.0138799
774.364	0.0139834
774.443	0.0138925
774.521	0.0139761
774.599	0.0139260
774.677	0.0139567
774.755	0.0140138
774.833	0.0139653
774.911	0.0138704
774.989	0.0140761
775.068	0.0140205
775.146	0.0140917
775.224	0.0140669
775.302	0.0140228
775.380	0.0139632
775.458	0.0140271
775.536	0.0143587
775.614	0.0142896
775.693	0.0141818
775.771	0.0142526
775.849	0.0141675
775.927	0.0143088
776.005	0.0143703
776.083	0.0142760
776.161	0.0142346
776.239	0.0142133
776.318	0.0141800
776.396	0.0141927
776.474	0.0142261
776.552	0.0140363
776.630	0.0140759
776.708	0.0141722
776.786	0.0140955
776.864	0.0140842
776.943	0.0141805
777.021	0.0138664
777.099	0.0138242
777.177	0.0140224
777.255	0.0139957
777.333	0.0140973
777.411	0.0139687
777.489	0.0140084
777.568	0.0139443
777.646	0.0138163
777.724	0.0138025
777.802	0.0140031
777.880	0.0141454
777.958	0.0140002
778.036	0.0139193
778.114	0.0139584
778.193	0.0140314
778.271	0.0142365
778.349	0.0141792
778.427	0.0142245
778.505	0.0141496
778.583	0.0140233
778.661	0.0140693
778.739	0.0140479
778.818	0.0141433
778.896	0.0140733
778.974	0.0140954
779.052	0.0139817
779.130	0.0140179
779.208	0.0140571
779.286	0.0140278
779.364	0.0139256
779.443	0.0139361
779.521	0.0139934
779.599	0.0139434
779.677	0.0139008
779.755	0.0139021
779.833	0.0139019
779.911	0.0137848
779.989	0.0137904
780.068	0.0138032
780.146	0.0137723
780.224	0.0137170
780.302	0.0137233
780.380	0.0135812
780.458	0.0136494
780.536	0.0135707
780.614	0.0135394
780.693	0.0136411
780.771	0.0137572
780.849	0.0136565
780.927	0.0137474
781.005	0.0138046
781.083	0.0138626
781.161	0.0138491
781.239	0.0138443
781.318	0.0139446
781.396	0.0140511
781.474	0.0141700
781.552	0.0142022
781.630	0.0140514
781.708	0.0142265
781.786	0.0142532
781.864	0.0142361
781.943	0.0141579
782.021	0.0143300
782.099	0.0144727
782.177	0.0144361
782.255	0.0143488
782.333	0.0143369
782.411	0.0143312
782.489	0.0142358
782.568	0.0143462
782.646	0.0142439
782.724	0.0144251
782.802	0.0142175
782.880	0.0141569
782.958	0.0141238
783.036	0.0140848
783.114	0.0142249
783.193	0.0140068
783.271	0.0139701
783.349	0.0140516
783.427	0.0139581
783.505	0.0138148
783.583	0.0139232
783.661	0.0138821
783.739	0.0137630
783.818	0.0138100
783.896	0.0136253
783.974	0.0137293
784.052	0.0137576
784.130	0.0136493
784.208	0.0135671
784.286	0.0136465
784.364	0.0133662
784.443	0.0135002
784.521	0.0135932
784.599	0.0135378
784.677	0.0134115
784.755	0.0135993
784.833	0.0136940
784.911	0.0136932
784.989	0.0136411
785.068	0.0135430
785.146	0.0137495
785.224	0.0137813
785.302	0.0138209
785.380	0.0139312
785.458	0.0138290
785.536	0.0139534
785.614	0.0140178
785.693	0.0140150
785.771	0.0142063
785.849	0.0141693
785.927	0.0141414
786.005	0.0141228
786.083	0.0143151
786.161	0.0144648
786.239	0.0144139
786.318	0.0142818
786.396	0.0143742
786.474	0.0144587
786.552	0.0145901
786.630	0.0144815
786.708	0.0146066
786.786	0.0146090
786.864	0.0146965
786.943	0.0146485
787.021	0.0145709
787.099	0.0146587
787.177	0.0146048
787.255	0.0146665
787.333	0.0145548
787.411	0.0143649
787.489	0.0145155
787.568	0.0144830
787.646	0.0144763
787.724	0.0144572
787.802	0.0141508
787.880	0.0142360
787.958	0.0143176
788.036	0.0142361
788.114	0.0140778
788.193	0.0141254
788.271	0.0140941
788.349	0.0140724
788.427	0.0141080
788.505	0.0139056
788.583	0.0139249
788.661	0.0138564
788.739	0.0137604
788.818	0.0135526
788.896	0.0136838
788.974	0.0136916
789.052	0.0135000
789.130	0.0135529
789.208	0.0135677
789.286	0.0135133
789.364	0.0135453
789.443	0.0133405
789.521	0.0134789
789.599	0.0134251
789.677	0.0134428
789.755	0.0137175
789.833	0.0135741
789.911	0.0135342
789.989	0.0138021
790.068	0.0137724
790.146	0.0138467
790.224	0.0138789
790.302	0.0139292
790.380	0.0140197
790.458	0.0140601
790.536	0.0142288
790.614	0.0141949
790.693	0.0140896
790.771	0.0141971
790.849	0.0142059
790.927	0.0142585
791.005	0.0142747
791.083	0.0142825
791.161	0.0143703
791.239	0.0143662
791.318	0.0142708
791.396	0.0141113
791.474	0.0142683
791.552	0.0142935
791.630	0.0142749
791.708	0.0140657
791.786	0.0141854
791.864	0.0140554
791.943	0.0140838
792.021	0.0141693
792.099	0.0141730
792.177	0.0141527
792.255	0.0140855
792.333	0.0141656
792.411	0.0140604
792.489	0.0140440
792.568	0.0141000
792.646	0.0140873
792.724	0.0142011
792.802	0.0142663
792.880	0.0141923
792.958	0.0142154
793.036	0.0142416
793.114	0.0142578
793.193	0.0142945
793.271	0.0142030
793.349	0.0140768
793.427	0.0142262
793.505	0.0141221
793.583	0.0141994
793.661	0.0142343
793.739	0.0142791
793.818	0.0139912
793.896	0.0138704
793.974	0.0139959
794.052	0.0138786
794.130	0.0138746
794.208	0.0137057
794.286	0.0136626
794.364	0.0136546
794.443	0.0137865
794.521	0.0135665
794.599	0.0135713
794.677	0.0135766
794.755	0.0135682
794.833	0.0134319
794.911	0.0134402
794.989	0.0136068
795.068	0.0135680
795.146	0.0135775
795.224	0.0134203
795.302	0.0135380
795.380	0.0135871
795.458	0.0136781
795.536	0.0136478
795.614	0.0136427
795.693	0.0136464
795.771	0.0138284
795.849	0.0138326
795.927	0.0138371
796.005	0.0139502
796.083	0.0140176
796.161	0.0139437
796.239	0.0140534
796.318	0.0141908
796.396	0.0141414
796.474	0.0142526
796.552	0.0142414
796.630	0.0143491
796.708	0.0142770
796.786	0.0143886
796.864	0.0144465
796.943	0.0145443
797.021	0.0144994
797.099	0.0147584
797.177	0.0146697
797.255	0.0146967
797.333	0.0147739
797.411	0.0147983
797.489	0.0147443
797.568	0.0147243
797.646	0.0147973
797.724	0.0147569
797.802	0.0148025
797.880	0.0146753
797.958	0.0148307
798.036	0.0147971
798.114	0.0147085
798.193	0.0145501
798.271	0.0146274
798.349	0.0146055
798.427	0.0145037
798.505	0.0146531
798.583	0.0144559
798.661	0.0145118
798.739	0.0142896
798.818	0.0143203
798.896	0.0143057
798.974	0.0143030
799.052	0.0143469
799.130	0.0142018
799.208	0.0139633
799.286	0.0139378
799.364	0.0140047
799.443	0.0139068
799.521	0.0136675
799.599	0.0136629
799.677	0.0136189
799.755	0.0136204
799.833	0.0135045
799.911	0.0133153
799.989	0.0134264
800.068	0.0133149
800.146	0.0131799
800.224	0.0132165
800.302	0.0132446
800.380	0.0131870
800.458	0.0130873
800.536	0.0131647
800.614	0.0132553
800.693	0.0131325
800.771	0.0132253
800.849	0.0132308
800.927	0.0132866
801.005	0.0133120
801.083	0.0133330
801.161	0.0134933
801.239	0.0135963
801.318	0.0137112
801.396	0.0136153
801.474	0.0137241
801.552	0.0138272
801.630	0.0138582
801.708	0.0138647
801.786	0.0141804
801.864	0.0140779
801.943	0.0142971
802.021	0.0143550
802.099	0.0143588
802.177	0.0144547
802.255	0.0145895
802.333	0.0145452
802.411	0.0146285
802.489	0.0146832
802.568	0.0147562
802.646	0.0148270
802.724	0.0147165
802.802	0.0147709
802.880	0.0147984
802.958	0.0146854
803.036	0.0148188
803.114	0.0146310
803.193	0.0146476
803.271	0.0147239
803.349	0.0147228
803.427	0.0145390
803.505	0.0145760
803.583	0.0145827
803.661	0.0142911
803.739	0.0143618
803.818	0.0143403
803.896	0.0142784
803.974	0.0142666
804.052	0.0141452
804.130	0.0141221
804.208	0.0140084
804.286	0.0139422
804.364	0.0139377
804.443	0.0138564
804.521	0.0138042
804.599	0.0136798
804.677	0.0136119
804.755	0.0136228
804.833	0.0135327
804.911	0.0133776
804.989	0.0135167
805.068	0.0134303
805.146	0.0133044
805.224	0.0130995
805.302	0.0131551
805.380	0.0131782
805.458	0.0131389
805.536	0.0132607
805.614	0.0131396
805.693	0.0132382
805.771	0.0130269
805.849	0.0130466
805.927	0.0129900
806.005	0.0129833
806.083	0.0130573
806.161	0.0132529
806.239	0.0133624
806.318	0.0134801
806.396	0.0134183
806.474	0.0134155
806.552	0.0135176
806.630	0.0136046
806.708	0.0137682
806.786	0.0138393
806.864	0.0141062
806.943	0.0141685
807.021	0.0141484
807.099	0.0142771
807.177	0.0144332
807.255	0.0144185
807.333	0.0144981
807.411	0.0146160
807.489	0.0147469
807.568	0.0148347
807.646	0.0146957
807.724	0.0146124
807.802	0.0147292
807.880	0.0146646
807.958	0.0147444
808.036	0.0148993
808.114	0.0146447
808.193	0.0145654
808.271	0.0146973
808.349	0.0146387
808.427	0.0145338
808.505	0.0144530
808.583	0.0146444
808.661	0.0142905
808.739	0.0144060
808.818	0.0143745
808.896	0.0144136
808.974	0.0142548
809.052	0.0142973
809.130	0.0141315
809.208	0.0141376
809.286	0.0141618
809.364	0.0139041
809.443	0.0139465
809.521	0.0140266
809.599	0.0139205
809.677	0.0138209
809.755	0.0138293
809.833	0.0137967
809.911	0.0138343
809.989	0.0136194
810.068	0.0135651
810.146	0.0136630
810.224	0.0136054
810.302	0.0136063
810.380	0.0135590
810.458	0.0136694
810.536	0.0134572
810.614	0.0135063
810.693	0.0135841
810.771	0.0134458
810.849	0.0135787
810.927	0.0135863
811.005	0.0136597
811.083	0.0136835
811.161	0.0136432
811.239	0.0136186
811.318	0.0135643
811.396	0.0138220
811.474	0.0136997
811.552	0.0138358
811.630	0.0137482
811.708	0.0138556
811.786	0.0139172
811.864	0.0139231
811.943	0.0140276
812.021	0.0140712
812.099	0.0140821
812.177	0.0141956
812.255	0.0140327
812.333	0.0141066
812.411	0.0139363
812.489	0.0142387
812.568	0.0142668
812.646	0.0140555
812.724	0.0141135
812.802	0.0142348
812.880	0.0140910
812.958	0.0142056
813.036	0.0142063
813.114	0.0140070
813.193	0.0139524
813.271	0.0142140
813.349	0.0140536
813.427	0.0141565
813.505	0.0141014
813.583	0.0140147
813.661	0.0140244
813.739	0.0140596
813.818	0.0142003
813.896	0.0141477
813.974	0.0141959
814.052	0.0141742
814.130	0.0142222
814.208	0.0142020
814.286	0.0143080
814.364	0.0144757
814.443	0.0144376
814.521	0.0144159
814.599	0.0145960
814.677	0.0146564
814.755	0.0145631
814.833	0.0145327
814.911	0.0145467
814.989	0.0145420
815.068	0.0146160
815.146	0.0144358
815.224	0.0142998
815.302	0.0143484
815.380	0.0144362
815.458	0.0142274
815.536	0.0141383
815.614	0.0139348
815.693	0.0139769
815.771	0.0138656
815.849	0.0136674
815.927	0.0136649
816.005	0.0136129
816.083	0.0137096
816.161	0.0135807
816.239	0.0136042
816.318	0.0134167
816.396	0.0134590
816.474	0.0134755
816.552	0.0133589
816.630	0.0134123
816.708	0.0132580
816.786	0.0134238
816.864	0.0135396
816.943	0.0133593
817.021	0.0134755
817.099	0.0134367
817.177	0.0134010
817.255	0.0134077
817.333	0.0135141
817.411	0.0134451
817.489	0.0136171
817.568	0.0136210
817.646	0.0137000
817.724	0.0139391
817.802	0.0138531
817.880	0.0138991
817.958	0.0140376
818.036	0.0142054
818.114	0.0140964
818.193	0.0141588
818.271	0.0143612
818.349	0.0142292
818.427	0.0142628
818.505	0.0145023
818.583	0.0144887
818.661	0.0143771
818.739	0.0144317
818.818	0.0146577
818.896	0.0146291
818.974	0.0146574
819.052	0.0145210
819.130	0.0144808
819.208	0.0145638
819.286	0.0146247
819.364	0.0144632
819.443	0.0143871
819.521	0.0144341
819.599	0.0145152
819.677	0.0142873
819.755	0.0144321
819.833	0.0143654
819.911	0.0143324
819.989	0.0142597
820.068	0.0142409
820.146	0.0144262
820.224	0.0144533
820.302	0.0143079
820.380	0.0143471
820.458	0.0143021
820.536	0.0143340
820.614	0.0143708
820.693	0.0141458
820.771	0.0143243
820.849	0.0141030
820.927	0.0141432
821.005	0.0142356
821.083	0.0141927
821.161	0.0140376
821.239	0.0141707
821.318	0.0140618
821.396	0.0140100
821.474	0.0139501
821.552	0.0140120
821.630	0.0139808
821.708	0.0139433
821.786	0.0139604
821.864	0.0138405
821.943	0.0138243
822.021	0.0140324
822.099	0.0136801
822.177	0.0138829
822.255	0.0137823
822.333	0.0137152
822.411	0.0137830
822.489	0.0138729
822.568	0.0140791
822.646	0.0140367
822.724	0.0140416
822.802	0.0138734
822.880	0.0142404
822.958	0.0140466
823.036	0.0140535
823.114	0.0141747
823.193	0.0141615
823.271	0.0141177
823.349	0.0142161
823.427	0.0142218
823.505	0.0142433
823.583	0.0141087
823.661	0.0141655
823.739	0.0141927
823.818	0.0143140
823.896	0.0142625
823.974	0.0142503
824.052	0.0141441
824.130	0.0143462
824.208	0.0142082
824.286	0.0141209
824.364	0.0140803
824.443	0.0141475
824.521	0.0140324
824.599	0.0140217
824.677	0.0140363
824.755	0.0138319
824.833	0.0137961
824.911	0.0138493
824.989	0.0138012
825.068	0.0138892
825.146	0.0136053
825.224	0.0135264
825.302	0.0136687
825.380	0.0135683
825.458	0.0134485
825.536	0.0134765
825.614	0.0135268
825.693	0.0135246
825.771	0.0134037
825.849	0.0135165
825.927	0.0135315
826.005	0.0135215
826.083	0.0135373
826.161	0.0136804
826.239	0.0136324
826.318	0.0137448
826.396	0.0137295
826.474	0.0139036
826.552	0.0138426
826.630	0.0139306
826.708	0.0139823
826.786	0.0139398
826.864	0.0140070
826.943	0.0141422
827.021	0.0141933
827.099	0.0141799
827.177	0.0141354
827.255	0.0141193
827.333	0.0141156
827.411	0.0141727
827.489	0.0140240
827.568	0.0142229
827.646	0.0142091
827.724	0.0142172
827.802	0.0140278
827.880	0.0141552
827.958	0.0140648
828.036	0.0140160
828.114	0.0141396
828.193	0.0141278
828.271	0.0138845
828.349	0.0138765
828.427	0.0138716
828.505	0.0139644
828.583	0.0138353
828.661	0.0138335
828.739	0.0137489
828.818	0.0138096
828.896	0.0136761
828.974	0.0135716
829.052	0.0136432
829.130	0.0136852
829.208	0.0135985
829.286	0.0136690
829.364	0.0136873
829.443	0.0135267
829.521	0.0136067
829.599	0.0137402
829.677	0.0136778
829.755	0.0136380
829.833	0.0138419
829.911	0.0138071
829.989	0.0137435
830.068	0.0139181
830.146	0.0139421
830.224	0.0139261
830.302	0.0139677
830.380	0.0139045
830.458	0.0139592
830.536	0.0139689
830.614	0.0140580
830.693	0.0140776
830.771	0.0140858
830.849	0.0140839
830.927	0.0140912
831.005	0.0140405
831.083	0.0141893
831.161	0.0139493
831.239	0.0140486
831.318	0.0141130
831.396	0.0139285
831.474	0.0140620
831.552	0.0141003
831.630	0.0140623
831.708	0.0140162
831.786	0.0139249
831.864	0.0140023
831.943	0.0139739
832.021	0.0139968
832.099	0.0138304
832.177	0.0138673
832.255	0.0139447
832.333	0.0138018
832.411	0.0139152
832.489	0.0139124
832.568	0.0139523
832.646	0.0139120
832.724	0.0139862
832.802	0.0138844
832.880	0.0139080
832.958	0.0140412
833.036	0.0138493
833.114	0.0139932
833.193	0.0140471
833.271	0.0139742
833.349	0.0140294
833.427	0.0139957
833.505	0.0139294
833.583	0.0140656
833.661	0.0139109
833.739	0.0139749
833.818	0.0140015
833.896	0.0141538
833.974	0.0139745
834.052	0.0139900
834.130	0.0140106
834.208	0.0140524
834.286	0.0141026
834.364	0.0140640
834.443	0.0139410
834.521	0.0139810
834.599	0.0142230
834.677	0.0142290
834.755	0.0141740
834.833	0.0141194
834.911	0.0140968
834.989	0.0141503
835.068	0.0141823
835.146	0.0141278
835.224	0.0140816
835.302	0.0142755
835.380	0.0142699
835.458	0.0141054
835.536	0.0140955
835.614	0.0141224
835.693	0.0139816
835.771	0.0140092
835.849	0.0139841
835.927	0.0139588
836.005	0.0139900
836.083	0.0138035
836.161	0.0138386
836.239	0.0137530
836.318	0.0138418
836.396	0.0137652
836.474	0.0136399
836.552	0.0137582
836.630	0.0137068
836.708	0.0135206
836.786	0.0134827
836.864	0.0136770
836.943	0.0135833
837.021	0.0134996
837.099	0.0134733
837.177	0.0134626
837.255	0.0134819
837.333	0.0135902
837.411	0.0137069
837.489	0.0136310
837.568	0.0135563
837.646	0.0136168
837.724	0.0136559
837.802	0.0136023
837.880	0.0138723
837.958	0.0137719
838.036	0.0139455
838.114	0.0139412
838.193	0.0140228
838.271	0.0141167
838.349	0.0142151
838.427	0.0141526
838.505	0.0140521
838.583	0.0144646
838.661	0.0144425
838.739	0.0143681
838.818	0.0144053
838.896	0.0145365
838.974	0.0144106
839.052	0.0145712
839.130	0.0145110
839.208	0.0144801
839.286	0.0144817
839.364	0.0144553
839.443	0.0143650
839.521	0.0144765
839.599	0.0143443
839.677	0.0143823
839.755	0.0141421
839.833	0.0141611
839.911	0.0141641
839.989	0.0142229
840.068	0.0140818
840.146	0.0139220
840.224	0.0138129
840.302	0.0139690
840.380	0.0139264
840.458	0.0138275
840.536	0.0137771
840.614	0.0137602
840.693	0.0137756
840.771	0.0138086
840.849	0.0136727
840.927	0.0137827
841.005	0.0137036
841.083	0.0135572
841.161	0.0136292
841.239	0.0137488
841.318	0.0136371
841.396	0.0136111
841.474	0.0137254
841.552	0.0137090
841.630	0.0137677
841.708	0.0137440
841.786	0.0136863
841.864	0.0136243
841.943	0.0137556
842.021	0.0137463
842.099	0.0137803
842.177	0.0138400
842.255	0.0138026
842.333	0.0137907
842.411	0.0138897
842.489	0.0137694
842.568	0.0137908
842.646	0.0139793
842.724	0.0139478
842.802	0.0140900
842.880	0.0139676
842.958	0.0140127
843.036	0.0140475
843.114	0.0139755
843.193	0.0140977
843.271	0.0141901
843.349	0.0140868
843.427	0.0140253
843.505	0.0140761
843.583	0.0141953
843.661	0.0140866
843.739	0.0140010
843.818	0.0139507
843.896	0.0139698
843.974	0.0140335
844.052	0.0140126
844.130	0.0140227
844.208	0.0141112
844.286	0.0139525
844.364	0.0140096
844.443	0.0139912
844.521	0.0139890
844.599	0.0140488
844.677	0.0142206
844.755	0.0140759
844.833	0.0140683
844.911	0.0140627
844.989	0.0141295
845.068	0.0141579
845.146	0.0141393
845.224	0.0141373
845.302	0.0141740
845.380	0.0142871
845.458	0.0142887
845.536	0.0142928
845.614	0.0142879
845.693	0.0142952
845.771	0.0142674
845.849	0.0141810
845.927	0.0142383
846.005	0.0141902
846.083	0.0141267
846.161	0.0140646
846.239	0.0141222
846.318	0.0139923
846.396	0.0139261
846.474	0.0139906
846.552	0.0138734
846.630	0.0138859
846.708	0.0137566
846.786	0.0137159
846.864	0.0137595
846.943	0.0137275
847.021	0.0137471
847.099	0.0137636
847.177	0.0136927
847.255	0.0136797
847.333	0.0136969
847.411	0.0137565
847.489	0.0137809
847.568	0.0137280
847.646	0.0137184
847.724	0.0137556
847.802	0.0136522
847.880	0.0138183
847.958	0.0137016
848.036	0.0136926
848.114	0.0135545
848.193	0.0138377
848.271	0.0137721
848.349	0.0137756
848.427	0.0138118
848.505	0.0138911
848.583	0.0139713
848.661	0.0139463
848.739	0.0139761
848.818	0.0139029
848.896	0.0139043
848.974	0.0140331
849.052	0.0139837
849.130	0.0141100
849.208	0.0139712
849.286	0.0140539
849.364	0.0141820
849.443	0.0140562
849.521	0.0141048
849.599	0.0140543
849.677	0.0142080
849.755	0.0141104
849.833	0.0140356
849.911	0.0140716
849.989	0.0142787
850.068	0.0140742
850.146	0.0141166
850.224	0.0141463
850.302	0.0140788
850.380	0.0140407
850.458	0.0140200
850.536	0.0140869
850.614	0.0140245
850.693	0.0139967
850.771	0.0138010
850.849	0.0138950
850.927	0.0139072
851.005	0.0138823
851.083	0.0137742
851.161	0.0138162
851.239	0.0138976
851.318	0.0137394
851.396	0.0137395
851.474	0.0139102
851.552	0.0137850
851.630	0.0138481
851.708	0.0138315
851.786	0.0138009
851.864	0.0138171
851.943	0.0138718
852.021	0.0139776
852.099	0.0138808
852.177	0.0138545
852.255	0.0138236
852.333	0.0139137
852.411	0.0137719
852.489	0.0139434
852.568	0.0139871
852.646	0.0139846
852.724	0.0140504
852.802	0.0140903
852.880	0.0139919
852.958	0.0140100
853.036	0.0140567
853.114	0.0139919
853.193	0.0138080
853.271	0.0140211
853.349	0.0139808
853.427	0.0139622
853.505	0.0139510
853.583	0.0139007
853.661	0.0139478
853.739	0.0139812
853.818	0.0139193
853.896	0.0139603
853.974	0.0137524
854.052	0.0137801
854.130	0.0139614
854.208	0.0139105
854.286	0.0139241
854.364	0.0138210
854.443	0.0138807
854.521	0.0137840
854.599	0.0138887
854.677	0.0139329
854.755	0.0138511
854.833	0.0139777
854.911	0.0139460
854.989	0.0140652
855.068	0.0140723
855.146	0.0140748
855.224	0.0140879
855.302	0.0141000
855.380	0.0141339
855.458	0.0141163
855.536	0.0141502
855.614	0.0141422
855.693	0.0141509
855.771	0.0140852
855.849	0.0141812
855.927	0.0141241
856.005	0.0142260
856.083	0.0140863
856.161	0.0141043
856.239	0.0140340
856.318	0.0140814
856.396	0.0141005
856.474	0.0142376
856.552	0.0140803
856.630	0.0141452
856.708	0.0140048
856.786	0.0140887
856.864	0.0140571
856.943	0.0141511
857.021	0.0141244
857.099	0.0140820
857.177	0.0139817
857.255	0.0140803
857.333	0.0141412
857.411	0.0142004
857.489	0.0139767
857.568	0.0139648
857.646	0.0140218
857.724	0.0139295
857.802	0.0138698
857.880	0.0138370
857.958	0.0138052
858.036	0.0138987
858.114	0.0138317
858.193	0.0138427
858.271	0.0138138
858.349	0.0138192
858.427	0.0138284
858.505	0.0139169
858.583	0.0137684
858.661	0.0139703
858.739	0.0138086
858.818	0.0139622
858.896	0.0139710
858.974	0.0138415
859.052	0.0139080
859.130	0.0139179
859.208	0.0138181
859.286	0.0138232
859.364	0.0138123
859.443	0.0139954
859.521	0.0140472
859.599	0.0139915
859.677	0.0138969
859.755	0.0140200
859.833	0.0140230
859.911	0.0139419
859.989	0.0140502
860.068	0.0140965
860.146	0.0140061
860.224	0.0140429
860.302	0.0141748
860.380	0.0141932
860.458	0.0141598
860.536	0.0140594
860.614	0.0141689
860.693	0.0142160
860.771	0.0141525
860.849	0.0143057
860.927	0.0142587
861.005	0.0142779
861.083	0.0142281
861.161	0.0141905
861.239	0.0141901
861.318	0.0143103
861.396	0.0142822
861.474	0.0143155
861.552	0.0143356
861.630	0.0143684
861.708	0.0143604
861.786	0.0144400
861.864	0.0142868
861.943	0.0142420
862.021	0.0141325
862.099	0.0142607
862.177	0.0140554
862.255	0.0142570
862.333	0.0142248
862.411	0.0140921
862.489	0.0140398
862.568	0.0139563
862.646	0.0139494
862.724	0.0141009
862.802	0.0140022
862.880	0.0139292
862.958	0.0140244
863.036	0.0138660
863.114	0.0137876
863.193	0.0138046
863.271	0.0138307
863.349	0.0138134
863.427	0.0136430
863.505	0.0138520
863.583	0.0140031
863.661	0.0138574
863.739	0.0138248
863.818	0.0137739
863.896	0.0138453
863.974	0.0138699
864.052	0.0138016
864.130	0.0138662
864.208	0.0138257
864.286	0.0138235
864.364	0.0138292
864.443	0.0138634
864.521	0.0138893
864.599	0.0138905
864.677	0.0138635
864.755	0.0137161
864.833	0.0137592
864.911	0.0137637
864.989	0.0138140
865.068	0.0138165
865.146	0.0137728
865.224	0.0138892
865.302	0.0137312
865.380	0.0137977
865.458	0.0137711
865.536	0.0136671
865.614	0.0137306
865.693	0.0137798
865.771	0.0138992
865.849	0.0139023
865.927	0.0137213
866.005	0.0140382
866.083	0.0139117
866.161	0.0138981
866.239	0.0139801
866.318	0.0141026
866.396	0.0139283
866.474	0.0140086
866.552	0.0141145
866.630	0.0139606
866.708	0.0142287
866.786	0.0142169
866.864	0.0143065
866.943	0.0140412
867.021	0.0141799
867.099	0.0140453
867.177	0.0141811
867.255	0.0141729
867.333	0.0139668
867.411	0.0142234
867.489	0.0141012
867.568	0.0141016
867.646	0.0141178
867.724	0.0140681
867.802	0.0140778
867.880	0.0139957
867.958	0.0139876
868.036	0.0138409
868.114	0.0138013
868.193	0.0138900
868.271	0.0137865
868.349	0.0140075
868.427	0.0138512
868.505	0.0137903
868.583	0.0138526
868.661	0.0138416
868.739	0.0138582
868.818	0.0138123
868.896	0.0137653
868.974	0.0138746
869.052	0.0139280
869.130	0.0139037
869.208	0.0137515
869.286	0.0137567
869.364	0.0137830
869.443	0.0138004
869.521	0.0139078
869.599	0.0138152
869.677	0.0137704
869.755	0.0139844
869.833	0.0138187
869.911	0.0138586
869.989	0.0138509
870.068	0.0139014
870.146	0.0140874
870.224	0.0139585
870.302	0.0139829
870.380	0.0139727
870.458	0.0140994
870.536	0.0141109
870.614	0.0140144
870.693	0.0140260
870.771	0.0140620
870.849	0.0141002
870.927	0.0142258
871.005	0.0141169
871.083	0.0141206
871.161	0.0140592
871.239	0.0140453
871.318	0.0140248
871.396	0.0140743
871.474	0.0140545
871.552	0.0139089
871.630	0.0140276
871.708	0.0141296
871.786	0.0140022
871.864	0.0139340
871.943	0.0139552
872.021	0.0140600
872.099	0.0138224
872.177	0.0139881
872.255	0.0140639
872.333	0.0140050
872.411	0.0139674
872.489	0.0140695
872.568	0.0140279
872.646	0.0139841
872.724	0.0141518
872.802	0.0140143
872.880	0.0142020
872.958	0.0141447
873.036	0.0140953
873.114	0.0142110
873.193	0.0142126
873.271	0.0142065
873.349	0.0141811
873.427	0.0142618
873.505	0.0141863
873.583	0.0140884
873.661	0.0141826
873.739	0.0141686
873.818	0.0142262
873.896	0.0141608
873.974	0.0139932
874.052	0.0140790
874.130	0.0140272
874.208	0.0140112
874.286	0.0139832
874.364	0.0139881
874.443	0.0140864
874.521	0.0139217
874.599	0.0139091
874.677	0.0138987
874.755	0.0137255
874.833	0.0138499
874.911	0.0141144
874.989	0.0138440
875.068	0.0137646
875.146	0.0139159
875.224	0.0139616
875.302	0.0137859
875.380	0.0138359
875.458	0.0137739
875.536	0.0139230
875.614	0.0140419
875.693	0.0139811
875.771	0.0139388
875.849	0.0139400
875.927	0.0140765
876.005	0.0139979
876.083	0.0138824
876.161	0.0139484
876.239	0.0141215
876.318	0.0139934
876.396	0.0137630
876.474	0.0138306
876.552	0.0140279
876.630	0.0139128
876.708	0.0139141
876.786	0.0139780
876.864	0.0138883
876.943	0.0139014
877.021	0.0138696
877.099	0.0139223
877.177	0.0140132
877.255	0.0139969
877.333	0.0140100
877.411	0.0139886
877.489	0.0140813
877.568	0.0142026
877.646	0.0140585
877.724	0.0140472
877.802	0.0141482
877.880	0.0141806
877.958	0.0141058
878.036	0.0139637
878.114	0.0140585
878.193	0.0140329
878.271	0.0140536
878.349	0.0139010
878.427	0.0138998
878.505	0.0139194
878.583	0.0138669
878.661	0.0139998
878.739	0.0139815
878.818	0.0138396
878.896	0.0137839
878.974	0.0138623
879.052	0.0136772
879.130	0.0138675
879.208	0.0138514
879.286	0.0136701
879.364	0.0136629
879.443	0.0138282
879.521	0.0139727
879.599	0.0139268
879.677	0.0138744
879.755	0.0140324
879.833	0.0139400
879.911	0.0139718
879.989	0.0140084
880.068	0.0140485
880.146	0.0140017
880.224	0.0140648
880.302	0.0141837
880.380	0.0142063
880.458	0.0141798
880.536	0.0142889
880.614	0.0140928
880.693	0.0141322
880.771	0.0140973
880.849	0.0141873
880.927	0.0141653
881.005	0.0141148
881.083	0.0140385
881.161	0.0140851
881.239	0.0139726
881.318	0.0140361
881.396	0.0139851
881.474	0.0138536
881.552	0.0138590
881.630	0.0139841
881.708	0.0138642
881.786	0.0138333
881.864	0.0138657
881.943	0.0138042
882.021	0.0137340
882.099	0.0137343
882.177	0.0137332
882.255	0.0140445
882.333	0.0137856
882.411	0.0138427
882.489	0.0137192
882.568	0.0138470
882.646	0.0139893
882.724	0.0139571
882.802	0.0138557
882.880	0.0139974
882.958	0.0139861
883.036	0.0140396
883.114	0.0140503
883.193	0.0141368
883.271	0.0141970
883.349	0.0140942
883.427	0.0141334
883.505	0.0143939
883.583	0.0141832
883.661	0.0143579
883.739	0.0140849
883.818	0.0141391
883.896	0.0142382
883.974	0.0140381
884.052	0.0140456
884.130	0.0141051
884.208	0.0140147
884.286	0.0140650
884.364	0.0140018
884.443	0.0137496
884.521	0.0139722
884.599	0.0139332
884.677	0.0139240
884.755	0.0137510
884.833	0.0138794
884.911	0.0140457
884.989	0.0138223
885.068	0.0138923
885.146	0.0138769
885.224	0.0138503
885.302	0.0138556
885.380	0.0138736
885.458	0.0139384
885.536	0.0139225
885.614	0.0138676
885.693	0.0139326
885.771	0.0140575
885.849	0.0138947
885.927	0.0139413
886.005	0.0140532
886.083	0.0139576
886.161	0.0139806
886.239	0.0140878
886.318	0.0138364
886.396	0.0140201
886.474	0.0139178
886.552	0.0139637
886.630	0.0140593
886.708	0.0139278
886.786	0.0139902
886.864	0.0140431
886.943	0.0139177
887.021	0.0140128
887.099	0.0139500
887.177	0.0140848
887.255	0.0140337
887.333	0.0138964
887.411	0.0139357
887.489	0.0140500
887.568	0.0139344
887.646	0.0140128
887.724	0.0140286
887.802	0.0140177
887.880	0.0140981
887.958	0.0139150
888.036	0.0140952
888.114	0.0140884
888.193	0.0140361
888.271	0.0141628
888.349	0.0140886
888.427	0.0141839
888.505	0.0140167
888.583	0.0140659
888.661	0.0141020
888.739	0.0141389
888.818	0.0141593
888.896	0.0140745
888.974	0.0139953
889.052	0.0141377
889.130	0.0139909
889.208	0.0140141
889.286	0.0139827
889.364	0.0139169
889.443	0.0139294
889.521	0.0139413
889.599	0.0138012
889.677	0.0139182
889.755	0.0138784
889.833	0.0137185
889.911	0.0138147
889.989	0.0137645
890.068	0.0138557
890.146	0.0136423
890.224	0.0137643
890.302	0.0139268
890.380	0.0138644
890.458	0.0138066
890.536	0.0138962
890.614	0.0137772
890.693	0.0139355
890.771	0.0139315
890.849	0.0138089
890.927	0.0139008
891.005	0.0140301
891.083	0.0139993
891.161	0.0139627
891.239	0.0140061
891.318	0.0140457
891.396	0.0140666
891.474	0.0139891
891.552	0.0140919
891.630	0.0142109
891.708	0.0140576
891.786	0.0141168
891.864	0.0140485
891.943	0.0141009
892.021	0.0141080
892.099	0.0140870
892.177	0.0141710
892.255	0.0140516
892.333	0.0140546
892.411	0.0140968
892.489	0.0141627
892.568	0.0140816
892.646	0.0141024
892.724	0.0140218
892.802	0.0140577
892.880	0.0139552
892.958	0.0139536
893.036	0.0141125
893.114	0.0140347
893.193	0.0139571
893.271	0.0140888
893.349	0.0139693
893.427	0.0140245
893.505	0.0138674
893.583	0.0139136
893.661	0.0140698
893.739	0.0140288
893.818	0.0140694
893.896	0.0139261
893.974	0.0139239
894.052	0.0139371
894.130	0.0140436
894.208	0.0138275
894.286	0.0139308
894.364	0.0138857
894.443	0.0138103
894.521	0.0137666
894.599	0.0138811
894.677	0.0138445
894.755	0.0136534
894.833	0.0137250
894.911	0.0138562
894.989	0.0137920
895.068	0.0138451
895.146	0.0137083
895.224	0.0138059
895.302	0.0139034
895.380	0.0137742
895.458	0.0138769
895.536	0.0139612
895.614	0.0138824
895.693	0.0138898
895.771	0.0139088
895.849	0.0140383
895.927	0.0140429
896.005	0.0140151
896.083	0.0140510
896.161	0.0140600
896.239	0.0140328
896.318	0.0140604
896.396	0.0140910
896.474	0.0140862
896.552	0.0140522
896.630	0.0141032
896.708	0.0142075
896.786	0.0140034
896.864	0.0139506
896.943	0.0139884
897.021	0.0139600
897.099	0.0140376
897.177	0.0140604
897.255	0.0139564
897.333	0.0139350
897.411	0.0138892
897.489	0.0140334
897.568	0.0139832
897.646	0.0138857
897.724	0.0138148
897.802	0.0140033
897.880	0.0139264
897.958	0.0138754
898.036	0.0140182
898.114	0.0139600
898.193	0.0139570
898.271	0.0140067
898.349	0.0139005
898.427	0.0140105
898.505	0.0140099
898.583	0.0139430
898.661	0.0139886
898.739	0.0139333
898.818	0.0139198
898.896	0.0139274
898.974	0.0138943
899.052	0.0140051
899.130	0.0138693
899.208	0.0140297
899.286	0.0139743
899.364	0.0139232
899.443	0.0139160
899.521	0.0138622
899.599	0.0138533
899.677	0.0139377
899.755	0.0140986
899.833	0.0137978
899.911	0.0138708
899.989	0.0138116
900.068	0.0137875
900.146	0.0138930
900.224	0.0138177
900.302	0.0138760
900.380	0.0139678
900.458	0.0140356
900.536	0.0138318
900.614	0.0141212
900.693	0.0139229
900.771	0.0140562
900.849	0.0140287
900.927	0.0139594
901.005	0.0141487
901.083	0.0140245
901.161	0.0140154
901.239	0.0141319
901.318	0.0141528
901.396	0.0143459
901.474	0.0141770
901.552	0.0141058
901.630	0.0141753
901.708	0.0140794
901.786	0.0141412
901.864	0.0142062
901.943	0.0141842
902.021	0.0141674
902.099	0.0140630
902.177	0.0142100
902.255	0.0141972
902.333	0.0142480
902.411	0.0141521
902.489	0.0142134
902.568	0.0141687
902.646	0.0141483
902.724	0.0141239
902.802	0.0141482
902.880	0.0142473
902.958	0.0140063
903.036	0.0140627
903.114	0.0141807
903.193	0.0142387
903.271	0.0140963
903.349	0.0140751
903.427	0.0140918
903.505	0.0141569
903.583	0.0142232
903.661	0.0139417
903.739	0.0140775
903.818	0.0141370
903.896	0.0140505
903.974	0.0139132
904.052	0.0138936
904.130	0.0138650
904.208	0.0139989
904.286	0.0138605
904.364	0.0138150
904.443	0.0137710
904.521	0.0139317
904.599	0.0139191
904.677	0.0138367
904.755	0.0138766
904.833	0.0137924
904.911	0.0138406
904.989	0.0137926
905.068	0.0137920
905.146	0.0138786
905.224	0.0139442
905.302	0.0138638
905.380	0.0137486
905.458	0.0138573
905.536	0.0139227
905.614	0.0140910
905.693	0.0139543
905.771	0.0140162
905.849	0.0137685
905.927	0.0141449
906.005	0.0139401
906.083	0.0141228
906.161	0.0140721
906.239	0.0141365
906.318	0.0140884
906.396	0.0140293
906.474	0.0140544
906.552	0.0141069
906.630	0.0141505
906.708	0.0141251
906.786	0.0140011
906.864	0.0140541
906.943	0.0139091
907.021	0.0141358
907.099	0.0141061
907.177	0.0141561
907.255	0.0141636
907.333	0.0141307
907.411	0.0140862
907.489	0.0141275
907.568	0.0139852
907.646	0.0140463
907.724	0.0141447
907.802	0.0140436
907.880	0.0139455
907.958	0.0140150
908.036	0.0140235
908.114	0.0140654
908.193	0.0140368
908.271	0.0139966
908.349	0.0141015
908.427	0.0140868
908.505	0.0140068
908.583	0.0141233
908.661	0.0139413
908.739	0.0139084
908.818	0.0140427
908.896	0.0137541
908.974	0.0138605
909.052	0.0139839
909.130	0.0138274
909.208	0.0138898
909.286	0.0138988
909.364	0.0138286
909.443	0.0138554
909.521	0.0138068
909.599	0.0139600
909.677	0.0137157
909.755	0.0137367
909.833	0.0138779
909.911	0.0139324
909.989	0.0137466
910.068	0.0137967
910.146	0.0137936
910.224	0.0137650
910.302	0.0137014
910.380	0.0138126
910.458	0.0139832
910.536	0.0138554
910.614	0.0137670
910.693	0.0140237
910.771	0.0138653
910.849	0.0138937
910.927	0.0140125
911.005	0.0141661
911.083	0.0142147
911.161	0.0140922
911.239	0.0140993
911.318	0.0141309
911.396	0.0140779
911.474	0.0143371
911.552	0.0142112
911.630	0.0141176
911.708	0.0143871
911.786	0.0141198
911.864	0.0142357
911.943	0.0142162
912.021	0.0142631
912.099	0.0142605
912.177	0.0143096
912.255	0.0140757
912.333	0.0142492
912.411	0.0142577
912.489	0.0141066
912.568	0.0140990
912.646	0.0140263
912.724	0.0140283
912.802	0.0139790
912.880	0.0139325
912.958	0.0139031
913.036	0.0138866
913.114	0.0138863
913.193	0.0137675
913.271	0.0137672
913.349	0.0137793
913.427	0.0139643
913.505	0.0137209
913.583	0.0138337
913.661	0.0138927
913.739	0.0136827
913.818	0.0139810
913.896	0.0138503
913.974	0.0138524
914.052	0.0138727
914.130	0.0139545
914.208	0.0139503
914.286	0.0139444
914.364	0.0140285
914.443	0.0140309
914.521	0.0139909
914.599	0.0139716
914.677	0.0139337
914.755	0.0139334
914.833	0.0140543
914.911	0.0139803
914.989	0.0138293
915.068	0.0138578
915.146	0.0139658
915.224	0.0139689
915.302	0.0140267
915.380	0.0140080
915.458	0.0139970
915.536	0.0139358
915.614	0.0139890
915.693	0.0139993
915.771	0.0140969
915.849	0.0140533
915.927	0.0140823
916.005	0.0141908
916.083	0.0142117
916.161	0.0139916
916.239	0.0140733
916.318	0.0141417
916.396	0.0141524
916.474	0.0141926
916.552	0.0142006
916.630	0.0140579
916.708	0.0141746
916.786	0.0139967
916.864	0.0141905
916.943	0.0141074
917.021	0.0141775
917.099	0.0141615
917.177	0.0140741
917.255	0.0140847
917.333	0.0141451
917.411	0.0142237
917.489	0.0140981
917.568	0.0141016
917.646	0.0141062
917.724	0.0140153
917.802	0.0141782
917.880	0.0140884
917.958	0.0139815
918.036	0.0139752
918.114	0.0140797
918.193	0.0140350
918.271	0.0139563
918.349	0.0139017
918.427	0.0139417
918.505	0.0139820
918.583	0.0140036
918.661	0.0140178
918.739	0.0139533
918.818	0.0139653
918.896	0.0139928
918.974	0.0139873
919.052	0.0139406
919.130	0.0138805
919.208	0.0139960
919.286	0.0139916
919.364	0.0140791
919.443	0.0140060
919.521	0.0139963
919.599	0.0140623
919.677	0.0141231
919.755	0.0140399
919.833	0.0140009
919.911	0.0141237
919.989	0.0141456
920.068	0.0140938
920.146	0.0141960
920.224	0.0141380
920.302	0.0140902
920.380	0.0141088
920.458	0.0141676
920.536	0.0142050
920.614	0.0140518
920.693	0.0139181
920.771	0.0140438
920.849	0.0140831
920.927	0.0139424
921.005	0.0140186
921.083	0.0140182
921.161	0.0138263
921.239	0.0138495
921.318	0.0139356
921.396	0.0140282
921.474	0.0139780
921.552	0.0140675
921.630	0.0139663
921.708	0.0139929
921.786	0.0139928
921.864	0.0139328
921.943	0.0139413
922.021	0.0140028
922.099	0.0140759
922.177	0.0140115
922.255	0.0139188
922.333	0.0139631
922.411	0.0140031
922.489	0.0139102
922.568	0.0140344
922.646	0.0140697
922.724	0.0140549
922.802	0.0141113
922.880	0.0140559
922.958	0.0141913
923.036	0.0142439
923.114	0.0141447
923.193	0.0141475
923.271	0.0141738
923.349	0.0142714
923.427	0.0141582
923.505	0.0141230
923.583	0.0143932
923.661	0.0141862
923.739	0.0142181
923.818	0.0143023
923.896	0.0142266
923.974	0.0141759
924.052	0.0140881
924.130	0.0139874
924.208	0.0140182
924.286	0.0141796
924.364	0.0140823
924.443	0.0139339
924.521	0.0139379
924.599	0.0139231
924.677	0.0140141
924.755	0.0140189
924.833	0.0139874
924.911	0.0140137
924.989	0.0139136
925.068	0.0139244
925.146	0.0139680
925.224	0.0140101
925.302	0.0141656
925.380	0.0139958
925.458	0.0139474
925.536	0.0139244
925.614	0.0140913
925.693	0.0141776
925.771	0.0140110
925.849	0.0140707
925.927	0.0139880
926.005	0.0139211
926.083	0.0139416
926.161	0.0140547
926.239	0.0139519
926.318	0.0139902
926.396	0.0139201
926.474	0.0140046
926.552	0.0138052
926.630	0.0138840
926.708	0.0138804
926.786	0.0139876
926.864	0.0138933
926.943	0.0137403
927.021	0.0139781
927.099	0.0139656
927.177	0.0139817
927.255	0.0138290
927.333	0.0137635
927.411	0.0139898
927.489	0.0139143
927.568	0.0138970
927.646	0.0140902
927.724	0.0138143
927.802	0.0138791
927.880	0.0139909
927.958	0.0138983
928.036	0.0139446
928.114	0.0138030
928.193	0.0139998
928.271	0.0141519
928.349	0.0138620
928.427	0.0139131
928.505	0.0140557
928.583	0.0139495
928.661	0.0140284
928.739	0.0139577
928.818	0.0140237
928.896	0.0139395
928.974	0.0139640
929.052	0.0138873
929.130	0.0140409
929.208	0.0139084
929.286	0.0140663
929.364	0.0139954
929.443	0.0139290
929.521	0.0141057
929.599	0.0140526
929.677	0.0140063
929.755	0.0141299
929.833	0.0140756
929.911	0.0141750
929.989	0.0140868
930.068	0.0141950
930.146	0.0139278
930.224	0.0140999
930.302	0.0142140
930.380	0.0141343
930.458	0.0142102
930.536	0.0141196
930.614	0.0140271
930.693	0.0141514
930.771	0.0141019
930.849	0.0141995
930.927	0.0142016
931.005	0.0142226
931.083	0.0141887
931.161	0.0141504
931.239	0.0142083
931.318	0.0141056
931.396	0.0139835
931.474	0.0140049
931.552	0.0142470
931.630	0.0141574
931.708	0.0141119
931.786	0.0141200
931.864	0.0139845
931.943	0.0140513
932.021	0.0140831
932.099	0.0140608
932.177	0.0140074
932.255	0.0138531
932.333	0.0137908
932.411	0.0139672
932.489	0.0139231
932.568	0.0140002
932.646	0.0141147
932.724	0.0139501
932.802	0.0139146
932.880	0.0138567
932.958	0.0138533
933.036	0.0139181
933.114	0.0140676
933.193	0.0139992
933.271	0.0139668
933.349	0.0140199
933.427	0.0139896
933.505	0.0141852
933.583	0.0141177
933.661	0.0140720
933.739	0.0141451
933.818	0.0140635
933.896	0.0140158
933.974	0.0141556
934.052	0.0139973
934.130	0.0140000
934.208	0.0141428
934.286	0.0140905
934.364	0.0141165
934.443	0.0141611
934.521	0.0141042
934.599	0.0140897
934.677	0.0140860
934.755	0.0141782
934.833	0.0142002
934.911	0.0140736
934.989	0.0141959
935.068	0.0141339
935.146	0.0142794
935.224	0.0142372
935.302	0.0141478
935.380	0.0141689
935.458	0.0141858
935.536	0.0142786
935.614	0.0141851
935.693	0.0142098
935.771	0.0142203
935.849	0.0142549
935.927	0.0142210
936.005	0.0141035
936.083	0.0142397
936.161	0.0142102
936.239	0.0140973
936.318	0.0142210
936.396	0.0142552
936.474	0.0141705
936.552	0.0140623
936.630	0.0142423
936.708	0.0141627
936.786	0.0139534
936.864	0.0139863
936.943	0.0138136
937.021	0.0138986
937.099	0.0138301
937.177	0.0138013
937.255	0.0140254
937.333	0.0137189
937.411	0.0138802
937.489	0.0138248
937.568	0.0136613
937.646	0.0137709
937.724	0.0137580
937.802	0.0138133
937.880	0.0136659
937.958	0.0138625
938.036	0.0137981
938.114	0.0138174
938.193	0.0139143
938.271	0.0139081
938.349	0.0139200
938.427	0.0139558
938.505	0.0140597
938.583	0.0139331
938.661	0.0140633
938.739	0.0139922
938.818	0.0139809
938.896	0.0140250
938.974	0.0139993
939.052	0.0141426
939.130	0.0140530
939.208	0.0140954
939.286	0.0143104
939.364	0.0141016
939.443	0.0141808
939.521	0.0142564
939.599	0.0142015
939.677	0.0141616
939.755	0.0142428
939.833	0.0142297
939.911	0.0142123
939.989	0.0141895
940.068	0.0141622
940.146	0.0142810
940.224	0.0142014
940.302	0.0142111
940.380	0.0142162
940.458	0.0140878
940.536	0.0141809
940.614	0.0141177
940.693	0.0143176
940.771	0.0142559
940.849	0.0142739
940.927	0.0141972
941.005	0.0141667
941.083	0.0141990
941.161	0.0140909
941.239	0.0143025
941.318	0.0142344
941.396	0.0141126
941.474	0.0141599
941.552	0.0143025
941.630	0.0141740
941.708	0.0141204
941.786	0.0142204
941.864	0.0141566
941.943	0.0141096
942.021	0.0142049
942.099	0.0141931
942.177	0.0139886
942.255	0.0140826
942.333	0.0142461
942.411	0.0141180
942.489	0.0141890
942.568	0.0141186
942.646	0.0139711
942.724	0.0141012
942.802	0.0140180
942.880	0.0139086
942.958	0.0139423
943.036	0.0139933
943.114	0.0139104
943.193	0.0138436
943.271	0.0138703
943.349	0.0138091
943.427	0.0139463
943.505	0.0139906
943.583	0.0138264
943.661	0.0137534
943.739	0.0138655
943.818	0.0138201
943.896	0.0137160
943.974	0.0138622
944.052	0.0137967
944.130	0.0138058
944.208	0.0139853
944.286	0.0140018
944.364	0.0138985
944.443	0.0139761
944.521	0.0139684
944.599	0.0139478
944.677	0.0139239
944.755	0.0139478
944.833	0.0139693
944.911	0.0138680
944.989	0.0139030
945.068	0.0140340
945.146	0.0140220
945.224	0.0138937
945.302	0.0140147
945.380	0.0141125
945.458	0.0140589
945.536	0.0140748
945.614	0.0140038
945.693	0.0138775
945.771	0.0139864
945.849	0.0140847
945.927	0.0140393
946.005	0.0139816
946.083	0.0141032
946.161	0.0140283
946.239	0.0139952
946.318	0.0141697
946.396	0.0142230
946.474	0.0142618
946.552	0.0141913
946.630	0.0141648
946.708	0.0139553
946.786	0.0142424
946.864	0.0141850
946.943	0.0141384
947.021	0.0142702
947.099	0.0141784
947.177	0.0141426
947.255	0.0141553
947.333	0.0140306
947.411	0.0140487
947.489	0.0142139
947.568	0.0139850
947.646	0.0139409
947.724	0.0140152
947.802	0.0139529
947.880	0.0140436
947.958	0.0139875
948.036	0.0139729
948.114	0.0138289
948.193	0.0138757
948.271	0.0139478
948.349	0.0139371
948.427	0.0138910
948.505	0.0139200
948.583	0.0138945
948.661	0.0137057
948.739	0.0139117
948.818	0.0138660
948.896	0.0138005
948.974	0.0137415
949.052	0.0137987
949.130	0.0136417
949.208	0.0137319
949.286	0.0138248
949.364	0.0138351
949.443	0.0138496
949.521	0.0139184
949.599	0.0138392
949.677	0.0137877
949.755	0.0139971
949.833	0.0138526
949.911	0.0137389
949.989	0.0138032
950.068	0.0138213
950.146	0.0138711
950.224	0.0139723
950.302	0.0140009
950.380	0.0139677
950.458	0.0139294
950.536	0.0139423
950.614	0.0140008
950.693	0.0140276
950.771	0.0139569
950.849	0.0141070
950.927	0.0140186
951.005	0.0139317
951.083	0.0139946
951.161	0.0138932
951.239	0.0139012
951.318	0.0140475
951.396	0.0140815
951.474	0.0140030
951.552	0.0139252
951.630	0.0139170
951.708	0.0140509
951.786	0.0141411
951.864	0.0139175
951.943	0.0138819
952.021	0.0138868
952.099	0.0138523
952.177	0.0139346
952.255	0.0140695
952.333	0.0139398
952.411	0.0138718
952.489	0.0138464
952.568	0.0140488
952.646	0.0139745
952.724	0.0140137
952.802	0.0138651
952.880	0.0139201
952.958	0.0138105
953.036	0.0140317
953.114	0.0141405
953.193	0.0141055
953.271	0.0139564
953.349	0.0140834
953.427	0.0141438
953.505	0.0140806
953.583	0.0141968
953.661	0.0140112
953.739	0.0140030
953.818	0.0140895
953.896	0.0141045
953.974	0.0139569
954.052	0.0139592
954.130	0.0139619
954.208	0.0140843
954.286	0.0141380
954.364	0.0140583
954.443	0.0139930
954.521	0.0139980
954.599	0.0141667
954.677	0.0140735
954.755	0.0139897
954.833	0.0139738
954.911	0.0140720
954.989	0.0141734
955.068	0.0139781
955.146	0.0140095
955.224	0.0141424
955.302	0.0140964
955.380	0.0141714
955.458	0.0140298
955.536	0.0139731
955.614	0.0140645
955.693	0.0141061
955.771	0.0142387
955.849	0.0140833
955.927	0.0139774
956.005	0.0140134
956.083	0.0141097
956.161	0.0141713
956.239	0.0141961
956.318	0.0141627
956.396	0.0140965
956.474	0.0142460
956.552	0.0141430
956.630	0.0140976
956.708	0.0141053
956.786	0.0142593
956.864	0.0142388
956.943	0.0141130
957.021	0.0141972
957.099	0.0142268
957.177	0.0140746
957.255	0.0141013
957.333	0.0141263
957.411	0.0141852
957.489	0.0141408
957.568	0.0140821
957.646	0.0140585
957.724	0.0139630
957.802	0.0139949
957.880	0.0138418
957.958	0.0140140
958.036	0.0139952
958.114	0.0138260
958.193	0.0137115
958.271	0.0138319
958.349	0.0138921
958.427	0.0138657
958.505	0.0137879
958.583	0.0138017
958.661	0.0137871
958.739	0.0138636
958.818	0.0138461
958.896	0.0137874
958.974	0.0138737
959.052	0.0139413
959.130	0.0138542
959.208	0.0137627
959.286	0.0138129
959.364	0.0137858
959.443	0.0140549
959.521	0.0139523
959.599	0.0138934
959.677	0.0138995
959.755	0.0138771
959.833	0.0139658
959.911	0.0140145
