05/14/2022	16:47:17	Ver.	4.1	UNKNOWN
Optical Delay	639.989416	Delta X		0.078125	Sweeps	1	Scan Rate	0/0
Coordinates	Axis 1	NaN	Axis 2	NaN	Axis 3	NaN	Axis 4	NaN	Axis 5	NaN	Axis 6	0.000000
TX Power	0.000000	RX Power	0.000000

639.989	0.0137257
640.068	0.0135991
640.146	0.0137087
640.224	0.0136721
640.302	0.0136621
640.380	0.0136995
640.458	0.0135547
640.536	0.0137414
640.614	0.0137621
640.693	0.0137668
640.771	0.0135594
640.849	0.0136308
640.927	0.0137172
641.005	0.0136129
641.083	0.0136837
641.161	0.0137161
641.239	0.0137772
641.318	0.0138270
641.396	0.0138023
641.474	0.0137465
641.552	0.0136616
641.630	0.0137198
641.708	0.0137764
641.786	0.0137414
641.864	0.0136397
641.943	0.0138136
642.021	0.0138004
642.099	0.0137271
642.177	0.0138654
642.255	0.0137161
642.333	0.0136674
642.411	0.0135957
642.489	0.0137299
642.568	0.0136775
642.646	0.0137583
642.724	0.0136125
642.802	0.0137897
642.880	0.0136810
642.958	0.0137983
643.036	0.0137330
643.114	0.0136249
643.193	0.0137060
643.271	0.0139449
643.349	0.0137524
643.427	0.0137685
643.505	0.0138039
643.583	0.0137393
643.661	0.0136666
643.739	0.0137872
643.818	0.0137258
643.896	0.0138144
643.974	0.0137495
644.052	0.0137453
644.130	0.0136938
644.208	0.0138021
644.286	0.0137347
644.364	0.0137859
644.443	0.0138235
644.521	0.0139279
644.599	0.0138110
644.677	0.0139184
644.755	0.0139383
644.833	0.0137901
644.911	0.0138365
644.989	0.0138972
645.068	0.0140238
645.146	0.0139333
645.224	0.0139725
645.302	0.0138848
645.380	0.0140627
645.458	0.0138901
645.536	0.0136943
645.614	0.0138380
645.693	0.0141049
645.771	0.0140469
645.849	0.0139105
645.927	0.0139456
646.005	0.0138062
646.083	0.0140175
646.161	0.0140480
646.239	0.0139552
646.318	0.0140491
646.396	0.0140349
646.474	0.0139007
646.552	0.0140781
646.630	0.0139322
646.708	0.0140967
646.786	0.0139886
646.864	0.0139872
646.943	0.0140442
647.021	0.0140071
647.099	0.0139520
647.177	0.0139518
647.255	0.0138889
647.333	0.0138857
647.411	0.0139348
647.489	0.0139236
647.568	0.0137496
647.646	0.0138034
647.724	0.0138840
647.802	0.0138754
647.880	0.0139024
647.958	0.0138691
648.036	0.0137311
648.114	0.0138484
648.193	0.0139082
648.271	0.0137248
648.349	0.0137968
648.427	0.0137487
648.505	0.0139581
648.583	0.0136507
648.661	0.0137321
648.739	0.0139216
648.818	0.0138822
648.896	0.0137064
648.974	0.0137904
649.052	0.0137894
649.130	0.0138123
649.208	0.0138579
649.286	0.0137002
649.364	0.0138364
649.443	0.0138628
649.521	0.0138194
649.599	0.0138086
649.677	0.0137857
649.755	0.0137360
649.833	0.0138154
649.911	0.0139019
649.989	0.0137852
650.068	0.0137453
650.146	0.0138277
650.224	0.0137267
650.302	0.0137607
650.380	0.0138257
650.458	0.0138290
650.536	0.0137674
650.614	0.0136638
650.693	0.0137267
650.771	0.0136874
650.849	0.0138821
650.927	0.0137179
651.005	0.0137154
651.083	0.0136046
651.161	0.0137506
651.239	0.0138441
651.318	0.0137984
651.396	0.0137431
651.474	0.0137675
651.552	0.0137451
651.630	0.0136871
651.708	0.0137298
651.786	0.0137701
651.864	0.0138386
651.943	0.0135966
652.021	0.0137880
652.099	0.0137846
652.177	0.0138730
652.255	0.0138013
652.333	0.0138404
652.411	0.0138794
652.489	0.0137886
652.568	0.0137347
652.646	0.0137758
652.724	0.0139471
652.802	0.0139863
652.880	0.0138645
652.958	0.0138049
653.036	0.0139172
653.114	0.0140062
653.193	0.0138599
653.271	0.0138293
653.349	0.0138575
653.427	0.0139555
653.505	0.0139942
653.583	0.0138593
653.661	0.0138882
653.739	0.0139410
653.818	0.0140199
653.896	0.0139054
653.974	0.0138351
654.052	0.0139139
654.130	0.0139066
654.208	0.0139358
654.286	0.0139014
654.364	0.0139278
654.443	0.0140545
654.521	0.0139713
654.599	0.0138883
654.677	0.0139034
654.755	0.0140038
654.833	0.0139677
654.911	0.0139223
654.989	0.0140123
655.068	0.0139820
655.146	0.0139935
655.224	0.0139501
655.302	0.0140295
655.380	0.0141050
655.458	0.0139925
655.536	0.0140939
655.614	0.0141442
655.693	0.0140317
655.771	0.0139677
655.849	0.0141142
655.927	0.0141192
656.005	0.0140704
656.083	0.0139857
656.161	0.0140092
656.239	0.0140974
656.318	0.0140112
656.396	0.0139922
656.474	0.0141698
656.552	0.0139113
656.630	0.0140735
656.708	0.0142327
656.786	0.0140717
656.864	0.0141360
656.943	0.0141269
657.021	0.0140806
657.099	0.0141230
657.177	0.0140652
657.255	0.0141000
657.333	0.0141233
657.411	0.0140410
657.489	0.0140322
657.568	0.0142765
657.646	0.0140253
657.724	0.0138441
657.802	0.0141036
657.880	0.0140742
657.958	0.0138417
658.036	0.0139639
658.114	0.0138589
658.193	0.0139748
658.271	0.0139188
658.349	0.0138416
658.427	0.0138596
658.505	0.0138099
658.583	0.0138695
658.661	0.0138157
658.739	0.0137363
658.818	0.0138336
658.896	0.0137437
658.974	0.0138657
659.052	0.0137560
659.130	0.0137762
659.208	0.0136198
659.286	0.0136515
659.364	0.0135752
659.443	0.0135759
659.521	0.0136311
659.599	0.0137694
659.677	0.0136810
659.755	0.0135303
659.833	0.0135896
659.911	0.0137646
659.989	0.0136229
660.068	0.0137007
660.146	0.0136549
660.224	0.0137061
660.302	0.0137694
660.380	0.0136186
660.458	0.0136829
660.536	0.0140063
660.614	0.0138754
660.693	0.0139080
660.771	0.0138739
660.849	0.0138255
660.927	0.0138105
661.005	0.0138805
661.083	0.0138975
661.161	0.0138594
661.239	0.0139227
661.318	0.0139848
661.396	0.0137766
661.474	0.0138081
661.552	0.0136964
661.630	0.0138046
661.708	0.0137455
661.786	0.0136677
661.864	0.0137981
661.943	0.0137373
662.021	0.0137375
662.099	0.0135393
662.177	0.0136195
662.255	0.0136467
662.333	0.0135641
662.411	0.0137335
662.489	0.0136883
662.568	0.0137333
662.646	0.0137907
662.724	0.0137534
662.802	0.0137777
662.880	0.0139976
662.958	0.0140140
663.036	0.0140135
663.114	0.0140247
663.193	0.0140886
663.271	0.0140173
663.349	0.0140540
663.427	0.0141516
663.505	0.0141483
663.583	0.0139719
663.661	0.0141079
663.739	0.0140926
663.818	0.0140267
663.896	0.0141913
663.974	0.0140659
664.052	0.0141539
664.130	0.0141225
664.208	0.0140647
664.286	0.0139573
664.364	0.0139895
664.443	0.0139661
664.521	0.0138528
664.599	0.0139787
664.677	0.0137655
664.755	0.0138346
664.833	0.0136993
664.911	0.0137173
664.989	0.0136746
665.068	0.0135137
665.146	0.0136824
665.224	0.0135574
665.302	0.0136079
665.380	0.0137034
665.458	0.0136957
665.536	0.0135976
665.614	0.0137701
665.693	0.0136672
665.771	0.0137668
665.849	0.0139262
665.927	0.0139358
666.005	0.0141318
666.083	0.0141982
666.161	0.0142320
666.239	0.0141621
666.318	0.0143463
666.396	0.0143547
666.474	0.0144385
666.552	0.0143547
666.630	0.0144070
666.708	0.0145052
666.786	0.0143796
666.864	0.0143117
666.943	0.0142573
667.021	0.0142244
667.099	0.0141518
667.177	0.0142640
667.255	0.0140022
667.333	0.0139623
667.411	0.0138699
667.489	0.0136999
667.568	0.0136467
667.646	0.0135583
667.724	0.0134865
667.802	0.0133989
667.880	0.0134408
667.958	0.0134120
668.036	0.0134466
668.114	0.0134069
668.193	0.0134805
668.271	0.0135707
668.349	0.0133973
668.427	0.0134672
668.505	0.0136510
668.583	0.0136414
668.661	0.0138831
668.739	0.0140202
668.818	0.0140613
668.896	0.0141182
668.974	0.0142753
669.052	0.0143459
669.130	0.0143005
669.208	0.0143150
669.286	0.0145239
669.364	0.0146477
669.443	0.0146565
669.521	0.0144440
669.599	0.0144823
669.677	0.0142743
669.755	0.0141960
669.833	0.0141732
669.911	0.0140837
669.989	0.0139338
670.068	0.0137301
670.146	0.0137395
670.224	0.0136117
670.302	0.0135364
670.380	0.0132658
670.458	0.0133069
670.536	0.0130266
670.614	0.0131083
670.693	0.0129105
670.771	0.0129036
670.849	0.0128218
670.927	0.0130080
671.005	0.0129229
671.083	0.0127839
671.161	0.0128120
671.239	0.0130096
671.318	0.0129917
671.396	0.0132616
671.474	0.0133849
671.552	0.0133872
671.630	0.0136449
671.708	0.0138617
671.786	0.0139860
671.864	0.0141140
671.943	0.0143777
672.021	0.0144407
672.099	0.0145334
672.177	0.0146404
672.255	0.0147621
672.333	0.0148587
672.411	0.0148814
672.489	0.0148521
672.568	0.0148373
672.646	0.0146980
672.724	0.0146307
672.802	0.0146452
672.880	0.0144179
672.958	0.0144012
673.036	0.0142851
673.114	0.0141270
673.193	0.0139906
673.271	0.0136775
673.349	0.0136255
673.427	0.0134017
673.505	0.0132531
673.583	0.0130462
673.661	0.0129201
673.739	0.0127924
673.818	0.0125709
673.896	0.0126336
673.974	0.0124908
674.052	0.0126566
674.130	0.0125292
674.208	0.0125423
674.286	0.0125420
674.364	0.0127765
674.443	0.0127711
674.521	0.0130343
674.599	0.0131175
674.677	0.0132966
674.755	0.0135459
674.833	0.0134151
674.911	0.0137434
674.989	0.0141381
675.068	0.0143308
675.146	0.0144571
675.224	0.0146742
675.302	0.0148376
675.380	0.0150632
675.458	0.0152227
675.536	0.0152453
675.614	0.0154295
675.693	0.0155460
675.771	0.0156033
675.849	0.0154950
675.927	0.0154190
676.005	0.0153877
676.083	0.0153223
676.161	0.0151484
676.239	0.0149520
676.318	0.0146706
676.396	0.0144955
676.474	0.0144044
676.552	0.0139907
676.630	0.0137494
676.708	0.0134195
676.786	0.0132768
676.864	0.0129995
676.943	0.0128387
677.021	0.0125472
677.099	0.0125230
677.177	0.0124346
677.255	0.0124231
677.333	0.0122796
677.411	0.0123096
677.489	0.0125572
677.568	0.0125198
677.646	0.0126379
677.724	0.0128886
677.802	0.0129713
677.880	0.0130762
677.958	0.0132003
678.036	0.0135347
678.114	0.0137254
678.193	0.0139675
678.271	0.0142052
678.349	0.0143514
678.427	0.0144794
678.505	0.0147016
678.583	0.0147021
678.661	0.0147724
678.739	0.0147995
678.818	0.0147786
678.896	0.0150114
678.974	0.0148761
679.052	0.0147939
679.130	0.0147166
679.208	0.0147951
679.286	0.0147215
679.364	0.0145393
679.443	0.0143420
679.521	0.0142651
679.599	0.0142116
679.677	0.0142661
679.755	0.0139714
679.833	0.0137958
679.911	0.0136543
679.989	0.0138486
680.068	0.0137284
680.146	0.0135966
680.224	0.0136996
680.302	0.0138383
680.380	0.0138129
680.458	0.0138869
680.536	0.0138668
680.614	0.0138959
680.693	0.0139854
680.771	0.0140582
680.849	0.0140343
680.927	0.0140743
681.005	0.0142003
681.083	0.0142896
681.161	0.0143448
681.239	0.0143066
681.318	0.0143980
681.396	0.0143243
681.474	0.0144176
681.552	0.0144189
681.630	0.0143428
681.708	0.0144827
681.786	0.0143642
681.864	0.0143073
681.943	0.0142566
682.021	0.0141905
682.099	0.0139327
682.177	0.0139241
682.255	0.0138342
682.333	0.0135822
682.411	0.0134332
682.489	0.0133713
682.568	0.0132915
682.646	0.0131622
682.724	0.0129295
682.802	0.0129079
682.880	0.0129040
682.958	0.0127335
683.036	0.0128478
683.114	0.0128938
683.193	0.0128295
683.271	0.0129322
683.349	0.0128736
683.427	0.0129069
683.505	0.0128611
683.583	0.0130183
683.661	0.0133266
683.739	0.0133073
683.818	0.0132948
683.896	0.0134940
683.974	0.0135693
684.052	0.0137835
684.130	0.0138992
684.208	0.0141312
684.286	0.0142590
684.364	0.0143314
684.443	0.0142535
684.521	0.0144892
684.599	0.0147495
684.677	0.0146337
684.755	0.0147871
684.833	0.0147679
684.911	0.0148489
684.989	0.0150731
685.068	0.0150288
685.146	0.0149861
685.224	0.0150230
685.302	0.0152081
685.380	0.0151439
685.458	0.0151945
685.536	0.0151835
685.614	0.0149110
685.693	0.0150864
685.771	0.0151054
685.849	0.0150698
685.927	0.0149229
686.005	0.0149110
686.083	0.0146770
686.161	0.0146906
686.239	0.0145737
686.318	0.0143908
686.396	0.0142125
686.474	0.0142009
686.552	0.0139045
686.630	0.0137876
686.708	0.0135152
686.786	0.0132852
686.864	0.0131417
686.943	0.0129625
687.021	0.0126165
687.099	0.0123839
687.177	0.0124993
687.255	0.0123162
687.333	0.0122697
687.411	0.0119951
687.489	0.0119883
687.568	0.0119621
687.646	0.0119852
687.724	0.0117503
687.802	0.0119432
687.880	0.0120641
687.958	0.0122135
688.036	0.0122061
688.114	0.0124689
688.193	0.0126099
688.271	0.0128054
688.349	0.0130543
688.427	0.0130888
688.505	0.0133426
688.583	0.0136255
688.661	0.0138798
688.739	0.0140191
688.818	0.0142337
688.896	0.0145107
688.974	0.0146306
689.052	0.0148201
689.130	0.0149393
689.208	0.0151479
689.286	0.0152621
689.364	0.0151826
689.443	0.0153775
689.521	0.0155415
689.599	0.0153770
689.677	0.0154716
689.755	0.0154991
689.833	0.0154613
689.911	0.0155245
689.989	0.0154582
690.068	0.0153474
690.146	0.0153128
690.224	0.0152583
690.302	0.0153555
690.380	0.0152725
690.458	0.0152589
690.536	0.0151891
690.614	0.0152479
690.693	0.0152064
690.771	0.0151972
690.849	0.0150874
690.927	0.0150584
691.005	0.0149448
691.083	0.0148119
691.161	0.0148042
691.239	0.0145898
691.318	0.0144367
691.396	0.0142532
691.474	0.0139185
691.552	0.0137708
691.630	0.0135981
691.708	0.0132906
691.786	0.0130369
691.864	0.0129697
691.943	0.0127576
692.021	0.0124489
692.099	0.0123251
692.177	0.0120775
692.255	0.0118778
692.333	0.0117670
692.411	0.0116127
692.489	0.0114663
692.568	0.0114717
692.646	0.0115203
692.724	0.0115191
692.802	0.0115711
692.880	0.0116927
692.958	0.0117780
693.036	0.0120570
693.114	0.0123028
693.193	0.0125574
693.271	0.0126419
693.349	0.0129601
693.427	0.0132395
693.505	0.0133640
693.583	0.0136493
693.661	0.0137543
693.739	0.0139922
693.818	0.0142516
693.896	0.0143085
693.974	0.0145098
694.052	0.0146384
694.130	0.0146220
694.208	0.0147978
694.286	0.0150238
694.364	0.0150006
694.443	0.0150385
694.521	0.0150224
694.599	0.0150118
694.677	0.0150489
694.755	0.0150479
694.833	0.0150303
694.911	0.0149843
694.989	0.0150817
695.068	0.0150488
695.146	0.0151120
695.224	0.0151094
695.302	0.0149998
695.380	0.0151427
695.458	0.0152684
695.536	0.0152841
695.614	0.0152609
695.693	0.0152605
695.771	0.0153265
695.849	0.0154354
695.927	0.0153835
696.005	0.0152899
696.083	0.0151713
696.161	0.0153068
696.239	0.0150603
696.318	0.0150039
696.396	0.0148290
696.474	0.0148399
696.552	0.0146432
696.630	0.0145365
696.708	0.0143075
696.786	0.0142192
696.864	0.0142003
696.943	0.0137868
697.021	0.0134556
697.099	0.0132077
697.177	0.0130923
697.255	0.0126028
697.333	0.0125269
697.411	0.0120070
697.489	0.0118343
697.568	0.0118250
697.646	0.0115547
697.724	0.0112487
697.802	0.0111310
697.880	0.0108604
697.958	0.0107983
698.036	0.0108801
698.114	0.0110290
698.193	0.0109927
698.271	0.0110761
698.349	0.0114439
698.427	0.0114118
698.505	0.0115192
698.583	0.0118943
698.661	0.0120805
698.739	0.0122129
698.818	0.0125500
698.896	0.0128547
698.974	0.0131506
699.052	0.0133078
699.130	0.0136526
699.208	0.0140450
699.286	0.0142108
699.364	0.0143690
699.443	0.0146421
699.521	0.0149172
699.599	0.0150025
699.677	0.0151334
699.755	0.0151907
699.833	0.0153853
699.911	0.0155158
699.989	0.0157828
700.068	0.0157494
700.146	0.0157143
700.224	0.0158652
700.302	0.0158033
700.380	0.0159714
700.458	0.0161885
700.536	0.0161548
700.614	0.0161369
700.693	0.0162680
700.771	0.0162808
700.849	0.0163232
700.927	0.0162270
701.005	0.0163655
701.083	0.0162971
701.161	0.0162158
701.239	0.0162137
701.318	0.0162224
701.396	0.0159587
701.474	0.0158928
701.552	0.0158320
701.630	0.0157906
701.708	0.0154433
701.786	0.0153431
701.864	0.0151407
701.943	0.0148696
702.021	0.0145135
702.099	0.0142989
702.177	0.0139625
702.255	0.0136766
702.333	0.0132669
702.411	0.0129031
702.489	0.0123899
702.568	0.0121255
702.646	0.0116879
702.724	0.0116325
702.802	0.0112131
702.880	0.0108473
702.958	0.0104382
703.036	0.0102807
703.114	0.0100840
703.193	0.00997932
703.271	0.00978676
703.349	0.00975677
703.427	0.00991096
703.505	0.00984268
703.583	0.00985939
703.661	0.0102003
703.739	0.0103666
703.818	0.0104386
703.896	0.0107700
703.974	0.0112350
704.052	0.0115816
704.130	0.0120704
704.208	0.0123211
704.286	0.0126856
704.364	0.0131197
704.443	0.0134107
704.521	0.0137067
704.599	0.0141496
704.677	0.0145180
704.755	0.0148365
704.833	0.0150823
704.911	0.0153412
704.989	0.0156406
705.068	0.0158405
705.146	0.0159284
705.224	0.0160494
705.302	0.0162275
705.380	0.0163911
705.458	0.0163708
705.536	0.0163161
705.614	0.0164175
705.693	0.0164687
705.771	0.0165173
705.849	0.0163892
705.927	0.0163731
706.005	0.0164400
706.083	0.0163884
706.161	0.0163536
706.239	0.0164730
706.318	0.0163847
706.396	0.0163028
706.474	0.0163656
706.552	0.0163310
706.630	0.0162253
706.708	0.0159793
706.786	0.0159979
706.864	0.0158694
706.943	0.0156789
707.021	0.0155845
707.099	0.0152737
707.177	0.0150536
707.255	0.0148500
707.333	0.0146034
707.411	0.0143067
707.489	0.0139133
707.568	0.0135806
707.646	0.0132058
707.724	0.0127786
707.802	0.0124532
707.880	0.0121574
707.958	0.0118452
708.036	0.0113756
708.114	0.0110909
708.193	0.0110190
708.271	0.0106863
708.349	0.0105018
708.427	0.0102967
708.505	0.0102797
708.583	0.0101915
708.661	0.0101216
708.739	0.00998215
708.818	0.0101758
708.896	0.0101557
708.974	0.0104381
709.052	0.0105726
709.130	0.0106852
709.208	0.0110506
709.286	0.0112218
709.364	0.0115107
709.443	0.0118664
709.521	0.0121249
709.599	0.0125786
709.677	0.0129240
709.755	0.0132597
709.833	0.0134467
709.911	0.0138733
709.989	0.0142401
710.068	0.0145862
710.146	0.0147557
710.224	0.0150552
710.302	0.0153258
710.380	0.0156139
710.458	0.0157854
710.536	0.0159876
710.614	0.0161755
710.693	0.0163078
710.771	0.0165629
710.849	0.0166761
710.927	0.0166459
711.005	0.0168590
711.083	0.0169897
711.161	0.0168117
711.239	0.0168298
711.318	0.0170036
711.396	0.0169733
711.474	0.0168755
711.552	0.0168178
711.630	0.0168312
711.708	0.0165617
711.786	0.0163703
711.864	0.0162803
711.943	0.0162376
712.021	0.0158189
712.099	0.0156290
712.177	0.0154410
712.255	0.0150764
712.333	0.0148904
712.411	0.0145692
712.489	0.0142001
712.568	0.0138486
712.646	0.0136673
712.724	0.0134016
712.802	0.0130329
712.880	0.0128037
712.958	0.0126384
713.036	0.0125401
713.114	0.0124335
713.193	0.0122446
713.271	0.0121130
713.349	0.0121761
713.427	0.0122204
713.505	0.0121738
713.583	0.0121878
713.661	0.0121719
713.739	0.0123180
713.818	0.0123277
713.896	0.0125150
713.974	0.0125296
714.052	0.0126579
714.130	0.0127668
714.208	0.0128197
714.286	0.0129961
714.364	0.0131007
714.443	0.0130525
714.521	0.0131612
714.599	0.0131792
714.677	0.0132670
714.755	0.0133636
714.833	0.0131982
714.911	0.0134359
714.989	0.0133832
715.068	0.0134266
715.146	0.0133674
715.224	0.0132683
715.302	0.0133314
715.380	0.0132790
715.458	0.0131952
715.536	0.0131076
715.614	0.0132308
715.693	0.0132932
715.771	0.0131337
715.849	0.0132443
715.927	0.0133244
716.005	0.0133183
716.083	0.0133005
716.161	0.0134538
716.239	0.0134024
716.318	0.0135494
716.396	0.0136436
716.474	0.0138730
716.552	0.0138185
716.630	0.0139872
716.708	0.0140749
716.786	0.0142641
716.864	0.0146009
716.943	0.0146127
717.021	0.0147843
717.099	0.0148186
717.177	0.0151918
717.255	0.0154113
717.333	0.0152972
717.411	0.0154675
717.489	0.0155399
717.568	0.0157076
717.646	0.0157692
717.724	0.0156011
717.802	0.0157181
717.880	0.0155972
717.958	0.0154706
718.036	0.0153973
718.114	0.0153901
718.193	0.0152821
718.271	0.0150395
718.349	0.0149287
718.427	0.0148628
718.505	0.0147813
718.583	0.0144855
718.661	0.0142165
718.739	0.0142117
718.818	0.0140698
718.896	0.0138889
718.974	0.0137269
719.052	0.0135321
719.130	0.0137363
719.208	0.0133952
719.286	0.0132718
719.364	0.0133455
719.443	0.0133397
719.521	0.0132335
719.599	0.0131630
719.677	0.0131268
719.755	0.0130650
719.833	0.0129602
719.911	0.0129448
719.989	0.0128990
720.068	0.0128162
720.146	0.0127988
720.224	0.0127162
720.302	0.0127470
720.380	0.0126650
720.458	0.0127773
720.536	0.0125601
720.614	0.0125653
720.693	0.0122506
720.771	0.0123777
720.849	0.0123463
720.927	0.0123395
721.005	0.0121700
721.083	0.0123219
721.161	0.0122668
721.239	0.0125025
721.318	0.0124327
721.396	0.0126542
721.474	0.0127702
721.552	0.0130910
721.630	0.0131421
721.708	0.0134824
721.786	0.0136248
721.864	0.0137944
721.943	0.0139674
722.021	0.0140022
722.099	0.0142803
722.177	0.0144267
722.255	0.0144466
722.333	0.0145090
722.411	0.0147009
722.489	0.0147780
722.568	0.0147366
722.646	0.0147746
722.724	0.0148483
722.802	0.0148572
722.880	0.0149915
722.958	0.0147840
723.036	0.0149843
723.114	0.0151302
723.193	0.0149276
723.271	0.0150108
723.349	0.0149908
723.427	0.0149439
723.505	0.0150452
723.583	0.0149108
723.661	0.0149632
723.739	0.0150160
723.818	0.0149411
723.896	0.0150391
723.974	0.0150340
724.052	0.0149977
724.130	0.0150943
724.208	0.0148734
724.286	0.0148915
724.364	0.0148644
724.443	0.0146699
724.521	0.0146950
724.599	0.0146200
724.677	0.0143871
724.755	0.0143188
724.833	0.0141059
724.911	0.0140465
724.989	0.0138721
725.068	0.0136883
725.146	0.0135098
725.224	0.0133054
725.302	0.0131723
725.380	0.0131311
725.458	0.0129032
725.536	0.0127955
725.614	0.0127943
725.693	0.0125852
725.771	0.0125026
725.849	0.0126646
725.927	0.0124226
726.005	0.0125005
726.083	0.0125592
726.161	0.0125485
726.239	0.0126399
726.318	0.0125635
726.396	0.0124640
726.474	0.0124410
726.552	0.0125811
726.630	0.0126263
726.708	0.0126237
726.786	0.0126505
726.864	0.0127010
726.943	0.0127929
727.021	0.0129382
727.099	0.0130550
727.177	0.0129793
727.255	0.0130630
727.333	0.0131566
727.411	0.0132910
727.489	0.0135054
727.568	0.0134711
727.646	0.0135196
727.724	0.0135945
727.802	0.0137258
727.880	0.0138398
727.958	0.0139478
728.036	0.0140129
728.114	0.0140555
728.193	0.0139740
728.271	0.0142120
728.349	0.0144103
728.427	0.0143480
728.505	0.0143666
728.583	0.0143108
728.661	0.0145556
728.739	0.0146642
728.818	0.0147783
728.896	0.0147557
728.974	0.0148160
729.052	0.0148546
729.130	0.0147535
729.208	0.0147189
729.286	0.0149615
729.364	0.0150309
729.443	0.0150251
729.521	0.0148980
729.599	0.0149444
729.677	0.0150775
729.755	0.0150775
729.833	0.0150399
729.911	0.0151648
729.989	0.0149981
730.068	0.0150050
730.146	0.0150803
730.224	0.0148220
730.302	0.0149185
730.380	0.0146440
730.458	0.0145549
730.536	0.0145828
730.614	0.0142936
730.693	0.0140628
730.771	0.0138483
730.849	0.0138969
730.927	0.0138120
731.005	0.0136664
731.083	0.0135431
731.161	0.0134592
731.239	0.0133745
731.318	0.0130730
731.396	0.0130729
731.474	0.0129456
731.552	0.0128053
731.630	0.0128352
731.708	0.0127975
731.786	0.0128870
731.864	0.0126655
731.943	0.0127341
732.021	0.0128167
732.099	0.0126923
732.177	0.0126352
732.255	0.0127752
732.333	0.0128815
732.411	0.0129292
732.489	0.0129672
732.568	0.0128886
732.646	0.0130997
732.724	0.0129628
732.802	0.0130003
732.880	0.0131767
732.958	0.0131183
733.036	0.0131676
733.114	0.0134406
733.193	0.0133278
733.271	0.0131472
733.349	0.0132246
733.427	0.0135890
733.505	0.0134451
733.583	0.0137384
733.661	0.0138866
733.739	0.0138722
733.818	0.0139894
733.896	0.0141531
733.974	0.0141852
734.052	0.0144592
734.130	0.0144640
734.208	0.0145246
734.286	0.0146102
734.364	0.0148798
734.443	0.0149424
734.521	0.0149176
734.599	0.0149975
734.677	0.0151074
734.755	0.0150702
734.833	0.0151537
734.911	0.0152038
734.989	0.0150620
735.068	0.0149960
735.146	0.0150430
735.224	0.0150960
735.302	0.0148732
735.380	0.0148697
735.458	0.0148283
735.536	0.0146803
735.614	0.0144220
735.693	0.0142847
735.771	0.0142772
735.849	0.0141817
735.927	0.0139319
736.005	0.0137240
736.083	0.0136471
736.161	0.0135745
736.239	0.0134181
736.318	0.0133694
736.396	0.0133379
736.474	0.0131953
736.552	0.0130975
736.630	0.0130213
736.708	0.0131728
736.786	0.0132571
736.864	0.0130630
736.943	0.0129914
737.021	0.0130727
737.099	0.0130492
737.177	0.0132336
737.255	0.0133387
737.333	0.0132558
737.411	0.0133636
737.489	0.0134052
737.568	0.0135830
737.646	0.0135899
737.724	0.0137708
737.802	0.0136046
737.880	0.0136694
737.958	0.0138428
738.036	0.0136469
738.114	0.0137082
738.193	0.0138863
738.271	0.0138374
738.349	0.0136018
738.427	0.0136165
738.505	0.0139352
738.583	0.0138772
738.661	0.0137550
738.739	0.0138716
738.818	0.0139855
738.896	0.0140237
738.974	0.0142058
739.052	0.0141695
739.130	0.0141342
739.208	0.0141860
739.286	0.0142154
739.364	0.0141827
739.443	0.0142555
739.521	0.0143494
739.599	0.0145412
739.677	0.0144066
739.755	0.0145839
739.833	0.0145016
739.911	0.0143394
739.989	0.0144389
740.068	0.0145177
740.146	0.0144682
740.224	0.0144101
740.302	0.0143697
740.380	0.0143368
740.458	0.0142700
740.536	0.0141496
740.614	0.0140166
740.693	0.0138433
740.771	0.0138315
740.849	0.0139857
740.927	0.0137797
741.005	0.0136391
741.083	0.0134803
741.161	0.0133495
741.239	0.0132734
741.318	0.0132404
741.396	0.0130720
741.474	0.0130870
741.552	0.0130618
741.630	0.0131676
741.708	0.0131401
741.786	0.0130099
741.864	0.0130017
741.943	0.0130491
742.021	0.0130247
742.099	0.0132425
742.177	0.0132568
742.255	0.0133355
742.333	0.0133092
742.411	0.0134464
742.489	0.0135999
742.568	0.0135617
742.646	0.0137011
742.724	0.0137411
742.802	0.0139113
742.880	0.0140157
742.958	0.0140475
743.036	0.0140128
743.114	0.0142286
743.193	0.0141059
743.271	0.0142428
743.349	0.0141593
743.427	0.0141717
743.505	0.0142291
743.583	0.0142440
743.661	0.0141835
743.739	0.0141969
743.818	0.0140093
743.896	0.0141640
743.974	0.0140166
744.052	0.0140696
744.130	0.0139445
744.208	0.0139695
744.286	0.0139262
744.364	0.0140570
744.443	0.0139048
744.521	0.0138956
744.599	0.0139802
744.677	0.0139064
744.755	0.0137948
744.833	0.0137869
744.911	0.0137971
744.989	0.0138535
745.068	0.0139339
745.146	0.0137547
745.224	0.0138219
745.302	0.0137688
745.380	0.0136294
745.458	0.0137508
745.536	0.0136745
745.614	0.0136052
745.693	0.0135989
745.771	0.0135977
745.849	0.0136392
745.927	0.0136012
746.005	0.0135971
746.083	0.0136118
746.161	0.0134720
746.239	0.0134734
746.318	0.0134863
746.396	0.0134505
746.474	0.0134812
746.552	0.0136074
746.630	0.0135978
746.708	0.0134898
746.786	0.0134796
746.864	0.0135262
746.943	0.0136954
747.021	0.0137167
747.099	0.0136978
747.177	0.0136942
747.255	0.0137440
747.333	0.0136169
747.411	0.0138857
747.489	0.0138796
747.568	0.0139598
747.646	0.0141445
747.724	0.0140095
747.802	0.0140530
747.880	0.0142408
747.958	0.0142645
748.036	0.0140962
748.114	0.0143436
748.193	0.0142519
748.271	0.0143394
748.349	0.0144279
748.427	0.0141748
748.505	0.0142249
748.583	0.0141011
748.661	0.0141720
748.739	0.0140783
748.818	0.0139333
748.896	0.0139803
748.974	0.0138454
749.052	0.0138038
749.130	0.0137807
749.208	0.0138058
749.286	0.0138093
749.364	0.0135362
749.443	0.0136263
749.521	0.0135794
749.599	0.0135482
749.677	0.0136909
749.755	0.0136606
749.833	0.0136893
749.911	0.0136791
749.989	0.0136562
750.068	0.0137125
750.146	0.0136513
750.224	0.0139325
750.302	0.0139291
750.380	0.0136967
750.458	0.0138659
750.536	0.0138478
750.614	0.0138384
750.693	0.0138379
750.771	0.0138246
750.849	0.0138811
750.927	0.0136471
751.005	0.0138000
751.083	0.0138224
751.161	0.0137293
751.239	0.0137946
751.318	0.0136788
751.396	0.0137803
751.474	0.0138046
751.552	0.0138446
751.630	0.0138300
751.708	0.0137700
751.786	0.0138483
751.864	0.0139596
751.943	0.0138931
752.021	0.0140202
752.099	0.0140105
752.177	0.0139674
752.255	0.0140452
752.333	0.0140750
752.411	0.0141809
752.489	0.0141348
752.568	0.0139977
752.646	0.0139522
752.724	0.0140186
752.802	0.0140810
752.880	0.0139884
752.958	0.0139775
753.036	0.0139436
753.114	0.0140094
753.193	0.0140251
753.271	0.0139844
753.349	0.0139233
753.427	0.0139546
753.505	0.0139841
753.583	0.0140832
753.661	0.0140372
753.739	0.0140613
753.818	0.0139924
753.896	0.0138461
753.974	0.0139270
754.052	0.0138946
754.130	0.0138641
754.208	0.0137977
754.286	0.0137007
754.364	0.0136432
754.443	0.0136266
754.521	0.0137309
754.599	0.0136565
754.677	0.0136533
754.755	0.0135670
754.833	0.0135323
754.911	0.0135810
754.989	0.0136595
755.068	0.0135738
755.146	0.0135942
755.224	0.0136718
755.302	0.0135925
755.380	0.0135439
755.458	0.0136705
755.536	0.0137376
755.614	0.0137401
755.693	0.0137353
755.771	0.0137048
755.849	0.0137849
755.927	0.0137044
756.005	0.0138493
756.083	0.0138496
756.161	0.0137475
756.239	0.0137537
756.318	0.0139420
756.396	0.0138713
756.474	0.0137794
756.552	0.0139650
756.630	0.0138926
756.708	0.0138670
756.786	0.0138708
756.864	0.0139240
756.943	0.0138784
757.021	0.0138798
757.099	0.0140855
757.177	0.0140273
757.255	0.0138799
757.333	0.0139626
757.411	0.0139532
757.489	0.0138850
757.568	0.0139719
757.646	0.0139203
757.724	0.0138084
757.802	0.0140248
757.880	0.0140779
757.958	0.0140392
758.036	0.0140648
758.114	0.0140607
758.193	0.0141639
758.271	0.0141200
758.349	0.0140750
758.427	0.0140614
758.505	0.0140742
758.583	0.0140925
758.661	0.0139713
758.739	0.0140882
758.818	0.0142702
758.896	0.0139987
758.974	0.0139912
759.052	0.0140749
759.130	0.0140198
759.208	0.0140742
759.286	0.0140099
759.364	0.0141955
759.443	0.0139783
759.521	0.0138461
759.599	0.0139527
759.677	0.0141464
759.755	0.0139725
759.833	0.0139359
759.911	0.0139503
759.989	0.0139607
760.068	0.0138309
760.146	0.0139911
760.224	0.0137858
760.302	0.0138515
760.380	0.0138894
760.458	0.0138087
760.536	0.0137304
760.614	0.0138522
760.693	0.0138036
760.771	0.0138651
760.849	0.0138994
760.927	0.0135304
761.005	0.0137894
761.083	0.0138258
761.161	0.0137507
761.239	0.0137946
761.318	0.0136514
761.396	0.0136537
761.474	0.0137438
761.552	0.0136853
761.630	0.0135797
761.708	0.0135001
761.786	0.0136949
761.864	0.0136744
761.943	0.0134975
762.021	0.0135706
762.099	0.0136420
762.177	0.0135606
762.255	0.0136028
762.333	0.0135968
762.411	0.0136749
762.489	0.0137524
762.568	0.0138182
762.646	0.0137793
762.724	0.0137456
762.802	0.0138002
762.880	0.0139192
762.958	0.0139622
763.036	0.0140368
763.114	0.0141226
763.193	0.0140052
763.271	0.0141344
763.349	0.0142486
763.427	0.0142571
763.505	0.0141718
763.583	0.0141608
763.661	0.0142422
763.739	0.0142783
763.818	0.0142242
763.896	0.0142772
763.974	0.0141345
764.052	0.0140968
764.130	0.0140240
764.208	0.0141833
764.286	0.0141467
764.364	0.0140435
764.443	0.0139924
764.521	0.0140843
764.599	0.0141255
764.677	0.0140183
764.755	0.0139532
764.833	0.0140096
764.911	0.0140410
764.989	0.0141235
765.068	0.0141093
765.146	0.0139130
765.224	0.0140994
765.302	0.0141041
765.380	0.0141866
765.458	0.0140173
765.536	0.0141096
765.614	0.0141343
765.693	0.0139713
765.771	0.0140565
765.849	0.0139432
765.927	0.0139999
766.005	0.0139053
766.083	0.0137933
766.161	0.0137795
766.239	0.0138033
766.318	0.0137961
766.396	0.0137041
766.474	0.0135255
766.552	0.0135333
766.630	0.0135657
766.708	0.0135296
766.786	0.0135277
766.864	0.0135153
766.943	0.0134305
767.021	0.0133266
767.099	0.0135166
767.177	0.0134489
767.255	0.0133897
767.333	0.0134007
767.411	0.0134843
767.489	0.0134755
767.568	0.0134229
767.646	0.0135644
767.724	0.0135074
767.802	0.0134699
767.880	0.0135880
767.958	0.0133934
768.036	0.0134917
768.114	0.0134660
768.193	0.0136230
768.271	0.0136359
768.349	0.0135664
768.427	0.0136906
768.505	0.0137479
768.583	0.0136996
768.661	0.0137886
768.739	0.0140184
768.818	0.0140038
768.896	0.0139775
768.974	0.0140932
769.052	0.0139779
769.130	0.0141377
769.208	0.0142195
769.286	0.0141902
769.364	0.0141328
769.443	0.0142950
769.521	0.0142636
769.599	0.0141753
769.677	0.0143037
769.755	0.0141946
769.833	0.0140462
769.911	0.0141893
769.989	0.0141763
770.068	0.0141212
770.146	0.0140511
770.224	0.0141029
770.302	0.0139965
770.380	0.0140717
770.458	0.0140635
770.536	0.0140382
770.614	0.0138992
770.693	0.0139687
770.771	0.0140144
770.849	0.0140910
770.927	0.0139788
771.005	0.0138059
771.083	0.0138252
771.161	0.0138023
771.239	0.0136761
771.318	0.0137943
771.396	0.0136762
771.474	0.0137077
771.552	0.0137714
771.630	0.0137257
771.708	0.0137676
771.786	0.0139018
771.864	0.0138733
771.943	0.0138828
772.021	0.0139805
772.099	0.0139402
772.177	0.0138572
772.255	0.0139330
772.333	0.0140154
772.411	0.0140823
772.489	0.0140751
772.568	0.0139530
772.646	0.0139234
772.724	0.0140942
772.802	0.0141287
772.880	0.0139755
772.958	0.0139274
773.036	0.0139474
773.114	0.0137858
773.193	0.0138808
773.271	0.0138878
773.349	0.0138035
773.427	0.0139836
773.505	0.0137832
773.583	0.0137509
773.661	0.0138110
773.739	0.0138393
773.818	0.0136033
773.896	0.0135108
773.974	0.0135910
774.052	0.0136612
774.130	0.0134503
774.208	0.0135767
774.286	0.0135170
774.364	0.0134757
774.443	0.0135750
774.521	0.0135555
774.599	0.0135548
774.677	0.0135186
774.755	0.0134724
774.833	0.0136610
774.911	0.0137234
774.989	0.0136263
775.068	0.0136208
775.146	0.0136165
775.224	0.0136412
775.302	0.0137958
775.380	0.0138056
775.458	0.0138055
775.536	0.0138960
775.614	0.0137309
775.693	0.0139820
775.771	0.0139431
775.849	0.0138703
775.927	0.0139874
776.005	0.0139713
776.083	0.0139290
776.161	0.0141023
776.239	0.0139469
776.318	0.0140208
776.396	0.0140276
776.474	0.0141149
776.552	0.0139200
776.630	0.0139079
776.708	0.0138540
776.786	0.0137946
776.864	0.0138136
776.943	0.0138515
777.021	0.0139193
777.099	0.0138482
777.177	0.0139412
777.255	0.0139043
777.333	0.0138613
777.411	0.0139602
777.489	0.0139445
777.568	0.0139471
777.646	0.0140370
777.724	0.0140283
777.802	0.0140544
777.880	0.0141337
777.958	0.0141089
778.036	0.0141537
778.114	0.0140141
778.193	0.0141956
778.271	0.0142386
778.349	0.0141880
778.427	0.0142778
778.505	0.0142728
778.583	0.0141357
778.661	0.0141269
778.739	0.0142533
778.818	0.0142896
778.896	0.0142051
778.974	0.0141664
779.052	0.0141737
779.130	0.0142232
779.208	0.0141160
779.286	0.0139720
779.364	0.0139799
779.443	0.0139639
779.521	0.0140004
779.599	0.0139132
779.677	0.0138737
779.755	0.0137394
779.833	0.0137466
779.911	0.0135909
779.989	0.0137216
780.068	0.0136713
780.146	0.0136584
780.224	0.0134977
780.302	0.0135410
780.380	0.0136591
780.458	0.0136391
780.536	0.0137344
780.614	0.0136456
780.693	0.0137142
780.771	0.0136831
780.849	0.0136925
780.927	0.0137865
781.005	0.0140250
781.083	0.0139963
781.161	0.0138852
781.239	0.0139303
781.318	0.0139772
781.396	0.0139881
781.474	0.0140173
781.552	0.0140648
781.630	0.0141205
781.708	0.0141131
781.786	0.0140110
781.864	0.0142467
781.943	0.0140971
782.021	0.0141465
782.099	0.0143333
782.177	0.0141656
782.255	0.0141843
782.333	0.0142032
782.411	0.0139674
782.489	0.0141257
782.568	0.0141232
782.646	0.0140464
782.724	0.0140156
782.802	0.0140418
782.880	0.0140893
782.958	0.0139956
783.036	0.0140356
783.114	0.0141171
783.193	0.0141096
783.271	0.0139098
783.349	0.0138364
783.427	0.0137811
783.505	0.0138664
783.583	0.0138569
783.661	0.0139637
783.739	0.0137836
783.818	0.0137051
783.896	0.0134753
783.974	0.0136253
784.052	0.0136845
784.130	0.0136900
784.208	0.0135498
784.286	0.0136667
784.364	0.0137138
784.443	0.0137194
784.521	0.0137259
784.599	0.0137413
784.677	0.0138190
784.755	0.0137936
784.833	0.0136705
784.911	0.0137600
784.989	0.0137533
785.068	0.0137791
785.146	0.0138200
785.224	0.0139153
785.302	0.0139635
785.380	0.0138097
785.458	0.0139410
785.536	0.0141136
785.614	0.0139433
785.693	0.0139615
785.771	0.0139709
785.849	0.0139878
785.927	0.0139367
786.005	0.0141458
786.083	0.0139742
786.161	0.0139275
786.239	0.0140004
786.318	0.0141447
786.396	0.0141703
786.474	0.0140432
786.552	0.0140186
786.630	0.0140556
786.708	0.0140242
786.786	0.0140277
786.864	0.0141065
786.943	0.0141364
787.021	0.0141196
787.099	0.0140974
787.177	0.0140520
787.255	0.0141841
787.333	0.0140634
787.411	0.0140475
787.489	0.0140656
787.568	0.0139256
787.646	0.0139960
787.724	0.0140324
787.802	0.0138374
787.880	0.0137967
787.958	0.0139317
788.036	0.0140482
788.114	0.0138250
788.193	0.0136991
788.271	0.0136386
788.349	0.0136537
788.427	0.0134775
788.505	0.0134945
788.583	0.0136300
788.661	0.0135548
788.739	0.0135252
788.818	0.0136772
788.896	0.0135100
788.974	0.0135954
789.052	0.0135702
789.130	0.0136697
789.208	0.0135892
789.286	0.0137477
789.364	0.0137395
789.443	0.0137669
789.521	0.0138292
789.599	0.0138640
789.677	0.0138342
789.755	0.0138079
789.833	0.0140428
789.911	0.0140524
789.989	0.0139635
790.068	0.0141483
790.146	0.0142653
790.224	0.0141254
790.302	0.0142207
790.380	0.0143104
790.458	0.0143996
790.536	0.0142782
790.614	0.0143014
790.693	0.0144299
790.771	0.0144650
790.849	0.0143928
790.927	0.0143484
791.005	0.0143976
791.083	0.0143748
791.161	0.0144370
791.239	0.0143600
791.318	0.0144036
791.396	0.0142574
791.474	0.0142744
791.552	0.0142493
791.630	0.0141046
791.708	0.0142333
791.786	0.0142067
791.864	0.0141303
791.943	0.0141322
792.021	0.0140851
792.099	0.0140028
792.177	0.0139308
792.255	0.0139282
792.333	0.0139375
792.411	0.0140369
792.489	0.0140371
792.568	0.0139864
792.646	0.0138259
792.724	0.0138571
792.802	0.0137884
792.880	0.0136893
792.958	0.0139402
793.036	0.0137505
793.114	0.0136111
793.193	0.0137248
793.271	0.0137308
793.349	0.0136646
793.427	0.0137521
793.505	0.0137387
793.583	0.0137324
793.661	0.0136151
793.739	0.0136756
793.818	0.0136166
793.896	0.0136195
793.974	0.0136839
794.052	0.0134947
794.130	0.0134731
794.208	0.0135387
794.286	0.0135464
794.364	0.0135020
794.443	0.0134586
794.521	0.0134637
794.599	0.0135013
794.677	0.0135372
794.755	0.0134988
794.833	0.0133881
794.911	0.0135352
794.989	0.0134312
795.068	0.0133572
795.146	0.0134846
795.224	0.0135487
795.302	0.0136662
795.380	0.0135467
795.458	0.0136966
795.536	0.0137642
795.614	0.0136721
795.693	0.0136594
795.771	0.0138952
795.849	0.0140171
795.927	0.0138852
796.005	0.0140366
796.083	0.0141121
796.161	0.0140163
796.239	0.0141734
796.318	0.0142020
796.396	0.0141535
796.474	0.0142308
796.552	0.0141972
796.630	0.0143085
796.708	0.0143772
796.786	0.0142976
796.864	0.0142657
796.943	0.0143420
797.021	0.0142943
797.099	0.0142332
797.177	0.0143925
797.255	0.0143631
797.333	0.0142140
797.411	0.0143033
797.489	0.0142157
797.568	0.0141116
797.646	0.0142767
797.724	0.0141508
797.802	0.0142962
797.880	0.0141584
797.958	0.0142096
798.036	0.0142255
798.114	0.0142030
798.193	0.0141074
798.271	0.0141348
798.349	0.0139825
798.427	0.0140484
798.505	0.0140410
798.583	0.0139638
798.661	0.0139920
798.739	0.0141095
798.818	0.0138260
798.896	0.0137863
798.974	0.0137445
799.052	0.0136018
799.130	0.0136549
799.208	0.0135881
799.286	0.0136009
799.364	0.0137137
799.443	0.0135498
799.521	0.0134271
799.599	0.0135897
799.677	0.0135898
799.755	0.0133521
799.833	0.0132809
799.911	0.0133530
799.989	0.0132223
800.068	0.0132383
800.146	0.0133155
800.224	0.0133112
800.302	0.0133781
800.380	0.0133226
800.458	0.0135019
800.536	0.0134662
800.614	0.0135085
800.693	0.0136123
800.771	0.0135870
800.849	0.0137077
800.927	0.0137502
801.005	0.0137395
801.083	0.0137922
801.161	0.0138393
801.239	0.0138326
801.318	0.0138366
801.396	0.0141259
801.474	0.0140360
801.552	0.0142199
801.630	0.0141451
801.708	0.0142619
801.786	0.0143382
801.864	0.0143939
801.943	0.0143607
802.021	0.0144187
802.099	0.0145510
802.177	0.0146037
802.255	0.0145122
802.333	0.0146186
802.411	0.0147382
802.489	0.0146564
802.568	0.0149070
802.646	0.0146880
802.724	0.0145956
802.802	0.0147500
802.880	0.0146794
802.958	0.0145627
803.036	0.0146292
803.114	0.0146630
803.193	0.0146098
803.271	0.0144633
803.349	0.0144707
803.427	0.0143083
803.505	0.0142753
803.583	0.0143164
803.661	0.0143750
803.739	0.0140765
803.818	0.0140540
803.896	0.0138939
803.974	0.0140700
804.052	0.0138226
804.130	0.0138162
804.208	0.0136694
804.286	0.0135869
804.364	0.0134060
804.443	0.0133450
804.521	0.0133865
804.599	0.0132978
804.677	0.0132085
804.755	0.0130919
804.833	0.0131303
804.911	0.0130543
804.989	0.0130527
805.068	0.0130487
805.146	0.0130564
805.224	0.0131036
805.302	0.0131277
805.380	0.0130700
805.458	0.0130444
805.536	0.0131305
805.614	0.0132145
805.693	0.0132290
805.771	0.0132919
805.849	0.0133367
805.927	0.0133993
806.005	0.0133953
806.083	0.0134129
806.161	0.0134457
806.239	0.0135269
806.318	0.0137093
806.396	0.0137185
806.474	0.0137903
806.552	0.0138290
806.630	0.0137119
806.708	0.0138383
806.786	0.0138525
806.864	0.0140740
806.943	0.0139841
807.021	0.0140572
807.099	0.0142087
807.177	0.0143635
807.255	0.0144965
807.333	0.0143742
807.411	0.0143364
807.489	0.0145833
807.568	0.0144503
807.646	0.0145074
807.724	0.0146526
807.802	0.0146666
807.880	0.0146378
807.958	0.0147249
808.036	0.0147017
808.114	0.0146473
808.193	0.0147404
808.271	0.0147612
808.349	0.0145969
808.427	0.0146085
808.505	0.0146236
808.583	0.0144434
808.661	0.0141943
808.739	0.0142811
808.818	0.0141107
808.896	0.0138648
808.974	0.0138849
809.052	0.0138797
809.130	0.0139531
809.208	0.0137262
809.286	0.0136108
809.364	0.0134643
809.443	0.0135200
809.521	0.0134723
809.599	0.0134376
809.677	0.0133946
809.755	0.0134858
809.833	0.0132938
809.911	0.0131339
809.989	0.0132048
810.068	0.0131897
810.146	0.0132420
810.224	0.0131863
810.302	0.0132963
810.380	0.0132436
810.458	0.0131677
810.536	0.0132658
810.614	0.0133064
810.693	0.0132968
810.771	0.0133850
810.849	0.0132932
810.927	0.0132190
811.005	0.0133675
811.083	0.0135088
811.161	0.0134522
811.239	0.0133359
811.318	0.0133443
811.396	0.0134669
811.474	0.0135155
811.552	0.0136202
811.630	0.0137099
811.708	0.0136491
811.786	0.0139991
811.864	0.0138859
811.943	0.0141473
812.021	0.0141729
812.099	0.0140440
812.177	0.0143025
812.255	0.0142857
812.333	0.0142534
812.411	0.0143503
812.489	0.0142477
812.568	0.0145376
812.646	0.0144667
812.724	0.0144232
812.802	0.0146626
812.880	0.0146671
812.958	0.0146761
813.036	0.0146317
813.114	0.0146099
813.193	0.0146338
813.271	0.0145662
813.349	0.0147500
813.427	0.0143394
813.505	0.0143209
813.583	0.0143012
813.661	0.0141941
813.739	0.0141993
813.818	0.0140793
813.896	0.0141216
813.974	0.0139758
814.052	0.0140234
814.130	0.0138816
814.208	0.0139308
814.286	0.0139169
814.364	0.0139839
814.443	0.0139954
814.521	0.0139261
814.599	0.0139804
814.677	0.0139808
814.755	0.0139447
814.833	0.0141387
814.911	0.0140993
814.989	0.0141023
815.068	0.0140965
815.146	0.0140781
815.224	0.0141734
815.302	0.0140206
815.380	0.0141687
815.458	0.0141772
815.536	0.0140560
815.614	0.0141470
815.693	0.0141793
815.771	0.0140077
815.849	0.0140618
815.927	0.0139742
816.005	0.0139202
816.083	0.0137750
816.161	0.0137975
816.239	0.0138440
816.318	0.0136909
816.396	0.0135987
816.474	0.0136604
816.552	0.0136720
816.630	0.0136172
816.708	0.0136345
816.786	0.0134566
816.864	0.0133985
816.943	0.0135472
817.021	0.0135636
817.099	0.0136003
817.177	0.0136783
817.255	0.0137011
817.333	0.0138023
817.411	0.0135949
817.489	0.0137708
817.568	0.0137462
817.646	0.0137881
817.724	0.0137167
817.802	0.0136908
817.880	0.0138272
817.958	0.0138828
818.036	0.0136641
818.114	0.0138377
818.193	0.0139346
818.271	0.0137727
818.349	0.0137423
818.427	0.0137759
818.505	0.0139561
818.583	0.0138246
818.661	0.0137968
818.739	0.0138808
818.818	0.0139481
818.896	0.0139617
818.974	0.0140042
819.052	0.0138470
819.130	0.0138927
819.208	0.0140525
819.286	0.0138757
819.364	0.0138551
819.443	0.0138744
819.521	0.0140502
819.599	0.0139191
819.677	0.0138212
819.755	0.0138732
819.833	0.0139491
819.911	0.0140812
819.989	0.0137740
820.068	0.0138841
820.146	0.0139716
820.224	0.0140000
820.302	0.0138884
820.380	0.0139552
820.458	0.0140105
820.536	0.0140605
820.614	0.0139226
820.693	0.0139742
820.771	0.0139705
820.849	0.0139808
820.927	0.0140034
821.005	0.0137844
821.083	0.0137746
821.161	0.0137778
821.239	0.0138518
821.318	0.0137591
821.396	0.0136627
821.474	0.0137467
821.552	0.0135072
821.630	0.0136095
821.708	0.0135235
821.786	0.0134645
821.864	0.0134650
821.943	0.0133943
822.021	0.0133419
822.099	0.0133809
822.177	0.0133780
822.255	0.0133883
822.333	0.0133786
822.411	0.0132372
822.489	0.0132406
822.568	0.0134924
822.646	0.0134383
822.724	0.0136815
822.802	0.0135298
822.880	0.0136325
822.958	0.0136089
823.036	0.0138740
823.114	0.0140051
823.193	0.0139017
823.271	0.0139507
823.349	0.0141544
823.427	0.0142902
823.505	0.0142537
823.583	0.0142279
823.661	0.0142805
823.739	0.0142278
823.818	0.0144566
823.896	0.0143160
823.974	0.0145154
824.052	0.0143170
824.130	0.0143463
824.208	0.0144565
824.286	0.0142409
824.364	0.0143101
824.443	0.0141151
824.521	0.0140167
824.599	0.0141329
824.677	0.0140472
824.755	0.0140549
824.833	0.0138568
824.911	0.0139201
824.989	0.0138081
825.068	0.0137914
825.146	0.0137947
825.224	0.0135663
825.302	0.0136653
825.380	0.0135213
825.458	0.0135774
825.536	0.0134283
825.614	0.0134440
825.693	0.0136040
825.771	0.0134899
825.849	0.0134959
825.927	0.0135960
826.005	0.0136270
826.083	0.0138074
826.161	0.0137165
826.239	0.0137208
826.318	0.0137045
826.396	0.0138543
826.474	0.0140047
826.552	0.0139042
826.630	0.0139444
826.708	0.0139767
826.786	0.0139938
826.864	0.0140225
826.943	0.0139803
827.021	0.0141346
827.099	0.0141705
827.177	0.0141354
827.255	0.0142023
827.333	0.0141087
827.411	0.0141156
827.489	0.0143196
827.568	0.0141498
827.646	0.0141580
827.724	0.0141372
827.802	0.0140316
827.880	0.0140398
827.958	0.0139659
828.036	0.0139242
828.114	0.0140173
828.193	0.0138603
828.271	0.0138518
828.349	0.0137753
828.427	0.0137315
828.505	0.0137933
828.583	0.0137282
828.661	0.0137425
828.739	0.0134840
828.818	0.0136645
828.896	0.0136030
828.974	0.0136412
829.052	0.0135654
829.130	0.0136252
829.208	0.0134212
829.286	0.0136144
829.364	0.0136653
829.443	0.0135941
829.521	0.0135336
829.599	0.0136049
829.677	0.0134755
829.755	0.0136005
829.833	0.0134016
829.911	0.0134914
829.989	0.0135975
830.068	0.0134551
830.146	0.0135157
830.224	0.0135527
830.302	0.0137104
830.380	0.0137889
830.458	0.0137267
830.536	0.0137793
830.614	0.0138719
830.693	0.0139484
830.771	0.0138602
830.849	0.0140410
830.927	0.0139861
831.005	0.0141228
831.083	0.0142294
831.161	0.0142271
831.239	0.0139938
831.318	0.0142892
831.396	0.0142046
831.474	0.0140740
831.552	0.0143267
831.630	0.0142234
831.708	0.0141536
831.786	0.0141354
831.864	0.0140758
831.943	0.0141219
832.021	0.0140737
832.099	0.0139742
832.177	0.0139478
832.255	0.0139127
832.333	0.0139238
832.411	0.0139407
832.489	0.0140189
832.568	0.0137807
832.646	0.0138560
832.724	0.0136478
832.802	0.0136705
832.880	0.0136637
832.958	0.0137544
833.036	0.0136829
833.114	0.0136074
833.193	0.0135986
833.271	0.0136141
833.349	0.0137263
833.427	0.0135722
833.505	0.0136300
833.583	0.0137161
833.661	0.0136246
833.739	0.0136861
833.818	0.0136628
833.896	0.0137901
833.974	0.0137646
834.052	0.0138477
834.130	0.0137914
834.208	0.0137331
834.286	0.0137643
834.364	0.0139486
834.443	0.0139442
834.521	0.0140844
834.599	0.0140180
834.677	0.0140641
834.755	0.0139854
834.833	0.0139898
834.911	0.0140337
834.989	0.0143069
835.068	0.0142838
835.146	0.0140938
835.224	0.0140466
835.302	0.0141777
835.380	0.0141663
835.458	0.0140951
835.536	0.0140629
835.614	0.0140907
835.693	0.0139788
835.771	0.0140007
835.849	0.0139899
835.927	0.0138964
836.005	0.0139114
836.083	0.0138213
836.161	0.0138634
836.239	0.0137846
836.318	0.0136386
836.396	0.0136043
836.474	0.0136387
836.552	0.0135840
836.630	0.0136089
836.708	0.0136518
836.786	0.0134756
836.864	0.0136035
836.943	0.0134849
837.021	0.0133176
837.099	0.0134505
837.177	0.0134779
837.255	0.0134484
837.333	0.0134807
837.411	0.0134893
837.489	0.0134934
837.568	0.0135312
837.646	0.0136422
837.724	0.0136568
837.802	0.0138209
837.880	0.0137672
837.958	0.0139629
838.036	0.0141245
838.114	0.0141319
838.193	0.0141201
838.271	0.0141336
838.349	0.0142255
838.427	0.0142487
838.505	0.0142936
838.583	0.0144300
838.661	0.0144727
838.739	0.0144384
838.818	0.0143107
838.896	0.0143394
838.974	0.0144555
839.052	0.0143278
839.130	0.0142586
839.208	0.0143109
839.286	0.0142193
839.364	0.0142293
839.443	0.0140258
839.521	0.0141031
839.599	0.0140495
839.677	0.0139827
839.755	0.0139809
839.833	0.0139987
839.911	0.0137686
839.989	0.0137773
840.068	0.0137098
840.146	0.0136411
840.224	0.0136839
840.302	0.0135870
840.380	0.0136024
840.458	0.0136163
840.536	0.0136739
840.614	0.0135072
840.693	0.0134757
840.771	0.0135059
840.849	0.0137251
840.927	0.0136990
841.005	0.0136242
841.083	0.0138121
841.161	0.0138161
841.239	0.0137888
841.318	0.0138687
841.396	0.0138821
841.474	0.0139624
841.552	0.0139131
841.630	0.0139576
841.708	0.0140261
841.786	0.0141071
841.864	0.0141090
841.943	0.0141035
842.021	0.0140605
842.099	0.0140095
842.177	0.0139539
842.255	0.0140389
842.333	0.0139507
842.411	0.0138597
842.489	0.0139523
842.568	0.0139534
842.646	0.0137874
842.724	0.0137605
842.802	0.0138496
842.880	0.0137471
842.958	0.0136201
843.036	0.0138045
843.114	0.0136539
843.193	0.0137325
843.271	0.0137474
843.349	0.0136245
843.427	0.0136988
843.505	0.0138438
843.583	0.0138161
843.661	0.0137546
843.739	0.0137863
843.818	0.0138222
843.896	0.0139003
843.974	0.0139033
844.052	0.0137714
844.130	0.0138726
844.208	0.0138959
844.286	0.0139827
844.364	0.0139876
844.443	0.0141780
844.521	0.0139890
844.599	0.0139985
844.677	0.0140082
844.755	0.0141541
844.833	0.0141501
844.911	0.0141379
844.989	0.0142644
845.068	0.0142738
845.146	0.0142375
845.224	0.0142377
845.302	0.0144114
845.380	0.0141420
845.458	0.0141283
845.536	0.0142687
845.614	0.0141309
845.693	0.0141582
845.771	0.0142747
845.849	0.0141392
845.927	0.0141888
846.005	0.0140564
846.083	0.0140849
846.161	0.0140914
846.239	0.0139977
846.318	0.0140019
846.396	0.0139625
846.474	0.0139176
846.552	0.0138579
846.630	0.0137287
846.708	0.0137817
846.786	0.0136040
846.864	0.0136182
846.943	0.0136095
847.021	0.0135876
847.099	0.0134483
847.177	0.0134384
847.255	0.0134832
847.333	0.0135561
847.411	0.0135140
847.489	0.0134700
847.568	0.0135506
847.646	0.0135359
847.724	0.0136066
847.802	0.0135880
847.880	0.0137524
847.958	0.0137759
848.036	0.0137840
848.114	0.0139250
848.193	0.0139089
848.271	0.0140738
848.349	0.0140823
848.427	0.0139858
848.505	0.0140369
848.583	0.0141402
848.661	0.0141378
848.739	0.0141465
848.818	0.0142027
848.896	0.0140901
848.974	0.0141550
849.052	0.0142456
849.130	0.0141162
849.208	0.0139631
849.286	0.0142561
849.364	0.0141356
849.443	0.0139288
849.521	0.0140631
849.599	0.0139658
849.677	0.0138440
849.755	0.0139558
849.833	0.0139445
849.911	0.0139471
849.989	0.0138180
850.068	0.0138398
850.146	0.0137882
850.224	0.0139043
850.302	0.0138683
850.380	0.0138457
850.458	0.0138967
850.536	0.0139890
850.614	0.0141503
850.693	0.0140704
850.771	0.0140513
850.849	0.0139613
850.927	0.0138198
851.005	0.0138726
851.083	0.0139812
851.161	0.0138233
851.239	0.0138084
851.318	0.0139254
851.396	0.0137998
851.474	0.0138090
851.552	0.0136884
851.630	0.0136303
851.708	0.0137740
851.786	0.0138115
851.864	0.0136195
851.943	0.0136849
852.021	0.0137084
852.099	0.0136663
852.177	0.0137395
852.255	0.0138503
852.333	0.0138840
852.411	0.0138103
852.489	0.0137415
852.568	0.0137855
852.646	0.0138237
852.724	0.0138676
852.802	0.0138139
852.880	0.0137596
852.958	0.0138464
853.036	0.0138374
853.114	0.0139365
853.193	0.0138746
853.271	0.0140359
853.349	0.0138789
853.427	0.0139906
853.505	0.0139713
853.583	0.0138894
853.661	0.0140301
853.739	0.0139056
853.818	0.0139119
853.896	0.0138372
853.974	0.0139347
854.052	0.0138625
854.130	0.0140369
854.208	0.0139034
854.286	0.0139021
854.364	0.0137518
854.443	0.0138745
854.521	0.0140540
854.599	0.0140031
854.677	0.0138663
854.755	0.0140070
854.833	0.0139729
854.911	0.0140179
854.989	0.0139446
855.068	0.0139979
855.146	0.0140279
855.224	0.0140839
855.302	0.0139401
855.380	0.0140881
855.458	0.0140413
855.536	0.0141016
855.614	0.0140062
855.693	0.0139848
855.771	0.0139439
855.849	0.0139734
855.927	0.0140363
856.005	0.0140008
856.083	0.0140527
856.161	0.0141174
856.239	0.0141054
856.318	0.0140279
856.396	0.0140785
856.474	0.0139387
856.552	0.0139415
856.630	0.0140920
856.708	0.0142137
856.786	0.0141012
856.864	0.0139587
856.943	0.0139847
857.021	0.0139462
857.099	0.0139725
857.177	0.0140520
857.255	0.0139906
857.333	0.0138708
857.411	0.0139610
857.489	0.0139194
857.568	0.0139777
857.646	0.0138567
857.724	0.0139227
857.802	0.0136988
857.880	0.0136398
857.958	0.0139468
858.036	0.0138787
858.114	0.0137631
858.193	0.0137493
858.271	0.0138368
858.349	0.0137547
858.427	0.0136990
858.505	0.0137084
858.583	0.0137885
858.661	0.0137596
858.739	0.0135355
858.818	0.0137290
858.896	0.0136067
858.974	0.0136648
859.052	0.0138019
859.130	0.0137640
859.208	0.0136906
859.286	0.0136136
859.364	0.0137403
859.443	0.0138915
859.521	0.0137963
859.599	0.0138039
859.677	0.0137527
859.755	0.0138956
859.833	0.0139081
859.911	0.0139957
859.989	0.0138070
860.068	0.0138946
860.146	0.0139835
860.224	0.0139584
860.302	0.0140771
860.380	0.0141060
860.458	0.0140665
860.536	0.0140808
860.614	0.0141513
860.693	0.0140424
860.771	0.0141451
860.849	0.0142135
860.927	0.0140020
861.005	0.0140835
861.083	0.0142075
861.161	0.0141093
861.239	0.0141747
861.318	0.0141871
861.396	0.0142672
861.474	0.0140106
861.552	0.0141426
861.630	0.0142395
861.708	0.0141387
861.786	0.0141319
861.864	0.0142396
861.943	0.0140414
862.021	0.0141132
862.099	0.0143178
862.177	0.0140829
862.255	0.0138763
862.333	0.0139870
862.411	0.0139118
862.489	0.0139117
862.568	0.0139809
862.646	0.0138943
862.724	0.0137662
862.802	0.0137257
862.880	0.0138503
862.958	0.0136495
863.036	0.0137756
863.114	0.0136925
863.193	0.0136667
863.271	0.0137946
863.349	0.0137192
863.427	0.0136556
863.505	0.0137836
863.583	0.0137121
863.661	0.0139261
863.739	0.0139942
863.818	0.0139140
863.896	0.0139483
863.974	0.0139494
864.052	0.0139439
864.130	0.0138292
864.208	0.0139511
864.286	0.0137872
864.364	0.0138702
864.443	0.0138918
864.521	0.0136485
864.599	0.0136735
864.677	0.0136607
864.755	0.0135464
864.833	0.0138058
864.911	0.0137857
864.989	0.0134656
865.068	0.0134622
865.146	0.0135978
865.224	0.0135475
865.302	0.0137102
865.380	0.0136189
865.458	0.0136846
865.536	0.0137895
865.614	0.0136797
865.693	0.0140603
865.771	0.0139918
865.849	0.0138185
865.927	0.0138149
866.005	0.0141551
866.083	0.0140540
866.161	0.0141888
866.239	0.0141764
866.318	0.0141271
866.396	0.0142478
866.474	0.0141821
866.552	0.0141376
866.630	0.0142201
866.708	0.0140430
866.786	0.0140813
866.864	0.0141152
866.943	0.0141932
867.021	0.0140411
867.099	0.0142149
867.177	0.0140306
867.255	0.0140488
867.333	0.0139906
867.411	0.0141025
867.489	0.0140425
867.568	0.0140504
867.646	0.0139693
867.724	0.0139668
867.802	0.0139929
867.880	0.0138332
867.958	0.0138845
868.036	0.0138489
868.114	0.0138927
868.193	0.0137861
868.271	0.0138248
868.349	0.0138029
868.427	0.0136872
868.505	0.0138299
868.583	0.0137967
868.661	0.0137056
868.739	0.0137501
868.818	0.0137664
868.896	0.0136697
868.974	0.0136665
869.052	0.0136268
869.130	0.0136844
869.208	0.0136552
869.286	0.0135282
869.364	0.0136130
869.443	0.0136610
869.521	0.0136433
869.599	0.0135909
869.677	0.0136408
869.755	0.0136078
869.833	0.0136268
869.911	0.0136243
869.989	0.0136578
870.068	0.0136187
870.146	0.0137152
870.224	0.0137650
870.302	0.0137859
870.380	0.0138773
870.458	0.0137975
870.536	0.0137997
870.614	0.0137307
870.693	0.0137889
870.771	0.0138239
870.849	0.0137756
870.927	0.0138655
871.005	0.0136697
871.083	0.0136481
871.161	0.0138401
871.239	0.0136536
871.318	0.0137337
871.396	0.0137003
871.474	0.0137420
871.552	0.0136774
871.630	0.0137695
871.708	0.0136285
871.786	0.0135547
871.864	0.0136907
871.943	0.0137624
872.021	0.0137926
872.099	0.0138821
872.177	0.0139474
872.255	0.0138450
872.333	0.0139245
872.411	0.0138676
872.489	0.0141100
872.568	0.0140563
872.646	0.0139497
872.724	0.0140751
872.802	0.0141764
872.880	0.0140713
872.958	0.0141574
873.036	0.0141449
873.114	0.0142092
873.193	0.0139863
873.271	0.0140324
873.349	0.0142505
873.427	0.0141644
873.505	0.0140646
873.583	0.0139947
873.661	0.0139677
873.739	0.0138615
873.818	0.0137980
873.896	0.0137862
873.974	0.0139373
874.052	0.0137792
874.130	0.0137823
874.208	0.0137345
874.286	0.0136012
874.364	0.0135800
874.443	0.0136817
874.521	0.0137627
874.599	0.0135718
874.677	0.0137135
874.755	0.0136932
874.833	0.0136751
874.911	0.0136691
874.989	0.0136987
875.068	0.0136998
875.146	0.0138849
875.224	0.0139529
875.302	0.0138986
875.380	0.0138362
875.458	0.0137797
875.536	0.0138420
875.614	0.0139035
875.693	0.0137279
875.771	0.0138122
875.849	0.0140514
875.927	0.0140022
876.005	0.0139426
876.083	0.0139217
876.161	0.0139162
876.239	0.0139024
876.318	0.0138847
876.396	0.0138620
876.474	0.0139780
876.552	0.0140902
876.630	0.0138697
876.708	0.0139261
876.786	0.0140899
876.864	0.0140843
876.943	0.0140452
877.021	0.0141738
877.099	0.0141561
877.177	0.0140383
877.255	0.0140237
877.333	0.0141585
877.411	0.0141537
877.489	0.0141705
877.568	0.0142288
877.646	0.0141976
877.724	0.0139853
877.802	0.0141167
877.880	0.0141200
877.958	0.0140434
878.036	0.0140619
878.114	0.0141978
878.193	0.0138992
878.271	0.0139998
878.349	0.0138582
878.427	0.0137743
878.505	0.0137820
878.583	0.0139870
878.661	0.0138333
878.739	0.0137831
878.818	0.0137404
878.896	0.0137969
878.974	0.0139303
879.052	0.0139403
879.130	0.0139157
879.208	0.0139281
879.286	0.0138297
879.364	0.0139259
879.443	0.0140409
879.521	0.0139873
879.599	0.0140086
879.677	0.0140765
879.755	0.0140604
879.833	0.0140224
879.911	0.0142261
879.989	0.0141244
880.068	0.0139301
880.146	0.0142203
880.224	0.0140793
880.302	0.0141063
880.380	0.0140717
880.458	0.0139983
880.536	0.0139391
880.614	0.0140302
880.693	0.0140881
880.771	0.0138519
880.849	0.0138254
880.927	0.0138954
881.005	0.0138771
881.083	0.0139276
881.161	0.0139028
881.239	0.0138706
881.318	0.0138778
881.396	0.0138154
881.474	0.0138560
881.552	0.0138483
881.630	0.0135857
881.708	0.0138853
881.786	0.0138592
881.864	0.0138273
881.943	0.0136967
882.021	0.0137632
882.099	0.0137724
882.177	0.0139764
882.255	0.0138431
882.333	0.0138201
882.411	0.0137722
882.489	0.0138652
882.568	0.0139281
882.646	0.0139666
882.724	0.0139902
882.802	0.0139919
882.880	0.0139684
882.958	0.0140099
883.036	0.0139909
883.114	0.0140677
883.193	0.0139803
883.271	0.0138271
883.349	0.0138818
883.427	0.0138719
883.505	0.0139239
883.583	0.0140106
883.661	0.0139477
883.739	0.0139766
883.818	0.0138966
883.896	0.0138966
883.974	0.0138434
884.052	0.0138879
884.130	0.0138660
884.208	0.0138502
884.286	0.0138751
884.364	0.0139874
884.443	0.0138927
884.521	0.0138321
884.599	0.0138002
884.677	0.0138361
884.755	0.0139154
884.833	0.0139379
884.911	0.0137959
884.989	0.0138896
885.068	0.0138860
885.146	0.0138419
885.224	0.0138649
885.302	0.0139216
885.380	0.0138493
885.458	0.0138880
885.536	0.0139893
885.614	0.0139734
885.693	0.0139153
885.771	0.0140836
885.849	0.0140015
885.927	0.0138826
886.005	0.0139922
886.083	0.0140051
886.161	0.0141324
886.239	0.0139475
886.318	0.0139812
886.396	0.0140562
886.474	0.0140768
886.552	0.0138208
886.630	0.0138653
886.708	0.0139638
886.786	0.0139177
886.864	0.0138304
886.943	0.0139291
887.021	0.0139258
887.099	0.0140270
887.177	0.0139232
887.255	0.0139557
887.333	0.0138232
887.411	0.0140267
887.489	0.0139789
887.568	0.0139639
887.646	0.0140186
887.724	0.0139329
887.802	0.0140472
887.880	0.0139152
887.958	0.0139671
888.036	0.0140148
888.114	0.0139308
888.193	0.0140048
888.271	0.0139273
888.349	0.0138310
888.427	0.0139361
888.505	0.0139561
888.583	0.0138491
888.661	0.0138477
888.739	0.0137309
888.818	0.0138187
888.896	0.0136179
888.974	0.0137395
889.052	0.0137337
889.130	0.0136339
889.208	0.0135984
889.286	0.0135425
889.364	0.0136343
889.443	0.0134039
889.521	0.0136220
889.599	0.0137130
889.677	0.0137289
889.755	0.0135644
889.833	0.0139092
889.911	0.0137915
889.989	0.0136604
890.068	0.0138503
890.146	0.0137488
890.224	0.0139225
890.302	0.0139057
890.380	0.0139538
890.458	0.0139716
890.536	0.0139062
890.614	0.0141334
890.693	0.0139529
890.771	0.0139995
890.849	0.0140621
890.927	0.0140515
891.005	0.0139150
891.083	0.0139487
891.161	0.0140791
891.239	0.0140529
891.318	0.0139727
891.396	0.0139472
891.474	0.0138820
891.552	0.0139610
891.630	0.0140545
891.708	0.0140104
891.786	0.0138691
891.864	0.0139205
891.943	0.0139145
892.021	0.0139754
892.099	0.0138652
892.177	0.0139554
892.255	0.0140237
892.333	0.0139307
892.411	0.0138095
892.489	0.0139764
892.568	0.0139928
892.646	0.0137783
892.724	0.0137875
892.802	0.0139640
892.880	0.0139599
892.958	0.0139765
893.036	0.0139414
893.114	0.0138868
893.193	0.0138925
893.271	0.0137802
893.349	0.0138590
893.427	0.0138198
893.505	0.0137267
893.583	0.0135973
893.661	0.0137833
893.739	0.0138071
893.818	0.0138318
893.896	0.0136445
893.974	0.0136147
894.052	0.0137005
894.130	0.0136361
894.208	0.0137184
894.286	0.0135610
894.364	0.0136624
894.443	0.0136524
894.521	0.0136103
894.599	0.0136302
894.677	0.0138097
894.755	0.0136298
894.833	0.0136917
894.911	0.0137138
894.989	0.0136760
895.068	0.0137791
895.146	0.0137650
895.224	0.0137241
895.302	0.0138148
895.380	0.0138332
895.458	0.0140387
895.536	0.0140288
895.614	0.0140088
895.693	0.0139237
895.771	0.0139648
895.849	0.0140212
895.927	0.0139783
896.005	0.0136946
896.083	0.0139811
896.161	0.0139807
896.239	0.0139583
896.318	0.0139690
896.396	0.0138505
896.474	0.0138840
896.552	0.0140516
896.630	0.0139902
896.708	0.0138199
896.786	0.0139298
896.864	0.0138701
896.943	0.0139128
897.021	0.0138383
897.099	0.0139432
897.177	0.0139183
897.255	0.0137521
897.333	0.0138320
897.411	0.0139880
897.489	0.0138631
897.568	0.0138538
897.646	0.0137104
897.724	0.0137897
897.802	0.0137799
897.880	0.0138381
897.958	0.0137022
898.036	0.0137679
898.114	0.0137786
898.193	0.0138113
898.271	0.0138815
898.349	0.0139494
898.427	0.0139657
898.505	0.0138521
898.583	0.0138653
898.661	0.0139812
898.739	0.0140247
898.818	0.0141218
898.896	0.0140058
898.974	0.0140186
899.052	0.0140235
899.130	0.0138641
899.208	0.0139473
899.286	0.0139474
899.364	0.0138765
899.443	0.0138287
899.521	0.0139329
899.599	0.0138474
899.677	0.0137843
899.755	0.0138419
899.833	0.0137849
899.911	0.0137962
899.989	0.0137712
900.068	0.0138966
900.146	0.0139111
900.224	0.0138400
900.302	0.0138141
900.380	0.0136974
900.458	0.0138708
900.536	0.0139555
900.614	0.0139078
900.693	0.0139832
900.771	0.0138409
900.849	0.0140358
900.927	0.0139919
901.005	0.0140227
901.083	0.0140227
901.161	0.0140487
901.239	0.0139398
901.318	0.0138450
901.396	0.0140610
901.474	0.0140438
901.552	0.0140221
901.630	0.0140582
901.708	0.0139634
901.786	0.0140255
901.864	0.0140216
901.943	0.0139468
902.021	0.0140122
902.099	0.0139895
902.177	0.0139563
902.255	0.0139310
902.333	0.0140588
902.411	0.0138929
902.489	0.0137527
902.568	0.0139702
902.646	0.0140432
902.724	0.0140995
902.802	0.0141019
902.880	0.0138515
902.958	0.0138697
903.036	0.0139175
903.114	0.0138007
903.193	0.0139550
903.271	0.0137935
903.349	0.0140632
903.427	0.0139114
903.505	0.0138530
903.583	0.0138382
903.661	0.0137041
903.739	0.0137323
903.818	0.0138320
903.896	0.0137856
903.974	0.0137675
904.052	0.0137400
904.130	0.0136685
904.208	0.0137902
904.286	0.0135635
904.364	0.0135654
904.443	0.0135135
904.521	0.0135265
904.599	0.0134761
904.677	0.0135381
904.755	0.0135002
904.833	0.0135563
904.911	0.0135002
904.989	0.0135142
905.068	0.0136664
905.146	0.0136821
905.224	0.0137251
905.302	0.0137147
905.380	0.0137482
905.458	0.0137045
905.536	0.0136943
905.614	0.0140120
905.693	0.0140164
905.771	0.0138832
905.849	0.0138209
905.927	0.0140323
906.005	0.0140190
906.083	0.0139365
906.161	0.0140347
906.239	0.0140699
906.318	0.0141216
906.396	0.0142332
906.474	0.0139066
906.552	0.0140511
906.630	0.0139661
906.708	0.0141586
906.786	0.0141496
906.864	0.0140911
906.943	0.0140087
907.021	0.0138933
907.099	0.0138300
907.177	0.0138419
907.255	0.0138672
907.333	0.0139155
907.411	0.0139140
907.489	0.0138403
907.568	0.0138107
907.646	0.0138113
907.724	0.0138860
907.802	0.0138026
907.880	0.0138122
907.958	0.0138795
908.036	0.0137604
908.114	0.0137956
908.193	0.0138145
908.271	0.0137880
908.349	0.0138985
908.427	0.0138227
908.505	0.0138678
908.583	0.0139529
908.661	0.0139631
908.739	0.0138769
908.818	0.0139423
908.896	0.0140230
908.974	0.0140302
909.052	0.0139874
909.130	0.0139100
909.208	0.0140652
909.286	0.0138507
909.364	0.0138589
909.443	0.0138902
909.521	0.0138097
909.599	0.0139719
909.677	0.0138925
909.755	0.0139159
909.833	0.0139571
909.911	0.0139208
909.989	0.0138863
910.068	0.0138944
910.146	0.0139027
910.224	0.0140157
910.302	0.0137703
910.380	0.0140202
910.458	0.0139334
910.536	0.0138704
910.614	0.0139750
910.693	0.0140764
910.771	0.0140575
910.849	0.0139731
910.927	0.0139491
911.005	0.0141611
911.083	0.0141659
911.161	0.0141642
911.239	0.0143237
911.318	0.0142098
911.396	0.0141674
911.474	0.0141942
911.552	0.0141150
911.630	0.0142262
911.708	0.0141799
911.786	0.0141104
911.864	0.0140923
911.943	0.0141789
912.021	0.0140319
912.099	0.0141621
912.177	0.0141077
912.255	0.0139350
912.333	0.0139938
912.411	0.0139011
912.489	0.0139628
912.568	0.0138255
912.646	0.0137651
912.724	0.0138483
912.802	0.0138091
912.880	0.0137862
912.958	0.0136172
913.036	0.0136420
913.114	0.0136825
913.193	0.0135327
913.271	0.0136366
913.349	0.0136374
913.427	0.0137241
913.505	0.0137177
913.583	0.0136412
913.661	0.0136292
913.739	0.0137003
913.818	0.0137238
913.896	0.0137322
913.974	0.0136775
914.052	0.0138214
914.130	0.0138340
914.208	0.0139032
914.286	0.0138845
914.364	0.0139545
914.443	0.0140485
914.521	0.0139941
914.599	0.0140549
914.677	0.0139252
914.755	0.0138848
914.833	0.0139311
914.911	0.0139907
914.989	0.0139966
915.068	0.0139658
915.146	0.0139767
915.224	0.0138296
915.302	0.0139007
915.380	0.0141157
915.458	0.0141476
915.536	0.0139287
915.614	0.0140237
915.693	0.0139698
915.771	0.0139822
915.849	0.0141106
915.927	0.0140907
916.005	0.0140437
916.083	0.0140964
916.161	0.0140024
916.239	0.0139899
916.318	0.0140698
916.396	0.0140912
916.474	0.0139326
916.552	0.0138396
916.630	0.0140437
916.708	0.0139604
916.786	0.0140027
916.864	0.0140437
916.943	0.0140996
917.021	0.0139460
917.099	0.0138572
917.177	0.0139674
917.255	0.0139466
917.333	0.0139319
917.411	0.0139719
917.489	0.0138789
917.568	0.0138241
917.646	0.0139165
917.724	0.0139903
917.802	0.0139184
917.880	0.0139828
917.958	0.0139714
918.036	0.0139181
918.114	0.0137602
918.193	0.0138506
918.271	0.0138508
918.349	0.0138434
918.427	0.0137819
918.505	0.0137760
918.583	0.0136756
918.661	0.0138290
918.739	0.0137402
918.818	0.0137774
918.896	0.0137875
918.974	0.0138066
919.052	0.0137720
919.130	0.0139323
919.208	0.0138149
919.286	0.0137789
919.364	0.0137957
919.443	0.0138818
919.521	0.0139142
919.599	0.0138686
919.677	0.0139571
919.755	0.0139422
919.833	0.0138863
919.911	0.0139747
919.989	0.0139649
920.068	0.0138808
920.146	0.0138854
920.224	0.0138764
920.302	0.0138724
920.380	0.0138828
920.458	0.0138873
920.536	0.0138950
920.614	0.0137547
920.693	0.0138146
920.771	0.0137920
920.849	0.0138244
920.927	0.0138161
921.005	0.0138091
921.083	0.0137675
921.161	0.0138245
921.239	0.0138767
921.318	0.0138354
921.396	0.0139999
921.474	0.0139218
921.552	0.0138734
921.630	0.0139311
921.708	0.0139783
921.786	0.0140192
921.864	0.0138605
921.943	0.0139396
922.021	0.0140963
922.099	0.0139828
922.177	0.0138529
922.255	0.0138947
922.333	0.0139631
922.411	0.0139606
922.489	0.0139126
922.568	0.0139123
922.646	0.0139275
922.724	0.0139738
922.802	0.0138866
922.880	0.0139335
922.958	0.0138763
923.036	0.0138348
923.114	0.0138149
923.193	0.0140006
923.271	0.0138957
923.349	0.0138024
923.427	0.0138234
923.505	0.0138575
923.583	0.0138905
923.661	0.0137880
923.739	0.0137608
923.818	0.0138430
923.896	0.0137339
923.974	0.0136243
924.052	0.0137839
924.130	0.0137572
924.208	0.0137571
924.286	0.0137744
924.364	0.0137259
924.443	0.0136129
924.521	0.0137648
924.599	0.0137439
924.677	0.0137493
924.755	0.0138000
924.833	0.0139694
924.911	0.0139394
924.989	0.0139395
925.068	0.0139798
925.146	0.0139948
925.224	0.0137812
925.302	0.0140994
925.380	0.0139082
925.458	0.0138977
925.536	0.0139938
925.614	0.0139268
925.693	0.0139822
925.771	0.0141653
925.849	0.0140479
925.927	0.0139736
926.005	0.0140235
926.083	0.0139581
926.161	0.0140056
926.239	0.0139832
926.318	0.0140192
926.396	0.0139597
926.474	0.0138954
926.552	0.0138662
926.630	0.0138387
926.708	0.0139649
926.786	0.0138134
926.864	0.0139179
926.943	0.0139064
927.021	0.0138943
927.099	0.0139399
927.177	0.0138818
927.255	0.0138621
927.333	0.0138796
927.411	0.0139427
927.489	0.0138437
927.568	0.0138941
927.646	0.0139619
927.724	0.0138441
927.802	0.0138657
927.880	0.0140318
927.958	0.0139368
928.036	0.0139629
928.114	0.0139117
928.193	0.0138577
928.271	0.0138427
928.349	0.0139254
928.427	0.0140523
928.505	0.0140533
928.583	0.0139140
928.661	0.0139816
928.739	0.0139359
928.818	0.0139217
928.896	0.0140420
928.974	0.0139275
929.052	0.0139829
929.130	0.0139799
929.208	0.0139670
929.286	0.0139916
929.364	0.0139484
929.443	0.0138695
929.521	0.0140096
929.599	0.0139837
929.677	0.0138677
929.755	0.0138461
929.833	0.0137122
929.911	0.0138425
929.989	0.0138357
930.068	0.0138560
930.146	0.0138033
930.224	0.0137983
930.302	0.0136600
930.380	0.0136594
930.458	0.0137576
930.536	0.0136702
930.614	0.0137110
930.693	0.0137474
930.771	0.0137224
930.849	0.0138130
930.927	0.0138513
931.005	0.0138469
931.083	0.0138236
931.161	0.0138142
931.239	0.0139555
931.318	0.0137248
931.396	0.0137471
931.474	0.0138699
931.552	0.0139015
931.630	0.0138145
931.708	0.0138396
931.786	0.0138104
931.864	0.0137559
931.943	0.0137343
932.021	0.0138225
932.099	0.0138451
932.177	0.0136292
932.255	0.0138179
932.333	0.0138480
932.411	0.0138122
932.489	0.0138949
932.568	0.0139456
932.646	0.0138596
932.724	0.0139207
932.802	0.0139542
932.880	0.0139249
932.958	0.0138871
933.036	0.0138220
933.114	0.0139401
933.193	0.0137925
933.271	0.0138672
933.349	0.0140440
933.427	0.0137808
933.505	0.0137888
933.583	0.0139462
933.661	0.0138475
933.739	0.0141547
933.818	0.0140800
933.896	0.0139755
933.974	0.0139139
934.052	0.0139597
934.130	0.0140524
934.208	0.0139127
934.286	0.0139012
934.364	0.0140552
934.443	0.0140520
934.521	0.0140323
934.599	0.0140613
934.677	0.0140428
934.755	0.0139090
934.833	0.0140961
934.911	0.0141032
934.989	0.0140831
935.068	0.0141241
935.146	0.0140908
935.224	0.0142328
935.302	0.0140533
935.380	0.0141612
935.458	0.0142432
935.536	0.0141142
935.614	0.0140897
935.693	0.0141433
935.771	0.0140813
935.849	0.0140353
935.927	0.0140135
936.005	0.0141140
936.083	0.0140842
936.161	0.0139365
936.239	0.0138993
936.318	0.0139489
936.396	0.0140139
936.474	0.0139735
936.552	0.0141425
936.630	0.0138650
936.708	0.0138096
936.786	0.0138184
936.864	0.0136914
936.943	0.0138186
937.021	0.0138769
937.099	0.0138523
937.177	0.0137826
937.255	0.0136050
937.333	0.0137603
937.411	0.0137543
937.489	0.0137324
937.568	0.0137123
937.646	0.0138101
937.724	0.0137486
937.802	0.0136351
937.880	0.0137761
937.958	0.0138386
938.036	0.0136356
938.114	0.0137306
938.193	0.0138898
938.271	0.0138965
938.349	0.0138367
938.427	0.0138876
938.505	0.0139907
938.583	0.0138425
938.661	0.0138547
938.739	0.0139201
938.818	0.0139322
938.896	0.0140181
938.974	0.0140636
939.052	0.0140013
939.130	0.0141857
939.208	0.0140188
939.286	0.0140585
939.364	0.0142021
939.443	0.0139857
939.521	0.0139262
939.599	0.0141019
939.677	0.0141393
939.755	0.0139793
939.833	0.0141022
939.911	0.0140584
939.989	0.0140039
940.068	0.0142378
940.146	0.0141517
940.224	0.0140539
940.302	0.0140318
940.380	0.0140691
940.458	0.0141367
940.536	0.0141022
940.614	0.0141212
940.693	0.0142640
940.771	0.0141543
940.849	0.0139902
940.927	0.0139455
941.005	0.0140269
941.083	0.0141449
941.161	0.0141411
941.239	0.0141143
941.318	0.0140541
941.396	0.0140405
941.474	0.0140222
941.552	0.0141265
941.630	0.0141148
941.708	0.0139246
941.786	0.0140072
941.864	0.0140386
941.943	0.0141439
942.021	0.0141536
942.099	0.0138901
942.177	0.0139066
942.255	0.0139741
942.333	0.0138409
942.411	0.0139913
942.489	0.0139708
942.568	0.0138863
942.646	0.0137837
942.724	0.0137907
942.802	0.0137153
942.880	0.0138253
942.958	0.0137143
943.036	0.0137324
943.114	0.0137638
943.193	0.0136666
943.271	0.0136674
943.349	0.0137081
943.427	0.0138006
943.505	0.0137981
943.583	0.0137538
943.661	0.0136497
943.739	0.0135850
943.818	0.0138847
943.896	0.0138738
943.974	0.0136989
944.052	0.0135852
944.130	0.0136395
944.208	0.0138522
944.286	0.0137838
944.364	0.0137859
944.443	0.0137910
944.521	0.0138841
944.599	0.0138097
944.677	0.0139520
944.755	0.0139635
944.833	0.0139044
944.911	0.0141093
944.989	0.0139291
945.068	0.0138277
945.146	0.0139967
945.224	0.0141115
945.302	0.0140012
945.380	0.0142201
945.458	0.0140874
945.536	0.0141625
945.614	0.0140654
945.693	0.0141125
945.771	0.0140826
945.849	0.0141247
945.927	0.0140867
946.005	0.0141427
946.083	0.0140487
946.161	0.0139562
946.239	0.0140952
946.318	0.0140845
946.396	0.0139669
946.474	0.0138844
946.552	0.0141081
946.630	0.0140987
946.708	0.0140702
946.786	0.0140126
946.864	0.0140490
946.943	0.0137865
947.021	0.0140142
947.099	0.0140113
947.177	0.0139720
947.255	0.0139471
947.333	0.0140248
947.411	0.0139806
947.489	0.0140217
947.568	0.0140267
947.646	0.0139432
947.724	0.0138879
947.802	0.0137240
947.880	0.0138869
947.958	0.0139934
948.036	0.0138749
948.114	0.0138839
948.193	0.0137904
948.271	0.0138628
948.349	0.0138672
948.427	0.0138755
948.505	0.0139875
948.583	0.0140048
948.661	0.0138043
948.739	0.0139171
948.818	0.0138467
948.896	0.0138180
948.974	0.0139620
949.052	0.0139814
949.130	0.0138140
949.208	0.0138250
949.286	0.0138497
949.364	0.0139321
949.443	0.0138274
949.521	0.0138535
949.599	0.0138633
949.677	0.0138458
949.755	0.0138184
949.833	0.0138511
949.911	0.0138312
949.989	0.0137350
950.068	0.0138191
950.146	0.0138307
950.224	0.0138560
950.302	0.0138386
950.380	0.0136918
950.458	0.0139191
950.536	0.0139128
950.614	0.0138821
950.693	0.0139989
950.771	0.0140144
950.849	0.0138341
950.927	0.0137007
951.005	0.0139079
951.083	0.0138332
951.161	0.0137335
951.239	0.0137781
951.318	0.0139144
951.396	0.0137642
951.474	0.0137440
951.552	0.0137007
951.630	0.0139549
951.708	0.0139152
951.786	0.0136877
951.864	0.0138081
951.943	0.0137616
952.021	0.0139415
952.099	0.0139680
952.177	0.0138743
952.255	0.0136804
952.333	0.0138070
952.411	0.0137029
952.489	0.0137662
952.568	0.0139198
952.646	0.0137429
952.724	0.0137991
952.802	0.0139535
952.880	0.0138467
952.958	0.0137659
953.036	0.0137759
953.114	0.0136803
953.193	0.0137244
953.271	0.0137389
953.349	0.0136895
953.427	0.0137421
953.505	0.0137226
953.583	0.0135949
953.661	0.0135847
953.739	0.0135519
953.818	0.0135247
953.896	0.0136072
953.974	0.0134352
954.052	0.0134471
954.130	0.0135454
954.208	0.0135595
954.286	0.0137103
954.364	0.0135065
954.443	0.0135340
954.521	0.0136428
954.599	0.0135949
954.677	0.0136573
954.755	0.0137081
954.833	0.0136007
954.911	0.0136009
954.989	0.0136275
955.068	0.0136771
955.146	0.0135549
955.224	0.0136098
955.302	0.0138007
955.380	0.0137183
955.458	0.0136818
955.536	0.0136308
955.614	0.0137042
955.693	0.0136414
955.771	0.0137851
955.849	0.0137722
955.927	0.0138218
956.005	0.0137873
956.083	0.0138017
956.161	0.0138918
956.239	0.0138451
956.318	0.0139170
956.396	0.0140112
956.474	0.0139454
956.552	0.0141295
956.630	0.0141046
956.708	0.0140675
956.786	0.0139908
956.864	0.0139202
956.943	0.0139553
957.021	0.0141406
957.099	0.0140806
957.177	0.0140791
957.255	0.0140962
957.333	0.0140190
957.411	0.0140267
957.489	0.0139352
957.568	0.0140265
957.646	0.0139982
957.724	0.0139658
957.802	0.0139768
957.880	0.0141061
957.958	0.0139865
958.036	0.0139035
958.114	0.0139372
958.193	0.0138750
958.271	0.0138187
958.349	0.0137695
958.427	0.0138358
958.505	0.0138449
958.583	0.0138599
958.661	0.0137201
958.739	0.0138290
958.818	0.0137774
958.896	0.0138319
958.974	0.0137569
959.052	0.0137529
959.130	0.0137772
959.208	0.0138249
959.286	0.0137289
959.364	0.0137795
959.443	0.0138150
959.521	0.0138366
959.599	0.0139260
959.677	0.0138988
959.755	0.0138314
959.833	0.0139225
959.911	0.0139880
