05/14/2022	16:47:32	Ver.	4.1	UNKNOWN
Optical Delay	639.989416	Delta X		0.078125	Sweeps	1	Scan Rate	0/0
Coordinates	Axis 1	NaN	Axis 2	NaN	Axis 3	NaN	Axis 4	NaN	Axis 5	NaN	Axis 6	0.000000
TX Power	0.000000	RX Power	0.000000

639.989	0.0134151
640.068	0.0135164
640.146	0.0133501
640.224	0.0135758
640.302	0.0134354
640.380	0.0135229
640.458	0.0135499
640.536	0.0135967
640.614	0.0136360
640.693	0.0134731
640.771	0.0135147
640.849	0.0135751
640.927	0.0136295
641.005	0.0134821
641.083	0.0136232
641.161	0.0136160
641.239	0.0136807
641.318	0.0136042
641.396	0.0136426
641.474	0.0136346
641.552	0.0135961
641.630	0.0135690
641.708	0.0135845
641.786	0.0136285
641.864	0.0136105
641.943	0.0135758
642.021	0.0135078
642.099	0.0135674
642.177	0.0136013
642.255	0.0136388
642.333	0.0136504
642.411	0.0136667
642.489	0.0136582
642.568	0.0136972
642.646	0.0134639
642.724	0.0136652
642.802	0.0135584
642.880	0.0134715
642.958	0.0136100
643.036	0.0135596
643.114	0.0136443
643.193	0.0135125
643.271	0.0135634
643.349	0.0135912
643.427	0.0135380
643.505	0.0135682
643.583	0.0134928
643.661	0.0135355
643.739	0.0134717
643.818	0.0135671
643.896	0.0136137
643.974	0.0135103
644.052	0.0135048
644.130	0.0135040
644.208	0.0135715
644.286	0.0134139
644.364	0.0135448
644.443	0.0134869
644.521	0.0134827
644.599	0.0133801
644.677	0.0135876
644.755	0.0135506
644.833	0.0134375
644.911	0.0135014
644.989	0.0135602
645.068	0.0133931
645.146	0.0133310
645.224	0.0134130
645.302	0.0134604
645.380	0.0134539
645.458	0.0134478
645.536	0.0135925
645.614	0.0135085
645.693	0.0133831
645.771	0.0133408
645.849	0.0133324
645.927	0.0134013
646.005	0.0134686
646.083	0.0133751
646.161	0.0132725
646.239	0.0133092
646.318	0.0133214
646.396	0.0133450
646.474	0.0133583
646.552	0.0134359
646.630	0.0135118
646.708	0.0134344
646.786	0.0133574
646.864	0.0134143
646.943	0.0134579
647.021	0.0133208
647.099	0.0133861
647.177	0.0134086
647.255	0.0136211
647.333	0.0133655
647.411	0.0134835
647.489	0.0134218
647.568	0.0135862
647.646	0.0135428
647.724	0.0134621
647.802	0.0134776
647.880	0.0134145
647.958	0.0135393
648.036	0.0135651
648.114	0.0135027
648.193	0.0136554
648.271	0.0135558
648.349	0.0134767
648.427	0.0134927
648.505	0.0134117
648.583	0.0135435
648.661	0.0135280
648.739	0.0136536
648.818	0.0135604
648.896	0.0134840
648.974	0.0135949
649.052	0.0135004
649.130	0.0135046
649.208	0.0134380
649.286	0.0134963
649.364	0.0136285
649.443	0.0137402
649.521	0.0135586
649.599	0.0136010
649.677	0.0135809
649.755	0.0136482
649.833	0.0137303
649.911	0.0136794
649.989	0.0137457
650.068	0.0135038
650.146	0.0135728
650.224	0.0137201
650.302	0.0136125
650.380	0.0134979
650.458	0.0136090
650.536	0.0135046
650.614	0.0136879
650.693	0.0135703
650.771	0.0136259
650.849	0.0136395
650.927	0.0135676
651.005	0.0136781
651.083	0.0136610
651.161	0.0136203
651.239	0.0136606
651.318	0.0136976
651.396	0.0136301
651.474	0.0136047
651.552	0.0136308
651.630	0.0136716
651.708	0.0136041
651.786	0.0136774
651.864	0.0135989
651.943	0.0135992
652.021	0.0136558
652.099	0.0135399
652.177	0.0137154
652.255	0.0138850
652.333	0.0137324
652.411	0.0136831
652.489	0.0137407
652.568	0.0137017
652.646	0.0135683
652.724	0.0135774
652.802	0.0136185
652.880	0.0137913
652.958	0.0137457
653.036	0.0135963
653.114	0.0136044
653.193	0.0137354
653.271	0.0135295
653.349	0.0136035
653.427	0.0134883
653.505	0.0136893
653.583	0.0135897
653.661	0.0136538
653.739	0.0135770
653.818	0.0135557
653.896	0.0134875
653.974	0.0135050
654.052	0.0136481
654.130	0.0134138
654.208	0.0136171
654.286	0.0135064
654.364	0.0134996
654.443	0.0134849
654.521	0.0133663
654.599	0.0134793
654.677	0.0134129
654.755	0.0134962
654.833	0.0133705
654.911	0.0134879
654.989	0.0134595
655.068	0.0134721
655.146	0.0134623
655.224	0.0134726
655.302	0.0133321
655.380	0.0135663
655.458	0.0135474
655.536	0.0135658
655.614	0.0135915
655.693	0.0134938
655.771	0.0135023
655.849	0.0135931
655.927	0.0136135
656.005	0.0135247
656.083	0.0136207
656.161	0.0136036
656.239	0.0135451
656.318	0.0135789
656.396	0.0135096
656.474	0.0135548
656.552	0.0135317
656.630	0.0135218
656.708	0.0135487
656.786	0.0135101
656.864	0.0134625
656.943	0.0136224
657.021	0.0133551
657.099	0.0133774
657.177	0.0135194
657.255	0.0136016
657.333	0.0134525
657.411	0.0134593
657.489	0.0135338
657.568	0.0134624
657.646	0.0134045
657.724	0.0135410
657.802	0.0134614
657.880	0.0134647
657.958	0.0135783
658.036	0.0135139
658.114	0.0136354
658.193	0.0136155
658.271	0.0136893
658.349	0.0137366
658.427	0.0136681
658.505	0.0137641
658.583	0.0136331
658.661	0.0135387
658.739	0.0137431
658.818	0.0135801
658.896	0.0134765
658.974	0.0136491
659.052	0.0136500
659.130	0.0135864
659.208	0.0135427
659.286	0.0135858
659.364	0.0134638
659.443	0.0135095
659.521	0.0135081
659.599	0.0135722
659.677	0.0135258
659.755	0.0135075
659.833	0.0135680
659.911	0.0136064
659.989	0.0133427
660.068	0.0135395
660.146	0.0136504
660.224	0.0135092
660.302	0.0135934
660.380	0.0136227
660.458	0.0135917
660.536	0.0135453
660.614	0.0135834
660.693	0.0135730
660.771	0.0135508
660.849	0.0135901
660.927	0.0135923
661.005	0.0136543
661.083	0.0136125
661.161	0.0135438
661.239	0.0136681
661.318	0.0136102
661.396	0.0136559
661.474	0.0135615
661.552	0.0134412
661.630	0.0134752
661.708	0.0134637
661.786	0.0136214
661.864	0.0136142
661.943	0.0135049
662.021	0.0134940
662.099	0.0135493
662.177	0.0137333
662.255	0.0137074
662.333	0.0136038
662.411	0.0136322
662.489	0.0137015
662.568	0.0135667
662.646	0.0136639
662.724	0.0136200
662.802	0.0137796
662.880	0.0137553
662.958	0.0136457
663.036	0.0137032
663.114	0.0136934
663.193	0.0137603
663.271	0.0136987
663.349	0.0136819
663.427	0.0137955
663.505	0.0136626
663.583	0.0138966
663.661	0.0137566
663.739	0.0136183
663.818	0.0136298
663.896	0.0136184
663.974	0.0136633
664.052	0.0135390
664.130	0.0133676
664.208	0.0134264
664.286	0.0133987
664.364	0.0131880
664.443	0.0133495
664.521	0.0133305
664.599	0.0131465
664.677	0.0132229
664.755	0.0132346
664.833	0.0132310
664.911	0.0132204
664.989	0.0132261
665.068	0.0132536
665.146	0.0132544
665.224	0.0132743
665.302	0.0134470
665.380	0.0135822
665.458	0.0134849
665.536	0.0135303
665.614	0.0136911
665.693	0.0137643
665.771	0.0137014
665.849	0.0136883
665.927	0.0137708
666.005	0.0139287
666.083	0.0138561
666.161	0.0136506
666.239	0.0139454
666.318	0.0139073
666.396	0.0137260
666.474	0.0136752
666.552	0.0135825
666.630	0.0136245
666.708	0.0135756
666.786	0.0132501
666.864	0.0134011
666.943	0.0133676
667.021	0.0132733
667.099	0.0130209
667.177	0.0130434
667.255	0.0130533
667.333	0.0130015
667.411	0.0130096
667.489	0.0128241
667.568	0.0128938
667.646	0.0128854
667.724	0.0129047
667.802	0.0129228
667.880	0.0130336
667.958	0.0130722
668.036	0.0130355
668.114	0.0133015
668.193	0.0134661
668.271	0.0134911
668.349	0.0136385
668.427	0.0135916
668.505	0.0138432
668.583	0.0137748
668.661	0.0139521
668.739	0.0139666
668.818	0.0139840
668.896	0.0140351
668.974	0.0140345
669.052	0.0141398
669.130	0.0140172
669.208	0.0138514
669.286	0.0138810
669.364	0.0137666
669.443	0.0137871
669.521	0.0137035
669.599	0.0136793
669.677	0.0135229
669.755	0.0133109
669.833	0.0133524
669.911	0.0132063
669.989	0.0129903
670.068	0.0128973
670.146	0.0127985
670.224	0.0127500
670.302	0.0127534
670.380	0.0127010
670.458	0.0127364
670.536	0.0127904
670.614	0.0126659
670.693	0.0126413
670.771	0.0127454
670.849	0.0128118
670.927	0.0129441
671.005	0.0131895
671.083	0.0132617
671.161	0.0131909
671.239	0.0134288
671.318	0.0137086
671.396	0.0136872
671.474	0.0139271
671.552	0.0140863
671.630	0.0141087
671.708	0.0141738
671.786	0.0142982
671.864	0.0144691
671.943	0.0143988
672.021	0.0144693
672.099	0.0144260
672.177	0.0143428
672.255	0.0142369
672.333	0.0142522
672.411	0.0142120
672.489	0.0140917
672.568	0.0140429
672.646	0.0137525
672.724	0.0136801
672.802	0.0135489
672.880	0.0133923
672.958	0.0132754
673.036	0.0129968
673.114	0.0129665
673.193	0.0128497
673.271	0.0126996
673.349	0.0125987
673.427	0.0124944
673.505	0.0125686
673.583	0.0124138
673.661	0.0124624
673.739	0.0125839
673.818	0.0125647
673.896	0.0126995
673.974	0.0127015
674.052	0.0127268
674.130	0.0129287
674.208	0.0131410
674.286	0.0132786
674.364	0.0133693
674.443	0.0133439
674.521	0.0135928
674.599	0.0138560
674.677	0.0140285
674.755	0.0141262
674.833	0.0143433
674.911	0.0145317
674.989	0.0147079
675.068	0.0148780
675.146	0.0149147
675.224	0.0149661
675.302	0.0149976
675.380	0.0150181
675.458	0.0150286
675.536	0.0149144
675.614	0.0148061
675.693	0.0146603
675.771	0.0145188
675.849	0.0142899
675.927	0.0141276
676.005	0.0140173
676.083	0.0138683
676.161	0.0136148
676.239	0.0133178
676.318	0.0131278
676.396	0.0129355
676.474	0.0127858
676.552	0.0126696
676.630	0.0124796
676.708	0.0123802
676.786	0.0123224
676.864	0.0121439
676.943	0.0122462
677.021	0.0122502
677.099	0.0121692
677.177	0.0123666
677.255	0.0124431
677.333	0.0125307
677.411	0.0127459
677.489	0.0127643
677.568	0.0129674
677.646	0.0130576
677.724	0.0134209
677.802	0.0136060
677.880	0.0137150
677.958	0.0138840
678.036	0.0138698
678.114	0.0141958
678.193	0.0143140
678.271	0.0141446
678.349	0.0142896
678.427	0.0143661
678.505	0.0143021
678.583	0.0142957
678.661	0.0141980
678.739	0.0141071
678.818	0.0141293
678.896	0.0140573
678.974	0.0138739
679.052	0.0138613
679.130	0.0138696
679.208	0.0137122
679.286	0.0135861
679.364	0.0135670
679.443	0.0134663
679.521	0.0134088
679.599	0.0133544
679.677	0.0132645
679.755	0.0133694
679.833	0.0133759
679.911	0.0133543
679.989	0.0133928
680.068	0.0133720
680.146	0.0134623
680.224	0.0133665
680.302	0.0134508
680.380	0.0135546
680.458	0.0136346
680.536	0.0136781
680.614	0.0137080
680.693	0.0137386
680.771	0.0139803
680.849	0.0139192
680.927	0.0138928
681.005	0.0139947
681.083	0.0139793
681.161	0.0139864
681.239	0.0138474
681.318	0.0138943
681.396	0.0138302
681.474	0.0137654
681.552	0.0138856
681.630	0.0136993
681.708	0.0135589
681.786	0.0135405
681.864	0.0134190
681.943	0.0135698
682.021	0.0131646
682.099	0.0130480
682.177	0.0132781
682.255	0.0129742
682.333	0.0127969
682.411	0.0127158
682.489	0.0127612
682.568	0.0128119
682.646	0.0127033
682.724	0.0126917
682.802	0.0128534
682.880	0.0127728
682.958	0.0128481
683.036	0.0128033
683.114	0.0131247
683.193	0.0131387
683.271	0.0131564
683.349	0.0130864
683.427	0.0132801
683.505	0.0133119
683.583	0.0134827
683.661	0.0136014
683.739	0.0136447
683.818	0.0138360
683.896	0.0140021
683.974	0.0141764
684.052	0.0141682
684.130	0.0143407
684.208	0.0143002
684.286	0.0144033
684.364	0.0146881
684.443	0.0146050
684.521	0.0145964
684.599	0.0145036
684.677	0.0148166
684.755	0.0149364
684.833	0.0148188
684.911	0.0148129
684.989	0.0149943
685.068	0.0149142
685.146	0.0149583
685.224	0.0147436
685.302	0.0147456
685.380	0.0147405
685.458	0.0145294
685.536	0.0143868
685.614	0.0143840
685.693	0.0141769
685.771	0.0140981
685.849	0.0140173
685.927	0.0137984
686.005	0.0136315
686.083	0.0135683
686.161	0.0132805
686.239	0.0131107
686.318	0.0130692
686.396	0.0126500
686.474	0.0126416
686.552	0.0125157
686.630	0.0122311
686.708	0.0121648
686.786	0.0121293
686.864	0.0119462
686.943	0.0119814
687.021	0.0119198
687.099	0.0118425
687.177	0.0118829
687.255	0.0120129
687.333	0.0120382
687.411	0.0122062
687.489	0.0121481
687.568	0.0121526
687.646	0.0124377
687.724	0.0124510
687.802	0.0126703
687.880	0.0129807
687.958	0.0130837
688.036	0.0129974
688.114	0.0132417
688.193	0.0134423
688.271	0.0134120
688.349	0.0137872
688.427	0.0138052
688.505	0.0139577
688.583	0.0141811
688.661	0.0143075
688.739	0.0142657
688.818	0.0144701
688.896	0.0145956
688.974	0.0145817
689.052	0.0146594
689.130	0.0146353
689.208	0.0147918
689.286	0.0147886
689.364	0.0147501
689.443	0.0149414
689.521	0.0148525
689.599	0.0149805
689.677	0.0148921
689.755	0.0149465
689.833	0.0149442
689.911	0.0148747
689.989	0.0149661
690.068	0.0149426
690.146	0.0148202
690.224	0.0148707
690.302	0.0146647
690.380	0.0147964
690.458	0.0147258
690.536	0.0145223
690.614	0.0143767
690.693	0.0143346
690.771	0.0139880
690.849	0.0140752
690.927	0.0138313
691.005	0.0136176
691.083	0.0134327
691.161	0.0131015
691.239	0.0127789
691.318	0.0126762
691.396	0.0124281
691.474	0.0121537
691.552	0.0120439
691.630	0.0118449
691.708	0.0116456
691.786	0.0114401
691.864	0.0114039
691.943	0.0112179
692.021	0.0111703
692.099	0.0111900
692.177	0.0111040
692.255	0.0110892
692.333	0.0111165
692.411	0.0113597
692.489	0.0114974
692.568	0.0117231
692.646	0.0118915
692.724	0.0120320
692.802	0.0123148
692.880	0.0124657
692.958	0.0127113
693.036	0.0130064
693.114	0.0131815
693.193	0.0133999
693.271	0.0137293
693.349	0.0138387
693.427	0.0141274
693.505	0.0143208
693.583	0.0145143
693.661	0.0145315
693.739	0.0147035
693.818	0.0147893
693.896	0.0148060
693.974	0.0147469
694.052	0.0148489
694.130	0.0148396
694.208	0.0148459
694.286	0.0148572
694.364	0.0146925
694.443	0.0147940
694.521	0.0148853
694.599	0.0149560
694.677	0.0148286
694.755	0.0147103
694.833	0.0149018
694.911	0.0147097
694.989	0.0147568
695.068	0.0147391
695.146	0.0148504
695.224	0.0148377
695.302	0.0148270
695.380	0.0149397
695.458	0.0148627
695.536	0.0148836
695.614	0.0147866
695.693	0.0146826
695.771	0.0146937
695.849	0.0145953
695.927	0.0146326
696.005	0.0144118
696.083	0.0144148
696.161	0.0141589
696.239	0.0141229
696.318	0.0139687
696.396	0.0136287
696.474	0.0133955
696.552	0.0131842
696.630	0.0131054
696.708	0.0126704
696.786	0.0124171
696.864	0.0122649
696.943	0.0119506
697.021	0.0118340
697.099	0.0114922
697.177	0.0112783
697.255	0.0110749
697.333	0.0109616
697.411	0.0108231
697.489	0.0106830
697.568	0.0106657
697.646	0.0105780
697.724	0.0105237
697.802	0.0108215
697.880	0.0107844
697.958	0.0108826
698.036	0.0111663
698.114	0.0113920
698.193	0.0116277
698.271	0.0118867
698.349	0.0121746
698.427	0.0123329
698.505	0.0126971
698.583	0.0130451
698.661	0.0132228
698.739	0.0135156
698.818	0.0137809
698.896	0.0140066
698.974	0.0144144
699.052	0.0145990
699.130	0.0146895
699.208	0.0147582
699.286	0.0148703
699.364	0.0150964
699.443	0.0151899
699.521	0.0151244
699.599	0.0152577
699.677	0.0152712
699.755	0.0152795
699.833	0.0154420
699.911	0.0153429
699.989	0.0153944
700.068	0.0153448
700.146	0.0154092
700.224	0.0153143
700.302	0.0154512
700.380	0.0153067
700.458	0.0154586
700.536	0.0153565
700.614	0.0152463
700.693	0.0153283
700.771	0.0153045
700.849	0.0152066
700.927	0.0152199
701.005	0.0151847
701.083	0.0150201
701.161	0.0150042
701.239	0.0148843
701.318	0.0146181
701.396	0.0145744
701.474	0.0143463
701.552	0.0142410
701.630	0.0140872
701.708	0.0137831
701.786	0.0135027
701.864	0.0132502
701.943	0.0130703
702.021	0.0127743
702.099	0.0123929
702.177	0.0121341
702.255	0.0117973
702.333	0.0113802
702.411	0.0112245
702.489	0.0108231
702.568	0.0106099
702.646	0.0104263
702.724	0.0101986
702.802	0.00992577
702.880	0.00981789
702.958	0.00979843
703.036	0.00970367
703.114	0.00981514
703.193	0.00981857
703.271	0.00998833
703.349	0.00992386
703.427	0.0103771
703.505	0.0105502
703.583	0.0109064
703.661	0.0112984
703.739	0.0115958
703.818	0.0119232
703.896	0.0123364
703.974	0.0126273
704.052	0.0131261
704.130	0.0132330
704.208	0.0137680
704.286	0.0142526
704.364	0.0144369
704.443	0.0147120
704.521	0.0151366
704.599	0.0152528
704.677	0.0156013
704.755	0.0157455
704.833	0.0159255
704.911	0.0161348
704.989	0.0163741
705.068	0.0162885
705.146	0.0163251
705.224	0.0163421
705.302	0.0163982
705.380	0.0164330
705.458	0.0164826
705.536	0.0163912
705.614	0.0164854
705.693	0.0166417
705.771	0.0162399
705.849	0.0161845
705.927	0.0162587
706.005	0.0160368
706.083	0.0158643
706.161	0.0158588
706.239	0.0156643
706.318	0.0156716
706.396	0.0155276
706.474	0.0154257
706.552	0.0151806
706.630	0.0151154
706.708	0.0148100
706.786	0.0145992
706.864	0.0144212
706.943	0.0140369
707.021	0.0138017
707.099	0.0135240
707.177	0.0134693
707.255	0.0129665
707.333	0.0125588
707.411	0.0123386
707.489	0.0120536
707.568	0.0117618
707.646	0.0113799
707.724	0.0113490
707.802	0.0110907
707.880	0.0107478
707.958	0.0106339
708.036	0.0104079
708.114	0.0102823
708.193	0.0102572
708.271	0.0102259
708.349	0.0100670
708.427	0.0101701
708.505	0.0101373
708.583	0.0102238
708.661	0.0103093
708.739	0.0105096
708.818	0.0105743
708.896	0.0108300
708.974	0.0109896
709.052	0.0113558
709.130	0.0117620
709.208	0.0118896
709.286	0.0123104
709.364	0.0123766
709.443	0.0127427
709.521	0.0131276
709.599	0.0134386
709.677	0.0138158
709.755	0.0139326
709.833	0.0142860
709.911	0.0146245
709.989	0.0148742
710.068	0.0149986
710.146	0.0153443
710.224	0.0155371
710.302	0.0156703
710.380	0.0158794
710.458	0.0159422
710.536	0.0161499
710.614	0.0160401
710.693	0.0162955
710.771	0.0164763
710.849	0.0164520
710.927	0.0163264
711.005	0.0163988
711.083	0.0163030
711.161	0.0164823
711.239	0.0162638
711.318	0.0160507
711.396	0.0160927
711.474	0.0157395
711.552	0.0158160
711.630	0.0156232
711.708	0.0152283
711.786	0.0149854
711.864	0.0147341
711.943	0.0145640
712.021	0.0142300
712.099	0.0140626
712.177	0.0136414
712.255	0.0135192
712.333	0.0133675
712.411	0.0128163
712.489	0.0126221
712.568	0.0125855
712.646	0.0121175
712.724	0.0119888
712.802	0.0117275
712.880	0.0115747
712.958	0.0115264
713.036	0.0113467
713.114	0.0113589
713.193	0.0112752
713.271	0.0112545
713.349	0.0113232
713.427	0.0113204
713.505	0.0112789
713.583	0.0113931
713.661	0.0114287
713.739	0.0116174
713.818	0.0116197
713.896	0.0116576
713.974	0.0120149
714.052	0.0121144
714.130	0.0121333
714.208	0.0124059
714.286	0.0123728
714.364	0.0127072
714.443	0.0128949
714.521	0.0129203
714.599	0.0131991
714.677	0.0131433
714.755	0.0132984
714.833	0.0133730
714.911	0.0134612
714.989	0.0134674
715.068	0.0136173
715.146	0.0135976
715.224	0.0136986
715.302	0.0138740
715.380	0.0137796
715.458	0.0138473
715.536	0.0139288
715.614	0.0138646
715.693	0.0138934
715.771	0.0138031
715.849	0.0138794
715.927	0.0139407
716.005	0.0140950
716.083	0.0140283
716.161	0.0141011
716.239	0.0140669
716.318	0.0141725
716.396	0.0140237
716.474	0.0142443
716.552	0.0144095
716.630	0.0144823
716.708	0.0144765
716.786	0.0144875
716.864	0.0147164
716.943	0.0148605
717.021	0.0148526
717.099	0.0148724
717.177	0.0149217
717.255	0.0148238
717.333	0.0149352
717.411	0.0148793
717.489	0.0147860
717.568	0.0148436
717.646	0.0148368
717.724	0.0146069
717.802	0.0144960
717.880	0.0144339
717.958	0.0144084
718.036	0.0142493
718.114	0.0141309
718.193	0.0139938
718.271	0.0137812
718.349	0.0137987
718.427	0.0135233
718.505	0.0133870
718.583	0.0133189
718.661	0.0132302
718.739	0.0132193
718.818	0.0129809
718.896	0.0128567
718.974	0.0128854
719.052	0.0127018
719.130	0.0126645
719.208	0.0126151
719.286	0.0125084
719.364	0.0125000
719.443	0.0123817
719.521	0.0124268
719.599	0.0122818
719.677	0.0122799
719.755	0.0122682
719.833	0.0121941
719.911	0.0122452
719.989	0.0121970
720.068	0.0121967
720.146	0.0120763
720.224	0.0120987
720.302	0.0120869
720.380	0.0120244
720.458	0.0120383
720.536	0.0121344
720.614	0.0120715
720.693	0.0120673
720.771	0.0123145
720.849	0.0122987
720.927	0.0123822
721.005	0.0125114
721.083	0.0125822
721.161	0.0127324
721.239	0.0128449
721.318	0.0129200
721.396	0.0130801
721.474	0.0131255
721.552	0.0135183
721.630	0.0137084
721.708	0.0137064
721.786	0.0140295
721.864	0.0138720
721.943	0.0139635
722.021	0.0141895
722.099	0.0142860
722.177	0.0145011
722.255	0.0145490
722.333	0.0145951
722.411	0.0147610
722.489	0.0146837
722.568	0.0145812
722.646	0.0146210
722.724	0.0147215
722.802	0.0146091
722.880	0.0146963
722.958	0.0146784
723.036	0.0146214
723.114	0.0144344
723.193	0.0145284
723.271	0.0146004
723.349	0.0145782
723.427	0.0145603
723.505	0.0145155
723.583	0.0145932
723.661	0.0146259
723.739	0.0145452
723.818	0.0144709
723.896	0.0143600
723.974	0.0144115
724.052	0.0143980
724.130	0.0142204
724.208	0.0141927
724.286	0.0141325
724.364	0.0140427
724.443	0.0138362
724.521	0.0136464
724.599	0.0136728
724.677	0.0136095
724.755	0.0135607
724.833	0.0133275
724.911	0.0131602
724.989	0.0130811
725.068	0.0128174
725.146	0.0129800
725.224	0.0128577
725.302	0.0127116
725.380	0.0125571
725.458	0.0125084
725.536	0.0125575
725.614	0.0123286
725.693	0.0123405
725.771	0.0124561
725.849	0.0122724
725.927	0.0123698
726.005	0.0123705
726.083	0.0123171
726.161	0.0123637
726.239	0.0124107
726.318	0.0122565
726.396	0.0124976
726.474	0.0124512
726.552	0.0124131
726.630	0.0125503
726.708	0.0125289
726.786	0.0126794
726.864	0.0127577
726.943	0.0127743
727.021	0.0127659
727.099	0.0129389
727.177	0.0130072
727.255	0.0131290
727.333	0.0130728
727.411	0.0133519
727.489	0.0134350
727.568	0.0136795
727.646	0.0136863
727.724	0.0137222
727.802	0.0137867
727.880	0.0139142
727.958	0.0139432
728.036	0.0140215
728.114	0.0141457
728.193	0.0141495
728.271	0.0141226
728.349	0.0143375
728.427	0.0141106
728.505	0.0142906
728.583	0.0143584
728.661	0.0144595
728.739	0.0145044
728.818	0.0144028
728.896	0.0144621
728.974	0.0146063
729.052	0.0146404
729.130	0.0146436
729.208	0.0146447
729.286	0.0146313
729.364	0.0146015
729.443	0.0146475
729.521	0.0146082
729.599	0.0144968
729.677	0.0146007
729.755	0.0147198
729.833	0.0145173
729.911	0.0146283
729.989	0.0143570
730.068	0.0143261
730.146	0.0142358
730.224	0.0141584
730.302	0.0140908
730.380	0.0139847
730.458	0.0138550
730.536	0.0137707
730.614	0.0134849
730.693	0.0132650
730.771	0.0132317
730.849	0.0131379
730.927	0.0130122
731.005	0.0129202
731.083	0.0127906
731.161	0.0125918
731.239	0.0125248
731.318	0.0125177
731.396	0.0124797
731.474	0.0123267
731.552	0.0122715
731.630	0.0122205
731.708	0.0121931
731.786	0.0122176
731.864	0.0122367
731.943	0.0122635
732.021	0.0123672
732.099	0.0123148
732.177	0.0121793
732.255	0.0123059
732.333	0.0123539
732.411	0.0124230
732.489	0.0125574
732.568	0.0124971
732.646	0.0126170
732.724	0.0127067
732.802	0.0129346
732.880	0.0129876
732.958	0.0128208
733.036	0.0131411
733.114	0.0131812
733.193	0.0132971
733.271	0.0134369
733.349	0.0136349
733.427	0.0136190
733.505	0.0137572
733.583	0.0138082
733.661	0.0139752
733.739	0.0140623
733.818	0.0140916
733.896	0.0143402
733.974	0.0145028
734.052	0.0145311
734.130	0.0146022
734.208	0.0146655
734.286	0.0146037
734.364	0.0147467
734.443	0.0148526
734.521	0.0148398
734.599	0.0148004
734.677	0.0149577
734.755	0.0148148
734.833	0.0148953
734.911	0.0147040
734.989	0.0146292
735.068	0.0145624
735.146	0.0145260
735.224	0.0143802
735.302	0.0142059
735.380	0.0140868
735.458	0.0140160
735.536	0.0139565
735.614	0.0137694
735.693	0.0136948
735.771	0.0134750
735.849	0.0134315
735.927	0.0133532
736.005	0.0132910
736.083	0.0131232
736.161	0.0130585
736.239	0.0128452
736.318	0.0127298
736.396	0.0128143
736.474	0.0128048
736.552	0.0126894
736.630	0.0126697
736.708	0.0127045
736.786	0.0126820
736.864	0.0125065
736.943	0.0125555
737.021	0.0126619
737.099	0.0126746
737.177	0.0127178
737.255	0.0127649
737.333	0.0129383
737.411	0.0128279
737.489	0.0128056
737.568	0.0128680
737.646	0.0128858
737.724	0.0129308
737.802	0.0128972
737.880	0.0128479
737.958	0.0130377
738.036	0.0130399
738.114	0.0131947
738.193	0.0132999
738.271	0.0131956
738.349	0.0133125
738.427	0.0131988
738.505	0.0133652
738.583	0.0134133
738.661	0.0134799
738.739	0.0135316
738.818	0.0136148
738.896	0.0136041
738.974	0.0136510
739.052	0.0137249
739.130	0.0137702
739.208	0.0137098
739.286	0.0138099
739.364	0.0139073
739.443	0.0138964
739.521	0.0139417
739.599	0.0140025
739.677	0.0139782
739.755	0.0140710
739.833	0.0139985
739.911	0.0139206
739.989	0.0140452
740.068	0.0140275
740.146	0.0138473
740.224	0.0137307
740.302	0.0137383
740.380	0.0136681
740.458	0.0136768
740.536	0.0137453
740.614	0.0135440
740.693	0.0136758
740.771	0.0133831
740.849	0.0132194
740.927	0.0134438
741.005	0.0133830
741.083	0.0130643
741.161	0.0131564
741.239	0.0132109
741.318	0.0131627
741.396	0.0131062
741.474	0.0130584
741.552	0.0129183
741.630	0.0129085
741.708	0.0130380
741.786	0.0129282
741.864	0.0130677
741.943	0.0129147
742.021	0.0129823
742.099	0.0131366
742.177	0.0131348
742.255	0.0133061
742.333	0.0133789
742.411	0.0132889
742.489	0.0133430
742.568	0.0132903
742.646	0.0134717
742.724	0.0136026
742.802	0.0134975
742.880	0.0136791
742.958	0.0135958
743.036	0.0136014
743.114	0.0136868
743.193	0.0136643
743.271	0.0136466
743.349	0.0136687
743.427	0.0136820
743.505	0.0136221
743.583	0.0136269
743.661	0.0133447
743.739	0.0135936
743.818	0.0136420
743.896	0.0136240
743.974	0.0135374
744.052	0.0135307
744.130	0.0134049
744.208	0.0133414
744.286	0.0134928
744.364	0.0135108
744.443	0.0135387
744.521	0.0135469
744.599	0.0134222
744.677	0.0135095
744.755	0.0134447
744.833	0.0135168
744.911	0.0134165
744.989	0.0134820
745.068	0.0134196
745.146	0.0134084
745.224	0.0133850
745.302	0.0134499
745.380	0.0135844
745.458	0.0134284
745.536	0.0133679
745.614	0.0133913
745.693	0.0134896
745.771	0.0133818
745.849	0.0132911
745.927	0.0134011
746.005	0.0133295
746.083	0.0133569
746.161	0.0132552
746.239	0.0134438
746.318	0.0132848
746.396	0.0132575
746.474	0.0133186
746.552	0.0131846
746.630	0.0134351
746.708	0.0133940
746.786	0.0133313
746.864	0.0133421
746.943	0.0133705
747.021	0.0133256
747.099	0.0134262
747.177	0.0134132
747.255	0.0134341
747.333	0.0135419
747.411	0.0136842
747.489	0.0136454
747.568	0.0135936
747.646	0.0136842
747.724	0.0137672
747.802	0.0137288
747.880	0.0136843
747.958	0.0136018
748.036	0.0137621
748.114	0.0136725
748.193	0.0137560
748.271	0.0135625
748.349	0.0136424
748.427	0.0136041
748.505	0.0134929
748.583	0.0134570
748.661	0.0135574
748.739	0.0134117
748.818	0.0134477
748.896	0.0133207
748.974	0.0132760
749.052	0.0134188
749.130	0.0132674
749.208	0.0133822
749.286	0.0133217
749.364	0.0132809
749.443	0.0132605
749.521	0.0132152
749.599	0.0133488
749.677	0.0133415
749.755	0.0134171
749.833	0.0133973
749.911	0.0133323
749.989	0.0133615
750.068	0.0133591
750.146	0.0136329
750.224	0.0135928
750.302	0.0135996
750.380	0.0135351
750.458	0.0135021
750.536	0.0136804
750.614	0.0136221
750.693	0.0136211
750.771	0.0136630
750.849	0.0136625
750.927	0.0137074
751.005	0.0136027
751.083	0.0135719
751.161	0.0136060
751.239	0.0137862
751.318	0.0135403
751.396	0.0136723
751.474	0.0135561
751.552	0.0136769
751.630	0.0135904
751.708	0.0136102
751.786	0.0134785
751.864	0.0136749
751.943	0.0135921
752.021	0.0135674
752.099	0.0135793
752.177	0.0135535
752.255	0.0135431
752.333	0.0136047
752.411	0.0137320
752.489	0.0135762
752.568	0.0134445
752.646	0.0136288
752.724	0.0137177
752.802	0.0136533
752.880	0.0135454
752.958	0.0137083
753.036	0.0135949
753.114	0.0136884
753.193	0.0136906
753.271	0.0135772
753.349	0.0135917
753.427	0.0135659
753.505	0.0136006
753.583	0.0135922
753.661	0.0136229
753.739	0.0136790
753.818	0.0135896
753.896	0.0135530
753.974	0.0136514
754.052	0.0135599
754.130	0.0134956
754.208	0.0135978
754.286	0.0134492
754.364	0.0133603
754.443	0.0134194
754.521	0.0134126
754.599	0.0134746
754.677	0.0134063
754.755	0.0134820
754.833	0.0135956
754.911	0.0133994
754.989	0.0133218
755.068	0.0132752
755.146	0.0134555
755.224	0.0132978
755.302	0.0133916
755.380	0.0135604
755.458	0.0132775
755.536	0.0132931
755.614	0.0134056
755.693	0.0135122
755.771	0.0135380
755.849	0.0133721
755.927	0.0134152
756.005	0.0134393
756.083	0.0133728
756.161	0.0134498
756.239	0.0135397
756.318	0.0135154
756.396	0.0134720
756.474	0.0135222
756.552	0.0135868
756.630	0.0135346
756.708	0.0135285
756.786	0.0135338
756.864	0.0135589
756.943	0.0136331
757.021	0.0134464
757.099	0.0135291
757.177	0.0134641
757.255	0.0136830
757.333	0.0136786
757.411	0.0135812
757.489	0.0136348
757.568	0.0135914
757.646	0.0136608
757.724	0.0137088
757.802	0.0137025
757.880	0.0137184
757.958	0.0138110
758.036	0.0136565
758.114	0.0136528
758.193	0.0136997
758.271	0.0136422
758.349	0.0136251
758.427	0.0137418
758.505	0.0137878
758.583	0.0136942
758.661	0.0136283
758.739	0.0136422
758.818	0.0136353
758.896	0.0136438
758.974	0.0135790
759.052	0.0135614
759.130	0.0136766
759.208	0.0135452
759.286	0.0136953
759.364	0.0136208
759.443	0.0136121
759.521	0.0137846
759.599	0.0135841
759.677	0.0134637
759.755	0.0135468
759.833	0.0135381
759.911	0.0135465
759.989	0.0135555
760.068	0.0136096
760.146	0.0136353
760.224	0.0134103
760.302	0.0135785
760.380	0.0135514
760.458	0.0134146
760.536	0.0134230
760.614	0.0134911
760.693	0.0133392
760.771	0.0134883
760.849	0.0132836
760.927	0.0132804
761.005	0.0134399
761.083	0.0132185
761.161	0.0132767
761.239	0.0132970
761.318	0.0131918
761.396	0.0130347
761.474	0.0130485
761.552	0.0131011
761.630	0.0130819
761.708	0.0131545
761.786	0.0131534
761.864	0.0131634
761.943	0.0132033
762.021	0.0131009
762.099	0.0130686
762.177	0.0132193
762.255	0.0131581
762.333	0.0131565
762.411	0.0133951
762.489	0.0132547
762.568	0.0131935
762.646	0.0132719
762.724	0.0132433
762.802	0.0134316
762.880	0.0134017
762.958	0.0132708
763.036	0.0134729
763.114	0.0135242
763.193	0.0133079
763.271	0.0134175
763.349	0.0134809
763.427	0.0136588
763.505	0.0134316
763.583	0.0134996
763.661	0.0136006
763.739	0.0134631
763.818	0.0136739
763.896	0.0135899
763.974	0.0136417
764.052	0.0135973
764.130	0.0136172
764.208	0.0136948
764.286	0.0137675
764.364	0.0135957
764.443	0.0137158
764.521	0.0138676
764.599	0.0137994
764.677	0.0137460
764.755	0.0136471
764.833	0.0135470
764.911	0.0137167
764.989	0.0138464
765.068	0.0136900
765.146	0.0137473
765.224	0.0137053
765.302	0.0137449
765.380	0.0137944
765.458	0.0137649
765.536	0.0136864
765.614	0.0136762
765.693	0.0136304
765.771	0.0135709
765.849	0.0134947
765.927	0.0135551
766.005	0.0135228
766.083	0.0134441
766.161	0.0134168
766.239	0.0135267
766.318	0.0132882
766.396	0.0132164
766.474	0.0133466
766.552	0.0133046
766.630	0.0133009
766.708	0.0133653
766.786	0.0132645
766.864	0.0132606
766.943	0.0132327
767.021	0.0132443
767.099	0.0133029
767.177	0.0132769
767.255	0.0134673
767.333	0.0133591
767.411	0.0133371
767.489	0.0133035
767.568	0.0131292
767.646	0.0131784
767.724	0.0134472
767.802	0.0133213
767.880	0.0134114
767.958	0.0134373
768.036	0.0134167
768.114	0.0134155
768.193	0.0135236
768.271	0.0135850
768.349	0.0134659
768.427	0.0135500
768.505	0.0135603
768.583	0.0136088
768.661	0.0136893
768.739	0.0137860
768.818	0.0137947
768.896	0.0136636
768.974	0.0136462
769.052	0.0138173
769.130	0.0137243
769.208	0.0136801
769.286	0.0137326
769.364	0.0136756
769.443	0.0137543
769.521	0.0136892
769.599	0.0136404
769.677	0.0135783
769.755	0.0134985
769.833	0.0135791
769.911	0.0135488
769.989	0.0135278
770.068	0.0135235
770.146	0.0133874
770.224	0.0133228
770.302	0.0133317
770.380	0.0132350
770.458	0.0132710
770.536	0.0132894
770.614	0.0132690
770.693	0.0133146
770.771	0.0132705
770.849	0.0132795
770.927	0.0132486
771.005	0.0132577
771.083	0.0133231
771.161	0.0135168
771.239	0.0134775
771.318	0.0135332
771.396	0.0133100
771.474	0.0134664
771.552	0.0134900
771.630	0.0136441
771.708	0.0135030
771.786	0.0136333
771.864	0.0136550
771.943	0.0136855
772.021	0.0135439
772.099	0.0136957
772.177	0.0136747
772.255	0.0137488
772.333	0.0137520
772.411	0.0136617
772.489	0.0137332
772.568	0.0136852
772.646	0.0136373
772.724	0.0136590
772.802	0.0136287
772.880	0.0136251
772.958	0.0136513
773.036	0.0135716
773.114	0.0135301
773.193	0.0134294
773.271	0.0134213
773.349	0.0135551
773.427	0.0133299
773.505	0.0133995
773.583	0.0133840
773.661	0.0134425
773.739	0.0133727
773.818	0.0133874
773.896	0.0132883
773.974	0.0133681
774.052	0.0135775
774.130	0.0133826
774.208	0.0134030
774.286	0.0133664
774.364	0.0134396
774.443	0.0135028
774.521	0.0135440
774.599	0.0134499
774.677	0.0134492
774.755	0.0134016
774.833	0.0135287
774.911	0.0135657
774.989	0.0134895
775.068	0.0136004
775.146	0.0135885
775.224	0.0135484
775.302	0.0135123
775.380	0.0136204
775.458	0.0136735
775.536	0.0136449
775.614	0.0136989
775.693	0.0136678
775.771	0.0136522
775.849	0.0136691
775.927	0.0136340
776.005	0.0137155
776.083	0.0136558
776.161	0.0136607
776.239	0.0137575
776.318	0.0135387
776.396	0.0135744
776.474	0.0134750
776.552	0.0135149
776.630	0.0136689
776.708	0.0135533
776.786	0.0136847
776.864	0.0136109
776.943	0.0136752
777.021	0.0136190
777.099	0.0135259
777.177	0.0135479
777.255	0.0136182
777.333	0.0137318
777.411	0.0137769
777.489	0.0137740
777.568	0.0137566
777.646	0.0137007
777.724	0.0137433
777.802	0.0137834
777.880	0.0137117
777.958	0.0138068
778.036	0.0138691
778.114	0.0138689
778.193	0.0137412
778.271	0.0138141
778.349	0.0136184
778.427	0.0137125
778.505	0.0139075
778.583	0.0137832
778.661	0.0136727
778.739	0.0136762
778.818	0.0134572
778.896	0.0134810
778.974	0.0137737
779.052	0.0135930
779.130	0.0135356
779.208	0.0134800
779.286	0.0134307
779.364	0.0134100
779.443	0.0134272
779.521	0.0134692
779.599	0.0136209
779.677	0.0134990
779.755	0.0134600
779.833	0.0132614
779.911	0.0132794
779.989	0.0133424
780.068	0.0133841
780.146	0.0134402
780.224	0.0133975
780.302	0.0134584
780.380	0.0135000
780.458	0.0134889
780.536	0.0135427
780.614	0.0134716
780.693	0.0135133
780.771	0.0137066
780.849	0.0134255
780.927	0.0135777
781.005	0.0137061
781.083	0.0136971
781.161	0.0136167
781.239	0.0136886
781.318	0.0137397
781.396	0.0135947
781.474	0.0136729
781.552	0.0137421
781.630	0.0137338
781.708	0.0137417
781.786	0.0136588
781.864	0.0136682
781.943	0.0136359
782.021	0.0137179
782.099	0.0135609
782.177	0.0135646
782.255	0.0134620
782.333	0.0135564
782.411	0.0134422
782.489	0.0134608
782.568	0.0135064
782.646	0.0134527
782.724	0.0133292
782.802	0.0133731
782.880	0.0134183
782.958	0.0133607
783.036	0.0134625
783.114	0.0134059
783.193	0.0133379
783.271	0.0132235
783.349	0.0133736
783.427	0.0133389
783.505	0.0132719
783.583	0.0132494
783.661	0.0134160
783.739	0.0133662
783.818	0.0133147
783.896	0.0134691
783.974	0.0134111
784.052	0.0135111
784.130	0.0133623
784.208	0.0135882
784.286	0.0135693
784.364	0.0136238
784.443	0.0134985
784.521	0.0135048
784.599	0.0136802
784.677	0.0137770
784.755	0.0137044
784.833	0.0137558
784.911	0.0137379
784.989	0.0137986
785.068	0.0138764
785.146	0.0138655
785.224	0.0138628
785.302	0.0139438
785.380	0.0138707
785.458	0.0139392
785.536	0.0139595
785.614	0.0139285
785.693	0.0138852
785.771	0.0138534
785.849	0.0140587
785.927	0.0138911
786.005	0.0139255
786.083	0.0139501
786.161	0.0137458
786.239	0.0139067
786.318	0.0138605
786.396	0.0137645
786.474	0.0137448
786.552	0.0138940
786.630	0.0139008
786.708	0.0137656
786.786	0.0137726
786.864	0.0136221
786.943	0.0136359
787.021	0.0137452
787.099	0.0137311
787.177	0.0136704
787.255	0.0135015
787.333	0.0134412
787.411	0.0134997
787.489	0.0133346
787.568	0.0134133
787.646	0.0134083
787.724	0.0132382
787.802	0.0133208
787.880	0.0132199
787.958	0.0131886
788.036	0.0130845
788.114	0.0129591
788.193	0.0127760
788.271	0.0130458
788.349	0.0130231
788.427	0.0129822
788.505	0.0129398
788.583	0.0129061
788.661	0.0130008
788.739	0.0130815
788.818	0.0129479
788.896	0.0129695
788.974	0.0131510
789.052	0.0131221
789.130	0.0131573
789.208	0.0132935
789.286	0.0133451
789.364	0.0133967
789.443	0.0135027
789.521	0.0134931
789.599	0.0134949
789.677	0.0136239
789.755	0.0137912
789.833	0.0138898
789.911	0.0137856
789.989	0.0140433
790.068	0.0140527
790.146	0.0140018
790.224	0.0140662
790.302	0.0140746
790.380	0.0139368
790.458	0.0140074
790.536	0.0142162
790.614	0.0139656
790.693	0.0139228
790.771	0.0138580
790.849	0.0140232
790.927	0.0139521
791.005	0.0138734
791.083	0.0138478
791.161	0.0139602
791.239	0.0138245
791.318	0.0137408
791.396	0.0137322
791.474	0.0137221
791.552	0.0136750
791.630	0.0135483
791.708	0.0136111
791.786	0.0137766
791.864	0.0136179
791.943	0.0136285
792.021	0.0135485
792.099	0.0135567
792.177	0.0134610
792.255	0.0135885
792.333	0.0136316
792.411	0.0135616
792.489	0.0135200
792.568	0.0135580
792.646	0.0133327
792.724	0.0134466
792.802	0.0134619
792.880	0.0134503
792.958	0.0133309
793.036	0.0133274
793.114	0.0134420
793.193	0.0132975
793.271	0.0133684
793.349	0.0131238
793.427	0.0132530
793.505	0.0132552
793.583	0.0130670
793.661	0.0131695
793.739	0.0132951
793.818	0.0130679
793.896	0.0130765
793.974	0.0131295
794.052	0.0132215
794.130	0.0132156
794.208	0.0130852
794.286	0.0132201
794.364	0.0130645
794.443	0.0132023
794.521	0.0132916
794.599	0.0132396
794.677	0.0131416
794.755	0.0133237
794.833	0.0133209
794.911	0.0133575
794.989	0.0134508
795.068	0.0134634
795.146	0.0133961
795.224	0.0134948
795.302	0.0135588
795.380	0.0136873
795.458	0.0135980
795.536	0.0137907
795.614	0.0137805
795.693	0.0138233
795.771	0.0139388
795.849	0.0137406
795.927	0.0139073
796.005	0.0139777
796.083	0.0140677
796.161	0.0139970
796.239	0.0139646
796.318	0.0140658
796.396	0.0139429
796.474	0.0140653
796.552	0.0141006
796.630	0.0139686
796.708	0.0140983
796.786	0.0141649
796.864	0.0138123
796.943	0.0141142
797.021	0.0140532
797.099	0.0140264
797.177	0.0140829
797.255	0.0138755
797.333	0.0139506
797.411	0.0140010
797.489	0.0139002
797.568	0.0138960
797.646	0.0138351
797.724	0.0138367
797.802	0.0137827
797.880	0.0136319
797.958	0.0136851
798.036	0.0137333
798.114	0.0137188
798.193	0.0137320
798.271	0.0135803
798.349	0.0134281
798.427	0.0133996
798.505	0.0134554
798.583	0.0133829
798.661	0.0132557
798.739	0.0131915
798.818	0.0131554
798.896	0.0131322
798.974	0.0131393
799.052	0.0131104
799.130	0.0130966
799.208	0.0130151
799.286	0.0129331
799.364	0.0129222
799.443	0.0128951
799.521	0.0128452
799.599	0.0128767
799.677	0.0129883
799.755	0.0129144
799.833	0.0128712
799.911	0.0128925
799.989	0.0129269
800.068	0.0130356
800.146	0.0129656
800.224	0.0131410
800.302	0.0131940
800.380	0.0132269
800.458	0.0131722
800.536	0.0132896
800.614	0.0133298
800.693	0.0133911
800.771	0.0134305
800.849	0.0135692
800.927	0.0135875
801.005	0.0136095
801.083	0.0136370
801.161	0.0137247
801.239	0.0137957
801.318	0.0138652
801.396	0.0140551
801.474	0.0140357
801.552	0.0137965
801.630	0.0139246
801.708	0.0140755
801.786	0.0140987
801.864	0.0140034
801.943	0.0140552
802.021	0.0142316
802.099	0.0141402
802.177	0.0140540
802.255	0.0142007
802.333	0.0142636
802.411	0.0140433
802.489	0.0141542
802.568	0.0140342
802.646	0.0143002
802.724	0.0141632
802.802	0.0140723
802.880	0.0140649
802.958	0.0140027
803.036	0.0140356
803.114	0.0137279
803.193	0.0138490
803.271	0.0136737
803.349	0.0136114
803.427	0.0135369
803.505	0.0133418
803.583	0.0132877
803.661	0.0132043
803.739	0.0131106
803.818	0.0130676
803.896	0.0130661
803.974	0.0130240
804.052	0.0129271
804.130	0.0129139
804.208	0.0126754
804.286	0.0126073
804.364	0.0127526
804.443	0.0125580
804.521	0.0125875
804.599	0.0126263
804.677	0.0125636
804.755	0.0125926
804.833	0.0124420
804.911	0.0124753
804.989	0.0125835
805.068	0.0125545
805.146	0.0124271
805.224	0.0125769
805.302	0.0126451
805.380	0.0128954
805.458	0.0128763
805.536	0.0128838
805.614	0.0129788
805.693	0.0128826
805.771	0.0131215
805.849	0.0131654
805.927	0.0131741
806.005	0.0131324
806.083	0.0131249
806.161	0.0133355
806.239	0.0135213
806.318	0.0134544
806.396	0.0135725
806.474	0.0136894
806.552	0.0138628
806.630	0.0138512
806.708	0.0139434
806.786	0.0140559
806.864	0.0141274
806.943	0.0140617
807.021	0.0141387
807.099	0.0143293
807.177	0.0143407
807.255	0.0142533
807.333	0.0143151
807.411	0.0142376
807.489	0.0143213
807.568	0.0142471
807.646	0.0142598
807.724	0.0142861
807.802	0.0142812
807.880	0.0142905
807.958	0.0142715
808.036	0.0141462
808.114	0.0141471
808.193	0.0141286
808.271	0.0139466
808.349	0.0138855
808.427	0.0139117
808.505	0.0138340
808.583	0.0136920
808.661	0.0136116
808.739	0.0135196
808.818	0.0135158
808.896	0.0134629
808.974	0.0134244
809.052	0.0133135
809.130	0.0132647
809.208	0.0133461
809.286	0.0133479
809.364	0.0130744
809.443	0.0131001
809.521	0.0131385
809.599	0.0129171
809.677	0.0129966
809.755	0.0131852
809.833	0.0131037
809.911	0.0129075
809.989	0.0130422
810.068	0.0130743
810.146	0.0130733
810.224	0.0130456
810.302	0.0131738
810.380	0.0130726
810.458	0.0131642
810.536	0.0132431
810.614	0.0131866
810.693	0.0132912
810.771	0.0132073
810.849	0.0132047
810.927	0.0133087
811.005	0.0134026
811.083	0.0132948
811.161	0.0133323
811.239	0.0134328
811.318	0.0135342
811.396	0.0135049
811.474	0.0134950
811.552	0.0136706
811.630	0.0138555
811.708	0.0137054
811.786	0.0137518
811.864	0.0139271
811.943	0.0139780
812.021	0.0139959
812.099	0.0139815
812.177	0.0139561
812.255	0.0141367
812.333	0.0141741
812.411	0.0141131
812.489	0.0140487
812.568	0.0141219
812.646	0.0141859
812.724	0.0141198
812.802	0.0140242
812.880	0.0140924
812.958	0.0141011
813.036	0.0140566
813.114	0.0141335
813.193	0.0140498
813.271	0.0138754
813.349	0.0139906
813.427	0.0140891
813.505	0.0138533
813.583	0.0138592
813.661	0.0137521
813.739	0.0136745
813.818	0.0136330
813.896	0.0134996
813.974	0.0135582
814.052	0.0133147
814.130	0.0133727
814.208	0.0133072
814.286	0.0130415
814.364	0.0131734
814.443	0.0130964
814.521	0.0130553
814.599	0.0131689
814.677	0.0131445
814.755	0.0129691
814.833	0.0130366
814.911	0.0131737
814.989	0.0131428
815.068	0.0132234
815.146	0.0132446
815.224	0.0131744
815.302	0.0131217
815.380	0.0132404
815.458	0.0132385
815.536	0.0131345
815.614	0.0132545
815.693	0.0131878
815.771	0.0132745
815.849	0.0131763
815.927	0.0131977
816.005	0.0132161
816.083	0.0131602
816.161	0.0132593
816.239	0.0132988
816.318	0.0134693
816.396	0.0132932
816.474	0.0132234
816.552	0.0131631
816.630	0.0132720
816.708	0.0133078
816.786	0.0131970
816.864	0.0132865
816.943	0.0133601
817.021	0.0134270
817.099	0.0134613
817.177	0.0132746
817.255	0.0133294
817.333	0.0132769
817.411	0.0136069
817.489	0.0134932
817.568	0.0133924
817.646	0.0134139
817.724	0.0132849
817.802	0.0134708
817.880	0.0134221
817.958	0.0136301
818.036	0.0136505
818.114	0.0136433
818.193	0.0136269
818.271	0.0135153
818.349	0.0135249
818.427	0.0135617
818.505	0.0135114
818.583	0.0135491
818.661	0.0135867
818.739	0.0135775
818.818	0.0136322
818.896	0.0136446
818.974	0.0136683
819.052	0.0136264
819.130	0.0136714
819.208	0.0138055
819.286	0.0138035
819.364	0.0138887
819.443	0.0137665
819.521	0.0136978
819.599	0.0137581
819.677	0.0139128
819.755	0.0137109
819.833	0.0139531
819.911	0.0139259
819.989	0.0138004
820.068	0.0136893
820.146	0.0137737
820.224	0.0136082
820.302	0.0135517
820.380	0.0137528
820.458	0.0136401
820.536	0.0136864
820.614	0.0136453
820.693	0.0135680
820.771	0.0136414
820.849	0.0135474
820.927	0.0135769
821.005	0.0135128
821.083	0.0133630
821.161	0.0133982
821.239	0.0133930
821.318	0.0134328
821.396	0.0133069
821.474	0.0132514
821.552	0.0132269
821.630	0.0131734
821.708	0.0131242
821.786	0.0129949
821.864	0.0130756
821.943	0.0130032
822.021	0.0129297
822.099	0.0130500
822.177	0.0129905
822.255	0.0129730
822.333	0.0129653
822.411	0.0129988
822.489	0.0128991
822.568	0.0131462
822.646	0.0131207
822.724	0.0132323
822.802	0.0132996
822.880	0.0132488
822.958	0.0133527
823.036	0.0133123
823.114	0.0134561
823.193	0.0134930
823.271	0.0135400
823.349	0.0134849
823.427	0.0135745
823.505	0.0136240
823.583	0.0136592
823.661	0.0137041
823.739	0.0135625
823.818	0.0135918
823.896	0.0137456
823.974	0.0137502
824.052	0.0136460
824.130	0.0136333
824.208	0.0135164
824.286	0.0136931
824.364	0.0135709
824.443	0.0134740
824.521	0.0135914
824.599	0.0135784
824.677	0.0134472
824.755	0.0134865
824.833	0.0133250
824.911	0.0133268
824.989	0.0132608
825.068	0.0133163
825.146	0.0133366
825.224	0.0131767
825.302	0.0133546
825.380	0.0131816
825.458	0.0133208
825.536	0.0133265
825.614	0.0132508
825.693	0.0132541
825.771	0.0132333
825.849	0.0133492
825.927	0.0134357
826.005	0.0133762
826.083	0.0133073
826.161	0.0134308
826.239	0.0135364
826.318	0.0135230
826.396	0.0134761
826.474	0.0137839
826.552	0.0137014
826.630	0.0135881
826.708	0.0138057
826.786	0.0137807
826.864	0.0137920
826.943	0.0137000
827.021	0.0139324
827.099	0.0138482
827.177	0.0137859
827.255	0.0138680
827.333	0.0138554
827.411	0.0137387
827.489	0.0138127
827.568	0.0138558
827.646	0.0137994
827.724	0.0137401
827.802	0.0136855
827.880	0.0136623
827.958	0.0136982
828.036	0.0135168
828.114	0.0136121
828.193	0.0135191
828.271	0.0134663
828.349	0.0134309
828.427	0.0134238
828.505	0.0133643
828.583	0.0133033
828.661	0.0132826
828.739	0.0132257
828.818	0.0132174
828.896	0.0130733
828.974	0.0131102
829.052	0.0131582
829.130	0.0130540
829.208	0.0129543
829.286	0.0130452
829.364	0.0129842
829.443	0.0130319
829.521	0.0130420
829.599	0.0130186
829.677	0.0129837
829.755	0.0129934
829.833	0.0130304
829.911	0.0131240
829.989	0.0131272
830.068	0.0131110
830.146	0.0131998
830.224	0.0132561
830.302	0.0132742
830.380	0.0132450
830.458	0.0133710
830.536	0.0133748
830.614	0.0135574
830.693	0.0136012
830.771	0.0135329
830.849	0.0137109
830.927	0.0137695
831.005	0.0136396
831.083	0.0137476
831.161	0.0137951
831.239	0.0138499
831.318	0.0137997
831.396	0.0136852
831.474	0.0137637
831.552	0.0138331
831.630	0.0136315
831.708	0.0139122
831.786	0.0137696
831.864	0.0136109
831.943	0.0136723
832.021	0.0136792
832.099	0.0135976
832.177	0.0135854
832.255	0.0135162
832.333	0.0136004
832.411	0.0135490
832.489	0.0133961
832.568	0.0134225
832.646	0.0133640
832.724	0.0132477
832.802	0.0133227
832.880	0.0132874
832.958	0.0132759
833.036	0.0131786
833.114	0.0131850
833.193	0.0131249
833.271	0.0133560
833.349	0.0131834
833.427	0.0131520
833.505	0.0132816
833.583	0.0132909
833.661	0.0132962
833.739	0.0133961
833.818	0.0134202
833.896	0.0135172
833.974	0.0135204
834.052	0.0135960
834.130	0.0137135
834.208	0.0136135
834.286	0.0136323
834.364	0.0136527
834.443	0.0136103
834.521	0.0137361
834.599	0.0136974
834.677	0.0136574
834.755	0.0137242
834.833	0.0136525
834.911	0.0137951
834.989	0.0135507
835.068	0.0135653
835.146	0.0136214
835.224	0.0136946
835.302	0.0136639
835.380	0.0136646
835.458	0.0134689
835.536	0.0134389
835.614	0.0133854
835.693	0.0133785
835.771	0.0133780
835.849	0.0132880
835.927	0.0132510
836.005	0.0132552
836.083	0.0132318
836.161	0.0133696
836.239	0.0133873
836.318	0.0132672
836.396	0.0133871
836.474	0.0131881
836.552	0.0132417
836.630	0.0133247
836.708	0.0133931
836.786	0.0133357
836.864	0.0134554
836.943	0.0133212
837.021	0.0133781
837.099	0.0135410
837.177	0.0134808
837.255	0.0134626
837.333	0.0134495
837.411	0.0135566
837.489	0.0136852
837.568	0.0135980
837.646	0.0137877
837.724	0.0137984
837.802	0.0137418
837.880	0.0137888
837.958	0.0139186
838.036	0.0139777
838.114	0.0139342
838.193	0.0139949
838.271	0.0139217
838.349	0.0138387
838.427	0.0137863
838.505	0.0138786
838.583	0.0138669
838.661	0.0137777
838.739	0.0137146
838.818	0.0136238
838.896	0.0138610
838.974	0.0136969
839.052	0.0136674
839.130	0.0135721
839.208	0.0135615
839.286	0.0135101
839.364	0.0134669
839.443	0.0135003
839.521	0.0133610
839.599	0.0134850
839.677	0.0133576
839.755	0.0132782
839.833	0.0132206
839.911	0.0133186
839.989	0.0131995
840.068	0.0131860
840.146	0.0132316
840.224	0.0131760
840.302	0.0133061
840.380	0.0133475
840.458	0.0131454
840.536	0.0129768
840.614	0.0131864
840.693	0.0132696
840.771	0.0131216
840.849	0.0133824
840.927	0.0134857
841.005	0.0133743
841.083	0.0133103
841.161	0.0134002
841.239	0.0134929
841.318	0.0135292
841.396	0.0136795
841.474	0.0135468
841.552	0.0135912
841.630	0.0134670
841.708	0.0134669
841.786	0.0136286
841.864	0.0136551
841.943	0.0136355
842.021	0.0135133
842.099	0.0135124
842.177	0.0136328
842.255	0.0135246
842.333	0.0135193
842.411	0.0134074
842.489	0.0134597
842.568	0.0134499
842.646	0.0133689
842.724	0.0134097
842.802	0.0134600
842.880	0.0133818
842.958	0.0134708
843.036	0.0136659
843.114	0.0135511
843.193	0.0135823
843.271	0.0135529
843.349	0.0136155
843.427	0.0135381
843.505	0.0136043
843.583	0.0133383
843.661	0.0136456
843.739	0.0136996
843.818	0.0135867
843.896	0.0135334
843.974	0.0135537
844.052	0.0136123
844.130	0.0137021
844.208	0.0137232
844.286	0.0136366
844.364	0.0135143
844.443	0.0136217
844.521	0.0136585
844.599	0.0138139
844.677	0.0137311
844.755	0.0136542
844.833	0.0136705
844.911	0.0137725
844.989	0.0136512
845.068	0.0136893
845.146	0.0136654
845.224	0.0136281
845.302	0.0134642
845.380	0.0134793
845.458	0.0135865
845.536	0.0136289
845.614	0.0134602
845.693	0.0135902
845.771	0.0135094
845.849	0.0133078
845.927	0.0133070
846.005	0.0132704
846.083	0.0131703
846.161	0.0131567
846.239	0.0131264
846.318	0.0134181
846.396	0.0131467
846.474	0.0130486
846.552	0.0131110
846.630	0.0132400
846.708	0.0130207
846.786	0.0131437
846.864	0.0132274
846.943	0.0131646
847.021	0.0131832
847.099	0.0131451
847.177	0.0131630
847.255	0.0131647
847.333	0.0131661
847.411	0.0132707
847.489	0.0133318
847.568	0.0133441
847.646	0.0134301
847.724	0.0133739
847.802	0.0135777
847.880	0.0135709
847.958	0.0135104
848.036	0.0135442
848.114	0.0136163
848.193	0.0136095
848.271	0.0136242
848.349	0.0135747
848.427	0.0137471
848.505	0.0136607
848.583	0.0137866
848.661	0.0138010
848.739	0.0137214
848.818	0.0137137
848.896	0.0137173
848.974	0.0137271
849.052	0.0137366
849.130	0.0136459
849.208	0.0137908
849.286	0.0137035
849.364	0.0136539
849.443	0.0135001
849.521	0.0136607
849.599	0.0137590
849.677	0.0136657
849.755	0.0135397
849.833	0.0137122
849.911	0.0136756
849.989	0.0136107
850.068	0.0135871
850.146	0.0135895
850.224	0.0135883
850.302	0.0136417
850.380	0.0136968
850.458	0.0136135
850.536	0.0135535
850.614	0.0135445
850.693	0.0135390
850.771	0.0135727
850.849	0.0135485
850.927	0.0136179
851.005	0.0135560
851.083	0.0135056
851.161	0.0135558
851.239	0.0134637
851.318	0.0134689
851.396	0.0136688
851.474	0.0135317
851.552	0.0134982
851.630	0.0134526
851.708	0.0135626
851.786	0.0135201
851.864	0.0134750
851.943	0.0135831
852.021	0.0134190
852.099	0.0133759
852.177	0.0134706
852.255	0.0133974
852.333	0.0134839
852.411	0.0135162
852.489	0.0135139
852.568	0.0134743
852.646	0.0134642
852.724	0.0134258
852.802	0.0134594
852.880	0.0134947
852.958	0.0135772
853.036	0.0134167
853.114	0.0135945
853.193	0.0135162
853.271	0.0135119
853.349	0.0133985
853.427	0.0136328
853.505	0.0136527
853.583	0.0134983
853.661	0.0135838
853.739	0.0135258
853.818	0.0134503
853.896	0.0135324
853.974	0.0135264
854.052	0.0135548
854.130	0.0135263
854.208	0.0134624
854.286	0.0136131
854.364	0.0133963
854.443	0.0134821
854.521	0.0135091
854.599	0.0136351
854.677	0.0135232
854.755	0.0135394
854.833	0.0135558
854.911	0.0135743
854.989	0.0135163
855.068	0.0136210
855.146	0.0135899
855.224	0.0136037
855.302	0.0135165
855.380	0.0136742
855.458	0.0135918
855.536	0.0135406
855.614	0.0137002
855.693	0.0134722
855.771	0.0134743
855.849	0.0136829
855.927	0.0136839
856.005	0.0136514
856.083	0.0135796
856.161	0.0135014
856.239	0.0134917
856.318	0.0136160
856.396	0.0135351
856.474	0.0136061
856.552	0.0135880
856.630	0.0137793
856.708	0.0135997
856.786	0.0136969
856.864	0.0136500
856.943	0.0137139
857.021	0.0136931
857.099	0.0135418
857.177	0.0135227
857.255	0.0133797
857.333	0.0136509
857.411	0.0134734
857.489	0.0134646
857.568	0.0133909
857.646	0.0132981
857.724	0.0134277
857.802	0.0134263
857.880	0.0133687
857.958	0.0134364
858.036	0.0133183
858.114	0.0131738
858.193	0.0132277
858.271	0.0132840
858.349	0.0132120
858.427	0.0132587
858.505	0.0132072
858.583	0.0132983
858.661	0.0131570
858.739	0.0131200
858.818	0.0133160
858.896	0.0131512
858.974	0.0131692
859.052	0.0132748
859.130	0.0133870
859.208	0.0133381
859.286	0.0134391
859.364	0.0134406
859.443	0.0133038
859.521	0.0135534
859.599	0.0135499
859.677	0.0135859
859.755	0.0134907
859.833	0.0135682
859.911	0.0135358
859.989	0.0135699
860.068	0.0136195
860.146	0.0136912
860.224	0.0136198
860.302	0.0136494
860.380	0.0138496
860.458	0.0138403
860.536	0.0136217
860.614	0.0138112
860.693	0.0138833
860.771	0.0136641
860.849	0.0137053
860.927	0.0137566
861.005	0.0137521
861.083	0.0137949
861.161	0.0136840
861.239	0.0137228
861.318	0.0136819
861.396	0.0137643
861.474	0.0137034
861.552	0.0135493
861.630	0.0136699
861.708	0.0135705
861.786	0.0135559
861.864	0.0134066
861.943	0.0135368
862.021	0.0135297
862.099	0.0135179
862.177	0.0135059
862.255	0.0134570
862.333	0.0134981
862.411	0.0134190
862.489	0.0134792
862.568	0.0133004
862.646	0.0134148
862.724	0.0134566
862.802	0.0133397
862.880	0.0132683
862.958	0.0133853
863.036	0.0133686
863.114	0.0133665
863.193	0.0133499
863.271	0.0133340
863.349	0.0133994
863.427	0.0133418
863.505	0.0133864
863.583	0.0133362
863.661	0.0132446
863.739	0.0132137
863.818	0.0132217
863.896	0.0131650
863.974	0.0131385
864.052	0.0132284
864.130	0.0132812
864.208	0.0132657
864.286	0.0131838
864.364	0.0131509
864.443	0.0133296
864.521	0.0133671
864.599	0.0132713
864.677	0.0133145
864.755	0.0132941
864.833	0.0133041
864.911	0.0132676
864.989	0.0133447
865.068	0.0133768
865.146	0.0132467
865.224	0.0132398
865.302	0.0134033
865.380	0.0135543
865.458	0.0132869
865.536	0.0135114
865.614	0.0134652
865.693	0.0135454
865.771	0.0137472
865.849	0.0136559
865.927	0.0135352
866.005	0.0136667
866.083	0.0136256
866.161	0.0136427
866.239	0.0135392
866.318	0.0136143
866.396	0.0136880
866.474	0.0135727
866.552	0.0137457
866.630	0.0135281
866.708	0.0136211
866.786	0.0135918
866.864	0.0135691
866.943	0.0135320
867.021	0.0134856
867.099	0.0135316
867.177	0.0134634
867.255	0.0133467
867.333	0.0134995
867.411	0.0134076
867.489	0.0135072
867.568	0.0134582
867.646	0.0133588
867.724	0.0133870
867.802	0.0133113
867.880	0.0133467
867.958	0.0135644
868.036	0.0133449
868.114	0.0133567
868.193	0.0132648
868.271	0.0132642
868.349	0.0133292
868.427	0.0133222
868.505	0.0132539
868.583	0.0133916
868.661	0.0131156
868.739	0.0133418
868.818	0.0133698
868.896	0.0132993
868.974	0.0132558
869.052	0.0133850
869.130	0.0133405
869.208	0.0134512
869.286	0.0133472
869.364	0.0133781
869.443	0.0135010
869.521	0.0133734
869.599	0.0133823
869.677	0.0133979
869.755	0.0135358
869.833	0.0135471
869.911	0.0135123
869.989	0.0135197
870.068	0.0134241
870.146	0.0134914
870.224	0.0136237
870.302	0.0135442
870.380	0.0134775
870.458	0.0133715
870.536	0.0135201
870.614	0.0135609
870.693	0.0135617
870.771	0.0133730
870.849	0.0136205
870.927	0.0136228
871.005	0.0133838
871.083	0.0134727
871.161	0.0135407
871.239	0.0134119
871.318	0.0134450
871.396	0.0134090
871.474	0.0135588
871.552	0.0135283
871.630	0.0135245
871.708	0.0135239
871.786	0.0135749
871.864	0.0136452
871.943	0.0136657
872.021	0.0136662
872.099	0.0137576
872.177	0.0138258
872.255	0.0138002
872.333	0.0137646
872.411	0.0138201
872.489	0.0138337
872.568	0.0138483
872.646	0.0137801
872.724	0.0138840
872.802	0.0139787
872.880	0.0138060
872.958	0.0137246
873.036	0.0137140
873.114	0.0137442
873.193	0.0137107
873.271	0.0136922
873.349	0.0137424
873.427	0.0136468
873.505	0.0136831
873.583	0.0135427
873.661	0.0135256
873.739	0.0135098
873.818	0.0133994
873.896	0.0134384
873.974	0.0133876
874.052	0.0133335
874.130	0.0134125
874.208	0.0134834
874.286	0.0133893
874.364	0.0134319
874.443	0.0134109
874.521	0.0131989
874.599	0.0135807
874.677	0.0134882
874.755	0.0132690
874.833	0.0134068
874.911	0.0135179
874.989	0.0134792
875.068	0.0133595
875.146	0.0133452
875.224	0.0132990
875.302	0.0133268
875.380	0.0134972
875.458	0.0135076
875.536	0.0135229
875.614	0.0135832
875.693	0.0134754
875.771	0.0135924
875.849	0.0137237
875.927	0.0135206
876.005	0.0136455
876.083	0.0136578
876.161	0.0137807
876.239	0.0137623
876.318	0.0137321
876.396	0.0137910
876.474	0.0137067
876.552	0.0137118
876.630	0.0136864
876.708	0.0137497
876.786	0.0137517
876.864	0.0135815
876.943	0.0136097
877.021	0.0135732
877.099	0.0136779
877.177	0.0136930
877.255	0.0136321
877.333	0.0135680
877.411	0.0136858
877.489	0.0136986
877.568	0.0135944
877.646	0.0135715
877.724	0.0135180
877.802	0.0135362
877.880	0.0136333
877.958	0.0135583
878.036	0.0133999
878.114	0.0135284
878.193	0.0135208
878.271	0.0134522
878.349	0.0134731
878.427	0.0135023
878.505	0.0133934
878.583	0.0133932
878.661	0.0135336
878.739	0.0134672
878.818	0.0134703
878.896	0.0134623
878.974	0.0135262
879.052	0.0134707
879.130	0.0134715
879.208	0.0136115
879.286	0.0135201
879.364	0.0135932
879.443	0.0135396
879.521	0.0134027
879.599	0.0135436
879.677	0.0134943
879.755	0.0135134
879.833	0.0134926
879.911	0.0133715
879.989	0.0133118
880.068	0.0134412
880.146	0.0135533
880.224	0.0134664
880.302	0.0134304
880.380	0.0132748
880.458	0.0134871
880.536	0.0134142
880.614	0.0134071
880.693	0.0135272
880.771	0.0132935
880.849	0.0132659
880.927	0.0135213
881.005	0.0134657
881.083	0.0134583
881.161	0.0133818
881.239	0.0134617
881.318	0.0134711
881.396	0.0136005
881.474	0.0134463
881.552	0.0135867
881.630	0.0135673
881.708	0.0134929
881.786	0.0134650
881.864	0.0136206
881.943	0.0136813
882.021	0.0136037
882.099	0.0135654
882.177	0.0136237
882.255	0.0136609
882.333	0.0137713
882.411	0.0137475
882.489	0.0136830
882.568	0.0136533
882.646	0.0135461
882.724	0.0135362
882.802	0.0136444
882.880	0.0135486
882.958	0.0135784
883.036	0.0136365
883.114	0.0134698
883.193	0.0136221
883.271	0.0134283
883.349	0.0134037
883.427	0.0136570
883.505	0.0135235
883.583	0.0133853
883.661	0.0135632
883.739	0.0135126
883.818	0.0134296
883.896	0.0135854
883.974	0.0134727
884.052	0.0134761
884.130	0.0134567
884.208	0.0135550
884.286	0.0133740
884.364	0.0134004
884.443	0.0135447
884.521	0.0135307
884.599	0.0134576
884.677	0.0135168
884.755	0.0135737
884.833	0.0133319
884.911	0.0134646
884.989	0.0134467
885.068	0.0135963
885.146	0.0133937
885.224	0.0133166
885.302	0.0134772
885.380	0.0134473
885.458	0.0134840
885.536	0.0135754
885.614	0.0134000
885.693	0.0133610
885.771	0.0133385
885.849	0.0133388
885.927	0.0134296
886.005	0.0134426
886.083	0.0135371
886.161	0.0132810
886.239	0.0133224
886.318	0.0133508
886.396	0.0133391
886.474	0.0133419
886.552	0.0133901
886.630	0.0133858
886.708	0.0134404
886.786	0.0134334
886.864	0.0134875
886.943	0.0134896
887.021	0.0133990
887.099	0.0134982
887.177	0.0134631
887.255	0.0135487
887.333	0.0135903
887.411	0.0135267
887.489	0.0135815
887.568	0.0133954
887.646	0.0135667
887.724	0.0135030
887.802	0.0134869
887.880	0.0134043
887.958	0.0135033
888.036	0.0135336
888.114	0.0133472
888.193	0.0133680
888.271	0.0134866
888.349	0.0134960
888.427	0.0134649
888.505	0.0132759
888.583	0.0133805
888.661	0.0134929
888.739	0.0132894
888.818	0.0132851
888.896	0.0134703
888.974	0.0134317
889.052	0.0135698
889.130	0.0134811
889.208	0.0132910
889.286	0.0134743
889.364	0.0134160
889.443	0.0133746
889.521	0.0135632
889.599	0.0134974
889.677	0.0135473
889.755	0.0135476
889.833	0.0136007
889.911	0.0136185
889.989	0.0135842
890.068	0.0136267
890.146	0.0135642
890.224	0.0136633
890.302	0.0136233
890.380	0.0136332
890.458	0.0136594
890.536	0.0134885
890.614	0.0135700
890.693	0.0134500
890.771	0.0136604
890.849	0.0136105
890.927	0.0134275
891.005	0.0136683
891.083	0.0135645
891.161	0.0135099
891.239	0.0133544
891.318	0.0135574
891.396	0.0134870
891.474	0.0135149
891.552	0.0134353
891.630	0.0134729
891.708	0.0135265
891.786	0.0134711
891.864	0.0134599
891.943	0.0133586
892.021	0.0135910
892.099	0.0134950
892.177	0.0134315
892.255	0.0134486
892.333	0.0134480
892.411	0.0134142
892.489	0.0134309
892.568	0.0134528
892.646	0.0135965
892.724	0.0134566
892.802	0.0133750
892.880	0.0133330
892.958	0.0134107
893.036	0.0132636
893.114	0.0133233
893.193	0.0133471
893.271	0.0132999
893.349	0.0133176
893.427	0.0133340
893.505	0.0133080
893.583	0.0133778
893.661	0.0134115
893.739	0.0134136
893.818	0.0133848
893.896	0.0133425
893.974	0.0133296
894.052	0.0133061
894.130	0.0133941
894.208	0.0134460
894.286	0.0134461
894.364	0.0134190
894.443	0.0134167
894.521	0.0133968
894.599	0.0136427
894.677	0.0135107
894.755	0.0134292
894.833	0.0134521
894.911	0.0134918
894.989	0.0134989
895.068	0.0135960
895.146	0.0136298
895.224	0.0135152
895.302	0.0134907
895.380	0.0135490
895.458	0.0136479
895.536	0.0136979
895.614	0.0135989
895.693	0.0135775
895.771	0.0135643
895.849	0.0137630
895.927	0.0136407
896.005	0.0135649
896.083	0.0137276
896.161	0.0136961
896.239	0.0136066
896.318	0.0135833
896.396	0.0136978
896.474	0.0136504
896.552	0.0136200
896.630	0.0135712
896.708	0.0135749
896.786	0.0136383
896.864	0.0134867
896.943	0.0134806
897.021	0.0136874
897.099	0.0134933
897.177	0.0135270
897.255	0.0134145
897.333	0.0134840
897.411	0.0134933
897.489	0.0133685
897.568	0.0135193
897.646	0.0134337
897.724	0.0136028
897.802	0.0134507
897.880	0.0135749
897.958	0.0135406
898.036	0.0134415
898.114	0.0134450
898.193	0.0134609
898.271	0.0135017
898.349	0.0136165
898.427	0.0135628
898.505	0.0135028
898.583	0.0135556
898.661	0.0135705
898.739	0.0135597
898.818	0.0134570
898.896	0.0134251
898.974	0.0132735
899.052	0.0134365
899.130	0.0134282
899.208	0.0134703
899.286	0.0134845
899.364	0.0135300
899.443	0.0134066
899.521	0.0133771
899.599	0.0134270
899.677	0.0135225
899.755	0.0135262
899.833	0.0134015
899.911	0.0132948
899.989	0.0134045
900.068	0.0134656
900.146	0.0132716
900.224	0.0132823
900.302	0.0134221
900.380	0.0133772
900.458	0.0134264
900.536	0.0136295
900.614	0.0133744
900.693	0.0133175
900.771	0.0132609
900.849	0.0134933
900.927	0.0135027
901.005	0.0134283
901.083	0.0134360
901.161	0.0135087
901.239	0.0135241
901.318	0.0135218
901.396	0.0133878
901.474	0.0135043
901.552	0.0134618
901.630	0.0134364
901.708	0.0134853
901.786	0.0134888
901.864	0.0134403
901.943	0.0135192
902.021	0.0134579
902.099	0.0135139
902.177	0.0134914
902.255	0.0135703
902.333	0.0135920
902.411	0.0135616
902.489	0.0135495
902.568	0.0135188
902.646	0.0136365
902.724	0.0135624
902.802	0.0136886
902.880	0.0135416
902.958	0.0137126
903.036	0.0136787
903.114	0.0137540
903.193	0.0138074
903.271	0.0138073
903.349	0.0135963
903.427	0.0135808
903.505	0.0135993
903.583	0.0136576
903.661	0.0137695
903.739	0.0135856
903.818	0.0135659
903.896	0.0136285
903.974	0.0135313
904.052	0.0135139
904.130	0.0134837
904.208	0.0135690
904.286	0.0134444
904.364	0.0135815
904.443	0.0136926
904.521	0.0135458
904.599	0.0135708
904.677	0.0136553
904.755	0.0136591
904.833	0.0136002
904.911	0.0135031
904.989	0.0135356
905.068	0.0135740
905.146	0.0135790
905.224	0.0136561
905.302	0.0136815
905.380	0.0137148
905.458	0.0136577
905.536	0.0136197
905.614	0.0138087
905.693	0.0137293
905.771	0.0137072
905.849	0.0137824
905.927	0.0137900
906.005	0.0136645
906.083	0.0137680
906.161	0.0138198
906.239	0.0137978
906.318	0.0137160
906.396	0.0137434
906.474	0.0137534
906.552	0.0137022
906.630	0.0136430
906.708	0.0135554
906.786	0.0137113
906.864	0.0136716
906.943	0.0134924
907.021	0.0135028
907.099	0.0134645
907.177	0.0133629
907.255	0.0135017
907.333	0.0135696
907.411	0.0133180
907.489	0.0134265
907.568	0.0135592
907.646	0.0133781
907.724	0.0134048
907.802	0.0133804
907.880	0.0134450
907.958	0.0133619
908.036	0.0135020
908.114	0.0133714
908.193	0.0133408
908.271	0.0133516
908.349	0.0134168
908.427	0.0134811
908.505	0.0135009
908.583	0.0133443
908.661	0.0134309
908.739	0.0135162
908.818	0.0133779
908.896	0.0136432
908.974	0.0136840
909.052	0.0134878
909.130	0.0135085
909.208	0.0136301
909.286	0.0135626
909.364	0.0135284
909.443	0.0135440
909.521	0.0135526
909.599	0.0137511
909.677	0.0136520
909.755	0.0136210
909.833	0.0135983
909.911	0.0136344
909.989	0.0136166
910.068	0.0137130
910.146	0.0136710
910.224	0.0136961
910.302	0.0137306
910.380	0.0137396
910.458	0.0137109
910.536	0.0137078
910.614	0.0136992
910.693	0.0138214
910.771	0.0137568
910.849	0.0137653
910.927	0.0136470
911.005	0.0138206
911.083	0.0138123
911.161	0.0137988
911.239	0.0138205
911.318	0.0137785
911.396	0.0137524
911.474	0.0137397
911.552	0.0136591
911.630	0.0137398
911.708	0.0137034
911.786	0.0135995
911.864	0.0137209
911.943	0.0136938
912.021	0.0137544
912.099	0.0136681
912.177	0.0134129
912.255	0.0134807
912.333	0.0134428
912.411	0.0135131
912.489	0.0134214
912.568	0.0133591
912.646	0.0134418
912.724	0.0133073
912.802	0.0133700
912.880	0.0133966
912.958	0.0132380
913.036	0.0133369
913.114	0.0135342
913.193	0.0134484
913.271	0.0134541
913.349	0.0135686
913.427	0.0134269
913.505	0.0134463
913.583	0.0133027
913.661	0.0135510
913.739	0.0136430
913.818	0.0133644
913.896	0.0134666
913.974	0.0135667
914.052	0.0135241
914.130	0.0135005
914.208	0.0135655
914.286	0.0134918
914.364	0.0135324
914.443	0.0136551
914.521	0.0134684
914.599	0.0137296
914.677	0.0137044
914.755	0.0136044
914.833	0.0135844
914.911	0.0135468
914.989	0.0136642
915.068	0.0136095
915.146	0.0136040
915.224	0.0137209
915.302	0.0136803
915.380	0.0136395
915.458	0.0136698
915.536	0.0136819
915.614	0.0136129
915.693	0.0137114
915.771	0.0136001
915.849	0.0136214
915.927	0.0135645
916.005	0.0137561
916.083	0.0136053
916.161	0.0135383
916.239	0.0136161
916.318	0.0137381
916.396	0.0135434
916.474	0.0134119
916.552	0.0135635
916.630	0.0135632
916.708	0.0134996
916.786	0.0134870
916.864	0.0135147
916.943	0.0135799
917.021	0.0134634
917.099	0.0136398
917.177	0.0136321
917.255	0.0135469
917.333	0.0135061
917.411	0.0134808
917.489	0.0134188
917.568	0.0135027
917.646	0.0135035
917.724	0.0133604
917.802	0.0135754
917.880	0.0136098
917.958	0.0134142
918.036	0.0134977
918.114	0.0134911
918.193	0.0133765
918.271	0.0133508
918.349	0.0133956
918.427	0.0134794
918.505	0.0134978
918.583	0.0134621
918.661	0.0135081
918.739	0.0132678
918.818	0.0133935
918.896	0.0133778
918.974	0.0133768
919.052	0.0133992
919.130	0.0133961
919.208	0.0133515
919.286	0.0133968
919.364	0.0134118
919.443	0.0134439
919.521	0.0134008
919.599	0.0134149
919.677	0.0134348
919.755	0.0133955
919.833	0.0133611
919.911	0.0135127
919.989	0.0134685
920.068	0.0133822
920.146	0.0134756
920.224	0.0133954
920.302	0.0133080
920.380	0.0133293
920.458	0.0133752
920.536	0.0134676
920.614	0.0135277
920.693	0.0134480
920.771	0.0135085
920.849	0.0134467
920.927	0.0133194
921.005	0.0133829
921.083	0.0135272
921.161	0.0133847
921.239	0.0134521
921.318	0.0134581
921.396	0.0135629
921.474	0.0135394
921.552	0.0136781
921.630	0.0135767
921.708	0.0135628
921.786	0.0135098
921.864	0.0135912
921.943	0.0135506
922.021	0.0135975
922.099	0.0136941
922.177	0.0135546
922.255	0.0134364
922.333	0.0135633
922.411	0.0133824
922.489	0.0135792
922.568	0.0136450
922.646	0.0135466
922.724	0.0136281
922.802	0.0136498
922.880	0.0136342
922.958	0.0136541
923.036	0.0136375
923.114	0.0136014
923.193	0.0136150
923.271	0.0134765
923.349	0.0135400
923.427	0.0135683
923.505	0.0135045
923.583	0.0135609
923.661	0.0134345
923.739	0.0135036
923.818	0.0135863
923.896	0.0134970
923.974	0.0135141
924.052	0.0135591
924.130	0.0135012
924.208	0.0135223
924.286	0.0135777
924.364	0.0135271
924.443	0.0134145
924.521	0.0133805
924.599	0.0134843
924.677	0.0135961
924.755	0.0134753
924.833	0.0134746
924.911	0.0133947
924.989	0.0134169
925.068	0.0135961
925.146	0.0135695
925.224	0.0134803
925.302	0.0134887
925.380	0.0134299
925.458	0.0134558
925.536	0.0133659
925.614	0.0134402
925.693	0.0134783
925.771	0.0133813
925.849	0.0133427
925.927	0.0134206
926.005	0.0133363
926.083	0.0133939
926.161	0.0134120
926.239	0.0133576
926.318	0.0132921
926.396	0.0132832
926.474	0.0134167
926.552	0.0134758
926.630	0.0133743
926.708	0.0133250
926.786	0.0133504
926.864	0.0134608
926.943	0.0133829
927.021	0.0133727
927.099	0.0134044
927.177	0.0134716
927.255	0.0133643
927.333	0.0135205
927.411	0.0136462
927.489	0.0134477
927.568	0.0134559
927.646	0.0134820
927.724	0.0135951
927.802	0.0136838
927.880	0.0136209
927.958	0.0135549
928.036	0.0136974
928.114	0.0138177
928.193	0.0136217
928.271	0.0137305
928.349	0.0136253
928.427	0.0136719
928.505	0.0137518
928.583	0.0136892
928.661	0.0137065
928.739	0.0136495
928.818	0.0136991
928.896	0.0137185
928.974	0.0136825
929.052	0.0135699
929.130	0.0134843
929.208	0.0136690
929.286	0.0136412
929.364	0.0136649
929.443	0.0136798
929.521	0.0135146
929.599	0.0136562
929.677	0.0135317
929.755	0.0135564
929.833	0.0135973
929.911	0.0137425
929.989	0.0135536
930.068	0.0135925
930.146	0.0135835
930.224	0.0135899
930.302	0.0135276
930.380	0.0134763
930.458	0.0134661
930.536	0.0135555
930.614	0.0134517
930.693	0.0134605
930.771	0.0135521
930.849	0.0134941
930.927	0.0135579
931.005	0.0134814
931.083	0.0136275
931.161	0.0135445
931.239	0.0135342
931.318	0.0134619
931.396	0.0136208
931.474	0.0135897
931.552	0.0134666
931.630	0.0135398
931.708	0.0135655
931.786	0.0135451
931.864	0.0134748
931.943	0.0136284
932.021	0.0135133
932.099	0.0135110
932.177	0.0136728
932.255	0.0135091
932.333	0.0136382
932.411	0.0135497
932.489	0.0135566
932.568	0.0136356
932.646	0.0137087
932.724	0.0134536
932.802	0.0135959
932.880	0.0135931
932.958	0.0135344
933.036	0.0135887
933.114	0.0136679
933.193	0.0135008
933.271	0.0135917
933.349	0.0135427
933.427	0.0135689
933.505	0.0136740
933.583	0.0136732
933.661	0.0135832
933.739	0.0135806
933.818	0.0136948
933.896	0.0136419
933.974	0.0135519
934.052	0.0136068
934.130	0.0136468
934.208	0.0135117
934.286	0.0135530
934.364	0.0138120
934.443	0.0136369
934.521	0.0136794
934.599	0.0137196
934.677	0.0135968
934.755	0.0137646
934.833	0.0136627
934.911	0.0137517
934.989	0.0136287
935.068	0.0136659
935.146	0.0135886
935.224	0.0137447
935.302	0.0135408
935.380	0.0136614
935.458	0.0137209
935.536	0.0136492
935.614	0.0135669
935.693	0.0136147
935.771	0.0136543
935.849	0.0136689
935.927	0.0135719
936.005	0.0135858
936.083	0.0136149
936.161	0.0135449
936.239	0.0135894
936.318	0.0137202
936.396	0.0135745
936.474	0.0135445
936.552	0.0133730
936.630	0.0135193
936.708	0.0135736
936.786	0.0134080
936.864	0.0134503
936.943	0.0133836
937.021	0.0133770
937.099	0.0134064
937.177	0.0134702
937.255	0.0133403
937.333	0.0134193
937.411	0.0134558
937.489	0.0135276
937.568	0.0135425
937.646	0.0135224
937.724	0.0134120
937.802	0.0134787
937.880	0.0135309
937.958	0.0135992
938.036	0.0133861
938.114	0.0134227
938.193	0.0135191
938.271	0.0135880
938.349	0.0134645
938.427	0.0135782
938.505	0.0136446
938.583	0.0136846
938.661	0.0135547
938.739	0.0134045
938.818	0.0135635
938.896	0.0136549
938.974	0.0135876
939.052	0.0133273
939.130	0.0134550
939.208	0.0135508
939.286	0.0134042
939.364	0.0134451
939.443	0.0135906
939.521	0.0135732
939.599	0.0134413
939.677	0.0135517
939.755	0.0135331
939.833	0.0135582
939.911	0.0136990
939.989	0.0135620
940.068	0.0134780
940.146	0.0135461
940.224	0.0136004
940.302	0.0135912
940.380	0.0137120
940.458	0.0136224
940.536	0.0137113
940.614	0.0136579
940.693	0.0136533
940.771	0.0136063
940.849	0.0134885
940.927	0.0135815
941.005	0.0135622
941.083	0.0135062
941.161	0.0134185
941.239	0.0136127
941.318	0.0134845
941.396	0.0136285
941.474	0.0135404
941.552	0.0135353
941.630	0.0135351
941.708	0.0135102
941.786	0.0133842
941.864	0.0134466
941.943	0.0133904
942.021	0.0133675
942.099	0.0132808
942.177	0.0133929
942.255	0.0134853
942.333	0.0135408
942.411	0.0133151
942.489	0.0133228
942.568	0.0134075
942.646	0.0133718
942.724	0.0133557
942.802	0.0134667
942.880	0.0133876
942.958	0.0132130
943.036	0.0133755
943.114	0.0133427
943.193	0.0135055
943.271	0.0133932
943.349	0.0133617
943.427	0.0133636
943.505	0.0134074
943.583	0.0133971
943.661	0.0135127
943.739	0.0134435
943.818	0.0135188
943.896	0.0136445
943.974	0.0135385
944.052	0.0136190
944.130	0.0134707
944.208	0.0135610
944.286	0.0135072
944.364	0.0135570
944.443	0.0134266
944.521	0.0135597
944.599	0.0136555
944.677	0.0136361
944.755	0.0135348
944.833	0.0135359
944.911	0.0134962
944.989	0.0135552
945.068	0.0137087
945.146	0.0135952
945.224	0.0135165
945.302	0.0135670
945.380	0.0135473
945.458	0.0136578
945.536	0.0134805
945.614	0.0134557
945.693	0.0135995
945.771	0.0136953
945.849	0.0135323
945.927	0.0134860
946.005	0.0134804
946.083	0.0134661
946.161	0.0135799
946.239	0.0136049
946.318	0.0134928
946.396	0.0134457
946.474	0.0135498
946.552	0.0134524
946.630	0.0133675
946.708	0.0133046
946.786	0.0134515
946.864	0.0134553
946.943	0.0133857
947.021	0.0133627
947.099	0.0133469
947.177	0.0135406
947.255	0.0135415
947.333	0.0135076
947.411	0.0134299
947.489	0.0133289
947.568	0.0134600
947.646	0.0133964
947.724	0.0135041
947.802	0.0134107
947.880	0.0135424
947.958	0.0135365
948.036	0.0134665
948.114	0.0133836
948.193	0.0135397
948.271	0.0134458
948.349	0.0133697
948.427	0.0134246
948.505	0.0134184
948.583	0.0135403
948.661	0.0134151
948.739	0.0133736
948.818	0.0133865
948.896	0.0132858
948.974	0.0133107
949.052	0.0133478
949.130	0.0133104
949.208	0.0132870
949.286	0.0135316
949.364	0.0134492
949.443	0.0133875
949.521	0.0133828
949.599	0.0133556
949.677	0.0133804
949.755	0.0133096
949.833	0.0133904
949.911	0.0135580
949.989	0.0134839
950.068	0.0134619
950.146	0.0133973
950.224	0.0135363
950.302	0.0135399
950.380	0.0134952
950.458	0.0134969
950.536	0.0134989
950.614	0.0134816
950.693	0.0135382
950.771	0.0135076
950.849	0.0134153
950.927	0.0134699
951.005	0.0135596
951.083	0.0134137
951.161	0.0135004
951.239	0.0135427
951.318	0.0135027
951.396	0.0134910
951.474	0.0136025
951.552	0.0135136
951.630	0.0134471
951.708	0.0134631
951.786	0.0133969
951.864	0.0135690
951.943	0.0135217
952.021	0.0135235
952.099	0.0135080
952.177	0.0135059
952.255	0.0133769
952.333	0.0135257
952.411	0.0134087
952.489	0.0134950
952.568	0.0134457
952.646	0.0135060
952.724	0.0135114
952.802	0.0135223
952.880	0.0133839
952.958	0.0134277
953.036	0.0134717
953.114	0.0135021
953.193	0.0135511
953.271	0.0133794
953.349	0.0134953
953.427	0.0134499
953.505	0.0133904
953.583	0.0133464
953.661	0.0134269
953.739	0.0135202
953.818	0.0134805
953.896	0.0133690
953.974	0.0133019
954.052	0.0136106
954.130	0.0135989
954.208	0.0135060
954.286	0.0133849
954.364	0.0134394
954.443	0.0135027
954.521	0.0135056
954.599	0.0136542
954.677	0.0134173
954.755	0.0133730
954.833	0.0135648
954.911	0.0134895
954.989	0.0135580
955.068	0.0135789
955.146	0.0136125
955.224	0.0136008
955.302	0.0136569
955.380	0.0136209
955.458	0.0137174
955.536	0.0135410
955.614	0.0135455
955.693	0.0136177
955.771	0.0136781
955.849	0.0136256
955.927	0.0136300
956.005	0.0136707
956.083	0.0135894
956.161	0.0137299
956.239	0.0136584
956.318	0.0136314
956.396	0.0137146
956.474	0.0135935
956.552	0.0135854
956.630	0.0136412
956.708	0.0137437
956.786	0.0135144
956.864	0.0136141
956.943	0.0137313
957.021	0.0137084
957.099	0.0136694
957.177	0.0135273
957.255	0.0136218
957.333	0.0136290
957.411	0.0136103
957.489	0.0137027
957.568	0.0136550
957.646	0.0135285
957.724	0.0133936
957.802	0.0135349
957.880	0.0133855
957.958	0.0135129
958.036	0.0134083
958.114	0.0134274
958.193	0.0133839
958.271	0.0134436
958.349	0.0133802
958.427	0.0134462
958.505	0.0135777
958.583	0.0134513
958.661	0.0134073
958.739	0.0132703
958.818	0.0132836
958.896	0.0134038
958.974	0.0131748
959.052	0.0133501
959.130	0.0133200
959.208	0.0133646
959.286	0.0133343
959.364	0.0133102
959.443	0.0134312
959.521	0.0134034
959.599	0.0133352
959.677	0.0133930
959.755	0.0134496
959.833	0.0134731
959.911	0.0134313
