05/14/2022	16:48:17	Ver.	4.1	UNKNOWN
Optical Delay	639.989416	Delta X		0.078125	Sweeps	1	Scan Rate	0/0
Coordinates	Axis 1	NaN	Axis 2	NaN	Axis 3	NaN	Axis 4	NaN	Axis 5	NaN	Axis 6	0.000000
TX Power	0.000000	RX Power	0.000000

639.989	0.0139359
640.068	0.0139931
640.146	0.0139394
640.224	0.0139626
640.302	0.0140217
640.380	0.0140020
640.458	0.0140180
640.536	0.0141874
640.614	0.0141187
640.693	0.0142112
640.771	0.0141368
640.849	0.0142519
640.927	0.0142538
641.005	0.0141748
641.083	0.0140970
641.161	0.0140594
641.239	0.0141567
641.318	0.0143098
641.396	0.0140203
641.474	0.0140709
641.552	0.0141320
641.630	0.0141103
641.708	0.0141425
641.786	0.0141022
641.864	0.0142546
641.943	0.0142703
642.021	0.0142010
642.099	0.0142037
642.177	0.0141378
642.255	0.0140922
642.333	0.0141796
642.411	0.0141567
642.489	0.0142715
642.568	0.0142213
642.646	0.0142255
642.724	0.0140766
642.802	0.0142171
642.880	0.0141318
642.958	0.0141551
643.036	0.0142467
643.114	0.0142368
643.193	0.0141559
643.271	0.0141436
643.349	0.0141563
643.427	0.0142307
643.505	0.0141589
643.583	0.0140833
643.661	0.0140550
643.739	0.0142212
643.818	0.0142694
643.896	0.0140990
643.974	0.0140302
644.052	0.0141412
644.130	0.0140752
644.208	0.0140004
644.286	0.0140520
644.364	0.0139231
644.443	0.0140334
644.521	0.0140997
644.599	0.0139278
644.677	0.0139873
644.755	0.0139574
644.833	0.0139181
644.911	0.0140152
644.989	0.0138743
645.068	0.0139593
645.146	0.0139655
645.224	0.0139569
645.302	0.0140466
645.380	0.0140319
645.458	0.0139456
645.536	0.0138830
645.614	0.0141134
645.693	0.0140120
645.771	0.0139276
645.849	0.0141219
645.927	0.0141457
646.005	0.0140931
646.083	0.0141013
646.161	0.0141637
646.239	0.0139232
646.318	0.0141924
646.396	0.0141269
646.474	0.0138536
646.552	0.0139585
646.630	0.0140185
646.708	0.0140813
646.786	0.0140157
646.864	0.0140375
646.943	0.0139520
647.021	0.0140508
647.099	0.0139905
647.177	0.0140224
647.255	0.0141557
647.333	0.0140641
647.411	0.0140442
647.489	0.0138820
647.568	0.0139498
647.646	0.0138847
647.724	0.0139125
647.802	0.0140176
647.880	0.0140217
647.958	0.0140259
648.036	0.0142429
648.114	0.0141311
648.193	0.0141605
648.271	0.0142994
648.349	0.0144174
648.427	0.0142386
648.505	0.0141486
648.583	0.0142220
648.661	0.0141908
648.739	0.0142567
648.818	0.0141798
648.896	0.0140977
648.974	0.0141302
649.052	0.0141435
649.130	0.0141154
649.208	0.0139270
649.286	0.0140404
649.364	0.0141668
649.443	0.0140057
649.521	0.0140652
649.599	0.0140501
649.677	0.0139867
649.755	0.0139421
649.833	0.0139771
649.911	0.0139485
649.989	0.0139379
650.068	0.0142290
650.146	0.0139407
650.224	0.0141215
650.302	0.0140396
650.380	0.0139806
650.458	0.0140311
650.536	0.0140576
650.614	0.0140322
650.693	0.0140211
650.771	0.0141427
650.849	0.0141615
650.927	0.0140289
651.005	0.0139799
651.083	0.0140190
651.161	0.0140350
651.239	0.0139640
651.318	0.0140703
651.396	0.0139316
651.474	0.0140898
651.552	0.0140433
651.630	0.0140511
651.708	0.0140947
651.786	0.0140781
651.864	0.0140564
651.943	0.0141784
652.021	0.0142255
652.099	0.0141577
652.177	0.0141214
652.255	0.0142039
652.333	0.0141727
652.411	0.0143222
652.489	0.0140934
652.568	0.0141967
652.646	0.0142120
652.724	0.0143206
652.802	0.0142438
652.880	0.0142316
652.958	0.0141750
653.036	0.0141149
653.114	0.0140103
653.193	0.0141951
653.271	0.0141119
653.349	0.0140650
653.427	0.0142354
653.505	0.0141087
653.583	0.0142731
653.661	0.0142245
653.739	0.0140728
653.818	0.0140690
653.896	0.0141415
653.974	0.0141513
654.052	0.0141141
654.130	0.0141383
654.208	0.0141379
654.286	0.0141436
654.364	0.0141506
654.443	0.0141034
654.521	0.0140929
654.599	0.0140306
654.677	0.0139940
654.755	0.0138628
654.833	0.0140299
654.911	0.0140343
654.989	0.0139662
655.068	0.0140541
655.146	0.0139920
655.224	0.0138234
655.302	0.0139314
655.380	0.0140145
655.458	0.0139889
655.536	0.0139848
655.614	0.0139307
655.693	0.0138223
655.771	0.0139160
655.849	0.0138987
655.927	0.0139356
656.005	0.0138943
656.083	0.0140290
656.161	0.0139977
656.239	0.0138496
656.318	0.0140153
656.396	0.0140910
656.474	0.0139659
656.552	0.0139327
656.630	0.0140116
656.708	0.0139462
656.786	0.0139424
656.864	0.0139825
656.943	0.0139043
657.021	0.0139546
657.099	0.0139286
657.177	0.0140209
657.255	0.0139324
657.333	0.0139079
657.411	0.0139066
657.489	0.0140926
657.568	0.0140533
657.646	0.0138526
657.724	0.0139898
657.802	0.0139143
657.880	0.0139902
657.958	0.0139297
658.036	0.0138837
658.114	0.0140172
658.193	0.0138595
658.271	0.0138705
658.349	0.0138850
658.427	0.0139917
658.505	0.0139371
658.583	0.0139922
658.661	0.0140099
658.739	0.0140003
658.818	0.0139143
658.896	0.0138860
658.974	0.0139572
659.052	0.0139937
659.130	0.0140028
659.208	0.0138229
659.286	0.0139249
659.364	0.0140565
659.443	0.0139307
659.521	0.0140237
659.599	0.0139794
659.677	0.0140492
659.755	0.0140288
659.833	0.0139879
659.911	0.0139325
659.989	0.0140923
660.068	0.0139595
660.146	0.0138679
660.224	0.0139772
660.302	0.0141045
660.380	0.0140536
660.458	0.0138420
660.536	0.0139449
660.614	0.0140457
660.693	0.0140177
660.771	0.0140374
660.849	0.0140350
660.927	0.0140281
661.005	0.0139587
661.083	0.0138714
661.161	0.0140791
661.239	0.0141249
661.318	0.0139230
661.396	0.0139172
661.474	0.0139952
661.552	0.0139222
661.630	0.0139343
661.708	0.0139640
661.786	0.0140147
661.864	0.0138875
661.943	0.0138619
662.021	0.0138729
662.099	0.0138332
662.177	0.0140095
662.255	0.0140414
662.333	0.0139941
662.411	0.0140948
662.489	0.0140396
662.568	0.0140646
662.646	0.0141450
662.724	0.0140936
662.802	0.0139984
662.880	0.0140426
662.958	0.0141319
663.036	0.0140632
663.114	0.0139896
663.193	0.0140491
663.271	0.0141849
663.349	0.0141579
663.427	0.0141200
663.505	0.0141574
663.583	0.0140224
663.661	0.0139693
663.739	0.0140344
663.818	0.0139435
663.896	0.0138344
663.974	0.0138710
664.052	0.0135984
664.130	0.0136943
664.208	0.0137781
664.286	0.0136266
664.364	0.0135714
664.443	0.0136240
664.521	0.0136454
664.599	0.0136094
664.677	0.0137029
664.755	0.0136597
664.833	0.0136542
664.911	0.0137020
664.989	0.0137240
665.068	0.0138712
665.146	0.0139932
665.224	0.0138132
665.302	0.0140510
665.380	0.0141342
665.458	0.0140611
665.536	0.0142325
665.614	0.0143230
665.693	0.0142663
665.771	0.0143465
665.849	0.0144028
665.927	0.0143362
666.005	0.0144257
666.083	0.0145656
666.161	0.0144646
666.239	0.0144509
666.318	0.0144086
666.396	0.0144053
666.474	0.0144293
666.552	0.0141754
666.630	0.0142634
666.708	0.0141435
666.786	0.0139474
666.864	0.0138777
666.943	0.0138010
667.021	0.0137893
667.099	0.0137729
667.177	0.0137212
667.255	0.0134867
667.333	0.0135303
667.411	0.0133779
667.489	0.0133662
667.568	0.0134445
667.646	0.0134390
667.724	0.0132990
667.802	0.0135670
667.880	0.0135255
667.958	0.0136133
668.036	0.0137061
668.114	0.0137426
668.193	0.0137993
668.271	0.0141266
668.349	0.0142136
668.427	0.0143019
668.505	0.0144635
668.583	0.0145637
668.661	0.0147478
668.739	0.0147688
668.818	0.0147310
668.896	0.0147672
668.974	0.0146450
669.052	0.0147426
669.130	0.0147296
669.208	0.0146196
669.286	0.0146684
669.364	0.0144540
669.443	0.0143784
669.521	0.0142296
669.599	0.0140302
669.677	0.0139125
669.755	0.0137637
669.833	0.0137180
669.911	0.0135876
669.989	0.0136024
670.068	0.0133298
670.146	0.0135065
670.224	0.0132452
670.302	0.0133324
670.380	0.0133315
670.458	0.0131158
670.536	0.0131972
670.614	0.0132290
670.693	0.0132168
670.771	0.0132606
670.849	0.0134653
670.927	0.0136636
671.005	0.0135940
671.083	0.0137333
671.161	0.0139079
671.239	0.0139118
671.318	0.0141525
671.396	0.0144503
671.474	0.0144668
671.552	0.0146564
671.630	0.0147258
671.708	0.0147073
671.786	0.0149251
671.864	0.0149610
671.943	0.0149451
672.021	0.0150587
672.099	0.0150941
672.177	0.0149970
672.255	0.0149900
672.333	0.0149648
672.411	0.0148948
672.489	0.0148104
672.568	0.0148093
672.646	0.0145454
672.724	0.0144711
672.802	0.0142510
672.880	0.0140687
672.958	0.0139061
673.036	0.0138617
673.114	0.0137032
673.193	0.0135433
673.271	0.0133816
673.349	0.0133733
673.427	0.0132032
673.505	0.0131205
673.583	0.0130512
673.661	0.0131548
673.739	0.0130531
673.818	0.0129715
673.896	0.0129452
673.974	0.0128960
674.052	0.0132256
674.130	0.0131396
674.208	0.0131976
674.286	0.0133982
674.364	0.0137014
674.443	0.0136222
674.521	0.0137578
674.599	0.0140384
674.677	0.0141839
674.755	0.0143789
674.833	0.0147733
674.911	0.0148492
674.989	0.0150807
675.068	0.0151601
675.146	0.0153116
675.224	0.0154363
675.302	0.0156025
675.380	0.0156055
675.458	0.0155989
675.536	0.0156778
675.614	0.0157193
675.693	0.0155512
675.771	0.0154037
675.849	0.0153759
675.927	0.0150118
676.005	0.0148235
676.083	0.0145305
676.161	0.0144787
676.239	0.0142060
676.318	0.0140221
676.396	0.0137237
676.474	0.0133466
676.552	0.0133046
676.630	0.0130981
676.708	0.0129622
676.786	0.0129010
676.864	0.0127252
676.943	0.0125131
677.021	0.0125191
677.099	0.0125653
677.177	0.0125645
677.255	0.0126565
677.333	0.0125369
677.411	0.0126942
677.489	0.0130902
677.568	0.0131557
677.646	0.0134455
677.724	0.0135652
677.802	0.0137625
677.880	0.0140640
677.958	0.0141939
678.036	0.0144033
678.114	0.0146658
678.193	0.0146563
678.271	0.0149396
678.349	0.0148477
678.427	0.0149126
678.505	0.0148139
678.583	0.0149104
678.661	0.0149915
678.739	0.0148344
678.818	0.0148051
678.896	0.0148616
678.974	0.0146790
679.052	0.0144741
679.130	0.0144443
679.208	0.0143190
679.286	0.0144084
679.364	0.0141288
679.443	0.0139656
679.521	0.0139243
679.599	0.0138453
679.677	0.0137707
679.755	0.0137678
679.833	0.0139413
679.911	0.0138574
679.989	0.0138367
680.068	0.0138075
680.146	0.0138380
680.224	0.0139947
680.302	0.0139594
680.380	0.0140707
680.458	0.0139339
680.536	0.0141444
680.614	0.0142496
680.693	0.0140775
680.771	0.0142091
680.849	0.0141731
680.927	0.0141057
681.005	0.0142214
681.083	0.0142816
681.161	0.0141305
681.239	0.0141745
681.318	0.0142538
681.396	0.0141879
681.474	0.0141794
681.552	0.0140888
681.630	0.0141219
681.708	0.0139955
681.786	0.0139735
681.864	0.0138663
681.943	0.0137814
682.021	0.0134890
682.099	0.0134715
682.177	0.0134862
682.255	0.0133083
682.333	0.0132849
682.411	0.0133218
682.489	0.0132460
682.568	0.0131396
682.646	0.0131865
682.724	0.0133234
682.802	0.0132667
682.880	0.0132437
682.958	0.0132814
683.036	0.0133390
683.114	0.0134155
683.193	0.0134783
683.271	0.0134536
683.349	0.0134590
683.427	0.0136287
683.505	0.0136604
683.583	0.0137971
683.661	0.0137300
683.739	0.0137135
683.818	0.0140559
683.896	0.0140577
683.974	0.0141102
684.052	0.0142947
684.130	0.0142974
684.208	0.0144672
684.286	0.0146042
684.364	0.0147186
684.443	0.0147174
684.521	0.0148680
684.599	0.0149563
684.677	0.0148512
684.755	0.0151591
684.833	0.0150925
684.911	0.0150179
684.989	0.0151472
685.068	0.0151615
685.146	0.0151762
685.224	0.0150233
685.302	0.0151667
685.380	0.0151307
685.458	0.0150553
685.536	0.0150079
685.614	0.0147732
685.693	0.0148019
685.771	0.0145895
685.849	0.0144721
685.927	0.0144077
686.005	0.0140096
686.083	0.0138693
686.161	0.0136577
686.239	0.0135381
686.318	0.0133579
686.396	0.0129633
686.474	0.0130206
686.552	0.0129503
686.630	0.0127972
686.708	0.0126253
686.786	0.0124687
686.864	0.0125060
686.943	0.0124380
687.021	0.0124651
687.099	0.0126219
687.177	0.0126825
687.255	0.0126025
687.333	0.0126828
687.411	0.0127349
687.489	0.0128523
687.568	0.0130063
687.646	0.0130918
687.724	0.0132610
687.802	0.0133350
687.880	0.0134717
687.958	0.0136159
688.036	0.0136916
688.114	0.0138672
688.193	0.0140515
688.271	0.0141859
688.349	0.0141885
688.427	0.0142593
688.505	0.0145023
688.583	0.0143626
688.661	0.0145289
688.739	0.0146294
688.818	0.0146981
688.896	0.0146938
688.974	0.0147144
689.052	0.0146557
689.130	0.0146758
689.208	0.0147482
689.286	0.0146210
689.364	0.0146656
689.443	0.0146513
689.521	0.0147295
689.599	0.0146353
689.677	0.0149032
689.755	0.0149181
689.833	0.0150803
689.911	0.0150620
689.989	0.0150968
690.068	0.0152224
690.146	0.0154557
690.224	0.0153967
690.302	0.0154038
690.380	0.0154911
690.458	0.0154729
690.536	0.0153516
690.614	0.0153085
690.693	0.0153308
690.771	0.0152311
690.849	0.0149644
690.927	0.0147711
691.005	0.0145364
691.083	0.0143327
691.161	0.0139442
691.239	0.0136826
691.318	0.0134705
691.396	0.0132296
691.474	0.0128751
691.552	0.0125587
691.630	0.0123798
691.708	0.0120088
691.786	0.0118076
691.864	0.0116235
691.943	0.0113393
692.021	0.0113031
692.099	0.0112167
692.177	0.0112760
692.255	0.0110940
692.333	0.0110912
692.411	0.0112887
692.489	0.0112334
692.568	0.0113089
692.646	0.0114948
692.724	0.0117617
692.802	0.0118971
692.880	0.0121142
692.958	0.0124924
693.036	0.0128195
693.114	0.0131085
693.193	0.0133831
693.271	0.0138494
693.349	0.0140297
693.427	0.0143652
693.505	0.0147221
693.583	0.0147388
693.661	0.0149893
693.739	0.0153038
693.818	0.0155382
693.896	0.0155533
693.974	0.0157848
694.052	0.0157602
694.130	0.0157485
694.208	0.0158018
694.286	0.0158005
694.364	0.0157918
694.443	0.0156188
694.521	0.0156417
694.599	0.0157034
694.677	0.0156416
694.755	0.0155494
694.833	0.0155222
694.911	0.0153516
694.989	0.0152774
695.068	0.0152186
695.146	0.0150439
695.224	0.0149814
695.302	0.0149754
695.380	0.0149727
695.458	0.0147581
695.536	0.0147926
695.614	0.0147826
695.693	0.0147028
695.771	0.0147440
695.849	0.0145978
695.927	0.0145776
696.005	0.0145387
696.083	0.0145708
696.161	0.0145020
696.239	0.0143829
696.318	0.0143948
696.396	0.0142751
696.474	0.0139874
696.552	0.0140568
696.630	0.0137940
696.708	0.0134279
696.786	0.0132510
696.864	0.0130478
696.943	0.0128194
697.021	0.0125182
697.099	0.0124245
697.177	0.0122272
697.255	0.0119218
697.333	0.0118278
697.411	0.0116752
697.489	0.0116418
697.568	0.0115811
697.646	0.0116501
697.724	0.0115887
697.802	0.0117426
697.880	0.0117500
697.958	0.0116972
698.036	0.0119976
698.114	0.0120258
698.193	0.0121241
698.271	0.0123788
698.349	0.0127777
698.427	0.0128886
698.505	0.0129976
698.583	0.0132399
698.661	0.0134743
698.739	0.0138342
698.818	0.0140179
698.896	0.0142474
698.974	0.0144436
699.052	0.0147852
699.130	0.0150063
699.208	0.0151874
699.286	0.0152876
699.364	0.0154996
699.443	0.0156662
699.521	0.0157813
699.599	0.0159076
699.677	0.0161044
699.755	0.0161581
699.833	0.0160185
699.911	0.0161700
699.989	0.0161684
700.068	0.0162234
700.146	0.0162749
700.224	0.0160580
700.302	0.0160696
700.380	0.0160716
700.458	0.0157527
700.536	0.0157689
700.614	0.0156579
700.693	0.0155527
700.771	0.0154040
700.849	0.0152704
700.927	0.0152787
701.005	0.0150909
701.083	0.0148631
701.161	0.0147961
701.239	0.0146582
701.318	0.0144913
701.396	0.0143803
701.474	0.0142051
701.552	0.0140057
701.630	0.0140188
701.708	0.0139252
701.786	0.0137601
701.864	0.0137637
701.943	0.0134509
702.021	0.0133564
702.099	0.0133635
702.177	0.0130739
702.255	0.0129140
702.333	0.0126960
702.411	0.0124831
702.489	0.0123743
702.568	0.0120911
702.646	0.0119460
702.724	0.0115974
702.802	0.0115124
702.880	0.0114615
702.958	0.0112983
703.036	0.0111310
703.114	0.0109175
703.193	0.0109199
703.271	0.0108879
703.349	0.0108945
703.427	0.0109839
703.505	0.0111790
703.583	0.0112795
703.661	0.0113905
703.739	0.0116836
703.818	0.0118871
703.896	0.0119427
703.974	0.0123333
704.052	0.0125896
704.130	0.0129092
704.208	0.0131413
704.286	0.0135503
704.364	0.0138581
704.443	0.0139040
704.521	0.0143037
704.599	0.0147713
704.677	0.0150475
704.755	0.0154859
704.833	0.0157640
704.911	0.0160038
704.989	0.0162502
705.068	0.0164284
705.146	0.0165583
705.224	0.0167012
705.302	0.0168542
705.380	0.0170235
705.458	0.0170680
705.536	0.0171281
705.614	0.0171669
705.693	0.0172459
705.771	0.0171667
705.849	0.0170651
705.927	0.0170855
706.005	0.0170095
706.083	0.0169173
706.161	0.0166791
706.239	0.0164549
706.318	0.0162885
706.396	0.0160701
706.474	0.0158151
706.552	0.0156596
706.630	0.0155831
706.708	0.0151675
706.786	0.0147684
706.864	0.0145861
706.943	0.0144089
707.021	0.0141291
707.099	0.0138877
707.177	0.0136247
707.255	0.0133026
707.333	0.0131300
707.411	0.0129351
707.489	0.0126612
707.568	0.0124767
707.646	0.0122647
707.724	0.0121632
707.802	0.0119952
707.880	0.0117215
707.958	0.0116092
708.036	0.0113129
708.114	0.0113081
708.193	0.0112271
708.271	0.0110564
708.349	0.0110548
708.427	0.0109260
708.505	0.0108820
708.583	0.0108379
708.661	0.0108470
708.739	0.0110030
708.818	0.0111005
708.896	0.0112972
708.974	0.0112502
709.052	0.0112962
709.130	0.0116679
709.208	0.0117539
709.286	0.0119823
709.364	0.0122475
709.443	0.0124836
709.521	0.0128062
709.599	0.0130328
709.677	0.0131998
709.755	0.0135722
709.833	0.0137766
709.911	0.0140884
709.989	0.0143055
710.068	0.0147225
710.146	0.0150128
710.224	0.0151435
710.302	0.0154802
710.380	0.0155568
710.458	0.0158290
710.536	0.0160670
710.614	0.0162040
710.693	0.0162903
710.771	0.0163490
710.849	0.0165218
710.927	0.0166242
711.005	0.0166483
711.083	0.0167444
711.161	0.0167609
711.239	0.0166634
711.318	0.0168226
711.396	0.0167812
711.474	0.0167475
711.552	0.0167987
711.630	0.0165646
711.708	0.0165474
711.786	0.0163452
711.864	0.0161947
711.943	0.0159875
712.021	0.0157227
712.099	0.0155903
712.177	0.0153519
712.255	0.0150983
712.333	0.0148199
712.411	0.0145742
712.489	0.0142896
712.568	0.0141013
712.646	0.0137920
712.724	0.0134584
712.802	0.0132992
712.880	0.0131357
712.958	0.0128883
713.036	0.0126299
713.114	0.0123457
713.193	0.0122286
713.271	0.0121761
713.349	0.0118566
713.427	0.0116180
713.505	0.0114877
713.583	0.0112286
713.661	0.0111797
713.739	0.0111311
713.818	0.0107514
713.896	0.0109093
713.974	0.0107015
714.052	0.0107354
714.130	0.0107746
714.208	0.0109419
714.286	0.0110125
714.364	0.0111694
714.443	0.0112589
714.521	0.0114347
714.599	0.0118388
714.677	0.0120736
714.755	0.0122117
714.833	0.0124868
714.911	0.0127081
714.989	0.0130883
715.068	0.0135027
715.146	0.0137674
715.224	0.0140212
715.302	0.0142873
715.380	0.0146131
715.458	0.0150736
715.536	0.0152034
715.614	0.0154594
715.693	0.0157412
715.771	0.0158610
715.849	0.0160080
715.927	0.0160725
716.005	0.0161711
716.083	0.0162624
716.161	0.0163864
716.239	0.0165007
716.318	0.0164224
716.396	0.0165366
716.474	0.0164041
716.552	0.0163126
716.630	0.0163096
716.708	0.0161972
716.786	0.0160503
716.864	0.0159412
716.943	0.0155204
717.021	0.0154803
717.099	0.0153732
717.177	0.0151830
717.255	0.0152699
717.333	0.0148849
717.411	0.0148071
717.489	0.0145869
717.568	0.0145347
717.646	0.0142862
717.724	0.0140359
717.802	0.0140794
717.880	0.0138970
717.958	0.0138841
718.036	0.0137627
718.114	0.0137514
718.193	0.0137035
718.271	0.0135815
718.349	0.0134360
718.427	0.0135477
718.505	0.0133607
718.583	0.0132906
718.661	0.0133676
718.739	0.0132236
718.818	0.0131213
718.896	0.0134278
718.974	0.0132600
719.052	0.0132942
719.130	0.0131211
719.208	0.0131400
719.286	0.0131796
719.364	0.0131874
719.443	0.0132239
719.521	0.0131247
719.599	0.0131666
719.677	0.0131245
719.755	0.0130653
719.833	0.0130616
719.911	0.0130805
719.989	0.0129788
720.068	0.0130304
720.146	0.0129779
720.224	0.0130170
720.302	0.0130114
720.380	0.0132212
720.458	0.0131119
720.536	0.0132195
720.614	0.0131892
720.693	0.0132648
720.771	0.0131989
720.849	0.0132822
720.927	0.0134225
721.005	0.0135312
721.083	0.0135010
721.161	0.0134444
721.239	0.0135439
721.318	0.0137781
721.396	0.0137070
721.474	0.0137557
721.552	0.0139385
721.630	0.0139948
721.708	0.0138474
721.786	0.0138758
721.864	0.0139213
721.943	0.0139973
722.021	0.0140824
722.099	0.0140578
722.177	0.0139886
722.255	0.0141425
722.333	0.0141337
722.411	0.0142792
722.489	0.0144457
722.568	0.0145134
722.646	0.0144327
722.724	0.0145928
722.802	0.0145772
722.880	0.0146509
722.958	0.0148676
723.036	0.0147881
723.114	0.0147971
723.193	0.0149670
723.271	0.0148034
723.349	0.0149561
723.427	0.0150671
723.505	0.0150776
723.583	0.0150049
723.661	0.0150033
723.739	0.0148883
723.818	0.0148381
723.896	0.0148463
723.974	0.0148341
724.052	0.0147662
724.130	0.0146498
724.208	0.0144685
724.286	0.0144912
724.364	0.0143765
724.443	0.0141984
724.521	0.0141183
724.599	0.0139508
724.677	0.0140018
724.755	0.0139698
724.833	0.0138770
724.911	0.0138141
724.989	0.0135996
725.068	0.0135433
725.146	0.0135223
725.224	0.0134376
725.302	0.0134808
725.380	0.0134140
725.458	0.0133517
725.536	0.0133373
725.614	0.0133537
725.693	0.0133344
725.771	0.0132910
725.849	0.0134209
725.927	0.0133001
726.005	0.0132620
726.083	0.0132438
726.161	0.0133514
726.239	0.0132779
726.318	0.0133306
726.396	0.0130511
726.474	0.0130045
726.552	0.0131893
726.630	0.0131657
726.708	0.0130997
726.786	0.0131252
726.864	0.0130917
726.943	0.0130924
727.021	0.0130933
727.099	0.0132415
727.177	0.0132918
727.255	0.0132901
727.333	0.0133502
727.411	0.0133603
727.489	0.0133150
727.568	0.0133155
727.646	0.0134184
727.724	0.0135986
727.802	0.0137317
727.880	0.0138432
727.958	0.0137877
728.036	0.0139670
728.114	0.0141515
728.193	0.0141412
728.271	0.0143670
728.349	0.0144161
728.427	0.0144745
728.505	0.0144944
728.583	0.0146027
728.661	0.0145966
728.739	0.0147869
728.818	0.0146590
728.896	0.0147359
728.974	0.0148005
729.052	0.0145165
729.130	0.0146384
729.208	0.0147443
729.286	0.0145405
729.364	0.0145183
729.443	0.0146555
729.521	0.0145870
729.599	0.0146720
729.677	0.0145555
729.755	0.0146169
729.833	0.0147913
729.911	0.0146156
729.989	0.0145779
730.068	0.0147076
730.146	0.0145191
730.224	0.0146878
730.302	0.0145934
730.380	0.0146872
730.458	0.0146978
730.536	0.0145821
730.614	0.0145928
730.693	0.0147195
730.771	0.0146266
730.849	0.0143910
730.927	0.0143416
731.005	0.0144392
731.083	0.0144282
731.161	0.0142232
731.239	0.0139275
731.318	0.0139261
731.396	0.0138600
731.474	0.0137893
731.552	0.0137063
731.630	0.0133846
731.708	0.0133819
731.786	0.0132933
731.864	0.0132298
731.943	0.0131857
732.021	0.0131135
732.099	0.0130131
732.177	0.0129763
732.255	0.0128013
732.333	0.0127964
732.411	0.0125706
732.489	0.0125606
732.568	0.0124827
732.646	0.0123693
732.724	0.0124420
732.802	0.0123469
732.880	0.0123886
732.958	0.0123805
733.036	0.0124020
733.114	0.0125272
733.193	0.0127005
733.271	0.0127505
733.349	0.0128049
733.427	0.0129858
733.505	0.0131494
733.583	0.0130276
733.661	0.0131766
733.739	0.0135127
733.818	0.0135530
733.896	0.0138421
733.974	0.0138923
734.052	0.0139810
734.130	0.0141901
734.208	0.0143752
734.286	0.0144553
734.364	0.0145511
734.443	0.0146320
734.521	0.0146461
734.599	0.0148910
734.677	0.0150416
734.755	0.0149696
734.833	0.0149786
734.911	0.0149577
734.989	0.0151383
735.068	0.0152148
735.146	0.0151386
735.224	0.0151716
735.302	0.0151124
735.380	0.0150422
735.458	0.0150237
735.536	0.0151608
735.614	0.0151373
735.693	0.0150511
735.771	0.0148567
735.849	0.0148236
735.927	0.0147953
736.005	0.0149567
736.083	0.0148637
736.161	0.0147399
736.239	0.0147684
736.318	0.0145795
736.396	0.0146700
736.474	0.0145843
736.552	0.0145128
736.630	0.0143805
736.708	0.0142224
736.786	0.0140777
736.864	0.0140870
736.943	0.0138645
737.021	0.0137684
737.099	0.0137440
737.177	0.0134167
737.255	0.0134899
737.333	0.0132712
737.411	0.0129419
737.489	0.0131450
737.568	0.0130193
737.646	0.0127964
737.724	0.0127009
737.802	0.0128059
737.880	0.0126237
737.958	0.0126907
738.036	0.0126635
738.114	0.0125802
738.193	0.0128256
738.271	0.0129122
738.349	0.0129166
738.427	0.0129096
738.505	0.0129564
738.583	0.0131085
738.661	0.0131305
738.739	0.0132946
738.818	0.0133684
738.896	0.0134422
738.974	0.0136477
739.052	0.0136816
739.130	0.0137959
739.208	0.0139448
739.286	0.0138654
739.364	0.0141993
739.443	0.0141590
739.521	0.0141938
739.599	0.0143517
739.677	0.0143995
739.755	0.0145654
739.833	0.0145828
739.911	0.0146548
739.989	0.0147210
740.068	0.0146722
740.146	0.0147132
740.224	0.0148976
740.302	0.0150697
740.380	0.0148658
740.458	0.0149825
740.536	0.0149796
740.614	0.0150973
740.693	0.0150175
740.771	0.0149671
740.849	0.0149169
740.927	0.0149119
741.005	0.0149197
741.083	0.0150459
741.161	0.0147986
741.239	0.0146784
741.318	0.0148737
741.396	0.0149218
741.474	0.0147064
741.552	0.0145415
741.630	0.0145030
741.708	0.0145038
741.786	0.0142998
741.864	0.0142850
741.943	0.0141743
742.021	0.0141306
742.099	0.0139193
742.177	0.0139694
742.255	0.0139562
742.333	0.0138249
742.411	0.0138245
742.489	0.0137596
742.568	0.0137539
742.646	0.0136709
742.724	0.0137312
742.802	0.0136053
742.880	0.0136782
742.958	0.0134360
743.036	0.0135530
743.114	0.0135861
743.193	0.0134969
743.271	0.0135511
743.349	0.0134611
743.427	0.0135009
743.505	0.0134688
743.583	0.0134280
743.661	0.0136269
743.739	0.0135223
743.818	0.0135196
743.896	0.0137703
743.974	0.0136383
744.052	0.0136005
744.130	0.0136395
744.208	0.0136100
744.286	0.0136184
744.364	0.0136900
744.443	0.0136800
744.521	0.0135656
744.599	0.0136675
744.677	0.0138481
744.755	0.0138867
744.833	0.0138503
744.911	0.0138535
744.989	0.0138604
745.068	0.0139984
745.146	0.0140667
745.224	0.0141800
745.302	0.0141456
745.380	0.0141466
745.458	0.0141058
745.536	0.0142739
745.614	0.0144109
745.693	0.0145322
745.771	0.0145240
745.849	0.0144856
745.927	0.0145070
746.005	0.0144120
746.083	0.0145422
746.161	0.0145729
746.239	0.0146448
746.318	0.0145958
746.396	0.0144314
746.474	0.0145154
746.552	0.0144994
746.630	0.0146800
746.708	0.0146252
746.786	0.0144765
746.864	0.0143419
746.943	0.0143599
747.021	0.0142819
747.099	0.0141990
747.177	0.0142319
747.255	0.0143163
747.333	0.0141113
747.411	0.0140476
747.489	0.0140769
747.568	0.0139722
747.646	0.0139093
747.724	0.0138805
747.802	0.0138055
747.880	0.0137105
747.958	0.0137806
748.036	0.0137985
748.114	0.0136487
748.193	0.0136906
748.271	0.0136249
748.349	0.0135537
748.427	0.0137524
748.505	0.0137348
748.583	0.0137493
748.661	0.0138107
748.739	0.0137520
748.818	0.0137814
748.896	0.0137479
748.974	0.0139385
749.052	0.0138481
749.130	0.0138136
749.208	0.0138728
749.286	0.0139159
749.364	0.0138446
749.443	0.0137852
749.521	0.0139457
749.599	0.0140196
749.677	0.0140170
749.755	0.0141339
749.833	0.0139400
749.911	0.0140065
749.989	0.0140448
750.068	0.0141404
750.146	0.0140473
750.224	0.0140859
750.302	0.0140249
750.380	0.0141815
750.458	0.0141579
750.536	0.0141390
750.614	0.0140495
750.693	0.0140896
750.771	0.0141131
750.849	0.0141146
750.927	0.0141407
751.005	0.0140931
751.083	0.0141541
751.161	0.0141479
751.239	0.0142350
751.318	0.0142128
751.396	0.0142043
751.474	0.0142340
751.552	0.0142899
751.630	0.0143762
751.708	0.0143792
751.786	0.0143269
751.864	0.0143755
751.943	0.0141626
752.021	0.0141361
752.099	0.0141788
752.177	0.0141754
752.255	0.0140763
752.333	0.0140777
752.411	0.0138149
752.489	0.0139539
752.568	0.0139580
752.646	0.0139267
752.724	0.0137621
752.802	0.0136842
752.880	0.0137376
752.958	0.0136984
753.036	0.0138251
753.114	0.0138042
753.193	0.0136049
753.271	0.0137368
753.349	0.0136771
753.427	0.0137817
753.505	0.0136948
753.583	0.0137685
753.661	0.0137378
753.739	0.0137138
753.818	0.0138637
753.896	0.0138175
753.974	0.0138712
754.052	0.0137128
754.130	0.0138114
754.208	0.0139091
754.286	0.0137926
754.364	0.0139394
754.443	0.0138924
754.521	0.0139083
754.599	0.0140672
754.677	0.0140228
754.755	0.0137289
754.833	0.0139144
754.911	0.0138811
754.989	0.0140507
755.068	0.0139760
755.146	0.0139310
755.224	0.0139787
755.302	0.0140866
755.380	0.0140160
755.458	0.0140033
755.536	0.0140411
755.614	0.0140243
755.693	0.0139904
755.771	0.0140584
755.849	0.0139717
755.927	0.0140338
756.005	0.0140705
756.083	0.0140533
756.161	0.0139916
756.239	0.0138867
756.318	0.0140459
756.396	0.0140285
756.474	0.0140157
756.552	0.0139828
756.630	0.0140959
756.708	0.0139565
756.786	0.0138802
756.864	0.0140491
756.943	0.0139123
757.021	0.0139671
757.099	0.0138680
757.177	0.0141017
757.255	0.0139102
757.333	0.0140704
757.411	0.0139705
757.489	0.0140597
757.568	0.0140629
757.646	0.0138969
757.724	0.0141641
757.802	0.0140845
757.880	0.0141570
757.958	0.0141547
758.036	0.0141402
758.114	0.0140916
758.193	0.0140437
758.271	0.0142471
758.349	0.0143358
758.427	0.0140823
758.505	0.0143084
758.583	0.0143128
758.661	0.0142121
758.739	0.0142009
758.818	0.0141725
758.896	0.0141329
758.974	0.0141879
759.052	0.0141469
759.130	0.0142612
759.208	0.0143610
759.286	0.0141283
759.364	0.0142125
759.443	0.0140049
759.521	0.0141447
759.599	0.0141175
759.677	0.0141642
759.755	0.0141795
759.833	0.0141733
759.911	0.0140382
759.989	0.0140345
760.068	0.0142160
760.146	0.0139656
760.224	0.0138656
760.302	0.0140340
760.380	0.0139981
760.458	0.0139757
760.536	0.0139323
760.614	0.0138568
760.693	0.0137802
760.771	0.0137839
760.849	0.0137810
760.927	0.0137166
761.005	0.0137631
761.083	0.0136193
761.161	0.0136899
761.239	0.0137162
761.318	0.0137579
761.396	0.0137279
761.474	0.0137352
761.552	0.0137709
761.630	0.0137757
761.708	0.0139316
761.786	0.0138607
761.864	0.0136396
761.943	0.0137204
762.021	0.0138918
762.099	0.0139171
762.177	0.0139133
762.255	0.0139316
762.333	0.0139499
762.411	0.0139697
762.489	0.0139978
762.568	0.0139817
762.646	0.0140568
762.724	0.0140211
762.802	0.0139509
762.880	0.0141074
762.958	0.0142990
763.036	0.0140665
763.114	0.0140264
763.193	0.0141711
763.271	0.0142052
763.349	0.0142146
763.427	0.0142925
763.505	0.0143681
763.583	0.0142084
763.661	0.0141914
763.739	0.0143671
763.818	0.0143469
763.896	0.0142882
763.974	0.0142632
764.052	0.0142384
764.130	0.0143880
764.208	0.0144499
764.286	0.0144596
764.364	0.0144536
764.443	0.0144649
764.521	0.0144217
764.599	0.0143906
764.677	0.0144061
764.755	0.0144986
764.833	0.0143922
764.911	0.0144814
764.989	0.0142984
765.068	0.0141827
765.146	0.0142819
765.224	0.0141537
765.302	0.0141727
765.380	0.0140905
765.458	0.0140673
765.536	0.0140691
765.614	0.0139228
765.693	0.0138097
765.771	0.0139738
765.849	0.0139156
765.927	0.0138188
766.005	0.0139362
766.083	0.0138208
766.161	0.0138012
766.239	0.0137418
766.318	0.0138548
766.396	0.0138197
766.474	0.0139557
766.552	0.0137371
766.630	0.0139237
766.708	0.0139226
766.786	0.0139379
766.864	0.0138477
766.943	0.0139081
767.021	0.0138849
767.099	0.0139984
767.177	0.0141452
767.255	0.0140118
767.333	0.0141045
767.411	0.0140357
767.489	0.0142040
767.568	0.0141055
767.646	0.0140475
767.724	0.0140942
767.802	0.0141134
767.880	0.0141224
767.958	0.0139757
768.036	0.0140417
768.114	0.0139649
768.193	0.0141169
768.271	0.0141364
768.349	0.0140801
768.427	0.0141332
768.505	0.0143101
768.583	0.0141715
768.661	0.0141287
768.739	0.0143430
768.818	0.0142734
768.896	0.0142542
768.974	0.0143723
769.052	0.0142635
769.130	0.0143466
769.208	0.0141989
769.286	0.0141273
769.364	0.0142625
769.443	0.0143340
769.521	0.0141624
769.599	0.0140611
769.677	0.0140284
769.755	0.0141058
769.833	0.0139217
769.911	0.0138363
769.989	0.0138616
770.068	0.0139070
770.146	0.0138438
770.224	0.0137357
770.302	0.0137518
770.380	0.0136327
770.458	0.0134588
770.536	0.0137922
770.614	0.0135595
770.693	0.0135486
770.771	0.0136222
770.849	0.0137357
770.927	0.0138771
771.005	0.0138421
771.083	0.0138303
771.161	0.0138793
771.239	0.0137970
771.318	0.0140179
771.396	0.0139852
771.474	0.0141083
771.552	0.0142905
771.630	0.0142783
771.708	0.0143491
771.786	0.0143523
771.864	0.0143550
771.943	0.0144251
772.021	0.0145204
772.099	0.0145779
772.177	0.0146509
772.255	0.0146165
772.333	0.0146197
772.411	0.0145544
772.489	0.0144948
772.568	0.0144801
772.646	0.0145998
772.724	0.0145726
772.802	0.0145745
772.880	0.0145769
772.958	0.0144907
773.036	0.0143391
773.114	0.0144171
773.193	0.0142008
773.271	0.0143450
773.349	0.0142078
773.427	0.0143040
773.505	0.0143193
773.583	0.0141504
773.661	0.0142132
773.739	0.0141633
773.818	0.0139841
773.896	0.0140574
773.974	0.0139705
774.052	0.0139426
774.130	0.0138768
774.208	0.0138062
774.286	0.0137357
774.364	0.0137331
774.443	0.0136307
774.521	0.0136768
774.599	0.0136963
774.677	0.0136583
774.755	0.0136089
774.833	0.0136341
774.911	0.0135190
774.989	0.0137534
775.068	0.0136493
775.146	0.0136615
775.224	0.0136647
775.302	0.0137424
775.380	0.0138275
775.458	0.0139599
775.536	0.0138181
775.614	0.0137921
775.693	0.0138363
775.771	0.0138353
775.849	0.0139796
775.927	0.0139791
776.005	0.0140020
776.083	0.0138276
776.161	0.0139140
776.239	0.0138483
776.318	0.0139720
776.396	0.0141747
776.474	0.0139996
776.552	0.0140125
776.630	0.0140881
776.708	0.0141945
776.786	0.0142960
776.864	0.0142485
776.943	0.0143302
777.021	0.0143721
777.099	0.0141562
777.177	0.0143138
777.255	0.0144117
777.333	0.0143089
777.411	0.0141114
777.489	0.0143810
777.568	0.0143513
777.646	0.0142792
777.724	0.0143130
777.802	0.0142406
777.880	0.0143922
777.958	0.0141708
778.036	0.0142549
778.114	0.0142497
778.193	0.0141795
778.271	0.0143693
778.349	0.0141281
778.427	0.0140151
778.505	0.0141251
778.583	0.0141088
778.661	0.0139356
778.739	0.0137051
778.818	0.0137798
778.896	0.0138294
778.974	0.0137282
779.052	0.0137443
779.130	0.0137000
779.208	0.0137247
779.286	0.0135664
779.364	0.0136928
779.443	0.0135262
779.521	0.0136127
779.599	0.0135168
779.677	0.0134870
779.755	0.0137383
779.833	0.0136079
779.911	0.0135606
779.989	0.0136826
780.068	0.0137310
780.146	0.0136872
780.224	0.0135879
780.302	0.0138415
780.380	0.0139164
780.458	0.0139206
780.536	0.0140300
780.614	0.0139915
780.693	0.0140031
780.771	0.0140157
780.849	0.0140847
780.927	0.0142360
781.005	0.0143318
781.083	0.0143076
781.161	0.0141863
781.239	0.0144059
781.318	0.0143497
781.396	0.0143708
781.474	0.0143658
781.552	0.0143124
781.630	0.0142570
781.708	0.0141698
781.786	0.0142935
781.864	0.0141573
781.943	0.0141465
782.021	0.0141919
782.099	0.0140913
782.177	0.0140088
782.255	0.0140478
782.333	0.0140131
782.411	0.0140444
782.489	0.0138723
782.568	0.0139569
782.646	0.0138425
782.724	0.0138636
782.802	0.0137104
782.880	0.0136742
782.958	0.0135912
783.036	0.0136036
783.114	0.0135722
783.193	0.0133411
783.271	0.0133878
783.349	0.0134243
783.427	0.0132759
783.505	0.0133645
783.583	0.0131493
783.661	0.0132736
783.739	0.0134040
783.818	0.0134467
783.896	0.0133509
783.974	0.0135106
784.052	0.0134633
784.130	0.0135076
784.208	0.0135822
784.286	0.0137529
784.364	0.0137958
784.443	0.0137779
784.521	0.0138303
784.599	0.0139508
784.677	0.0140255
784.755	0.0140613
784.833	0.0140792
784.911	0.0141404
784.989	0.0141406
785.068	0.0142913
785.146	0.0144426
785.224	0.0143768
785.302	0.0143280
785.380	0.0144292
785.458	0.0146318
785.536	0.0146632
785.614	0.0145805
785.693	0.0144205
785.771	0.0144312
785.849	0.0145534
785.927	0.0146632
786.005	0.0146671
786.083	0.0145285
786.161	0.0146617
786.239	0.0145133
786.318	0.0145504
786.396	0.0145208
786.474	0.0145065
786.552	0.0144559
786.630	0.0143828
786.708	0.0145430
786.786	0.0144019
786.864	0.0142053
786.943	0.0142805
787.021	0.0143556
787.099	0.0142491
787.177	0.0140707
787.255	0.0139568
787.333	0.0139319
787.411	0.0140159
787.489	0.0141078
787.568	0.0138245
787.646	0.0138485
787.724	0.0137606
787.802	0.0135824
787.880	0.0135551
787.958	0.0135718
788.036	0.0134865
788.114	0.0133573
788.193	0.0135286
788.271	0.0134694
788.349	0.0134236
788.427	0.0133717
788.505	0.0133929
788.583	0.0134772
788.661	0.0134186
788.739	0.0134615
788.818	0.0135008
788.896	0.0135600
788.974	0.0135175
789.052	0.0136035
789.130	0.0135533
789.208	0.0138058
789.286	0.0139113
789.364	0.0138688
789.443	0.0138649
789.521	0.0140813
789.599	0.0140527
789.677	0.0142516
789.755	0.0142777
789.833	0.0143411
789.911	0.0145616
789.989	0.0146979
790.068	0.0146796
790.146	0.0146371
790.224	0.0146480
790.302	0.0148968
790.380	0.0146407
790.458	0.0147279
790.536	0.0147099
790.614	0.0149029
790.693	0.0148233
790.771	0.0146706
790.849	0.0147305
790.927	0.0145689
791.005	0.0145450
791.083	0.0145889
791.161	0.0146075
791.239	0.0144590
791.318	0.0143123
791.396	0.0143646
791.474	0.0144025
791.552	0.0144066
791.630	0.0142944
791.708	0.0142088
791.786	0.0142530
791.864	0.0141180
791.943	0.0141062
792.021	0.0140847
792.099	0.0141207
792.177	0.0140965
792.255	0.0139020
792.333	0.0139883
792.411	0.0140340
792.489	0.0139810
792.568	0.0139318
792.646	0.0140025
792.724	0.0138351
792.802	0.0138176
792.880	0.0139178
792.958	0.0137871
793.036	0.0137511
793.114	0.0138449
793.193	0.0136030
793.271	0.0135715
793.349	0.0137365
793.427	0.0136081
793.505	0.0135379
793.583	0.0133791
793.661	0.0135326
793.739	0.0135921
793.818	0.0134740
793.896	0.0134676
793.974	0.0134052
794.052	0.0134758
794.130	0.0134037
794.208	0.0133958
794.286	0.0134890
794.364	0.0134671
794.443	0.0136388
794.521	0.0134702
794.599	0.0135805
794.677	0.0136473
794.755	0.0137929
794.833	0.0139378
794.911	0.0138541
794.989	0.0137302
795.068	0.0140070
795.146	0.0140076
795.224	0.0139641
795.302	0.0141100
795.380	0.0141798
795.458	0.0141960
795.536	0.0141399
795.614	0.0141405
795.693	0.0141951
795.771	0.0141280
795.849	0.0141679
795.927	0.0142656
796.005	0.0142188
796.083	0.0142360
796.161	0.0142204
796.239	0.0142578
796.318	0.0142348
796.396	0.0141710
796.474	0.0140864
796.552	0.0141327
796.630	0.0140556
796.708	0.0141293
796.786	0.0140478
796.864	0.0141029
796.943	0.0141538
797.021	0.0141239
797.099	0.0142486
797.177	0.0142327
797.255	0.0142171
797.333	0.0141385
797.411	0.0141873
797.489	0.0142632
797.568	0.0143569
797.646	0.0142039
797.724	0.0141743
797.802	0.0143398
797.880	0.0140629
797.958	0.0141557
798.036	0.0140517
798.114	0.0141944
798.193	0.0141063
798.271	0.0140147
798.349	0.0139787
798.427	0.0141522
798.505	0.0138815
798.583	0.0138104
798.661	0.0137306
798.739	0.0138259
798.818	0.0137327
798.896	0.0136789
798.974	0.0137170
799.052	0.0137045
799.130	0.0135892
799.208	0.0135648
799.286	0.0135405
799.364	0.0136369
799.443	0.0135995
799.521	0.0135097
799.599	0.0134207
799.677	0.0135632
799.755	0.0134702
799.833	0.0135168
799.911	0.0135365
799.989	0.0134621
800.068	0.0134529
800.146	0.0134711
800.224	0.0135366
800.302	0.0135724
800.380	0.0136814
800.458	0.0135789
800.536	0.0136137
800.614	0.0137057
800.693	0.0136908
800.771	0.0138844
800.849	0.0138000
800.927	0.0140716
801.005	0.0140842
801.083	0.0141882
801.161	0.0143330
801.239	0.0142657
801.318	0.0144056
801.396	0.0142848
801.474	0.0144560
801.552	0.0144830
801.630	0.0144614
801.708	0.0143401
801.786	0.0145439
801.864	0.0146255
801.943	0.0146245
802.021	0.0145869
802.099	0.0147923
802.177	0.0146730
802.255	0.0146780
802.333	0.0148549
802.411	0.0148569
802.489	0.0147716
802.568	0.0146394
802.646	0.0147257
802.724	0.0147286
802.802	0.0146970
802.880	0.0147259
802.958	0.0146668
803.036	0.0145209
803.114	0.0145222
803.193	0.0144753
803.271	0.0143365
803.349	0.0144802
803.427	0.0143983
803.505	0.0142110
803.583	0.0142523
803.661	0.0141959
803.739	0.0141996
803.818	0.0141851
803.896	0.0141050
803.974	0.0140364
804.052	0.0138638
804.130	0.0138345
804.208	0.0138406
804.286	0.0138655
804.364	0.0136758
804.443	0.0133699
804.521	0.0135679
804.599	0.0135381
804.677	0.0133372
804.755	0.0132628
804.833	0.0131450
804.911	0.0131504
804.989	0.0133063
805.068	0.0130559
805.146	0.0130119
805.224	0.0130392
805.302	0.0131284
805.380	0.0132199
805.458	0.0131019
805.536	0.0131074
805.614	0.0133137
805.693	0.0133244
805.771	0.0132587
805.849	0.0133485
805.927	0.0134789
806.005	0.0134307
806.083	0.0135518
806.161	0.0137812
806.239	0.0137862
806.318	0.0138866
806.396	0.0139133
806.474	0.0139440
806.552	0.0138525
806.630	0.0141193
806.708	0.0142603
806.786	0.0143137
806.864	0.0144075
806.943	0.0143600
807.021	0.0143994
807.099	0.0143848
807.177	0.0145481
807.255	0.0144903
807.333	0.0144865
807.411	0.0146481
807.489	0.0146618
807.568	0.0146296
807.646	0.0148271
807.724	0.0147609
807.802	0.0146413
807.880	0.0147452
807.958	0.0147608
808.036	0.0145509
808.114	0.0146974
808.193	0.0148369
808.271	0.0146782
808.349	0.0145199
808.427	0.0145514
808.505	0.0144955
808.583	0.0143713
808.661	0.0142852
808.739	0.0142179
808.818	0.0141398
808.896	0.0139089
808.974	0.0142107
809.052	0.0139249
809.130	0.0137671
809.208	0.0137536
809.286	0.0136476
809.364	0.0136012
809.443	0.0135200
809.521	0.0133861
809.599	0.0133685
809.677	0.0133595
809.755	0.0133891
809.833	0.0132157
809.911	0.0133290
809.989	0.0131927
810.068	0.0132124
810.146	0.0131481
810.224	0.0131702
810.302	0.0131519
810.380	0.0131603
810.458	0.0132745
810.536	0.0133166
810.614	0.0131525
810.693	0.0131740
810.771	0.0134535
810.849	0.0133874
810.927	0.0134612
811.005	0.0135844
811.083	0.0135764
811.161	0.0137346
811.239	0.0138151
811.318	0.0138269
811.396	0.0138344
811.474	0.0139373
811.552	0.0140484
811.630	0.0140044
811.708	0.0140015
811.786	0.0141542
811.864	0.0142028
811.943	0.0141728
812.021	0.0142038
812.099	0.0142168
812.177	0.0141518
812.255	0.0141007
812.333	0.0142736
812.411	0.0143394
812.489	0.0142691
812.568	0.0143391
812.646	0.0143345
812.724	0.0143441
812.802	0.0143209
812.880	0.0143087
812.958	0.0144408
813.036	0.0143037
813.114	0.0144289
813.193	0.0143304
813.271	0.0144062
813.349	0.0144106
813.427	0.0144585
813.505	0.0143269
813.583	0.0145801
813.661	0.0143993
813.739	0.0143730
813.818	0.0143990
813.896	0.0144388
813.974	0.0143050
814.052	0.0143029
814.130	0.0141622
814.208	0.0141397
814.286	0.0140430
814.364	0.0139689
814.443	0.0140414
814.521	0.0138242
814.599	0.0137316
814.677	0.0137217
814.755	0.0137225
814.833	0.0135117
814.911	0.0133002
814.989	0.0135352
815.068	0.0133787
815.146	0.0133517
815.224	0.0134574
815.302	0.0134254
815.380	0.0134616
815.458	0.0133796
815.536	0.0134226
815.614	0.0135403
815.693	0.0136121
815.771	0.0135102
815.849	0.0136324
815.927	0.0135817
816.005	0.0137397
816.083	0.0136228
816.161	0.0135779
816.239	0.0137043
816.318	0.0137663
816.396	0.0137321
816.474	0.0138062
816.552	0.0138408
816.630	0.0138183
816.708	0.0138764
816.786	0.0138715
816.864	0.0138877
816.943	0.0139422
817.021	0.0139747
817.099	0.0139272
817.177	0.0140167
817.255	0.0140058
817.333	0.0139970
817.411	0.0140839
817.489	0.0141850
817.568	0.0143176
817.646	0.0141842
817.724	0.0142390
817.802	0.0143701
817.880	0.0142091
817.958	0.0142757
818.036	0.0144847
818.114	0.0142852
818.193	0.0143040
818.271	0.0143314
818.349	0.0142810
818.427	0.0144152
818.505	0.0142012
818.583	0.0143156
818.661	0.0143126
818.739	0.0142567
818.818	0.0141885
818.896	0.0143403
818.974	0.0142934
819.052	0.0141587
819.130	0.0141304
819.208	0.0140552
819.286	0.0140221
819.364	0.0139620
819.443	0.0139169
819.521	0.0138322
819.599	0.0137129
819.677	0.0136774
819.755	0.0138996
819.833	0.0138139
819.911	0.0138140
819.989	0.0136880
820.068	0.0138522
820.146	0.0138923
820.224	0.0138433
820.302	0.0139120
820.380	0.0138927
820.458	0.0139975
820.536	0.0140314
820.614	0.0141232
820.693	0.0141541
820.771	0.0142017
820.849	0.0141109
820.927	0.0142950
821.005	0.0141473
821.083	0.0141670
821.161	0.0141543
821.239	0.0142947
821.318	0.0143280
821.396	0.0141773
821.474	0.0141462
821.552	0.0141165
821.630	0.0140195
821.708	0.0139970
821.786	0.0141062
821.864	0.0140507
821.943	0.0138275
822.021	0.0137595
822.099	0.0137364
822.177	0.0138516
822.255	0.0137591
822.333	0.0135013
822.411	0.0136798
822.489	0.0135730
822.568	0.0135220
822.646	0.0135033
822.724	0.0134473
822.802	0.0135269
822.880	0.0135138
822.958	0.0133790
823.036	0.0133546
823.114	0.0134450
823.193	0.0133451
823.271	0.0133513
823.349	0.0134169
823.427	0.0135540
823.505	0.0135396
823.583	0.0136629
823.661	0.0137421
823.739	0.0137624
823.818	0.0140591
823.896	0.0139896
823.974	0.0139635
824.052	0.0142181
824.130	0.0142623
824.208	0.0141299
824.286	0.0142844
824.364	0.0142171
824.443	0.0142422
824.521	0.0141418
824.599	0.0141788
824.677	0.0143093
824.755	0.0142076
824.833	0.0140301
824.911	0.0140792
824.989	0.0140163
825.068	0.0140073
825.146	0.0139865
825.224	0.0138789
825.302	0.0139493
825.380	0.0137473
825.458	0.0138875
825.536	0.0137840
825.614	0.0137713
825.693	0.0137602
825.771	0.0139690
825.849	0.0137186
825.927	0.0137899
826.005	0.0140318
826.083	0.0138258
826.161	0.0139356
826.239	0.0138460
826.318	0.0138433
826.396	0.0139616
826.474	0.0138734
826.552	0.0139708
826.630	0.0139362
826.708	0.0140816
826.786	0.0140685
826.864	0.0139521
826.943	0.0138847
827.021	0.0141081
827.099	0.0140955
827.177	0.0140866
827.255	0.0141639
827.333	0.0141695
827.411	0.0141831
827.489	0.0142484
827.568	0.0140357
827.646	0.0140481
827.724	0.0141024
827.802	0.0140690
827.880	0.0140781
827.958	0.0139840
828.036	0.0140764
828.114	0.0141376
828.193	0.0141151
828.271	0.0142091
828.349	0.0140490
828.427	0.0141548
828.505	0.0139964
828.583	0.0140162
828.661	0.0141138
828.739	0.0141983
828.818	0.0140202
828.896	0.0138760
828.974	0.0139664
829.052	0.0139276
829.130	0.0138326
829.208	0.0138042
829.286	0.0138763
829.364	0.0137838
829.443	0.0137176
829.521	0.0137170
829.599	0.0136803
829.677	0.0136794
829.755	0.0133826
829.833	0.0134516
829.911	0.0134218
829.989	0.0134342
830.068	0.0135899
830.146	0.0134817
830.224	0.0134562
830.302	0.0135286
830.380	0.0135262
830.458	0.0135831
830.536	0.0135726
830.614	0.0138522
830.693	0.0138556
830.771	0.0138964
830.849	0.0140051
830.927	0.0141025
831.005	0.0140672
831.083	0.0141282
831.161	0.0143087
831.239	0.0143583
831.318	0.0145148
831.396	0.0145042
831.474	0.0144963
831.552	0.0144713
831.630	0.0145711
831.708	0.0145454
831.786	0.0146355
831.864	0.0146207
831.943	0.0146220
832.021	0.0147116
832.099	0.0147279
832.177	0.0144528
832.255	0.0147127
832.333	0.0145049
832.411	0.0144572
832.489	0.0142084
832.568	0.0142815
832.646	0.0143459
832.724	0.0141875
832.802	0.0142014
832.880	0.0140995
832.958	0.0141006
833.036	0.0138943
833.114	0.0138719
833.193	0.0137954
833.271	0.0137180
833.349	0.0136671
833.427	0.0136958
833.505	0.0136032
833.583	0.0136684
833.661	0.0137623
833.739	0.0136879
833.818	0.0137505
833.896	0.0136901
833.974	0.0136819
834.052	0.0137123
834.130	0.0138183
834.208	0.0138068
834.286	0.0138005
834.364	0.0138162
834.443	0.0140065
834.521	0.0142160
834.599	0.0140614
834.677	0.0140396
834.755	0.0140787
834.833	0.0141682
834.911	0.0143369
834.989	0.0142298
835.068	0.0142037
835.146	0.0141268
835.224	0.0142529
835.302	0.0141882
835.380	0.0140713
835.458	0.0139560
835.536	0.0139925
835.614	0.0138434
835.693	0.0138995
835.771	0.0138387
835.849	0.0136915
835.927	0.0135541
836.005	0.0136179
836.083	0.0137000
836.161	0.0136833
836.239	0.0135028
836.318	0.0134869
836.396	0.0136902
836.474	0.0135663
836.552	0.0135265
836.630	0.0136763
836.708	0.0138470
836.786	0.0138951
836.864	0.0138332
836.943	0.0138490
837.021	0.0138467
837.099	0.0140047
837.177	0.0141082
837.255	0.0141341
837.333	0.0141751
837.411	0.0142962
837.489	0.0143629
837.568	0.0144894
837.646	0.0145345
837.724	0.0143499
837.802	0.0144659
837.880	0.0142513
837.958	0.0142310
838.036	0.0146168
838.114	0.0144403
838.193	0.0144021
838.271	0.0145152
838.349	0.0145537
838.427	0.0142593
838.505	0.0141795
838.583	0.0142224
838.661	0.0141387
838.739	0.0141993
838.818	0.0141461
838.896	0.0140352
838.974	0.0141030
839.052	0.0140893
839.130	0.0139549
839.208	0.0139664
839.286	0.0139893
839.364	0.0139495
839.443	0.0140326
839.521	0.0138898
839.599	0.0138847
839.677	0.0140365
839.755	0.0140639
839.833	0.0139877
839.911	0.0139420
839.989	0.0140611
840.068	0.0139928
840.146	0.0139217
840.224	0.0138727
840.302	0.0138470
840.380	0.0138011
840.458	0.0136459
840.536	0.0138162
840.614	0.0138298
840.693	0.0137883
840.771	0.0137708
840.849	0.0136537
840.927	0.0137276
841.005	0.0136671
841.083	0.0136764
841.161	0.0136426
841.239	0.0137236
841.318	0.0138943
841.396	0.0138194
841.474	0.0137862
841.552	0.0138716
841.630	0.0140389
841.708	0.0139491
841.786	0.0140141
841.864	0.0139835
841.943	0.0141567
842.021	0.0139826
842.099	0.0141699
842.177	0.0141096
842.255	0.0141941
842.333	0.0142621
842.411	0.0142913
842.489	0.0141928
842.568	0.0141106
842.646	0.0141582
842.724	0.0142422
842.802	0.0141965
842.880	0.0142640
842.958	0.0142433
843.036	0.0141659
843.114	0.0142080
843.193	0.0142936
843.271	0.0141409
843.349	0.0142089
843.427	0.0140833
843.505	0.0142233
843.583	0.0141648
843.661	0.0142039
843.739	0.0141139
843.818	0.0142620
843.896	0.0141504
843.974	0.0141764
844.052	0.0143019
844.130	0.0142648
844.208	0.0142674
844.286	0.0145155
844.364	0.0143996
844.443	0.0143445
844.521	0.0144539
844.599	0.0145563
844.677	0.0144309
844.755	0.0144220
844.833	0.0143224
844.911	0.0143701
844.989	0.0144365
845.068	0.0143886
845.146	0.0143396
845.224	0.0142915
845.302	0.0140512
845.380	0.0141187
845.458	0.0141446
845.536	0.0140539
845.614	0.0140313
845.693	0.0138979
845.771	0.0137154
845.849	0.0137630
845.927	0.0135949
846.005	0.0136877
846.083	0.0136831
846.161	0.0137316
846.239	0.0135106
846.318	0.0135778
846.396	0.0136211
846.474	0.0134820
846.552	0.0136131
846.630	0.0136868
846.708	0.0136694
846.786	0.0136475
846.864	0.0136062
846.943	0.0136857
847.021	0.0136983
847.099	0.0137064
847.177	0.0136607
847.255	0.0137319
847.333	0.0140112
847.411	0.0139200
847.489	0.0139249
847.568	0.0139896
847.646	0.0139655
847.724	0.0139108
847.802	0.0140863
847.880	0.0140736
847.958	0.0140716
848.036	0.0141934
848.114	0.0141837
848.193	0.0142219
848.271	0.0142368
848.349	0.0142766
848.427	0.0140230
848.505	0.0143085
848.583	0.0141513
848.661	0.0143965
848.739	0.0142316
848.818	0.0141626
848.896	0.0142757
848.974	0.0142255
849.052	0.0141357
849.130	0.0140997
849.208	0.0142519
849.286	0.0144054
849.364	0.0140810
849.443	0.0140104
849.521	0.0142117
849.599	0.0142590
849.677	0.0142760
849.755	0.0140533
849.833	0.0139140
849.911	0.0139416
849.989	0.0140042
850.068	0.0139771
850.146	0.0139997
850.224	0.0139973
850.302	0.0138944
850.380	0.0137505
850.458	0.0137650
850.536	0.0138020
850.614	0.0138174
850.693	0.0138941
850.771	0.0137058
850.849	0.0137917
850.927	0.0136221
851.005	0.0138920
851.083	0.0138097
851.161	0.0137749
851.239	0.0138060
851.318	0.0139521
851.396	0.0139076
851.474	0.0138274
851.552	0.0139529
851.630	0.0139746
851.708	0.0139219
851.786	0.0139870
851.864	0.0139100
851.943	0.0140529
852.021	0.0139723
852.099	0.0140453
852.177	0.0140254
852.255	0.0137924
852.333	0.0140745
852.411	0.0140500
852.489	0.0140061
852.568	0.0139432
852.646	0.0138852
852.724	0.0137841
852.802	0.0139194
852.880	0.0139219
852.958	0.0139391
853.036	0.0139865
853.114	0.0139174
853.193	0.0138498
853.271	0.0139162
853.349	0.0139335
853.427	0.0139249
853.505	0.0139043
853.583	0.0137510
853.661	0.0138637
853.739	0.0139046
853.818	0.0138647
853.896	0.0139172
853.974	0.0140083
854.052	0.0139111
854.130	0.0138586
854.208	0.0140074
854.286	0.0139912
854.364	0.0140425
854.443	0.0139374
854.521	0.0140014
854.599	0.0140349
854.677	0.0139128
854.755	0.0139319
854.833	0.0140085
854.911	0.0142359
854.989	0.0142975
855.068	0.0140288
855.146	0.0142690
855.224	0.0141467
855.302	0.0140682
855.380	0.0142117
855.458	0.0141827
855.536	0.0143266
855.614	0.0142941
855.693	0.0141841
855.771	0.0140972
855.849	0.0140565
855.927	0.0140683
856.005	0.0140681
856.083	0.0140562
856.161	0.0139394
856.239	0.0140577
856.318	0.0139958
856.396	0.0138319
856.474	0.0137827
856.552	0.0139449
856.630	0.0138781
856.708	0.0140022
856.786	0.0138837
856.864	0.0137061
856.943	0.0138459
857.021	0.0138906
857.099	0.0139087
857.177	0.0138992
857.255	0.0139182
857.333	0.0137627
857.411	0.0137981
857.489	0.0138277
857.568	0.0137630
857.646	0.0137650
857.724	0.0138598
857.802	0.0138407
857.880	0.0138416
857.958	0.0138237
858.036	0.0139258
858.114	0.0138850
858.193	0.0137127
858.271	0.0138302
858.349	0.0137992
858.427	0.0137891
858.505	0.0137035
858.583	0.0138520
858.661	0.0137383
858.739	0.0138158
858.818	0.0138192
858.896	0.0136632
858.974	0.0136971
859.052	0.0136800
859.130	0.0136924
859.208	0.0137896
859.286	0.0136617
859.364	0.0138282
859.443	0.0136939
859.521	0.0138595
859.599	0.0137222
859.677	0.0138316
859.755	0.0140009
859.833	0.0138475
859.911	0.0140251
859.989	0.0141840
860.068	0.0142899
860.146	0.0144227
860.224	0.0142420
860.302	0.0143698
860.380	0.0144582
860.458	0.0144990
860.536	0.0142651
860.614	0.0142883
860.693	0.0144038
860.771	0.0143443
860.849	0.0143769
860.927	0.0142953
861.005	0.0142480
861.083	0.0143240
861.161	0.0141553
861.239	0.0142371
861.318	0.0142373
861.396	0.0141754
861.474	0.0141940
861.552	0.0141357
861.630	0.0140842
861.708	0.0141342
861.786	0.0141204
861.864	0.0141606
861.943	0.0142787
862.021	0.0142091
862.099	0.0142078
862.177	0.0141050
862.255	0.0141068
862.333	0.0141788
862.411	0.0140983
862.489	0.0141204
862.568	0.0141987
862.646	0.0142673
862.724	0.0140556
862.802	0.0140955
862.880	0.0141087
862.958	0.0139732
863.036	0.0141534
863.114	0.0139576
863.193	0.0139935
863.271	0.0140092
863.349	0.0140321
863.427	0.0140550
863.505	0.0139300
863.583	0.0139542
863.661	0.0139053
863.739	0.0139443
863.818	0.0138515
863.896	0.0137920
863.974	0.0139124
864.052	0.0138661
864.130	0.0138081
864.208	0.0140205
864.286	0.0139302
864.364	0.0137620
864.443	0.0137873
864.521	0.0137307
864.599	0.0136234
864.677	0.0137762
864.755	0.0137444
864.833	0.0138502
864.911	0.0138390
864.989	0.0138661
865.068	0.0139179
865.146	0.0139085
865.224	0.0139290
865.302	0.0139325
865.380	0.0139571
865.458	0.0141017
865.536	0.0142596
865.614	0.0141472
865.693	0.0141157
865.771	0.0142744
865.849	0.0142679
865.927	0.0144232
866.005	0.0143469
866.083	0.0143385
866.161	0.0142388
866.239	0.0143814
866.318	0.0143597
866.396	0.0144244
866.474	0.0143504
866.552	0.0143547
866.630	0.0143182
866.708	0.0144354
866.786	0.0144507
866.864	0.0143593
866.943	0.0144372
867.021	0.0141632
867.099	0.0142031
867.177	0.0142568
867.255	0.0143951
867.333	0.0141146
867.411	0.0140313
867.489	0.0139393
867.568	0.0140378
867.646	0.0140179
867.724	0.0140202
867.802	0.0139352
867.880	0.0138838
867.958	0.0140300
868.036	0.0139886
868.114	0.0138452
868.193	0.0140191
868.271	0.0138567
868.349	0.0138627
868.427	0.0138857
868.505	0.0137836
868.583	0.0138544
868.661	0.0140170
868.739	0.0139598
868.818	0.0139169
868.896	0.0137898
868.974	0.0138000
869.052	0.0138390
869.130	0.0139767
869.208	0.0138136
869.286	0.0137833
869.364	0.0139761
869.443	0.0139349
869.521	0.0139222
869.599	0.0139004
869.677	0.0138724
869.755	0.0138905
869.833	0.0137505
869.911	0.0137688
869.989	0.0138612
870.068	0.0139533
870.146	0.0139701
870.224	0.0140511
870.302	0.0139339
870.380	0.0139206
870.458	0.0140604
870.536	0.0139843
870.614	0.0140255
870.693	0.0140527
870.771	0.0138329
870.849	0.0138312
870.927	0.0139792
871.005	0.0139069
871.083	0.0140511
871.161	0.0138704
871.239	0.0139415
871.318	0.0138988
871.396	0.0139904
871.474	0.0140509
871.552	0.0138972
871.630	0.0139146
871.708	0.0139554
871.786	0.0139260
871.864	0.0140721
871.943	0.0140691
872.021	0.0141203
872.099	0.0140734
872.177	0.0140561
872.255	0.0142059
872.333	0.0142316
872.411	0.0141520
872.489	0.0140878
872.568	0.0141814
872.646	0.0142119
872.724	0.0142956
872.802	0.0142152
872.880	0.0142691
872.958	0.0142117
873.036	0.0142857
873.114	0.0143301
873.193	0.0143582
873.271	0.0144556
873.349	0.0143909
873.427	0.0144180
873.505	0.0144835
873.583	0.0143069
873.661	0.0145379
873.739	0.0143101
873.818	0.0141369
873.896	0.0143187
873.974	0.0142516
874.052	0.0142448
874.130	0.0141208
874.208	0.0140807
874.286	0.0140707
874.364	0.0140158
874.443	0.0138959
874.521	0.0139508
874.599	0.0137304
874.677	0.0137843
874.755	0.0138033
874.833	0.0137976
874.911	0.0136853
874.989	0.0138137
875.068	0.0137589
875.146	0.0136819
875.224	0.0136558
875.302	0.0137572
875.380	0.0137401
875.458	0.0137500
875.536	0.0138208
875.614	0.0138008
875.693	0.0137834
875.771	0.0139333
875.849	0.0138092
875.927	0.0139973
876.005	0.0137914
876.083	0.0138390
876.161	0.0139174
876.239	0.0139201
876.318	0.0140334
876.396	0.0140793
876.474	0.0140469
876.552	0.0140571
876.630	0.0140094
876.708	0.0140082
876.786	0.0140113
876.864	0.0141819
876.943	0.0140590
877.021	0.0140958
877.099	0.0140889
877.177	0.0140471
877.255	0.0140051
877.333	0.0140126
877.411	0.0139440
877.489	0.0138651
877.568	0.0138682
877.646	0.0140179
877.724	0.0138754
877.802	0.0138223
877.880	0.0137209
877.958	0.0136874
878.036	0.0137759
878.114	0.0137098
878.193	0.0137482
878.271	0.0138673
878.349	0.0137262
878.427	0.0136955
878.505	0.0137986
878.583	0.0138497
878.661	0.0139497
878.739	0.0140233
878.818	0.0140524
878.896	0.0139094
878.974	0.0138926
879.052	0.0139124
879.130	0.0139449
879.208	0.0140862
879.286	0.0140089
879.364	0.0140115
879.443	0.0139188
879.521	0.0139295
879.599	0.0140715
879.677	0.0141560
879.755	0.0140339
879.833	0.0140965
879.911	0.0140707
879.989	0.0140175
880.068	0.0139247
880.146	0.0138347
880.224	0.0139739
880.302	0.0138730
880.380	0.0138712
880.458	0.0139579
880.536	0.0138368
880.614	0.0138508
880.693	0.0137713
880.771	0.0137356
880.849	0.0138071
880.927	0.0138401
881.005	0.0137711
881.083	0.0137526
881.161	0.0137044
881.239	0.0138351
881.318	0.0138323
881.396	0.0138666
881.474	0.0139015
881.552	0.0139351
881.630	0.0139478
881.708	0.0140063
881.786	0.0138952
881.864	0.0139433
881.943	0.0139858
882.021	0.0140961
882.099	0.0140015
882.177	0.0140483
882.255	0.0140915
882.333	0.0139259
882.411	0.0139365
882.489	0.0139462
882.568	0.0138742
882.646	0.0140257
882.724	0.0139149
882.802	0.0137836
882.880	0.0139356
882.958	0.0138997
883.036	0.0138253
883.114	0.0137284
883.193	0.0138894
883.271	0.0139251
883.349	0.0136904
883.427	0.0137404
883.505	0.0138147
883.583	0.0138452
883.661	0.0137090
883.739	0.0136996
883.818	0.0137302
883.896	0.0137845
883.974	0.0137817
884.052	0.0137853
884.130	0.0136873
884.208	0.0139079
884.286	0.0137802
884.364	0.0137701
884.443	0.0138169
884.521	0.0138739
884.599	0.0139289
884.677	0.0139818
884.755	0.0140359
884.833	0.0138825
884.911	0.0139485
884.989	0.0140647
885.068	0.0140239
885.146	0.0140278
885.224	0.0139764
885.302	0.0138710
885.380	0.0140279
885.458	0.0139405
885.536	0.0141713
885.614	0.0140320
885.693	0.0140166
885.771	0.0141267
885.849	0.0140282
885.927	0.0141513
886.005	0.0141016
886.083	0.0141096
886.161	0.0141724
886.239	0.0140653
886.318	0.0140161
886.396	0.0141919
886.474	0.0142236
886.552	0.0141616
886.630	0.0141598
886.708	0.0141180
886.786	0.0141671
886.864	0.0141935
886.943	0.0142297
887.021	0.0142341
887.099	0.0142017
887.177	0.0142240
887.255	0.0141940
887.333	0.0142383
887.411	0.0142574
887.489	0.0140945
887.568	0.0142580
887.646	0.0143156
887.724	0.0143587
887.802	0.0142986
887.880	0.0142245
887.958	0.0142258
888.036	0.0141656
888.114	0.0141568
888.193	0.0141568
888.271	0.0140864
888.349	0.0141603
888.427	0.0139950
888.505	0.0139511
888.583	0.0139837
888.661	0.0140462
888.739	0.0140485
888.818	0.0140385
888.896	0.0139133
888.974	0.0138553
889.052	0.0139222
889.130	0.0139103
889.208	0.0138060
889.286	0.0137947
889.364	0.0138803
889.443	0.0138061
889.521	0.0137956
889.599	0.0138913
889.677	0.0139902
889.755	0.0138810
889.833	0.0140464
889.911	0.0140327
889.989	0.0138882
890.068	0.0138972
890.146	0.0140022
890.224	0.0139508
890.302	0.0140333
890.380	0.0139053
890.458	0.0140540
890.536	0.0140411
890.614	0.0140186
890.693	0.0141410
890.771	0.0140910
890.849	0.0141528
890.927	0.0138699
891.005	0.0141107
891.083	0.0140910
891.161	0.0140873
891.239	0.0140254
891.318	0.0140314
891.396	0.0141335
891.474	0.0139227
891.552	0.0140329
891.630	0.0140780
891.708	0.0140992
891.786	0.0139713
891.864	0.0139198
891.943	0.0140123
892.021	0.0140945
892.099	0.0141730
892.177	0.0139843
892.255	0.0140485
892.333	0.0139987
892.411	0.0139969
892.489	0.0139866
892.568	0.0141021
892.646	0.0140431
892.724	0.0139407
892.802	0.0139500
892.880	0.0140327
892.958	0.0139410
893.036	0.0138679
893.114	0.0140088
893.193	0.0140040
893.271	0.0139059
893.349	0.0140408
893.427	0.0138936
893.505	0.0139870
893.583	0.0139339
893.661	0.0139527
893.739	0.0139216
893.818	0.0139667
893.896	0.0139111
893.974	0.0140070
894.052	0.0139338
894.130	0.0139604
894.208	0.0139398
894.286	0.0140426
894.364	0.0140267
894.443	0.0139594
894.521	0.0140743
894.599	0.0140085
894.677	0.0140361
894.755	0.0142167
894.833	0.0142092
894.911	0.0140047
894.989	0.0140826
895.068	0.0140431
895.146	0.0141631
895.224	0.0139809
895.302	0.0141785
895.380	0.0141216
895.458	0.0141151
895.536	0.0141663
895.614	0.0141498
895.693	0.0142715
895.771	0.0142448
895.849	0.0141554
895.927	0.0143043
896.005	0.0141009
896.083	0.0142424
896.161	0.0141302
896.239	0.0142220
896.318	0.0142247
896.396	0.0140920
896.474	0.0141478
896.552	0.0142718
896.630	0.0141348
896.708	0.0142933
896.786	0.0142469
896.864	0.0142693
896.943	0.0141895
897.021	0.0143529
897.099	0.0142120
897.177	0.0143416
897.255	0.0141705
897.333	0.0142543
897.411	0.0141593
897.489	0.0140868
897.568	0.0140791
897.646	0.0141184
897.724	0.0140166
897.802	0.0139111
897.880	0.0140002
897.958	0.0140887
898.036	0.0139991
898.114	0.0140438
898.193	0.0139674
898.271	0.0138982
898.349	0.0139539
898.427	0.0138786
898.505	0.0140295
898.583	0.0140273
898.661	0.0140048
898.739	0.0139783
898.818	0.0139411
898.896	0.0141043
898.974	0.0139842
899.052	0.0138928
899.130	0.0139353
899.208	0.0139252
899.286	0.0138567
899.364	0.0139289
899.443	0.0140101
899.521	0.0139581
899.599	0.0139341
899.677	0.0140646
899.755	0.0140224
899.833	0.0138731
899.911	0.0138016
899.989	0.0138860
900.068	0.0139758
900.146	0.0140179
900.224	0.0138819
900.302	0.0139511
900.380	0.0139360
900.458	0.0139675
900.536	0.0141386
900.614	0.0140883
900.693	0.0139813
900.771	0.0141206
900.849	0.0140350
900.927	0.0140631
901.005	0.0141805
901.083	0.0142564
901.161	0.0140665
901.239	0.0141077
901.318	0.0141956
901.396	0.0140670
901.474	0.0141813
901.552	0.0140807
901.630	0.0141075
901.708	0.0141485
901.786	0.0141410
901.864	0.0140343
901.943	0.0139425
902.021	0.0140347
902.099	0.0138168
902.177	0.0139809
902.255	0.0138595
902.333	0.0139516
902.411	0.0138072
902.489	0.0140503
902.568	0.0140025
902.646	0.0138509
902.724	0.0137372
902.802	0.0137167
902.880	0.0137826
902.958	0.0138306
903.036	0.0138372
903.114	0.0138654
903.193	0.0139119
903.271	0.0138481
903.349	0.0138199
903.427	0.0139872
903.505	0.0138834
903.583	0.0139209
903.661	0.0139149
903.739	0.0137554
903.818	0.0139856
903.896	0.0139292
903.974	0.0139525
904.052	0.0139979
904.130	0.0137458
904.208	0.0139836
904.286	0.0140214
904.364	0.0138384
904.443	0.0137144
904.521	0.0139120
904.599	0.0140041
904.677	0.0140213
904.755	0.0138943
904.833	0.0140204
904.911	0.0139332
904.989	0.0139529
905.068	0.0139670
905.146	0.0139127
905.224	0.0139703
905.302	0.0140355
905.380	0.0140977
905.458	0.0141041
905.536	0.0140770
905.614	0.0141204
905.693	0.0140833
905.771	0.0141626
905.849	0.0142598
905.927	0.0142546
906.005	0.0141344
906.083	0.0141425
906.161	0.0141109
906.239	0.0141489
906.318	0.0141803
906.396	0.0143718
906.474	0.0142190
906.552	0.0142209
906.630	0.0142712
906.708	0.0142837
906.786	0.0142580
906.864	0.0141544
906.943	0.0141311
907.021	0.0142041
907.099	0.0142267
907.177	0.0141563
907.255	0.0141119
907.333	0.0139939
907.411	0.0141269
907.489	0.0140716
907.568	0.0139432
907.646	0.0140005
907.724	0.0139035
907.802	0.0139417
907.880	0.0139655
907.958	0.0136880
908.036	0.0138756
908.114	0.0138223
908.193	0.0135931
908.271	0.0135486
908.349	0.0137267
908.427	0.0137683
908.505	0.0137092
908.583	0.0138114
908.661	0.0136500
908.739	0.0138015
908.818	0.0136189
908.896	0.0135951
908.974	0.0138109
909.052	0.0137575
909.130	0.0136852
909.208	0.0136708
909.286	0.0137325
909.364	0.0138316
909.443	0.0137666
909.521	0.0136687
909.599	0.0137646
909.677	0.0137733
909.755	0.0138650
909.833	0.0139114
909.911	0.0139674
909.989	0.0138033
910.068	0.0139217
910.146	0.0139210
910.224	0.0139094
910.302	0.0140043
910.380	0.0138739
910.458	0.0137936
910.536	0.0140825
910.614	0.0139542
910.693	0.0139973
910.771	0.0139180
910.849	0.0139156
910.927	0.0139664
911.005	0.0139653
911.083	0.0139755
911.161	0.0140260
911.239	0.0140712
911.318	0.0141331
911.396	0.0139780
911.474	0.0140046
911.552	0.0140642
911.630	0.0140131
911.708	0.0140176
911.786	0.0140549
911.864	0.0140143
911.943	0.0139635
912.021	0.0140042
912.099	0.0139163
912.177	0.0140052
912.255	0.0139941
912.333	0.0140148
912.411	0.0138963
912.489	0.0139736
912.568	0.0138914
912.646	0.0140375
912.724	0.0139341
912.802	0.0138173
912.880	0.0137766
912.958	0.0138342
913.036	0.0138190
913.114	0.0137251
913.193	0.0137965
913.271	0.0137431
913.349	0.0137623
913.427	0.0137695
913.505	0.0137978
913.583	0.0137240
913.661	0.0138046
913.739	0.0138294
913.818	0.0139877
913.896	0.0139239
913.974	0.0138923
914.052	0.0137897
914.130	0.0138810
914.208	0.0140021
914.286	0.0139977
914.364	0.0140910
914.443	0.0140009
914.521	0.0141990
914.599	0.0142233
914.677	0.0140440
914.755	0.0140988
914.833	0.0141986
914.911	0.0141476
914.989	0.0141123
915.068	0.0141984
915.146	0.0142277
915.224	0.0142842
915.302	0.0142841
915.380	0.0142494
915.458	0.0142799
915.536	0.0142466
915.614	0.0143046
915.693	0.0143079
915.771	0.0141871
915.849	0.0142345
915.927	0.0142677
916.005	0.0142329
916.083	0.0141737
916.161	0.0141655
916.239	0.0142397
916.318	0.0142010
916.396	0.0141772
916.474	0.0141896
916.552	0.0141663
916.630	0.0141645
916.708	0.0141193
916.786	0.0142658
916.864	0.0141245
916.943	0.0141569
917.021	0.0140831
917.099	0.0141737
917.177	0.0142374
917.255	0.0142162
917.333	0.0142642
917.411	0.0141048
917.489	0.0141041
917.568	0.0140960
917.646	0.0140836
917.724	0.0141784
917.802	0.0141997
917.880	0.0142217
917.958	0.0140826
918.036	0.0141677
918.114	0.0141019
918.193	0.0139668
918.271	0.0141109
918.349	0.0141613
918.427	0.0141770
918.505	0.0140225
918.583	0.0139944
918.661	0.0140784
918.739	0.0141193
918.818	0.0141271
918.896	0.0141123
918.974	0.0140663
919.052	0.0140494
919.130	0.0140432
919.208	0.0141196
919.286	0.0141652
919.364	0.0139992
919.443	0.0140926
919.521	0.0141174
919.599	0.0141534
919.677	0.0140079
919.755	0.0140162
919.833	0.0141866
919.911	0.0141582
919.989	0.0139774
920.068	0.0139976
920.146	0.0140134
920.224	0.0139379
920.302	0.0140638
920.380	0.0138813
920.458	0.0140430
920.536	0.0140424
920.614	0.0139887
920.693	0.0140965
920.771	0.0140765
920.849	0.0139818
920.927	0.0140360
921.005	0.0139491
921.083	0.0140074
921.161	0.0139442
921.239	0.0138909
921.318	0.0139636
921.396	0.0139751
921.474	0.0139882
921.552	0.0140245
921.630	0.0139724
921.708	0.0139594
921.786	0.0139564
921.864	0.0139256
921.943	0.0140407
922.021	0.0140086
922.099	0.0141080
922.177	0.0142003
922.255	0.0140173
922.333	0.0142078
922.411	0.0140164
922.489	0.0140604
922.568	0.0142249
922.646	0.0141972
922.724	0.0141602
922.802	0.0141367
922.880	0.0141525
922.958	0.0139616
923.036	0.0140339
923.114	0.0139777
923.193	0.0139169
923.271	0.0141428
923.349	0.0142020
923.427	0.0141068
923.505	0.0138741
923.583	0.0138918
923.661	0.0139595
923.739	0.0140721
923.818	0.0138642
923.896	0.0138719
923.974	0.0138900
924.052	0.0139663
924.130	0.0139874
924.208	0.0138754
924.286	0.0139457
924.364	0.0138509
924.443	0.0140409
924.521	0.0140447
924.599	0.0140069
924.677	0.0140691
924.755	0.0139942
924.833	0.0140544
924.911	0.0140646
924.989	0.0140860
925.068	0.0140898
925.146	0.0139925
925.224	0.0141803
925.302	0.0143597
925.380	0.0141345
925.458	0.0141022
925.536	0.0140747
925.614	0.0141928
925.693	0.0141463
925.771	0.0140327
925.849	0.0140098
925.927	0.0139154
926.005	0.0139861
926.083	0.0138939
926.161	0.0139708
926.239	0.0139082
926.318	0.0138110
926.396	0.0138322
926.474	0.0138417
926.552	0.0139052
926.630	0.0139620
926.708	0.0138363
926.786	0.0137636
926.864	0.0139583
926.943	0.0137917
927.021	0.0138861
927.099	0.0138213
927.177	0.0138535
927.255	0.0137583
927.333	0.0137749
927.411	0.0138593
927.489	0.0137348
927.568	0.0139913
927.646	0.0139613
927.724	0.0138857
927.802	0.0139027
927.880	0.0139290
927.958	0.0140256
928.036	0.0140497
928.114	0.0139285
928.193	0.0141161
928.271	0.0141305
928.349	0.0140929
928.427	0.0140325
928.505	0.0140698
928.583	0.0140122
928.661	0.0140996
928.739	0.0141351
928.818	0.0140359
928.896	0.0139196
928.974	0.0140723
929.052	0.0141190
929.130	0.0140894
929.208	0.0139787
929.286	0.0140601
929.364	0.0139466
929.443	0.0137885
929.521	0.0140028
929.599	0.0139198
929.677	0.0139613
929.755	0.0139077
929.833	0.0139362
929.911	0.0139899
929.989	0.0140063
930.068	0.0140722
930.146	0.0140348
930.224	0.0139560
930.302	0.0138594
930.380	0.0139478
930.458	0.0140377
930.536	0.0139639
930.614	0.0139723
930.693	0.0139589
930.771	0.0138386
930.849	0.0139394
930.927	0.0139070
931.005	0.0139779
931.083	0.0138284
931.161	0.0139878
931.239	0.0139220
931.318	0.0140229
931.396	0.0139988
931.474	0.0138907
931.552	0.0140662
931.630	0.0139996
931.708	0.0140285
931.786	0.0140015
931.864	0.0140093
931.943	0.0140019
932.021	0.0140212
932.099	0.0140450
932.177	0.0141079
932.255	0.0142218
932.333	0.0139826
932.411	0.0140682
932.489	0.0141742
932.568	0.0141232
932.646	0.0140961
932.724	0.0140340
932.802	0.0140786
932.880	0.0139916
932.958	0.0140154
933.036	0.0141707
933.114	0.0140134
933.193	0.0140253
933.271	0.0139463
933.349	0.0140424
933.427	0.0140977
933.505	0.0141058
933.583	0.0140864
933.661	0.0140636
933.739	0.0140993
933.818	0.0140450
933.896	0.0140099
933.974	0.0141003
934.052	0.0142783
934.130	0.0141739
934.208	0.0141249
934.286	0.0140810
934.364	0.0141183
934.443	0.0141521
934.521	0.0139530
934.599	0.0140235
934.677	0.0141602
934.755	0.0141758
934.833	0.0141543
934.911	0.0140434
934.989	0.0140623
935.068	0.0140856
935.146	0.0139929
935.224	0.0140008
935.302	0.0140501
935.380	0.0139806
935.458	0.0139593
935.536	0.0139460
935.614	0.0139980
935.693	0.0140583
935.771	0.0139156
935.849	0.0138675
935.927	0.0139590
936.005	0.0138706
936.083	0.0139091
936.161	0.0139483
936.239	0.0139381
936.318	0.0138873
936.396	0.0138473
936.474	0.0138996
936.552	0.0138608
936.630	0.0138934
936.708	0.0138564
936.786	0.0140279
936.864	0.0139781
936.943	0.0141257
937.021	0.0138641
937.099	0.0139016
937.177	0.0140437
937.255	0.0142207
937.333	0.0141207
937.411	0.0141264
937.489	0.0140489
937.568	0.0141860
937.646	0.0141762
937.724	0.0142918
937.802	0.0140449
937.880	0.0142535
937.958	0.0142349
938.036	0.0142804
938.114	0.0141032
938.193	0.0141137
938.271	0.0142599
938.349	0.0142304
938.427	0.0139975
938.505	0.0142227
938.583	0.0141831
938.661	0.0141088
938.739	0.0142287
938.818	0.0140441
938.896	0.0139091
938.974	0.0140598
939.052	0.0141013
939.130	0.0141024
939.208	0.0139940
939.286	0.0139764
939.364	0.0139312
939.443	0.0139156
939.521	0.0140903
939.599	0.0140103
939.677	0.0140009
939.755	0.0139765
939.833	0.0141050
939.911	0.0140686
939.989	0.0140005
940.068	0.0141066
940.146	0.0139164
940.224	0.0139183
940.302	0.0140608
940.380	0.0139407
940.458	0.0140054
940.536	0.0139461
940.614	0.0139937
940.693	0.0139363
940.771	0.0140572
940.849	0.0140337
940.927	0.0139402
941.005	0.0139871
941.083	0.0141405
941.161	0.0140054
941.239	0.0139420
941.318	0.0140631
941.396	0.0139001
941.474	0.0140889
941.552	0.0140924
941.630	0.0140436
941.708	0.0139727
941.786	0.0140141
941.864	0.0139253
941.943	0.0139158
942.021	0.0139147
942.099	0.0140682
942.177	0.0139844
942.255	0.0137669
942.333	0.0138536
942.411	0.0139703
942.489	0.0138051
942.568	0.0137360
942.646	0.0136752
942.724	0.0138612
942.802	0.0140051
942.880	0.0138052
942.958	0.0139340
943.036	0.0137837
943.114	0.0137631
943.193	0.0136722
943.271	0.0136781
943.349	0.0139145
943.427	0.0138596
943.505	0.0139661
943.583	0.0139086
943.661	0.0137940
943.739	0.0138799
943.818	0.0139066
943.896	0.0140527
943.974	0.0140926
944.052	0.0141119
944.130	0.0141393
944.208	0.0141582
944.286	0.0141392
944.364	0.0140572
944.443	0.0140868
944.521	0.0140039
944.599	0.0142345
944.677	0.0140777
944.755	0.0142890
944.833	0.0141701
944.911	0.0143098
944.989	0.0142561
945.068	0.0141619
945.146	0.0142920
945.224	0.0142290
945.302	0.0142300
945.380	0.0141551
945.458	0.0142896
945.536	0.0142668
945.614	0.0142890
945.693	0.0142562
945.771	0.0143781
945.849	0.0143141
945.927	0.0143065
946.005	0.0141772
946.083	0.0142638
946.161	0.0142514
946.239	0.0141018
946.318	0.0141863
946.396	0.0140551
946.474	0.0140520
946.552	0.0140406
946.630	0.0140929
946.708	0.0138588
946.786	0.0139899
946.864	0.0140205
946.943	0.0139608
947.021	0.0140218
947.099	0.0140104
947.177	0.0137437
947.255	0.0137891
947.333	0.0139031
947.411	0.0139307
947.489	0.0139020
947.568	0.0139169
947.646	0.0139327
947.724	0.0138152
947.802	0.0138217
947.880	0.0137664
947.958	0.0138696
948.036	0.0139127
948.114	0.0137849
948.193	0.0138801
948.271	0.0137814
948.349	0.0138764
948.427	0.0137975
948.505	0.0137381
948.583	0.0137704
948.661	0.0138280
948.739	0.0138265
948.818	0.0137717
948.896	0.0139195
948.974	0.0139801
949.052	0.0139027
949.130	0.0137718
949.208	0.0138490
949.286	0.0138090
949.364	0.0138789
949.443	0.0139149
949.521	0.0138646
949.599	0.0138696
949.677	0.0139378
949.755	0.0139982
949.833	0.0139284
949.911	0.0139844
949.989	0.0139989
950.068	0.0140784
950.146	0.0140600
950.224	0.0139478
950.302	0.0139807
950.380	0.0138777
950.458	0.0140397
950.536	0.0139879
950.614	0.0140185
950.693	0.0139308
950.771	0.0140621
950.849	0.0140324
950.927	0.0140825
951.005	0.0140866
951.083	0.0140604
951.161	0.0139071
951.239	0.0139513
951.318	0.0139567
951.396	0.0138657
951.474	0.0140047
951.552	0.0140308
951.630	0.0140686
951.708	0.0140513
951.786	0.0141717
951.864	0.0140654
951.943	0.0141404
952.021	0.0140500
952.099	0.0141075
952.177	0.0141211
952.255	0.0140479
952.333	0.0141630
952.411	0.0140255
952.489	0.0140753
952.568	0.0140497
952.646	0.0141376
952.724	0.0140678
952.802	0.0140518
952.880	0.0140523
952.958	0.0140202
953.036	0.0140163
953.114	0.0140547
953.193	0.0139457
953.271	0.0139115
953.349	0.0140048
953.427	0.0139851
953.505	0.0138515
953.583	0.0138816
953.661	0.0138776
953.739	0.0138570
953.818	0.0138711
953.896	0.0137469
953.974	0.0138223
954.052	0.0137937
954.130	0.0139145
954.208	0.0138348
954.286	0.0139049
954.364	0.0138152
954.443	0.0140169
954.521	0.0139799
954.599	0.0140227
954.677	0.0140262
954.755	0.0139245
954.833	0.0139655
954.911	0.0139682
954.989	0.0140962
955.068	0.0139822
955.146	0.0139422
955.224	0.0139738
955.302	0.0141092
955.380	0.0139537
955.458	0.0140996
955.536	0.0139028
955.614	0.0139512
955.693	0.0139565
955.771	0.0139481
955.849	0.0139405
955.927	0.0139885
956.005	0.0139292
956.083	0.0140500
956.161	0.0139229
956.239	0.0140025
956.318	0.0140163
956.396	0.0140244
956.474	0.0139703
956.552	0.0139072
956.630	0.0140249
956.708	0.0139382
956.786	0.0139124
956.864	0.0140485
956.943	0.0139163
957.021	0.0140038
957.099	0.0138840
957.177	0.0139340
957.255	0.0139407
957.333	0.0139363
957.411	0.0138358
957.489	0.0137270
957.568	0.0139526
957.646	0.0139259
957.724	0.0139762
957.802	0.0139002
957.880	0.0137893
957.958	0.0137819
958.036	0.0139842
958.114	0.0140759
958.193	0.0140385
958.271	0.0139771
958.349	0.0138946
958.427	0.0139066
958.505	0.0140439
958.583	0.0139872
958.661	0.0140263
958.739	0.0140955
958.818	0.0139672
958.896	0.0139384
958.974	0.0139221
959.052	0.0138921
959.130	0.0138783
959.208	0.0138200
959.286	0.0138477
959.364	0.0138431
959.443	0.0138577
959.521	0.0138447
959.599	0.0139051
959.677	0.0139513
959.755	0.0138833
959.833	0.0138476
959.911	0.0138132
