05/14/2022	16:48:47	Ver.	4.1	UNKNOWN
Optical Delay	639.989416	Delta X		0.078125	Sweeps	1	Scan Rate	0/0
Coordinates	Axis 1	NaN	Axis 2	NaN	Axis 3	NaN	Axis 4	NaN	Axis 5	NaN	Axis 6	0.000000
TX Power	0.000000	RX Power	0.000000

639.989	0.0139540
640.068	0.0139569
640.146	0.0140333
640.224	0.0138935
640.302	0.0140170
640.380	0.0141135
640.458	0.0140497
640.536	0.0141500
640.614	0.0140117
640.693	0.0141135
640.771	0.0139622
640.849	0.0141660
640.927	0.0141908
641.005	0.0142134
641.083	0.0141412
641.161	0.0142034
641.239	0.0142962
641.318	0.0141940
641.396	0.0142353
641.474	0.0141966
641.552	0.0141689
641.630	0.0142078
641.708	0.0141387
641.786	0.0139844
641.864	0.0140789
641.943	0.0141103
642.021	0.0141376
642.099	0.0141507
642.177	0.0140754
642.255	0.0140894
642.333	0.0141338
642.411	0.0139463
642.489	0.0140233
642.568	0.0140289
642.646	0.0140855
642.724	0.0140572
642.802	0.0139249
642.880	0.0139946
642.958	0.0140547
643.036	0.0138693
643.114	0.0140487
643.193	0.0140791
643.271	0.0139225
643.349	0.0141136
643.427	0.0140086
643.505	0.0139495
643.583	0.0139162
643.661	0.0139703
643.739	0.0139654
643.818	0.0140601
643.896	0.0140459
643.974	0.0139764
644.052	0.0140207
644.130	0.0140248
644.208	0.0141045
644.286	0.0140049
644.364	0.0140599
644.443	0.0140133
644.521	0.0141152
644.599	0.0141477
644.677	0.0140562
644.755	0.0140485
644.833	0.0142274
644.911	0.0141570
644.989	0.0140045
645.068	0.0141499
645.146	0.0141910
645.224	0.0143063
645.302	0.0140807
645.380	0.0142796
645.458	0.0142393
645.536	0.0142179
645.614	0.0141676
645.693	0.0141886
645.771	0.0141113
645.849	0.0142371
645.927	0.0142113
646.005	0.0141287
646.083	0.0140112
646.161	0.0141349
646.239	0.0140517
646.318	0.0140775
646.396	0.0140598
646.474	0.0141818
646.552	0.0141877
646.630	0.0142241
646.708	0.0140990
646.786	0.0142397
646.864	0.0140694
646.943	0.0141931
647.021	0.0140673
647.099	0.0141764
647.177	0.0141621
647.255	0.0140067
647.333	0.0140193
647.411	0.0139548
647.489	0.0139784
647.568	0.0141351
647.646	0.0139133
647.724	0.0140182
647.802	0.0141132
647.880	0.0139649
647.958	0.0139084
648.036	0.0141348
648.114	0.0140298
648.193	0.0139821
648.271	0.0138946
648.349	0.0140083
648.427	0.0139329
648.505	0.0138847
648.583	0.0141135
648.661	0.0140598
648.739	0.0139145
648.818	0.0139825
648.896	0.0140303
648.974	0.0140367
649.052	0.0139230
649.130	0.0139700
649.208	0.0139353
649.286	0.0139323
649.364	0.0139050
649.443	0.0139087
649.521	0.0139846
649.599	0.0140213
649.677	0.0138027
649.755	0.0140594
649.833	0.0141987
649.911	0.0139811
649.989	0.0138974
650.068	0.0139349
650.146	0.0141408
650.224	0.0140015
650.302	0.0139194
650.380	0.0139843
650.458	0.0138956
650.536	0.0140497
650.614	0.0139677
650.693	0.0138552
650.771	0.0138857
650.849	0.0138768
650.927	0.0140107
651.005	0.0140255
651.083	0.0140530
651.161	0.0140303
651.239	0.0139358
651.318	0.0139957
651.396	0.0139474
651.474	0.0139880
651.552	0.0140722
651.630	0.0139520
651.708	0.0139780
651.786	0.0137952
651.864	0.0138440
651.943	0.0140983
652.021	0.0139117
652.099	0.0139363
652.177	0.0139385
652.255	0.0139816
652.333	0.0139424
652.411	0.0140054
652.489	0.0139532
652.568	0.0139002
652.646	0.0138812
652.724	0.0138503
652.802	0.0139857
652.880	0.0141026
652.958	0.0139768
653.036	0.0139769
653.114	0.0140022
653.193	0.0139503
653.271	0.0140419
653.349	0.0140218
653.427	0.0139923
653.505	0.0140841
653.583	0.0140008
653.661	0.0140151
653.739	0.0140940
653.818	0.0140321
653.896	0.0139962
653.974	0.0140717
654.052	0.0141012
654.130	0.0141120
654.208	0.0140663
654.286	0.0139189
654.364	0.0140707
654.443	0.0140727
654.521	0.0140228
654.599	0.0140111
654.677	0.0139840
654.755	0.0139187
654.833	0.0139993
654.911	0.0140282
654.989	0.0138853
655.068	0.0139705
655.146	0.0140169
655.224	0.0140311
655.302	0.0139994
655.380	0.0140443
655.458	0.0139702
655.536	0.0140955
655.614	0.0140064
655.693	0.0141434
655.771	0.0139345
655.849	0.0138674
655.927	0.0140265
656.005	0.0139035
656.083	0.0140009
656.161	0.0140282
656.239	0.0139378
656.318	0.0140558
656.396	0.0141044
656.474	0.0140466
656.552	0.0140347
656.630	0.0138920
656.708	0.0141286
656.786	0.0141167
656.864	0.0139348
656.943	0.0139700
657.021	0.0139741
657.099	0.0140084
657.177	0.0138411
657.255	0.0139370
657.333	0.0140092
657.411	0.0139745
657.489	0.0137494
657.568	0.0139385
657.646	0.0140120
657.724	0.0139291
657.802	0.0139959
657.880	0.0138938
657.958	0.0138571
658.036	0.0139756
658.114	0.0139028
658.193	0.0138725
658.271	0.0139558
658.349	0.0138525
658.427	0.0137981
658.505	0.0137778
658.583	0.0138879
658.661	0.0138432
658.739	0.0138366
658.818	0.0138187
658.896	0.0137884
658.974	0.0139838
659.052	0.0137838
659.130	0.0138895
659.208	0.0138943
659.286	0.0140398
659.364	0.0138641
659.443	0.0139624
659.521	0.0138236
659.599	0.0139008
659.677	0.0140231
659.755	0.0141328
659.833	0.0140768
659.911	0.0140386
659.989	0.0140720
660.068	0.0141052
660.146	0.0141129
660.224	0.0141471
660.302	0.0140268
660.380	0.0139999
660.458	0.0140477
660.536	0.0141246
660.614	0.0139745
660.693	0.0140076
660.771	0.0140373
660.849	0.0140441
660.927	0.0139807
661.005	0.0140424
661.083	0.0138879
661.161	0.0139097
661.239	0.0140146
661.318	0.0139832
661.396	0.0140161
661.474	0.0138071
661.552	0.0139279
661.630	0.0140310
661.708	0.0139844
661.786	0.0139422
661.864	0.0140290
661.943	0.0138871
662.021	0.0140414
662.099	0.0140879
662.177	0.0141687
662.255	0.0140064
662.333	0.0140020
662.411	0.0140488
662.489	0.0139264
662.568	0.0140644
662.646	0.0141875
662.724	0.0140278
662.802	0.0141009
662.880	0.0141105
662.958	0.0140710
663.036	0.0140876
663.114	0.0140125
663.193	0.0139571
663.271	0.0140240
663.349	0.0141435
663.427	0.0140643
663.505	0.0140826
663.583	0.0141645
663.661	0.0140199
663.739	0.0139612
663.818	0.0140639
663.896	0.0141225
663.974	0.0140519
664.052	0.0139343
664.130	0.0139473
664.208	0.0140297
664.286	0.0139126
664.364	0.0136470
664.443	0.0139258
664.521	0.0137923
664.599	0.0137191
664.677	0.0139763
664.755	0.0139764
664.833	0.0138419
664.911	0.0139019
664.989	0.0140462
665.068	0.0140897
665.146	0.0140598
665.224	0.0139837
665.302	0.0143311
665.380	0.0142960
665.458	0.0141773
665.536	0.0142793
665.614	0.0144685
665.693	0.0142775
665.771	0.0143034
665.849	0.0144820
665.927	0.0144424
666.005	0.0145387
666.083	0.0145328
666.161	0.0143902
666.239	0.0143558
666.318	0.0143164
666.396	0.0142841
666.474	0.0141314
666.552	0.0139834
666.630	0.0141269
666.708	0.0139854
666.786	0.0139713
666.864	0.0137417
666.943	0.0137658
667.021	0.0137075
667.099	0.0136060
667.177	0.0134863
667.255	0.0134556
667.333	0.0134428
667.411	0.0133696
667.489	0.0134546
667.568	0.0135049
667.646	0.0136414
667.724	0.0136807
667.802	0.0136887
667.880	0.0137876
667.958	0.0139839
668.036	0.0140569
668.114	0.0141546
668.193	0.0142747
668.271	0.0143576
668.349	0.0144994
668.427	0.0146632
668.505	0.0147630
668.583	0.0147559
668.661	0.0147851
668.739	0.0148037
668.818	0.0149714
668.896	0.0150254
668.974	0.0148112
669.052	0.0148550
669.130	0.0148547
669.208	0.0147564
669.286	0.0146849
669.364	0.0143778
669.443	0.0143008
669.521	0.0142984
669.599	0.0140402
669.677	0.0139291
669.755	0.0139233
669.833	0.0137980
669.911	0.0135072
669.989	0.0134035
670.068	0.0134076
670.146	0.0133065
670.224	0.0133751
670.302	0.0133865
670.380	0.0132787
670.458	0.0133057
670.536	0.0132442
670.614	0.0134618
670.693	0.0133610
670.771	0.0133704
670.849	0.0134980
670.927	0.0135963
671.005	0.0137312
671.083	0.0137829
671.161	0.0140614
671.239	0.0140705
671.318	0.0142262
671.396	0.0144730
671.474	0.0145643
671.552	0.0144822
671.630	0.0146546
671.708	0.0148233
671.786	0.0147129
671.864	0.0148520
671.943	0.0148988
672.021	0.0148907
672.099	0.0148022
672.177	0.0149020
672.255	0.0148885
672.333	0.0147997
672.411	0.0147575
672.489	0.0145967
672.568	0.0146152
672.646	0.0144322
672.724	0.0143324
672.802	0.0141797
672.880	0.0141190
672.958	0.0139585
673.036	0.0137022
673.114	0.0136157
673.193	0.0135735
673.271	0.0133941
673.349	0.0133094
673.427	0.0131879
673.505	0.0130864
673.583	0.0128584
673.661	0.0130334
673.739	0.0129395
673.818	0.0129528
673.896	0.0128426
673.974	0.0130146
674.052	0.0131596
674.130	0.0129901
674.208	0.0131626
674.286	0.0131525
674.364	0.0134171
674.443	0.0135883
674.521	0.0135508
674.599	0.0137702
674.677	0.0139293
674.755	0.0143382
674.833	0.0144870
674.911	0.0148184
674.989	0.0148110
675.068	0.0148885
675.146	0.0151298
675.224	0.0154257
675.302	0.0153420
675.380	0.0153028
675.458	0.0154192
675.536	0.0155786
675.614	0.0155254
675.693	0.0154373
675.771	0.0153388
675.849	0.0152276
675.927	0.0149323
676.005	0.0148270
676.083	0.0145247
676.161	0.0143367
676.239	0.0142704
676.318	0.0140807
676.396	0.0138451
676.474	0.0135640
676.552	0.0132187
676.630	0.0131831
676.708	0.0128782
676.786	0.0126961
676.864	0.0126834
676.943	0.0126545
677.021	0.0124940
677.099	0.0125105
677.177	0.0125373
677.255	0.0125053
677.333	0.0126182
677.411	0.0127402
677.489	0.0129037
677.568	0.0130570
677.646	0.0131872
677.724	0.0134268
677.802	0.0136259
677.880	0.0137699
677.958	0.0142076
678.036	0.0143177
678.114	0.0144284
678.193	0.0144432
678.271	0.0145029
678.349	0.0146680
678.427	0.0146805
678.505	0.0147044
678.583	0.0146363
678.661	0.0148112
678.739	0.0146254
678.818	0.0146020
678.896	0.0146666
678.974	0.0146234
679.052	0.0146144
679.130	0.0144950
679.208	0.0143861
679.286	0.0143369
679.364	0.0142117
679.443	0.0141393
679.521	0.0141976
679.599	0.0140677
679.677	0.0140407
679.755	0.0139947
679.833	0.0139165
679.911	0.0138599
679.989	0.0139706
680.068	0.0139988
680.146	0.0139689
680.224	0.0139804
680.302	0.0139896
680.380	0.0139773
680.458	0.0140604
680.536	0.0139787
680.614	0.0140736
680.693	0.0141541
680.771	0.0139842
680.849	0.0140867
680.927	0.0140854
681.005	0.0140399
681.083	0.0141035
681.161	0.0140308
681.239	0.0140607
681.318	0.0140524
681.396	0.0139359
681.474	0.0139504
681.552	0.0138612
681.630	0.0137971
681.708	0.0138107
681.786	0.0137481
681.864	0.0135265
681.943	0.0135308
682.021	0.0136205
682.099	0.0135342
682.177	0.0135538
682.255	0.0132816
682.333	0.0132436
682.411	0.0133363
682.489	0.0133978
682.568	0.0134852
682.646	0.0135181
682.724	0.0134504
682.802	0.0136167
682.880	0.0136347
682.958	0.0137241
683.036	0.0137297
683.114	0.0136960
683.193	0.0137399
683.271	0.0139107
683.349	0.0137788
683.427	0.0138055
683.505	0.0138554
683.583	0.0139056
683.661	0.0140215
683.739	0.0139680
683.818	0.0140533
683.896	0.0141993
683.974	0.0142226
684.052	0.0141150
684.130	0.0143253
684.208	0.0143711
684.286	0.0143209
684.364	0.0145040
684.443	0.0144688
684.521	0.0145774
684.599	0.0146879
684.677	0.0146938
684.755	0.0145750
684.833	0.0146483
684.911	0.0146758
684.989	0.0148229
685.068	0.0147979
685.146	0.0146854
685.224	0.0148026
685.302	0.0147655
685.380	0.0146827
685.458	0.0147567
685.536	0.0147102
685.614	0.0146058
685.693	0.0145432
685.771	0.0144114
685.849	0.0142879
685.927	0.0141611
686.005	0.0140160
686.083	0.0138510
686.161	0.0136726
686.239	0.0134352
686.318	0.0131892
686.396	0.0129881
686.474	0.0128995
686.552	0.0126634
686.630	0.0125761
686.708	0.0124510
686.786	0.0124045
686.864	0.0122645
686.943	0.0122474
687.021	0.0121723
687.099	0.0122593
687.177	0.0123913
687.255	0.0125122
687.333	0.0124470
687.411	0.0126141
687.489	0.0126041
687.568	0.0128947
687.646	0.0129321
687.724	0.0131438
687.802	0.0131109
687.880	0.0133694
687.958	0.0135236
688.036	0.0137243
688.114	0.0138526
688.193	0.0140470
688.271	0.0141786
688.349	0.0143089
688.427	0.0143733
688.505	0.0145563
688.583	0.0147031
688.661	0.0147225
688.739	0.0149936
688.818	0.0149323
688.896	0.0150028
688.974	0.0149406
689.052	0.0148561
689.130	0.0149370
689.208	0.0149356
689.286	0.0147720
689.364	0.0148500
689.443	0.0147935
689.521	0.0148796
689.599	0.0148452
689.677	0.0149478
689.755	0.0148837
689.833	0.0150541
689.911	0.0150867
689.989	0.0150526
690.068	0.0149792
690.146	0.0151768
690.224	0.0152415
690.302	0.0151675
690.380	0.0152585
690.458	0.0154612
690.536	0.0153554
690.614	0.0152277
690.693	0.0153965
690.771	0.0152853
690.849	0.0150463
690.927	0.0149580
691.005	0.0147478
691.083	0.0145374
691.161	0.0143951
691.239	0.0141988
691.318	0.0136516
691.396	0.0135635
691.474	0.0132039
691.552	0.0129985
691.630	0.0127770
691.708	0.0124416
691.786	0.0122685
691.864	0.0121207
691.943	0.0119323
692.021	0.0117435
692.099	0.0116171
692.177	0.0115160
692.255	0.0114485
692.333	0.0115478
692.411	0.0115138
692.489	0.0115387
692.568	0.0115951
692.646	0.0118193
692.724	0.0118662
692.802	0.0122321
692.880	0.0124288
692.958	0.0126267
693.036	0.0129682
693.114	0.0132977
693.193	0.0135343
693.271	0.0137130
693.349	0.0140089
693.427	0.0141569
693.505	0.0143766
693.583	0.0147600
693.661	0.0148783
693.739	0.0151733
693.818	0.0153390
693.896	0.0154022
693.974	0.0155003
694.052	0.0156355
694.130	0.0156950
694.208	0.0158699
694.286	0.0159011
694.364	0.0158642
694.443	0.0159122
694.521	0.0159023
694.599	0.0158774
694.677	0.0158087
694.755	0.0158456
694.833	0.0157526
694.911	0.0156868
694.989	0.0154659
695.068	0.0154353
695.146	0.0155432
695.224	0.0153217
695.302	0.0152383
695.380	0.0151334
695.458	0.0149337
695.536	0.0149001
695.614	0.0147366
695.693	0.0145050
695.771	0.0144508
695.849	0.0144154
695.927	0.0141817
696.005	0.0141742
696.083	0.0141275
696.161	0.0138985
696.239	0.0137636
696.318	0.0135533
696.396	0.0134437
696.474	0.0133203
696.552	0.0131802
696.630	0.0129402
696.708	0.0126071
696.786	0.0124155
696.864	0.0123667
696.943	0.0121875
697.021	0.0121051
697.099	0.0119185
697.177	0.0118211
697.255	0.0117146
697.333	0.0118133
697.411	0.0116792
697.489	0.0116956
697.568	0.0118285
697.646	0.0117994
697.724	0.0119814
697.802	0.0119823
697.880	0.0122212
697.958	0.0123479
698.036	0.0125753
698.114	0.0124707
698.193	0.0127747
698.271	0.0130356
698.349	0.0132725
698.427	0.0134436
698.505	0.0137163
698.583	0.0138667
698.661	0.0140535
698.739	0.0143259
698.818	0.0144521
698.896	0.0146586
698.974	0.0147834
699.052	0.0148792
699.130	0.0150805
699.208	0.0150993
699.286	0.0154248
699.364	0.0152537
699.443	0.0153356
699.521	0.0155101
699.599	0.0156435
699.677	0.0158060
699.755	0.0158315
699.833	0.0158686
699.911	0.0159624
699.989	0.0161230
700.068	0.0160803
700.146	0.0162442
700.224	0.0162154
700.302	0.0160236
700.380	0.0160941
700.458	0.0160224
700.536	0.0160149
700.614	0.0160033
700.693	0.0159289
700.771	0.0158731
700.849	0.0155289
700.927	0.0154131
701.005	0.0153304
701.083	0.0153090
701.161	0.0150859
701.239	0.0147308
701.318	0.0145280
701.396	0.0143638
701.474	0.0140778
701.552	0.0138063
701.630	0.0137019
701.708	0.0135368
701.786	0.0133863
701.864	0.0130402
701.943	0.0127072
702.021	0.0126750
702.099	0.0125945
702.177	0.0123978
702.255	0.0124004
702.333	0.0121439
702.411	0.0120387
702.489	0.0119758
702.568	0.0119104
702.646	0.0116702
702.724	0.0116499
702.802	0.0116099
702.880	0.0116998
702.958	0.0116216
703.036	0.0117507
703.114	0.0118868
703.193	0.0117375
703.271	0.0117908
703.349	0.0119811
703.427	0.0121048
703.505	0.0121759
703.583	0.0123624
703.661	0.0125529
703.739	0.0127632
703.818	0.0129401
703.896	0.0129752
703.974	0.0132036
704.052	0.0135165
704.130	0.0138303
704.208	0.0137847
704.286	0.0139192
704.364	0.0143000
704.443	0.0143270
704.521	0.0144865
704.599	0.0147598
704.677	0.0148624
704.755	0.0151190
704.833	0.0151966
704.911	0.0151505
704.989	0.0154006
705.068	0.0155892
705.146	0.0157576
705.224	0.0158223
705.302	0.0158643
705.380	0.0160907
705.458	0.0161604
705.536	0.0163425
705.614	0.0163496
705.693	0.0163375
705.771	0.0163695
705.849	0.0164539
705.927	0.0164918
706.005	0.0165218
706.083	0.0162480
706.161	0.0164120
706.239	0.0162053
706.318	0.0160129
706.396	0.0160547
706.474	0.0157563
706.552	0.0155588
706.630	0.0154092
706.708	0.0151181
706.786	0.0149869
706.864	0.0147186
706.943	0.0145247
707.021	0.0142562
707.099	0.0138271
707.177	0.0137797
707.255	0.0134562
707.333	0.0131084
707.411	0.0127932
707.489	0.0126698
707.568	0.0124982
707.646	0.0124464
707.724	0.0121078
707.802	0.0118491
707.880	0.0118614
707.958	0.0117729
708.036	0.0117352
708.114	0.0114783
708.193	0.0114513
708.271	0.0113294
708.349	0.0112360
708.427	0.0111217
708.505	0.0112678
708.583	0.0112762
708.661	0.0112696
708.739	0.0113354
708.818	0.0113870
708.896	0.0115907
708.974	0.0117241
709.052	0.0118666
709.130	0.0118439
709.208	0.0120629
709.286	0.0125459
709.364	0.0126259
709.443	0.0127134
709.521	0.0129579
709.599	0.0131799
709.677	0.0136682
709.755	0.0137532
709.833	0.0141184
709.911	0.0143204
709.989	0.0145557
710.068	0.0147542
710.146	0.0149384
710.224	0.0152119
710.302	0.0151707
710.380	0.0153171
710.458	0.0154247
710.536	0.0158479
710.614	0.0158727
710.693	0.0159396
710.771	0.0160583
710.849	0.0160686
710.927	0.0161300
711.005	0.0162547
711.083	0.0160925
711.161	0.0161794
711.239	0.0161574
711.318	0.0161842
711.396	0.0161227
711.474	0.0161585
711.552	0.0161741
711.630	0.0160395
711.708	0.0158909
711.786	0.0160330
711.864	0.0158286
711.943	0.0157402
712.021	0.0156529
712.099	0.0154639
712.177	0.0153815
712.255	0.0153515
712.333	0.0150614
712.411	0.0150443
712.489	0.0149004
712.568	0.0146687
712.646	0.0146030
712.724	0.0144541
712.802	0.0139729
712.880	0.0139176
712.958	0.0138434
713.036	0.0136003
713.114	0.0133238
713.193	0.0131774
713.271	0.0128035
713.349	0.0126794
713.427	0.0125150
713.505	0.0122202
713.583	0.0119379
713.661	0.0119814
713.739	0.0118429
713.818	0.0115588
713.896	0.0114347
713.974	0.0112106
714.052	0.0112037
714.130	0.0113088
714.208	0.0111649
714.286	0.0109941
714.364	0.0111631
714.443	0.0110380
714.521	0.0110888
714.599	0.0110563
714.677	0.0111901
714.755	0.0114054
714.833	0.0114480
714.911	0.0117160
714.989	0.0119585
715.068	0.0120480
715.146	0.0121717
715.224	0.0125137
715.302	0.0128648
715.380	0.0130299
715.458	0.0133647
715.536	0.0137343
715.614	0.0139907
715.693	0.0144704
715.771	0.0146873
715.849	0.0148385
715.927	0.0151393
716.005	0.0155234
716.083	0.0157821
716.161	0.0160387
716.239	0.0163170
716.318	0.0164719
716.396	0.0164822
716.474	0.0166859
716.552	0.0167664
716.630	0.0170471
716.708	0.0169293
716.786	0.0169044
716.864	0.0169434
716.943	0.0167926
717.021	0.0166622
717.099	0.0165572
717.177	0.0163435
717.255	0.0163299
717.333	0.0161035
717.411	0.0157470
717.489	0.0156012
717.568	0.0153065
717.646	0.0150584
717.724	0.0147323
717.802	0.0145625
717.880	0.0142584
717.958	0.0139539
718.036	0.0136964
718.114	0.0133261
718.193	0.0132787
718.271	0.0130453
718.349	0.0130431
718.427	0.0130164
718.505	0.0129234
718.583	0.0126963
718.661	0.0125794
718.739	0.0126018
718.818	0.0125000
718.896	0.0124100
718.974	0.0123281
719.052	0.0123888
719.130	0.0124323
719.208	0.0121590
719.286	0.0123611
719.364	0.0125282
719.443	0.0124635
719.521	0.0122483
719.599	0.0121767
719.677	0.0123853
719.755	0.0124625
719.833	0.0124154
719.911	0.0125820
719.989	0.0125032
720.068	0.0126083
720.146	0.0126469
720.224	0.0127139
720.302	0.0128119
720.380	0.0130006
720.458	0.0128794
720.536	0.0132488
720.614	0.0133318
720.693	0.0134302
720.771	0.0135033
720.849	0.0135786
720.927	0.0138957
721.005	0.0139803
721.083	0.0142216
721.161	0.0142799
721.239	0.0143319
721.318	0.0144716
721.396	0.0146960
721.474	0.0147925
721.552	0.0148118
721.630	0.0148530
721.708	0.0149897
721.786	0.0149708
721.864	0.0148844
721.943	0.0150575
722.021	0.0149874
722.099	0.0148130
722.177	0.0147930
722.255	0.0147218
722.333	0.0145962
722.411	0.0147114
722.489	0.0143900
722.568	0.0144398
722.646	0.0143940
722.724	0.0142493
722.802	0.0142937
722.880	0.0143209
722.958	0.0143348
723.036	0.0144116
723.114	0.0143990
723.193	0.0144270
723.271	0.0144349
723.349	0.0144968
723.427	0.0145510
723.505	0.0146496
723.583	0.0145921
723.661	0.0147700
723.739	0.0146828
723.818	0.0147696
723.896	0.0148116
723.974	0.0146423
724.052	0.0147849
724.130	0.0147530
724.208	0.0147336
724.286	0.0146431
724.364	0.0145930
724.443	0.0143637
724.521	0.0144396
724.599	0.0143490
724.677	0.0142075
724.755	0.0140366
724.833	0.0138785
724.911	0.0137994
724.989	0.0137187
725.068	0.0134795
725.146	0.0133118
725.224	0.0134415
725.302	0.0131631
725.380	0.0131052
725.458	0.0131020
725.536	0.0130328
725.614	0.0129861
725.693	0.0129883
725.771	0.0128954
725.849	0.0129571
725.927	0.0129398
726.005	0.0129053
726.083	0.0130386
726.161	0.0130284
726.239	0.0129758
726.318	0.0132167
726.396	0.0131531
726.474	0.0132187
726.552	0.0132710
726.630	0.0132881
726.708	0.0132835
726.786	0.0134177
726.864	0.0134815
726.943	0.0135170
727.021	0.0135178
727.099	0.0137087
727.177	0.0136779
727.255	0.0137083
727.333	0.0137840
727.411	0.0137816
727.489	0.0139652
727.568	0.0139669
727.646	0.0139694
727.724	0.0138171
727.802	0.0141348
727.880	0.0140891
727.958	0.0138676
728.036	0.0140460
728.114	0.0142288
728.193	0.0141217
728.271	0.0141725
728.349	0.0142236
728.427	0.0143360
728.505	0.0144413
728.583	0.0144337
728.661	0.0145445
728.739	0.0144504
728.818	0.0147524
728.896	0.0148278
728.974	0.0147700
729.052	0.0147483
729.130	0.0146854
729.208	0.0148072
729.286	0.0149139
729.364	0.0147301
729.443	0.0144787
729.521	0.0146857
729.599	0.0145769
729.677	0.0144474
729.755	0.0145547
729.833	0.0145005
729.911	0.0143131
729.989	0.0141597
730.068	0.0141497
730.146	0.0142013
730.224	0.0142036
730.302	0.0140757
730.380	0.0140723
730.458	0.0141076
730.536	0.0140890
730.614	0.0140884
730.693	0.0140981
730.771	0.0140659
730.849	0.0140720
730.927	0.0141104
731.005	0.0141437
731.083	0.0141640
731.161	0.0141277
731.239	0.0142182
731.318	0.0142097
731.396	0.0142581
731.474	0.0141714
731.552	0.0142697
731.630	0.0142849
731.708	0.0143043
731.786	0.0141872
731.864	0.0140712
731.943	0.0140905
732.021	0.0139648
732.099	0.0139999
732.177	0.0140008
732.255	0.0137429
732.333	0.0136191
732.411	0.0136124
732.489	0.0134303
732.568	0.0133432
732.646	0.0133493
732.724	0.0132748
732.802	0.0131738
732.880	0.0130765
732.958	0.0130295
733.036	0.0129753
733.114	0.0129203
733.193	0.0128297
733.271	0.0128667
733.349	0.0126671
733.427	0.0127905
733.505	0.0128835
733.583	0.0128473
733.661	0.0128657
733.739	0.0130019
733.818	0.0131483
733.896	0.0132444
733.974	0.0134099
734.052	0.0134759
734.130	0.0136459
734.208	0.0136768
734.286	0.0138428
734.364	0.0141476
734.443	0.0141596
734.521	0.0143602
734.599	0.0143344
734.677	0.0144218
734.755	0.0145432
734.833	0.0146431
734.911	0.0147010
734.989	0.0148182
735.068	0.0147349
735.146	0.0148981
735.224	0.0147578
735.302	0.0147333
735.380	0.0148691
735.458	0.0148979
735.536	0.0149809
735.614	0.0149062
735.693	0.0149069
735.771	0.0148646
735.849	0.0148442
735.927	0.0149319
736.005	0.0150275
736.083	0.0149187
736.161	0.0149615
736.239	0.0149169
736.318	0.0148968
736.396	0.0149731
736.474	0.0149495
736.552	0.0147118
736.630	0.0150056
736.708	0.0148710
736.786	0.0147796
736.864	0.0147628
736.943	0.0146920
737.021	0.0146436
737.099	0.0144748
737.177	0.0143876
737.255	0.0142431
737.333	0.0142490
737.411	0.0141926
737.489	0.0139481
737.568	0.0137091
737.646	0.0137305
737.724	0.0134512
737.802	0.0134163
737.880	0.0132283
737.958	0.0130297
738.036	0.0129451
738.114	0.0128647
738.193	0.0126861
738.271	0.0128312
738.349	0.0127918
738.427	0.0126945
738.505	0.0124485
738.583	0.0126242
738.661	0.0126340
738.739	0.0126048
738.818	0.0126109
738.896	0.0126118
738.974	0.0127244
739.052	0.0127576
739.130	0.0128357
739.208	0.0129078
739.286	0.0130255
739.364	0.0131041
739.443	0.0131647
739.521	0.0132803
739.599	0.0132018
739.677	0.0136121
739.755	0.0135983
739.833	0.0138634
739.911	0.0139370
739.989	0.0140202
740.068	0.0141047
740.146	0.0143020
740.224	0.0142738
740.302	0.0145185
740.380	0.0145167
740.458	0.0145174
740.536	0.0146677
740.614	0.0147883
740.693	0.0149599
740.771	0.0149303
740.849	0.0150314
740.927	0.0150361
741.005	0.0149764
741.083	0.0150309
741.161	0.0151414
741.239	0.0150117
741.318	0.0152014
741.396	0.0150363
741.474	0.0150398
741.552	0.0150352
741.630	0.0149225
741.708	0.0149568
741.786	0.0149723
741.864	0.0151178
741.943	0.0148871
742.021	0.0149281
742.099	0.0148412
742.177	0.0146167
742.255	0.0146648
742.333	0.0146589
742.411	0.0145293
742.489	0.0144108
742.568	0.0144341
742.646	0.0143127
742.724	0.0141599
742.802	0.0142114
742.880	0.0140589
742.958	0.0139651
743.036	0.0139718
743.114	0.0138512
743.193	0.0136797
743.271	0.0136317
743.349	0.0136761
743.427	0.0135877
743.505	0.0134084
743.583	0.0133306
743.661	0.0132011
743.739	0.0131042
743.818	0.0131387
743.896	0.0131723
743.974	0.0130928
744.052	0.0130228
744.130	0.0129189
744.208	0.0129336
744.286	0.0130470
744.364	0.0131161
744.443	0.0132052
744.521	0.0132681
744.599	0.0133018
744.677	0.0131643
744.755	0.0133951
744.833	0.0132990
744.911	0.0134431
744.989	0.0134808
745.068	0.0136620
745.146	0.0136938
745.224	0.0136274
745.302	0.0136922
745.380	0.0138701
745.458	0.0138850
745.536	0.0140100
745.614	0.0140461
745.693	0.0140359
745.771	0.0141814
745.849	0.0142694
745.927	0.0142933
746.005	0.0143256
746.083	0.0142178
746.161	0.0145164
746.239	0.0144840
746.318	0.0145009
746.396	0.0146973
746.474	0.0144660
746.552	0.0147057
746.630	0.0147839
746.708	0.0147361
746.786	0.0147829
746.864	0.0147970
746.943	0.0148006
747.021	0.0146889
747.099	0.0147292
747.177	0.0146927
747.255	0.0148161
747.333	0.0148159
747.411	0.0147204
747.489	0.0146205
747.568	0.0147363
747.646	0.0147353
747.724	0.0144691
747.802	0.0144007
747.880	0.0143285
747.958	0.0142532
748.036	0.0141351
748.114	0.0140456
748.193	0.0139828
748.271	0.0139144
748.349	0.0137316
748.427	0.0138048
748.505	0.0136689
748.583	0.0134686
748.661	0.0133536
748.739	0.0133627
748.818	0.0133131
748.896	0.0133012
748.974	0.0134672
749.052	0.0133748
749.130	0.0132782
749.208	0.0132524
749.286	0.0134019
749.364	0.0132109
749.443	0.0134988
749.521	0.0133514
749.599	0.0136794
749.677	0.0137178
749.755	0.0136874
749.833	0.0136678
749.911	0.0137901
749.989	0.0138222
750.068	0.0138858
750.146	0.0140209
750.224	0.0139042
750.302	0.0138567
750.380	0.0141330
750.458	0.0140681
750.536	0.0140638
750.614	0.0141727
750.693	0.0143224
750.771	0.0141561
750.849	0.0142448
750.927	0.0142757
751.005	0.0142632
751.083	0.0143137
751.161	0.0143024
751.239	0.0143282
751.318	0.0143429
751.396	0.0141774
751.474	0.0141493
751.552	0.0143717
751.630	0.0143176
751.708	0.0144260
751.786	0.0143235
751.864	0.0143423
751.943	0.0143333
752.021	0.0143336
752.099	0.0143171
752.177	0.0143751
752.255	0.0142184
752.333	0.0142219
752.411	0.0142224
752.489	0.0142245
752.568	0.0140638
752.646	0.0141419
752.724	0.0140421
752.802	0.0141136
752.880	0.0140571
752.958	0.0141119
753.036	0.0138406
753.114	0.0138970
753.193	0.0139627
753.271	0.0138951
753.349	0.0139397
753.427	0.0139669
753.505	0.0138033
753.583	0.0139004
753.661	0.0138101
753.739	0.0137341
753.818	0.0138371
753.896	0.0136240
753.974	0.0137562
754.052	0.0137337
754.130	0.0136922
754.208	0.0136741
754.286	0.0137357
754.364	0.0137689
754.443	0.0137802
754.521	0.0138599
754.599	0.0138858
754.677	0.0138889
754.755	0.0139996
754.833	0.0138883
754.911	0.0139848
754.989	0.0140257
755.068	0.0140017
755.146	0.0141489
755.224	0.0141833
755.302	0.0140871
755.380	0.0143134
755.458	0.0144216
755.536	0.0142677
755.614	0.0141809
755.693	0.0143318
755.771	0.0143137
755.849	0.0142116
755.927	0.0141968
756.005	0.0143496
756.083	0.0142591
756.161	0.0142625
756.239	0.0142079
756.318	0.0143788
756.396	0.0142229
756.474	0.0141076
756.552	0.0142216
756.630	0.0141472
756.708	0.0140674
756.786	0.0140472
756.864	0.0139678
756.943	0.0139006
757.021	0.0138871
757.099	0.0139617
757.177	0.0138111
757.255	0.0138348
757.333	0.0138596
757.411	0.0138454
757.489	0.0137493
757.568	0.0137971
757.646	0.0138686
757.724	0.0139175
757.802	0.0138654
757.880	0.0137994
757.958	0.0138747
758.036	0.0139414
758.114	0.0141061
758.193	0.0140021
758.271	0.0140596
758.349	0.0140569
758.427	0.0141281
758.505	0.0141901
758.583	0.0141641
758.661	0.0142123
758.739	0.0142792
758.818	0.0143330
758.896	0.0141370
758.974	0.0143568
759.052	0.0144151
759.130	0.0143421
759.208	0.0141566
759.286	0.0144175
759.364	0.0143600
759.443	0.0142659
759.521	0.0141918
759.599	0.0142079
759.677	0.0143597
759.755	0.0143062
759.833	0.0143114
759.911	0.0142973
759.989	0.0142080
760.068	0.0143447
760.146	0.0141814
760.224	0.0143063
760.302	0.0144160
760.380	0.0144281
760.458	0.0141956
760.536	0.0140818
760.614	0.0142169
760.693	0.0141173
760.771	0.0138939
760.849	0.0140186
760.927	0.0139782
761.005	0.0138852
761.083	0.0138155
761.161	0.0136903
761.239	0.0138160
761.318	0.0136905
761.396	0.0135943
761.474	0.0135313
761.552	0.0137367
761.630	0.0136189
761.708	0.0135324
761.786	0.0135257
761.864	0.0136821
761.943	0.0136430
762.021	0.0135075
762.099	0.0137415
762.177	0.0136105
762.255	0.0138181
762.333	0.0138327
762.411	0.0137771
762.489	0.0139292
762.568	0.0139180
762.646	0.0140057
762.724	0.0137884
762.802	0.0137640
762.880	0.0140398
762.958	0.0141677
763.036	0.0140451
763.114	0.0139311
763.193	0.0139467
763.271	0.0138540
763.349	0.0141230
763.427	0.0141506
763.505	0.0141347
763.583	0.0142822
763.661	0.0142635
763.739	0.0141558
763.818	0.0141924
763.896	0.0142019
763.974	0.0142951
764.052	0.0144662
764.130	0.0144784
764.208	0.0145142
764.286	0.0144756
764.364	0.0146374
764.443	0.0146128
764.521	0.0146806
764.599	0.0147301
764.677	0.0146861
764.755	0.0147926
764.833	0.0147626
764.911	0.0147306
764.989	0.0146029
765.068	0.0146070
765.146	0.0144912
765.224	0.0144460
765.302	0.0144728
765.380	0.0143958
765.458	0.0142302
765.536	0.0141445
765.614	0.0141123
765.693	0.0140850
765.771	0.0139696
765.849	0.0138578
765.927	0.0139126
766.005	0.0138427
766.083	0.0136639
766.161	0.0137028
766.239	0.0137908
766.318	0.0137364
766.396	0.0136344
766.474	0.0138520
766.552	0.0135619
766.630	0.0135580
766.708	0.0136263
766.786	0.0136588
766.864	0.0137523
766.943	0.0137318
767.021	0.0138623
767.099	0.0138056
767.177	0.0138583
767.255	0.0138751
767.333	0.0139652
767.411	0.0139014
767.489	0.0140075
767.568	0.0141375
767.646	0.0140697
767.724	0.0139773
767.802	0.0140266
767.880	0.0140660
767.958	0.0141196
768.036	0.0140646
768.114	0.0142640
768.193	0.0143073
768.271	0.0142812
768.349	0.0143016
768.427	0.0144378
768.505	0.0143487
768.583	0.0144817
768.661	0.0146116
768.739	0.0145879
768.818	0.0143396
768.896	0.0144055
768.974	0.0143294
769.052	0.0143816
769.130	0.0143474
769.208	0.0143880
769.286	0.0144100
769.364	0.0141874
769.443	0.0143303
769.521	0.0141740
769.599	0.0141853
769.677	0.0141611
769.755	0.0141256
769.833	0.0140387
769.911	0.0138062
769.989	0.0137305
770.068	0.0138018
770.146	0.0137679
770.224	0.0136771
770.302	0.0135670
770.380	0.0135255
770.458	0.0135377
770.536	0.0135138
770.614	0.0133458
770.693	0.0133330
770.771	0.0133900
770.849	0.0133980
770.927	0.0133718
771.005	0.0133018
771.083	0.0133862
771.161	0.0133871
771.239	0.0132877
771.318	0.0135203
771.396	0.0135457
771.474	0.0135830
771.552	0.0136055
771.630	0.0137845
771.708	0.0138371
771.786	0.0137137
771.864	0.0137855
771.943	0.0138918
772.021	0.0140845
772.099	0.0139827
772.177	0.0141306
772.255	0.0142677
772.333	0.0142389
772.411	0.0142702
772.489	0.0142126
772.568	0.0143867
772.646	0.0142828
772.724	0.0143382
772.802	0.0143726
772.880	0.0144699
772.958	0.0144508
773.036	0.0143745
773.114	0.0143665
773.193	0.0143520
773.271	0.0143595
773.349	0.0143270
773.427	0.0144632
773.505	0.0144167
773.583	0.0143038
773.661	0.0142511
773.739	0.0142525
773.818	0.0142199
773.896	0.0141017
773.974	0.0140781
774.052	0.0140697
774.130	0.0139394
774.208	0.0139705
774.286	0.0138346
774.364	0.0138446
774.443	0.0137903
774.521	0.0136132
774.599	0.0137337
774.677	0.0135705
774.755	0.0135351
774.833	0.0135732
774.911	0.0135478
774.989	0.0135519
775.068	0.0135258
775.146	0.0135532
775.224	0.0135292
775.302	0.0136554
775.380	0.0133784
775.458	0.0136803
775.536	0.0137603
775.614	0.0137091
775.693	0.0135557
775.771	0.0135489
775.849	0.0134351
775.927	0.0136095
776.005	0.0137300
776.083	0.0137462
776.161	0.0136579
776.239	0.0138319
776.318	0.0138940
776.396	0.0138070
776.474	0.0138229
776.552	0.0138712
776.630	0.0139060
776.708	0.0139023
776.786	0.0138679
776.864	0.0139532
776.943	0.0139617
777.021	0.0140103
777.099	0.0139970
777.177	0.0140243
777.255	0.0141586
777.333	0.0142429
777.411	0.0141381
777.489	0.0142700
777.568	0.0142598
777.646	0.0144350
777.724	0.0143568
777.802	0.0142841
777.880	0.0143144
777.958	0.0144106
778.036	0.0143415
778.114	0.0143810
778.193	0.0144416
778.271	0.0145236
778.349	0.0144071
778.427	0.0143412
778.505	0.0143867
778.583	0.0142400
778.661	0.0141850
778.739	0.0141908
778.818	0.0140056
778.896	0.0138764
778.974	0.0138300
779.052	0.0137704
779.130	0.0137412
779.208	0.0137688
779.286	0.0136451
779.364	0.0135175
779.443	0.0134280
779.521	0.0135037
779.599	0.0136105
779.677	0.0136014
779.755	0.0136437
779.833	0.0137183
779.911	0.0136653
779.989	0.0136803
780.068	0.0136561
780.146	0.0137108
780.224	0.0137119
780.302	0.0138924
780.380	0.0139188
780.458	0.0141196
780.536	0.0142274
780.614	0.0140804
780.693	0.0140545
780.771	0.0139994
780.849	0.0141357
780.927	0.0141181
781.005	0.0142673
781.083	0.0144444
781.161	0.0143386
781.239	0.0142168
781.318	0.0142557
781.396	0.0143620
781.474	0.0142866
781.552	0.0143530
781.630	0.0143751
781.708	0.0143262
781.786	0.0143690
781.864	0.0144881
781.943	0.0143893
782.021	0.0144193
782.099	0.0143783
782.177	0.0143499
782.255	0.0144153
782.333	0.0144062
782.411	0.0144366
782.489	0.0142574
782.568	0.0142020
782.646	0.0140791
782.724	0.0140459
782.802	0.0141938
782.880	0.0140853
782.958	0.0139864
783.036	0.0139582
783.114	0.0138661
783.193	0.0138576
783.271	0.0137543
783.349	0.0136438
783.427	0.0136909
783.505	0.0137844
783.583	0.0136676
783.661	0.0136552
783.739	0.0136923
783.818	0.0136886
783.896	0.0136693
783.974	0.0137501
784.052	0.0137598
784.130	0.0137156
784.208	0.0137682
784.286	0.0137827
784.364	0.0137143
784.443	0.0138031
784.521	0.0138895
784.599	0.0139256
784.677	0.0139509
784.755	0.0141088
784.833	0.0142078
784.911	0.0140313
784.989	0.0140105
785.068	0.0140952
785.146	0.0142562
785.224	0.0141034
785.302	0.0142245
785.380	0.0142815
785.458	0.0142208
785.536	0.0142725
785.614	0.0144285
785.693	0.0144077
785.771	0.0144598
785.849	0.0144032
785.927	0.0144206
786.005	0.0144764
786.083	0.0145089
786.161	0.0147142
786.239	0.0144994
786.318	0.0144413
786.396	0.0145035
786.474	0.0145260
786.552	0.0144912
786.630	0.0143216
786.708	0.0144647
786.786	0.0143763
786.864	0.0143185
786.943	0.0143392
787.021	0.0141765
787.099	0.0142557
787.177	0.0141994
787.255	0.0142145
787.333	0.0140675
787.411	0.0140041
787.489	0.0139452
787.568	0.0138473
787.646	0.0137862
787.724	0.0136295
787.802	0.0136357
787.880	0.0135781
787.958	0.0136262
788.036	0.0136298
788.114	0.0134051
788.193	0.0135061
788.271	0.0134525
788.349	0.0133665
788.427	0.0133432
788.505	0.0132400
788.583	0.0132550
788.661	0.0132163
788.739	0.0134196
788.818	0.0133873
788.896	0.0133144
788.974	0.0133994
789.052	0.0132616
789.130	0.0131950
789.208	0.0133923
789.286	0.0135297
789.364	0.0134595
789.443	0.0136258
789.521	0.0137235
789.599	0.0136755
789.677	0.0136658
789.755	0.0139137
789.833	0.0140131
789.911	0.0140495
789.989	0.0141746
790.068	0.0142258
790.146	0.0142151
790.224	0.0143715
790.302	0.0144666
790.380	0.0144820
790.458	0.0145460
790.536	0.0145593
790.614	0.0145003
790.693	0.0145946
790.771	0.0146576
790.849	0.0144622
790.927	0.0143129
791.005	0.0144311
791.083	0.0144393
791.161	0.0143456
791.239	0.0143664
791.318	0.0142754
791.396	0.0142810
791.474	0.0141663
791.552	0.0139935
791.630	0.0142360
791.708	0.0141886
791.786	0.0141109
791.864	0.0142325
791.943	0.0141431
792.021	0.0141624
792.099	0.0141087
792.177	0.0140363
792.255	0.0140582
792.333	0.0140257
792.411	0.0138953
792.489	0.0137663
792.568	0.0138030
792.646	0.0137468
792.724	0.0137160
792.802	0.0135847
792.880	0.0136412
792.958	0.0137950
793.036	0.0134496
793.114	0.0134473
793.193	0.0135047
793.271	0.0135159
793.349	0.0134511
793.427	0.0135015
793.505	0.0133794
793.583	0.0134580
793.661	0.0133882
793.739	0.0133618
793.818	0.0134274
793.896	0.0134816
793.974	0.0134415
794.052	0.0134117
794.130	0.0134776
794.208	0.0134997
794.286	0.0135637
794.364	0.0135314
794.443	0.0136895
794.521	0.0137367
794.599	0.0137947
794.677	0.0138634
794.755	0.0137072
794.833	0.0138181
794.911	0.0138239
794.989	0.0138128
795.068	0.0139728
795.146	0.0140871
795.224	0.0141081
795.302	0.0140837
795.380	0.0141660
795.458	0.0141958
795.536	0.0143247
795.614	0.0142311
795.693	0.0139740
795.771	0.0142659
795.849	0.0143719
795.927	0.0141628
796.005	0.0142160
796.083	0.0143850
796.161	0.0143833
796.239	0.0142483
796.318	0.0142772
796.396	0.0143643
796.474	0.0142907
796.552	0.0143387
796.630	0.0143281
796.708	0.0142855
796.786	0.0142752
796.864	0.0144276
796.943	0.0144397
797.021	0.0144295
797.099	0.0142518
797.177	0.0143102
797.255	0.0142540
797.333	0.0141244
797.411	0.0142043
797.489	0.0142807
797.568	0.0139967
797.646	0.0140294
797.724	0.0140436
797.802	0.0141022
797.880	0.0140220
797.958	0.0140244
798.036	0.0139165
798.114	0.0137693
798.193	0.0137835
798.271	0.0139559
798.349	0.0138135
798.427	0.0138786
798.505	0.0137903
798.583	0.0137754
798.661	0.0137233
798.739	0.0137093
798.818	0.0136701
798.896	0.0135816
798.974	0.0135487
799.052	0.0136146
799.130	0.0136881
799.208	0.0135293
799.286	0.0134691
799.364	0.0135625
799.443	0.0135035
799.521	0.0135283
799.599	0.0133465
799.677	0.0136966
799.755	0.0135490
799.833	0.0135195
799.911	0.0135558
799.989	0.0133759
800.068	0.0135152
800.146	0.0136654
800.224	0.0135802
800.302	0.0135808
800.380	0.0136802
800.458	0.0138280
800.536	0.0137368
800.614	0.0138155
800.693	0.0139291
800.771	0.0139753
800.849	0.0140024
800.927	0.0143008
801.005	0.0141961
801.083	0.0140154
801.161	0.0140117
801.239	0.0141183
801.318	0.0140797
801.396	0.0142767
801.474	0.0142693
801.552	0.0143179
801.630	0.0142806
801.708	0.0142532
801.786	0.0142794
801.864	0.0142654
801.943	0.0144332
802.021	0.0144903
802.099	0.0143401
802.177	0.0145132
802.255	0.0143871
802.333	0.0145102
802.411	0.0144736
802.489	0.0144785
802.568	0.0145901
802.646	0.0144483
802.724	0.0144626
802.802	0.0143124
802.880	0.0143845
802.958	0.0145029
803.036	0.0142120
803.114	0.0142470
803.193	0.0142213
803.271	0.0140446
803.349	0.0140991
803.427	0.0140174
803.505	0.0139079
803.583	0.0137922
803.661	0.0137224
803.739	0.0138869
803.818	0.0137157
803.896	0.0136678
803.974	0.0136481
804.052	0.0135600
804.130	0.0135888
804.208	0.0134338
804.286	0.0133159
804.364	0.0136050
804.443	0.0134621
804.521	0.0133499
804.599	0.0133800
804.677	0.0133548
804.755	0.0133535
804.833	0.0133058
804.911	0.0132947
804.989	0.0133226
805.068	0.0131967
805.146	0.0132481
805.224	0.0131805
805.302	0.0133233
805.380	0.0134303
805.458	0.0133179
805.536	0.0132022
805.614	0.0133952
805.693	0.0135686
805.771	0.0134634
805.849	0.0134970
805.927	0.0136594
806.005	0.0136005
806.083	0.0136016
806.161	0.0136435
806.239	0.0138145
806.318	0.0138613
806.396	0.0138775
806.474	0.0138770
806.552	0.0139857
806.630	0.0141187
806.708	0.0140628
806.786	0.0141879
806.864	0.0142748
806.943	0.0144255
807.021	0.0143865
807.099	0.0144329
807.177	0.0145871
807.255	0.0146651
807.333	0.0146688
807.411	0.0145895
807.489	0.0146729
807.568	0.0146971
807.646	0.0146312
807.724	0.0147177
807.802	0.0147603
807.880	0.0146268
807.958	0.0146803
808.036	0.0147731
808.114	0.0146043
808.193	0.0145461
808.271	0.0145095
808.349	0.0146234
808.427	0.0145110
808.505	0.0144397
808.583	0.0143458
808.661	0.0143404
808.739	0.0142656
808.818	0.0143806
808.896	0.0142162
808.974	0.0141659
809.052	0.0139777
809.130	0.0139051
809.208	0.0139386
809.286	0.0139152
809.364	0.0139777
809.443	0.0137116
809.521	0.0137877
809.599	0.0136824
809.677	0.0136634
809.755	0.0135009
809.833	0.0133706
809.911	0.0133829
809.989	0.0133392
810.068	0.0133426
810.146	0.0132862
810.224	0.0131839
810.302	0.0130987
810.380	0.0131956
810.458	0.0130778
810.536	0.0130930
810.614	0.0130462
810.693	0.0129050
810.771	0.0129897
810.849	0.0131753
810.927	0.0131699
811.005	0.0130523
811.083	0.0131590
811.161	0.0132751
811.239	0.0132925
811.318	0.0133862
811.396	0.0135388
811.474	0.0136424
811.552	0.0135518
811.630	0.0138142
811.708	0.0139666
811.786	0.0141248
811.864	0.0140878
811.943	0.0142775
812.021	0.0143871
812.099	0.0145058
812.177	0.0144857
812.255	0.0146207
812.333	0.0145564
812.411	0.0146648
812.489	0.0146579
812.568	0.0146918
812.646	0.0145530
812.724	0.0145930
812.802	0.0145733
812.880	0.0143875
812.958	0.0145880
813.036	0.0145226
813.114	0.0144933
813.193	0.0144510
813.271	0.0144440
813.349	0.0142720
813.427	0.0144131
813.505	0.0144049
813.583	0.0144671
813.661	0.0144675
813.739	0.0142945
813.818	0.0142276
813.896	0.0143118
813.974	0.0142982
814.052	0.0141758
814.130	0.0142340
814.208	0.0141287
814.286	0.0140603
814.364	0.0139960
814.443	0.0139927
814.521	0.0139495
814.599	0.0139470
814.677	0.0139227
814.755	0.0136349
814.833	0.0136777
814.911	0.0136332
814.989	0.0135659
815.068	0.0136572
815.146	0.0136555
815.224	0.0135741
815.302	0.0133960
815.380	0.0136484
815.458	0.0134177
815.536	0.0135258
815.614	0.0135508
815.693	0.0133819
815.771	0.0136366
815.849	0.0135284
815.927	0.0133964
816.005	0.0134225
816.083	0.0135217
816.161	0.0135796
816.239	0.0136551
816.318	0.0135818
816.396	0.0133203
816.474	0.0134479
816.552	0.0135459
816.630	0.0134449
816.708	0.0135589
816.786	0.0136503
816.864	0.0135603
816.943	0.0136049
817.021	0.0136829
817.099	0.0137474
817.177	0.0138357
817.255	0.0137997
817.333	0.0138101
817.411	0.0137910
817.489	0.0138810
817.568	0.0139658
817.646	0.0139394
817.724	0.0141116
817.802	0.0141813
817.880	0.0140382
817.958	0.0141483
818.036	0.0141158
818.114	0.0141429
818.193	0.0142361
818.271	0.0139786
818.349	0.0142404
818.427	0.0142035
818.505	0.0142660
818.583	0.0141985
818.661	0.0140343
818.739	0.0140872
818.818	0.0142058
818.896	0.0143008
818.974	0.0141328
819.052	0.0141071
819.130	0.0141228
819.208	0.0141319
819.286	0.0139529
819.364	0.0140261
819.443	0.0140421
819.521	0.0139791
819.599	0.0139046
819.677	0.0138635
819.755	0.0140394
819.833	0.0138251
819.911	0.0136679
819.989	0.0138064
820.068	0.0137645
820.146	0.0137155
820.224	0.0135500
820.302	0.0135834
820.380	0.0137191
820.458	0.0135365
820.536	0.0138097
820.614	0.0137434
820.693	0.0137589
820.771	0.0137573
820.849	0.0137889
820.927	0.0136347
821.005	0.0138441
821.083	0.0139397
821.161	0.0138649
821.239	0.0140337
821.318	0.0140794
821.396	0.0141190
821.474	0.0140437
821.552	0.0142503
821.630	0.0143153
821.708	0.0142480
821.786	0.0143716
821.864	0.0143989
821.943	0.0143158
822.021	0.0143474
822.099	0.0144212
822.177	0.0143109
822.255	0.0143115
822.333	0.0142270
822.411	0.0142189
822.489	0.0140609
822.568	0.0140288
822.646	0.0140533
822.724	0.0139229
822.802	0.0138959
822.880	0.0138511
822.958	0.0138051
823.036	0.0137557
823.114	0.0137861
823.193	0.0136271
823.271	0.0136882
823.349	0.0136500
823.427	0.0138212
823.505	0.0137254
823.583	0.0135328
823.661	0.0137165
823.739	0.0136271
823.818	0.0136419
823.896	0.0136255
823.974	0.0138302
824.052	0.0137957
824.130	0.0138266
824.208	0.0138412
824.286	0.0138568
824.364	0.0138498
824.443	0.0139922
824.521	0.0139835
824.599	0.0139961
824.677	0.0141823
824.755	0.0141399
824.833	0.0141861
824.911	0.0142682
824.989	0.0143128
825.068	0.0143214
825.146	0.0144003
825.224	0.0143746
825.302	0.0145177
825.380	0.0144345
825.458	0.0145000
825.536	0.0144946
825.614	0.0144337
825.693	0.0144247
825.771	0.0143474
825.849	0.0143022
825.927	0.0143273
826.005	0.0143254
826.083	0.0142586
826.161	0.0141255
826.239	0.0140984
826.318	0.0140488
826.396	0.0139407
826.474	0.0139572
826.552	0.0138445
826.630	0.0138826
826.708	0.0137984
826.786	0.0138943
826.864	0.0138162
826.943	0.0138107
827.021	0.0138327
827.099	0.0138423
827.177	0.0138367
827.255	0.0138829
827.333	0.0139518
827.411	0.0140256
827.489	0.0140281
827.568	0.0141183
827.646	0.0139133
827.724	0.0139617
827.802	0.0140845
827.880	0.0141229
827.958	0.0140572
828.036	0.0140645
828.114	0.0140570
828.193	0.0141628
828.271	0.0140298
828.349	0.0140154
828.427	0.0140456
828.505	0.0141634
828.583	0.0142019
828.661	0.0141462
828.739	0.0140657
828.818	0.0142247
828.896	0.0141323
828.974	0.0142165
829.052	0.0140958
829.130	0.0139304
829.208	0.0139550
829.286	0.0139448
829.364	0.0138791
829.443	0.0138647
829.521	0.0136888
829.599	0.0136565
829.677	0.0136437
829.755	0.0135703
829.833	0.0135842
829.911	0.0135470
829.989	0.0135714
830.068	0.0135147
830.146	0.0133643
830.224	0.0135117
830.302	0.0134125
830.380	0.0135191
830.458	0.0135114
830.536	0.0136098
830.614	0.0136776
830.693	0.0135076
830.771	0.0135807
830.849	0.0138210
830.927	0.0137598
831.005	0.0138560
831.083	0.0139262
831.161	0.0140654
831.239	0.0140776
831.318	0.0140341
831.396	0.0141439
831.474	0.0142881
831.552	0.0143279
831.630	0.0143808
831.708	0.0145364
831.786	0.0145096
831.864	0.0145576
831.943	0.0145567
832.021	0.0146634
832.099	0.0147589
832.177	0.0147829
832.255	0.0144366
832.333	0.0145988
832.411	0.0145656
832.489	0.0145512
832.568	0.0145045
832.646	0.0142535
832.724	0.0142725
832.802	0.0143151
832.880	0.0142075
832.958	0.0141117
833.036	0.0140694
833.114	0.0138744
833.193	0.0136912
833.271	0.0137717
833.349	0.0138461
833.427	0.0137807
833.505	0.0136838
833.583	0.0137683
833.661	0.0137113
833.739	0.0137885
833.818	0.0138018
833.896	0.0139700
833.974	0.0138192
834.052	0.0138910
834.130	0.0140050
834.208	0.0139220
834.286	0.0139436
834.364	0.0139098
834.443	0.0140380
834.521	0.0140205
834.599	0.0140923
834.677	0.0141728
834.755	0.0140306
834.833	0.0141467
834.911	0.0140674
834.989	0.0140667
835.068	0.0141054
835.146	0.0139289
835.224	0.0139520
835.302	0.0138605
835.380	0.0138840
835.458	0.0138500
835.536	0.0137219
835.614	0.0137570
835.693	0.0137473
835.771	0.0138034
835.849	0.0136127
835.927	0.0137398
836.005	0.0135388
836.083	0.0135342
836.161	0.0135648
836.239	0.0136263
836.318	0.0136926
836.396	0.0137140
836.474	0.0136768
836.552	0.0137780
836.630	0.0137626
836.708	0.0138000
836.786	0.0138070
836.864	0.0139912
836.943	0.0140631
837.021	0.0142963
837.099	0.0142079
837.177	0.0142367
837.255	0.0143058
837.333	0.0144367
837.411	0.0144902
837.489	0.0145623
837.568	0.0145165
837.646	0.0146582
837.724	0.0147617
837.802	0.0148534
837.880	0.0146587
837.958	0.0146338
838.036	0.0147732
838.114	0.0147599
838.193	0.0145991
838.271	0.0146694
838.349	0.0145787
838.427	0.0144984
838.505	0.0144004
838.583	0.0142936
838.661	0.0144043
838.739	0.0143430
838.818	0.0142118
838.896	0.0142053
838.974	0.0141380
839.052	0.0141840
839.130	0.0141347
839.208	0.0140147
839.286	0.0141098
839.364	0.0140525
839.443	0.0139648
839.521	0.0141248
839.599	0.0140298
839.677	0.0140465
839.755	0.0139532
839.833	0.0139056
839.911	0.0139978
839.989	0.0139568
840.068	0.0138628
840.146	0.0139877
840.224	0.0140435
840.302	0.0138498
840.380	0.0139603
840.458	0.0137975
840.536	0.0139130
840.614	0.0138105
840.693	0.0138589
840.771	0.0140009
840.849	0.0137479
840.927	0.0138839
841.005	0.0139873
841.083	0.0137904
841.161	0.0139267
841.239	0.0137702
841.318	0.0140147
841.396	0.0138085
841.474	0.0137955
841.552	0.0139278
841.630	0.0138427
841.708	0.0138593
841.786	0.0139465
841.864	0.0138730
841.943	0.0140107
842.021	0.0139567
842.099	0.0139868
842.177	0.0139742
842.255	0.0140409
842.333	0.0138544
842.411	0.0138587
842.489	0.0139194
842.568	0.0140928
842.646	0.0139704
842.724	0.0139677
842.802	0.0140199
842.880	0.0140340
842.958	0.0141058
843.036	0.0141637
843.114	0.0141668
843.193	0.0140755
843.271	0.0141692
843.349	0.0142764
843.427	0.0141754
843.505	0.0141469
843.583	0.0141182
843.661	0.0142251
843.739	0.0141805
843.818	0.0141266
843.896	0.0141029
843.974	0.0142842
844.052	0.0143642
844.130	0.0142227
844.208	0.0142017
844.286	0.0142463
844.364	0.0142634
844.443	0.0142460
844.521	0.0142964
844.599	0.0142642
844.677	0.0141234
844.755	0.0141097
844.833	0.0143968
844.911	0.0141283
844.989	0.0141832
845.068	0.0141187
845.146	0.0141261
845.224	0.0141228
845.302	0.0139164
845.380	0.0139724
845.458	0.0139103
845.536	0.0140646
845.614	0.0138398
845.693	0.0139209
845.771	0.0138076
845.849	0.0137149
845.927	0.0136708
846.005	0.0135355
846.083	0.0136102
846.161	0.0137017
846.239	0.0136419
846.318	0.0137190
846.396	0.0137135
846.474	0.0136450
846.552	0.0135848
846.630	0.0135021
846.708	0.0136101
846.786	0.0134127
846.864	0.0134973
846.943	0.0135379
847.021	0.0134592
847.099	0.0137059
847.177	0.0136463
847.255	0.0135562
847.333	0.0137044
847.411	0.0136790
847.489	0.0138472
847.568	0.0139452
847.646	0.0140868
847.724	0.0140487
847.802	0.0141804
847.880	0.0141428
847.958	0.0143487
848.036	0.0143046
848.114	0.0141978
848.193	0.0143170
848.271	0.0142440
848.349	0.0144431
848.427	0.0142248
848.505	0.0143095
848.583	0.0142635
848.661	0.0141307
848.739	0.0140439
848.818	0.0141386
848.896	0.0139947
848.974	0.0140430
849.052	0.0139719
849.130	0.0139063
849.208	0.0139643
849.286	0.0140540
849.364	0.0139599
849.443	0.0140118
849.521	0.0139127
849.599	0.0139368
849.677	0.0139882
849.755	0.0139921
849.833	0.0140263
849.911	0.0140727
849.989	0.0141180
850.068	0.0140744
850.146	0.0139722
850.224	0.0139507
850.302	0.0140746
850.380	0.0139863
850.458	0.0139107
850.536	0.0139513
850.614	0.0139170
850.693	0.0138606
850.771	0.0139426
850.849	0.0137778
850.927	0.0138633
851.005	0.0137448
851.083	0.0137121
851.161	0.0137017
851.239	0.0136201
851.318	0.0137508
851.396	0.0136459
851.474	0.0138378
851.552	0.0137598
851.630	0.0136954
851.708	0.0137744
851.786	0.0137228
851.864	0.0138767
851.943	0.0138978
852.021	0.0139045
852.099	0.0139337
852.177	0.0138113
852.255	0.0137224
852.333	0.0137964
852.411	0.0138980
852.489	0.0138318
852.568	0.0138542
852.646	0.0139885
852.724	0.0140033
852.802	0.0139185
852.880	0.0139999
852.958	0.0141119
853.036	0.0140726
853.114	0.0141543
853.193	0.0139702
853.271	0.0140857
853.349	0.0141134
853.427	0.0139989
853.505	0.0141525
853.583	0.0140651
853.661	0.0139436
853.739	0.0139848
853.818	0.0140364
853.896	0.0140662
853.974	0.0139404
854.052	0.0139624
854.130	0.0139902
854.208	0.0139422
854.286	0.0138892
854.364	0.0139360
854.443	0.0137666
854.521	0.0139340
854.599	0.0140413
854.677	0.0139091
854.755	0.0140772
854.833	0.0140096
854.911	0.0140882
854.989	0.0141618
855.068	0.0142361
855.146	0.0141418
855.224	0.0142115
855.302	0.0141971
855.380	0.0141322
855.458	0.0143414
855.536	0.0142516
855.614	0.0142422
855.693	0.0142415
855.771	0.0142361
855.849	0.0142332
855.927	0.0142065
856.005	0.0142153
856.083	0.0142912
856.161	0.0143355
856.239	0.0141563
856.318	0.0142293
856.396	0.0141309
856.474	0.0141171
856.552	0.0142272
856.630	0.0142462
856.708	0.0140762
856.786	0.0139396
856.864	0.0140498
856.943	0.0141808
857.021	0.0140302
857.099	0.0139742
857.177	0.0139472
857.255	0.0140162
857.333	0.0139865
857.411	0.0139096
857.489	0.0140553
857.568	0.0139866
857.646	0.0138932
857.724	0.0137960
857.802	0.0141223
857.880	0.0138902
857.958	0.0138396
858.036	0.0139310
858.114	0.0139442
858.193	0.0138667
858.271	0.0138995
858.349	0.0140098
858.427	0.0140213
858.505	0.0139548
858.583	0.0140131
858.661	0.0139403
858.739	0.0139416
858.818	0.0139086
858.896	0.0137959
858.974	0.0138508
859.052	0.0138975
859.130	0.0137378
859.208	0.0138815
859.286	0.0138996
859.364	0.0138569
859.443	0.0137562
859.521	0.0139114
859.599	0.0138958
859.677	0.0138699
859.755	0.0139801
859.833	0.0139935
859.911	0.0140389
859.989	0.0139906
860.068	0.0140831
860.146	0.0140502
860.224	0.0141286
860.302	0.0143330
860.380	0.0142068
860.458	0.0143584
860.536	0.0143181
860.614	0.0142310
860.693	0.0142092
860.771	0.0143936
860.849	0.0143686
860.927	0.0144173
861.005	0.0142988
861.083	0.0143237
861.161	0.0143232
861.239	0.0142711
861.318	0.0142406
861.396	0.0142979
861.474	0.0143304
861.552	0.0141422
861.630	0.0141511
861.708	0.0139854
861.786	0.0139072
861.864	0.0139425
861.943	0.0139501
862.021	0.0138195
862.099	0.0137605
862.177	0.0137842
862.255	0.0139404
862.333	0.0137949
862.411	0.0137343
862.489	0.0136765
862.568	0.0137290
862.646	0.0138165
862.724	0.0137854
862.802	0.0138895
862.880	0.0137754
862.958	0.0137130
863.036	0.0139687
863.114	0.0140462
863.193	0.0140018
863.271	0.0140159
863.349	0.0139612
863.427	0.0139434
863.505	0.0141101
863.583	0.0141070
863.661	0.0141441
863.739	0.0140014
863.818	0.0139275
863.896	0.0139835
863.974	0.0140146
864.052	0.0139481
864.130	0.0140073
864.208	0.0138374
864.286	0.0137157
864.364	0.0136884
864.443	0.0137338
864.521	0.0137263
864.599	0.0137186
864.677	0.0137180
864.755	0.0137686
864.833	0.0137524
864.911	0.0136596
864.989	0.0137983
865.068	0.0139027
865.146	0.0139212
865.224	0.0138472
865.302	0.0138267
865.380	0.0139242
865.458	0.0139379
865.536	0.0140153
865.614	0.0140623
865.693	0.0142336
865.771	0.0141817
865.849	0.0142668
865.927	0.0143575
866.005	0.0143070
866.083	0.0143771
866.161	0.0143730
866.239	0.0145856
866.318	0.0144682
866.396	0.0143655
866.474	0.0145012
866.552	0.0144596
866.630	0.0143536
866.708	0.0144090
866.786	0.0142780
866.864	0.0142941
866.943	0.0141934
867.021	0.0140933
867.099	0.0140037
867.177	0.0140023
867.255	0.0140618
867.333	0.0140681
867.411	0.0139742
867.489	0.0139018
867.568	0.0139491
867.646	0.0138210
867.724	0.0138600
867.802	0.0137351
867.880	0.0138269
867.958	0.0137408
868.036	0.0137624
868.114	0.0137918
868.193	0.0138826
868.271	0.0137790
868.349	0.0138832
868.427	0.0138761
868.505	0.0140684
868.583	0.0139697
868.661	0.0139510
868.739	0.0139657
868.818	0.0139070
868.896	0.0138757
868.974	0.0139299
869.052	0.0140237
869.130	0.0137134
869.208	0.0138165
869.286	0.0139312
869.364	0.0138678
869.443	0.0139667
869.521	0.0138901
869.599	0.0137591
869.677	0.0137463
869.755	0.0137885
869.833	0.0138139
869.911	0.0137964
869.989	0.0137892
870.068	0.0137892
870.146	0.0138278
870.224	0.0138806
870.302	0.0138688
870.380	0.0138667
870.458	0.0139861
870.536	0.0138619
870.614	0.0138434
870.693	0.0139352
870.771	0.0137634
870.849	0.0138832
870.927	0.0139389
871.005	0.0139574
871.083	0.0140005
871.161	0.0139576
871.239	0.0137416
871.318	0.0139531
871.396	0.0139572
871.474	0.0139427
871.552	0.0138519
871.630	0.0138510
871.708	0.0138848
871.786	0.0138546
871.864	0.0139223
871.943	0.0139523
872.021	0.0139944
872.099	0.0139696
872.177	0.0139146
872.255	0.0139204
872.333	0.0139023
872.411	0.0139938
872.489	0.0139180
872.568	0.0139877
872.646	0.0138911
872.724	0.0138045
872.802	0.0138098
872.880	0.0139166
872.958	0.0138625
873.036	0.0138772
873.114	0.0139250
873.193	0.0139118
873.271	0.0139303
873.349	0.0138393
873.427	0.0138315
873.505	0.0139608
873.583	0.0139041
873.661	0.0141006
873.739	0.0139002
873.818	0.0140164
873.896	0.0140388
873.974	0.0140122
874.052	0.0139904
874.130	0.0140365
874.208	0.0141550
874.286	0.0140607
874.364	0.0139870
874.443	0.0141618
874.521	0.0141391
874.599	0.0139282
874.677	0.0140129
874.755	0.0140263
874.833	0.0139122
874.911	0.0139459
874.989	0.0140285
875.068	0.0138514
875.146	0.0139147
875.224	0.0137715
875.302	0.0137917
875.380	0.0137734
875.458	0.0137207
875.536	0.0136869
875.614	0.0136801
875.693	0.0136856
875.771	0.0137881
875.849	0.0137484
875.927	0.0138489
876.005	0.0137461
876.083	0.0138280
876.161	0.0137801
876.239	0.0140371
876.318	0.0139027
876.396	0.0138385
876.474	0.0140366
876.552	0.0139470
876.630	0.0139199
876.708	0.0139641
876.786	0.0140101
876.864	0.0139158
876.943	0.0138764
877.021	0.0139011
877.099	0.0139543
877.177	0.0139198
877.255	0.0139521
877.333	0.0138009
877.411	0.0138638
877.489	0.0139205
877.568	0.0140027
877.646	0.0138931
877.724	0.0137218
877.802	0.0138120
877.880	0.0138558
877.958	0.0138530
878.036	0.0137596
878.114	0.0137780
878.193	0.0136789
878.271	0.0137965
878.349	0.0138036
878.427	0.0137696
878.505	0.0138646
878.583	0.0140520
878.661	0.0139558
878.739	0.0139270
878.818	0.0140316
878.896	0.0140819
878.974	0.0139788
879.052	0.0141660
879.130	0.0140331
879.208	0.0141970
879.286	0.0141992
879.364	0.0141202
879.443	0.0141680
879.521	0.0141734
879.599	0.0140626
879.677	0.0141192
879.755	0.0139850
879.833	0.0139963
879.911	0.0140634
879.989	0.0140457
880.068	0.0139707
880.146	0.0140145
880.224	0.0139760
880.302	0.0139528
880.380	0.0140205
880.458	0.0139558
880.536	0.0138956
880.614	0.0139314
880.693	0.0140191
880.771	0.0139912
880.849	0.0140243
880.927	0.0140933
881.005	0.0140616
881.083	0.0141682
881.161	0.0140722
881.239	0.0141257
881.318	0.0140336
881.396	0.0142601
881.474	0.0142265
881.552	0.0141694
881.630	0.0141846
881.708	0.0142528
881.786	0.0141480
881.864	0.0142985
881.943	0.0142471
882.021	0.0142277
882.099	0.0142713
882.177	0.0142319
882.255	0.0142973
882.333	0.0142416
882.411	0.0142381
882.489	0.0141016
882.568	0.0140379
882.646	0.0141241
882.724	0.0141290
882.802	0.0141539
882.880	0.0140044
882.958	0.0139641
883.036	0.0140582
883.114	0.0141037
883.193	0.0140123
883.271	0.0139518
883.349	0.0139729
883.427	0.0138436
883.505	0.0138723
883.583	0.0139383
883.661	0.0139145
883.739	0.0138032
883.818	0.0138851
883.896	0.0139485
883.974	0.0138935
884.052	0.0139839
884.130	0.0139902
884.208	0.0138372
884.286	0.0139052
884.364	0.0139986
884.443	0.0140231
884.521	0.0140022
884.599	0.0139214
884.677	0.0139893
884.755	0.0138673
884.833	0.0140168
884.911	0.0141167
884.989	0.0140835
885.068	0.0140798
885.146	0.0139464
885.224	0.0140034
885.302	0.0141843
885.380	0.0139996
885.458	0.0141766
885.536	0.0140850
885.614	0.0139751
885.693	0.0139887
885.771	0.0139617
885.849	0.0141659
885.927	0.0140839
886.005	0.0141946
886.083	0.0142393
886.161	0.0141798
886.239	0.0141476
886.318	0.0139732
886.396	0.0139835
886.474	0.0139986
886.552	0.0140538
886.630	0.0139709
886.708	0.0139990
886.786	0.0140301
886.864	0.0140852
886.943	0.0141063
887.021	0.0139857
887.099	0.0141132
887.177	0.0140350
887.255	0.0141150
887.333	0.0141295
887.411	0.0141671
887.489	0.0141363
887.568	0.0140769
887.646	0.0140411
887.724	0.0141490
887.802	0.0141734
887.880	0.0141463
887.958	0.0139423
888.036	0.0139681
888.114	0.0140083
888.193	0.0139133
888.271	0.0138883
888.349	0.0138956
888.427	0.0139812
888.505	0.0139233
888.583	0.0138128
888.661	0.0138227
888.739	0.0138477
888.818	0.0139462
888.896	0.0138660
888.974	0.0140474
889.052	0.0139465
889.130	0.0139497
889.208	0.0139639
889.286	0.0138805
889.364	0.0139368
889.443	0.0138999
889.521	0.0138896
889.599	0.0139748
889.677	0.0140420
889.755	0.0141042
889.833	0.0139838
889.911	0.0140643
889.989	0.0141020
890.068	0.0141193
890.146	0.0140790
890.224	0.0141645
890.302	0.0140220
890.380	0.0141966
890.458	0.0140951
890.536	0.0141511
890.614	0.0142297
890.693	0.0142191
890.771	0.0141219
890.849	0.0141496
890.927	0.0141492
891.005	0.0141353
891.083	0.0140829
891.161	0.0141542
891.239	0.0140567
891.318	0.0141091
891.396	0.0142220
891.474	0.0140971
891.552	0.0139912
891.630	0.0140415
891.708	0.0141999
891.786	0.0141710
891.864	0.0140328
891.943	0.0140456
892.021	0.0140543
892.099	0.0140927
892.177	0.0141775
892.255	0.0140977
892.333	0.0140891
892.411	0.0140157
892.489	0.0139523
892.568	0.0140031
892.646	0.0140994
892.724	0.0137926
892.802	0.0139721
892.880	0.0139783
892.958	0.0139538
893.036	0.0139018
893.114	0.0137864
893.193	0.0136209
893.271	0.0137512
893.349	0.0137280
893.427	0.0137474
893.505	0.0136182
893.583	0.0137666
893.661	0.0138002
893.739	0.0137581
893.818	0.0137716
893.896	0.0136903
893.974	0.0137984
894.052	0.0138000
894.130	0.0138364
894.208	0.0137217
894.286	0.0137917
894.364	0.0138744
894.443	0.0137909
894.521	0.0138349
894.599	0.0137951
894.677	0.0138166
894.755	0.0138033
894.833	0.0138704
894.911	0.0138451
894.989	0.0138792
895.068	0.0139428
895.146	0.0137578
895.224	0.0138143
895.302	0.0138895
895.380	0.0138626
895.458	0.0138047
895.536	0.0138979
895.614	0.0138602
895.693	0.0138372
895.771	0.0139866
895.849	0.0139996
895.927	0.0139156
896.005	0.0138721
896.083	0.0138319
896.161	0.0139178
896.239	0.0139265
896.318	0.0139233
896.396	0.0140097
896.474	0.0138738
896.552	0.0141002
896.630	0.0138990
896.708	0.0140733
896.786	0.0140261
896.864	0.0140454
896.943	0.0139794
897.021	0.0139826
897.099	0.0140832
897.177	0.0140797
897.255	0.0139418
897.333	0.0139116
897.411	0.0139101
897.489	0.0138474
897.568	0.0138921
897.646	0.0140043
897.724	0.0138850
897.802	0.0138757
897.880	0.0138599
897.958	0.0137943
898.036	0.0137849
898.114	0.0137908
898.193	0.0138193
898.271	0.0140127
898.349	0.0139420
898.427	0.0139740
898.505	0.0138696
898.583	0.0139624
898.661	0.0139397
898.739	0.0139949
898.818	0.0140329
898.896	0.0140313
898.974	0.0141573
899.052	0.0141345
899.130	0.0140486
899.208	0.0140346
899.286	0.0139444
899.364	0.0139678
899.443	0.0138696
899.521	0.0141315
899.599	0.0142323
899.677	0.0139024
899.755	0.0140401
899.833	0.0142002
899.911	0.0141776
899.989	0.0140603
900.068	0.0141007
900.146	0.0139558
900.224	0.0141165
900.302	0.0140516
900.380	0.0140671
900.458	0.0141276
900.536	0.0142014
900.614	0.0140935
900.693	0.0141483
900.771	0.0142010
900.849	0.0140695
900.927	0.0141782
901.005	0.0141785
901.083	0.0141926
901.161	0.0139938
901.239	0.0142181
901.318	0.0142673
901.396	0.0140251
901.474	0.0141661
901.552	0.0141539
901.630	0.0141711
901.708	0.0141272
901.786	0.0140984
901.864	0.0140849
901.943	0.0141284
902.021	0.0139293
902.099	0.0139783
902.177	0.0140173
902.255	0.0138253
902.333	0.0137152
902.411	0.0138941
902.489	0.0139380
902.568	0.0137584
902.646	0.0138654
902.724	0.0138117
902.802	0.0138757
902.880	0.0138221
902.958	0.0138034
903.036	0.0138209
903.114	0.0138314
903.193	0.0138675
903.271	0.0139435
903.349	0.0138711
903.427	0.0138178
903.505	0.0137815
903.583	0.0139348
903.661	0.0139033
903.739	0.0140148
903.818	0.0139716
903.896	0.0139288
903.974	0.0140022
904.052	0.0140993
904.130	0.0139974
904.208	0.0140049
904.286	0.0140002
904.364	0.0140023
904.443	0.0140082
904.521	0.0140044
904.599	0.0139165
904.677	0.0139043
904.755	0.0139360
904.833	0.0140151
904.911	0.0140373
904.989	0.0139982
905.068	0.0140015
905.146	0.0139581
905.224	0.0139127
905.302	0.0140461
905.380	0.0140180
905.458	0.0139391
905.536	0.0138881
905.614	0.0138975
905.693	0.0139212
905.771	0.0138905
905.849	0.0138727
905.927	0.0138139
906.005	0.0139909
906.083	0.0137901
906.161	0.0137834
906.239	0.0139309
906.318	0.0138033
906.396	0.0138744
906.474	0.0138804
906.552	0.0137606
906.630	0.0139442
906.708	0.0140803
906.786	0.0140186
906.864	0.0139207
906.943	0.0140788
907.021	0.0141471
907.099	0.0140383
907.177	0.0141789
907.255	0.0139942
907.333	0.0139729
907.411	0.0139599
907.489	0.0140309
907.568	0.0139558
907.646	0.0139191
907.724	0.0139235
907.802	0.0140598
907.880	0.0139832
907.958	0.0139346
908.036	0.0138853
908.114	0.0138203
908.193	0.0138453
908.271	0.0138939
908.349	0.0140633
908.427	0.0138061
908.505	0.0138318
908.583	0.0138612
908.661	0.0138481
908.739	0.0140459
908.818	0.0137734
908.896	0.0139032
908.974	0.0137738
909.052	0.0138297
909.130	0.0137205
909.208	0.0137197
909.286	0.0138280
909.364	0.0138826
909.443	0.0138212
909.521	0.0137399
909.599	0.0138310
909.677	0.0138532
909.755	0.0139359
909.833	0.0138463
909.911	0.0139491
909.989	0.0139059
910.068	0.0141109
910.146	0.0141361
910.224	0.0141512
910.302	0.0141656
910.380	0.0142397
910.458	0.0142333
910.536	0.0143168
910.614	0.0144198
910.693	0.0142135
910.771	0.0144228
910.849	0.0142425
910.927	0.0142726
911.005	0.0143226
911.083	0.0141739
911.161	0.0140788
911.239	0.0142223
911.318	0.0143062
911.396	0.0142995
911.474	0.0142930
911.552	0.0142272
911.630	0.0143240
911.708	0.0141348
911.786	0.0141624
911.864	0.0142156
911.943	0.0142010
912.021	0.0142976
912.099	0.0140753
912.177	0.0141325
912.255	0.0141845
912.333	0.0140329
912.411	0.0140522
912.489	0.0140362
912.568	0.0140253
912.646	0.0140078
912.724	0.0139795
912.802	0.0140361
912.880	0.0140028
912.958	0.0139731
913.036	0.0139281
913.114	0.0137642
913.193	0.0140240
913.271	0.0139915
913.349	0.0139213
913.427	0.0138112
913.505	0.0138262
913.583	0.0139080
913.661	0.0138606
913.739	0.0137892
913.818	0.0137397
913.896	0.0138057
913.974	0.0137115
914.052	0.0137765
914.130	0.0136967
914.208	0.0137569
914.286	0.0138297
914.364	0.0138409
914.443	0.0138998
914.521	0.0136861
914.599	0.0137868
914.677	0.0138528
914.755	0.0139397
914.833	0.0138216
914.911	0.0138525
914.989	0.0139298
915.068	0.0139905
915.146	0.0140933
915.224	0.0139612
915.302	0.0140522
915.380	0.0140218
915.458	0.0141644
915.536	0.0142387
915.614	0.0143314
915.693	0.0140596
915.771	0.0142252
915.849	0.0142580
915.927	0.0141415
916.005	0.0142021
916.083	0.0141503
916.161	0.0140760
916.239	0.0140520
916.318	0.0142357
916.396	0.0141921
916.474	0.0140237
916.552	0.0141104
916.630	0.0140760
916.708	0.0141317
916.786	0.0139587
916.864	0.0140596
916.943	0.0141644
917.021	0.0139001
917.099	0.0138600
917.177	0.0140553
917.255	0.0140749
917.333	0.0140109
917.411	0.0140054
917.489	0.0140740
917.568	0.0139461
917.646	0.0139679
917.724	0.0140832
917.802	0.0139738
917.880	0.0141206
917.958	0.0140240
918.036	0.0140891
918.114	0.0139311
918.193	0.0140583
918.271	0.0140211
918.349	0.0139826
918.427	0.0139677
918.505	0.0138995
918.583	0.0140302
918.661	0.0139973
918.739	0.0139880
918.818	0.0140746
918.896	0.0140434
918.974	0.0140154
919.052	0.0139932
919.130	0.0140028
919.208	0.0140575
919.286	0.0139965
919.364	0.0141798
919.443	0.0139925
919.521	0.0140285
919.599	0.0140108
919.677	0.0139327
919.755	0.0139625
919.833	0.0139687
919.911	0.0139806
919.989	0.0138599
920.068	0.0139259
920.146	0.0138391
920.224	0.0140283
920.302	0.0139525
920.380	0.0138770
920.458	0.0139376
920.536	0.0140321
920.614	0.0139658
920.693	0.0140024
920.771	0.0138291
920.849	0.0139308
920.927	0.0140106
921.005	0.0139046
921.083	0.0137656
921.161	0.0139433
921.239	0.0138170
921.318	0.0136927
921.396	0.0139072
921.474	0.0138501
921.552	0.0138594
921.630	0.0139511
921.708	0.0138567
921.786	0.0138272
921.864	0.0139199
921.943	0.0138954
922.021	0.0138864
922.099	0.0139018
922.177	0.0139776
922.255	0.0138700
922.333	0.0139787
922.411	0.0140356
922.489	0.0139231
922.568	0.0140081
922.646	0.0139577
922.724	0.0137586
922.802	0.0139669
922.880	0.0140475
922.958	0.0140383
923.036	0.0140558
923.114	0.0140779
923.193	0.0140947
923.271	0.0139132
923.349	0.0140294
923.427	0.0140512
923.505	0.0140112
923.583	0.0139879
923.661	0.0139578
923.739	0.0141264
923.818	0.0140024
923.896	0.0140422
923.974	0.0139149
924.052	0.0139494
924.130	0.0140393
924.208	0.0141336
924.286	0.0139706
924.364	0.0140256
924.443	0.0140089
924.521	0.0140562
924.599	0.0140623
924.677	0.0139908
924.755	0.0138813
924.833	0.0138850
924.911	0.0140125
924.989	0.0140196
925.068	0.0140443
925.146	0.0140852
925.224	0.0140597
925.302	0.0140505
925.380	0.0140730
925.458	0.0140771
925.536	0.0141602
925.614	0.0141820
925.693	0.0141683
925.771	0.0140998
925.849	0.0140911
925.927	0.0141409
926.005	0.0141727
926.083	0.0139969
926.161	0.0139487
926.239	0.0140678
926.318	0.0141174
926.396	0.0138747
926.474	0.0138993
926.552	0.0137769
926.630	0.0138925
926.708	0.0138197
926.786	0.0138123
926.864	0.0137205
926.943	0.0138076
927.021	0.0138060
927.099	0.0137115
927.177	0.0138389
927.255	0.0138460
927.333	0.0137909
927.411	0.0138120
927.489	0.0138456
927.568	0.0139116
927.646	0.0139961
927.724	0.0138803
927.802	0.0137704
927.880	0.0138259
927.958	0.0139805
928.036	0.0139455
928.114	0.0140234
928.193	0.0140856
928.271	0.0139800
928.349	0.0140804
928.427	0.0141469
928.505	0.0139140
928.583	0.0140577
928.661	0.0140668
928.739	0.0139127
928.818	0.0139091
928.896	0.0139384
928.974	0.0138870
929.052	0.0138560
929.130	0.0139285
929.208	0.0139613
929.286	0.0138719
929.364	0.0138002
929.443	0.0137559
929.521	0.0138316
929.599	0.0139504
929.677	0.0137452
929.755	0.0139350
929.833	0.0140099
929.911	0.0140342
929.989	0.0138725
930.068	0.0139099
930.146	0.0138824
930.224	0.0140420
930.302	0.0139261
930.380	0.0138888
930.458	0.0139893
930.536	0.0139712
930.614	0.0140290
930.693	0.0139503
930.771	0.0140358
930.849	0.0138945
930.927	0.0139832
931.005	0.0139634
931.083	0.0140887
931.161	0.0139971
931.239	0.0140249
931.318	0.0140330
931.396	0.0140720
931.474	0.0140150
931.552	0.0140231
931.630	0.0140421
931.708	0.0141100
931.786	0.0141316
931.864	0.0140747
931.943	0.0139765
932.021	0.0141010
932.099	0.0140720
932.177	0.0140123
932.255	0.0139516
932.333	0.0140923
932.411	0.0140106
932.489	0.0141222
932.568	0.0140334
932.646	0.0139810
932.724	0.0139771
932.802	0.0140468
932.880	0.0138208
932.958	0.0139722
933.036	0.0141022
933.114	0.0140313
933.193	0.0139623
933.271	0.0140421
933.349	0.0138735
933.427	0.0140713
933.505	0.0138741
933.583	0.0140157
933.661	0.0140556
933.739	0.0139899
933.818	0.0140280
933.896	0.0141200
933.974	0.0140656
934.052	0.0140382
934.130	0.0140653
934.208	0.0141125
934.286	0.0140681
934.364	0.0140882
934.443	0.0140450
934.521	0.0141718
934.599	0.0142522
934.677	0.0141098
934.755	0.0142128
934.833	0.0140691
934.911	0.0141026
934.989	0.0141833
935.068	0.0139999
935.146	0.0140247
935.224	0.0140453
935.302	0.0140361
935.380	0.0139912
935.458	0.0139552
935.536	0.0139206
935.614	0.0139852
935.693	0.0138321
935.771	0.0137508
935.849	0.0138750
935.927	0.0137726
936.005	0.0138560
936.083	0.0137183
936.161	0.0136981
936.239	0.0138186
936.318	0.0137505
936.396	0.0137711
936.474	0.0137494
936.552	0.0136636
936.630	0.0136995
936.708	0.0139223
936.786	0.0137465
936.864	0.0137982
936.943	0.0138865
937.021	0.0138638
937.099	0.0138902
937.177	0.0139971
937.255	0.0139343
937.333	0.0137939
937.411	0.0138606
937.489	0.0137379
937.568	0.0137383
937.646	0.0137819
937.724	0.0139734
937.802	0.0138210
937.880	0.0139311
937.958	0.0138945
938.036	0.0138596
938.114	0.0139385
938.193	0.0139156
938.271	0.0139890
938.349	0.0141183
938.427	0.0139621
938.505	0.0140331
938.583	0.0141116
938.661	0.0140191
938.739	0.0139654
938.818	0.0140611
938.896	0.0141787
938.974	0.0140738
939.052	0.0141072
939.130	0.0141364
939.208	0.0141218
939.286	0.0141174
939.364	0.0142743
939.443	0.0140414
939.521	0.0140629
939.599	0.0141617
939.677	0.0142195
939.755	0.0141319
939.833	0.0141148
939.911	0.0140482
939.989	0.0140246
940.068	0.0141896
940.146	0.0141355
940.224	0.0140405
940.302	0.0140941
940.380	0.0142051
940.458	0.0140948
940.536	0.0141216
940.614	0.0141284
940.693	0.0141705
940.771	0.0140057
940.849	0.0140456
940.927	0.0140693
941.005	0.0141869
941.083	0.0141322
941.161	0.0141596
941.239	0.0140632
941.318	0.0140647
941.396	0.0140894
941.474	0.0139040
941.552	0.0140289
941.630	0.0139558
941.708	0.0139888
941.786	0.0139301
941.864	0.0138688
941.943	0.0140182
942.021	0.0140240
942.099	0.0139240
942.177	0.0138992
942.255	0.0137833
942.333	0.0137593
942.411	0.0137767
942.489	0.0136848
942.568	0.0136733
942.646	0.0136200
942.724	0.0137975
942.802	0.0136689
942.880	0.0135717
942.958	0.0139116
943.036	0.0137253
943.114	0.0137885
943.193	0.0137677
943.271	0.0138670
943.349	0.0139542
943.427	0.0138670
943.505	0.0137949
943.583	0.0138923
943.661	0.0138796
943.739	0.0139576
943.818	0.0139780
943.896	0.0139929
943.974	0.0141205
944.052	0.0139739
944.130	0.0140056
944.208	0.0140015
944.286	0.0139848
944.364	0.0140176
944.443	0.0139798
944.521	0.0140879
944.599	0.0140014
944.677	0.0140149
944.755	0.0141724
944.833	0.0140854
944.911	0.0142566
944.989	0.0142252
945.068	0.0141579
945.146	0.0141155
945.224	0.0141378
945.302	0.0141877
945.380	0.0141536
945.458	0.0139674
945.536	0.0141177
945.614	0.0141756
945.693	0.0140755
945.771	0.0141856
945.849	0.0140076
945.927	0.0141740
946.005	0.0141723
946.083	0.0140418
946.161	0.0139028
946.239	0.0140076
946.318	0.0140833
946.396	0.0139840
946.474	0.0139870
946.552	0.0140147
946.630	0.0140307
946.708	0.0139255
946.786	0.0140064
946.864	0.0140223
946.943	0.0138815
947.021	0.0138051
947.099	0.0140602
947.177	0.0140891
947.255	0.0139102
947.333	0.0138618
947.411	0.0139612
947.489	0.0139857
947.568	0.0140051
947.646	0.0139523
947.724	0.0140449
947.802	0.0139728
947.880	0.0137414
947.958	0.0138856
948.036	0.0137981
948.114	0.0138007
948.193	0.0138009
948.271	0.0138586
948.349	0.0140338
948.427	0.0139825
948.505	0.0139271
948.583	0.0139359
948.661	0.0139121
948.739	0.0139706
948.818	0.0139026
948.896	0.0139198
948.974	0.0138351
949.052	0.0137392
949.130	0.0139809
949.208	0.0137942
949.286	0.0138172
949.364	0.0138203
949.443	0.0137901
949.521	0.0138290
949.599	0.0140092
949.677	0.0139391
949.755	0.0137794
949.833	0.0139467
949.911	0.0138853
949.989	0.0139726
950.068	0.0138876
950.146	0.0138924
950.224	0.0140109
950.302	0.0138828
950.380	0.0140749
950.458	0.0140237
950.536	0.0139634
950.614	0.0140365
950.693	0.0139722
950.771	0.0140804
950.849	0.0141029
950.927	0.0138731
951.005	0.0139391
951.083	0.0139226
951.161	0.0139073
951.239	0.0138857
951.318	0.0139307
951.396	0.0138311
951.474	0.0137182
951.552	0.0137927
951.630	0.0138312
951.708	0.0138295
951.786	0.0139191
951.864	0.0139005
951.943	0.0139143
952.021	0.0138172
952.099	0.0138506
952.177	0.0138510
952.255	0.0138531
952.333	0.0140538
952.411	0.0139779
952.489	0.0138254
952.568	0.0140653
952.646	0.0140907
952.724	0.0138508
952.802	0.0140424
952.880	0.0140106
952.958	0.0139989
953.036	0.0138605
953.114	0.0139986
953.193	0.0139296
953.271	0.0138343
953.349	0.0138508
953.427	0.0137697
953.505	0.0137688
953.583	0.0136665
953.661	0.0138614
953.739	0.0138521
953.818	0.0138872
953.896	0.0137021
953.974	0.0136569
954.052	0.0136774
954.130	0.0138121
954.208	0.0137691
954.286	0.0137083
954.364	0.0136732
954.443	0.0137886
954.521	0.0137737
954.599	0.0138365
954.677	0.0138864
954.755	0.0137557
954.833	0.0137259
954.911	0.0136903
954.989	0.0137849
955.068	0.0138660
955.146	0.0138865
955.224	0.0138917
955.302	0.0138108
955.380	0.0139526
955.458	0.0139487
955.536	0.0140668
955.614	0.0139917
955.693	0.0139075
955.771	0.0139733
955.849	0.0138277
955.927	0.0139053
956.005	0.0139899
956.083	0.0140678
956.161	0.0140633
956.239	0.0140517
956.318	0.0140412
956.396	0.0139610
956.474	0.0140350
956.552	0.0138863
956.630	0.0139600
956.708	0.0140469
956.786	0.0140312
956.864	0.0138622
956.943	0.0138681
957.021	0.0140763
957.099	0.0138838
957.177	0.0138737
957.255	0.0139350
957.333	0.0139874
957.411	0.0138950
957.489	0.0138503
957.568	0.0139103
957.646	0.0138738
957.724	0.0139908
957.802	0.0138784
957.880	0.0138757
957.958	0.0138319
958.036	0.0137640
958.114	0.0138166
958.193	0.0138663
958.271	0.0139317
958.349	0.0139880
958.427	0.0138891
958.505	0.0138644
958.583	0.0139345
958.661	0.0139979
958.739	0.0138226
958.818	0.0139236
958.896	0.0139393
958.974	0.0138363
959.052	0.0139531
959.130	0.0140115
959.208	0.0139303
959.286	0.0139033
959.364	0.0139116
959.443	0.0139116
959.521	0.0139767
959.599	0.0138947
959.677	0.0139436
959.755	0.0139352
959.833	0.0140200
959.911	0.0140570
