05/14/2022	16:49:02	Ver.	4.1	UNKNOWN
Optical Delay	639.989416	Delta X		0.078125	Sweeps	1	Scan Rate	0/0
Coordinates	Axis 1	NaN	Axis 2	NaN	Axis 3	NaN	Axis 4	NaN	Axis 5	NaN	Axis 6	0.000000
TX Power	0.000000	RX Power	0.000000

639.989	0.0137591
640.068	0.0137381
640.146	0.0137713
640.224	0.0135809
640.302	0.0138981
640.380	0.0138711
640.458	0.0138683
640.536	0.0137399
640.614	0.0136526
640.693	0.0137392
640.771	0.0137536
640.849	0.0136519
640.927	0.0137257
641.005	0.0137531
641.083	0.0137456
641.161	0.0137631
641.239	0.0136458
641.318	0.0136278
641.396	0.0137547
641.474	0.0138378
641.552	0.0136773
641.630	0.0137704
641.708	0.0136497
641.786	0.0137734
641.864	0.0138371
641.943	0.0136903
642.021	0.0138908
642.099	0.0137698
642.177	0.0137953
642.255	0.0138082
642.333	0.0138328
642.411	0.0137902
642.489	0.0138085
642.568	0.0137033
642.646	0.0138236
642.724	0.0138359
642.802	0.0137569
642.880	0.0137380
642.958	0.0138095
643.036	0.0136322
643.114	0.0137828
643.193	0.0138131
643.271	0.0137136
643.349	0.0137678
643.427	0.0137842
643.505	0.0136959
643.583	0.0135822
643.661	0.0136772
643.739	0.0138509
643.818	0.0137426
643.896	0.0136092
643.974	0.0137829
644.052	0.0137466
644.130	0.0136570
644.208	0.0137034
644.286	0.0136190
644.364	0.0135933
644.443	0.0137764
644.521	0.0137112
644.599	0.0135947
644.677	0.0137224
644.755	0.0137070
644.833	0.0136085
644.911	0.0137173
644.989	0.0137330
645.068	0.0137263
645.146	0.0136581
645.224	0.0136754
645.302	0.0136615
645.380	0.0137290
645.458	0.0135756
645.536	0.0137874
645.614	0.0137277
645.693	0.0136659
645.771	0.0136693
645.849	0.0136624
645.927	0.0136231
646.005	0.0136224
646.083	0.0136270
646.161	0.0136321
646.239	0.0137962
646.318	0.0135162
646.396	0.0136415
646.474	0.0136678
646.552	0.0136533
646.630	0.0136705
646.708	0.0135883
646.786	0.0135564
646.864	0.0136281
646.943	0.0136411
647.021	0.0136684
647.099	0.0136491
647.177	0.0137049
647.255	0.0136016
647.333	0.0137397
647.411	0.0137343
647.489	0.0136262
647.568	0.0136577
647.646	0.0136378
647.724	0.0136380
647.802	0.0136818
647.880	0.0136321
647.958	0.0136375
648.036	0.0136198
648.114	0.0137309
648.193	0.0135502
648.271	0.0136462
648.349	0.0135574
648.427	0.0135534
648.505	0.0136463
648.583	0.0137505
648.661	0.0136841
648.739	0.0136806
648.818	0.0135963
648.896	0.0137321
648.974	0.0136982
649.052	0.0136066
649.130	0.0137373
649.208	0.0137863
649.286	0.0135854
649.364	0.0137000
649.443	0.0136650
649.521	0.0136612
649.599	0.0137032
649.677	0.0137719
649.755	0.0137591
649.833	0.0137497
649.911	0.0137048
649.989	0.0137881
650.068	0.0136012
650.146	0.0136872
650.224	0.0137632
650.302	0.0136640
650.380	0.0136564
650.458	0.0137015
650.536	0.0137272
650.614	0.0136025
650.693	0.0137334
650.771	0.0136435
650.849	0.0136546
650.927	0.0135857
651.005	0.0136160
651.083	0.0136937
651.161	0.0135767
651.239	0.0137690
651.318	0.0136009
651.396	0.0135619
651.474	0.0136202
651.552	0.0136932
651.630	0.0137911
651.708	0.0135586
651.786	0.0135622
651.864	0.0135475
651.943	0.0136705
652.021	0.0136586
652.099	0.0135745
652.177	0.0136638
652.255	0.0135416
652.333	0.0136155
652.411	0.0137674
652.489	0.0135686
652.568	0.0135103
652.646	0.0135098
652.724	0.0136629
652.802	0.0137574
652.880	0.0136337
652.958	0.0136620
653.036	0.0136052
653.114	0.0136861
653.193	0.0135612
653.271	0.0134845
653.349	0.0136523
653.427	0.0136350
653.505	0.0135797
653.583	0.0137908
653.661	0.0136041
653.739	0.0136948
653.818	0.0135897
653.896	0.0135733
653.974	0.0135551
654.052	0.0135715
654.130	0.0135549
654.208	0.0136549
654.286	0.0134915
654.364	0.0135749
654.443	0.0135589
654.521	0.0136112
654.599	0.0135591
654.677	0.0136936
654.755	0.0135741
654.833	0.0135541
654.911	0.0136240
654.989	0.0136040
655.068	0.0135182
655.146	0.0134813
655.224	0.0135004
655.302	0.0136279
655.380	0.0137568
655.458	0.0136055
655.536	0.0136711
655.614	0.0135904
655.693	0.0136235
655.771	0.0136562
655.849	0.0135596
655.927	0.0134402
656.005	0.0135423
656.083	0.0135461
656.161	0.0137071
656.239	0.0136906
656.318	0.0136152
656.396	0.0136469
656.474	0.0137912
656.552	0.0136488
656.630	0.0135767
656.708	0.0137417
656.786	0.0137185
656.864	0.0137965
656.943	0.0137602
657.021	0.0137098
657.099	0.0137557
657.177	0.0137347
657.255	0.0136893
657.333	0.0137074
657.411	0.0136434
657.489	0.0136822
657.568	0.0136945
657.646	0.0138223
657.724	0.0136930
657.802	0.0136707
657.880	0.0135848
657.958	0.0137178
658.036	0.0136839
658.114	0.0136001
658.193	0.0138143
658.271	0.0136618
658.349	0.0137347
658.427	0.0136827
658.505	0.0137617
658.583	0.0137693
658.661	0.0137430
658.739	0.0136350
658.818	0.0137720
658.896	0.0137563
658.974	0.0137704
659.052	0.0136337
659.130	0.0136977
659.208	0.0136494
659.286	0.0136056
659.364	0.0137604
659.443	0.0136084
659.521	0.0137511
659.599	0.0136958
659.677	0.0138306
659.755	0.0138147
659.833	0.0137740
659.911	0.0137920
659.989	0.0137668
660.068	0.0137483
660.146	0.0137980
660.224	0.0138178
660.302	0.0137042
660.380	0.0136421
660.458	0.0138069
660.536	0.0137721
660.614	0.0138558
660.693	0.0136469
660.771	0.0137129
660.849	0.0136990
660.927	0.0137266
661.005	0.0138022
661.083	0.0137580
661.161	0.0136513
661.239	0.0136484
661.318	0.0137045
661.396	0.0136592
661.474	0.0136930
661.552	0.0137769
661.630	0.0138591
661.708	0.0138140
661.786	0.0137413
661.864	0.0138777
661.943	0.0137929
662.021	0.0137894
662.099	0.0138438
662.177	0.0137260
662.255	0.0139925
662.333	0.0137552
662.411	0.0138009
662.489	0.0138332
662.568	0.0138366
662.646	0.0137221
662.724	0.0138618
662.802	0.0139169
662.880	0.0138603
662.958	0.0138254
663.036	0.0138216
663.114	0.0139198
663.193	0.0138574
663.271	0.0137762
663.349	0.0135960
663.427	0.0137222
663.505	0.0137890
663.583	0.0137331
663.661	0.0136334
663.739	0.0136346
663.818	0.0136733
663.896	0.0135773
663.974	0.0136382
664.052	0.0135690
664.130	0.0134996
664.208	0.0135609
664.286	0.0136320
664.364	0.0138282
664.443	0.0135983
664.521	0.0135030
664.599	0.0137443
664.677	0.0137574
664.755	0.0136595
664.833	0.0137540
664.911	0.0138851
664.989	0.0139445
665.068	0.0137865
665.146	0.0139209
665.224	0.0140025
665.302	0.0140616
665.380	0.0140898
665.458	0.0143139
665.536	0.0142387
665.614	0.0141569
665.693	0.0141228
665.771	0.0140991
665.849	0.0140359
665.927	0.0141560
666.005	0.0140172
666.083	0.0139410
666.161	0.0138623
666.239	0.0138358
666.318	0.0138268
666.396	0.0137046
666.474	0.0136771
666.552	0.0134204
666.630	0.0133716
666.708	0.0133793
666.786	0.0133187
666.864	0.0132520
666.943	0.0132157
667.021	0.0131445
667.099	0.0130775
667.177	0.0131744
667.255	0.0130651
667.333	0.0131719
667.411	0.0132960
667.489	0.0132138
667.568	0.0132458
667.646	0.0134066
667.724	0.0134987
667.802	0.0136499
667.880	0.0139041
667.958	0.0139330
668.036	0.0141252
668.114	0.0142887
668.193	0.0142533
668.271	0.0144801
668.349	0.0144754
668.427	0.0144247
668.505	0.0145268
668.583	0.0145554
668.661	0.0145023
668.739	0.0143141
668.818	0.0144967
668.896	0.0142522
668.974	0.0142126
669.052	0.0140399
669.130	0.0139571
669.208	0.0137936
669.286	0.0136685
669.364	0.0135648
669.443	0.0135202
669.521	0.0133594
669.599	0.0132345
669.677	0.0130340
669.755	0.0130734
669.833	0.0130038
669.911	0.0129410
669.989	0.0129227
670.068	0.0128174
670.146	0.0127850
670.224	0.0129755
670.302	0.0129348
670.380	0.0127795
670.458	0.0129395
670.536	0.0131528
670.614	0.0131100
670.693	0.0133189
670.771	0.0134541
670.849	0.0134820
670.927	0.0135474
671.005	0.0137437
671.083	0.0139787
671.161	0.0139840
671.239	0.0141988
671.318	0.0142712
671.396	0.0143488
671.474	0.0145435
671.552	0.0144993
671.630	0.0144842
671.708	0.0145820
671.786	0.0145395
671.864	0.0145502
671.943	0.0145490
672.021	0.0144999
672.099	0.0143655
672.177	0.0144383
672.255	0.0143905
672.333	0.0142422
672.411	0.0142197
672.489	0.0139350
672.568	0.0139564
672.646	0.0136677
672.724	0.0135016
672.802	0.0135326
672.880	0.0132677
672.958	0.0132059
673.036	0.0131991
673.114	0.0131104
673.193	0.0128509
673.271	0.0129132
673.349	0.0127609
673.427	0.0126117
673.505	0.0126363
673.583	0.0125710
673.661	0.0125941
673.739	0.0127315
673.818	0.0127309
673.896	0.0127942
673.974	0.0126957
674.052	0.0129256
674.130	0.0129364
674.208	0.0132516
674.286	0.0134254
674.364	0.0135621
674.443	0.0136579
674.521	0.0139714
674.599	0.0140242
674.677	0.0142451
674.755	0.0145554
674.833	0.0147382
674.911	0.0148865
674.989	0.0150065
675.068	0.0149905
675.146	0.0151503
675.224	0.0150461
675.302	0.0151540
675.380	0.0150061
675.458	0.0148789
675.536	0.0149564
675.614	0.0147800
675.693	0.0146842
675.771	0.0144183
675.849	0.0142001
675.927	0.0140064
676.005	0.0138059
676.083	0.0135012
676.161	0.0132716
676.239	0.0130744
676.318	0.0128862
676.396	0.0128584
676.474	0.0125163
676.552	0.0123626
676.630	0.0123363
676.708	0.0123976
676.786	0.0122260
676.864	0.0122265
676.943	0.0121682
677.021	0.0120943
677.099	0.0121999
677.177	0.0123147
677.255	0.0124448
677.333	0.0126311
677.411	0.0128328
677.489	0.0130935
677.568	0.0132047
677.646	0.0135067
677.724	0.0136443
677.802	0.0137462
677.880	0.0140037
677.958	0.0139928
678.036	0.0141689
678.114	0.0141994
678.193	0.0142179
678.271	0.0144577
678.349	0.0144665
678.427	0.0142829
678.505	0.0144031
678.583	0.0143900
678.661	0.0143447
678.739	0.0143227
678.818	0.0143545
678.896	0.0144057
678.974	0.0141451
679.052	0.0141293
679.130	0.0141759
679.208	0.0141534
679.286	0.0141554
679.364	0.0140270
679.443	0.0139451
679.521	0.0139257
679.599	0.0138140
679.677	0.0139369
679.755	0.0139095
679.833	0.0136304
679.911	0.0138232
679.989	0.0137798
680.068	0.0136902
680.146	0.0137383
680.224	0.0137578
680.302	0.0136684
680.380	0.0137651
680.458	0.0134248
680.536	0.0135656
680.614	0.0136234
680.693	0.0134876
680.771	0.0135252
680.849	0.0134019
680.927	0.0133596
681.005	0.0135797
681.083	0.0134357
681.161	0.0134737
681.239	0.0134375
681.318	0.0132552
681.396	0.0133788
681.474	0.0132148
681.552	0.0130946
681.630	0.0130532
681.708	0.0130678
681.786	0.0130450
681.864	0.0129025
681.943	0.0129114
682.021	0.0128465
682.099	0.0130328
682.177	0.0129402
682.255	0.0129993
682.333	0.0130083
682.411	0.0130987
682.489	0.0131352
682.568	0.0131591
682.646	0.0134042
682.724	0.0132472
682.802	0.0132179
682.880	0.0134528
682.958	0.0135406
683.036	0.0134046
683.114	0.0134674
683.193	0.0134885
683.271	0.0135886
683.349	0.0136404
683.427	0.0136993
683.505	0.0136457
683.583	0.0138251
683.661	0.0139513
683.739	0.0139332
683.818	0.0138238
683.896	0.0140778
683.974	0.0141706
684.052	0.0141319
684.130	0.0142733
684.208	0.0143063
684.286	0.0142350
684.364	0.0143372
684.443	0.0145602
684.521	0.0145145
684.599	0.0143744
684.677	0.0144891
684.755	0.0146885
684.833	0.0146004
684.911	0.0146045
684.989	0.0146088
685.068	0.0145473
685.146	0.0146220
685.224	0.0144486
685.302	0.0144626
685.380	0.0144231
685.458	0.0143722
685.536	0.0142594
685.614	0.0140696
685.693	0.0140672
685.771	0.0138386
685.849	0.0137089
685.927	0.0136318
686.005	0.0132682
686.083	0.0130876
686.161	0.0130156
686.239	0.0128207
686.318	0.0126313
686.396	0.0125207
686.474	0.0123499
686.552	0.0122084
686.630	0.0121899
686.708	0.0122158
686.786	0.0121091
686.864	0.0121081
686.943	0.0121581
687.021	0.0122585
687.099	0.0123057
687.177	0.0123782
687.255	0.0125429
687.333	0.0126339
687.411	0.0127254
687.489	0.0129398
687.568	0.0131612
687.646	0.0130730
687.724	0.0131390
687.802	0.0134678
687.880	0.0136111
687.958	0.0136382
688.036	0.0138425
688.114	0.0140245
688.193	0.0142555
688.271	0.0142645
688.349	0.0143029
688.427	0.0143515
688.505	0.0145248
688.583	0.0146689
688.661	0.0146842
688.739	0.0146996
688.818	0.0146223
688.896	0.0147052
688.974	0.0146523
689.052	0.0146268
689.130	0.0145261
689.208	0.0144752
689.286	0.0143056
689.364	0.0141943
689.443	0.0143313
689.521	0.0143706
689.599	0.0143597
689.677	0.0143885
689.755	0.0144219
689.833	0.0142229
689.911	0.0144402
689.989	0.0145878
690.068	0.0144096
690.146	0.0144186
690.224	0.0144859
690.302	0.0145075
690.380	0.0144794
690.458	0.0144403
690.536	0.0144337
690.614	0.0142757
690.693	0.0142272
690.771	0.0140423
690.849	0.0139713
690.927	0.0137720
691.005	0.0134460
691.083	0.0132791
691.161	0.0131900
691.239	0.0128214
691.318	0.0126210
691.396	0.0122877
691.474	0.0122084
691.552	0.0118398
691.630	0.0117422
691.708	0.0116068
691.786	0.0115129
691.864	0.0113626
691.943	0.0112952
692.021	0.0114448
692.099	0.0113246
692.177	0.0113799
692.255	0.0113586
692.333	0.0114236
692.411	0.0114757
692.489	0.0116510
692.568	0.0119050
692.646	0.0121661
692.724	0.0123296
692.802	0.0125489
692.880	0.0129541
692.958	0.0131970
693.036	0.0134948
693.114	0.0136437
693.193	0.0139300
693.271	0.0143171
693.349	0.0143361
693.427	0.0145484
693.505	0.0146863
693.583	0.0149006
693.661	0.0149950
693.739	0.0152766
693.818	0.0154053
693.896	0.0154017
693.974	0.0155972
694.052	0.0155619
694.130	0.0155898
694.208	0.0156285
694.286	0.0156250
694.364	0.0158139
694.443	0.0158006
694.521	0.0157188
694.599	0.0156762
694.677	0.0156361
694.755	0.0156249
694.833	0.0153409
694.911	0.0152735
694.989	0.0152351
695.068	0.0151125
695.146	0.0149708
695.224	0.0149131
695.302	0.0148662
695.380	0.0145653
695.458	0.0144291
695.536	0.0144481
695.614	0.0142999
695.693	0.0142244
695.771	0.0139918
695.849	0.0138157
695.927	0.0135753
696.005	0.0132570
696.083	0.0132211
696.161	0.0130153
696.239	0.0126933
696.318	0.0123615
696.396	0.0121984
696.474	0.0120612
696.552	0.0118575
696.630	0.0117117
696.708	0.0113056
696.786	0.0113098
696.864	0.0113496
696.943	0.0110699
697.021	0.0109413
697.099	0.0110421
697.177	0.0111516
697.255	0.0111584
697.333	0.0114568
697.411	0.0115349
697.489	0.0114613
697.568	0.0117718
697.646	0.0119247
697.724	0.0121481
697.802	0.0124635
697.880	0.0125269
697.958	0.0127177
698.036	0.0129107
698.114	0.0131708
698.193	0.0136899
698.271	0.0137258
698.349	0.0137572
698.427	0.0140318
698.505	0.0142773
698.583	0.0143668
698.661	0.0145592
698.739	0.0144913
698.818	0.0145161
698.896	0.0146257
698.974	0.0147279
699.052	0.0147493
699.130	0.0147964
699.208	0.0148025
699.286	0.0150236
699.364	0.0149644
699.443	0.0149629
699.521	0.0150533
699.599	0.0151150
699.677	0.0151331
699.755	0.0151471
699.833	0.0152535
699.911	0.0151980
699.989	0.0152592
700.068	0.0153789
700.146	0.0154164
700.224	0.0154265
700.302	0.0154683
700.380	0.0153694
700.458	0.0151125
700.536	0.0151722
700.614	0.0151250
700.693	0.0151060
700.771	0.0148589
700.849	0.0148478
700.927	0.0146312
701.005	0.0143468
701.083	0.0143070
701.161	0.0140311
701.239	0.0138534
701.318	0.0135799
701.396	0.0133662
701.474	0.0130093
701.552	0.0128253
701.630	0.0125867
701.708	0.0123907
701.786	0.0122292
701.864	0.0119732
701.943	0.0118274
702.021	0.0117396
702.099	0.0116388
702.177	0.0114883
702.255	0.0113356
702.333	0.0110983
702.411	0.0111146
702.489	0.0111233
702.568	0.0110355
702.646	0.0111937
702.724	0.0110841
702.802	0.0112911
702.880	0.0113469
702.958	0.0114169
703.036	0.0116006
703.114	0.0116855
703.193	0.0118600
703.271	0.0121603
703.349	0.0123273
703.427	0.0123547
703.505	0.0127527
703.583	0.0127489
703.661	0.0129687
703.739	0.0133003
703.818	0.0132388
703.896	0.0135821
703.974	0.0139108
704.052	0.0140569
704.130	0.0141676
704.208	0.0142838
704.286	0.0144642
704.364	0.0146322
704.443	0.0146181
704.521	0.0148349
704.599	0.0148309
704.677	0.0149085
704.755	0.0150143
704.833	0.0151560
704.911	0.0151960
704.989	0.0151712
705.068	0.0152400
705.146	0.0152800
705.224	0.0154262
705.302	0.0153863
705.380	0.0154726
705.458	0.0155756
705.536	0.0156440
705.614	0.0155602
705.693	0.0156322
705.771	0.0158443
705.849	0.0156216
705.927	0.0156768
706.005	0.0155346
706.083	0.0155426
706.161	0.0153979
706.239	0.0153259
706.318	0.0151109
706.396	0.0149943
706.474	0.0150323
706.552	0.0148526
706.630	0.0144543
706.708	0.0143591
706.786	0.0142322
706.864	0.0139671
706.943	0.0136158
707.021	0.0134660
707.099	0.0132549
707.177	0.0130957
707.255	0.0127914
707.333	0.0125996
707.411	0.0121348
707.489	0.0120811
707.568	0.0119653
707.646	0.0118179
707.724	0.0116863
707.802	0.0115966
707.880	0.0113811
707.958	0.0112234
708.036	0.0111275
708.114	0.0111411
708.193	0.0109594
708.271	0.0109463
708.349	0.0110809
708.427	0.0109368
708.505	0.0109612
708.583	0.0111500
708.661	0.0110658
708.739	0.0112699
708.818	0.0113644
708.896	0.0116168
708.974	0.0116420
709.052	0.0118692
709.130	0.0121561
709.208	0.0122878
709.286	0.0126982
709.364	0.0130677
709.443	0.0130957
709.521	0.0132957
709.599	0.0135311
709.677	0.0138332
709.755	0.0142146
709.833	0.0143294
709.911	0.0144364
709.989	0.0147285
710.068	0.0148663
710.146	0.0150159
710.224	0.0150098
710.302	0.0152473
710.380	0.0151761
710.458	0.0152313
710.536	0.0153961
710.614	0.0153423
710.693	0.0155944
710.771	0.0154604
710.849	0.0154547
710.927	0.0156227
711.005	0.0156296
711.083	0.0154785
711.161	0.0154457
711.239	0.0153777
711.318	0.0154686
711.396	0.0153648
711.474	0.0153368
711.552	0.0152092
711.630	0.0151299
711.708	0.0151636
711.786	0.0149610
711.864	0.0148005
711.943	0.0148572
712.021	0.0145188
712.099	0.0144559
712.177	0.0144152
712.255	0.0141486
712.333	0.0140958
712.411	0.0140925
712.489	0.0139705
712.568	0.0139315
712.646	0.0136674
712.724	0.0135300
712.802	0.0133678
712.880	0.0131990
712.958	0.0131507
713.036	0.0127352
713.114	0.0126395
713.193	0.0124632
713.271	0.0121871
713.349	0.0120554
713.427	0.0118820
713.505	0.0115649
713.583	0.0116006
713.661	0.0113315
713.739	0.0112668
713.818	0.0111796
713.896	0.0111033
713.974	0.0110411
714.052	0.0110366
714.130	0.0108849
714.208	0.0107948
714.286	0.0108345
714.364	0.0107989
714.443	0.0108614
714.521	0.0109223
714.599	0.0108249
714.677	0.0111437
714.755	0.0112118
714.833	0.0114186
714.911	0.0116817
714.989	0.0119848
715.068	0.0121964
715.146	0.0123304
715.224	0.0125963
715.302	0.0130750
715.380	0.0131956
715.458	0.0135073
715.536	0.0137540
715.614	0.0141940
715.693	0.0145619
715.771	0.0147361
715.849	0.0151768
715.927	0.0154246
716.005	0.0154360
716.083	0.0158910
716.161	0.0160830
716.239	0.0162688
716.318	0.0165170
716.396	0.0165617
716.474	0.0166579
716.552	0.0168727
716.630	0.0168890
716.708	0.0168631
716.786	0.0167299
716.864	0.0167332
716.943	0.0166339
717.021	0.0165458
717.099	0.0163531
717.177	0.0161517
717.255	0.0161027
717.333	0.0158928
717.411	0.0155107
717.489	0.0151363
717.568	0.0150407
717.646	0.0147596
717.724	0.0142841
717.802	0.0141721
717.880	0.0138212
717.958	0.0135697
718.036	0.0133790
718.114	0.0131436
718.193	0.0130194
718.271	0.0128001
718.349	0.0125713
718.427	0.0124384
718.505	0.0122783
718.583	0.0121693
718.661	0.0120679
718.739	0.0118885
718.818	0.0119559
718.896	0.0119362
718.974	0.0118195
719.052	0.0117194
719.130	0.0115958
719.208	0.0116574
719.286	0.0115833
719.364	0.0117165
719.443	0.0116141
719.521	0.0116316
719.599	0.0115273
719.677	0.0118015
719.755	0.0118334
719.833	0.0118265
719.911	0.0119788
719.989	0.0120882
720.068	0.0121432
720.146	0.0125368
720.224	0.0125651
720.302	0.0127189
720.380	0.0128285
720.458	0.0128745
720.536	0.0131572
720.614	0.0134175
720.693	0.0134914
720.771	0.0136591
720.849	0.0140099
720.927	0.0141779
721.005	0.0142341
721.083	0.0144979
721.161	0.0148551
721.239	0.0149071
721.318	0.0149812
721.396	0.0150226
721.474	0.0150764
721.552	0.0152826
721.630	0.0151399
721.708	0.0152792
721.786	0.0152665
721.864	0.0151155
721.943	0.0151508
722.021	0.0148822
722.099	0.0149889
722.177	0.0148183
722.255	0.0146585
722.333	0.0145425
722.411	0.0143685
722.489	0.0141748
722.568	0.0140591
722.646	0.0140046
722.724	0.0138969
722.802	0.0137908
722.880	0.0137127
722.958	0.0136306
723.036	0.0136578
723.114	0.0136676
723.193	0.0138321
723.271	0.0137526
723.349	0.0137292
723.427	0.0138712
723.505	0.0137544
723.583	0.0139297
723.661	0.0140629
723.739	0.0140462
723.818	0.0138893
723.896	0.0140907
723.974	0.0140769
724.052	0.0140780
724.130	0.0139263
724.208	0.0139848
724.286	0.0138145
724.364	0.0139551
724.443	0.0137897
724.521	0.0137084
724.599	0.0137111
724.677	0.0134532
724.755	0.0133704
724.833	0.0132290
724.911	0.0131724
724.989	0.0130544
725.068	0.0129599
725.146	0.0129276
725.224	0.0127647
725.302	0.0126430
725.380	0.0125193
725.458	0.0126227
725.536	0.0125156
725.614	0.0123519
725.693	0.0124404
725.771	0.0124843
725.849	0.0126778
725.927	0.0124377
726.005	0.0125991
726.083	0.0126233
726.161	0.0126810
726.239	0.0127898
726.318	0.0128442
726.396	0.0129413
726.474	0.0130520
726.552	0.0130058
726.630	0.0131337
726.708	0.0131154
726.786	0.0131967
726.864	0.0132544
726.943	0.0132308
727.021	0.0133943
727.099	0.0134557
727.177	0.0134435
727.255	0.0134910
727.333	0.0137235
727.411	0.0137163
727.489	0.0137246
727.568	0.0138199
727.646	0.0137759
727.724	0.0138933
727.802	0.0139260
727.880	0.0139448
727.958	0.0139430
728.036	0.0140143
728.114	0.0141513
728.193	0.0142117
728.271	0.0141466
728.349	0.0141434
728.427	0.0142625
728.505	0.0143691
728.583	0.0142754
728.661	0.0142232
728.739	0.0142882
728.818	0.0143802
728.896	0.0144475
728.974	0.0144182
729.052	0.0143203
729.130	0.0145789
729.208	0.0142812
729.286	0.0142897
729.364	0.0144140
729.443	0.0142683
729.521	0.0142702
729.599	0.0141492
729.677	0.0140968
729.755	0.0141583
729.833	0.0139301
729.911	0.0137262
729.989	0.0137445
730.068	0.0136410
730.146	0.0136059
730.224	0.0135623
730.302	0.0136012
730.380	0.0135178
730.458	0.0132992
730.536	0.0135209
730.614	0.0134675
730.693	0.0134589
730.771	0.0135160
730.849	0.0135184
730.927	0.0134899
731.005	0.0135117
731.083	0.0135978
731.161	0.0136888
731.239	0.0136030
731.318	0.0136292
731.396	0.0136594
731.474	0.0137546
731.552	0.0137009
731.630	0.0138070
731.708	0.0138558
731.786	0.0137109
731.864	0.0136590
731.943	0.0136646
732.021	0.0136875
732.099	0.0136344
732.177	0.0136607
732.255	0.0134774
732.333	0.0134370
732.411	0.0134610
732.489	0.0133170
732.568	0.0134093
732.646	0.0132708
732.724	0.0132059
732.802	0.0130315
732.880	0.0130403
732.958	0.0129161
733.036	0.0128834
733.114	0.0129023
733.193	0.0128261
733.271	0.0127203
733.349	0.0128473
733.427	0.0127652
733.505	0.0127233
733.583	0.0127496
733.661	0.0127612
733.739	0.0127531
733.818	0.0128136
733.896	0.0129419
733.974	0.0129669
734.052	0.0129309
734.130	0.0132606
734.208	0.0133102
734.286	0.0134335
734.364	0.0135856
734.443	0.0135410
734.521	0.0138540
734.599	0.0138755
734.677	0.0139545
734.755	0.0141894
734.833	0.0141513
734.911	0.0141052
734.989	0.0143396
735.068	0.0143460
735.146	0.0144574
735.224	0.0144965
735.302	0.0145298
735.380	0.0144877
735.458	0.0143490
735.536	0.0144803
735.614	0.0146135
735.693	0.0144579
735.771	0.0144537
735.849	0.0145341
735.927	0.0144980
736.005	0.0144974
736.083	0.0146806
736.161	0.0145148
736.239	0.0144715
736.318	0.0145146
736.396	0.0144843
736.474	0.0145486
736.552	0.0145228
736.630	0.0144567
736.708	0.0144695
736.786	0.0144646
736.864	0.0143571
736.943	0.0145358
737.021	0.0142532
737.099	0.0141888
737.177	0.0139622
737.255	0.0141200
737.333	0.0140942
737.411	0.0138288
737.489	0.0137066
737.568	0.0135207
737.646	0.0135635
737.724	0.0134514
737.802	0.0133266
737.880	0.0131339
737.958	0.0130125
738.036	0.0128726
738.114	0.0129504
738.193	0.0128162
738.271	0.0128016
738.349	0.0126231
738.427	0.0125819
738.505	0.0125210
738.583	0.0124279
738.661	0.0124805
738.739	0.0124749
738.818	0.0124673
738.896	0.0124840
738.974	0.0122800
739.052	0.0122850
739.130	0.0123248
739.208	0.0123213
739.286	0.0123462
739.364	0.0126746
739.443	0.0127022
739.521	0.0127125
739.599	0.0128521
739.677	0.0129911
739.755	0.0132310
739.833	0.0131388
739.911	0.0133434
739.989	0.0135571
740.068	0.0136188
740.146	0.0137777
740.224	0.0139228
740.302	0.0140294
740.380	0.0141083
740.458	0.0142618
740.536	0.0144747
740.614	0.0143924
740.693	0.0144334
740.771	0.0146545
740.849	0.0146246
740.927	0.0146810
741.005	0.0148623
741.083	0.0148822
741.161	0.0148695
741.239	0.0147867
741.318	0.0147528
741.396	0.0149374
741.474	0.0149191
741.552	0.0148746
741.630	0.0147510
741.708	0.0147638
741.786	0.0146946
741.864	0.0148959
741.943	0.0147916
742.021	0.0147266
742.099	0.0145421
742.177	0.0145835
742.255	0.0144769
742.333	0.0145356
742.411	0.0144588
742.489	0.0141269
742.568	0.0140441
742.646	0.0140483
742.724	0.0139794
742.802	0.0137698
742.880	0.0138338
742.958	0.0137720
743.036	0.0134828
743.114	0.0135555
743.193	0.0132493
743.271	0.0132311
743.349	0.0129976
743.427	0.0128671
743.505	0.0128350
743.583	0.0127486
743.661	0.0127121
743.739	0.0126503
743.818	0.0124697
743.896	0.0123804
743.974	0.0123109
744.052	0.0122497
744.130	0.0124911
744.208	0.0123927
744.286	0.0124281
744.364	0.0126865
744.443	0.0126577
744.521	0.0126682
744.599	0.0127429
744.677	0.0127812
744.755	0.0128738
744.833	0.0130343
744.911	0.0130780
744.989	0.0131641
745.068	0.0130707
745.146	0.0131255
745.224	0.0133051
745.302	0.0135236
745.380	0.0135388
745.458	0.0136176
745.536	0.0136944
745.614	0.0138010
745.693	0.0137910
745.771	0.0138001
745.849	0.0139531
745.927	0.0140291
746.005	0.0141000
746.083	0.0143102
746.161	0.0143000
746.239	0.0142733
746.318	0.0145013
746.396	0.0144775
746.474	0.0145238
746.552	0.0145937
746.630	0.0144712
746.708	0.0146072
746.786	0.0145837
746.864	0.0147823
746.943	0.0146393
747.021	0.0146036
747.099	0.0145818
747.177	0.0147066
747.255	0.0145936
747.333	0.0145834
747.411	0.0146134
747.489	0.0144888
747.568	0.0144903
747.646	0.0145029
747.724	0.0143272
747.802	0.0142481
747.880	0.0140792
747.958	0.0139996
748.036	0.0139629
748.114	0.0137869
748.193	0.0137418
748.271	0.0136215
748.349	0.0135992
748.427	0.0133372
748.505	0.0133607
748.583	0.0131299
748.661	0.0131278
748.739	0.0130063
748.818	0.0130290
748.896	0.0129822
748.974	0.0128302
749.052	0.0127239
749.130	0.0128746
749.208	0.0128286
749.286	0.0127499
749.364	0.0128848
749.443	0.0128325
749.521	0.0128436
749.599	0.0130282
749.677	0.0130004
749.755	0.0130827
749.833	0.0130894
749.911	0.0130558
749.989	0.0130116
750.068	0.0131741
750.146	0.0133186
750.224	0.0133189
750.302	0.0134003
750.380	0.0134702
750.458	0.0134425
750.536	0.0134979
750.614	0.0136214
750.693	0.0135508
750.771	0.0135882
750.849	0.0137457
750.927	0.0137227
751.005	0.0138118
751.083	0.0137997
751.161	0.0139056
751.239	0.0138701
751.318	0.0140195
751.396	0.0140159
751.474	0.0139475
751.552	0.0139817
751.630	0.0142050
751.708	0.0141032
751.786	0.0140723
751.864	0.0141412
751.943	0.0141560
752.021	0.0142684
752.099	0.0142346
752.177	0.0142319
752.255	0.0142414
752.333	0.0140451
752.411	0.0141203
752.489	0.0143083
752.568	0.0140694
752.646	0.0140244
752.724	0.0139984
752.802	0.0141274
752.880	0.0139806
752.958	0.0140176
753.036	0.0138274
753.114	0.0137045
753.193	0.0136962
753.271	0.0137957
753.349	0.0138590
753.427	0.0136800
753.505	0.0137074
753.583	0.0137482
753.661	0.0135413
753.739	0.0136407
753.818	0.0135800
753.896	0.0135715
753.974	0.0136997
754.052	0.0135865
754.130	0.0136688
754.208	0.0134776
754.286	0.0135140
754.364	0.0134174
754.443	0.0133710
754.521	0.0135941
754.599	0.0135281
754.677	0.0135190
754.755	0.0136948
754.833	0.0136296
754.911	0.0136900
754.989	0.0136767
755.068	0.0137325
755.146	0.0137251
755.224	0.0139790
755.302	0.0137640
755.380	0.0139477
755.458	0.0138639
755.536	0.0138495
755.614	0.0139290
755.693	0.0137961
755.771	0.0137925
755.849	0.0138290
755.927	0.0138097
756.005	0.0137061
756.083	0.0137523
756.161	0.0136715
756.239	0.0137317
756.318	0.0135803
756.396	0.0137169
756.474	0.0136123
756.552	0.0135487
756.630	0.0135021
756.708	0.0134578
756.786	0.0135576
756.864	0.0136711
756.943	0.0133844
757.021	0.0133538
757.099	0.0133054
757.177	0.0134169
757.255	0.0133240
757.333	0.0133974
757.411	0.0131472
757.489	0.0131674
757.568	0.0131602
757.646	0.0133045
757.724	0.0133382
757.802	0.0133324
757.880	0.0132523
757.958	0.0133904
758.036	0.0134538
758.114	0.0134661
758.193	0.0135397
758.271	0.0135683
758.349	0.0135175
758.427	0.0137909
758.505	0.0138206
758.583	0.0137843
758.661	0.0139248
758.739	0.0140478
758.818	0.0138924
758.896	0.0137738
758.974	0.0139610
759.052	0.0140981
759.130	0.0140605
759.208	0.0140051
759.286	0.0141540
759.364	0.0140944
759.443	0.0140628
759.521	0.0141881
759.599	0.0141493
759.677	0.0141047
759.755	0.0140382
759.833	0.0141614
759.911	0.0141734
759.989	0.0142091
760.068	0.0141154
760.146	0.0140840
760.224	0.0140895
760.302	0.0141315
760.380	0.0139075
760.458	0.0138531
760.536	0.0138705
760.614	0.0137313
760.693	0.0138171
760.771	0.0138135
760.849	0.0138589
760.927	0.0136628
761.005	0.0136398
761.083	0.0136108
761.161	0.0134599
761.239	0.0133728
761.318	0.0135100
761.396	0.0133629
761.474	0.0133458
761.552	0.0133928
761.630	0.0133408
761.708	0.0132906
761.786	0.0131813
761.864	0.0132523
761.943	0.0133131
762.021	0.0133731
762.099	0.0134002
762.177	0.0133920
762.255	0.0134676
762.333	0.0133994
762.411	0.0134772
762.489	0.0135536
762.568	0.0135025
762.646	0.0135213
762.724	0.0135135
762.802	0.0136396
762.880	0.0135947
762.958	0.0136562
763.036	0.0138667
763.114	0.0138493
763.193	0.0137475
763.271	0.0137865
763.349	0.0138448
763.427	0.0138852
763.505	0.0139625
763.583	0.0140321
763.661	0.0139600
763.739	0.0139448
763.818	0.0141399
763.896	0.0140102
763.974	0.0141209
764.052	0.0142419
764.130	0.0143438
764.208	0.0142008
764.286	0.0143797
764.364	0.0145120
764.443	0.0142986
764.521	0.0144160
764.599	0.0143386
764.677	0.0143130
764.755	0.0142879
764.833	0.0143981
764.911	0.0143725
764.989	0.0141534
765.068	0.0138848
765.146	0.0139311
765.224	0.0140385
765.302	0.0137584
765.380	0.0136727
765.458	0.0136204
765.536	0.0135036
765.614	0.0133212
765.693	0.0132916
765.771	0.0131031
765.849	0.0132557
765.927	0.0131849
766.005	0.0133183
766.083	0.0130448
766.161	0.0131103
766.239	0.0130392
766.318	0.0130213
766.396	0.0129514
766.474	0.0130659
766.552	0.0129362
766.630	0.0129477
766.708	0.0129804
766.786	0.0130490
766.864	0.0131009
766.943	0.0130999
767.021	0.0132104
767.099	0.0131137
767.177	0.0132001
767.255	0.0132491
767.333	0.0133021
767.411	0.0132845
767.489	0.0130875
767.568	0.0133883
767.646	0.0133646
767.724	0.0133353
767.802	0.0132844
767.880	0.0133523
767.958	0.0135500
768.036	0.0136468
768.114	0.0137267
768.193	0.0137891
768.271	0.0138065
768.349	0.0139230
768.427	0.0139612
768.505	0.0139123
768.583	0.0140891
768.661	0.0141625
768.739	0.0141812
768.818	0.0141750
768.896	0.0140274
768.974	0.0139430
769.052	0.0141515
769.130	0.0142413
769.208	0.0140668
769.286	0.0139070
769.364	0.0138900
769.443	0.0139200
769.521	0.0138384
769.599	0.0138231
769.677	0.0139767
769.755	0.0138128
769.833	0.0136752
769.911	0.0137325
769.989	0.0136631
770.068	0.0135071
770.146	0.0135394
770.224	0.0134282
770.302	0.0134138
770.380	0.0134594
770.458	0.0133076
770.536	0.0132210
770.614	0.0130701
770.693	0.0131677
770.771	0.0130907
770.849	0.0131657
770.927	0.0132189
771.005	0.0131895
771.083	0.0132005
771.161	0.0131361
771.239	0.0131583
771.318	0.0133391
771.396	0.0135190
771.474	0.0133624
771.552	0.0133938
771.630	0.0133718
771.708	0.0136530
771.786	0.0135732
771.864	0.0135548
771.943	0.0136929
772.021	0.0137218
772.099	0.0137843
772.177	0.0139137
772.255	0.0138708
772.333	0.0139013
772.411	0.0138680
772.489	0.0139994
772.568	0.0139420
772.646	0.0139651
772.724	0.0138666
772.802	0.0139582
772.880	0.0140027
772.958	0.0139369
773.036	0.0139619
773.114	0.0139634
773.193	0.0138525
773.271	0.0141420
773.349	0.0140527
773.427	0.0140263
773.505	0.0138895
773.583	0.0138582
773.661	0.0138368
773.739	0.0139067
773.818	0.0138113
773.896	0.0137634
773.974	0.0137305
774.052	0.0135195
774.130	0.0134579
774.208	0.0133471
774.286	0.0134338
774.364	0.0134105
774.443	0.0134105
774.521	0.0132361
774.599	0.0132137
774.677	0.0132822
774.755	0.0134293
774.833	0.0134363
774.911	0.0135063
774.989	0.0133818
775.068	0.0134075
775.146	0.0133867
775.224	0.0134795
775.302	0.0134025
775.380	0.0134424
775.458	0.0134997
775.536	0.0135168
775.614	0.0134676
775.693	0.0134592
775.771	0.0135516
775.849	0.0135875
775.927	0.0133891
776.005	0.0136355
776.083	0.0136597
776.161	0.0134955
776.239	0.0134772
776.318	0.0136802
776.396	0.0134309
776.474	0.0135202
776.552	0.0137552
776.630	0.0136742
776.708	0.0137238
776.786	0.0137102
776.864	0.0138865
776.943	0.0138743
777.021	0.0138033
777.099	0.0139259
777.177	0.0139063
777.255	0.0139613
777.333	0.0139227
777.411	0.0141321
777.489	0.0140667
777.568	0.0140416
777.646	0.0140984
777.724	0.0141495
777.802	0.0141862
777.880	0.0141597
777.958	0.0141896
778.036	0.0141230
778.114	0.0141326
778.193	0.0140302
778.271	0.0139908
778.349	0.0140266
778.427	0.0140063
778.505	0.0139152
778.583	0.0138650
778.661	0.0136795
778.739	0.0137151
778.818	0.0136289
778.896	0.0137225
778.974	0.0135427
779.052	0.0134785
779.130	0.0135847
779.208	0.0133773
779.286	0.0134941
779.364	0.0133526
779.443	0.0132943
779.521	0.0134510
779.599	0.0133468
779.677	0.0133944
779.755	0.0134286
779.833	0.0135586
779.911	0.0135990
779.989	0.0135773
780.068	0.0135846
780.146	0.0135612
780.224	0.0135739
780.302	0.0137426
780.380	0.0137595
780.458	0.0137933
780.536	0.0139011
780.614	0.0137499
780.693	0.0138811
780.771	0.0138569
780.849	0.0138071
780.927	0.0139646
781.005	0.0140859
781.083	0.0138365
781.161	0.0140950
781.239	0.0139881
781.318	0.0139860
781.396	0.0140609
781.474	0.0138633
781.552	0.0138822
781.630	0.0139520
781.708	0.0140102
781.786	0.0138193
781.864	0.0139266
781.943	0.0137967
782.021	0.0137583
782.099	0.0137762
782.177	0.0136854
782.255	0.0137936
782.333	0.0136273
782.411	0.0135526
782.489	0.0135987
782.568	0.0135849
782.646	0.0134692
782.724	0.0133571
782.802	0.0133640
782.880	0.0133922
782.958	0.0133071
783.036	0.0133427
783.114	0.0133569
783.193	0.0132658
783.271	0.0132308
783.349	0.0131639
783.427	0.0131262
783.505	0.0131213
783.583	0.0132387
783.661	0.0132902
783.739	0.0132914
783.818	0.0132028
783.896	0.0133206
783.974	0.0132846
784.052	0.0133150
784.130	0.0132048
784.208	0.0134687
784.286	0.0134777
784.364	0.0134400
784.443	0.0135886
784.521	0.0136413
784.599	0.0135588
784.677	0.0135817
784.755	0.0135594
784.833	0.0136894
784.911	0.0136964
784.989	0.0136259
785.068	0.0137655
785.146	0.0137107
785.224	0.0137657
785.302	0.0136076
785.380	0.0137681
785.458	0.0139387
785.536	0.0137173
785.614	0.0137660
785.693	0.0138625
785.771	0.0138687
785.849	0.0139453
785.927	0.0138590
786.005	0.0138422
786.083	0.0139584
786.161	0.0138265
786.239	0.0137893
786.318	0.0140479
786.396	0.0138910
786.474	0.0139899
786.552	0.0138257
786.630	0.0139573
786.708	0.0139853
786.786	0.0138641
786.864	0.0137006
786.943	0.0138576
787.021	0.0136375
787.099	0.0136348
787.177	0.0137992
787.255	0.0135603
787.333	0.0134908
787.411	0.0134131
787.489	0.0132706
787.568	0.0132090
787.646	0.0130436
787.724	0.0130407
787.802	0.0129335
787.880	0.0128394
787.958	0.0128564
788.036	0.0128743
788.114	0.0128445
788.193	0.0128401
788.271	0.0127517
788.349	0.0128246
788.427	0.0127586
788.505	0.0128732
788.583	0.0129487
788.661	0.0128706
788.739	0.0131702
788.818	0.0129762
788.896	0.0130094
788.974	0.0131412
789.052	0.0133371
789.130	0.0134537
789.208	0.0132646
789.286	0.0133071
789.364	0.0135476
789.443	0.0136665
789.521	0.0137077
789.599	0.0136258
789.677	0.0138474
789.755	0.0137383
789.833	0.0138578
789.911	0.0138713
789.989	0.0138976
790.068	0.0139313
790.146	0.0139355
790.224	0.0140530
790.302	0.0139516
790.380	0.0141193
790.458	0.0140697
790.536	0.0140473
790.614	0.0141557
790.693	0.0142931
790.771	0.0141490
790.849	0.0142413
790.927	0.0140189
791.005	0.0139549
791.083	0.0141245
791.161	0.0139439
791.239	0.0139156
791.318	0.0139779
791.396	0.0140479
791.474	0.0139069
791.552	0.0139727
791.630	0.0138377
791.708	0.0137643
791.786	0.0137439
791.864	0.0138313
791.943	0.0138142
792.021	0.0136290
792.099	0.0135825
792.177	0.0135378
792.255	0.0134709
792.333	0.0135332
792.411	0.0134091
792.489	0.0135275
792.568	0.0134821
792.646	0.0132933
792.724	0.0131863
792.802	0.0133001
792.880	0.0133814
792.958	0.0131654
793.036	0.0130063
793.114	0.0131580
793.193	0.0129675
793.271	0.0130859
793.349	0.0130325
793.427	0.0129156
793.505	0.0129026
793.583	0.0129004
793.661	0.0129023
793.739	0.0129674
793.818	0.0129314
793.896	0.0130403
793.974	0.0130417
794.052	0.0130988
794.130	0.0131064
794.208	0.0131086
794.286	0.0131940
794.364	0.0133742
794.443	0.0135701
794.521	0.0135561
794.599	0.0134632
794.677	0.0135728
794.755	0.0137318
794.833	0.0138497
794.911	0.0138387
794.989	0.0138405
795.068	0.0138161
795.146	0.0139516
795.224	0.0139610
795.302	0.0139433
795.380	0.0140231
795.458	0.0140759
795.536	0.0140005
795.614	0.0138895
795.693	0.0139882
795.771	0.0141293
795.849	0.0140372
795.927	0.0139838
796.005	0.0139411
796.083	0.0139413
796.161	0.0139729
796.239	0.0139832
796.318	0.0140366
796.396	0.0138192
796.474	0.0139690
796.552	0.0139304
796.630	0.0138594
796.708	0.0139990
796.786	0.0139291
796.864	0.0139694
796.943	0.0139632
797.021	0.0138702
797.099	0.0138991
797.177	0.0139291
797.255	0.0138286
797.333	0.0137437
797.411	0.0137823
797.489	0.0137814
797.568	0.0137691
797.646	0.0136825
797.724	0.0138927
797.802	0.0138967
797.880	0.0135677
797.958	0.0136068
798.036	0.0135447
798.114	0.0135951
798.193	0.0135625
798.271	0.0135056
798.349	0.0133299
798.427	0.0135013
798.505	0.0134625
798.583	0.0132789
798.661	0.0131568
798.739	0.0131746
798.818	0.0131825
798.896	0.0130305
798.974	0.0130346
799.052	0.0129813
799.130	0.0129458
799.208	0.0131264
799.286	0.0128471
799.364	0.0129149
799.443	0.0128570
799.521	0.0130958
799.599	0.0130412
799.677	0.0131006
799.755	0.0130923
799.833	0.0131204
799.911	0.0132840
799.989	0.0132487
800.068	0.0133031
800.146	0.0133443
800.224	0.0133443
800.302	0.0134170
800.380	0.0134425
800.458	0.0135147
800.536	0.0133436
800.614	0.0134784
800.693	0.0135956
800.771	0.0136459
800.849	0.0137453
800.927	0.0138458
801.005	0.0137986
801.083	0.0138524
801.161	0.0138348
801.239	0.0140952
801.318	0.0138888
801.396	0.0139075
801.474	0.0140462
801.552	0.0139671
801.630	0.0140928
801.708	0.0139745
801.786	0.0139416
801.864	0.0139271
801.943	0.0139536
802.021	0.0138548
802.099	0.0139435
802.177	0.0137930
802.255	0.0139214
802.333	0.0140202
802.411	0.0138383
802.489	0.0137147
802.568	0.0138966
802.646	0.0138813
802.724	0.0137858
802.802	0.0137463
802.880	0.0137764
802.958	0.0137746
803.036	0.0137859
803.114	0.0137514
803.193	0.0136722
803.271	0.0137805
803.349	0.0136005
803.427	0.0134396
803.505	0.0135226
803.583	0.0133898
803.661	0.0133874
803.739	0.0134120
803.818	0.0134140
803.896	0.0132810
803.974	0.0132864
804.052	0.0130307
804.130	0.0132467
804.208	0.0130778
804.286	0.0130931
804.364	0.0130574
804.443	0.0130280
804.521	0.0130215
804.599	0.0131497
804.677	0.0129986
804.755	0.0129958
804.833	0.0129450
804.911	0.0130676
804.989	0.0129934
805.068	0.0129395
805.146	0.0130671
805.224	0.0129812
805.302	0.0130728
805.380	0.0130418
805.458	0.0131622
805.536	0.0132397
805.614	0.0133295
805.693	0.0131794
805.771	0.0133395
805.849	0.0133871
805.927	0.0133682
806.005	0.0134678
806.083	0.0134312
806.161	0.0135454
806.239	0.0135875
806.318	0.0136020
806.396	0.0136313
806.474	0.0136710
806.552	0.0136398
806.630	0.0137827
806.708	0.0138470
806.786	0.0138316
806.864	0.0139955
806.943	0.0138907
807.021	0.0138776
807.099	0.0140213
807.177	0.0140228
807.255	0.0140303
807.333	0.0140545
807.411	0.0139613
807.489	0.0139837
807.568	0.0141508
807.646	0.0140424
807.724	0.0138898
807.802	0.0140426
807.880	0.0141269
807.958	0.0140064
808.036	0.0139890
808.114	0.0140670
808.193	0.0139527
808.271	0.0138157
808.349	0.0139336
808.427	0.0139050
808.505	0.0138947
808.583	0.0138225
808.661	0.0136997
808.739	0.0136696
808.818	0.0135995
808.896	0.0136180
808.974	0.0134961
809.052	0.0135369
809.130	0.0134499
809.208	0.0134742
809.286	0.0134743
809.364	0.0132913
809.443	0.0132912
809.521	0.0132481
809.599	0.0131897
809.677	0.0133090
809.755	0.0131406
809.833	0.0132733
809.911	0.0130109
809.989	0.0129279
810.068	0.0128418
810.146	0.0128909
810.224	0.0128568
810.302	0.0128774
810.380	0.0128016
810.458	0.0128641
810.536	0.0128361
810.614	0.0128596
810.693	0.0127281
810.771	0.0129488
810.849	0.0129843
810.927	0.0129569
811.005	0.0130111
811.083	0.0130315
811.161	0.0131786
811.239	0.0132865
811.318	0.0132648
811.396	0.0132971
811.474	0.0134303
811.552	0.0135508
811.630	0.0134710
811.708	0.0136102
811.786	0.0138171
811.864	0.0138602
811.943	0.0140285
812.021	0.0139908
812.099	0.0140424
812.177	0.0141527
812.255	0.0142362
812.333	0.0141734
812.411	0.0142941
812.489	0.0142392
812.568	0.0142616
812.646	0.0143238
812.724	0.0142347
812.802	0.0143223
812.880	0.0142898
812.958	0.0142200
813.036	0.0142419
813.114	0.0141251
813.193	0.0141333
813.271	0.0140010
813.349	0.0139883
813.427	0.0140658
813.505	0.0138585
813.583	0.0138100
813.661	0.0137662
813.739	0.0137735
813.818	0.0136236
813.896	0.0136427
813.974	0.0134587
814.052	0.0134114
814.130	0.0134242
814.208	0.0134452
814.286	0.0133588
814.364	0.0132536
814.443	0.0132807
814.521	0.0132101
814.599	0.0132160
814.677	0.0132375
814.755	0.0132494
814.833	0.0129845
814.911	0.0130626
814.989	0.0132177
815.068	0.0131129
815.146	0.0129475
815.224	0.0129711
815.302	0.0131008
815.380	0.0129511
815.458	0.0129857
815.536	0.0131079
815.614	0.0131689
815.693	0.0130907
815.771	0.0133156
815.849	0.0133366
815.927	0.0132433
816.005	0.0132658
816.083	0.0133987
816.161	0.0133678
816.239	0.0134482
816.318	0.0133316
816.396	0.0134044
816.474	0.0135423
816.552	0.0134681
816.630	0.0134397
816.708	0.0135848
816.786	0.0136387
816.864	0.0135504
816.943	0.0134753
817.021	0.0135340
817.099	0.0135046
817.177	0.0136040
817.255	0.0136832
817.333	0.0137267
817.411	0.0135903
817.489	0.0137477
817.568	0.0135004
817.646	0.0136693
817.724	0.0138821
817.802	0.0137755
817.880	0.0138197
817.958	0.0138420
818.036	0.0138458
818.114	0.0138857
818.193	0.0140488
818.271	0.0140147
818.349	0.0140878
818.427	0.0140814
818.505	0.0140140
818.583	0.0139953
818.661	0.0140056
818.739	0.0141053
818.818	0.0139758
818.896	0.0139506
818.974	0.0139293
819.052	0.0141117
819.130	0.0140211
819.208	0.0138655
819.286	0.0137917
819.364	0.0137836
819.443	0.0137821
819.521	0.0137254
819.599	0.0136687
819.677	0.0137024
819.755	0.0136613
819.833	0.0135528
819.911	0.0136343
819.989	0.0133844
820.068	0.0135007
820.146	0.0134852
820.224	0.0134883
820.302	0.0134661
820.380	0.0133509
820.458	0.0134316
820.536	0.0134134
820.614	0.0133249
820.693	0.0133491
820.771	0.0134605
820.849	0.0134138
820.927	0.0134042
821.005	0.0135109
821.083	0.0136488
821.161	0.0137163
821.239	0.0139504
821.318	0.0137214
821.396	0.0136816
821.474	0.0138224
821.552	0.0139163
821.630	0.0140859
821.708	0.0138380
821.786	0.0139405
821.864	0.0141663
821.943	0.0142124
822.021	0.0140998
822.099	0.0141764
822.177	0.0141833
822.255	0.0140176
822.333	0.0140728
822.411	0.0139452
822.489	0.0139211
822.568	0.0138461
822.646	0.0137309
822.724	0.0135876
822.802	0.0136017
822.880	0.0135390
822.958	0.0134487
823.036	0.0133289
823.114	0.0132975
823.193	0.0132563
823.271	0.0133729
823.349	0.0132331
823.427	0.0131683
823.505	0.0131946
823.583	0.0132420
823.661	0.0132609
823.739	0.0131969
823.818	0.0131860
823.896	0.0133127
823.974	0.0133158
824.052	0.0134843
824.130	0.0135758
824.208	0.0134557
824.286	0.0136809
824.364	0.0135515
824.443	0.0136749
824.521	0.0135555
824.599	0.0136216
824.677	0.0137115
824.755	0.0138758
824.833	0.0137146
824.911	0.0136181
824.989	0.0137126
825.068	0.0137772
825.146	0.0137939
825.224	0.0138237
825.302	0.0138855
825.380	0.0138452
825.458	0.0137660
825.536	0.0139159
825.614	0.0139397
825.693	0.0139758
825.771	0.0139278
825.849	0.0138525
825.927	0.0138088
826.005	0.0137295
826.083	0.0137158
826.161	0.0136961
826.239	0.0134855
826.318	0.0134212
826.396	0.0135266
826.474	0.0134755
826.552	0.0132256
826.630	0.0133623
826.708	0.0134203
826.786	0.0132861
826.864	0.0134344
826.943	0.0134451
827.021	0.0133162
827.099	0.0134777
827.177	0.0135629
827.255	0.0135468
827.333	0.0135052
827.411	0.0135614
827.489	0.0135178
827.568	0.0136870
827.646	0.0137038
827.724	0.0138095
827.802	0.0137119
827.880	0.0136580
827.958	0.0136792
828.036	0.0136813
828.114	0.0136546
828.193	0.0137304
828.271	0.0136652
828.349	0.0137882
828.427	0.0137729
828.505	0.0136936
828.583	0.0136729
828.661	0.0137550
828.739	0.0139038
828.818	0.0138081
828.896	0.0137319
828.974	0.0136282
829.052	0.0138304
829.130	0.0136509
829.208	0.0136527
829.286	0.0136256
829.364	0.0135477
829.443	0.0134499
829.521	0.0134618
829.599	0.0133693
829.677	0.0133660
829.755	0.0132596
829.833	0.0131920
829.911	0.0132491
829.989	0.0132056
830.068	0.0132382
830.146	0.0131638
830.224	0.0132089
830.302	0.0132488
830.380	0.0131771
830.458	0.0132035
830.536	0.0132388
830.614	0.0133064
830.693	0.0133949
830.771	0.0134337
830.849	0.0134489
830.927	0.0135752
831.005	0.0136713
831.083	0.0136411
831.161	0.0137259
831.239	0.0138620
831.318	0.0137975
831.396	0.0140315
831.474	0.0141213
831.552	0.0140188
831.630	0.0139485
831.708	0.0139987
831.786	0.0140247
831.864	0.0141280
831.943	0.0140553
832.021	0.0138402
832.099	0.0139773
832.177	0.0141257
832.255	0.0140904
832.333	0.0139378
832.411	0.0138663
832.489	0.0140330
832.568	0.0138834
832.646	0.0139514
832.724	0.0137843
832.802	0.0137570
832.880	0.0139162
832.958	0.0138669
833.036	0.0137225
833.114	0.0136021
833.193	0.0136559
833.271	0.0136812
833.349	0.0136660
833.427	0.0137299
833.505	0.0137317
833.583	0.0137698
833.661	0.0136584
833.739	0.0135178
833.818	0.0137441
833.896	0.0137829
833.974	0.0138661
834.052	0.0138376
834.130	0.0139043
834.208	0.0138977
834.286	0.0139406
834.364	0.0137272
834.443	0.0138677
834.521	0.0137745
834.599	0.0138014
834.677	0.0138299
834.755	0.0136475
834.833	0.0136700
834.911	0.0137717
834.989	0.0135783
835.068	0.0136443
835.146	0.0136320
835.224	0.0133894
835.302	0.0134102
835.380	0.0135536
835.458	0.0133886
835.536	0.0133656
835.614	0.0134335
835.693	0.0133939
835.771	0.0133871
835.849	0.0133512
835.927	0.0133585
836.005	0.0133395
836.083	0.0133978
836.161	0.0133871
836.239	0.0134336
836.318	0.0135139
836.396	0.0134903
836.474	0.0136721
836.552	0.0136790
836.630	0.0135317
836.708	0.0135645
836.786	0.0138923
836.864	0.0138679
836.943	0.0138393
837.021	0.0139308
837.099	0.0139670
837.177	0.0141463
837.255	0.0141367
837.333	0.0140916
837.411	0.0142294
837.489	0.0142088
837.568	0.0140887
837.646	0.0141553
837.724	0.0142476
837.802	0.0142467
837.880	0.0143730
837.958	0.0142635
838.036	0.0141042
838.114	0.0140724
838.193	0.0141101
838.271	0.0140945
838.349	0.0141133
838.427	0.0138976
838.505	0.0139054
838.583	0.0138562
838.661	0.0137997
838.739	0.0136776
838.818	0.0135946
838.896	0.0136824
838.974	0.0135987
839.052	0.0135975
839.130	0.0133722
839.208	0.0135190
839.286	0.0134412
839.364	0.0135226
839.443	0.0135509
839.521	0.0136948
839.599	0.0136818
839.677	0.0135581
839.755	0.0135886
839.833	0.0135583
839.911	0.0135436
839.989	0.0134483
840.068	0.0134305
840.146	0.0134393
840.224	0.0135121
840.302	0.0134971
840.380	0.0134378
840.458	0.0134590
840.536	0.0133871
840.614	0.0133458
840.693	0.0133962
840.771	0.0135145
840.849	0.0133636
840.927	0.0134244
841.005	0.0133794
841.083	0.0134450
841.161	0.0134963
841.239	0.0131969
841.318	0.0133398
841.396	0.0134029
841.474	0.0132961
841.552	0.0134429
841.630	0.0134204
841.708	0.0134088
841.786	0.0135186
841.864	0.0135957
841.943	0.0136428
842.021	0.0134848
842.099	0.0135247
842.177	0.0135995
842.255	0.0137160
842.333	0.0136572
842.411	0.0136787
842.489	0.0136092
842.568	0.0136990
842.646	0.0138625
842.724	0.0138141
842.802	0.0137171
842.880	0.0137667
842.958	0.0138740
843.036	0.0138501
843.114	0.0138439
843.193	0.0138513
843.271	0.0138593
843.349	0.0137107
843.427	0.0137768
843.505	0.0139236
843.583	0.0136840
843.661	0.0138811
843.739	0.0139703
843.818	0.0137376
843.896	0.0138815
843.974	0.0138751
844.052	0.0138542
844.130	0.0138889
844.208	0.0137876
844.286	0.0137975
844.364	0.0137843
844.443	0.0137448
844.521	0.0139423
844.599	0.0137653
844.677	0.0139590
844.755	0.0138352
844.833	0.0138931
844.911	0.0137473
844.989	0.0137048
845.068	0.0136885
845.146	0.0137015
845.224	0.0135819
845.302	0.0135644
845.380	0.0134554
845.458	0.0134715
845.536	0.0135725
845.614	0.0135124
845.693	0.0133555
845.771	0.0133156
845.849	0.0133270
845.927	0.0131693
846.005	0.0131495
846.083	0.0131834
846.161	0.0131807
846.239	0.0132305
846.318	0.0131238
846.396	0.0131847
846.474	0.0131239
846.552	0.0131172
846.630	0.0131612
846.708	0.0131596
846.786	0.0129803
846.864	0.0129488
846.943	0.0130959
847.021	0.0130582
847.099	0.0131841
847.177	0.0132920
847.255	0.0133212
847.333	0.0134918
847.411	0.0135531
847.489	0.0135098
847.568	0.0136638
847.646	0.0136180
847.724	0.0138673
847.802	0.0139535
847.880	0.0139833
847.958	0.0140788
848.036	0.0139973
848.114	0.0141531
848.193	0.0141595
848.271	0.0141341
848.349	0.0140828
848.427	0.0141181
848.505	0.0141462
848.583	0.0140063
848.661	0.0138540
848.739	0.0138942
848.818	0.0137673
848.896	0.0136595
848.974	0.0135249
849.052	0.0136235
849.130	0.0135161
849.208	0.0135992
849.286	0.0136691
849.364	0.0136045
849.443	0.0137244
849.521	0.0136633
849.599	0.0137505
849.677	0.0137651
849.755	0.0136417
849.833	0.0137920
849.911	0.0139066
849.989	0.0138477
850.068	0.0140078
850.146	0.0139069
850.224	0.0137968
850.302	0.0138137
850.380	0.0139429
850.458	0.0139439
850.536	0.0137777
850.614	0.0137334
850.693	0.0137778
850.771	0.0136768
850.849	0.0134960
850.927	0.0135612
851.005	0.0135283
851.083	0.0134255
851.161	0.0134781
851.239	0.0135690
851.318	0.0135103
851.396	0.0134306
851.474	0.0135516
851.552	0.0133383
851.630	0.0134766
851.708	0.0133964
851.786	0.0133031
851.864	0.0133953
851.943	0.0135130
852.021	0.0136353
852.099	0.0133572
852.177	0.0134296
852.255	0.0135757
852.333	0.0135660
852.411	0.0134795
852.489	0.0135083
852.568	0.0136374
852.646	0.0136703
852.724	0.0136368
852.802	0.0137384
852.880	0.0136507
852.958	0.0136876
853.036	0.0138120
853.114	0.0137405
853.193	0.0136613
853.271	0.0137565
853.349	0.0136953
853.427	0.0138528
853.505	0.0138626
853.583	0.0137840
853.661	0.0138016
853.739	0.0136858
853.818	0.0137865
853.896	0.0138609
853.974	0.0136938
854.052	0.0138483
854.130	0.0138586
854.208	0.0137560
854.286	0.0136967
854.364	0.0137838
854.443	0.0138393
854.521	0.0137900
854.599	0.0136816
854.677	0.0136994
854.755	0.0138387
854.833	0.0138979
854.911	0.0138171
854.989	0.0139047
855.068	0.0138766
855.146	0.0138319
855.224	0.0139172
855.302	0.0138924
855.380	0.0139044
855.458	0.0140163
855.536	0.0139368
855.614	0.0138777
855.693	0.0141364
855.771	0.0141115
855.849	0.0140362
855.927	0.0141744
856.005	0.0142416
856.083	0.0139955
856.161	0.0139384
856.239	0.0139304
856.318	0.0138836
856.396	0.0139564
856.474	0.0138467
856.552	0.0139358
856.630	0.0138058
856.708	0.0138293
856.786	0.0135870
856.864	0.0135864
856.943	0.0135099
857.021	0.0134300
857.099	0.0136418
857.177	0.0135723
857.255	0.0134876
857.333	0.0134782
857.411	0.0132513
857.489	0.0133506
857.568	0.0132239
857.646	0.0132706
857.724	0.0133717
857.802	0.0133445
857.880	0.0133579
857.958	0.0134104
858.036	0.0134151
858.114	0.0133815
858.193	0.0134177
858.271	0.0133991
858.349	0.0135104
858.427	0.0136013
858.505	0.0136632
858.583	0.0136846
858.661	0.0136257
858.739	0.0136449
858.818	0.0135857
858.896	0.0136747
858.974	0.0137161
859.052	0.0135398
859.130	0.0135593
859.208	0.0136976
859.286	0.0136099
859.364	0.0135281
859.443	0.0134803
859.521	0.0134519
859.599	0.0135616
859.677	0.0135648
859.755	0.0134581
859.833	0.0136200
859.911	0.0136171
859.989	0.0136394
860.068	0.0136566
860.146	0.0138879
860.224	0.0137219
860.302	0.0138855
860.380	0.0138784
860.458	0.0139135
860.536	0.0140017
860.614	0.0140218
860.693	0.0142119
860.771	0.0141415
860.849	0.0140540
860.927	0.0141953
861.005	0.0141914
861.083	0.0141434
861.161	0.0140156
861.239	0.0141043
861.318	0.0141360
861.396	0.0139130
861.474	0.0139158
861.552	0.0137810
861.630	0.0139230
861.708	0.0138998
861.786	0.0137655
861.864	0.0136670
861.943	0.0136359
862.021	0.0136575
862.099	0.0137563
862.177	0.0136723
862.255	0.0135048
862.333	0.0134395
862.411	0.0133806
862.489	0.0136121
862.568	0.0134957
862.646	0.0134903
862.724	0.0136127
862.802	0.0137820
862.880	0.0137137
862.958	0.0137679
863.036	0.0136804
863.114	0.0136927
863.193	0.0135716
863.271	0.0136167
863.349	0.0137035
863.427	0.0136104
863.505	0.0137176
863.583	0.0136223
863.661	0.0136481
863.739	0.0135901
863.818	0.0136395
863.896	0.0135883
863.974	0.0135844
864.052	0.0135513
864.130	0.0135462
864.208	0.0135121
864.286	0.0135129
864.364	0.0133479
864.443	0.0132870
864.521	0.0134232
864.599	0.0133379
864.677	0.0134172
864.755	0.0135665
864.833	0.0133189
864.911	0.0133229
864.989	0.0134402
865.068	0.0135449
865.146	0.0134130
865.224	0.0135922
865.302	0.0136637
865.380	0.0134812
865.458	0.0135588
865.536	0.0137209
865.614	0.0137135
865.693	0.0137094
865.771	0.0136726
865.849	0.0138164
865.927	0.0138159
866.005	0.0138242
866.083	0.0138528
866.161	0.0139532
866.239	0.0138228
866.318	0.0139732
866.396	0.0138333
866.474	0.0139175
866.552	0.0139830
866.630	0.0137782
866.708	0.0138424
866.786	0.0138140
866.864	0.0138273
866.943	0.0135470
867.021	0.0136187
867.099	0.0137342
867.177	0.0136358
867.255	0.0135915
867.333	0.0135543
867.411	0.0134943
867.489	0.0133687
867.568	0.0134737
867.646	0.0134489
867.724	0.0134068
867.802	0.0134325
867.880	0.0134529
867.958	0.0134172
868.036	0.0134131
868.114	0.0133154
868.193	0.0132933
868.271	0.0133815
868.349	0.0134267
868.427	0.0133633
868.505	0.0134270
868.583	0.0134980
868.661	0.0134548
868.739	0.0133902
868.818	0.0134885
868.896	0.0134883
868.974	0.0135759
869.052	0.0135332
869.130	0.0134931
869.208	0.0135403
869.286	0.0135348
869.364	0.0135011
869.443	0.0134496
869.521	0.0134431
869.599	0.0135690
869.677	0.0134694
869.755	0.0134814
869.833	0.0135682
869.911	0.0133530
869.989	0.0133794
870.068	0.0135192
870.146	0.0133602
870.224	0.0134721
870.302	0.0134060
870.380	0.0133193
870.458	0.0134427
870.536	0.0132523
870.614	0.0134219
870.693	0.0133826
870.771	0.0132629
870.849	0.0135798
870.927	0.0135718
871.005	0.0135315
871.083	0.0134745
871.161	0.0134693
871.239	0.0134644
871.318	0.0135685
871.396	0.0135617
871.474	0.0136485
871.552	0.0138246
871.630	0.0137732
871.708	0.0136847
871.786	0.0137458
871.864	0.0136874
871.943	0.0138190
872.021	0.0137342
872.099	0.0137759
872.177	0.0138458
872.255	0.0137685
872.333	0.0137840
872.411	0.0138143
872.489	0.0136923
872.568	0.0136292
872.646	0.0135645
872.724	0.0136761
872.802	0.0137078
872.880	0.0136810
872.958	0.0137841
873.036	0.0137765
873.114	0.0136765
873.193	0.0137162
873.271	0.0137832
873.349	0.0135853
873.427	0.0135765
873.505	0.0137226
873.583	0.0136713
873.661	0.0136279
873.739	0.0138156
873.818	0.0137342
873.896	0.0137386
873.974	0.0137728
874.052	0.0138805
874.130	0.0137389
874.208	0.0136633
874.286	0.0136362
874.364	0.0137598
874.443	0.0136031
874.521	0.0136785
874.599	0.0136461
874.677	0.0135780
874.755	0.0136311
874.833	0.0134647
874.911	0.0135585
874.989	0.0135332
875.068	0.0134071
875.146	0.0133163
875.224	0.0134921
875.302	0.0133572
875.380	0.0133574
875.458	0.0133323
875.536	0.0132451
875.614	0.0133430
875.693	0.0134397
875.771	0.0133600
875.849	0.0133916
875.927	0.0132899
876.005	0.0133481
876.083	0.0135951
876.161	0.0135214
876.239	0.0134406
876.318	0.0137095
876.396	0.0136553
876.474	0.0136546
876.552	0.0137822
876.630	0.0137458
876.708	0.0138200
876.786	0.0137056
876.864	0.0138194
876.943	0.0136983
877.021	0.0135962
877.099	0.0136658
877.177	0.0136681
877.255	0.0136752
877.333	0.0136366
877.411	0.0136243
877.489	0.0135877
877.568	0.0135822
877.646	0.0137055
877.724	0.0135687
877.802	0.0137753
877.880	0.0139439
877.958	0.0136916
878.036	0.0136361
878.114	0.0137213
878.193	0.0136777
878.271	0.0137614
878.349	0.0138287
878.427	0.0137897
878.505	0.0138956
878.583	0.0138815
878.661	0.0137559
878.739	0.0138948
878.818	0.0139841
878.896	0.0137957
878.974	0.0138801
879.052	0.0138097
879.130	0.0136935
879.208	0.0137201
879.286	0.0137052
879.364	0.0136833
879.443	0.0135809
879.521	0.0136317
879.599	0.0136378
879.677	0.0136623
879.755	0.0136829
879.833	0.0136613
879.911	0.0136249
879.989	0.0135632
880.068	0.0135217
880.146	0.0136343
880.224	0.0134666
880.302	0.0134829
880.380	0.0135519
880.458	0.0135835
880.536	0.0137100
880.614	0.0136312
880.693	0.0133756
880.771	0.0136464
880.849	0.0135030
880.927	0.0134624
881.005	0.0134880
881.083	0.0136429
881.161	0.0136354
881.239	0.0135966
881.318	0.0138522
881.396	0.0137810
881.474	0.0136995
881.552	0.0138380
881.630	0.0139171
881.708	0.0139850
881.786	0.0139355
881.864	0.0139693
881.943	0.0138947
882.021	0.0139803
882.099	0.0140354
882.177	0.0137791
882.255	0.0137730
882.333	0.0138826
882.411	0.0138311
882.489	0.0136978
882.568	0.0137129
882.646	0.0137337
882.724	0.0136807
882.802	0.0138126
882.880	0.0136078
882.958	0.0135163
883.036	0.0136160
883.114	0.0136850
883.193	0.0137467
883.271	0.0136182
883.349	0.0137273
883.427	0.0137618
883.505	0.0136105
883.583	0.0135451
883.661	0.0135914
883.739	0.0136633
883.818	0.0135500
883.896	0.0134176
883.974	0.0136371
884.052	0.0136687
884.130	0.0136792
884.208	0.0136047
884.286	0.0136113
884.364	0.0136225
884.443	0.0134611
884.521	0.0135812
884.599	0.0135640
884.677	0.0135725
884.755	0.0135989
884.833	0.0136891
884.911	0.0135436
884.989	0.0136745
885.068	0.0136359
885.146	0.0136654
885.224	0.0136519
885.302	0.0136745
885.380	0.0137675
885.458	0.0137199
885.536	0.0137379
885.614	0.0136492
885.693	0.0136616
885.771	0.0137051
885.849	0.0137762
885.927	0.0136962
886.005	0.0137964
886.083	0.0137553
886.161	0.0136416
886.239	0.0138982
886.318	0.0137578
886.396	0.0139139
886.474	0.0137960
886.552	0.0138296
886.630	0.0139470
886.708	0.0136828
886.786	0.0137428
886.864	0.0138378
886.943	0.0138914
887.021	0.0138457
887.099	0.0137032
887.177	0.0137431
887.255	0.0138383
887.333	0.0138036
887.411	0.0137674
887.489	0.0136726
887.568	0.0135771
887.646	0.0136800
887.724	0.0136797
887.802	0.0135393
887.880	0.0136315
887.958	0.0136958
888.036	0.0137074
888.114	0.0136073
888.193	0.0137147
888.271	0.0135680
888.349	0.0136739
888.427	0.0136286
888.505	0.0135619
888.583	0.0135293
888.661	0.0134783
888.739	0.0134784
888.818	0.0134895
888.896	0.0136074
888.974	0.0134548
889.052	0.0135810
889.130	0.0135243
889.208	0.0134385
889.286	0.0136465
889.364	0.0136454
889.443	0.0137575
889.521	0.0135440
889.599	0.0136147
889.677	0.0136174
889.755	0.0136036
889.833	0.0136755
889.911	0.0137080
889.989	0.0137109
890.068	0.0135600
890.146	0.0136543
890.224	0.0135356
890.302	0.0136837
890.380	0.0137398
890.458	0.0136295
890.536	0.0135736
890.614	0.0136745
890.693	0.0135586
890.771	0.0137164
890.849	0.0135867
890.927	0.0136064
891.005	0.0135619
891.083	0.0137312
891.161	0.0136756
891.239	0.0135149
891.318	0.0135578
891.396	0.0135481
891.474	0.0135337
891.552	0.0135489
891.630	0.0135200
891.708	0.0135931
891.786	0.0135605
891.864	0.0136133
891.943	0.0136709
892.021	0.0135728
892.099	0.0136292
892.177	0.0136686
892.255	0.0136060
892.333	0.0137278
892.411	0.0136047
892.489	0.0136427
892.568	0.0137390
892.646	0.0136095
892.724	0.0136137
892.802	0.0136904
892.880	0.0135802
892.958	0.0136048
893.036	0.0136582
893.114	0.0135708
893.193	0.0135901
893.271	0.0135576
893.349	0.0136797
893.427	0.0136174
893.505	0.0134512
893.583	0.0134679
893.661	0.0136702
893.739	0.0136079
893.818	0.0135144
893.896	0.0137009
893.974	0.0138269
894.052	0.0137000
894.130	0.0138078
894.208	0.0136649
894.286	0.0137449
894.364	0.0138340
894.443	0.0137812
894.521	0.0138168
894.599	0.0138107
894.677	0.0137994
894.755	0.0137640
894.833	0.0137364
894.911	0.0138487
894.989	0.0137495
895.068	0.0137202
895.146	0.0137479
895.224	0.0137670
895.302	0.0137730
895.380	0.0138273
895.458	0.0136961
895.536	0.0137858
895.614	0.0137502
895.693	0.0136643
895.771	0.0137312
895.849	0.0137148
895.927	0.0138178
896.005	0.0137849
896.083	0.0136034
896.161	0.0138872
896.239	0.0138400
896.318	0.0136669
896.396	0.0136434
896.474	0.0137858
896.552	0.0136739
896.630	0.0138419
896.708	0.0136740
896.786	0.0137109
896.864	0.0136825
896.943	0.0137836
897.021	0.0138562
897.099	0.0137666
897.177	0.0137801
897.255	0.0137237
897.333	0.0137436
897.411	0.0137229
897.489	0.0137556
897.568	0.0138284
897.646	0.0136927
897.724	0.0136073
897.802	0.0137061
897.880	0.0136380
897.958	0.0138473
898.036	0.0137251
898.114	0.0137386
898.193	0.0138020
898.271	0.0136356
898.349	0.0136379
898.427	0.0136141
898.505	0.0137953
898.583	0.0137278
898.661	0.0137309
898.739	0.0137334
898.818	0.0137005
898.896	0.0137766
898.974	0.0138696
899.052	0.0136125
899.130	0.0137497
899.208	0.0137246
899.286	0.0138385
899.364	0.0136617
899.443	0.0138142
899.521	0.0137253
899.599	0.0136683
899.677	0.0136359
899.755	0.0137835
899.833	0.0135406
899.911	0.0134863
899.989	0.0134758
900.068	0.0134407
900.146	0.0135854
900.224	0.0136613
900.302	0.0135081
900.380	0.0134793
900.458	0.0135538
900.536	0.0135538
900.614	0.0136142
900.693	0.0136237
900.771	0.0136629
900.849	0.0136339
900.927	0.0136222
901.005	0.0135387
901.083	0.0134467
901.161	0.0136573
901.239	0.0135455
901.318	0.0135621
901.396	0.0134874
901.474	0.0135353
901.552	0.0136443
901.630	0.0135289
901.708	0.0135139
901.786	0.0134159
901.864	0.0135742
901.943	0.0135896
902.021	0.0134904
902.099	0.0134026
902.177	0.0133879
902.255	0.0134971
902.333	0.0135215
902.411	0.0134324
902.489	0.0134167
902.568	0.0133591
902.646	0.0133061
902.724	0.0133318
902.802	0.0134296
902.880	0.0133389
902.958	0.0132811
903.036	0.0134154
903.114	0.0133567
903.193	0.0133752
903.271	0.0133211
903.349	0.0133197
903.427	0.0134364
903.505	0.0134380
903.583	0.0135072
903.661	0.0135202
903.739	0.0135888
903.818	0.0135403
903.896	0.0135172
903.974	0.0135860
904.052	0.0136570
904.130	0.0137814
904.208	0.0135410
904.286	0.0137895
904.364	0.0138514
904.443	0.0137205
904.521	0.0138286
904.599	0.0137455
904.677	0.0137673
904.755	0.0139857
904.833	0.0139081
904.911	0.0136378
904.989	0.0138272
905.068	0.0138923
905.146	0.0137615
905.224	0.0137072
905.302	0.0137920
905.380	0.0136192
905.458	0.0137704
905.536	0.0138088
905.614	0.0137787
905.693	0.0137759
905.771	0.0136591
905.849	0.0136780
905.927	0.0136365
906.005	0.0136401
906.083	0.0135771
906.161	0.0137601
906.239	0.0137586
906.318	0.0136518
906.396	0.0136266
906.474	0.0138464
906.552	0.0136729
906.630	0.0136868
906.708	0.0136677
906.786	0.0138979
906.864	0.0137755
906.943	0.0137502
907.021	0.0137241
907.099	0.0137525
907.177	0.0139101
907.255	0.0138692
907.333	0.0137250
907.411	0.0138465
907.489	0.0138494
907.568	0.0140044
907.646	0.0137859
907.724	0.0137177
907.802	0.0138478
907.880	0.0139028
907.958	0.0136810
908.036	0.0138974
908.114	0.0138308
908.193	0.0137923
908.271	0.0137524
908.349	0.0138232
908.427	0.0137942
908.505	0.0136294
908.583	0.0136515
908.661	0.0137746
908.739	0.0137910
908.818	0.0136372
908.896	0.0134985
908.974	0.0135771
909.052	0.0135637
909.130	0.0136086
909.208	0.0134762
909.286	0.0134229
909.364	0.0134043
909.443	0.0136125
909.521	0.0136091
909.599	0.0135480
909.677	0.0134999
909.755	0.0136466
909.833	0.0137267
909.911	0.0136530
909.989	0.0134770
910.068	0.0136307
910.146	0.0136697
910.224	0.0137345
910.302	0.0135567
910.380	0.0137474
910.458	0.0137480
910.536	0.0138726
910.614	0.0137582
910.693	0.0137457
910.771	0.0137024
910.849	0.0137379
910.927	0.0137124
911.005	0.0136086
911.083	0.0138138
911.161	0.0136932
911.239	0.0136950
911.318	0.0137302
911.396	0.0136150
911.474	0.0135778
911.552	0.0134805
911.630	0.0135795
911.708	0.0137662
911.786	0.0135007
911.864	0.0136578
911.943	0.0136585
912.021	0.0136185
912.099	0.0135108
912.177	0.0137296
912.255	0.0136577
912.333	0.0136408
912.411	0.0138809
912.489	0.0137456
912.568	0.0137104
912.646	0.0137719
912.724	0.0138342
912.802	0.0137889
912.880	0.0139080
912.958	0.0139020
913.036	0.0137803
913.114	0.0137065
913.193	0.0138077
913.271	0.0137907
913.349	0.0137439
913.427	0.0139225
913.505	0.0137229
913.583	0.0137630
913.661	0.0136352
913.739	0.0136329
913.818	0.0136826
913.896	0.0137378
913.974	0.0137957
914.052	0.0137614
914.130	0.0136548
914.208	0.0137414
914.286	0.0136591
914.364	0.0138660
914.443	0.0137797
914.521	0.0137291
914.599	0.0137265
914.677	0.0136349
914.755	0.0136147
914.833	0.0139241
914.911	0.0138064
914.989	0.0137781
915.068	0.0137955
915.146	0.0138919
915.224	0.0137854
915.302	0.0139262
915.380	0.0138549
915.458	0.0138123
915.536	0.0139714
915.614	0.0139874
915.693	0.0137921
915.771	0.0138069
915.849	0.0137801
915.927	0.0137577
916.005	0.0137637
916.083	0.0137775
916.161	0.0137981
916.239	0.0135655
916.318	0.0137897
916.396	0.0137684
916.474	0.0137327
916.552	0.0137320
916.630	0.0136115
916.708	0.0136771
916.786	0.0135546
916.864	0.0135265
916.943	0.0136922
917.021	0.0134749
917.099	0.0135461
917.177	0.0136382
917.255	0.0134473
917.333	0.0134444
917.411	0.0135531
917.489	0.0134561
917.568	0.0134267
917.646	0.0135371
917.724	0.0134269
917.802	0.0136113
917.880	0.0135541
917.958	0.0135004
918.036	0.0135589
918.114	0.0135276
918.193	0.0134310
918.271	0.0134731
918.349	0.0137377
918.427	0.0136347
918.505	0.0136172
918.583	0.0135583
918.661	0.0136544
918.739	0.0136668
918.818	0.0136033
918.896	0.0135666
918.974	0.0137186
919.052	0.0135950
919.130	0.0137127
919.208	0.0136687
919.286	0.0135907
919.364	0.0136126
919.443	0.0137458
919.521	0.0137848
919.599	0.0136767
919.677	0.0137088
919.755	0.0136804
919.833	0.0135764
919.911	0.0135394
919.989	0.0136782
920.068	0.0137248
920.146	0.0135051
920.224	0.0136540
920.302	0.0137644
920.380	0.0136718
920.458	0.0137656
920.536	0.0137045
920.614	0.0137733
920.693	0.0136990
920.771	0.0138380
920.849	0.0138860
920.927	0.0137064
921.005	0.0137864
921.083	0.0137450
921.161	0.0137918
921.239	0.0137829
921.318	0.0137133
921.396	0.0136996
921.474	0.0138350
921.552	0.0137058
921.630	0.0137742
921.708	0.0137952
921.786	0.0136705
921.864	0.0137229
921.943	0.0137103
922.021	0.0137889
922.099	0.0138309
922.177	0.0138129
922.255	0.0137099
922.333	0.0137037
922.411	0.0135709
922.489	0.0135805
922.568	0.0136002
922.646	0.0136855
922.724	0.0136317
922.802	0.0136622
922.880	0.0137154
922.958	0.0137502
923.036	0.0137057
923.114	0.0136208
923.193	0.0136892
923.271	0.0137084
923.349	0.0136205
923.427	0.0136447
923.505	0.0135710
923.583	0.0136596
923.661	0.0136102
923.739	0.0135579
923.818	0.0135683
923.896	0.0133981
923.974	0.0137312
924.052	0.0135512
924.130	0.0134852
924.208	0.0134214
924.286	0.0135808
924.364	0.0135069
924.443	0.0134938
924.521	0.0133809
924.599	0.0136391
924.677	0.0135202
924.755	0.0135715
924.833	0.0134685
924.911	0.0135422
924.989	0.0136752
925.068	0.0136163
925.146	0.0135481
925.224	0.0135368
925.302	0.0135544
925.380	0.0135388
925.458	0.0135091
925.536	0.0135892
925.614	0.0136856
925.693	0.0136850
925.771	0.0135724
925.849	0.0134941
925.927	0.0134576
926.005	0.0134961
926.083	0.0133989
926.161	0.0136156
926.239	0.0134842
926.318	0.0135032
926.396	0.0134471
926.474	0.0134866
926.552	0.0135233
926.630	0.0134201
926.708	0.0134711
926.786	0.0135421
926.864	0.0136027
926.943	0.0135242
927.021	0.0136160
927.099	0.0136062
927.177	0.0135845
927.255	0.0136171
927.333	0.0135345
927.411	0.0136578
927.489	0.0136295
927.568	0.0136223
927.646	0.0138264
927.724	0.0137574
927.802	0.0137503
927.880	0.0136966
927.958	0.0137560
928.036	0.0138525
928.114	0.0139005
928.193	0.0138854
928.271	0.0138310
928.349	0.0139339
928.427	0.0137514
928.505	0.0137943
928.583	0.0137450
928.661	0.0138146
928.739	0.0137426
928.818	0.0137415
928.896	0.0138923
928.974	0.0137742
929.052	0.0135948
929.130	0.0138510
929.208	0.0136340
929.286	0.0134861
929.364	0.0136964
929.443	0.0137573
929.521	0.0135776
929.599	0.0134786
929.677	0.0135443
929.755	0.0135709
929.833	0.0135423
929.911	0.0135340
929.989	0.0135686
930.068	0.0135947
930.146	0.0134833
930.224	0.0135815
930.302	0.0135065
930.380	0.0135381
930.458	0.0136203
930.536	0.0135859
930.614	0.0135879
930.693	0.0136311
930.771	0.0136345
930.849	0.0136714
930.927	0.0137363
931.005	0.0136708
931.083	0.0136058
931.161	0.0135552
931.239	0.0137058
931.318	0.0136359
931.396	0.0138020
931.474	0.0136712
931.552	0.0136213
931.630	0.0135078
931.708	0.0136066
931.786	0.0134631
931.864	0.0135732
931.943	0.0136695
932.021	0.0135201
932.099	0.0136387
932.177	0.0135318
932.255	0.0136112
932.333	0.0137041
932.411	0.0137720
932.489	0.0136692
932.568	0.0137317
932.646	0.0136404
932.724	0.0136305
932.802	0.0136376
932.880	0.0136523
932.958	0.0137679
933.036	0.0137953
933.114	0.0138290
933.193	0.0137973
933.271	0.0136053
933.349	0.0136413
933.427	0.0137541
933.505	0.0137505
933.583	0.0136753
933.661	0.0138126
933.739	0.0136895
933.818	0.0137302
933.896	0.0137590
933.974	0.0137135
934.052	0.0137077
934.130	0.0139303
934.208	0.0139037
934.286	0.0137348
934.364	0.0137985
934.443	0.0139452
934.521	0.0137847
934.599	0.0136919
934.677	0.0138706
934.755	0.0138305
934.833	0.0136503
934.911	0.0136931
934.989	0.0137824
935.068	0.0137939
935.146	0.0137914
935.224	0.0137461
935.302	0.0137942
935.380	0.0137827
935.458	0.0137750
935.536	0.0136144
935.614	0.0136874
935.693	0.0136213
935.771	0.0135521
935.849	0.0135006
935.927	0.0136565
936.005	0.0136176
936.083	0.0135365
936.161	0.0135453
936.239	0.0135052
936.318	0.0134404
936.396	0.0135484
936.474	0.0136696
936.552	0.0135770
936.630	0.0134400
936.708	0.0134203
936.786	0.0135732
936.864	0.0135859
936.943	0.0136742
937.021	0.0136481
937.099	0.0136296
937.177	0.0135598
937.255	0.0134659
937.333	0.0136687
937.411	0.0135968
937.489	0.0136603
937.568	0.0136339
937.646	0.0134059
937.724	0.0134838
937.802	0.0134523
937.880	0.0134821
937.958	0.0134053
938.036	0.0134148
938.114	0.0136006
938.193	0.0134746
938.271	0.0134251
938.349	0.0136258
938.427	0.0137203
938.505	0.0134273
938.583	0.0136300
938.661	0.0136909
938.739	0.0136456
938.818	0.0135494
938.896	0.0135458
938.974	0.0136566
939.052	0.0136637
939.130	0.0134968
939.208	0.0137099
939.286	0.0137257
939.364	0.0136138
939.443	0.0136866
939.521	0.0137460
939.599	0.0136372
939.677	0.0136086
939.755	0.0137509
939.833	0.0135813
939.911	0.0136944
939.989	0.0135316
940.068	0.0136927
940.146	0.0138115
940.224	0.0137659
940.302	0.0137257
940.380	0.0137315
940.458	0.0137093
940.536	0.0137118
940.614	0.0137163
940.693	0.0137151
940.771	0.0137639
940.849	0.0136458
940.927	0.0138278
941.005	0.0136379
941.083	0.0136378
941.161	0.0136913
941.239	0.0136619
941.318	0.0136918
941.396	0.0136472
941.474	0.0136772
941.552	0.0136982
941.630	0.0136797
941.708	0.0136749
941.786	0.0137459
941.864	0.0137840
941.943	0.0135279
942.021	0.0136240
942.099	0.0135515
942.177	0.0136024
942.255	0.0136707
942.333	0.0135562
942.411	0.0135441
942.489	0.0135941
942.568	0.0133862
942.646	0.0136556
942.724	0.0135208
942.802	0.0134853
942.880	0.0134817
942.958	0.0134799
943.036	0.0136965
943.114	0.0136581
943.193	0.0135619
943.271	0.0135806
943.349	0.0136099
943.427	0.0135865
943.505	0.0135634
943.583	0.0135208
943.661	0.0138306
943.739	0.0138207
943.818	0.0136690
943.896	0.0137044
943.974	0.0137057
944.052	0.0138053
944.130	0.0136855
944.208	0.0137357
944.286	0.0137353
944.364	0.0136997
944.443	0.0138868
944.521	0.0137792
944.599	0.0137738
944.677	0.0137102
944.755	0.0137847
944.833	0.0137793
944.911	0.0137197
944.989	0.0137487
945.068	0.0137708
945.146	0.0134896
945.224	0.0136174
945.302	0.0137057
945.380	0.0135921
945.458	0.0135577
945.536	0.0135650
945.614	0.0137278
945.693	0.0135545
945.771	0.0136000
945.849	0.0135453
945.927	0.0135972
946.005	0.0135627
946.083	0.0135242
946.161	0.0135098
946.239	0.0134184
946.318	0.0134898
946.396	0.0136344
946.474	0.0135323
946.552	0.0134554
946.630	0.0133945
946.708	0.0132937
946.786	0.0133852
946.864	0.0133634
946.943	0.0134679
947.021	0.0133749
947.099	0.0132762
947.177	0.0133517
947.255	0.0132817
947.333	0.0133408
947.411	0.0134018
947.489	0.0133334
947.568	0.0134525
947.646	0.0135302
947.724	0.0134006
947.802	0.0134441
947.880	0.0135368
947.958	0.0135655
948.036	0.0134896
948.114	0.0135245
948.193	0.0135658
948.271	0.0134125
948.349	0.0136899
948.427	0.0135139
948.505	0.0135312
948.583	0.0136637
948.661	0.0136485
948.739	0.0135259
948.818	0.0134872
948.896	0.0136308
948.974	0.0135931
949.052	0.0136916
949.130	0.0135880
949.208	0.0135725
949.286	0.0136227
949.364	0.0136635
949.443	0.0137112
949.521	0.0135694
949.599	0.0136246
949.677	0.0137296
949.755	0.0137715
949.833	0.0137204
949.911	0.0136132
949.989	0.0137000
950.068	0.0136134
950.146	0.0136362
950.224	0.0136922
950.302	0.0136424
950.380	0.0135442
950.458	0.0135696
950.536	0.0135162
950.614	0.0135702
950.693	0.0135184
950.771	0.0136623
950.849	0.0135755
950.927	0.0135620
951.005	0.0135462
951.083	0.0135661
951.161	0.0134978
951.239	0.0134852
951.318	0.0134188
951.396	0.0136345
951.474	0.0135104
951.552	0.0133971
951.630	0.0134927
951.708	0.0134539
951.786	0.0133803
951.864	0.0134789
951.943	0.0134052
952.021	0.0134393
952.099	0.0134199
952.177	0.0136098
952.255	0.0136418
952.333	0.0134521
952.411	0.0133826
952.489	0.0134464
952.568	0.0135410
952.646	0.0135004
952.724	0.0134316
952.802	0.0135388
952.880	0.0134441
952.958	0.0135921
953.036	0.0135851
953.114	0.0134291
953.193	0.0134328
953.271	0.0134610
953.349	0.0135088
953.427	0.0133908
953.505	0.0135165
953.583	0.0135315
953.661	0.0134071
953.739	0.0133962
953.818	0.0134408
953.896	0.0134321
953.974	0.0134131
954.052	0.0135596
954.130	0.0135408
954.208	0.0134599
954.286	0.0135488
954.364	0.0136034
954.443	0.0135139
954.521	0.0136477
954.599	0.0136149
954.677	0.0136413
954.755	0.0135739
954.833	0.0135029
954.911	0.0135583
954.989	0.0137838
955.068	0.0135656
955.146	0.0136294
955.224	0.0136135
955.302	0.0136350
955.380	0.0133852
955.458	0.0135710
955.536	0.0137653
955.614	0.0137824
955.693	0.0137646
955.771	0.0137624
955.849	0.0137906
955.927	0.0136604
956.005	0.0136092
956.083	0.0136899
956.161	0.0138650
956.239	0.0137666
956.318	0.0137460
956.396	0.0137540
956.474	0.0137222
956.552	0.0137250
956.630	0.0137463
956.708	0.0138737
956.786	0.0137689
956.864	0.0136858
956.943	0.0137776
957.021	0.0137334
957.099	0.0137133
957.177	0.0137769
957.255	0.0136863
957.333	0.0136568
957.411	0.0136161
957.489	0.0138076
957.568	0.0136532
957.646	0.0135516
957.724	0.0136430
957.802	0.0136088
957.880	0.0134696
957.958	0.0135291
958.036	0.0135635
958.114	0.0136741
958.193	0.0136416
958.271	0.0134989
958.349	0.0135703
958.427	0.0134708
958.505	0.0135738
958.583	0.0134248
958.661	0.0135753
958.739	0.0135150
958.818	0.0135731
958.896	0.0135410
958.974	0.0136020
959.052	0.0134802
959.130	0.0134921
959.208	0.0134677
959.286	0.0136134
959.364	0.0135989
959.443	0.0135227
959.521	0.0135743
959.599	0.0136395
959.677	0.0136167
959.755	0.0136559
959.833	0.0137414
959.911	0.0138412
