05/14/2022	16:49:17	Ver.	4.1	UNKNOWN
Optical Delay	639.989416	Delta X		0.078125	Sweeps	1	Scan Rate	0/0
Coordinates	Axis 1	NaN	Axis 2	NaN	Axis 3	NaN	Axis 4	NaN	Axis 5	NaN	Axis 6	0.000000
TX Power	0.000000	RX Power	0.000000

639.989	0.0138627
640.068	0.0138423
640.146	0.0137711
640.224	0.0138319
640.302	0.0139491
640.380	0.0137479
640.458	0.0137492
640.536	0.0138924
640.614	0.0139523
640.693	0.0137930
640.771	0.0138992
640.849	0.0138183
640.927	0.0138702
641.005	0.0138620
641.083	0.0136900
641.161	0.0138152
641.239	0.0137943
641.318	0.0138184
641.396	0.0138049
641.474	0.0137569
641.552	0.0138595
641.630	0.0138866
641.708	0.0136953
641.786	0.0137804
641.864	0.0137635
641.943	0.0137327
642.021	0.0136877
642.099	0.0139458
642.177	0.0137090
642.255	0.0136620
642.333	0.0137061
642.411	0.0137428
642.489	0.0136814
642.568	0.0136913
642.646	0.0138679
642.724	0.0137669
642.802	0.0138428
642.880	0.0137455
642.958	0.0137347
643.036	0.0139596
643.114	0.0138458
643.193	0.0138107
643.271	0.0138781
643.349	0.0137749
643.427	0.0137698
643.505	0.0138438
643.583	0.0138840
643.661	0.0136469
643.739	0.0138718
643.818	0.0139617
643.896	0.0137166
643.974	0.0137191
644.052	0.0138827
644.130	0.0138499
644.208	0.0136892
644.286	0.0138069
644.364	0.0139014
644.443	0.0138560
644.521	0.0137868
644.599	0.0136492
644.677	0.0137461
644.755	0.0137968
644.833	0.0137354
644.911	0.0137362
644.989	0.0139314
645.068	0.0138959
645.146	0.0137946
645.224	0.0138400
645.302	0.0137776
645.380	0.0137716
645.458	0.0138801
645.536	0.0138298
645.614	0.0138266
645.693	0.0138757
645.771	0.0138309
645.849	0.0139554
645.927	0.0139864
646.005	0.0139383
646.083	0.0137995
646.161	0.0136859
646.239	0.0135900
646.318	0.0137975
646.396	0.0138965
646.474	0.0137868
646.552	0.0138203
646.630	0.0137044
646.708	0.0138743
646.786	0.0138094
646.864	0.0137301
646.943	0.0138540
647.021	0.0137849
647.099	0.0138512
647.177	0.0138432
647.255	0.0137612
647.333	0.0136530
647.411	0.0137040
647.489	0.0138101
647.568	0.0138245
647.646	0.0137749
647.724	0.0138121
647.802	0.0138566
647.880	0.0137790
647.958	0.0137957
648.036	0.0138681
648.114	0.0138685
648.193	0.0138204
648.271	0.0137697
648.349	0.0138460
648.427	0.0138007
648.505	0.0138599
648.583	0.0137695
648.661	0.0137492
648.739	0.0138557
648.818	0.0137268
648.896	0.0137776
648.974	0.0138261
649.052	0.0138140
649.130	0.0138734
649.208	0.0137564
649.286	0.0138770
649.364	0.0139310
649.443	0.0136566
649.521	0.0137137
649.599	0.0137957
649.677	0.0136638
649.755	0.0137022
649.833	0.0137264
649.911	0.0137982
649.989	0.0137521
650.068	0.0137550
650.146	0.0137071
650.224	0.0136755
650.302	0.0137768
650.380	0.0139619
650.458	0.0137675
650.536	0.0137582
650.614	0.0138023
650.693	0.0137906
650.771	0.0136518
650.849	0.0137826
650.927	0.0138140
651.005	0.0137828
651.083	0.0138696
651.161	0.0137956
651.239	0.0138097
651.318	0.0136134
651.396	0.0137553
651.474	0.0138762
651.552	0.0137328
651.630	0.0136225
651.708	0.0137943
651.786	0.0137778
651.864	0.0138351
651.943	0.0137840
652.021	0.0138048
652.099	0.0137149
652.177	0.0137902
652.255	0.0138123
652.333	0.0137664
652.411	0.0138779
652.489	0.0138250
652.568	0.0138564
652.646	0.0137824
652.724	0.0138474
652.802	0.0137582
652.880	0.0138855
652.958	0.0139172
653.036	0.0137688
653.114	0.0137450
653.193	0.0139532
653.271	0.0139152
653.349	0.0138290
653.427	0.0139819
653.505	0.0138646
653.583	0.0138158
653.661	0.0138832
653.739	0.0139015
653.818	0.0140280
653.896	0.0138120
653.974	0.0138314
654.052	0.0140129
654.130	0.0140083
654.208	0.0139220
654.286	0.0138541
654.364	0.0139706
654.443	0.0139216
654.521	0.0138811
654.599	0.0139506
654.677	0.0138998
654.755	0.0140134
654.833	0.0138960
654.911	0.0138535
654.989	0.0140257
655.068	0.0139803
655.146	0.0139629
655.224	0.0140029
655.302	0.0140490
655.380	0.0138739
655.458	0.0139288
655.536	0.0140417
655.614	0.0139823
655.693	0.0139997
655.771	0.0140224
655.849	0.0139150
655.927	0.0138879
656.005	0.0139909
656.083	0.0138718
656.161	0.0138526
656.239	0.0139270
656.318	0.0140568
656.396	0.0139201
656.474	0.0139020
656.552	0.0138496
656.630	0.0139317
656.708	0.0138205
656.786	0.0139997
656.864	0.0138999
656.943	0.0140140
657.021	0.0139190
657.099	0.0138912
657.177	0.0138879
657.255	0.0138315
657.333	0.0138822
657.411	0.0139671
657.489	0.0139053
657.568	0.0138403
657.646	0.0139028
657.724	0.0137855
657.802	0.0138451
657.880	0.0138274
657.958	0.0140190
658.036	0.0140182
658.114	0.0138296
658.193	0.0139111
658.271	0.0137188
658.349	0.0138721
658.427	0.0140042
658.505	0.0136751
658.583	0.0138837
658.661	0.0139581
658.739	0.0139309
658.818	0.0138948
658.896	0.0140363
658.974	0.0138046
659.052	0.0138414
659.130	0.0138560
659.208	0.0138295
659.286	0.0138548
659.364	0.0138853
659.443	0.0138258
659.521	0.0138654
659.599	0.0138326
659.677	0.0137715
659.755	0.0137879
659.833	0.0138686
659.911	0.0138919
659.989	0.0138252
660.068	0.0140327
660.146	0.0139733
660.224	0.0139281
660.302	0.0141161
660.380	0.0138411
660.458	0.0139703
660.536	0.0140155
660.614	0.0140761
660.693	0.0140508
660.771	0.0140285
660.849	0.0140094
660.927	0.0139492
661.005	0.0140685
661.083	0.0141162
661.161	0.0140938
661.239	0.0139864
661.318	0.0140289
661.396	0.0140302
661.474	0.0140017
661.552	0.0140166
661.630	0.0139948
661.708	0.0138949
661.786	0.0139015
661.864	0.0139320
661.943	0.0139000
662.021	0.0138425
662.099	0.0139312
662.177	0.0138313
662.255	0.0137108
662.333	0.0137490
662.411	0.0136983
662.489	0.0136857
662.568	0.0136529
662.646	0.0138205
662.724	0.0138383
662.802	0.0137701
662.880	0.0137343
662.958	0.0137921
663.036	0.0136568
663.114	0.0136427
663.193	0.0138940
663.271	0.0138829
663.349	0.0137624
663.427	0.0139120
663.505	0.0139403
663.583	0.0139953
663.661	0.0140204
663.739	0.0139059
663.818	0.0141223
663.896	0.0141119
663.974	0.0141911
664.052	0.0143474
664.130	0.0142056
664.208	0.0141679
664.286	0.0141650
664.364	0.0141687
664.443	0.0141151
664.521	0.0140237
664.599	0.0140676
664.677	0.0139226
664.755	0.0140282
664.833	0.0140281
664.911	0.0136871
664.989	0.0135860
665.068	0.0136691
665.146	0.0134985
665.224	0.0135313
665.302	0.0133504
665.380	0.0131792
665.458	0.0133868
665.536	0.0132801
665.614	0.0131422
665.693	0.0131873
665.771	0.0132894
665.849	0.0133092
665.927	0.0132413
666.005	0.0134661
666.083	0.0134214
666.161	0.0134618
666.239	0.0135978
666.318	0.0137616
666.396	0.0139783
666.474	0.0138911
666.552	0.0140412
666.630	0.0143320
666.708	0.0143109
666.786	0.0142921
666.864	0.0144093
666.943	0.0144479
667.021	0.0144993
667.099	0.0146647
667.177	0.0145898
667.255	0.0146584
667.333	0.0144866
667.411	0.0145294
667.489	0.0145359
667.568	0.0143295
667.646	0.0141327
667.724	0.0139457
667.802	0.0139513
667.880	0.0137883
667.958	0.0136313
668.036	0.0134553
668.114	0.0133390
668.193	0.0132940
668.271	0.0132579
668.349	0.0131351
668.427	0.0131247
668.505	0.0130061
668.583	0.0130885
668.661	0.0129478
668.739	0.0130705
668.818	0.0130885
668.896	0.0131306
668.974	0.0132403
669.052	0.0132449
669.130	0.0133403
669.208	0.0133160
669.286	0.0136375
669.364	0.0136735
669.443	0.0136539
669.521	0.0139281
669.599	0.0141624
669.677	0.0141662
669.755	0.0143008
669.833	0.0144037
669.911	0.0144117
669.989	0.0144856
670.068	0.0145238
670.146	0.0145925
670.224	0.0146972
670.302	0.0147152
670.380	0.0146082
670.458	0.0147058
670.536	0.0146394
670.614	0.0146356
670.693	0.0144839
670.771	0.0144357
670.849	0.0144091
670.927	0.0141500
671.005	0.0142828
671.083	0.0140667
671.161	0.0139533
671.239	0.0138939
671.318	0.0135970
671.396	0.0135814
671.474	0.0133225
671.552	0.0131898
671.630	0.0132705
671.708	0.0131548
671.786	0.0130070
671.864	0.0128389
671.943	0.0127470
672.021	0.0127369
672.099	0.0127646
672.177	0.0128164
672.255	0.0127142
672.333	0.0125496
672.411	0.0127181
672.489	0.0129691
672.568	0.0127690
672.646	0.0128650
672.724	0.0130778
672.802	0.0132726
672.880	0.0133342
672.958	0.0135215
673.036	0.0138185
673.114	0.0138789
673.193	0.0140900
673.271	0.0143252
673.349	0.0143600
673.427	0.0147849
673.505	0.0148991
673.583	0.0148675
673.661	0.0150157
673.739	0.0150978
673.818	0.0151727
673.896	0.0151609
673.974	0.0151570
674.052	0.0150011
674.130	0.0150074
674.208	0.0148996
674.286	0.0146545
674.364	0.0146806
674.443	0.0145231
674.521	0.0141735
674.599	0.0140016
674.677	0.0138824
674.755	0.0136794
674.833	0.0136024
674.911	0.0132893
674.989	0.0130769
675.068	0.0128171
675.146	0.0127475
675.224	0.0126386
675.302	0.0125568
675.380	0.0124544
675.458	0.0124310
675.536	0.0125266
675.614	0.0123421
675.693	0.0124063
675.771	0.0125137
675.849	0.0127321
675.927	0.0126610
676.005	0.0128291
676.083	0.0130222
676.161	0.0131774
676.239	0.0134592
676.318	0.0135729
676.396	0.0138619
676.474	0.0139044
676.552	0.0139154
676.630	0.0140917
676.708	0.0142887
676.786	0.0141946
676.864	0.0144369
676.943	0.0144028
677.021	0.0142944
677.099	0.0144543
677.177	0.0145798
677.255	0.0144215
677.333	0.0144350
677.411	0.0144251
677.489	0.0144506
677.568	0.0143650
677.646	0.0144144
677.724	0.0142032
677.802	0.0143028
677.880	0.0142684
677.958	0.0141705
678.036	0.0141227
678.114	0.0140629
678.193	0.0139646
678.271	0.0139675
678.349	0.0141259
678.427	0.0139677
678.505	0.0139188
678.583	0.0138422
678.661	0.0139273
678.739	0.0136878
678.818	0.0136599
678.896	0.0137535
678.974	0.0137560
679.052	0.0137232
679.130	0.0136763
679.208	0.0135873
679.286	0.0137387
679.364	0.0135824
679.443	0.0135648
679.521	0.0136121
679.599	0.0135725
679.677	0.0136361
679.755	0.0134665
679.833	0.0133994
679.911	0.0134932
679.989	0.0135093
680.068	0.0134797
680.146	0.0133826
680.224	0.0132906
680.302	0.0132931
680.380	0.0131599
680.458	0.0132620
680.536	0.0131889
680.614	0.0131620
680.693	0.0130244
680.771	0.0132198
680.849	0.0134614
680.927	0.0133459
681.005	0.0133875
681.083	0.0135284
681.161	0.0134696
681.239	0.0135904
681.318	0.0136781
681.396	0.0138012
681.474	0.0137823
681.552	0.0137491
681.630	0.0138409
681.708	0.0138973
681.786	0.0138785
681.864	0.0139564
681.943	0.0139137
682.021	0.0140014
682.099	0.0140768
682.177	0.0140937
682.255	0.0140270
682.333	0.0141353
682.411	0.0142760
682.489	0.0143374
682.568	0.0143364
682.646	0.0143927
682.724	0.0144592
682.802	0.0144077
682.880	0.0143803
682.958	0.0145843
683.036	0.0146098
683.114	0.0145411
683.193	0.0144643
683.271	0.0146111
683.349	0.0145531
683.427	0.0144064
683.505	0.0145444
683.583	0.0145076
683.661	0.0144792
683.739	0.0144594
683.818	0.0142974
683.896	0.0142970
683.974	0.0142089
684.052	0.0140981
684.130	0.0139882
684.208	0.0139835
684.286	0.0139169
684.364	0.0138290
684.443	0.0137582
684.521	0.0135493
684.599	0.0131920
684.677	0.0131432
684.755	0.0132091
684.833	0.0129670
684.911	0.0126552
684.989	0.0126449
685.068	0.0123878
685.146	0.0125661
685.224	0.0123053
685.302	0.0123273
685.380	0.0121064
685.458	0.0122066
685.536	0.0121552
685.614	0.0122962
685.693	0.0123776
685.771	0.0124836
685.849	0.0126031
685.927	0.0126974
686.005	0.0127213
686.083	0.0129393
686.161	0.0129846
686.239	0.0132558
686.318	0.0133662
686.396	0.0135332
686.474	0.0137699
686.552	0.0138245
686.630	0.0139253
686.708	0.0140889
686.786	0.0142598
686.864	0.0143344
686.943	0.0145348
687.021	0.0146435
687.099	0.0147562
687.177	0.0146828
687.255	0.0147891
687.333	0.0148357
687.411	0.0147342
687.489	0.0148792
687.568	0.0149520
687.646	0.0149214
687.724	0.0147392
687.802	0.0148612
687.880	0.0146906
687.958	0.0147083
688.036	0.0147601
688.114	0.0145872
688.193	0.0144160
688.271	0.0145769
688.349	0.0146495
688.427	0.0145293
688.505	0.0145040
688.583	0.0143588
688.661	0.0142303
688.739	0.0144597
688.818	0.0144286
688.896	0.0143142
688.974	0.0143052
689.052	0.0144704
689.130	0.0143021
689.208	0.0142263
689.286	0.0140936
689.364	0.0140521
689.443	0.0139596
689.521	0.0138859
689.599	0.0136665
689.677	0.0135229
689.755	0.0132388
689.833	0.0132962
689.911	0.0130257
689.989	0.0128726
690.068	0.0126874
690.146	0.0125080
690.224	0.0123701
690.302	0.0121593
690.380	0.0121146
690.458	0.0121334
690.536	0.0120364
690.614	0.0120015
690.693	0.0121372
690.771	0.0119234
690.849	0.0118994
690.927	0.0120446
691.005	0.0123022
691.083	0.0122452
691.161	0.0123159
691.239	0.0124010
691.318	0.0126347
691.396	0.0130029
691.474	0.0129624
691.552	0.0132317
691.630	0.0135561
691.708	0.0137720
691.786	0.0139443
691.864	0.0141921
691.943	0.0144305
692.021	0.0144267
692.099	0.0146117
692.177	0.0146913
692.255	0.0150291
692.333	0.0150117
692.411	0.0150526
692.489	0.0151874
692.568	0.0153760
692.646	0.0152776
692.724	0.0154108
692.802	0.0155726
692.880	0.0155311
692.958	0.0155702
693.036	0.0156571
693.114	0.0156913
693.193	0.0157037
693.271	0.0156195
693.349	0.0156335
693.427	0.0155766
693.505	0.0155496
693.583	0.0153551
693.661	0.0152449
693.739	0.0149790
693.818	0.0150532
693.896	0.0148597
693.974	0.0148182
694.052	0.0145780
694.130	0.0144447
694.208	0.0143658
694.286	0.0141817
694.364	0.0140039
694.443	0.0137431
694.521	0.0136167
694.599	0.0135488
694.677	0.0131516
694.755	0.0129002
694.833	0.0126779
694.911	0.0124419
694.989	0.0124471
695.068	0.0119791
695.146	0.0117398
695.224	0.0115797
695.302	0.0114379
695.380	0.0113001
695.458	0.0111331
695.536	0.0112542
695.614	0.0112463
695.693	0.0111744
695.771	0.0111503
695.849	0.0112077
695.927	0.0114617
696.005	0.0114497
696.083	0.0117179
696.161	0.0120417
696.239	0.0121038
696.318	0.0123432
696.396	0.0125695
696.474	0.0128533
696.552	0.0131213
696.630	0.0132533
696.708	0.0135378
696.786	0.0139207
696.864	0.0140802
696.943	0.0144210
697.021	0.0145560
697.099	0.0145836
697.177	0.0147449
697.255	0.0148350
697.333	0.0149940
697.411	0.0149509
697.489	0.0149089
697.568	0.0149696
697.646	0.0150783
697.724	0.0149322
697.802	0.0149105
697.880	0.0151346
697.958	0.0150858
698.036	0.0150793
698.114	0.0149877
698.193	0.0150190
698.271	0.0149748
698.349	0.0149531
698.427	0.0150467
698.505	0.0150551
698.583	0.0150574
698.661	0.0151896
698.739	0.0151142
698.818	0.0151291
698.896	0.0150503
698.974	0.0150657
699.052	0.0151672
699.130	0.0152918
699.208	0.0151651
699.286	0.0149921
699.364	0.0150269
699.443	0.0150593
699.521	0.0148610
699.599	0.0146941
699.677	0.0144544
699.755	0.0143464
699.833	0.0142516
699.911	0.0138418
699.989	0.0136539
700.068	0.0134069
700.146	0.0131927
700.224	0.0129711
700.302	0.0127309
700.380	0.0125523
700.458	0.0123293
700.536	0.0122719
700.614	0.0119892
700.693	0.0119737
700.771	0.0115545
700.849	0.0115262
700.927	0.0114345
701.005	0.0113782
701.083	0.0112769
701.161	0.0113263
701.239	0.0113271
701.318	0.0113158
701.396	0.0113910
701.474	0.0113423
701.552	0.0115114
701.630	0.0117403
701.708	0.0119282
701.786	0.0120361
701.864	0.0122134
701.943	0.0124851
702.021	0.0127229
702.099	0.0128859
702.177	0.0130860
702.255	0.0134751
702.333	0.0135564
702.411	0.0136107
702.489	0.0139865
702.568	0.0141579
702.646	0.0143523
702.724	0.0143668
702.802	0.0145368
702.880	0.0148104
702.958	0.0149670
703.036	0.0151617
703.114	0.0151701
703.193	0.0153401
703.271	0.0152284
703.349	0.0153219
703.427	0.0154646
703.505	0.0153989
703.583	0.0154026
703.661	0.0153662
703.739	0.0154304
703.818	0.0152439
703.896	0.0153686
703.974	0.0154018
704.052	0.0153006
704.130	0.0153085
704.208	0.0152259
704.286	0.0152695
704.364	0.0152158
704.443	0.0151396
704.521	0.0151167
704.599	0.0150316
704.677	0.0150098
704.755	0.0151427
704.833	0.0150067
704.911	0.0148479
704.989	0.0147321
705.068	0.0147193
705.146	0.0144676
705.224	0.0143173
705.302	0.0141782
705.380	0.0141882
705.458	0.0140504
705.536	0.0137249
705.614	0.0136366
705.693	0.0134144
705.771	0.0133242
705.849	0.0130426
705.927	0.0129111
706.005	0.0127739
706.083	0.0123924
706.161	0.0122136
706.239	0.0120174
706.318	0.0119662
706.396	0.0116824
706.474	0.0115325
706.552	0.0115479
706.630	0.0113750
706.708	0.0111893
706.786	0.0112437
706.864	0.0112651
706.943	0.0111186
707.021	0.0113264
707.099	0.0113169
707.177	0.0112991
707.255	0.0113227
707.333	0.0114742
707.411	0.0115233
707.489	0.0117193
707.568	0.0118151
707.646	0.0119778
707.724	0.0122012
707.802	0.0124001
707.880	0.0124793
707.958	0.0128821
708.036	0.0130840
708.114	0.0132907
708.193	0.0134051
708.271	0.0137787
708.349	0.0139828
708.427	0.0141970
708.505	0.0145541
708.583	0.0146635
708.661	0.0147876
708.739	0.0150114
708.818	0.0151495
708.896	0.0153880
708.974	0.0154353
709.052	0.0154819
709.130	0.0157010
709.208	0.0154630
709.286	0.0154859
709.364	0.0157274
709.443	0.0157230
709.521	0.0157230
709.599	0.0157001
709.677	0.0156320
709.755	0.0155766
709.833	0.0155819
709.911	0.0155976
709.989	0.0156826
710.068	0.0155132
710.146	0.0154381
710.224	0.0151645
710.302	0.0151965
710.380	0.0150704
710.458	0.0147860
710.536	0.0148406
710.614	0.0146423
710.693	0.0146027
710.771	0.0143863
710.849	0.0142924
710.927	0.0140683
711.005	0.0140865
711.083	0.0139068
711.161	0.0140204
711.239	0.0139100
711.318	0.0135811
711.396	0.0135644
711.474	0.0134930
711.552	0.0134041
711.630	0.0132386
711.708	0.0131658
711.786	0.0130071
711.864	0.0127940
711.943	0.0126973
712.021	0.0126055
712.099	0.0124013
712.177	0.0123367
712.255	0.0122079
712.333	0.0120092
712.411	0.0118241
712.489	0.0118674
712.568	0.0117448
712.646	0.0117101
712.724	0.0116332
712.802	0.0116131
712.880	0.0115413
712.958	0.0115269
713.036	0.0115629
713.114	0.0114889
713.193	0.0116813
713.271	0.0115495
713.349	0.0115662
713.427	0.0117020
713.505	0.0118540
713.583	0.0121460
713.661	0.0122674
713.739	0.0124937
713.818	0.0127773
713.896	0.0129498
713.974	0.0132020
714.052	0.0133574
714.130	0.0136136
714.208	0.0140517
714.286	0.0141917
714.364	0.0145328
714.443	0.0149998
714.521	0.0151566
714.599	0.0152827
714.677	0.0155604
714.755	0.0157999
714.833	0.0159660
714.911	0.0161628
714.989	0.0162383
715.068	0.0165714
715.146	0.0165833
715.224	0.0166069
715.302	0.0166856
715.380	0.0168011
715.458	0.0167947
715.536	0.0167780
715.614	0.0167310
715.693	0.0165841
715.771	0.0164988
715.849	0.0165372
715.927	0.0163302
716.005	0.0161446
716.083	0.0158721
716.161	0.0156544
716.239	0.0155677
716.318	0.0151303
716.396	0.0150873
716.474	0.0146682
716.552	0.0143230
716.630	0.0142300
716.708	0.0139320
716.786	0.0136524
716.864	0.0133969
716.943	0.0131958
717.021	0.0128863
717.099	0.0126756
717.177	0.0124265
717.255	0.0122407
717.333	0.0122462
717.411	0.0120110
717.489	0.0118683
717.568	0.0117227
717.646	0.0117196
717.724	0.0115582
717.802	0.0114136
717.880	0.0114448
717.958	0.0114108
718.036	0.0112993
718.114	0.0113676
718.193	0.0113316
718.271	0.0113462
718.349	0.0114092
718.427	0.0113907
718.505	0.0113898
718.583	0.0116013
718.661	0.0116633
718.739	0.0118174
718.818	0.0120686
718.896	0.0121982
718.974	0.0123314
719.052	0.0125605
719.130	0.0128771
719.208	0.0129440
719.286	0.0132497
719.364	0.0133890
719.443	0.0136819
719.521	0.0140124
719.599	0.0141888
719.677	0.0142311
719.755	0.0145909
719.833	0.0147451
719.911	0.0149334
719.989	0.0151576
720.068	0.0152371
720.146	0.0153765
720.224	0.0154786
720.302	0.0156334
720.380	0.0155238
720.458	0.0155606
720.536	0.0155798
720.614	0.0157084
720.693	0.0156817
720.771	0.0153986
720.849	0.0153219
720.927	0.0153236
721.005	0.0151093
721.083	0.0149413
721.161	0.0148945
721.239	0.0146905
721.318	0.0144807
721.396	0.0144823
721.474	0.0143156
721.552	0.0140857
721.630	0.0140636
721.708	0.0139073
721.786	0.0138416
721.864	0.0137949
721.943	0.0136168
722.021	0.0135626
722.099	0.0136874
722.177	0.0136900
722.255	0.0135062
722.333	0.0135846
722.411	0.0136540
722.489	0.0136864
722.568	0.0138184
722.646	0.0136167
722.724	0.0136340
722.802	0.0137614
722.880	0.0138068
722.958	0.0137457
723.036	0.0137117
723.114	0.0137801
723.193	0.0138485
723.271	0.0137312
723.349	0.0135530
723.427	0.0135689
723.505	0.0135408
723.583	0.0134857
723.661	0.0132056
723.739	0.0132487
723.818	0.0131637
723.896	0.0130767
723.974	0.0131171
724.052	0.0129967
724.130	0.0129221
724.208	0.0129306
724.286	0.0129069
724.364	0.0128886
724.443	0.0127400
724.521	0.0129357
724.599	0.0129556
724.677	0.0129837
724.755	0.0129600
724.833	0.0130592
724.911	0.0131356
724.989	0.0131100
725.068	0.0132693
725.146	0.0133456
725.224	0.0135410
725.302	0.0136574
725.380	0.0135474
725.458	0.0136671
725.536	0.0138165
725.614	0.0138211
725.693	0.0137595
725.771	0.0138780
725.849	0.0139425
725.927	0.0140325
726.005	0.0139784
726.083	0.0141343
726.161	0.0140730
726.239	0.0142552
726.318	0.0141545
726.396	0.0142122
726.474	0.0142713
726.552	0.0142016
726.630	0.0143364
726.708	0.0144012
726.786	0.0144920
726.864	0.0144344
726.943	0.0145779
727.021	0.0144862
727.099	0.0143798
727.177	0.0144658
727.255	0.0145522
727.333	0.0144492
727.411	0.0142901
727.489	0.0145775
727.568	0.0144687
727.646	0.0143365
727.724	0.0144807
727.802	0.0143198
727.880	0.0143679
727.958	0.0144482
728.036	0.0142173
728.114	0.0143044
728.193	0.0142976
728.271	0.0142550
728.349	0.0142244
728.427	0.0140197
728.505	0.0139956
728.583	0.0140503
728.661	0.0139224
728.739	0.0137652
728.818	0.0135857
728.896	0.0135596
728.974	0.0133904
729.052	0.0133237
729.130	0.0133535
729.208	0.0133115
729.286	0.0132410
729.364	0.0132203
729.443	0.0133482
729.521	0.0132520
729.599	0.0133215
729.677	0.0133108
729.755	0.0132608
729.833	0.0132960
729.911	0.0134959
729.989	0.0135870
730.068	0.0136724
730.146	0.0136460
730.224	0.0137426
730.302	0.0137683
730.380	0.0136784
730.458	0.0137856
730.536	0.0137656
730.614	0.0138272
730.693	0.0139400
730.771	0.0139234
730.849	0.0139410
730.927	0.0139406
731.005	0.0139553
731.083	0.0139953
731.161	0.0138604
731.239	0.0139191
731.318	0.0139284
731.396	0.0137109
731.474	0.0136176
731.552	0.0137332
731.630	0.0135698
731.708	0.0135661
731.786	0.0136067
731.864	0.0135313
731.943	0.0134103
732.021	0.0133896
732.099	0.0133815
732.177	0.0132317
732.255	0.0130905
732.333	0.0133163
732.411	0.0133176
732.489	0.0132961
732.568	0.0131606
732.646	0.0132091
732.724	0.0133741
732.802	0.0135590
732.880	0.0134882
732.958	0.0134908
733.036	0.0136352
733.114	0.0136449
733.193	0.0137191
733.271	0.0138370
733.349	0.0139752
733.427	0.0139289
733.505	0.0141711
733.583	0.0141447
733.661	0.0141285
733.739	0.0141283
733.818	0.0142854
733.896	0.0145000
733.974	0.0144292
734.052	0.0144063
734.130	0.0145463
734.208	0.0144479
734.286	0.0144297
734.364	0.0145353
734.443	0.0145743
734.521	0.0144667
734.599	0.0145631
734.677	0.0143934
734.755	0.0144907
734.833	0.0146152
734.911	0.0145461
734.989	0.0145348
735.068	0.0145872
735.146	0.0145879
735.224	0.0144553
735.302	0.0145149
735.380	0.0145322
735.458	0.0145269
735.536	0.0144296
735.614	0.0144499
735.693	0.0143348
735.771	0.0142860
735.849	0.0142834
735.927	0.0143136
736.005	0.0141843
736.083	0.0142179
736.161	0.0141289
736.239	0.0140511
736.318	0.0139701
736.396	0.0138219
736.474	0.0137183
736.552	0.0139144
736.630	0.0137453
736.708	0.0135528
736.786	0.0133495
736.864	0.0134445
736.943	0.0134363
737.021	0.0133208
737.099	0.0131921
737.177	0.0130306
737.255	0.0130573
737.333	0.0130325
737.411	0.0128453
737.489	0.0126715
737.568	0.0126950
737.646	0.0126672
737.724	0.0125600
737.802	0.0125689
737.880	0.0126352
737.958	0.0125942
738.036	0.0125424
738.114	0.0125536
738.193	0.0125976
738.271	0.0127101
738.349	0.0127171
738.427	0.0127699
738.505	0.0128242
738.583	0.0129247
738.661	0.0132034
738.739	0.0131967
738.818	0.0134550
738.896	0.0134988
738.974	0.0136532
739.052	0.0138907
739.130	0.0140285
739.208	0.0141440
739.286	0.0142420
739.364	0.0143624
739.443	0.0143964
739.521	0.0144682
739.599	0.0145466
739.677	0.0147439
739.755	0.0146877
739.833	0.0147924
739.911	0.0149503
739.989	0.0151279
740.068	0.0149085
740.146	0.0149876
740.224	0.0150597
740.302	0.0151235
740.380	0.0150048
740.458	0.0151086
740.536	0.0150376
740.614	0.0150468
740.693	0.0148809
740.771	0.0148364
740.849	0.0147829
740.927	0.0148229
741.005	0.0148027
741.083	0.0147440
741.161	0.0147526
741.239	0.0146682
741.318	0.0146439
741.396	0.0144992
741.474	0.0144274
741.552	0.0143622
741.630	0.0144376
741.708	0.0140495
741.786	0.0139560
741.864	0.0138111
741.943	0.0137946
742.021	0.0137521
742.099	0.0135737
742.177	0.0133211
742.255	0.0133059
742.333	0.0132187
742.411	0.0129035
742.489	0.0127168
742.568	0.0126981
742.646	0.0125346
742.724	0.0125720
742.802	0.0125510
742.880	0.0123379
742.958	0.0123099
743.036	0.0124218
743.114	0.0123615
743.193	0.0125411
743.271	0.0125910
743.349	0.0125877
743.427	0.0125172
743.505	0.0128656
743.583	0.0127644
743.661	0.0129363
743.739	0.0130271
743.818	0.0130178
743.896	0.0132009
743.974	0.0131165
744.052	0.0134332
744.130	0.0133780
744.208	0.0135104
744.286	0.0136726
744.364	0.0137028
744.443	0.0138113
744.521	0.0139211
744.599	0.0138538
744.677	0.0140363
744.755	0.0140989
744.833	0.0141483
744.911	0.0142520
744.989	0.0143535
745.068	0.0143799
745.146	0.0145141
745.224	0.0146676
745.302	0.0145763
745.380	0.0147315
745.458	0.0148170
745.536	0.0147565
745.614	0.0147242
745.693	0.0147826
745.771	0.0148581
745.849	0.0149274
745.927	0.0147481
746.005	0.0147852
746.083	0.0148487
746.161	0.0148193
746.239	0.0146907
746.318	0.0145470
746.396	0.0147647
746.474	0.0144917
746.552	0.0145990
746.630	0.0144520
746.708	0.0144529
746.786	0.0144228
746.864	0.0143320
746.943	0.0141801
747.021	0.0141955
747.099	0.0141048
747.177	0.0137840
747.255	0.0137319
747.333	0.0137183
747.411	0.0136961
747.489	0.0136030
747.568	0.0133275
747.646	0.0133356
747.724	0.0134258
747.802	0.0133022
747.880	0.0133028
747.958	0.0132333
748.036	0.0131458
748.114	0.0132294
748.193	0.0131779
748.271	0.0131036
748.349	0.0131162
748.427	0.0132848
748.505	0.0132788
748.583	0.0131551
748.661	0.0132945
748.739	0.0132690
748.818	0.0133063
748.896	0.0133173
748.974	0.0133689
749.052	0.0134383
749.130	0.0134123
749.208	0.0134991
749.286	0.0135648
749.364	0.0135896
749.443	0.0135991
749.521	0.0137129
749.599	0.0138216
749.677	0.0137082
749.755	0.0139046
749.833	0.0137607
749.911	0.0139375
749.989	0.0141423
750.068	0.0141011
750.146	0.0141299
750.224	0.0141313
750.302	0.0140853
750.380	0.0141093
750.458	0.0142054
750.536	0.0141701
750.614	0.0141499
750.693	0.0142461
750.771	0.0142936
750.849	0.0142242
750.927	0.0141348
751.005	0.0142809
751.083	0.0142988
751.161	0.0142508
751.239	0.0142678
751.318	0.0141901
751.396	0.0142079
751.474	0.0142563
751.552	0.0142670
751.630	0.0141775
751.708	0.0140932
751.786	0.0141091
751.864	0.0139693
751.943	0.0139197
752.021	0.0138579
752.099	0.0139173
752.177	0.0137041
752.255	0.0137570
752.333	0.0137154
752.411	0.0138068
752.489	0.0136192
752.568	0.0134756
752.646	0.0136310
752.724	0.0135777
752.802	0.0134321
752.880	0.0136456
752.958	0.0135209
753.036	0.0135274
753.114	0.0134609
753.193	0.0136118
753.271	0.0135101
753.349	0.0134105
753.427	0.0134548
753.505	0.0135796
753.583	0.0136484
753.661	0.0134633
753.739	0.0136607
753.818	0.0137830
753.896	0.0137851
753.974	0.0138602
754.052	0.0138732
754.130	0.0139619
754.208	0.0138609
754.286	0.0139018
754.364	0.0140625
754.443	0.0139750
754.521	0.0140469
754.599	0.0139645
754.677	0.0140002
754.755	0.0140566
754.833	0.0138992
754.911	0.0138394
754.989	0.0138593
755.068	0.0139223
755.146	0.0138483
755.224	0.0136719
755.302	0.0136453
755.380	0.0138120
755.458	0.0137730
755.536	0.0137235
755.614	0.0136208
755.693	0.0136581
755.771	0.0137691
755.849	0.0136199
755.927	0.0136449
756.005	0.0137049
756.083	0.0137457
756.161	0.0137389
756.239	0.0135032
756.318	0.0137691
756.396	0.0137818
756.474	0.0137576
756.552	0.0138380
756.630	0.0137548
756.708	0.0137861
756.786	0.0138504
756.864	0.0138013
756.943	0.0137828
757.021	0.0139417
757.099	0.0140014
757.177	0.0139965
757.255	0.0138379
757.333	0.0139747
757.411	0.0141257
757.489	0.0140792
757.568	0.0141911
757.646	0.0143437
757.724	0.0142407
757.802	0.0142195
757.880	0.0142732
757.958	0.0142916
758.036	0.0143369
758.114	0.0142599
758.193	0.0142030
758.271	0.0142982
758.349	0.0143954
758.427	0.0144377
758.505	0.0143247
758.583	0.0143626
758.661	0.0142423
758.739	0.0143557
758.818	0.0143901
758.896	0.0142442
758.974	0.0142429
759.052	0.0142388
759.130	0.0141572
759.208	0.0141337
759.286	0.0140434
759.364	0.0140316
759.443	0.0139992
759.521	0.0138680
759.599	0.0139164
759.677	0.0138132
759.755	0.0136324
759.833	0.0136882
759.911	0.0137270
759.989	0.0134415
760.068	0.0135458
760.146	0.0134766
760.224	0.0133649
760.302	0.0135227
760.380	0.0134188
760.458	0.0134724
760.536	0.0135622
760.614	0.0133461
760.693	0.0132887
760.771	0.0132507
760.849	0.0132919
760.927	0.0132726
761.005	0.0133025
761.083	0.0134636
761.161	0.0132620
761.239	0.0132188
761.318	0.0133020
761.396	0.0134569
761.474	0.0134152
761.552	0.0134236
761.630	0.0135899
761.708	0.0135461
761.786	0.0135322
761.864	0.0135442
761.943	0.0136883
762.021	0.0136591
762.099	0.0136632
762.177	0.0136396
762.255	0.0138017
762.333	0.0138530
762.411	0.0138696
762.489	0.0139468
762.568	0.0138153
762.646	0.0139718
762.724	0.0139336
762.802	0.0140469
762.880	0.0139949
762.958	0.0141662
763.036	0.0140662
763.114	0.0142713
763.193	0.0142541
763.271	0.0140916
763.349	0.0143101
763.427	0.0142641
763.505	0.0142820
763.583	0.0142310
763.661	0.0142334
763.739	0.0141102
763.818	0.0139935
763.896	0.0140326
763.974	0.0140441
764.052	0.0139752
764.130	0.0138049
764.208	0.0137084
764.286	0.0136205
764.364	0.0137502
764.443	0.0136176
764.521	0.0136579
764.599	0.0135546
764.677	0.0133857
764.755	0.0133358
764.833	0.0133680
764.911	0.0133646
764.989	0.0132732
765.068	0.0133566
765.146	0.0132787
765.224	0.0132878
765.302	0.0132996
765.380	0.0133910
765.458	0.0133235
765.536	0.0134043
765.614	0.0134296
765.693	0.0134108
765.771	0.0135459
765.849	0.0134970
765.927	0.0135995
766.005	0.0136153
766.083	0.0136401
766.161	0.0136662
766.239	0.0137170
766.318	0.0138235
766.396	0.0137909
766.474	0.0137784
766.552	0.0137845
766.630	0.0138591
766.708	0.0139631
766.786	0.0139033
766.864	0.0140853
766.943	0.0138792
767.021	0.0138084
767.099	0.0140098
767.177	0.0140411
767.255	0.0141395
767.333	0.0141090
767.411	0.0141859
767.489	0.0142245
767.568	0.0140453
767.646	0.0141254
767.724	0.0143192
767.802	0.0142149
767.880	0.0141693
767.958	0.0142319
768.036	0.0141955
768.114	0.0142181
768.193	0.0140435
768.271	0.0140485
768.349	0.0139835
768.427	0.0138629
768.505	0.0139775
768.583	0.0137096
768.661	0.0136799
768.739	0.0136674
768.818	0.0135656
768.896	0.0134995
768.974	0.0134903
769.052	0.0134683
769.130	0.0135318
769.208	0.0135040
769.286	0.0134332
769.364	0.0133395
769.443	0.0135419
769.521	0.0134414
769.599	0.0134203
769.677	0.0135519
769.755	0.0135126
769.833	0.0136460
769.911	0.0135774
769.989	0.0136989
770.068	0.0136987
770.146	0.0137620
770.224	0.0137035
770.302	0.0138042
770.380	0.0136903
770.458	0.0138209
770.536	0.0138592
770.614	0.0139146
770.693	0.0139822
770.771	0.0141090
770.849	0.0140764
770.927	0.0140308
771.005	0.0141631
771.083	0.0140195
771.161	0.0142233
771.239	0.0142574
771.318	0.0141457
771.396	0.0142808
771.474	0.0143073
771.552	0.0141463
771.630	0.0140918
771.708	0.0142495
771.786	0.0142200
771.864	0.0142011
771.943	0.0141300
772.021	0.0140014
772.099	0.0141151
772.177	0.0139910
772.255	0.0138823
772.333	0.0138828
772.411	0.0140011
772.489	0.0139111
772.568	0.0138931
772.646	0.0138059
772.724	0.0137639
772.802	0.0138250
772.880	0.0137447
772.958	0.0136913
773.036	0.0136440
773.114	0.0137175
773.193	0.0135202
773.271	0.0135510
773.349	0.0136085
773.427	0.0135810
773.505	0.0136160
773.583	0.0136311
773.661	0.0135997
773.739	0.0135915
773.818	0.0137330
773.896	0.0137935
773.974	0.0137334
774.052	0.0136427
774.130	0.0136790
774.208	0.0138036
774.286	0.0137930
774.364	0.0139153
774.443	0.0138064
774.521	0.0138330
774.599	0.0138803
774.677	0.0139137
774.755	0.0137281
774.833	0.0140049
774.911	0.0139389
774.989	0.0138427
775.068	0.0139296
775.146	0.0140344
775.224	0.0139138
775.302	0.0140024
775.380	0.0139468
775.458	0.0139631
775.536	0.0142181
775.614	0.0140604
775.693	0.0141232
775.771	0.0140720
775.849	0.0142249
775.927	0.0141062
776.005	0.0142707
776.083	0.0141776
776.161	0.0143101
776.239	0.0142282
776.318	0.0142268
776.396	0.0141721
776.474	0.0144736
776.552	0.0143552
776.630	0.0142972
776.708	0.0142038
776.786	0.0140519
776.864	0.0143134
776.943	0.0140613
777.021	0.0139217
777.099	0.0139235
777.177	0.0139421
777.255	0.0138506
777.333	0.0137449
777.411	0.0136759
777.489	0.0135961
777.568	0.0135879
777.646	0.0134522
777.724	0.0134676
777.802	0.0132890
777.880	0.0132426
777.958	0.0133693
778.036	0.0133389
778.114	0.0132064
778.193	0.0134496
778.271	0.0132836
778.349	0.0133604
778.427	0.0133247
778.505	0.0133288
778.583	0.0133131
778.661	0.0135709
778.739	0.0135264
778.818	0.0134097
778.896	0.0136912
778.974	0.0136181
779.052	0.0135961
779.130	0.0137724
779.208	0.0138123
779.286	0.0139268
779.364	0.0137413
779.443	0.0139246
779.521	0.0139648
779.599	0.0138745
779.677	0.0140246
779.755	0.0140060
779.833	0.0139373
779.911	0.0139856
779.989	0.0140195
780.068	0.0139689
780.146	0.0140657
780.224	0.0140313
780.302	0.0141075
780.380	0.0139279
780.458	0.0139983
780.536	0.0139594
780.614	0.0140389
780.693	0.0140041
780.771	0.0140157
780.849	0.0138622
780.927	0.0137952
781.005	0.0137930
781.083	0.0136975
781.161	0.0136330
781.239	0.0135798
781.318	0.0135847
781.396	0.0137109
781.474	0.0135673
781.552	0.0134906
781.630	0.0134953
781.708	0.0133860
781.786	0.0134351
781.864	0.0134148
781.943	0.0133079
782.021	0.0134481
782.099	0.0133920
782.177	0.0134102
782.255	0.0134032
782.333	0.0135018
782.411	0.0135442
782.489	0.0133893
782.568	0.0134326
782.646	0.0136769
782.724	0.0135218
782.802	0.0134940
782.880	0.0135981
782.958	0.0135368
783.036	0.0136049
783.114	0.0136306
783.193	0.0136909
783.271	0.0136752
783.349	0.0135783
783.427	0.0137370
783.505	0.0137995
783.583	0.0138187
783.661	0.0137590
783.739	0.0137750
783.818	0.0137502
783.896	0.0138441
783.974	0.0138174
784.052	0.0138271
784.130	0.0138424
784.208	0.0139637
784.286	0.0140143
784.364	0.0139953
784.443	0.0140953
784.521	0.0140928
784.599	0.0141816
784.677	0.0141640
784.755	0.0141287
784.833	0.0140543
784.911	0.0142087
784.989	0.0141078
785.068	0.0141251
785.146	0.0141849
785.224	0.0140399
785.302	0.0140136
785.380	0.0139594
785.458	0.0140586
785.536	0.0140150
785.614	0.0139622
785.693	0.0138457
785.771	0.0138080
785.849	0.0136417
785.927	0.0138702
786.005	0.0137668
786.083	0.0135193
786.161	0.0136987
786.239	0.0135863
786.318	0.0135245
786.396	0.0134486
786.474	0.0134902
786.552	0.0132250
786.630	0.0132745
786.708	0.0134061
786.786	0.0133540
786.864	0.0132283
786.943	0.0131939
787.021	0.0133295
787.099	0.0131644
787.177	0.0131487
787.255	0.0131458
787.333	0.0132724
787.411	0.0133164
787.489	0.0133126
787.568	0.0133274
787.646	0.0134256
787.724	0.0134216
787.802	0.0134367
787.880	0.0134341
787.958	0.0137704
788.036	0.0137849
788.114	0.0137071
788.193	0.0138534
788.271	0.0139665
788.349	0.0138768
788.427	0.0139032
788.505	0.0140511
788.583	0.0140442
788.661	0.0139848
788.739	0.0141647
788.818	0.0141006
788.896	0.0141273
788.974	0.0142098
789.052	0.0141563
789.130	0.0142636
789.208	0.0141875
789.286	0.0142735
789.364	0.0142174
789.443	0.0143141
789.521	0.0141772
789.599	0.0142603
789.677	0.0141618
789.755	0.0142382
789.833	0.0142644
789.911	0.0140987
789.989	0.0141762
790.068	0.0140977
790.146	0.0140943
790.224	0.0141651
790.302	0.0141605
790.380	0.0139366
790.458	0.0138567
790.536	0.0138696
790.614	0.0139662
790.693	0.0138268
790.771	0.0138838
790.849	0.0138367
790.927	0.0136826
791.005	0.0138494
791.083	0.0136744
791.161	0.0137171
791.239	0.0136692
791.318	0.0137328
791.396	0.0136935
791.474	0.0135784
791.552	0.0134862
791.630	0.0135841
791.708	0.0136700
791.786	0.0135874
791.864	0.0135130
791.943	0.0136320
792.021	0.0136118
792.099	0.0135211
792.177	0.0134143
792.255	0.0133866
792.333	0.0134248
792.411	0.0135821
792.489	0.0134830
792.568	0.0135213
792.646	0.0134853
792.724	0.0136054
792.802	0.0135507
792.880	0.0136607
792.958	0.0136435
793.036	0.0137698
793.114	0.0136858
793.193	0.0137598
793.271	0.0139302
793.349	0.0137928
793.427	0.0138040
793.505	0.0140105
793.583	0.0139399
793.661	0.0140136
793.739	0.0141595
793.818	0.0141816
793.896	0.0141833
793.974	0.0142944
794.052	0.0143623
794.130	0.0142582
794.208	0.0142367
794.286	0.0142502
794.364	0.0142937
794.443	0.0143389
794.521	0.0142864
794.599	0.0141644
794.677	0.0142157
794.755	0.0141489
794.833	0.0142194
794.911	0.0140691
794.989	0.0140576
795.068	0.0140537
795.146	0.0139383
795.224	0.0138471
795.302	0.0139140
795.380	0.0139046
795.458	0.0137609
795.536	0.0137780
795.614	0.0138650
795.693	0.0137284
795.771	0.0137937
795.849	0.0135935
795.927	0.0136462
796.005	0.0136281
796.083	0.0136092
796.161	0.0136464
796.239	0.0135955
796.318	0.0136360
796.396	0.0134414
796.474	0.0135741
796.552	0.0135703
796.630	0.0135645
796.708	0.0135547
796.786	0.0135004
796.864	0.0133836
796.943	0.0134991
797.021	0.0134989
797.099	0.0134309
797.177	0.0134415
797.255	0.0134200
797.333	0.0134161
797.411	0.0135106
797.489	0.0135481
797.568	0.0132088
797.646	0.0132192
797.724	0.0133559
797.802	0.0133576
797.880	0.0132402
797.958	0.0132548
798.036	0.0132513
798.114	0.0132893
798.193	0.0133218
798.271	0.0133244
798.349	0.0131533
798.427	0.0133195
798.505	0.0133769
798.583	0.0133585
798.661	0.0135019
798.739	0.0136456
798.818	0.0135764
798.896	0.0136464
798.974	0.0137342
799.052	0.0138742
799.130	0.0139906
799.208	0.0139124
799.286	0.0140321
799.364	0.0141299
799.443	0.0141985
799.521	0.0141544
799.599	0.0141759
799.677	0.0141534
799.755	0.0140442
799.833	0.0141133
799.911	0.0142393
799.989	0.0140850
800.068	0.0141808
800.146	0.0141680
800.224	0.0142033
800.302	0.0140944
800.380	0.0141904
800.458	0.0142542
800.536	0.0142017
800.614	0.0141245
800.693	0.0141228
800.771	0.0141385
800.849	0.0140208
800.927	0.0141645
801.005	0.0139323
801.083	0.0140973
801.161	0.0139859
801.239	0.0139074
801.318	0.0139850
801.396	0.0139641
801.474	0.0138164
801.552	0.0137996
801.630	0.0138289
801.708	0.0137939
801.786	0.0138453
801.864	0.0137912
801.943	0.0136556
802.021	0.0136444
802.099	0.0136566
802.177	0.0136302
802.255	0.0135049
802.333	0.0134779
802.411	0.0135487
802.489	0.0133966
802.568	0.0134919
802.646	0.0133141
802.724	0.0133445
802.802	0.0134651
802.880	0.0131659
802.958	0.0131069
803.036	0.0133150
803.114	0.0131477
803.193	0.0132368
803.271	0.0132625
803.349	0.0131113
803.427	0.0131520
803.505	0.0130424
803.583	0.0131482
803.661	0.0130984
803.739	0.0131965
803.818	0.0129512
803.896	0.0131378
803.974	0.0132063
804.052	0.0133161
804.130	0.0132348
804.208	0.0133678
804.286	0.0135470
804.364	0.0134061
804.443	0.0136164
804.521	0.0136378
804.599	0.0137995
804.677	0.0139379
804.755	0.0138438
804.833	0.0138612
804.911	0.0138394
804.989	0.0141492
805.068	0.0141506
805.146	0.0141505
805.224	0.0142907
805.302	0.0143696
805.380	0.0142770
805.458	0.0143414
805.536	0.0144724
805.614	0.0143197
805.693	0.0143847
805.771	0.0143418
805.849	0.0144944
805.927	0.0142916
806.005	0.0144205
806.083	0.0144225
806.161	0.0143826
806.239	0.0145212
806.318	0.0145357
806.396	0.0143846
806.474	0.0143339
806.552	0.0141421
806.630	0.0142509
806.708	0.0143515
806.786	0.0141846
806.864	0.0141296
806.943	0.0141144
807.021	0.0141433
807.099	0.0141241
807.177	0.0140983
807.255	0.0139989
807.333	0.0138539
807.411	0.0138661
807.489	0.0138911
807.568	0.0138931
807.646	0.0139748
807.724	0.0138176
807.802	0.0137194
807.880	0.0138322
807.958	0.0137582
808.036	0.0137975
808.114	0.0136487
808.193	0.0135515
808.271	0.0134325
808.349	0.0134609
808.427	0.0134450
808.505	0.0134089
808.583	0.0132357
808.661	0.0132828
808.739	0.0132440
808.818	0.0131157
808.896	0.0131737
808.974	0.0132150
809.052	0.0128270
809.130	0.0129027
809.208	0.0129931
809.286	0.0131289
809.364	0.0130100
809.443	0.0128988
809.521	0.0129785
809.599	0.0130811
809.677	0.0131374
809.755	0.0130916
809.833	0.0132315
809.911	0.0133145
809.989	0.0134261
810.068	0.0135164
810.146	0.0135471
810.224	0.0135876
810.302	0.0138115
810.380	0.0137125
810.458	0.0138714
810.536	0.0139251
810.614	0.0140217
810.693	0.0141770
810.771	0.0140557
810.849	0.0141359
810.927	0.0144308
811.005	0.0143684
811.083	0.0143132
811.161	0.0143356
811.239	0.0143820
811.318	0.0143109
811.396	0.0144254
811.474	0.0144244
811.552	0.0143174
811.630	0.0144147
811.708	0.0143449
811.786	0.0143787
811.864	0.0142696
811.943	0.0143173
812.021	0.0144015
812.099	0.0142638
812.177	0.0141402
812.255	0.0141064
812.333	0.0141322
812.411	0.0142098
812.489	0.0141658
812.568	0.0140874
812.646	0.0140865
812.724	0.0139146
812.802	0.0138651
812.880	0.0138767
812.958	0.0137604
813.036	0.0137870
813.114	0.0136391
813.193	0.0135764
813.271	0.0137116
813.349	0.0134785
813.427	0.0134583
813.505	0.0135272
813.583	0.0132459
813.661	0.0133675
813.739	0.0133565
813.818	0.0134457
813.896	0.0133492
813.974	0.0132252
814.052	0.0133485
814.130	0.0133263
814.208	0.0134587
814.286	0.0134268
814.364	0.0133614
814.443	0.0133970
814.521	0.0135709
814.599	0.0134634
814.677	0.0134528
814.755	0.0135350
814.833	0.0136109
814.911	0.0136607
814.989	0.0136816
815.068	0.0136704
815.146	0.0139514
815.224	0.0138295
815.302	0.0137988
815.380	0.0137998
815.458	0.0137315
815.536	0.0139114
815.614	0.0138858
815.693	0.0138536
815.771	0.0140527
815.849	0.0139539
815.927	0.0139751
816.005	0.0141299
816.083	0.0142548
816.161	0.0140244
816.239	0.0140549
816.318	0.0139436
816.396	0.0140681
816.474	0.0141817
816.552	0.0139951
816.630	0.0140685
816.708	0.0139667
816.786	0.0140593
816.864	0.0141352
816.943	0.0141461
817.021	0.0141274
817.099	0.0142545
817.177	0.0141579
817.255	0.0141694
817.333	0.0141463
817.411	0.0140834
817.489	0.0142078
817.568	0.0142706
817.646	0.0140814
817.724	0.0142921
817.802	0.0143128
817.880	0.0141538
817.958	0.0143572
818.036	0.0142501
818.114	0.0141739
818.193	0.0140159
818.271	0.0139590
818.349	0.0140889
818.427	0.0138593
818.505	0.0136499
818.583	0.0137630
818.661	0.0137780
818.739	0.0135978
818.818	0.0135997
818.896	0.0134914
818.974	0.0133423
819.052	0.0134066
819.130	0.0135779
819.208	0.0134361
819.286	0.0133049
819.364	0.0131998
819.443	0.0133640
819.521	0.0134305
819.599	0.0132920
819.677	0.0133431
819.755	0.0134357
819.833	0.0133324
819.911	0.0134242
819.989	0.0135270
820.068	0.0135045
820.146	0.0134563
820.224	0.0137616
820.302	0.0137935
820.380	0.0138937
820.458	0.0140809
820.536	0.0139973
820.614	0.0139674
820.693	0.0142005
820.771	0.0141668
820.849	0.0141289
820.927	0.0143143
821.005	0.0141670
821.083	0.0141461
821.161	0.0141927
821.239	0.0140134
821.318	0.0140897
821.396	0.0138730
821.474	0.0138667
821.552	0.0138631
821.630	0.0136296
821.708	0.0134920
821.786	0.0136600
821.864	0.0135199
821.943	0.0133772
822.021	0.0133703
822.099	0.0132385
822.177	0.0132908
822.255	0.0133560
822.333	0.0132735
822.411	0.0131551
822.489	0.0132413
822.568	0.0131313
822.646	0.0131229
822.724	0.0133327
822.802	0.0134136
822.880	0.0134592
822.958	0.0135010
823.036	0.0135613
823.114	0.0137771
823.193	0.0139014
823.271	0.0137353
823.349	0.0140144
823.427	0.0140819
823.505	0.0140192
823.583	0.0139477
823.661	0.0142001
823.739	0.0141789
823.818	0.0141967
823.896	0.0140238
823.974	0.0142755
824.052	0.0142786
824.130	0.0142313
824.208	0.0143266
824.286	0.0142863
824.364	0.0140909
824.443	0.0141949
824.521	0.0142163
824.599	0.0140926
824.677	0.0142085
824.755	0.0140793
824.833	0.0138730
824.911	0.0138319
824.989	0.0138434
825.068	0.0137811
825.146	0.0136057
825.224	0.0136734
825.302	0.0136394
825.380	0.0135476
825.458	0.0134056
825.536	0.0134805
825.614	0.0135359
825.693	0.0133727
825.771	0.0134528
825.849	0.0135313
825.927	0.0135725
826.005	0.0135925
826.083	0.0136261
826.161	0.0137064
826.239	0.0136956
826.318	0.0137269
826.396	0.0139053
826.474	0.0138946
826.552	0.0139993
826.630	0.0140000
826.708	0.0140334
826.786	0.0140211
826.864	0.0140324
826.943	0.0140571
827.021	0.0141351
827.099	0.0140738
827.177	0.0139481
827.255	0.0140825
827.333	0.0140611
827.411	0.0139384
827.489	0.0139596
827.568	0.0139330
827.646	0.0139471
827.724	0.0140615
827.802	0.0137880
827.880	0.0137888
827.958	0.0138112
828.036	0.0137710
828.114	0.0138694
828.193	0.0137208
828.271	0.0136861
828.349	0.0137608
828.427	0.0136925
828.505	0.0136013
828.583	0.0137090
828.661	0.0136039
828.739	0.0136863
828.818	0.0136479
828.896	0.0136408
828.974	0.0136633
829.052	0.0138058
829.130	0.0137489
829.208	0.0137786
829.286	0.0138078
829.364	0.0138940
829.443	0.0138200
829.521	0.0139597
829.599	0.0139867
829.677	0.0140269
829.755	0.0139735
829.833	0.0139822
829.911	0.0140321
829.989	0.0140068
830.068	0.0142057
830.146	0.0141930
830.224	0.0141006
830.302	0.0141531
830.380	0.0141973
830.458	0.0141025
830.536	0.0141510
830.614	0.0141592
830.693	0.0142359
830.771	0.0141293
830.849	0.0140302
830.927	0.0141791
831.005	0.0140172
831.083	0.0140688
831.161	0.0141240
831.239	0.0140549
831.318	0.0141144
831.396	0.0142144
831.474	0.0142173
831.552	0.0143185
831.630	0.0141311
831.708	0.0141278
831.786	0.0139911
831.864	0.0141042
831.943	0.0141008
832.021	0.0141975
832.099	0.0140923
832.177	0.0141039
832.255	0.0141881
832.333	0.0140057
832.411	0.0141772
832.489	0.0141423
832.568	0.0138940
832.646	0.0139964
832.724	0.0140731
832.802	0.0139716
832.880	0.0140434
832.958	0.0140804
833.036	0.0139919
833.114	0.0139902
833.193	0.0140144
833.271	0.0138247
833.349	0.0138873
833.427	0.0137395
833.505	0.0137793
833.583	0.0136359
833.661	0.0135204
833.739	0.0135958
833.818	0.0135721
833.896	0.0134601
833.974	0.0134229
834.052	0.0134074
834.130	0.0132766
834.208	0.0133154
834.286	0.0134354
834.364	0.0133164
834.443	0.0132259
834.521	0.0134274
834.599	0.0133826
834.677	0.0133852
834.755	0.0134523
834.833	0.0135159
834.911	0.0136228
834.989	0.0135513
835.068	0.0136168
835.146	0.0136201
835.224	0.0138470
835.302	0.0137888
835.380	0.0139176
835.458	0.0139439
835.536	0.0140035
835.614	0.0140884
835.693	0.0140387
835.771	0.0140710
835.849	0.0141595
835.927	0.0143575
836.005	0.0143035
836.083	0.0144548
836.161	0.0144150
836.239	0.0144424
836.318	0.0144934
836.396	0.0144996
836.474	0.0144489
836.552	0.0144563
836.630	0.0143213
836.708	0.0142521
836.786	0.0143886
836.864	0.0143557
836.943	0.0141910
837.021	0.0142348
837.099	0.0141630
837.177	0.0138420
837.255	0.0139974
837.333	0.0138573
837.411	0.0138879
837.489	0.0137832
837.568	0.0136653
837.646	0.0137080
837.724	0.0134628
837.802	0.0137566
837.880	0.0137312
837.958	0.0136061
838.036	0.0136184
838.114	0.0134110
838.193	0.0134828
838.271	0.0135611
838.349	0.0135537
838.427	0.0134779
838.505	0.0136035
838.583	0.0135608
838.661	0.0135510
838.739	0.0136359
838.818	0.0134644
838.896	0.0136509
838.974	0.0136772
839.052	0.0136958
839.130	0.0134707
839.208	0.0135722
839.286	0.0135336
839.364	0.0135222
839.443	0.0135825
839.521	0.0135272
839.599	0.0134206
839.677	0.0135333
839.755	0.0135143
839.833	0.0134648
839.911	0.0134110
839.989	0.0134462
840.068	0.0134198
840.146	0.0135139
840.224	0.0135493
840.302	0.0134570
840.380	0.0135636
840.458	0.0135909
840.536	0.0136131
840.614	0.0134606
840.693	0.0135101
840.771	0.0136045
840.849	0.0135819
840.927	0.0135840
841.005	0.0137254
841.083	0.0136471
841.161	0.0136190
841.239	0.0135762
841.318	0.0137524
841.396	0.0138113
841.474	0.0138442
841.552	0.0138239
841.630	0.0139202
841.708	0.0140762
841.786	0.0139204
841.864	0.0140066
841.943	0.0140157
842.021	0.0139365
842.099	0.0141023
842.177	0.0141037
842.255	0.0140344
842.333	0.0140598
842.411	0.0141154
842.489	0.0141569
842.568	0.0141882
842.646	0.0141521
842.724	0.0140771
842.802	0.0140923
842.880	0.0139563
842.958	0.0140340
843.036	0.0139201
843.114	0.0138297
843.193	0.0139147
843.271	0.0139095
843.349	0.0139137
843.427	0.0137897
843.505	0.0138351
843.583	0.0139085
843.661	0.0137427
843.739	0.0137582
843.818	0.0137900
843.896	0.0138315
843.974	0.0136829
844.052	0.0135244
844.130	0.0137041
844.208	0.0134997
844.286	0.0135344
844.364	0.0137086
844.443	0.0136054
844.521	0.0136009
844.599	0.0135577
844.677	0.0135031
844.755	0.0134769
844.833	0.0135001
844.911	0.0135255
844.989	0.0135113
845.068	0.0134653
845.146	0.0135115
845.224	0.0134224
845.302	0.0133262
845.380	0.0132867
845.458	0.0133591
845.536	0.0133485
845.614	0.0133642
845.693	0.0134230
845.771	0.0134509
845.849	0.0134079
845.927	0.0134830
846.005	0.0136087
846.083	0.0136887
846.161	0.0136324
846.239	0.0137451
846.318	0.0138466
846.396	0.0140086
846.474	0.0140231
846.552	0.0139618
846.630	0.0140675
846.708	0.0143267
846.786	0.0142516
846.864	0.0140994
846.943	0.0142802
847.021	0.0143109
847.099	0.0142778
847.177	0.0142694
847.255	0.0142382
847.333	0.0141406
847.411	0.0142785
847.489	0.0141624
847.568	0.0140437
847.646	0.0140430
847.724	0.0139333
847.802	0.0140026
847.880	0.0138297
847.958	0.0137963
848.036	0.0139142
848.114	0.0138986
848.193	0.0138884
848.271	0.0137381
848.349	0.0136990
848.427	0.0138332
848.505	0.0136980
848.583	0.0137782
848.661	0.0136981
848.739	0.0137137
848.818	0.0139462
848.896	0.0139834
848.974	0.0140075
849.052	0.0139964
849.130	0.0138375
849.208	0.0139245
849.286	0.0139452
849.364	0.0141244
849.443	0.0139281
849.521	0.0140272
849.599	0.0139706
849.677	0.0139700
849.755	0.0139353
849.833	0.0139582
849.911	0.0137563
849.989	0.0136376
850.068	0.0136671
850.146	0.0136069
850.224	0.0136389
850.302	0.0137186
850.380	0.0136034
850.458	0.0136005
850.536	0.0136831
850.614	0.0135516
850.693	0.0135326
850.771	0.0134936
850.849	0.0135355
850.927	0.0135789
851.005	0.0135195
851.083	0.0136465
851.161	0.0135594
851.239	0.0137345
851.318	0.0137422
851.396	0.0137381
851.474	0.0136866
851.552	0.0139060
851.630	0.0138851
851.708	0.0138840
851.786	0.0138825
851.864	0.0139529
851.943	0.0138862
852.021	0.0139099
852.099	0.0140302
852.177	0.0138464
852.255	0.0138719
852.333	0.0139648
852.411	0.0137573
852.489	0.0139582
852.568	0.0139112
852.646	0.0137885
852.724	0.0139541
852.802	0.0138383
852.880	0.0137931
852.958	0.0137302
853.036	0.0137666
853.114	0.0138577
853.193	0.0137288
853.271	0.0137380
853.349	0.0137961
853.427	0.0136934
853.505	0.0136762
853.583	0.0137093
853.661	0.0136713
853.739	0.0137884
853.818	0.0138315
853.896	0.0138116
853.974	0.0138116
854.052	0.0137376
854.130	0.0138567
854.208	0.0138055
854.286	0.0137584
854.364	0.0139259
854.443	0.0140299
854.521	0.0140755
854.599	0.0139600
854.677	0.0140415
854.755	0.0140310
854.833	0.0140525
854.911	0.0140535
854.989	0.0141969
855.068	0.0140218
855.146	0.0139783
855.224	0.0140314
855.302	0.0138417
855.380	0.0140670
855.458	0.0140254
855.536	0.0137796
855.614	0.0137460
855.693	0.0137307
855.771	0.0136500
855.849	0.0137943
855.927	0.0136686
856.005	0.0135918
856.083	0.0137051
856.161	0.0135702
856.239	0.0136865
856.318	0.0136350
856.396	0.0135410
856.474	0.0135305
856.552	0.0135095
856.630	0.0135339
856.708	0.0135992
856.786	0.0136504
856.864	0.0138473
856.943	0.0136833
857.021	0.0138462
857.099	0.0137714
857.177	0.0138354
857.255	0.0139742
857.333	0.0139037
857.411	0.0138195
857.489	0.0138530
857.568	0.0140158
857.646	0.0138708
857.724	0.0138863
857.802	0.0139525
857.880	0.0140068
857.958	0.0139842
858.036	0.0140039
858.114	0.0140436
858.193	0.0139132
858.271	0.0138656
858.349	0.0138670
858.427	0.0141193
858.505	0.0139555
858.583	0.0138358
858.661	0.0137760
858.739	0.0137755
858.818	0.0140168
858.896	0.0139192
858.974	0.0138515
859.052	0.0140407
859.130	0.0138177
859.208	0.0139189
859.286	0.0138309
859.364	0.0138559
859.443	0.0141404
859.521	0.0140204
859.599	0.0139827
859.677	0.0141812
859.755	0.0140169
859.833	0.0139604
859.911	0.0139629
859.989	0.0138524
860.068	0.0140282
860.146	0.0140331
860.224	0.0138438
860.302	0.0138978
860.380	0.0138305
860.458	0.0137870
860.536	0.0137355
860.614	0.0135193
860.693	0.0136731
860.771	0.0137395
860.849	0.0135451
860.927	0.0134875
861.005	0.0134417
861.083	0.0134615
861.161	0.0133917
861.239	0.0134599
861.318	0.0134915
861.396	0.0134652
861.474	0.0135674
861.552	0.0135297
861.630	0.0134638
861.708	0.0136852
861.786	0.0136453
861.864	0.0134899
861.943	0.0137132
862.021	0.0135384
862.099	0.0137995
862.177	0.0136185
862.255	0.0135889
862.333	0.0135593
862.411	0.0138189
862.489	0.0136417
862.568	0.0135408
862.646	0.0136229
862.724	0.0136554
862.802	0.0137088
862.880	0.0134612
862.958	0.0135134
863.036	0.0134312
863.114	0.0134700
863.193	0.0136437
863.271	0.0135822
863.349	0.0135373
863.427	0.0136129
863.505	0.0135188
863.583	0.0136580
863.661	0.0136703
863.739	0.0136717
863.818	0.0137289
863.896	0.0137489
863.974	0.0137782
864.052	0.0138850
864.130	0.0138769
864.208	0.0138589
864.286	0.0139206
864.364	0.0138783
864.443	0.0139126
864.521	0.0139034
864.599	0.0138281
864.677	0.0139040
864.755	0.0139558
864.833	0.0139212
864.911	0.0139012
864.989	0.0139342
865.068	0.0138828
865.146	0.0139153
865.224	0.0138709
865.302	0.0138365
865.380	0.0138486
865.458	0.0138507
865.536	0.0138898
865.614	0.0138222
865.693	0.0138554
865.771	0.0135758
865.849	0.0135827
865.927	0.0135349
866.005	0.0135571
866.083	0.0135567
866.161	0.0135135
866.239	0.0134214
866.318	0.0134624
866.396	0.0134410
866.474	0.0134235
866.552	0.0134747
866.630	0.0135983
866.708	0.0134173
866.786	0.0134912
866.864	0.0135926
866.943	0.0135979
867.021	0.0135252
867.099	0.0137264
867.177	0.0135944
867.255	0.0136337
867.333	0.0136670
867.411	0.0137439
867.489	0.0136748
867.568	0.0136970
867.646	0.0137408
867.724	0.0138599
867.802	0.0138125
867.880	0.0138281
867.958	0.0138996
868.036	0.0139883
868.114	0.0140767
868.193	0.0140274
868.271	0.0140430
868.349	0.0139191
868.427	0.0141724
868.505	0.0140103
868.583	0.0138687
868.661	0.0140258
868.739	0.0140091
868.818	0.0139838
868.896	0.0139010
868.974	0.0138992
869.052	0.0140018
869.130	0.0136782
869.208	0.0137865
869.286	0.0137433
869.364	0.0136655
869.443	0.0136338
869.521	0.0136322
869.599	0.0137915
869.677	0.0136546
869.755	0.0135382
869.833	0.0135619
869.911	0.0135790
869.989	0.0135756
870.068	0.0135584
870.146	0.0135786
870.224	0.0136704
870.302	0.0136494
870.380	0.0137347
870.458	0.0135225
870.536	0.0136295
870.614	0.0136730
870.693	0.0137785
870.771	0.0137357
870.849	0.0137124
870.927	0.0138698
871.005	0.0137309
871.083	0.0136348
871.161	0.0135856
871.239	0.0137138
871.318	0.0137354
871.396	0.0137479
871.474	0.0138020
871.552	0.0137563
871.630	0.0136889
871.708	0.0137361
871.786	0.0138219
871.864	0.0138004
871.943	0.0137546
872.021	0.0136029
872.099	0.0136645
872.177	0.0138905
872.255	0.0139122
872.333	0.0136742
872.411	0.0138364
872.489	0.0138295
872.568	0.0138541
872.646	0.0138581
872.724	0.0138924
872.802	0.0138277
872.880	0.0138452
872.958	0.0138833
873.036	0.0138819
873.114	0.0136981
873.193	0.0137807
873.271	0.0137920
873.349	0.0139518
873.427	0.0137316
873.505	0.0138166
873.583	0.0137933
873.661	0.0136866
873.739	0.0137745
873.818	0.0136436
873.896	0.0136097
873.974	0.0137988
874.052	0.0137270
874.130	0.0135891
874.208	0.0135970
874.286	0.0136681
874.364	0.0136530
874.443	0.0137047
874.521	0.0135358
874.599	0.0135477
874.677	0.0136559
874.755	0.0135747
874.833	0.0137109
874.911	0.0137148
874.989	0.0138123
875.068	0.0137681
875.146	0.0138761
875.224	0.0137541
875.302	0.0139850
875.380	0.0139444
875.458	0.0138092
875.536	0.0138680
875.614	0.0139660
875.693	0.0138885
875.771	0.0139072
875.849	0.0137665
875.927	0.0138862
876.005	0.0138025
876.083	0.0137509
876.161	0.0138814
876.239	0.0139990
876.318	0.0138546
876.396	0.0137539
876.474	0.0139697
876.552	0.0139175
876.630	0.0138449
876.708	0.0137029
876.786	0.0137852
876.864	0.0139416
876.943	0.0139787
877.021	0.0138894
877.099	0.0138808
877.177	0.0139445
877.255	0.0140914
877.333	0.0139571
877.411	0.0140497
877.489	0.0141477
877.568	0.0139455
877.646	0.0139575
877.724	0.0141324
877.802	0.0140295
877.880	0.0138284
877.958	0.0139316
878.036	0.0138817
878.114	0.0138708
878.193	0.0137692
878.271	0.0137424
878.349	0.0137391
878.427	0.0136066
878.505	0.0136359
878.583	0.0135227
878.661	0.0136244
878.739	0.0135851
878.818	0.0136288
878.896	0.0135698
878.974	0.0136637
879.052	0.0135217
879.130	0.0134647
879.208	0.0134917
879.286	0.0135966
879.364	0.0136089
879.443	0.0136841
879.521	0.0135696
879.599	0.0136419
879.677	0.0136177
879.755	0.0137902
879.833	0.0138301
879.911	0.0138619
879.989	0.0138608
880.068	0.0137655
880.146	0.0137168
880.224	0.0137968
880.302	0.0137802
880.380	0.0140148
880.458	0.0139027
880.536	0.0138155
880.614	0.0138219
880.693	0.0139247
880.771	0.0139381
880.849	0.0139770
880.927	0.0140602
881.005	0.0139041
881.083	0.0139091
881.161	0.0138637
881.239	0.0138785
881.318	0.0137720
881.396	0.0137489
881.474	0.0138513
881.552	0.0137785
881.630	0.0137539
881.708	0.0137613
881.786	0.0137363
881.864	0.0137212
881.943	0.0137807
882.021	0.0137907
882.099	0.0137544
882.177	0.0137479
882.255	0.0138023
882.333	0.0137312
882.411	0.0137115
882.489	0.0138230
882.568	0.0137061
882.646	0.0138259
882.724	0.0138731
882.802	0.0138095
882.880	0.0139270
882.958	0.0138210
883.036	0.0139074
883.114	0.0138922
883.193	0.0137909
883.271	0.0139347
883.349	0.0138797
883.427	0.0138934
883.505	0.0136975
883.583	0.0138361
883.661	0.0138560
883.739	0.0138107
883.818	0.0137927
883.896	0.0137933
883.974	0.0138146
884.052	0.0138377
884.130	0.0137767
884.208	0.0137828
884.286	0.0139642
884.364	0.0139060
884.443	0.0138327
884.521	0.0138155
884.599	0.0138483
884.677	0.0137993
884.755	0.0137424
884.833	0.0138477
884.911	0.0139381
884.989	0.0137743
885.068	0.0138779
885.146	0.0139221
885.224	0.0138575
885.302	0.0139143
885.380	0.0138390
885.458	0.0138778
885.536	0.0138574
885.614	0.0140260
885.693	0.0139973
885.771	0.0138953
885.849	0.0139000
885.927	0.0137953
886.005	0.0138573
886.083	0.0138039
886.161	0.0138451
886.239	0.0138162
886.318	0.0137490
886.396	0.0138190
886.474	0.0137236
886.552	0.0136604
886.630	0.0136143
886.708	0.0136658
886.786	0.0136231
886.864	0.0136410
886.943	0.0134345
887.021	0.0134583
887.099	0.0135948
887.177	0.0136190
887.255	0.0135693
887.333	0.0135317
887.411	0.0137817
887.489	0.0136981
887.568	0.0135257
887.646	0.0135905
887.724	0.0137185
887.802	0.0137846
887.880	0.0138869
887.958	0.0138174
888.036	0.0138924
888.114	0.0138564
888.193	0.0137861
888.271	0.0137781
888.349	0.0137688
888.427	0.0139182
888.505	0.0140084
888.583	0.0138917
888.661	0.0138750
888.739	0.0138540
888.818	0.0139361
888.896	0.0139420
888.974	0.0139879
889.052	0.0139698
889.130	0.0140067
889.208	0.0139343
889.286	0.0139634
889.364	0.0139491
889.443	0.0138876
889.521	0.0139121
889.599	0.0138690
889.677	0.0138705
889.755	0.0138734
889.833	0.0137429
889.911	0.0139243
889.989	0.0138787
890.068	0.0136855
890.146	0.0137733
890.224	0.0138939
890.302	0.0138876
890.380	0.0137376
890.458	0.0138268
890.536	0.0139088
890.614	0.0138245
890.693	0.0139586
890.771	0.0138087
890.849	0.0137791
890.927	0.0138734
891.005	0.0139661
891.083	0.0139680
891.161	0.0138849
891.239	0.0139134
891.318	0.0139661
891.396	0.0139149
891.474	0.0139825
891.552	0.0138947
891.630	0.0138625
891.708	0.0138547
891.786	0.0137679
891.864	0.0138705
891.943	0.0138228
892.021	0.0137888
892.099	0.0136646
892.177	0.0136984
892.255	0.0137309
892.333	0.0137795
892.411	0.0137762
892.489	0.0136873
892.568	0.0137292
892.646	0.0138286
892.724	0.0138354
892.802	0.0137543
892.880	0.0138181
892.958	0.0138387
893.036	0.0137424
893.114	0.0138512
893.193	0.0139148
893.271	0.0138561
893.349	0.0138966
893.427	0.0138309
893.505	0.0138531
893.583	0.0138155
893.661	0.0137692
893.739	0.0137222
893.818	0.0138256
893.896	0.0136680
893.974	0.0138786
894.052	0.0137280
894.130	0.0137198
894.208	0.0137666
894.286	0.0138113
894.364	0.0139009
894.443	0.0138269
894.521	0.0137499
894.599	0.0138322
894.677	0.0138397
894.755	0.0137154
894.833	0.0137376
894.911	0.0137392
894.989	0.0137125
895.068	0.0137857
895.146	0.0135840
895.224	0.0137426
895.302	0.0136809
895.380	0.0136757
895.458	0.0136794
895.536	0.0136900
895.614	0.0135957
895.693	0.0137331
895.771	0.0135849
895.849	0.0135885
895.927	0.0135329
896.005	0.0134701
896.083	0.0136492
896.161	0.0135255
896.239	0.0135787
896.318	0.0136145
896.396	0.0135609
896.474	0.0136816
896.552	0.0136591
896.630	0.0135069
896.708	0.0137997
896.786	0.0137179
896.864	0.0136594
896.943	0.0136331
897.021	0.0137437
897.099	0.0137396
897.177	0.0136894
897.255	0.0137363
897.333	0.0136945
897.411	0.0138677
897.489	0.0137064
897.568	0.0136237
897.646	0.0136713
897.724	0.0136359
897.802	0.0135463
897.880	0.0136308
897.958	0.0137232
898.036	0.0136640
898.114	0.0136437
898.193	0.0136561
898.271	0.0137002
898.349	0.0136286
898.427	0.0137391
898.505	0.0137858
898.583	0.0137758
898.661	0.0136369
898.739	0.0136858
898.818	0.0137637
898.896	0.0137538
898.974	0.0137475
899.052	0.0136950
899.130	0.0136179
899.208	0.0136811
899.286	0.0136967
899.364	0.0137869
899.443	0.0137107
899.521	0.0137791
899.599	0.0137227
899.677	0.0137730
899.755	0.0138567
899.833	0.0136921
899.911	0.0137238
899.989	0.0138394
900.068	0.0138665
900.146	0.0138247
900.224	0.0137021
900.302	0.0138299
900.380	0.0139211
900.458	0.0138168
900.536	0.0137648
900.614	0.0137951
900.693	0.0137569
900.771	0.0137842
900.849	0.0137968
900.927	0.0139021
901.005	0.0137289
901.083	0.0137084
901.161	0.0138033
901.239	0.0137879
901.318	0.0138731
901.396	0.0136922
901.474	0.0136739
901.552	0.0137854
901.630	0.0136778
901.708	0.0136619
901.786	0.0136687
901.864	0.0137364
901.943	0.0136522
902.021	0.0136820
902.099	0.0137366
902.177	0.0136902
902.255	0.0137132
902.333	0.0136436
902.411	0.0136929
902.489	0.0137333
902.568	0.0136150
902.646	0.0138338
902.724	0.0139045
902.802	0.0138900
902.880	0.0139841
902.958	0.0139793
903.036	0.0138940
903.114	0.0139432
903.193	0.0139723
903.271	0.0140616
903.349	0.0140265
903.427	0.0140044
903.505	0.0141213
903.583	0.0141690
903.661	0.0141403
903.739	0.0142586
903.818	0.0140902
903.896	0.0140979
903.974	0.0140099
904.052	0.0141474
904.130	0.0139972
904.208	0.0138641
904.286	0.0139997
904.364	0.0139907
904.443	0.0140665
904.521	0.0139890
904.599	0.0140400
904.677	0.0138665
904.755	0.0137399
904.833	0.0138999
904.911	0.0138293
904.989	0.0136962
905.068	0.0137695
905.146	0.0137795
905.224	0.0137620
905.302	0.0137655
905.380	0.0136259
905.458	0.0136758
905.536	0.0136796
905.614	0.0136141
905.693	0.0136835
905.771	0.0136952
905.849	0.0137054
905.927	0.0136835
906.005	0.0136985
906.083	0.0136478
906.161	0.0136611
906.239	0.0137308
906.318	0.0137712
906.396	0.0137846
906.474	0.0137894
906.552	0.0137436
906.630	0.0137771
906.708	0.0137510
906.786	0.0136427
906.864	0.0137937
906.943	0.0138931
907.021	0.0138583
907.099	0.0138811
907.177	0.0138662
907.255	0.0138284
907.333	0.0137891
907.411	0.0139276
907.489	0.0139452
907.568	0.0139303
907.646	0.0137532
907.724	0.0139188
907.802	0.0138319
907.880	0.0137990
907.958	0.0136925
908.036	0.0139706
908.114	0.0138217
908.193	0.0138892
908.271	0.0138248
908.349	0.0138629
908.427	0.0139571
908.505	0.0137865
908.583	0.0139416
908.661	0.0140207
908.739	0.0139679
908.818	0.0140620
908.896	0.0140465
908.974	0.0139238
909.052	0.0140804
909.130	0.0141016
909.208	0.0140324
909.286	0.0140309
909.364	0.0139736
909.443	0.0142110
909.521	0.0139971
909.599	0.0138742
909.677	0.0140637
909.755	0.0140097
909.833	0.0140663
909.911	0.0140218
909.989	0.0139996
910.068	0.0139217
910.146	0.0139682
910.224	0.0139690
910.302	0.0138689
910.380	0.0138960
910.458	0.0138394
910.536	0.0138345
910.614	0.0139333
910.693	0.0137145
910.771	0.0137995
910.849	0.0138026
910.927	0.0138676
911.005	0.0138655
911.083	0.0137072
911.161	0.0137735
911.239	0.0138151
911.318	0.0137300
911.396	0.0138806
911.474	0.0138356
911.552	0.0138172
911.630	0.0139297
911.708	0.0138866
911.786	0.0138737
911.864	0.0137875
911.943	0.0138983
912.021	0.0138407
912.099	0.0138705
912.177	0.0138148
912.255	0.0137984
912.333	0.0138434
912.411	0.0138027
912.489	0.0137054
912.568	0.0137054
912.646	0.0135679
912.724	0.0136558
912.802	0.0137646
912.880	0.0136933
912.958	0.0136615
913.036	0.0137288
913.114	0.0136841
913.193	0.0135976
913.271	0.0135368
913.349	0.0136812
913.427	0.0136726
913.505	0.0137075
913.583	0.0138572
913.661	0.0140136
913.739	0.0138525
913.818	0.0137916
913.896	0.0138583
913.974	0.0139162
914.052	0.0139035
914.130	0.0138454
914.208	0.0139610
914.286	0.0139095
914.364	0.0139106
914.443	0.0140964
914.521	0.0139609
914.599	0.0138384
914.677	0.0138480
914.755	0.0140573
914.833	0.0139623
914.911	0.0140176
914.989	0.0138625
915.068	0.0138988
915.146	0.0140017
915.224	0.0139079
915.302	0.0138808
915.380	0.0141416
915.458	0.0140126
915.536	0.0137524
915.614	0.0138320
915.693	0.0139012
915.771	0.0137314
915.849	0.0138472
915.927	0.0138224
916.005	0.0139225
916.083	0.0138625
916.161	0.0137962
916.239	0.0137734
916.318	0.0138004
916.396	0.0138461
916.474	0.0138102
916.552	0.0137975
916.630	0.0137558
916.708	0.0137617
916.786	0.0137883
916.864	0.0137161
916.943	0.0137325
917.021	0.0137371
917.099	0.0137924
917.177	0.0139410
917.255	0.0138525
917.333	0.0137119
917.411	0.0138634
917.489	0.0139080
917.568	0.0138660
917.646	0.0139810
917.724	0.0139295
917.802	0.0138105
917.880	0.0138599
917.958	0.0137614
918.036	0.0137791
918.114	0.0137021
918.193	0.0137550
918.271	0.0137500
918.349	0.0138680
918.427	0.0138329
918.505	0.0137848
918.583	0.0137659
918.661	0.0136581
918.739	0.0139179
918.818	0.0137523
918.896	0.0137781
918.974	0.0137057
919.052	0.0137576
919.130	0.0137183
919.208	0.0137586
919.286	0.0138875
919.364	0.0136642
919.443	0.0137425
919.521	0.0139371
919.599	0.0137070
919.677	0.0136819
919.755	0.0137527
919.833	0.0137873
919.911	0.0139255
919.989	0.0137448
920.068	0.0137206
920.146	0.0138280
920.224	0.0137392
920.302	0.0137444
920.380	0.0137708
920.458	0.0137185
920.536	0.0136555
920.614	0.0135383
920.693	0.0136163
920.771	0.0136577
920.849	0.0135142
920.927	0.0135812
921.005	0.0134377
921.083	0.0137395
921.161	0.0137543
921.239	0.0136103
921.318	0.0137176
921.396	0.0135822
921.474	0.0137104
921.552	0.0135458
921.630	0.0135577
921.708	0.0136318
921.786	0.0136019
921.864	0.0136195
921.943	0.0135992
922.021	0.0136094
922.099	0.0136980
922.177	0.0137337
922.255	0.0138195
922.333	0.0138024
922.411	0.0135602
922.489	0.0136259
922.568	0.0138248
922.646	0.0136655
922.724	0.0136583
922.802	0.0137129
922.880	0.0137386
922.958	0.0136883
923.036	0.0137320
923.114	0.0137489
923.193	0.0138427
923.271	0.0137811
923.349	0.0136996
923.427	0.0138248
923.505	0.0138854
923.583	0.0137856
923.661	0.0137854
923.739	0.0139083
923.818	0.0138641
923.896	0.0139777
923.974	0.0137478
924.052	0.0139151
924.130	0.0137629
924.208	0.0137953
924.286	0.0138171
924.364	0.0137917
924.443	0.0138504
924.521	0.0137405
924.599	0.0136478
924.677	0.0137637
924.755	0.0137799
924.833	0.0137666
924.911	0.0137004
924.989	0.0136903
925.068	0.0137442
925.146	0.0137182
925.224	0.0138259
925.302	0.0137514
925.380	0.0137714
925.458	0.0136660
925.536	0.0138213
925.614	0.0136907
925.693	0.0136301
925.771	0.0137913
925.849	0.0137783
925.927	0.0137666
926.005	0.0136963
926.083	0.0137150
926.161	0.0138378
926.239	0.0138723
926.318	0.0136856
926.396	0.0138447
926.474	0.0139500
926.552	0.0137701
926.630	0.0138071
926.708	0.0138274
926.786	0.0141103
926.864	0.0138523
926.943	0.0139644
927.021	0.0140450
927.099	0.0138640
927.177	0.0138670
927.255	0.0139262
927.333	0.0139977
927.411	0.0139944
927.489	0.0139981
927.568	0.0140196
927.646	0.0137840
927.724	0.0137601
927.802	0.0137843
927.880	0.0138064
927.958	0.0137572
928.036	0.0138593
928.114	0.0137413
928.193	0.0138445
928.271	0.0137370
928.349	0.0138365
928.427	0.0136575
928.505	0.0136175
928.583	0.0137717
928.661	0.0135958
928.739	0.0136805
928.818	0.0137751
928.896	0.0137801
928.974	0.0137935
929.052	0.0136174
929.130	0.0136621
929.208	0.0136597
929.286	0.0136001
929.364	0.0138143
929.443	0.0137144
929.521	0.0136531
929.599	0.0138673
929.677	0.0138484
929.755	0.0137125
929.833	0.0138297
929.911	0.0137438
929.989	0.0136898
930.068	0.0137723
930.146	0.0136858
930.224	0.0137565
930.302	0.0137556
930.380	0.0137376
930.458	0.0137173
930.536	0.0137885
930.614	0.0137949
930.693	0.0137383
930.771	0.0137445
930.849	0.0137827
930.927	0.0136456
931.005	0.0138042
931.083	0.0139043
931.161	0.0137601
931.239	0.0137659
931.318	0.0137769
931.396	0.0138919
931.474	0.0139240
931.552	0.0137864
931.630	0.0137522
931.708	0.0137723
931.786	0.0138546
931.864	0.0138038
931.943	0.0138814
932.021	0.0138401
932.099	0.0138243
932.177	0.0137609
932.255	0.0136526
932.333	0.0138783
932.411	0.0138514
932.489	0.0138479
932.568	0.0138904
932.646	0.0137836
932.724	0.0138858
932.802	0.0138445
932.880	0.0136996
932.958	0.0138025
933.036	0.0138507
933.114	0.0138051
933.193	0.0139211
933.271	0.0138983
933.349	0.0139181
933.427	0.0137511
933.505	0.0139203
933.583	0.0138945
933.661	0.0138162
933.739	0.0138428
933.818	0.0137383
933.896	0.0138745
933.974	0.0138197
934.052	0.0135442
934.130	0.0136056
934.208	0.0137166
934.286	0.0136102
934.364	0.0136501
934.443	0.0137582
934.521	0.0136680
934.599	0.0136304
934.677	0.0138492
934.755	0.0138232
934.833	0.0135746
934.911	0.0136297
934.989	0.0136214
935.068	0.0136304
935.146	0.0135122
935.224	0.0135352
935.302	0.0135523
935.380	0.0136357
935.458	0.0136525
935.536	0.0135560
935.614	0.0137264
935.693	0.0136407
935.771	0.0137695
935.849	0.0135923
935.927	0.0138107
936.005	0.0137380
936.083	0.0137189
936.161	0.0137303
936.239	0.0138264
936.318	0.0137334
936.396	0.0137492
936.474	0.0138057
936.552	0.0138176
936.630	0.0137192
936.708	0.0138620
936.786	0.0137961
936.864	0.0137152
936.943	0.0138648
937.021	0.0137386
937.099	0.0137420
937.177	0.0137920
937.255	0.0137276
937.333	0.0139672
937.411	0.0139183
937.489	0.0138325
937.568	0.0138681
937.646	0.0138488
937.724	0.0138862
937.802	0.0137680
937.880	0.0139108
937.958	0.0139040
938.036	0.0140225
938.114	0.0139881
938.193	0.0139921
938.271	0.0139003
938.349	0.0140223
938.427	0.0137981
938.505	0.0138661
938.583	0.0139980
938.661	0.0140018
938.739	0.0139048
938.818	0.0139671
938.896	0.0139758
938.974	0.0139324
939.052	0.0139846
939.130	0.0138538
939.208	0.0138846
939.286	0.0139626
939.364	0.0139673
939.443	0.0138393
939.521	0.0138033
939.599	0.0138538
939.677	0.0138489
939.755	0.0138072
939.833	0.0138457
939.911	0.0138126
939.989	0.0137633
940.068	0.0137473
940.146	0.0138005
940.224	0.0136787
940.302	0.0135941
940.380	0.0137530
940.458	0.0136771
940.536	0.0135994
940.614	0.0135446
940.693	0.0136426
940.771	0.0136098
940.849	0.0135850
940.927	0.0136970
941.005	0.0134804
941.083	0.0134483
941.161	0.0135344
941.239	0.0136502
941.318	0.0135604
941.396	0.0136143
941.474	0.0136446
941.552	0.0136372
941.630	0.0135686
941.708	0.0136870
941.786	0.0136747
941.864	0.0135729
941.943	0.0136428
942.021	0.0136596
942.099	0.0137384
942.177	0.0137554
942.255	0.0137032
942.333	0.0137865
942.411	0.0137838
942.489	0.0136677
942.568	0.0137502
942.646	0.0136868
942.724	0.0138406
942.802	0.0138248
942.880	0.0137801
942.958	0.0137917
943.036	0.0138375
943.114	0.0139321
943.193	0.0138477
943.271	0.0137291
943.349	0.0137949
943.427	0.0137514
943.505	0.0138413
943.583	0.0137408
943.661	0.0137737
943.739	0.0138530
943.818	0.0136956
943.896	0.0136492
943.974	0.0136376
944.052	0.0137998
944.130	0.0137421
944.208	0.0136862
944.286	0.0137347
944.364	0.0138417
944.443	0.0137485
944.521	0.0137029
944.599	0.0137244
944.677	0.0135315
944.755	0.0136751
944.833	0.0135425
944.911	0.0136043
944.989	0.0135835
945.068	0.0135001
945.146	0.0134574
945.224	0.0136124
945.302	0.0135753
945.380	0.0135196
945.458	0.0134823
945.536	0.0134618
945.614	0.0134869
945.693	0.0133774
945.771	0.0134592
945.849	0.0133462
945.927	0.0135060
946.005	0.0134464
946.083	0.0134579
946.161	0.0134399
946.239	0.0134055
946.318	0.0134921
946.396	0.0135751
946.474	0.0135583
946.552	0.0135915
946.630	0.0136024
946.708	0.0137270
946.786	0.0137053
946.864	0.0136649
946.943	0.0136346
947.021	0.0137975
947.099	0.0137452
947.177	0.0137045
947.255	0.0138058
947.333	0.0136800
947.411	0.0137513
947.489	0.0138510
947.568	0.0137601
947.646	0.0136735
947.724	0.0137666
947.802	0.0138709
947.880	0.0137850
947.958	0.0138854
948.036	0.0138464
948.114	0.0140047
948.193	0.0138762
948.271	0.0138934
948.349	0.0138599
948.427	0.0136974
948.505	0.0138855
948.583	0.0138810
948.661	0.0138955
948.739	0.0138103
948.818	0.0137910
948.896	0.0138722
948.974	0.0138413
949.052	0.0138332
949.130	0.0137738
949.208	0.0138467
949.286	0.0137934
949.364	0.0135804
949.443	0.0136669
949.521	0.0136950
949.599	0.0135537
949.677	0.0135247
949.755	0.0136750
949.833	0.0135934
949.911	0.0134757
949.989	0.0134027
950.068	0.0134384
950.146	0.0136147
950.224	0.0135421
950.302	0.0135918
950.380	0.0135872
950.458	0.0136394
950.536	0.0136454
950.614	0.0136588
950.693	0.0135857
950.771	0.0137356
950.849	0.0138285
950.927	0.0136755
951.005	0.0137130
951.083	0.0137959
951.161	0.0138245
951.239	0.0137313
951.318	0.0136935
951.396	0.0137054
951.474	0.0137792
951.552	0.0139109
951.630	0.0137632
951.708	0.0137915
951.786	0.0137599
951.864	0.0136679
951.943	0.0137251
952.021	0.0138179
952.099	0.0137995
952.177	0.0137746
952.255	0.0138420
952.333	0.0139254
952.411	0.0138542
952.489	0.0139016
952.568	0.0138924
952.646	0.0139355
952.724	0.0139860
952.802	0.0138992
952.880	0.0139425
952.958	0.0138519
953.036	0.0139922
953.114	0.0138500
953.193	0.0137862
953.271	0.0138878
953.349	0.0139066
953.427	0.0140173
953.505	0.0139327
953.583	0.0139779
953.661	0.0138360
953.739	0.0137520
953.818	0.0138457
953.896	0.0139130
953.974	0.0137813
954.052	0.0137657
954.130	0.0138553
954.208	0.0138660
954.286	0.0137916
954.364	0.0138439
954.443	0.0138093
954.521	0.0138427
954.599	0.0137934
954.677	0.0138064
954.755	0.0138416
954.833	0.0138285
954.911	0.0138083
954.989	0.0137928
955.068	0.0137669
955.146	0.0138562
955.224	0.0137308
955.302	0.0137509
955.380	0.0138148
955.458	0.0137393
955.536	0.0136800
955.614	0.0136217
955.693	0.0137854
955.771	0.0138182
955.849	0.0137865
955.927	0.0136201
956.005	0.0137197
956.083	0.0136340
956.161	0.0137276
956.239	0.0136886
956.318	0.0136260
956.396	0.0136456
956.474	0.0136664
956.552	0.0135464
956.630	0.0135739
956.708	0.0135895
956.786	0.0135403
956.864	0.0137208
956.943	0.0135841
957.021	0.0136343
957.099	0.0135537
957.177	0.0136015
957.255	0.0135578
957.333	0.0136096
957.411	0.0135371
957.489	0.0135458
957.568	0.0134414
957.646	0.0136854
957.724	0.0136610
957.802	0.0135375
957.880	0.0136579
957.958	0.0137206
958.036	0.0136469
958.114	0.0136774
958.193	0.0136805
958.271	0.0137296
958.349	0.0136388
958.427	0.0137201
958.505	0.0137090
958.583	0.0137972
958.661	0.0137566
958.739	0.0137191
958.818	0.0138378
958.896	0.0138559
958.974	0.0138023
959.052	0.0138231
959.130	0.0137917
959.208	0.0138502
959.286	0.0138547
959.364	0.0138782
959.443	0.0139583
959.521	0.0138284
959.599	0.0137499
959.677	0.0138676
959.755	0.0139250
959.833	0.0138953
959.911	0.0138787
