05/14/2022	16:49:32	Ver.	4.1	UNKNOWN
Optical Delay	639.989416	Delta X		0.078125	Sweeps	1	Scan Rate	0/0
Coordinates	Axis 1	NaN	Axis 2	NaN	Axis 3	NaN	Axis 4	NaN	Axis 5	NaN	Axis 6	0.000000
TX Power	0.000000	RX Power	0.000000

639.989	0.0134135
640.068	0.0134192
640.146	0.0134697
640.224	0.0132857
640.302	0.0134700
640.380	0.0134781
640.458	0.0132487
640.536	0.0134249
640.614	0.0132809
640.693	0.0133202
640.771	0.0134203
640.849	0.0135056
640.927	0.0133303
641.005	0.0134835
641.083	0.0132975
641.161	0.0133892
641.239	0.0134131
641.318	0.0133475
641.396	0.0133071
641.474	0.0134816
641.552	0.0134054
641.630	0.0133505
641.708	0.0133956
641.786	0.0134797
641.864	0.0134020
641.943	0.0134687
642.021	0.0133833
642.099	0.0134277
642.177	0.0133972
642.255	0.0134671
642.333	0.0134393
642.411	0.0133556
642.489	0.0133968
642.568	0.0135062
642.646	0.0133078
642.724	0.0133951
642.802	0.0135814
642.880	0.0134319
642.958	0.0133832
643.036	0.0134835
643.114	0.0133734
643.193	0.0134612
643.271	0.0134602
643.349	0.0134465
643.427	0.0133058
643.505	0.0134969
643.583	0.0134296
643.661	0.0134808
643.739	0.0134367
643.818	0.0134325
643.896	0.0134851
643.974	0.0133539
644.052	0.0134143
644.130	0.0135084
644.208	0.0134708
644.286	0.0135719
644.364	0.0134465
644.443	0.0134981
644.521	0.0135494
644.599	0.0133794
644.677	0.0135919
644.755	0.0134531
644.833	0.0135207
644.911	0.0134529
644.989	0.0133922
645.068	0.0133563
645.146	0.0135211
645.224	0.0134576
645.302	0.0134436
645.380	0.0134707
645.458	0.0133950
645.536	0.0135147
645.614	0.0134758
645.693	0.0133180
645.771	0.0134698
645.849	0.0134030
645.927	0.0133198
646.005	0.0134795
646.083	0.0134422
646.161	0.0134509
646.239	0.0134137
646.318	0.0135282
646.396	0.0135360
646.474	0.0135184
646.552	0.0135113
646.630	0.0133410
646.708	0.0134358
646.786	0.0133929
646.864	0.0135716
646.943	0.0133997
647.021	0.0134139
647.099	0.0134808
647.177	0.0134194
647.255	0.0133440
647.333	0.0135321
647.411	0.0133717
647.489	0.0133031
647.568	0.0134653
647.646	0.0134292
647.724	0.0133530
647.802	0.0133079
647.880	0.0134132
647.958	0.0132646
648.036	0.0134228
648.114	0.0133283
648.193	0.0133982
648.271	0.0134382
648.349	0.0133833
648.427	0.0133548
648.505	0.0133746
648.583	0.0133640
648.661	0.0133708
648.739	0.0132808
648.818	0.0133182
648.896	0.0133157
648.974	0.0133698
649.052	0.0132114
649.130	0.0132857
649.208	0.0133183
649.286	0.0133198
649.364	0.0132700
649.443	0.0132753
649.521	0.0132237
649.599	0.0132291
649.677	0.0133629
649.755	0.0134026
649.833	0.0134131
649.911	0.0132774
649.989	0.0133176
650.068	0.0133948
650.146	0.0132751
650.224	0.0134343
650.302	0.0136095
650.380	0.0134586
650.458	0.0134294
650.536	0.0134143
650.614	0.0135118
650.693	0.0134605
650.771	0.0134212
650.849	0.0134064
650.927	0.0135348
651.005	0.0135635
651.083	0.0134410
651.161	0.0134618
651.239	0.0135729
651.318	0.0134286
651.396	0.0136279
651.474	0.0135523
651.552	0.0136221
651.630	0.0134903
651.708	0.0136945
651.786	0.0135535
651.864	0.0134581
651.943	0.0135178
652.021	0.0134702
652.099	0.0134840
652.177	0.0136047
652.255	0.0135107
652.333	0.0134410
652.411	0.0134931
652.489	0.0135511
652.568	0.0135578
652.646	0.0134529
652.724	0.0135149
652.802	0.0135998
652.880	0.0133916
652.958	0.0133380
653.036	0.0136658
653.114	0.0136112
653.193	0.0134856
653.271	0.0136176
653.349	0.0136349
653.427	0.0135365
653.505	0.0136122
653.583	0.0136519
653.661	0.0134701
653.739	0.0134462
653.818	0.0135011
653.896	0.0136399
653.974	0.0134349
654.052	0.0134811
654.130	0.0135821
654.208	0.0134921
654.286	0.0136456
654.364	0.0135747
654.443	0.0135210
654.521	0.0135723
654.599	0.0134665
654.677	0.0133279
654.755	0.0134798
654.833	0.0134389
654.911	0.0136092
654.989	0.0135329
655.068	0.0135601
655.146	0.0135955
655.224	0.0135163
655.302	0.0136163
655.380	0.0136668
655.458	0.0135580
655.536	0.0133739
655.614	0.0134119
655.693	0.0135110
655.771	0.0135720
655.849	0.0135754
655.927	0.0135349
656.005	0.0136230
656.083	0.0136150
656.161	0.0135464
656.239	0.0135144
656.318	0.0134126
656.396	0.0134995
656.474	0.0135442
656.552	0.0133808
656.630	0.0135056
656.708	0.0135970
656.786	0.0134195
656.864	0.0134421
656.943	0.0134928
657.021	0.0136073
657.099	0.0134415
657.177	0.0134509
657.255	0.0135841
657.333	0.0137353
657.411	0.0134933
657.489	0.0134748
657.568	0.0135239
657.646	0.0135949
657.724	0.0134435
657.802	0.0134939
657.880	0.0134763
657.958	0.0135246
658.036	0.0136788
658.114	0.0135384
658.193	0.0136121
658.271	0.0136585
658.349	0.0136736
658.427	0.0135561
658.505	0.0136742
658.583	0.0136418
658.661	0.0135212
658.739	0.0135874
658.818	0.0136251
658.896	0.0137225
658.974	0.0136633
659.052	0.0137505
659.130	0.0136244
659.208	0.0136039
659.286	0.0136861
659.364	0.0135891
659.443	0.0135435
659.521	0.0135754
659.599	0.0136268
659.677	0.0135423
659.755	0.0134825
659.833	0.0134972
659.911	0.0134333
659.989	0.0135095
660.068	0.0134780
660.146	0.0135937
660.224	0.0135546
660.302	0.0134563
660.380	0.0134291
660.458	0.0135300
660.536	0.0134523
660.614	0.0134371
660.693	0.0135660
660.771	0.0135388
660.849	0.0135363
660.927	0.0135317
661.005	0.0134433
661.083	0.0136763
661.161	0.0135791
661.239	0.0135696
661.318	0.0136667
661.396	0.0135902
661.474	0.0135797
661.552	0.0135846
661.630	0.0136124
661.708	0.0137432
661.786	0.0135812
661.864	0.0135039
661.943	0.0135767
662.021	0.0134277
662.099	0.0134760
662.177	0.0135029
662.255	0.0135789
662.333	0.0135800
662.411	0.0134155
662.489	0.0134953
662.568	0.0133833
662.646	0.0133457
662.724	0.0133771
662.802	0.0134204
662.880	0.0133063
662.958	0.0133156
663.036	0.0133204
663.114	0.0133181
663.193	0.0133299
663.271	0.0131536
663.349	0.0132887
663.427	0.0132508
663.505	0.0133527
663.583	0.0133376
663.661	0.0132708
663.739	0.0134923
663.818	0.0135072
663.896	0.0135399
663.974	0.0136369
664.052	0.0134484
664.130	0.0135859
664.208	0.0136787
664.286	0.0136322
664.364	0.0136903
664.443	0.0138820
664.521	0.0138238
664.599	0.0138129
664.677	0.0137665
664.755	0.0138935
664.833	0.0139121
664.911	0.0138835
664.989	0.0138329
665.068	0.0137081
665.146	0.0137000
665.224	0.0138430
665.302	0.0136732
665.380	0.0134315
665.458	0.0135005
665.536	0.0135106
665.614	0.0132563
665.693	0.0133028
665.771	0.0131908
665.849	0.0129872
665.927	0.0131077
666.005	0.0130765
666.083	0.0128454
666.161	0.0128519
666.239	0.0128576
666.318	0.0128334
666.396	0.0129455
666.474	0.0128815
666.552	0.0129458
666.630	0.0130921
666.708	0.0131307
666.786	0.0130788
666.864	0.0131560
666.943	0.0132533
667.021	0.0135010
667.099	0.0134904
667.177	0.0136195
667.255	0.0138203
667.333	0.0138345
667.411	0.0138507
667.489	0.0141198
667.568	0.0141389
667.646	0.0142074
667.724	0.0142661
667.802	0.0140722
667.880	0.0141444
667.958	0.0140570
668.036	0.0140997
668.114	0.0139622
668.193	0.0138245
668.271	0.0138880
668.349	0.0137353
668.427	0.0135162
668.505	0.0133862
668.583	0.0132674
668.661	0.0129773
668.739	0.0130004
668.818	0.0128140
668.896	0.0127036
668.974	0.0127182
669.052	0.0126101
669.130	0.0126344
669.208	0.0125678
669.286	0.0125610
669.364	0.0126286
669.443	0.0125524
669.521	0.0127204
669.599	0.0126622
669.677	0.0127687
669.755	0.0128650
669.833	0.0128457
669.911	0.0129611
669.989	0.0130072
670.068	0.0132191
670.146	0.0134242
670.224	0.0135349
670.302	0.0134976
670.380	0.0136152
670.458	0.0137721
670.536	0.0138824
670.614	0.0139104
670.693	0.0140375
670.771	0.0141135
670.849	0.0141778
670.927	0.0141075
671.005	0.0142516
671.083	0.0142601
671.161	0.0141758
671.239	0.0141947
671.318	0.0141623
671.396	0.0142294
671.474	0.0140735
671.552	0.0140473
671.630	0.0138593
671.708	0.0137434
671.786	0.0135323
671.864	0.0135128
671.943	0.0134132
672.021	0.0133010
672.099	0.0132482
672.177	0.0130737
672.255	0.0128479
672.333	0.0128702
672.411	0.0127368
672.489	0.0128182
672.568	0.0126859
672.646	0.0125027
672.724	0.0123640
672.802	0.0122687
672.880	0.0123367
672.958	0.0124185
673.036	0.0124218
673.114	0.0124538
673.193	0.0124899
673.271	0.0127006
673.349	0.0127278
673.427	0.0128337
673.505	0.0128941
673.583	0.0130272
673.661	0.0132559
673.739	0.0134387
673.818	0.0136607
673.896	0.0139415
673.974	0.0140752
674.052	0.0141892
674.130	0.0144473
674.208	0.0144177
674.286	0.0145566
674.364	0.0146897
674.443	0.0147660
674.521	0.0149207
674.599	0.0148062
674.677	0.0147594
674.755	0.0146682
674.833	0.0146396
674.911	0.0145734
674.989	0.0143262
675.068	0.0141470
675.146	0.0140545
675.224	0.0138062
675.302	0.0136761
675.380	0.0134109
675.458	0.0132899
675.536	0.0131305
675.614	0.0128854
675.693	0.0126725
675.771	0.0125334
675.849	0.0123844
675.927	0.0121957
676.005	0.0120667
676.083	0.0122516
676.161	0.0120786
676.239	0.0119134
676.318	0.0120180
676.396	0.0119969
676.474	0.0119155
676.552	0.0121675
676.630	0.0124632
676.708	0.0123063
676.786	0.0124089
676.864	0.0129108
676.943	0.0130236
677.021	0.0130392
677.099	0.0132811
677.177	0.0134599
677.255	0.0135141
677.333	0.0136668
677.411	0.0136371
677.489	0.0139133
677.568	0.0138691
677.646	0.0139963
677.724	0.0141476
677.802	0.0142353
677.880	0.0142553
677.958	0.0141837
678.036	0.0141917
678.114	0.0142467
678.193	0.0143127
678.271	0.0142600
678.349	0.0141500
678.427	0.0141221
678.505	0.0140957
678.583	0.0141100
678.661	0.0139506
678.739	0.0138535
678.818	0.0138451
678.896	0.0139698
678.974	0.0138073
679.052	0.0137638
679.130	0.0137820
679.208	0.0137701
679.286	0.0136848
679.364	0.0136723
679.443	0.0135152
679.521	0.0134502
679.599	0.0134144
679.677	0.0133433
679.755	0.0133882
679.833	0.0133874
679.911	0.0132793
679.989	0.0131967
680.068	0.0132247
680.146	0.0130683
680.224	0.0130807
680.302	0.0132242
680.380	0.0130920
680.458	0.0129173
680.536	0.0131161
680.614	0.0131762
680.693	0.0130759
680.771	0.0129073
680.849	0.0128635
680.927	0.0128876
681.005	0.0128233
681.083	0.0127743
681.161	0.0128438
681.239	0.0128625
681.318	0.0128517
681.396	0.0128745
681.474	0.0129094
681.552	0.0129590
681.630	0.0129657
681.708	0.0130342
681.786	0.0130907
681.864	0.0132163
681.943	0.0132378
682.021	0.0132909
682.099	0.0134669
682.177	0.0135861
682.255	0.0135985
682.333	0.0136578
682.411	0.0136400
682.489	0.0136272
682.568	0.0137863
682.646	0.0138115
682.724	0.0137874
682.802	0.0137675
682.880	0.0137842
682.958	0.0138879
683.036	0.0139046
683.114	0.0138786
683.193	0.0137185
683.271	0.0139091
683.349	0.0139024
683.427	0.0140262
683.505	0.0140120
683.583	0.0141759
683.661	0.0141077
683.739	0.0139419
683.818	0.0140490
683.896	0.0140043
683.974	0.0140601
684.052	0.0140509
684.130	0.0140773
684.208	0.0140312
684.286	0.0139256
684.364	0.0139024
684.443	0.0138506
684.521	0.0138860
684.599	0.0138725
684.677	0.0139000
684.755	0.0136899
684.833	0.0136844
684.911	0.0135677
684.989	0.0133701
685.068	0.0133539
685.146	0.0133714
685.224	0.0131627
685.302	0.0131284
685.380	0.0129926
685.458	0.0127042
685.536	0.0126642
685.614	0.0126148
685.693	0.0123663
685.771	0.0121619
685.849	0.0122764
685.927	0.0121339
686.005	0.0120560
686.083	0.0120731
686.161	0.0121536
686.239	0.0119560
686.318	0.0121189
686.396	0.0120567
686.474	0.0121247
686.552	0.0121837
686.630	0.0124299
686.708	0.0125650
686.786	0.0127002
686.864	0.0128560
686.943	0.0130003
687.021	0.0130122
687.099	0.0132518
687.177	0.0134646
687.255	0.0135555
687.333	0.0136556
687.411	0.0138237
687.489	0.0139461
687.568	0.0141602
687.646	0.0142783
687.724	0.0143355
687.802	0.0144282
687.880	0.0144785
687.958	0.0144971
688.036	0.0145115
688.114	0.0146423
688.193	0.0146195
688.271	0.0146708
688.349	0.0144820
688.427	0.0145184
688.505	0.0144358
688.583	0.0143266
688.661	0.0143651
688.739	0.0143352
688.818	0.0141424
688.896	0.0141039
688.974	0.0141001
689.052	0.0141460
689.130	0.0140583
689.208	0.0138706
689.286	0.0138180
689.364	0.0136642
689.443	0.0137199
689.521	0.0136713
689.599	0.0136328
689.677	0.0135913
689.755	0.0135966
689.833	0.0135676
689.911	0.0133638
689.989	0.0133454
690.068	0.0132899
690.146	0.0131715
690.224	0.0130413
690.302	0.0129961
690.380	0.0128396
690.458	0.0127386
690.536	0.0125859
690.614	0.0126081
690.693	0.0124622
690.771	0.0121595
690.849	0.0122366
690.927	0.0120452
691.005	0.0121392
691.083	0.0120067
691.161	0.0117438
691.239	0.0117506
691.318	0.0118251
691.396	0.0117935
691.474	0.0118208
691.552	0.0118248
691.630	0.0118012
691.708	0.0119676
691.786	0.0119991
691.864	0.0121689
691.943	0.0122816
692.021	0.0122620
692.099	0.0124318
692.177	0.0127341
692.255	0.0128423
692.333	0.0131357
692.411	0.0130904
692.489	0.0134035
692.568	0.0134698
692.646	0.0137171
692.724	0.0140076
692.802	0.0139385
692.880	0.0141863
692.958	0.0143031
693.036	0.0143506
693.114	0.0145384
693.193	0.0145879
693.271	0.0147034
693.349	0.0148582
693.427	0.0149044
693.505	0.0150793
693.583	0.0151412
693.661	0.0152513
693.739	0.0150838
693.818	0.0152770
693.896	0.0152557
693.974	0.0153132
694.052	0.0153176
694.130	0.0151522
694.208	0.0150394
694.286	0.0151946
694.364	0.0150142
694.443	0.0149422
694.521	0.0147709
694.599	0.0147053
694.677	0.0145130
694.755	0.0145157
694.833	0.0143042
694.911	0.0141207
694.989	0.0139413
695.068	0.0137060
695.146	0.0134029
695.224	0.0132690
695.302	0.0130399
695.380	0.0126993
695.458	0.0126664
695.536	0.0123724
695.614	0.0119330
695.693	0.0116929
695.771	0.0115639
695.849	0.0111185
695.927	0.0111802
696.005	0.0109089
696.083	0.0107406
696.161	0.0107076
696.239	0.0106378
696.318	0.0106931
696.396	0.0107548
696.474	0.0107687
696.552	0.0106682
696.630	0.0109248
696.708	0.0110918
696.786	0.0112623
696.864	0.0114425
696.943	0.0117706
697.021	0.0120201
697.099	0.0123334
697.177	0.0124908
697.255	0.0128390
697.333	0.0130853
697.411	0.0133793
697.489	0.0137005
697.568	0.0139322
697.646	0.0140370
697.724	0.0142885
697.802	0.0146241
697.880	0.0146831
697.958	0.0147357
698.036	0.0146104
698.114	0.0148323
698.193	0.0149125
698.271	0.0148344
698.349	0.0148421
698.427	0.0147839
698.505	0.0146877
698.583	0.0145621
698.661	0.0145530
698.739	0.0146404
698.818	0.0146510
698.896	0.0145891
698.974	0.0147028
699.052	0.0144938
699.130	0.0144354
699.208	0.0143484
699.286	0.0144820
699.364	0.0144488
699.443	0.0145731
699.521	0.0145146
699.599	0.0144494
699.677	0.0145530
699.755	0.0145412
699.833	0.0145132
699.911	0.0147409
699.989	0.0146121
700.068	0.0145313
700.146	0.0144698
700.224	0.0143390
700.302	0.0142126
700.380	0.0141409
700.458	0.0140510
700.536	0.0139164
700.614	0.0136054
700.693	0.0133100
700.771	0.0132130
700.849	0.0129966
700.927	0.0129416
701.005	0.0126373
701.083	0.0123591
701.161	0.0121952
701.239	0.0120493
701.318	0.0118857
701.396	0.0117348
701.474	0.0114375
701.552	0.0110851
701.630	0.0110176
701.708	0.0108607
701.786	0.0107942
701.864	0.0108727
701.943	0.0108421
702.021	0.0108016
702.099	0.0108368
702.177	0.0109177
702.255	0.0110619
702.333	0.0111395
702.411	0.0114572
702.489	0.0116274
702.568	0.0117542
702.646	0.0120015
702.724	0.0122736
702.802	0.0125610
702.880	0.0128695
702.958	0.0128739
703.036	0.0130949
703.114	0.0135526
703.193	0.0136965
703.271	0.0139971
703.349	0.0141824
703.427	0.0142895
703.505	0.0145070
703.583	0.0145511
703.661	0.0147276
703.739	0.0149186
703.818	0.0150211
703.896	0.0151570
703.974	0.0152306
704.052	0.0152512
704.130	0.0153838
704.208	0.0153541
704.286	0.0152332
704.364	0.0154390
704.443	0.0152680
704.521	0.0152589
704.599	0.0150933
704.677	0.0150086
704.755	0.0150454
704.833	0.0150333
704.911	0.0148312
704.989	0.0148551
705.068	0.0146041
705.146	0.0146332
705.224	0.0145726
705.302	0.0145623
705.380	0.0144617
705.458	0.0143044
705.536	0.0141997
705.614	0.0143020
705.693	0.0139958
705.771	0.0139649
705.849	0.0140131
705.927	0.0137710
706.005	0.0136564
706.083	0.0135475
706.161	0.0134369
706.239	0.0133058
706.318	0.0130515
706.396	0.0129632
706.474	0.0128409
706.552	0.0128543
706.630	0.0125565
706.708	0.0123702
706.786	0.0122772
706.864	0.0121294
706.943	0.0120135
707.021	0.0118523
707.099	0.0118120
707.177	0.0115569
707.255	0.0115057
707.333	0.0113634
707.411	0.0112350
707.489	0.0112433
707.568	0.0111600
707.646	0.0112241
707.724	0.0112000
707.802	0.0112395
707.880	0.0113684
707.958	0.0113437
708.036	0.0113586
708.114	0.0116230
708.193	0.0116827
708.271	0.0117974
708.349	0.0118900
708.427	0.0120148
708.505	0.0122350
708.583	0.0124635
708.661	0.0126152
708.739	0.0128478
708.818	0.0131022
708.896	0.0133955
708.974	0.0135155
709.052	0.0136668
709.130	0.0138405
709.208	0.0140278
709.286	0.0144927
709.364	0.0146445
709.443	0.0146696
709.521	0.0149757
709.599	0.0149963
709.677	0.0151460
709.755	0.0151979
709.833	0.0152670
709.911	0.0155128
709.989	0.0153583
710.068	0.0154047
710.146	0.0155035
710.224	0.0155911
710.302	0.0155052
710.380	0.0154654
710.458	0.0155138
710.536	0.0152804
710.614	0.0153521
710.693	0.0152018
710.771	0.0151587
710.849	0.0150756
710.927	0.0150463
711.005	0.0147465
711.083	0.0147159
711.161	0.0146172
711.239	0.0144151
711.318	0.0141420
711.396	0.0141191
711.474	0.0140267
711.552	0.0138995
711.630	0.0136142
711.708	0.0135477
711.786	0.0135906
711.864	0.0133919
711.943	0.0131663
712.021	0.0132368
712.099	0.0130480
712.177	0.0128744
712.255	0.0128309
712.333	0.0127959
712.411	0.0126402
712.489	0.0125577
712.568	0.0124616
712.646	0.0122580
712.724	0.0123367
712.802	0.0121674
712.880	0.0120125
712.958	0.0120662
713.036	0.0119178
713.114	0.0118375
713.193	0.0118086
713.271	0.0115715
713.349	0.0116156
713.427	0.0116521
713.505	0.0114610
713.583	0.0114230
713.661	0.0113994
713.739	0.0114393
713.818	0.0113425
713.896	0.0113997
713.974	0.0114261
714.052	0.0114796
714.130	0.0116670
714.208	0.0117379
714.286	0.0116972
714.364	0.0118541
714.443	0.0119921
714.521	0.0121617
714.599	0.0124260
714.677	0.0125180
714.755	0.0127789
714.833	0.0130361
714.911	0.0131056
714.989	0.0134557
715.068	0.0137411
715.146	0.0140206
715.224	0.0143629
715.302	0.0144934
715.380	0.0146368
715.458	0.0149716
715.536	0.0152180
715.614	0.0152657
715.693	0.0155836
715.771	0.0155425
715.849	0.0156546
715.927	0.0158858
716.005	0.0158891
716.083	0.0159869
716.161	0.0159634
716.239	0.0159203
716.318	0.0158479
716.396	0.0158373
716.474	0.0158878
716.552	0.0156538
716.630	0.0157035
716.708	0.0154477
716.786	0.0152900
716.864	0.0154417
716.943	0.0151107
717.021	0.0148088
717.099	0.0147685
717.177	0.0146140
717.255	0.0144894
717.333	0.0140585
717.411	0.0140588
717.489	0.0136452
717.568	0.0134206
717.646	0.0132748
717.724	0.0129553
717.802	0.0126083
717.880	0.0124376
717.958	0.0122355
718.036	0.0121806
718.114	0.0119109
718.193	0.0117707
718.271	0.0116307
718.349	0.0113933
718.427	0.0113701
718.505	0.0112141
718.583	0.0111950
718.661	0.0110481
718.739	0.0108739
718.818	0.0109846
718.896	0.0109666
718.974	0.0109005
719.052	0.0108642
719.130	0.0107993
719.208	0.0108400
719.286	0.0110439
719.364	0.0110059
719.443	0.0111822
719.521	0.0113723
719.599	0.0116113
719.677	0.0116746
719.755	0.0119275
719.833	0.0120602
719.911	0.0123392
719.989	0.0126086
720.068	0.0128012
720.146	0.0131525
720.224	0.0133256
720.302	0.0135161
720.380	0.0137278
720.458	0.0139951
720.536	0.0141269
720.614	0.0143549
720.693	0.0145704
720.771	0.0146838
720.849	0.0150108
720.927	0.0150163
721.005	0.0151680
721.083	0.0152530
721.161	0.0153172
721.239	0.0154036
721.318	0.0153999
721.396	0.0154007
721.474	0.0153645
721.552	0.0153187
721.630	0.0153171
721.708	0.0153023
721.786	0.0151583
721.864	0.0151228
721.943	0.0150023
722.021	0.0148371
722.099	0.0146700
722.177	0.0145344
722.255	0.0144272
722.333	0.0141639
722.411	0.0140543
722.489	0.0138663
722.568	0.0136826
722.646	0.0136104
722.724	0.0135707
722.802	0.0134133
722.880	0.0133305
722.958	0.0132085
723.036	0.0132236
723.114	0.0133307
723.193	0.0133872
723.271	0.0131112
723.349	0.0131037
723.427	0.0130375
723.505	0.0130851
723.583	0.0132982
723.661	0.0132689
723.739	0.0131321
723.818	0.0130597
723.896	0.0130775
723.974	0.0130195
724.052	0.0129356
724.130	0.0129195
724.208	0.0129836
724.286	0.0130383
724.364	0.0128239
724.443	0.0128045
724.521	0.0127848
724.599	0.0127401
724.677	0.0125860
724.755	0.0127528
724.833	0.0124091
724.911	0.0125591
724.989	0.0124826
725.068	0.0125021
725.146	0.0125481
725.224	0.0126070
725.302	0.0125510
725.380	0.0124720
725.458	0.0124156
725.536	0.0126710
725.614	0.0126957
725.693	0.0126755
725.771	0.0128659
725.849	0.0129384
725.927	0.0128948
726.005	0.0129457
726.083	0.0129861
726.161	0.0132001
726.239	0.0132265
726.318	0.0133846
726.396	0.0133221
726.474	0.0136085
726.552	0.0135716
726.630	0.0136272
726.708	0.0136424
726.786	0.0138378
726.864	0.0138148
726.943	0.0137886
727.021	0.0138981
727.099	0.0139986
727.177	0.0139656
727.255	0.0140400
727.333	0.0139939
727.411	0.0138950
727.489	0.0142078
727.568	0.0140664
727.646	0.0141154
727.724	0.0139924
727.802	0.0142158
727.880	0.0141969
727.958	0.0139835
728.036	0.0140708
728.114	0.0140602
728.193	0.0140199
728.271	0.0141405
728.349	0.0140134
728.427	0.0140057
728.505	0.0141532
728.583	0.0140495
728.661	0.0140168
728.739	0.0138604
728.818	0.0138192
728.896	0.0138694
728.974	0.0138321
729.052	0.0138489
729.130	0.0137746
729.208	0.0137192
729.286	0.0136541
729.364	0.0136885
729.443	0.0135261
729.521	0.0134782
729.599	0.0131830
729.677	0.0131253
729.755	0.0132242
729.833	0.0130239
729.911	0.0130280
729.989	0.0128763
730.068	0.0128934
730.146	0.0128402
730.224	0.0126663
730.302	0.0128149
730.380	0.0128223
730.458	0.0127967
730.536	0.0128513
730.614	0.0128397
730.693	0.0129514
730.771	0.0130492
730.849	0.0130305
730.927	0.0130346
731.005	0.0130524
731.083	0.0132813
731.161	0.0132336
731.239	0.0133885
731.318	0.0132972
731.396	0.0132928
731.474	0.0133723
731.552	0.0134961
731.630	0.0136003
731.708	0.0135535
731.786	0.0135279
731.864	0.0135959
731.943	0.0136325
732.021	0.0136098
732.099	0.0135723
732.177	0.0136494
732.255	0.0136980
732.333	0.0134943
732.411	0.0135448
732.489	0.0135212
732.568	0.0136424
732.646	0.0135497
732.724	0.0133498
732.802	0.0134718
732.880	0.0133717
732.958	0.0131698
733.036	0.0132059
733.114	0.0132600
733.193	0.0130865
733.271	0.0130849
733.349	0.0130906
733.427	0.0130325
733.505	0.0130892
733.583	0.0130408
733.661	0.0130565
733.739	0.0133349
733.818	0.0133701
733.896	0.0132557
733.974	0.0133247
734.052	0.0134251
734.130	0.0134126
734.208	0.0136189
734.286	0.0136084
734.364	0.0135380
734.443	0.0136909
734.521	0.0137568
734.599	0.0138129
734.677	0.0137327
734.755	0.0138733
734.833	0.0138936
734.911	0.0139756
734.989	0.0138940
735.068	0.0139890
735.146	0.0140502
735.224	0.0139377
735.302	0.0139262
735.380	0.0140254
735.458	0.0141326
735.536	0.0140046
735.614	0.0141453
735.693	0.0139768
735.771	0.0139998
735.849	0.0139811
735.927	0.0139994
736.005	0.0138786
736.083	0.0138645
736.161	0.0140166
736.239	0.0139536
736.318	0.0137592
736.396	0.0139439
736.474	0.0138388
736.552	0.0138013
736.630	0.0137675
736.708	0.0138810
736.786	0.0138113
736.864	0.0138792
736.943	0.0136243
737.021	0.0138795
737.099	0.0136716
737.177	0.0136216
737.255	0.0136791
737.333	0.0135394
737.411	0.0135011
737.489	0.0133969
737.568	0.0135241
737.646	0.0133842
737.724	0.0133236
737.802	0.0133118
737.880	0.0132832
737.958	0.0131477
738.036	0.0130212
738.114	0.0128795
738.193	0.0129659
738.271	0.0127678
738.349	0.0127547
738.427	0.0123873
738.505	0.0124403
738.583	0.0124535
738.661	0.0124119
738.739	0.0122829
738.818	0.0122083
738.896	0.0121837
738.974	0.0122095
739.052	0.0122351
739.130	0.0121793
739.208	0.0122438
739.286	0.0123410
739.364	0.0123317
739.443	0.0124838
739.521	0.0125886
739.599	0.0126404
739.677	0.0127560
739.755	0.0130206
739.833	0.0131097
739.911	0.0131786
739.989	0.0133503
740.068	0.0134418
740.146	0.0137599
740.224	0.0137556
740.302	0.0139185
740.380	0.0140471
740.458	0.0141097
740.536	0.0143208
740.614	0.0143312
740.693	0.0142722
740.771	0.0144373
740.849	0.0145918
740.927	0.0145928
741.005	0.0144672
741.083	0.0145673
741.161	0.0145811
741.239	0.0146469
741.318	0.0145980
741.396	0.0145401
741.474	0.0144382
741.552	0.0145277
741.630	0.0143279
741.708	0.0143748
741.786	0.0143437
741.864	0.0142614
741.943	0.0142479
742.021	0.0141286
742.099	0.0142779
742.177	0.0142778
742.255	0.0141106
742.333	0.0139822
742.411	0.0139998
742.489	0.0137637
742.568	0.0136465
742.646	0.0136859
742.724	0.0137387
742.802	0.0136502
742.880	0.0134349
742.958	0.0134815
743.036	0.0132825
743.114	0.0130586
743.193	0.0130061
743.271	0.0127711
743.349	0.0128077
743.427	0.0127848
743.505	0.0125376
743.583	0.0124899
743.661	0.0123283
743.739	0.0122887
743.818	0.0120809
743.896	0.0122799
743.974	0.0123029
744.052	0.0121061
744.130	0.0120274
744.208	0.0122024
744.286	0.0124184
744.364	0.0123971
744.443	0.0123628
744.521	0.0124590
744.599	0.0125999
744.677	0.0127111
744.755	0.0126657
744.833	0.0126598
744.911	0.0130447
744.989	0.0130332
745.068	0.0131026
745.146	0.0132304
745.224	0.0133221
745.302	0.0134148
745.380	0.0135450
745.458	0.0136776
745.536	0.0134466
745.614	0.0137636
745.693	0.0139308
745.771	0.0139693
745.849	0.0139726
745.927	0.0139581
746.005	0.0141069
746.083	0.0141267
746.161	0.0142724
746.239	0.0142623
746.318	0.0144029
746.396	0.0143368
746.474	0.0145995
746.552	0.0144743
746.630	0.0145454
746.708	0.0144901
746.786	0.0144050
746.864	0.0144791
746.943	0.0145290
747.021	0.0144930
747.099	0.0144427
747.177	0.0143961
747.255	0.0143330
747.333	0.0142439
747.411	0.0140518
747.489	0.0139690
747.568	0.0140615
747.646	0.0139883
747.724	0.0139134
747.802	0.0139451
747.880	0.0137171
747.958	0.0134992
748.036	0.0134637
748.114	0.0134598
748.193	0.0134293
748.271	0.0132407
748.349	0.0132101
748.427	0.0130553
748.505	0.0131840
748.583	0.0130103
748.661	0.0129554
748.739	0.0129088
748.818	0.0126665
748.896	0.0128053
748.974	0.0126960
749.052	0.0127135
749.130	0.0126518
749.208	0.0126163
749.286	0.0126865
749.364	0.0125414
749.443	0.0126561
749.521	0.0127937
749.599	0.0126725
749.677	0.0127383
749.755	0.0125095
749.833	0.0126248
749.911	0.0128433
749.989	0.0129054
750.068	0.0129350
750.146	0.0129520
750.224	0.0128474
750.302	0.0129991
750.380	0.0129869
750.458	0.0132702
750.536	0.0132728
750.614	0.0132118
750.693	0.0131811
750.771	0.0134923
750.849	0.0134029
750.927	0.0134116
751.005	0.0136246
751.083	0.0135460
751.161	0.0136066
751.239	0.0136244
751.318	0.0136103
751.396	0.0138423
751.474	0.0137586
751.552	0.0137730
751.630	0.0138399
751.708	0.0139041
751.786	0.0138998
751.864	0.0139287
751.943	0.0140104
752.021	0.0139950
752.099	0.0141189
752.177	0.0139614
752.255	0.0139882
752.333	0.0139580
752.411	0.0139274
752.489	0.0138913
752.568	0.0138029
752.646	0.0139001
752.724	0.0138571
752.802	0.0137302
752.880	0.0137750
752.958	0.0136199
753.036	0.0135869
753.114	0.0136040
753.193	0.0136713
753.271	0.0135326
753.349	0.0135342
753.427	0.0135443
753.505	0.0136258
753.583	0.0135293
753.661	0.0134504
753.739	0.0135928
753.818	0.0135217
753.896	0.0135329
753.974	0.0134221
754.052	0.0132771
754.130	0.0134863
754.208	0.0135715
754.286	0.0134167
754.364	0.0135346
754.443	0.0135998
754.521	0.0134277
754.599	0.0135069
754.677	0.0132407
754.755	0.0135011
754.833	0.0135648
754.911	0.0135090
754.989	0.0135011
755.068	0.0136100
755.146	0.0135511
755.224	0.0136845
755.302	0.0136983
755.380	0.0135240
755.458	0.0135519
755.536	0.0136646
755.614	0.0135799
755.693	0.0135781
755.771	0.0134579
755.849	0.0134528
755.927	0.0135622
756.005	0.0134706
756.083	0.0135557
756.161	0.0134911
756.239	0.0133608
756.318	0.0132083
756.396	0.0130529
756.474	0.0132838
756.552	0.0132626
756.630	0.0134888
756.708	0.0132982
756.786	0.0131709
756.864	0.0133117
756.943	0.0133591
757.021	0.0132527
757.099	0.0132560
757.177	0.0132650
757.255	0.0133952
757.333	0.0134196
757.411	0.0133625
757.489	0.0135398
757.568	0.0133675
757.646	0.0133837
757.724	0.0134927
757.802	0.0134985
757.880	0.0135463
757.958	0.0135120
758.036	0.0137529
758.114	0.0136826
758.193	0.0137696
758.271	0.0136089
758.349	0.0136903
758.427	0.0136153
758.505	0.0137748
758.583	0.0135638
758.661	0.0136080
758.739	0.0137438
758.818	0.0137699
758.896	0.0136808
758.974	0.0136153
759.052	0.0136383
759.130	0.0138125
759.208	0.0137276
759.286	0.0136309
759.364	0.0136517
759.443	0.0137483
759.521	0.0135990
759.599	0.0135729
759.677	0.0135275
759.755	0.0135879
759.833	0.0135888
759.911	0.0134839
759.989	0.0133912
760.068	0.0133765
760.146	0.0134473
760.224	0.0132420
760.302	0.0133075
760.380	0.0132990
760.458	0.0131538
760.536	0.0133080
760.614	0.0131643
760.693	0.0130523
760.771	0.0131512
760.849	0.0131178
760.927	0.0131021
761.005	0.0129333
761.083	0.0129601
761.161	0.0131216
761.239	0.0129510
761.318	0.0128565
761.396	0.0128776
761.474	0.0128862
761.552	0.0129742
761.630	0.0129518
761.708	0.0129623
761.786	0.0130869
761.864	0.0129808
761.943	0.0129497
762.021	0.0129723
762.099	0.0129198
762.177	0.0129478
762.255	0.0130853
762.333	0.0132097
762.411	0.0131850
762.489	0.0131039
762.568	0.0131720
762.646	0.0132175
762.724	0.0133054
762.802	0.0133522
762.880	0.0134022
762.958	0.0133851
763.036	0.0133652
763.114	0.0135973
763.193	0.0137720
763.271	0.0136954
763.349	0.0136246
763.427	0.0138682
763.505	0.0138422
763.583	0.0139485
763.661	0.0139542
763.739	0.0138923
763.818	0.0140207
763.896	0.0139760
763.974	0.0140369
764.052	0.0140355
764.130	0.0139009
764.208	0.0140234
764.286	0.0140920
764.364	0.0140876
764.443	0.0138556
764.521	0.0139108
764.599	0.0138551
764.677	0.0137224
764.755	0.0136559
764.833	0.0136571
764.911	0.0137166
764.989	0.0137079
765.068	0.0136960
765.146	0.0133607
765.224	0.0133730
765.302	0.0133149
765.380	0.0131567
765.458	0.0132173
765.536	0.0132661
765.614	0.0131988
765.693	0.0131490
765.771	0.0132157
765.849	0.0128853
765.927	0.0129800
766.005	0.0130893
766.083	0.0130135
766.161	0.0130547
766.239	0.0131525
766.318	0.0130254
766.396	0.0131421
766.474	0.0131319
766.552	0.0131978
766.630	0.0132265
766.708	0.0132310
766.786	0.0133405
766.864	0.0133325
766.943	0.0133594
767.021	0.0133704
767.099	0.0134317
767.177	0.0134155
767.255	0.0135048
767.333	0.0134967
767.411	0.0133734
767.489	0.0134906
767.568	0.0136322
767.646	0.0137123
767.724	0.0136365
767.802	0.0136712
767.880	0.0134997
767.958	0.0136360
768.036	0.0136684
768.114	0.0135916
768.193	0.0136713
768.271	0.0137131
768.349	0.0136525
768.427	0.0138164
768.505	0.0136746
768.583	0.0136550
768.661	0.0138097
768.739	0.0136992
768.818	0.0136369
768.896	0.0135923
768.974	0.0135481
769.052	0.0134894
769.130	0.0135336
769.208	0.0134995
769.286	0.0133504
769.364	0.0133930
769.443	0.0133752
769.521	0.0132133
769.599	0.0132549
769.677	0.0131660
769.755	0.0132391
769.833	0.0132573
769.911	0.0130051
769.989	0.0131296
770.068	0.0131956
770.146	0.0130296
770.224	0.0130177
770.302	0.0132166
770.380	0.0134061
770.458	0.0130566
770.536	0.0132497
770.614	0.0133212
770.693	0.0133539
770.771	0.0133424
770.849	0.0133706
770.927	0.0134203
771.005	0.0135152
771.083	0.0134112
771.161	0.0133945
771.239	0.0136633
771.318	0.0136452
771.396	0.0135757
771.474	0.0136347
771.552	0.0135523
771.630	0.0135992
771.708	0.0137073
771.786	0.0136961
771.864	0.0137195
771.943	0.0136343
772.021	0.0135947
772.099	0.0136095
772.177	0.0137199
772.255	0.0137878
772.333	0.0138272
772.411	0.0137501
772.489	0.0137759
772.568	0.0136864
772.646	0.0137154
772.724	0.0138003
772.802	0.0136987
772.880	0.0135850
772.958	0.0136006
773.036	0.0135060
773.114	0.0135693
773.193	0.0134173
773.271	0.0134058
773.349	0.0133833
773.427	0.0132176
773.505	0.0132166
773.583	0.0133289
773.661	0.0131871
773.739	0.0131733
773.818	0.0131982
773.896	0.0131345
773.974	0.0132591
774.052	0.0131738
774.130	0.0131349
774.208	0.0130470
774.286	0.0130457
774.364	0.0131282
774.443	0.0131454
774.521	0.0131652
774.599	0.0131817
774.677	0.0131529
774.755	0.0131300
774.833	0.0131962
774.911	0.0133425
774.989	0.0134583
775.068	0.0132670
775.146	0.0132880
775.224	0.0133598
775.302	0.0133762
775.380	0.0135265
775.458	0.0134890
775.536	0.0133689
775.614	0.0133884
775.693	0.0134383
775.771	0.0134318
775.849	0.0134277
775.927	0.0134291
776.005	0.0135249
776.083	0.0135766
776.161	0.0135629
776.239	0.0135880
776.318	0.0136871
776.396	0.0136710
776.474	0.0135561
776.552	0.0135139
776.630	0.0135527
776.708	0.0135649
776.786	0.0137414
776.864	0.0136801
776.943	0.0138000
777.021	0.0135527
777.099	0.0136169
777.177	0.0137290
777.255	0.0136636
777.333	0.0134679
777.411	0.0136439
777.489	0.0135988
777.568	0.0134764
777.646	0.0133777
777.724	0.0134800
777.802	0.0134370
777.880	0.0133165
777.958	0.0131280
778.036	0.0131822
778.114	0.0131998
778.193	0.0131890
778.271	0.0131085
778.349	0.0130536
778.427	0.0128851
778.505	0.0129080
778.583	0.0128380
778.661	0.0129803
778.739	0.0128636
778.818	0.0129387
778.896	0.0128397
778.974	0.0128529
779.052	0.0129734
779.130	0.0128690
779.208	0.0129719
779.286	0.0129835
779.364	0.0129725
779.443	0.0130793
779.521	0.0132756
779.599	0.0132624
779.677	0.0132676
779.755	0.0133724
779.833	0.0132860
779.911	0.0134522
779.989	0.0134953
780.068	0.0134431
780.146	0.0134612
780.224	0.0135677
780.302	0.0135709
780.380	0.0135890
780.458	0.0136145
780.536	0.0136459
780.614	0.0136707
780.693	0.0137035
780.771	0.0136434
780.849	0.0136211
780.927	0.0135968
781.005	0.0135765
781.083	0.0136340
781.161	0.0136570
781.239	0.0135085
781.318	0.0134090
781.396	0.0135976
781.474	0.0136192
781.552	0.0133240
781.630	0.0133532
781.708	0.0133090
781.786	0.0133023
781.864	0.0132044
781.943	0.0131319
782.021	0.0131077
782.099	0.0129859
782.177	0.0129582
782.255	0.0128607
782.333	0.0129527
782.411	0.0128623
782.489	0.0130256
782.568	0.0128619
782.646	0.0129136
782.724	0.0129530
782.802	0.0129565
782.880	0.0129188
782.958	0.0131534
783.036	0.0129377
783.114	0.0130502
783.193	0.0130260
783.271	0.0130530
783.349	0.0131282
783.427	0.0132373
783.505	0.0130904
783.583	0.0132716
783.661	0.0132167
783.739	0.0133270
783.818	0.0133409
783.896	0.0133218
783.974	0.0133079
784.052	0.0132719
784.130	0.0134380
784.208	0.0134927
784.286	0.0135161
784.364	0.0135755
784.443	0.0134731
784.521	0.0135597
784.599	0.0133751
784.677	0.0134256
784.755	0.0136170
784.833	0.0136122
784.911	0.0135514
784.989	0.0136047
785.068	0.0136735
785.146	0.0134973
785.224	0.0135965
785.302	0.0136365
785.380	0.0136791
785.458	0.0136449
785.536	0.0136938
785.614	0.0138139
785.693	0.0136383
785.771	0.0136427
785.849	0.0136393
785.927	0.0137833
786.005	0.0136729
786.083	0.0135199
786.161	0.0135356
786.239	0.0134054
786.318	0.0134372
786.396	0.0132761
786.474	0.0133268
786.552	0.0132248
786.630	0.0132807
786.708	0.0131222
786.786	0.0131561
786.864	0.0131944
786.943	0.0130701
787.021	0.0128072
787.099	0.0131859
787.177	0.0130183
787.255	0.0128019
787.333	0.0129910
787.411	0.0130571
787.489	0.0129639
787.568	0.0128799
787.646	0.0130180
787.724	0.0129139
787.802	0.0130215
787.880	0.0131352
787.958	0.0130211
788.036	0.0130307
788.114	0.0130811
788.193	0.0131445
788.271	0.0131474
788.349	0.0132860
788.427	0.0133601
788.505	0.0132969
788.583	0.0132947
788.661	0.0134018
788.739	0.0135305
788.818	0.0135208
788.896	0.0136173
788.974	0.0136457
789.052	0.0137629
789.130	0.0138217
789.208	0.0138470
789.286	0.0138762
789.364	0.0138005
789.443	0.0137202
789.521	0.0138283
789.599	0.0139227
789.677	0.0140475
789.755	0.0140030
789.833	0.0139494
789.911	0.0139928
789.989	0.0140487
790.068	0.0138866
790.146	0.0139373
790.224	0.0139669
790.302	0.0138721
790.380	0.0138506
790.458	0.0141050
790.536	0.0140192
790.614	0.0139176
790.693	0.0138722
790.771	0.0137885
790.849	0.0138830
790.927	0.0138940
791.005	0.0137086
791.083	0.0136308
791.161	0.0137138
791.239	0.0136572
791.318	0.0133813
791.396	0.0135316
791.474	0.0134372
791.552	0.0133157
791.630	0.0132536
791.708	0.0131600
791.786	0.0130980
791.864	0.0131255
791.943	0.0130916
792.021	0.0129645
792.099	0.0129121
792.177	0.0129611
792.255	0.0128360
792.333	0.0129629
792.411	0.0129292
792.489	0.0128777
792.568	0.0129054
792.646	0.0127598
792.724	0.0127285
792.802	0.0127730
792.880	0.0127271
792.958	0.0127900
793.036	0.0128149
793.114	0.0129153
793.193	0.0128446
793.271	0.0127913
793.349	0.0128970
793.427	0.0128413
793.505	0.0130253
793.583	0.0130283
793.661	0.0130184
793.739	0.0130669
793.818	0.0131368
793.896	0.0131026
793.974	0.0132455
794.052	0.0133246
794.130	0.0132848
794.208	0.0134460
794.286	0.0135683
794.364	0.0134911
794.443	0.0136512
794.521	0.0136385
794.599	0.0137464
794.677	0.0135856
794.755	0.0137814
794.833	0.0140195
794.911	0.0137463
794.989	0.0135831
795.068	0.0138895
795.146	0.0137992
795.224	0.0136267
795.302	0.0138271
795.380	0.0137605
795.458	0.0137732
795.536	0.0136398
795.614	0.0136573
795.693	0.0137023
795.771	0.0137380
795.849	0.0136742
795.927	0.0137692
796.005	0.0136613
796.083	0.0136985
796.161	0.0136706
796.239	0.0136307
796.318	0.0135256
796.396	0.0135487
796.474	0.0134996
796.552	0.0133688
796.630	0.0133727
796.708	0.0133074
796.786	0.0134022
796.864	0.0132588
796.943	0.0134757
797.021	0.0133112
797.099	0.0131621
797.177	0.0132135
797.255	0.0131538
797.333	0.0132277
797.411	0.0131398
797.489	0.0131683
797.568	0.0130900
797.646	0.0130267
797.724	0.0130798
797.802	0.0130454
797.880	0.0131641
797.958	0.0131033
798.036	0.0130137
798.114	0.0129582
798.193	0.0129538
798.271	0.0129175
798.349	0.0130426
798.427	0.0130634
798.505	0.0129486
798.583	0.0130333
798.661	0.0129539
798.739	0.0129538
798.818	0.0128240
798.896	0.0129166
798.974	0.0128534
799.052	0.0131048
799.130	0.0130254
799.208	0.0130038
799.286	0.0131667
799.364	0.0130962
799.443	0.0132249
799.521	0.0131562
799.599	0.0132598
799.677	0.0133041
799.755	0.0132127
799.833	0.0132812
799.911	0.0134945
799.989	0.0135141
800.068	0.0134726
800.146	0.0136011
800.224	0.0136678
800.302	0.0137342
800.380	0.0136769
800.458	0.0137260
800.536	0.0138725
800.614	0.0137243
800.693	0.0138701
800.771	0.0139095
800.849	0.0138039
800.927	0.0137465
801.005	0.0138545
801.083	0.0138406
801.161	0.0137694
801.239	0.0137320
801.318	0.0136654
801.396	0.0137201
801.474	0.0136472
801.552	0.0135995
801.630	0.0136158
801.708	0.0136723
801.786	0.0137769
801.864	0.0136411
801.943	0.0136209
802.021	0.0135119
802.099	0.0135192
802.177	0.0136175
802.255	0.0133729
802.333	0.0133118
802.411	0.0132888
802.489	0.0134644
802.568	0.0132729
802.646	0.0133021
802.724	0.0133475
802.802	0.0131938
802.880	0.0131656
802.958	0.0133561
803.036	0.0132243
803.114	0.0131582
803.193	0.0132288
803.271	0.0131673
803.349	0.0131710
803.427	0.0131773
803.505	0.0129545
803.583	0.0129069
803.661	0.0131173
803.739	0.0131442
803.818	0.0130223
803.896	0.0129372
803.974	0.0129292
804.052	0.0130235
804.130	0.0131138
804.208	0.0129376
804.286	0.0130896
804.364	0.0130028
804.443	0.0129079
804.521	0.0129890
804.599	0.0129155
804.677	0.0130498
804.755	0.0130311
804.833	0.0130125
804.911	0.0131263
804.989	0.0130370
805.068	0.0131417
805.146	0.0131936
805.224	0.0132227
805.302	0.0133054
805.380	0.0133863
805.458	0.0135054
805.536	0.0135313
805.614	0.0135958
805.693	0.0135654
805.771	0.0136871
805.849	0.0137133
805.927	0.0139663
806.005	0.0139001
806.083	0.0139697
806.161	0.0139971
806.239	0.0139512
806.318	0.0141422
806.396	0.0140103
806.474	0.0139492
806.552	0.0139541
806.630	0.0140090
806.708	0.0140606
806.786	0.0140768
806.864	0.0140199
806.943	0.0140504
807.021	0.0138914
807.099	0.0139203
807.177	0.0137448
807.255	0.0137276
807.333	0.0137084
807.411	0.0137885
807.489	0.0136288
807.568	0.0135297
807.646	0.0135950
807.724	0.0134971
807.802	0.0135098
807.880	0.0133252
807.958	0.0134257
808.036	0.0132242
808.114	0.0131853
808.193	0.0134146
808.271	0.0133282
808.349	0.0130906
808.427	0.0132290
808.505	0.0132093
808.583	0.0130457
808.661	0.0129822
808.739	0.0130997
808.818	0.0130438
808.896	0.0129198
808.974	0.0128882
809.052	0.0129755
809.130	0.0129335
809.208	0.0130740
809.286	0.0130854
809.364	0.0129263
809.443	0.0129691
809.521	0.0128471
809.599	0.0129411
809.677	0.0128673
809.755	0.0127767
809.833	0.0127043
809.911	0.0127660
809.989	0.0125446
810.068	0.0126711
810.146	0.0127495
810.224	0.0127130
810.302	0.0127596
810.380	0.0128347
810.458	0.0127121
810.536	0.0128370
810.614	0.0129621
810.693	0.0129361
810.771	0.0130114
810.849	0.0130671
810.927	0.0131860
811.005	0.0132681
811.083	0.0133481
811.161	0.0135199
811.239	0.0136230
811.318	0.0136446
811.396	0.0138140
811.474	0.0140342
811.552	0.0139273
811.630	0.0139822
811.708	0.0142208
811.786	0.0141637
811.864	0.0142824
811.943	0.0140939
812.021	0.0139996
812.099	0.0140730
812.177	0.0140192
812.255	0.0140730
812.333	0.0142178
812.411	0.0139898
812.489	0.0139086
812.568	0.0139468
812.646	0.0138976
812.724	0.0140331
812.802	0.0139449
812.880	0.0138959
812.958	0.0137893
813.036	0.0138453
813.114	0.0137026
813.193	0.0137415
813.271	0.0138320
813.349	0.0136447
813.427	0.0137356
813.505	0.0137041
813.583	0.0135992
813.661	0.0134850
813.739	0.0134157
813.818	0.0135036
813.896	0.0133401
813.974	0.0132967
814.052	0.0134186
814.130	0.0132745
814.208	0.0132426
814.286	0.0132333
814.364	0.0131979
814.443	0.0131968
814.521	0.0130431
814.599	0.0131119
814.677	0.0129845
814.755	0.0128859
814.833	0.0128706
814.911	0.0129001
814.989	0.0129653
815.068	0.0129198
815.146	0.0129037
815.224	0.0128571
815.302	0.0131024
815.380	0.0131082
815.458	0.0130907
815.536	0.0130039
815.614	0.0130687
815.693	0.0132311
815.771	0.0134926
815.849	0.0132589
815.927	0.0132757
816.005	0.0134402
816.083	0.0134219
816.161	0.0135678
816.239	0.0134083
816.318	0.0135536
816.396	0.0135196
816.474	0.0134447
816.552	0.0133488
816.630	0.0135458
816.708	0.0133837
816.786	0.0135503
816.864	0.0136124
816.943	0.0133794
817.021	0.0135275
817.099	0.0136567
817.177	0.0135127
817.255	0.0135131
817.333	0.0135725
817.411	0.0135810
817.489	0.0136404
817.568	0.0135735
817.646	0.0136559
817.724	0.0135410
817.802	0.0135471
817.880	0.0137148
817.958	0.0135931
818.036	0.0135886
818.114	0.0136203
818.193	0.0136237
818.271	0.0137932
818.349	0.0135289
818.427	0.0135854
818.505	0.0135790
818.583	0.0135869
818.661	0.0136595
818.739	0.0135848
818.818	0.0137331
818.896	0.0136137
818.974	0.0136261
819.052	0.0135339
819.130	0.0135036
819.208	0.0136755
819.286	0.0136062
819.364	0.0134685
819.443	0.0134585
819.521	0.0135658
819.599	0.0135056
819.677	0.0133932
819.755	0.0133653
819.833	0.0131873
819.911	0.0131834
819.989	0.0131768
820.068	0.0128681
820.146	0.0130477
820.224	0.0131302
820.302	0.0130284
820.380	0.0130183
820.458	0.0131185
820.536	0.0130027
820.614	0.0130717
820.693	0.0130244
820.771	0.0130166
820.849	0.0132198
820.927	0.0131219
821.005	0.0133057
821.083	0.0132137
821.161	0.0132962
821.239	0.0134309
821.318	0.0134678
821.396	0.0133988
821.474	0.0136648
821.552	0.0136458
821.630	0.0137429
821.708	0.0136589
821.786	0.0137911
821.864	0.0138774
821.943	0.0138245
822.021	0.0137926
822.099	0.0137804
822.177	0.0137486
822.255	0.0136722
822.333	0.0136914
822.411	0.0136642
822.489	0.0134780
822.568	0.0134170
822.646	0.0134087
822.724	0.0132848
822.802	0.0131609
822.880	0.0129775
822.958	0.0129112
823.036	0.0129135
823.114	0.0129403
823.193	0.0128372
823.271	0.0128077
823.349	0.0127156
823.427	0.0126968
823.505	0.0128702
823.583	0.0127406
823.661	0.0129807
823.739	0.0129342
823.818	0.0130538
823.896	0.0130456
823.974	0.0131701
824.052	0.0131163
824.130	0.0133058
824.208	0.0134700
824.286	0.0136703
824.364	0.0135044
824.443	0.0136590
824.521	0.0139431
824.599	0.0140224
824.677	0.0140016
824.755	0.0140417
824.833	0.0141203
824.911	0.0142793
824.989	0.0140324
825.068	0.0141293
825.146	0.0140820
825.224	0.0139662
825.302	0.0141648
825.380	0.0140624
825.458	0.0138722
825.536	0.0137983
825.614	0.0137478
825.693	0.0136590
825.771	0.0135541
825.849	0.0135326
825.927	0.0134936
826.005	0.0133590
826.083	0.0132565
826.161	0.0133860
826.239	0.0133997
826.318	0.0132345
826.396	0.0131479
826.474	0.0131127
826.552	0.0132380
826.630	0.0132331
826.708	0.0131913
826.786	0.0133432
826.864	0.0133230
826.943	0.0132400
827.021	0.0133891
827.099	0.0134171
827.177	0.0135426
827.255	0.0136117
827.333	0.0135703
827.411	0.0136206
827.489	0.0137290
827.568	0.0137204
827.646	0.0136652
827.724	0.0139070
827.802	0.0138390
827.880	0.0138646
827.958	0.0139082
828.036	0.0138437
828.114	0.0138190
828.193	0.0139120
828.271	0.0138161
828.349	0.0136189
828.427	0.0136269
828.505	0.0135374
828.583	0.0135209
828.661	0.0136159
828.739	0.0135342
828.818	0.0135170
828.896	0.0134699
828.974	0.0134224
829.052	0.0134472
829.130	0.0133618
829.208	0.0132958
829.286	0.0134368
829.364	0.0134450
829.443	0.0134445
829.521	0.0135125
829.599	0.0134555
829.677	0.0134931
829.755	0.0135490
829.833	0.0135217
829.911	0.0136980
829.989	0.0136388
830.068	0.0135835
830.146	0.0136772
830.224	0.0134857
830.302	0.0135224
830.380	0.0137356
830.458	0.0136272
830.536	0.0136137
830.614	0.0137608
830.693	0.0137321
830.771	0.0137402
830.849	0.0136187
830.927	0.0135394
831.005	0.0135088
831.083	0.0134424
831.161	0.0135984
831.239	0.0134634
831.318	0.0136476
831.396	0.0137308
831.474	0.0134261
831.552	0.0134202
831.630	0.0135353
831.708	0.0134661
831.786	0.0132541
831.864	0.0132869
831.943	0.0132650
832.021	0.0134119
832.099	0.0135857
832.177	0.0134830
832.255	0.0133727
832.333	0.0133688
832.411	0.0135300
832.489	0.0134872
832.568	0.0135792
832.646	0.0136453
832.724	0.0136343
832.802	0.0136532
832.880	0.0137664
832.958	0.0137630
833.036	0.0138773
833.114	0.0138584
833.193	0.0138885
833.271	0.0138133
833.349	0.0137045
833.427	0.0137470
833.505	0.0138462
833.583	0.0137630
833.661	0.0136582
833.739	0.0136758
833.818	0.0135457
833.896	0.0135865
833.974	0.0135280
834.052	0.0133566
834.130	0.0133236
834.208	0.0133379
834.286	0.0132843
834.364	0.0133106
834.443	0.0131184
834.521	0.0131317
834.599	0.0130975
834.677	0.0129347
834.755	0.0129970
834.833	0.0129699
834.911	0.0130104
834.989	0.0129102
835.068	0.0127769
835.146	0.0127936
835.224	0.0129775
835.302	0.0130761
835.380	0.0129996
835.458	0.0129981
835.536	0.0128636
835.614	0.0129011
835.693	0.0130709
835.771	0.0130046
835.849	0.0131512
835.927	0.0132482
836.005	0.0133251
836.083	0.0134165
836.161	0.0135585
836.239	0.0136457
836.318	0.0135374
836.396	0.0134821
836.474	0.0136204
836.552	0.0137999
836.630	0.0136779
836.708	0.0136832
836.786	0.0138081
836.864	0.0137843
836.943	0.0138232
837.021	0.0138852
837.099	0.0138396
837.177	0.0138750
837.255	0.0138046
837.333	0.0138072
837.411	0.0136166
837.489	0.0136591
837.568	0.0136394
837.646	0.0135944
837.724	0.0134539
837.802	0.0133718
837.880	0.0135569
837.958	0.0134575
838.036	0.0133566
838.114	0.0132123
838.193	0.0132655
838.271	0.0134061
838.349	0.0133074
838.427	0.0132992
838.505	0.0132392
838.583	0.0132026
838.661	0.0132458
838.739	0.0132746
838.818	0.0130867
838.896	0.0131496
838.974	0.0132539
839.052	0.0131281
839.130	0.0131073
839.208	0.0131792
839.286	0.0131160
839.364	0.0130732
839.443	0.0131593
839.521	0.0131605
839.599	0.0131161
839.677	0.0129451
839.755	0.0131583
839.833	0.0132325
839.911	0.0132104
839.989	0.0131161
840.068	0.0130628
840.146	0.0131847
840.224	0.0132372
840.302	0.0132252
840.380	0.0132337
840.458	0.0130698
840.536	0.0131079
840.614	0.0133250
840.693	0.0130330
840.771	0.0131567
840.849	0.0132018
840.927	0.0131377
841.005	0.0130553
841.083	0.0131225
841.161	0.0132053
841.239	0.0132837
841.318	0.0132381
841.396	0.0132723
841.474	0.0133427
841.552	0.0133292
841.630	0.0135271
841.708	0.0134465
841.786	0.0134957
841.864	0.0134515
841.943	0.0135982
842.021	0.0134159
842.099	0.0133938
842.177	0.0135770
842.255	0.0136060
842.333	0.0136952
842.411	0.0137747
842.489	0.0138019
842.568	0.0137213
842.646	0.0138203
842.724	0.0137233
842.802	0.0138644
842.880	0.0138846
842.958	0.0139565
843.036	0.0139629
843.114	0.0140041
843.193	0.0139404
843.271	0.0140039
843.349	0.0139765
843.427	0.0138670
843.505	0.0139306
843.583	0.0138219
843.661	0.0137547
843.739	0.0137700
843.818	0.0136469
843.896	0.0135637
843.974	0.0134702
844.052	0.0134009
844.130	0.0132803
844.208	0.0133608
844.286	0.0132408
844.364	0.0133009
844.443	0.0132471
844.521	0.0130625
844.599	0.0132336
844.677	0.0132546
844.755	0.0131671
844.833	0.0132711
844.911	0.0131802
844.989	0.0132452
845.068	0.0132101
845.146	0.0133045
845.224	0.0132683
845.302	0.0132546
845.380	0.0132851
845.458	0.0131808
845.536	0.0132944
845.614	0.0132983
845.693	0.0130704
845.771	0.0131245
845.849	0.0132481
845.927	0.0131763
846.005	0.0130962
846.083	0.0131113
846.161	0.0130676
846.239	0.0131806
846.318	0.0129368
846.396	0.0132281
846.474	0.0130057
846.552	0.0131277
846.630	0.0130761
846.708	0.0132282
846.786	0.0130726
846.864	0.0132123
846.943	0.0133331
847.021	0.0132792
847.099	0.0133547
847.177	0.0134757
847.255	0.0134376
847.333	0.0134680
847.411	0.0136964
847.489	0.0137962
847.568	0.0137482
847.646	0.0139567
847.724	0.0138557
847.802	0.0140256
847.880	0.0138982
847.958	0.0139245
848.036	0.0137939
848.114	0.0138456
848.193	0.0137815
848.271	0.0138830
848.349	0.0137862
848.427	0.0137473
848.505	0.0136638
848.583	0.0137256
848.661	0.0136909
848.739	0.0135129
848.818	0.0134939
848.896	0.0135683
848.974	0.0135855
849.052	0.0135139
849.130	0.0133876
849.208	0.0132871
849.286	0.0132821
849.364	0.0133860
849.443	0.0132871
849.521	0.0132889
849.599	0.0133364
849.677	0.0133469
849.755	0.0132671
849.833	0.0134263
849.911	0.0131595
849.989	0.0132700
850.068	0.0134824
850.146	0.0134797
850.224	0.0134800
850.302	0.0134334
850.380	0.0135008
850.458	0.0134459
850.536	0.0134582
850.614	0.0134875
850.693	0.0133994
850.771	0.0133958
850.849	0.0135033
850.927	0.0133501
851.005	0.0132500
851.083	0.0131692
851.161	0.0133012
851.239	0.0131056
851.318	0.0130399
851.396	0.0131573
851.474	0.0131329
851.552	0.0131149
851.630	0.0131878
851.708	0.0131337
851.786	0.0133073
851.864	0.0133065
851.943	0.0132803
852.021	0.0132444
852.099	0.0132540
852.177	0.0133031
852.255	0.0133675
852.333	0.0134924
852.411	0.0134759
852.489	0.0134734
852.568	0.0135898
852.646	0.0135290
852.724	0.0135030
852.802	0.0136486
852.880	0.0136897
852.958	0.0136253
853.036	0.0136464
853.114	0.0137031
853.193	0.0137962
853.271	0.0136781
853.349	0.0136646
853.427	0.0136221
853.505	0.0136127
853.583	0.0138119
853.661	0.0136790
853.739	0.0135551
853.818	0.0136481
853.896	0.0136583
853.974	0.0134990
854.052	0.0135932
854.130	0.0135889
854.208	0.0136345
854.286	0.0136063
854.364	0.0135246
854.443	0.0134695
854.521	0.0135462
854.599	0.0135271
854.677	0.0135846
854.755	0.0135148
854.833	0.0135835
854.911	0.0135119
854.989	0.0136334
855.068	0.0135909
855.146	0.0135970
855.224	0.0136617
855.302	0.0137634
855.380	0.0136592
855.458	0.0135701
855.536	0.0136160
855.614	0.0136704
855.693	0.0137278
855.771	0.0136043
855.849	0.0136315
855.927	0.0136724
856.005	0.0136479
856.083	0.0134004
856.161	0.0134356
856.239	0.0133550
856.318	0.0134124
856.396	0.0134221
856.474	0.0134392
856.552	0.0133070
856.630	0.0132899
856.708	0.0131458
856.786	0.0133737
856.864	0.0132757
856.943	0.0131653
857.021	0.0131722
857.099	0.0132171
857.177	0.0131438
857.255	0.0131216
857.333	0.0130595
857.411	0.0130591
857.489	0.0132458
857.568	0.0132024
857.646	0.0130806
857.724	0.0131285
857.802	0.0132491
857.880	0.0132341
857.958	0.0131055
858.036	0.0132400
858.114	0.0132523
858.193	0.0132578
858.271	0.0133100
858.349	0.0132497
858.427	0.0134385
858.505	0.0134625
858.583	0.0132132
858.661	0.0133646
858.739	0.0134026
858.818	0.0134740
858.896	0.0134926
858.974	0.0134917
859.052	0.0136472
859.130	0.0135576
859.208	0.0134850
859.286	0.0136105
859.364	0.0134460
859.443	0.0135227
859.521	0.0136795
859.599	0.0136663
859.677	0.0136116
859.755	0.0136070
859.833	0.0136639
859.911	0.0135399
859.989	0.0137032
860.068	0.0136765
860.146	0.0134526
860.224	0.0136363
860.302	0.0135821
860.380	0.0136575
860.458	0.0135422
860.536	0.0136974
860.614	0.0136691
860.693	0.0136743
860.771	0.0135826
860.849	0.0136158
860.927	0.0136272
861.005	0.0136338
861.083	0.0137063
861.161	0.0135799
861.239	0.0134055
861.318	0.0133833
861.396	0.0134330
861.474	0.0134330
861.552	0.0134255
861.630	0.0134118
861.708	0.0133759
861.786	0.0133189
861.864	0.0132350
861.943	0.0133205
862.021	0.0131713
862.099	0.0131551
862.177	0.0131835
862.255	0.0132115
862.333	0.0130602
862.411	0.0130759
862.489	0.0132099
862.568	0.0129576
862.646	0.0132109
862.724	0.0133266
862.802	0.0132258
862.880	0.0132331
862.958	0.0131143
863.036	0.0131997
863.114	0.0132285
863.193	0.0131302
863.271	0.0131725
863.349	0.0131121
863.427	0.0130154
863.505	0.0130837
863.583	0.0131049
863.661	0.0132479
863.739	0.0130151
863.818	0.0129621
863.896	0.0131302
863.974	0.0132118
864.052	0.0131292
864.130	0.0130038
864.208	0.0130550
864.286	0.0132548
864.364	0.0131485
864.443	0.0131107
864.521	0.0133194
864.599	0.0132350
864.677	0.0132155
864.755	0.0132174
864.833	0.0133780
864.911	0.0134546
864.989	0.0135227
865.068	0.0135463
865.146	0.0136182
865.224	0.0136236
865.302	0.0137219
865.380	0.0136840
865.458	0.0138447
865.536	0.0138278
865.614	0.0136143
865.693	0.0137156
865.771	0.0136849
865.849	0.0137482
865.927	0.0137746
866.005	0.0138006
866.083	0.0137373
866.161	0.0136753
866.239	0.0135996
866.318	0.0136306
866.396	0.0135064
866.474	0.0134867
866.552	0.0134525
866.630	0.0134492
866.708	0.0134103
866.786	0.0133060
866.864	0.0133784
866.943	0.0132476
867.021	0.0133548
867.099	0.0133247
867.177	0.0133485
867.255	0.0133031
867.333	0.0133003
867.411	0.0133823
867.489	0.0133408
867.568	0.0133186
867.646	0.0131786
867.724	0.0131058
867.802	0.0131859
867.880	0.0131249
867.958	0.0131775
868.036	0.0131070
868.114	0.0130920
868.193	0.0130806
868.271	0.0131125
868.349	0.0131078
868.427	0.0131363
868.505	0.0131043
868.583	0.0133015
868.661	0.0131837
868.739	0.0132976
868.818	0.0133942
868.896	0.0133443
868.974	0.0134223
869.052	0.0135392
869.130	0.0133472
869.208	0.0134531
869.286	0.0134919
869.364	0.0134049
869.443	0.0132431
869.521	0.0134755
869.599	0.0133600
869.677	0.0134019
869.755	0.0133878
869.833	0.0132805
869.911	0.0133026
869.989	0.0132967
870.068	0.0132529
870.146	0.0133325
870.224	0.0132323
870.302	0.0130042
870.380	0.0131827
870.458	0.0132275
870.536	0.0131985
870.614	0.0131725
870.693	0.0130526
870.771	0.0131546
870.849	0.0131323
870.927	0.0131380
871.005	0.0132900
871.083	0.0132455
871.161	0.0132704
871.239	0.0133323
871.318	0.0134335
871.396	0.0134260
871.474	0.0134299
871.552	0.0134660
871.630	0.0134013
871.708	0.0134209
871.786	0.0134695
871.864	0.0135464
871.943	0.0134430
872.021	0.0134325
872.099	0.0134652
872.177	0.0133834
872.255	0.0134377
872.333	0.0133980
872.411	0.0134026
872.489	0.0135228
872.568	0.0133725
872.646	0.0134145
872.724	0.0134523
872.802	0.0134508
872.880	0.0133559
872.958	0.0133384
873.036	0.0133580
873.114	0.0134058
873.193	0.0135313
873.271	0.0135852
873.349	0.0135022
873.427	0.0135847
873.505	0.0134420
873.583	0.0136176
873.661	0.0137489
873.739	0.0134958
873.818	0.0134347
873.896	0.0136385
873.974	0.0136302
874.052	0.0135537
874.130	0.0135040
874.208	0.0134916
874.286	0.0133387
874.364	0.0133424
874.443	0.0133189
874.521	0.0134316
874.599	0.0134032
874.677	0.0133755
874.755	0.0132912
874.833	0.0132890
874.911	0.0132308
874.989	0.0133192
875.068	0.0133026
875.146	0.0131786
875.224	0.0132488
875.302	0.0132470
875.380	0.0132014
875.458	0.0133624
875.536	0.0133914
875.614	0.0133528
875.693	0.0133253
875.771	0.0135049
875.849	0.0133894
875.927	0.0133930
876.005	0.0134676
876.083	0.0135850
876.161	0.0134810
876.239	0.0134512
876.318	0.0134132
876.396	0.0133160
876.474	0.0136081
876.552	0.0135049
876.630	0.0133196
876.708	0.0134068
876.786	0.0134998
876.864	0.0134238
876.943	0.0133923
877.021	0.0132184
877.099	0.0133604
877.177	0.0133339
877.255	0.0134019
877.333	0.0134355
877.411	0.0134024
877.489	0.0135466
877.568	0.0136102
877.646	0.0135303
877.724	0.0135377
877.802	0.0134921
877.880	0.0133931
877.958	0.0135720
878.036	0.0134893
878.114	0.0136372
878.193	0.0136137
878.271	0.0136677
878.349	0.0137733
878.427	0.0137244
878.505	0.0137727
878.583	0.0135922
878.661	0.0136675
878.739	0.0137335
878.818	0.0136312
878.896	0.0135350
878.974	0.0136063
879.052	0.0135232
879.130	0.0134982
879.208	0.0135045
879.286	0.0134050
879.364	0.0134338
879.443	0.0133982
879.521	0.0133275
879.599	0.0132430
879.677	0.0134414
879.755	0.0132822
879.833	0.0132981
879.911	0.0132695
879.989	0.0132657
880.068	0.0133112
880.146	0.0132699
880.224	0.0132089
880.302	0.0133838
880.380	0.0135454
880.458	0.0134910
880.536	0.0134958
880.614	0.0134837
880.693	0.0134939
880.771	0.0135575
880.849	0.0134988
880.927	0.0134605
881.005	0.0136592
881.083	0.0135031
881.161	0.0136285
881.239	0.0136147
881.318	0.0135033
881.396	0.0135972
881.474	0.0135116
881.552	0.0135531
881.630	0.0135860
881.708	0.0135577
881.786	0.0135713
881.864	0.0135418
881.943	0.0135780
882.021	0.0137967
882.099	0.0135381
882.177	0.0134711
882.255	0.0136256
882.333	0.0134715
882.411	0.0134973
882.489	0.0135438
882.568	0.0135107
882.646	0.0134631
882.724	0.0134323
882.802	0.0133879
882.880	0.0132643
882.958	0.0133355
883.036	0.0133574
883.114	0.0133778
883.193	0.0133277
883.271	0.0133299
883.349	0.0134527
883.427	0.0132890
883.505	0.0132926
883.583	0.0133797
883.661	0.0133492
883.739	0.0131656
883.818	0.0133698
883.896	0.0133868
883.974	0.0135220
884.052	0.0134028
884.130	0.0133803
884.208	0.0132885
884.286	0.0133650
884.364	0.0132607
884.443	0.0133369
884.521	0.0133111
884.599	0.0132790
884.677	0.0133038
884.755	0.0132248
884.833	0.0134173
884.911	0.0132692
884.989	0.0133023
885.068	0.0132832
885.146	0.0132431
885.224	0.0133662
885.302	0.0133380
885.380	0.0132494
885.458	0.0134393
885.536	0.0134372
885.614	0.0134244
885.693	0.0134287
885.771	0.0134222
885.849	0.0134866
885.927	0.0133814
886.005	0.0134970
886.083	0.0134648
886.161	0.0135770
886.239	0.0135972
886.318	0.0135950
886.396	0.0137843
886.474	0.0135024
886.552	0.0134480
886.630	0.0134769
886.708	0.0135835
886.786	0.0136022
886.864	0.0135326
886.943	0.0134242
887.021	0.0134464
887.099	0.0134995
887.177	0.0135154
887.255	0.0132890
887.333	0.0133348
887.411	0.0134027
887.489	0.0134423
887.568	0.0134119
887.646	0.0134297
887.724	0.0132522
887.802	0.0133427
887.880	0.0133041
887.958	0.0133160
888.036	0.0133126
888.114	0.0133112
888.193	0.0133079
888.271	0.0134834
888.349	0.0133176
888.427	0.0132053
888.505	0.0133181
888.583	0.0133102
888.661	0.0133508
888.739	0.0134386
888.818	0.0133724
888.896	0.0135068
888.974	0.0134405
889.052	0.0135329
889.130	0.0135252
889.208	0.0134829
889.286	0.0134595
889.364	0.0134087
889.443	0.0133994
889.521	0.0135768
889.599	0.0136237
889.677	0.0135579
889.755	0.0134414
889.833	0.0133812
889.911	0.0135580
889.989	0.0135663
890.068	0.0135044
890.146	0.0135322
890.224	0.0136733
890.302	0.0135435
890.380	0.0134642
890.458	0.0134113
890.536	0.0134871
890.614	0.0134514
890.693	0.0133541
890.771	0.0133677
890.849	0.0134047
890.927	0.0133447
891.005	0.0134026
891.083	0.0132849
891.161	0.0132985
891.239	0.0132715
891.318	0.0134352
891.396	0.0134253
891.474	0.0133385
891.552	0.0133796
891.630	0.0132922
891.708	0.0133641
891.786	0.0134788
891.864	0.0134293
891.943	0.0134588
892.021	0.0132891
892.099	0.0133994
892.177	0.0133533
892.255	0.0133559
892.333	0.0133788
892.411	0.0134949
892.489	0.0134140
892.568	0.0133877
892.646	0.0133141
892.724	0.0134078
892.802	0.0132682
892.880	0.0131981
892.958	0.0132674
893.036	0.0132939
893.114	0.0134327
893.193	0.0133089
893.271	0.0131922
893.349	0.0133480
893.427	0.0134034
893.505	0.0133382
893.583	0.0133132
893.661	0.0134743
893.739	0.0132246
893.818	0.0133229
893.896	0.0134475
893.974	0.0133274
894.052	0.0133875
894.130	0.0133905
894.208	0.0133508
894.286	0.0133637
894.364	0.0133921
894.443	0.0131721
894.521	0.0133375
894.599	0.0132966
894.677	0.0131868
894.755	0.0133258
894.833	0.0133110
894.911	0.0131487
894.989	0.0131808
895.068	0.0132368
895.146	0.0132414
895.224	0.0133296
895.302	0.0134263
895.380	0.0134521
895.458	0.0133939
895.536	0.0131953
895.614	0.0132313
895.693	0.0132861
895.771	0.0132086
895.849	0.0133517
895.927	0.0131979
896.005	0.0131572
896.083	0.0132278
896.161	0.0131299
896.239	0.0131615
896.318	0.0133194
896.396	0.0131821
896.474	0.0131546
896.552	0.0129944
896.630	0.0131161
896.708	0.0131928
896.786	0.0132135
896.864	0.0131236
896.943	0.0131200
897.021	0.0131134
897.099	0.0132360
897.177	0.0130991
897.255	0.0131577
897.333	0.0131396
897.411	0.0131906
897.489	0.0132732
897.568	0.0132980
897.646	0.0132812
897.724	0.0134222
897.802	0.0133198
897.880	0.0134503
897.958	0.0133003
898.036	0.0134107
898.114	0.0136237
898.193	0.0135356
898.271	0.0135136
898.349	0.0134927
898.427	0.0135696
898.505	0.0135286
898.583	0.0135563
898.661	0.0135741
898.739	0.0135780
898.818	0.0135358
898.896	0.0134692
898.974	0.0135353
899.052	0.0135171
899.130	0.0135400
899.208	0.0135408
899.286	0.0134098
899.364	0.0133120
899.443	0.0133304
899.521	0.0135305
899.599	0.0136275
899.677	0.0135053
899.755	0.0134460
899.833	0.0133287
899.911	0.0135146
899.989	0.0135233
900.068	0.0134872
900.146	0.0135072
900.224	0.0134061
900.302	0.0134141
900.380	0.0135179
900.458	0.0135738
900.536	0.0135785
900.614	0.0134913
900.693	0.0136047
900.771	0.0134606
900.849	0.0133401
900.927	0.0135551
901.005	0.0136501
901.083	0.0134845
901.161	0.0133821
901.239	0.0135710
901.318	0.0136256
901.396	0.0134108
901.474	0.0134691
901.552	0.0133968
901.630	0.0135625
901.708	0.0135634
901.786	0.0134257
901.864	0.0134863
901.943	0.0135078
902.021	0.0135884
902.099	0.0135465
902.177	0.0135160
902.255	0.0135815
902.333	0.0135859
902.411	0.0135242
902.489	0.0134132
902.568	0.0134474
902.646	0.0134801
902.724	0.0134262
902.802	0.0132684
902.880	0.0133180
902.958	0.0133614
903.036	0.0133285
903.114	0.0132643
903.193	0.0134406
903.271	0.0132231
903.349	0.0132285
903.427	0.0133170
903.505	0.0133948
903.583	0.0134213
903.661	0.0134647
903.739	0.0132687
903.818	0.0134696
903.896	0.0135609
903.974	0.0135307
904.052	0.0133919
904.130	0.0136440
904.208	0.0136425
904.286	0.0135439
904.364	0.0136015
904.443	0.0138729
904.521	0.0137769
904.599	0.0136059
904.677	0.0137473
904.755	0.0136659
904.833	0.0138200
904.911	0.0136160
904.989	0.0136986
905.068	0.0136904
905.146	0.0135500
905.224	0.0136365
905.302	0.0136520
905.380	0.0136172
905.458	0.0134826
905.536	0.0134566
905.614	0.0134908
905.693	0.0135941
905.771	0.0135392
905.849	0.0135105
905.927	0.0134512
906.005	0.0135357
906.083	0.0134579
906.161	0.0134199
906.239	0.0133506
906.318	0.0134101
906.396	0.0132545
906.474	0.0132127
906.552	0.0134371
906.630	0.0134482
906.708	0.0132352
906.786	0.0132692
906.864	0.0134669
906.943	0.0134691
907.021	0.0134945
907.099	0.0134901
907.177	0.0134599
907.255	0.0135449
907.333	0.0134888
907.411	0.0134856
907.489	0.0134150
907.568	0.0135896
907.646	0.0135016
907.724	0.0135135
907.802	0.0134563
907.880	0.0134296
907.958	0.0135092
908.036	0.0135565
908.114	0.0135933
908.193	0.0135876
908.271	0.0136198
908.349	0.0135136
908.427	0.0135588
908.505	0.0134671
908.583	0.0135723
908.661	0.0135897
908.739	0.0135251
908.818	0.0134752
908.896	0.0136365
908.974	0.0135257
909.052	0.0137036
909.130	0.0135423
909.208	0.0135947
909.286	0.0133820
909.364	0.0134119
909.443	0.0135164
909.521	0.0134340
909.599	0.0134917
909.677	0.0135772
909.755	0.0135348
909.833	0.0136184
909.911	0.0135945
909.989	0.0135352
910.068	0.0136463
910.146	0.0136541
910.224	0.0135453
910.302	0.0135184
910.380	0.0135162
910.458	0.0136298
910.536	0.0136536
910.614	0.0135403
910.693	0.0135538
910.771	0.0135052
910.849	0.0134678
910.927	0.0133727
911.005	0.0135815
911.083	0.0133299
911.161	0.0134464
911.239	0.0134082
911.318	0.0132967
911.396	0.0132291
911.474	0.0133242
911.552	0.0132847
911.630	0.0132234
911.708	0.0131670
911.786	0.0133713
911.864	0.0132296
911.943	0.0133640
912.021	0.0133232
912.099	0.0133183
912.177	0.0135111
912.255	0.0134271
912.333	0.0133513
912.411	0.0134638
912.489	0.0135022
912.568	0.0135168
912.646	0.0134901
912.724	0.0135159
912.802	0.0134384
912.880	0.0136128
912.958	0.0135136
913.036	0.0135249
913.114	0.0135065
913.193	0.0135201
913.271	0.0135030
913.349	0.0133887
913.427	0.0133593
913.505	0.0134445
913.583	0.0133469
913.661	0.0133764
913.739	0.0134359
913.818	0.0132741
913.896	0.0133539
913.974	0.0132453
914.052	0.0132833
914.130	0.0133392
914.208	0.0133540
914.286	0.0132912
914.364	0.0132798
914.443	0.0132723
914.521	0.0133435
914.599	0.0133700
914.677	0.0134306
914.755	0.0134488
914.833	0.0135741
914.911	0.0134830
914.989	0.0134185
915.068	0.0135368
915.146	0.0135688
915.224	0.0137556
915.302	0.0135133
915.380	0.0135338
915.458	0.0135352
915.536	0.0134790
915.614	0.0136076
915.693	0.0134608
915.771	0.0134982
915.849	0.0133613
915.927	0.0133395
916.005	0.0134049
916.083	0.0135538
916.161	0.0135836
916.239	0.0134285
916.318	0.0133026
916.396	0.0133031
916.474	0.0133904
916.552	0.0134187
916.630	0.0132928
916.708	0.0133953
916.786	0.0132500
916.864	0.0132754
916.943	0.0132687
917.021	0.0132384
917.099	0.0132023
917.177	0.0133039
917.255	0.0132910
917.333	0.0134155
917.411	0.0132249
917.489	0.0132117
917.568	0.0133871
917.646	0.0132928
917.724	0.0132708
917.802	0.0131639
917.880	0.0133057
917.958	0.0134439
918.036	0.0133804
918.114	0.0131246
918.193	0.0132706
918.271	0.0133363
918.349	0.0133482
918.427	0.0133064
918.505	0.0133494
918.583	0.0131995
918.661	0.0131926
918.739	0.0131955
918.818	0.0132787
918.896	0.0133440
918.974	0.0131461
919.052	0.0132568
919.130	0.0131012
919.208	0.0132918
919.286	0.0133731
919.364	0.0131853
919.443	0.0133229
919.521	0.0132514
919.599	0.0132927
919.677	0.0132403
919.755	0.0132006
919.833	0.0131876
919.911	0.0131756
919.989	0.0133521
920.068	0.0133354
920.146	0.0132303
920.224	0.0134217
920.302	0.0134964
920.380	0.0133759
920.458	0.0133306
920.536	0.0134540
920.614	0.0134623
920.693	0.0134209
920.771	0.0134238
920.849	0.0134149
920.927	0.0134481
921.005	0.0134174
921.083	0.0134670
921.161	0.0135678
921.239	0.0135725
921.318	0.0135437
921.396	0.0134240
921.474	0.0134103
921.552	0.0134240
921.630	0.0135150
921.708	0.0135409
921.786	0.0134691
921.864	0.0133932
921.943	0.0133400
922.021	0.0134051
922.099	0.0135519
922.177	0.0133547
922.255	0.0133829
922.333	0.0134536
922.411	0.0133807
922.489	0.0132967
922.568	0.0135098
922.646	0.0134572
922.724	0.0133984
922.802	0.0132730
922.880	0.0134051
922.958	0.0132513
923.036	0.0132677
923.114	0.0133159
923.193	0.0133920
923.271	0.0134011
923.349	0.0133737
923.427	0.0134597
923.505	0.0133752
923.583	0.0133599
923.661	0.0134058
923.739	0.0134761
923.818	0.0134518
923.896	0.0134584
923.974	0.0135741
924.052	0.0134602
924.130	0.0134631
924.208	0.0135612
924.286	0.0135099
924.364	0.0134731
924.443	0.0134201
924.521	0.0134502
924.599	0.0134647
924.677	0.0135249
924.755	0.0135258
924.833	0.0134217
924.911	0.0134535
924.989	0.0135284
925.068	0.0134358
925.146	0.0135358
925.224	0.0134517
925.302	0.0134021
925.380	0.0135345
925.458	0.0134034
925.536	0.0133665
925.614	0.0133096
925.693	0.0132213
925.771	0.0132901
925.849	0.0133684
925.927	0.0134064
926.005	0.0133776
926.083	0.0134039
926.161	0.0132468
926.239	0.0131303
926.318	0.0133361
926.396	0.0133458
926.474	0.0132771
926.552	0.0133437
926.630	0.0134390
926.708	0.0134834
926.786	0.0133163
926.864	0.0134645
926.943	0.0133772
927.021	0.0133651
927.099	0.0134592
927.177	0.0134614
927.255	0.0134805
927.333	0.0135056
927.411	0.0135686
927.489	0.0135722
927.568	0.0135613
927.646	0.0136517
927.724	0.0135828
927.802	0.0133950
927.880	0.0135645
927.958	0.0136130
928.036	0.0134333
928.114	0.0135634
928.193	0.0134906
928.271	0.0134921
928.349	0.0134826
928.427	0.0133553
928.505	0.0135641
928.583	0.0134446
928.661	0.0135023
928.739	0.0134597
928.818	0.0135155
928.896	0.0134137
928.974	0.0134634
929.052	0.0133157
929.130	0.0132706
929.208	0.0134261
929.286	0.0133605
929.364	0.0133706
929.443	0.0134792
929.521	0.0133791
929.599	0.0133301
929.677	0.0133413
929.755	0.0133778
929.833	0.0133087
929.911	0.0134199
929.989	0.0133279
930.068	0.0133381
930.146	0.0133784
930.224	0.0133119
930.302	0.0132748
930.380	0.0133105
930.458	0.0133656
930.536	0.0135153
930.614	0.0134319
930.693	0.0132703
930.771	0.0134243
930.849	0.0133850
930.927	0.0132871
931.005	0.0132848
931.083	0.0132818
931.161	0.0134152
931.239	0.0133389
931.318	0.0133992
931.396	0.0133812
931.474	0.0134808
931.552	0.0134723
931.630	0.0133774
931.708	0.0132991
931.786	0.0133179
931.864	0.0134040
931.943	0.0134961
932.021	0.0134891
932.099	0.0134718
932.177	0.0135237
932.255	0.0133340
932.333	0.0133680
932.411	0.0134554
932.489	0.0134263
932.568	0.0133228
932.646	0.0132861
932.724	0.0135148
932.802	0.0133865
932.880	0.0133448
932.958	0.0133125
933.036	0.0133939
933.114	0.0134234
933.193	0.0133393
933.271	0.0135211
933.349	0.0135210
933.427	0.0133894
933.505	0.0135107
933.583	0.0135691
933.661	0.0134089
933.739	0.0136929
933.818	0.0135728
933.896	0.0135452
933.974	0.0135695
934.052	0.0137592
934.130	0.0135847
934.208	0.0135224
934.286	0.0135074
934.364	0.0135602
934.443	0.0134277
934.521	0.0135150
934.599	0.0134976
934.677	0.0136934
934.755	0.0134684
934.833	0.0134115
934.911	0.0134017
934.989	0.0133737
935.068	0.0133222
935.146	0.0132380
935.224	0.0134878
935.302	0.0135013
935.380	0.0134269
935.458	0.0132593
935.536	0.0133636
935.614	0.0134245
935.693	0.0134208
935.771	0.0133102
935.849	0.0132754
935.927	0.0134113
936.005	0.0134229
936.083	0.0134389
936.161	0.0133579
936.239	0.0133240
936.318	0.0132999
936.396	0.0132370
936.474	0.0133672
936.552	0.0132804
936.630	0.0133225
936.708	0.0133704
936.786	0.0134374
936.864	0.0132684
936.943	0.0133295
937.021	0.0134318
937.099	0.0134728
937.177	0.0132588
937.255	0.0134608
937.333	0.0134128
937.411	0.0134393
937.489	0.0134916
937.568	0.0136024
937.646	0.0135749
937.724	0.0134698
937.802	0.0134628
937.880	0.0135352
937.958	0.0134602
938.036	0.0136600
938.114	0.0134413
938.193	0.0134421
938.271	0.0132751
938.349	0.0134721
938.427	0.0134441
938.505	0.0133957
938.583	0.0133434
938.661	0.0134146
938.739	0.0134359
938.818	0.0133476
938.896	0.0134154
938.974	0.0134861
939.052	0.0134530
939.130	0.0134734
939.208	0.0134928
939.286	0.0133651
939.364	0.0133704
939.443	0.0135199
939.521	0.0132672
939.599	0.0134116
939.677	0.0133938
939.755	0.0133676
939.833	0.0133936
939.911	0.0133685
939.989	0.0133157
940.068	0.0134303
940.146	0.0133614
940.224	0.0132983
940.302	0.0134209
940.380	0.0131796
940.458	0.0132469
940.536	0.0133789
940.614	0.0132568
940.693	0.0132695
940.771	0.0133488
940.849	0.0133450
940.927	0.0132385
941.005	0.0132191
941.083	0.0132050
941.161	0.0131632
941.239	0.0132416
941.318	0.0132308
941.396	0.0131244
941.474	0.0130968
941.552	0.0130636
941.630	0.0130914
941.708	0.0131014
941.786	0.0130167
941.864	0.0130817
941.943	0.0131093
942.021	0.0130640
942.099	0.0131499
942.177	0.0131324
942.255	0.0130521
942.333	0.0132647
942.411	0.0131397
942.489	0.0131329
942.568	0.0131678
942.646	0.0131306
942.724	0.0131455
942.802	0.0131461
942.880	0.0131455
942.958	0.0133833
943.036	0.0133116
943.114	0.0132506
943.193	0.0133220
943.271	0.0133343
943.349	0.0132574
943.427	0.0135024
943.505	0.0135617
943.583	0.0134878
943.661	0.0135410
943.739	0.0135052
943.818	0.0134626
943.896	0.0134167
943.974	0.0133742
944.052	0.0134661
944.130	0.0135007
944.208	0.0135243
944.286	0.0134394
944.364	0.0134170
944.443	0.0133246
944.521	0.0134518
944.599	0.0134925
944.677	0.0134786
944.755	0.0134708
944.833	0.0134272
944.911	0.0133344
944.989	0.0132550
945.068	0.0134207
945.146	0.0134048
945.224	0.0132893
945.302	0.0133475
945.380	0.0133089
945.458	0.0133472
945.536	0.0133840
945.614	0.0133327
945.693	0.0133301
945.771	0.0133308
945.849	0.0132114
945.927	0.0133451
946.005	0.0132398
946.083	0.0131721
946.161	0.0131518
946.239	0.0131372
946.318	0.0131596
946.396	0.0132162
946.474	0.0131802
946.552	0.0133190
946.630	0.0132462
946.708	0.0132660
946.786	0.0131708
946.864	0.0131805
946.943	0.0131588
947.021	0.0131719
947.099	0.0131789
947.177	0.0132502
947.255	0.0133019
947.333	0.0131811
947.411	0.0133087
947.489	0.0133267
947.568	0.0133424
947.646	0.0132652
947.724	0.0132906
947.802	0.0132890
947.880	0.0132942
947.958	0.0134070
948.036	0.0133279
948.114	0.0133351
948.193	0.0134022
948.271	0.0134135
948.349	0.0135360
948.427	0.0133567
948.505	0.0135736
948.583	0.0134985
948.661	0.0134949
948.739	0.0134374
948.818	0.0135797
948.896	0.0134934
948.974	0.0135509
949.052	0.0135802
949.130	0.0137767
949.208	0.0137298
949.286	0.0136269
949.364	0.0136359
949.443	0.0136812
949.521	0.0136507
949.599	0.0137189
949.677	0.0136423
949.755	0.0135400
949.833	0.0134850
949.911	0.0134994
949.989	0.0135364
950.068	0.0134949
950.146	0.0135324
950.224	0.0135046
950.302	0.0134550
950.380	0.0133385
950.458	0.0132983
950.536	0.0132286
950.614	0.0132943
950.693	0.0133686
950.771	0.0133385
950.849	0.0132882
950.927	0.0132941
951.005	0.0132811
951.083	0.0133381
951.161	0.0132522
951.239	0.0132179
951.318	0.0133523
951.396	0.0132708
951.474	0.0132074
951.552	0.0132211
951.630	0.0132626
951.708	0.0131665
951.786	0.0133587
951.864	0.0132457
951.943	0.0133610
952.021	0.0132946
952.099	0.0133565
952.177	0.0133675
952.255	0.0131083
952.333	0.0131982
952.411	0.0133247
952.489	0.0132503
952.568	0.0132711
952.646	0.0131851
952.724	0.0133968
952.802	0.0131969
952.880	0.0132707
952.958	0.0131578
953.036	0.0133733
953.114	0.0133891
953.193	0.0134090
953.271	0.0134261
953.349	0.0133904
953.427	0.0133887
953.505	0.0134117
953.583	0.0133789
953.661	0.0133848
953.739	0.0133884
953.818	0.0134197
953.896	0.0133430
953.974	0.0135014
954.052	0.0134838
954.130	0.0135992
954.208	0.0134203
954.286	0.0135523
954.364	0.0135120
954.443	0.0134792
954.521	0.0134960
954.599	0.0133348
954.677	0.0133938
954.755	0.0134641
954.833	0.0135067
954.911	0.0133984
954.989	0.0133729
955.068	0.0134570
955.146	0.0133738
955.224	0.0133833
955.302	0.0134148
955.380	0.0134105
955.458	0.0133793
955.536	0.0133835
955.614	0.0134193
955.693	0.0134526
955.771	0.0133549
955.849	0.0134409
955.927	0.0133633
956.005	0.0134936
956.083	0.0134235
956.161	0.0133720
956.239	0.0134035
956.318	0.0133034
956.396	0.0136015
956.474	0.0134314
956.552	0.0134252
956.630	0.0134589
956.708	0.0134267
956.786	0.0133813
956.864	0.0134695
956.943	0.0135191
957.021	0.0134512
957.099	0.0135277
957.177	0.0136218
957.255	0.0134637
957.333	0.0136168
957.411	0.0136155
957.489	0.0134005
957.568	0.0134605
957.646	0.0134962
957.724	0.0133974
957.802	0.0134254
957.880	0.0135388
957.958	0.0135036
958.036	0.0133909
958.114	0.0133068
958.193	0.0133340
958.271	0.0133029
958.349	0.0134277
958.427	0.0133619
958.505	0.0133485
958.583	0.0133918
958.661	0.0133276
958.739	0.0132926
958.818	0.0132991
958.896	0.0134264
958.974	0.0134098
959.052	0.0133728
959.130	0.0134962
959.208	0.0135121
959.286	0.0134483
959.364	0.0134019
959.443	0.0134220
959.521	0.0133630
959.599	0.0133882
959.677	0.0134041
959.755	0.0135078
959.833	0.0134522
959.911	0.0133663
