05/14/2022	16:19:06	Ver.	4.1	UNKNOWN
Optical Delay	639.989416	Delta X		0.078125	Sweeps	1	Scan Rate	0/0
Coordinates	Axis 1	NaN	Axis 2	NaN	Axis 3	NaN	Axis 4	NaN	Axis 5	NaN	Axis 6	0.000000
TX Power	0.000000	RX Power	0.000000

639.989	0.0134886
640.068	0.0135679
640.146	0.0135503
640.224	0.0134530
640.302	0.0134015
640.380	0.0134838
640.458	0.0135183
640.536	0.0135315
640.614	0.0134744
640.693	0.0134489
640.771	0.0134055
640.849	0.0137012
640.927	0.0135334
641.005	0.0133952
641.083	0.0135138
641.161	0.0134092
641.239	0.0134893
641.318	0.0136507
641.396	0.0135555
641.474	0.0134824
641.552	0.0135610
641.630	0.0134280
641.708	0.0136478
641.786	0.0134103
641.864	0.0134766
641.943	0.0136549
642.021	0.0135625
642.099	0.0135139
642.177	0.0134486
642.255	0.0135956
642.333	0.0136850
642.411	0.0136773
642.489	0.0133787
642.568	0.0135033
642.646	0.0134494
642.724	0.0134198
642.802	0.0136249
642.880	0.0136031
642.958	0.0135990
643.036	0.0134743
643.114	0.0135127
643.193	0.0136533
643.271	0.0134929
643.349	0.0134755
643.427	0.0136167
643.505	0.0134888
643.583	0.0134449
643.661	0.0135262
643.739	0.0136820
643.818	0.0134357
643.896	0.0134299
643.974	0.0135995
644.052	0.0135795
644.130	0.0135767
644.208	0.0133739
644.286	0.0134313
644.364	0.0134867
644.443	0.0133722
644.521	0.0134851
644.599	0.0135439
644.677	0.0134459
644.755	0.0134948
644.833	0.0135081
644.911	0.0134972
644.989	0.0134341
645.068	0.0135936
645.146	0.0136066
645.224	0.0135027
645.302	0.0135569
645.380	0.0135707
645.458	0.0135629
645.536	0.0135480
645.614	0.0134999
645.693	0.0135255
645.771	0.0135668
645.849	0.0135947
645.927	0.0134978
646.005	0.0134494
646.083	0.0134657
646.161	0.0135276
646.239	0.0135948
646.318	0.0134921
646.396	0.0136005
646.474	0.0134399
646.552	0.0134164
646.630	0.0136359
646.708	0.0135101
646.786	0.0135630
646.864	0.0135197
646.943	0.0136523
647.021	0.0134417
647.099	0.0135445
647.177	0.0134610
647.255	0.0135457
647.333	0.0134679
647.411	0.0134334
647.489	0.0134099
647.568	0.0134509
647.646	0.0134939
647.724	0.0135372
647.802	0.0133707
647.880	0.0135554
647.958	0.0136337
648.036	0.0136548
648.114	0.0136783
648.193	0.0135474
648.271	0.0135312
648.349	0.0134347
648.427	0.0135028
648.505	0.0135580
648.583	0.0135274
648.661	0.0135056
648.739	0.0134402
648.818	0.0133994
648.896	0.0135000
648.974	0.0134224
649.052	0.0136463
649.130	0.0135345
649.208	0.0134946
649.286	0.0134725
649.364	0.0134306
649.443	0.0135265
649.521	0.0134882
649.599	0.0134838
649.677	0.0134940
649.755	0.0134775
649.833	0.0135631
649.911	0.0135954
649.989	0.0135596
650.068	0.0134627
650.146	0.0134444
650.224	0.0133879
650.302	0.0134536
650.380	0.0133544
650.458	0.0135214
650.536	0.0135020
650.614	0.0136460
650.693	0.0133790
650.771	0.0135072
650.849	0.0135542
650.927	0.0134049
651.005	0.0135163
651.083	0.0135157
651.161	0.0135736
651.239	0.0135364
651.318	0.0135036
651.396	0.0135704
651.474	0.0134509
651.552	0.0135679
651.630	0.0134448
651.708	0.0134427
651.786	0.0136324
651.864	0.0135622
651.943	0.0135295
652.021	0.0134529
652.099	0.0134621
652.177	0.0135884
652.255	0.0135091
652.333	0.0135724
652.411	0.0134953
652.489	0.0134934
652.568	0.0134976
652.646	0.0135094
652.724	0.0133838
652.802	0.0135254
652.880	0.0136046
652.958	0.0136954
653.036	0.0134187
653.114	0.0134904
653.193	0.0136890
653.271	0.0134657
653.349	0.0135584
653.427	0.0136037
653.505	0.0134989
653.583	0.0134747
653.661	0.0135749
653.739	0.0136174
653.818	0.0134259
653.896	0.0135320
653.974	0.0134865
654.052	0.0134862
654.130	0.0135122
654.208	0.0135954
654.286	0.0136053
654.364	0.0134818
654.443	0.0134575
654.521	0.0137062
654.599	0.0135967
654.677	0.0135661
654.755	0.0135645
654.833	0.0134717
654.911	0.0135773
654.989	0.0135977
655.068	0.0135176
655.146	0.0135155
655.224	0.0135208
655.302	0.0134385
655.380	0.0136119
655.458	0.0136082
655.536	0.0135052
655.614	0.0135637
655.693	0.0134378
655.771	0.0134182
655.849	0.0135023
655.927	0.0136124
656.005	0.0135663
656.083	0.0134454
656.161	0.0134353
656.239	0.0135915
656.318	0.0134937
656.396	0.0134660
656.474	0.0135020
656.552	0.0134043
656.630	0.0134577
656.708	0.0134972
656.786	0.0134554
656.864	0.0134492
656.943	0.0135648
657.021	0.0135693
657.099	0.0136573
657.177	0.0135343
657.255	0.0135807
657.333	0.0135398
657.411	0.0134722
657.489	0.0136021
657.568	0.0134162
657.646	0.0135056
657.724	0.0135135
657.802	0.0133958
657.880	0.0134446
657.958	0.0134808
658.036	0.0135055
658.114	0.0135745
658.193	0.0135690
658.271	0.0134914
658.349	0.0134705
658.427	0.0135220
658.505	0.0133628
658.583	0.0134238
658.661	0.0134576
658.739	0.0136008
658.818	0.0135674
658.896	0.0136012
658.974	0.0136295
659.052	0.0135562
659.130	0.0134812
659.208	0.0136328
659.286	0.0135516
659.364	0.0135615
659.443	0.0134184
659.521	0.0134623
659.599	0.0135693
659.677	0.0135242
659.755	0.0135329
659.833	0.0135901
659.911	0.0135421
659.989	0.0136060
660.068	0.0135231
660.146	0.0134655
660.224	0.0135191
660.302	0.0135355
660.380	0.0135426
660.458	0.0136449
660.536	0.0135345
660.614	0.0136469
660.693	0.0136814
660.771	0.0134438
660.849	0.0134212
660.927	0.0134986
661.005	0.0134704
661.083	0.0134187
661.161	0.0134626
661.239	0.0135587
661.318	0.0136427
661.396	0.0135302
661.474	0.0135783
661.552	0.0135073
661.630	0.0135085
661.708	0.0135679
661.786	0.0135940
661.864	0.0134824
661.943	0.0136663
662.021	0.0135629
662.099	0.0134343
662.177	0.0137078
662.255	0.0134570
662.333	0.0136230
662.411	0.0135700
662.489	0.0135677
662.568	0.0135463
662.646	0.0134710
662.724	0.0135915
662.802	0.0134538
662.880	0.0134771
662.958	0.0134873
663.036	0.0135130
663.114	0.0135195
663.193	0.0134540
663.271	0.0136094
663.349	0.0134133
663.427	0.0134619
663.505	0.0133832
663.583	0.0136337
663.661	0.0136918
663.739	0.0135564
663.818	0.0135007
663.896	0.0133698
663.974	0.0133963
664.052	0.0134846
664.130	0.0136060
664.208	0.0135201
664.286	0.0135066
664.364	0.0134913
664.443	0.0134663
664.521	0.0134618
664.599	0.0134604
664.677	0.0134492
664.755	0.0135320
664.833	0.0135501
664.911	0.0136201
664.989	0.0135059
665.068	0.0134322
665.146	0.0136274
665.224	0.0135613
665.302	0.0134846
665.380	0.0135978
665.458	0.0136228
665.536	0.0134859
665.614	0.0134895
665.693	0.0134946
665.771	0.0134376
665.849	0.0135647
665.927	0.0135345
666.005	0.0135403
666.083	0.0135438
666.161	0.0135425
666.239	0.0134999
666.318	0.0134833
666.396	0.0134238
666.474	0.0134686
666.552	0.0135838
666.630	0.0135352
666.708	0.0134930
666.786	0.0135432
666.864	0.0135323
666.943	0.0135661
667.021	0.0134287
667.099	0.0134866
667.177	0.0135439
667.255	0.0135008
667.333	0.0134224
667.411	0.0134447
667.489	0.0135885
667.568	0.0135174
667.646	0.0134871
667.724	0.0135347
667.802	0.0135678
667.880	0.0135715
667.958	0.0133732
668.036	0.0134441
668.114	0.0133955
668.193	0.0134251
668.271	0.0134689
668.349	0.0135416
668.427	0.0135695
668.505	0.0135364
668.583	0.0133895
668.661	0.0135607
668.739	0.0134184
668.818	0.0135528
668.896	0.0135136
668.974	0.0134814
669.052	0.0134654
669.130	0.0136081
669.208	0.0134863
669.286	0.0135384
669.364	0.0135503
669.443	0.0135852
669.521	0.0135207
669.599	0.0136219
669.677	0.0135324
669.755	0.0134214
669.833	0.0133409
669.911	0.0135230
669.989	0.0134839
670.068	0.0134174
670.146	0.0134659
670.224	0.0134479
670.302	0.0134826
670.380	0.0134040
670.458	0.0134008
670.536	0.0134760
670.614	0.0135193
670.693	0.0134632
670.771	0.0136051
670.849	0.0133765
670.927	0.0134173
671.005	0.0135139
671.083	0.0134418
671.161	0.0134414
671.239	0.0133733
671.318	0.0134782
671.396	0.0133675
671.474	0.0134116
671.552	0.0134344
671.630	0.0134733
671.708	0.0135439
671.786	0.0134571
671.864	0.0134209
671.943	0.0133595
672.021	0.0134724
672.099	0.0135405
672.177	0.0134791
672.255	0.0133728
672.333	0.0133276
672.411	0.0134929
672.489	0.0135493
672.568	0.0133607
672.646	0.0134440
672.724	0.0132442
672.802	0.0133463
672.880	0.0134845
672.958	0.0133751
673.036	0.0134093
673.114	0.0135357
673.193	0.0135191
673.271	0.0134894
673.349	0.0134734
673.427	0.0135406
673.505	0.0135939
673.583	0.0134400
673.661	0.0134599
673.739	0.0135159
673.818	0.0134942
673.896	0.0134654
673.974	0.0136530
674.052	0.0135236
674.130	0.0134255
674.208	0.0133891
674.286	0.0135589
674.364	0.0135057
674.443	0.0136427
674.521	0.0135083
674.599	0.0133643
674.677	0.0135832
674.755	0.0135748
674.833	0.0134415
674.911	0.0135249
674.989	0.0135692
675.068	0.0134750
675.146	0.0136142
675.224	0.0135678
675.302	0.0136388
675.380	0.0135700
675.458	0.0135872
675.536	0.0133936
675.614	0.0134953
675.693	0.0136028
675.771	0.0136295
675.849	0.0135596
675.927	0.0136254
676.005	0.0136279
676.083	0.0136257
676.161	0.0135308
676.239	0.0135337
676.318	0.0136405
676.396	0.0136140
676.474	0.0135963
676.552	0.0135422
676.630	0.0135267
676.708	0.0135537
676.786	0.0136864
676.864	0.0136618
676.943	0.0135560
677.021	0.0136486
677.099	0.0135769
677.177	0.0136316
677.255	0.0137658
677.333	0.0135921
677.411	0.0136111
677.489	0.0135979
677.568	0.0137762
677.646	0.0137631
677.724	0.0135647
677.802	0.0135836
677.880	0.0136482
677.958	0.0136256
678.036	0.0136324
678.114	0.0136512
678.193	0.0137056
678.271	0.0135738
678.349	0.0135170
678.427	0.0135770
678.505	0.0137016
678.583	0.0136707
678.661	0.0134997
678.739	0.0134926
678.818	0.0136510
678.896	0.0136669
678.974	0.0136033
679.052	0.0135333
679.130	0.0135067
679.208	0.0136214
679.286	0.0136333
679.364	0.0136428
679.443	0.0137131
679.521	0.0136572
679.599	0.0135830
679.677	0.0135793
679.755	0.0136514
679.833	0.0134559
679.911	0.0135392
679.989	0.0136070
680.068	0.0136637
680.146	0.0133849
680.224	0.0134706
680.302	0.0136238
680.380	0.0134098
680.458	0.0136629
680.536	0.0134898
680.614	0.0133749
680.693	0.0134538
680.771	0.0134823
680.849	0.0134857
680.927	0.0133707
681.005	0.0134796
681.083	0.0135034
681.161	0.0134377
681.239	0.0135170
681.318	0.0134898
681.396	0.0133684
681.474	0.0133937
681.552	0.0136050
681.630	0.0134901
681.708	0.0135144
681.786	0.0135242
681.864	0.0134586
681.943	0.0134136
682.021	0.0135043
682.099	0.0134109
682.177	0.0134587
682.255	0.0134290
682.333	0.0134370
682.411	0.0133733
682.489	0.0134173
682.568	0.0134229
682.646	0.0134637
682.724	0.0135196
682.802	0.0134562
682.880	0.0134980
682.958	0.0134295
683.036	0.0133974
683.114	0.0133267
683.193	0.0133688
683.271	0.0134034
683.349	0.0132529
683.427	0.0133412
683.505	0.0133616
683.583	0.0135284
683.661	0.0133845
683.739	0.0133418
683.818	0.0134681
683.896	0.0134148
683.974	0.0133810
684.052	0.0134766
684.130	0.0133390
684.208	0.0134256
684.286	0.0134658
684.364	0.0134927
684.443	0.0134789
684.521	0.0134844
684.599	0.0133298
684.677	0.0134444
684.755	0.0135556
684.833	0.0135667
684.911	0.0133929
684.989	0.0133618
685.068	0.0132906
685.146	0.0134982
685.224	0.0134272
685.302	0.0136000
685.380	0.0134488
685.458	0.0134712
685.536	0.0134812
685.614	0.0132945
685.693	0.0134718
685.771	0.0134885
685.849	0.0134783
685.927	0.0135221
686.005	0.0134663
686.083	0.0135563
686.161	0.0135835
686.239	0.0134391
686.318	0.0135847
686.396	0.0135541
686.474	0.0133920
686.552	0.0134946
686.630	0.0136318
686.708	0.0133183
686.786	0.0135104
686.864	0.0134480
686.943	0.0134434
687.021	0.0133501
687.099	0.0134793
687.177	0.0135229
687.255	0.0135475
687.333	0.0135282
687.411	0.0135991
687.489	0.0134486
687.568	0.0136553
687.646	0.0135355
687.724	0.0134856
687.802	0.0134750
687.880	0.0134328
687.958	0.0136382
688.036	0.0135054
688.114	0.0134985
688.193	0.0134767
688.271	0.0136125
688.349	0.0134888
688.427	0.0134304
688.505	0.0135320
688.583	0.0134518
688.661	0.0135645
688.739	0.0135211
688.818	0.0135709
688.896	0.0134075
688.974	0.0133527
689.052	0.0133591
689.130	0.0134709
689.208	0.0135189
689.286	0.0135962
689.364	0.0134623
689.443	0.0135101
689.521	0.0135987
689.599	0.0135447
689.677	0.0135551
689.755	0.0135135
689.833	0.0136743
689.911	0.0136946
689.989	0.0136828
690.068	0.0135807
690.146	0.0135125
690.224	0.0134257
690.302	0.0133920
690.380	0.0133744
690.458	0.0131543
690.536	0.0131414
690.614	0.0130062
690.693	0.0132177
690.771	0.0132658
690.849	0.0131542
690.927	0.0134165
691.005	0.0134530
691.083	0.0137160
691.161	0.0140215
691.239	0.0141406
691.318	0.0141182
691.396	0.0144945
691.474	0.0146088
691.552	0.0144430
691.630	0.0145478
691.708	0.0143064
691.786	0.0141249
691.864	0.0139287
691.943	0.0135989
692.021	0.0133258
692.099	0.0130788
692.177	0.0127570
692.255	0.0125197
692.333	0.0122265
692.411	0.0119114
692.489	0.0117296
692.568	0.0116772
692.646	0.0118864
692.724	0.0120726
692.802	0.0123521
692.880	0.0126897
692.958	0.0130880
693.036	0.0136295
693.114	0.0141965
693.193	0.0146955
693.271	0.0153787
693.349	0.0156639
693.427	0.0159701
693.505	0.0162783
693.583	0.0162792
693.661	0.0162428
693.739	0.0158759
693.818	0.0155703
693.896	0.0151147
693.974	0.0145627
694.052	0.0141440
694.130	0.0132463
694.208	0.0125626
694.286	0.0119256
694.364	0.0113781
694.443	0.0108658
694.521	0.0104717
694.599	0.0101916
694.677	0.0100379
694.755	0.0101525
694.833	0.0103678
694.911	0.0107343
694.989	0.0113081
695.068	0.0117959
695.146	0.0125147
695.224	0.0131323
695.302	0.0137740
695.380	0.0145311
695.458	0.0149126
695.536	0.0155245
695.614	0.0161227
695.693	0.0165198
695.771	0.0166111
695.849	0.0165871
695.927	0.0166435
696.005	0.0166096
696.083	0.0163775
696.161	0.0162091
696.239	0.0158273
696.318	0.0152621
696.396	0.0148071
696.474	0.0140671
696.552	0.0136275
696.630	0.0131508
696.708	0.0126958
696.786	0.0121291
696.864	0.0117068
696.943	0.0112517
697.021	0.0109563
697.099	0.0108704
697.177	0.0105728
697.255	0.0106065
697.333	0.0107127
697.411	0.0107175
697.489	0.0110146
697.568	0.0114368
697.646	0.0118182
697.724	0.0120306
697.802	0.0126157
697.880	0.0131618
697.958	0.0133926
698.036	0.0140102
698.114	0.0145310
698.193	0.0148066
698.271	0.0151059
698.349	0.0153735
698.427	0.0155530
698.505	0.0156072
698.583	0.0155389
698.661	0.0153459
698.739	0.0151720
698.818	0.0150806
698.896	0.0148575
698.974	0.0146109
699.052	0.0144710
699.130	0.0141890
699.208	0.0140430
699.286	0.0136993
699.364	0.0135811
699.443	0.0134674
699.521	0.0133465
699.599	0.0130683
699.677	0.0132098
699.755	0.0130753
699.833	0.0128897
699.911	0.0129790
699.989	0.0128650
700.068	0.0128384
700.146	0.0127015
700.224	0.0129127
700.302	0.0129403
700.380	0.0130687
700.458	0.0129575
700.536	0.0129814
700.614	0.0131746
700.693	0.0131110
700.771	0.0132140
700.849	0.0133006
700.927	0.0133174
701.005	0.0135184
701.083	0.0136094
701.161	0.0135391
701.239	0.0134192
701.318	0.0136478
701.396	0.0136057
701.474	0.0137364
701.552	0.0138603
701.630	0.0136491
701.708	0.0135507
701.786	0.0136648
701.864	0.0136189
701.943	0.0135286
702.021	0.0134267
702.099	0.0131896
702.177	0.0130203
702.255	0.0131277
702.333	0.0131732
702.411	0.0130066
702.489	0.0130875
702.568	0.0130422
702.646	0.0131110
702.724	0.0131963
702.802	0.0130776
702.880	0.0131751
702.958	0.0133415
703.036	0.0135555
703.114	0.0137642
703.193	0.0137350
703.271	0.0140495
703.349	0.0141898
703.427	0.0142221
703.505	0.0144849
703.583	0.0146292
703.661	0.0148624
703.739	0.0149193
703.818	0.0151701
703.896	0.0151450
703.974	0.0152681
704.052	0.0153720
704.130	0.0153371
704.208	0.0151708
704.286	0.0150225
704.364	0.0147186
704.443	0.0144611
704.521	0.0142651
704.599	0.0138885
704.677	0.0133904
704.755	0.0131723
704.833	0.0127750
704.911	0.0124580
704.989	0.0123203
705.068	0.0117877
705.146	0.0117872
705.224	0.0117062
705.302	0.0115408
705.380	0.0115646
705.458	0.0115012
705.536	0.0115408
705.614	0.0116589
705.693	0.0115881
705.771	0.0116969
705.849	0.0120092
705.927	0.0121362
706.005	0.0122117
706.083	0.0125642
706.161	0.0128489
706.239	0.0129570
706.318	0.0132534
706.396	0.0134884
706.474	0.0137611
706.552	0.0139503
706.630	0.0140482
706.708	0.0142630
706.786	0.0143126
706.864	0.0144595
706.943	0.0146027
707.021	0.0146236
707.099	0.0146027
707.177	0.0146619
707.255	0.0146171
707.333	0.0147123
707.411	0.0145790
707.489	0.0145872
707.568	0.0144685
707.646	0.0145015
707.724	0.0145231
707.802	0.0144370
707.880	0.0145173
707.958	0.0143616
708.036	0.0143612
708.114	0.0144402
708.193	0.0144578
708.271	0.0143803
708.349	0.0143097
708.427	0.0142883
708.505	0.0141679
708.583	0.0141478
708.661	0.0139943
708.739	0.0138156
708.818	0.0137006
708.896	0.0136505
708.974	0.0133024
709.052	0.0131676
709.130	0.0127985
709.208	0.0124284
709.286	0.0122044
709.364	0.0118197
709.443	0.0116581
709.521	0.0115606
709.599	0.0113958
709.677	0.0114274
709.755	0.0113927
709.833	0.0113204
709.911	0.0113957
709.989	0.0114452
710.068	0.0114508
710.146	0.0117055
710.224	0.0120023
710.302	0.0123700
710.380	0.0124060
710.458	0.0127992
710.536	0.0131304
710.614	0.0131981
710.693	0.0134507
710.771	0.0136558
710.849	0.0138179
710.927	0.0139376
711.005	0.0140548
711.083	0.0139933
711.161	0.0140510
711.239	0.0141528
711.318	0.0140380
711.396	0.0140965
711.474	0.0140119
711.552	0.0140857
711.630	0.0142212
711.708	0.0142493
711.786	0.0143535
711.864	0.0144009
711.943	0.0145984
712.021	0.0148259
712.099	0.0148914
712.177	0.0149934
712.255	0.0151559
712.333	0.0154314
712.411	0.0154636
712.489	0.0155699
712.568	0.0156882
712.646	0.0156583
712.724	0.0155293
712.802	0.0154187
712.880	0.0152021
712.958	0.0148717
713.036	0.0146597
713.114	0.0142117
713.193	0.0140234
713.271	0.0136859
713.349	0.0134117
713.427	0.0131053
713.505	0.0127008
713.583	0.0122790
713.661	0.0119249
713.739	0.0116777
713.818	0.0113935
713.896	0.0112777
713.974	0.0109624
714.052	0.0109791
714.130	0.0111049
714.208	0.0109622
714.286	0.0111390
714.364	0.0112875
714.443	0.0113661
714.521	0.0116824
714.599	0.0119203
714.677	0.0121706
714.755	0.0124393
714.833	0.0127325
714.911	0.0130048
714.989	0.0134181
715.068	0.0134830
715.146	0.0137646
715.224	0.0140758
715.302	0.0142857
715.380	0.0142822
715.458	0.0143414
715.536	0.0145034
715.614	0.0145236
715.693	0.0145718
715.771	0.0145724
715.849	0.0144135
715.927	0.0143298
716.005	0.0143472
716.083	0.0141824
716.161	0.0140766
716.239	0.0140668
716.318	0.0139218
716.396	0.0138382
716.474	0.0139453
716.552	0.0139289
716.630	0.0139798
716.708	0.0139308
716.786	0.0140649
716.864	0.0140665
716.943	0.0141301
717.021	0.0142319
717.099	0.0143606
717.177	0.0143444
717.255	0.0145332
717.333	0.0146564
717.411	0.0147012
717.489	0.0147598
717.568	0.0147308
717.646	0.0146403
717.724	0.0145790
717.802	0.0146310
717.880	0.0145347
717.958	0.0143732
718.036	0.0141268
718.114	0.0139999
718.193	0.0137592
718.271	0.0135324
718.349	0.0131950
718.427	0.0129099
718.505	0.0127318
718.583	0.0125620
718.661	0.0122239
718.739	0.0121603
718.818	0.0119688
718.896	0.0119320
718.974	0.0119166
719.052	0.0117867
719.130	0.0118829
719.208	0.0119070
719.286	0.0118220
719.364	0.0119518
719.443	0.0121478
719.521	0.0121910
719.599	0.0123739
719.677	0.0124038
719.755	0.0124140
719.833	0.0125407
719.911	0.0127723
719.989	0.0128056
720.068	0.0129321
720.146	0.0130627
720.224	0.0130725
720.302	0.0133175
720.380	0.0133138
720.458	0.0134882
720.536	0.0136054
720.614	0.0136046
720.693	0.0137645
720.771	0.0139648
720.849	0.0140284
720.927	0.0141335
721.005	0.0142624
721.083	0.0142667
721.161	0.0143919
721.239	0.0144157
721.318	0.0143867
721.396	0.0144260
721.474	0.0144320
721.552	0.0144136
721.630	0.0143947
721.708	0.0143428
721.786	0.0143404
721.864	0.0143499
721.943	0.0144371
722.021	0.0141602
722.099	0.0141878
722.177	0.0141578
722.255	0.0141214
722.333	0.0141528
722.411	0.0139850
722.489	0.0140979
722.568	0.0140688
722.646	0.0139989
722.724	0.0139455
722.802	0.0138921
722.880	0.0135843
722.958	0.0135733
723.036	0.0136440
723.114	0.0135329
723.193	0.0133698
723.271	0.0132753
723.349	0.0130717
723.427	0.0131577
723.505	0.0130350
723.583	0.0129458
723.661	0.0131153
723.739	0.0129925
723.818	0.0128976
723.896	0.0128793
723.974	0.0130274
724.052	0.0128336
724.130	0.0128535
724.208	0.0128977
724.286	0.0127257
724.364	0.0127290
724.443	0.0127137
724.521	0.0126436
724.599	0.0125750
724.677	0.0126709
724.755	0.0124571
724.833	0.0126231
724.911	0.0125933
724.989	0.0127083
725.068	0.0126601
725.146	0.0127161
725.224	0.0128576
725.302	0.0131399
725.380	0.0131084
725.458	0.0132755
725.536	0.0135569
725.614	0.0135322
725.693	0.0137085
725.771	0.0139285
725.849	0.0139452
725.927	0.0139153
726.005	0.0140929
726.083	0.0141007
726.161	0.0141389
726.239	0.0141587
726.318	0.0142658
726.396	0.0141573
726.474	0.0144075
726.552	0.0141836
726.630	0.0141778
726.708	0.0141926
726.786	0.0141698
726.864	0.0141078
726.943	0.0141287
727.021	0.0140617
727.099	0.0139964
727.177	0.0139285
727.255	0.0137865
727.333	0.0137785
727.411	0.0137387
727.489	0.0136917
727.568	0.0136533
727.646	0.0136693
727.724	0.0138855
727.802	0.0138122
727.880	0.0136689
727.958	0.0136166
728.036	0.0137856
728.114	0.0137761
728.193	0.0139816
728.271	0.0138038
728.349	0.0138390
728.427	0.0139337
728.505	0.0138061
728.583	0.0137989
728.661	0.0136608
728.739	0.0137057
728.818	0.0137207
728.896	0.0135887
728.974	0.0136723
729.052	0.0136066
729.130	0.0134601
729.208	0.0132492
729.286	0.0130383
729.364	0.0131115
729.443	0.0130663
729.521	0.0130570
729.599	0.0128836
729.677	0.0128675
729.755	0.0127962
729.833	0.0126315
729.911	0.0127632
729.989	0.0126699
730.068	0.0126555
730.146	0.0127617
730.224	0.0128075
730.302	0.0126697
730.380	0.0127026
730.458	0.0128009
730.536	0.0129530
730.614	0.0130453
730.693	0.0130595
730.771	0.0131466
730.849	0.0135452
730.927	0.0136153
731.005	0.0136348
731.083	0.0139706
731.161	0.0140076
731.239	0.0138789
731.318	0.0140425
731.396	0.0141931
731.474	0.0142970
731.552	0.0140501
731.630	0.0139457
731.708	0.0140943
731.786	0.0140045
731.864	0.0140213
731.943	0.0137447
732.021	0.0136874
732.099	0.0136475
732.177	0.0131219
732.255	0.0133627
732.333	0.0133374
732.411	0.0132893
732.489	0.0130665
732.568	0.0133088
732.646	0.0131033
732.724	0.0131799
732.802	0.0130914
732.880	0.0132419
732.958	0.0132977
733.036	0.0132814
733.114	0.0134567
733.193	0.0134887
733.271	0.0136301
733.349	0.0135797
733.427	0.0139050
733.505	0.0140662
733.583	0.0139198
733.661	0.0140668
733.739	0.0143024
733.818	0.0141792
733.896	0.0140806
733.974	0.0141451
734.052	0.0140077
734.130	0.0139877
734.208	0.0138369
734.286	0.0138231
734.364	0.0137287
734.443	0.0135736
734.521	0.0135168
734.599	0.0132485
734.677	0.0130667
734.755	0.0132534
734.833	0.0131222
734.911	0.0130051
734.989	0.0128527
735.068	0.0129094
735.146	0.0129634
735.224	0.0129320
735.302	0.0129842
735.380	0.0130541
735.458	0.0131322
735.536	0.0131815
735.614	0.0132977
735.693	0.0134420
735.771	0.0134686
735.849	0.0135434
735.927	0.0136447
736.005	0.0137264
736.083	0.0136583
736.161	0.0137019
736.239	0.0138142
736.318	0.0138194
736.396	0.0136549
736.474	0.0136703
736.552	0.0135928
736.630	0.0135329
736.708	0.0135767
736.786	0.0133883
736.864	0.0132428
736.943	0.0132733
737.021	0.0132420
737.099	0.0132824
737.177	0.0133447
737.255	0.0131226
737.333	0.0131470
737.411	0.0130011
737.489	0.0131131
737.568	0.0131296
737.646	0.0130990
737.724	0.0131927
737.802	0.0131238
737.880	0.0131193
737.958	0.0133408
738.036	0.0133927
738.114	0.0134297
738.193	0.0135024
738.271	0.0136446
738.349	0.0137323
738.427	0.0136693
738.505	0.0137598
738.583	0.0138953
738.661	0.0138986
738.739	0.0138100
738.818	0.0139577
738.896	0.0138840
738.974	0.0139236
739.052	0.0140014
739.130	0.0140055
739.208	0.0139973
739.286	0.0139981
739.364	0.0138319
739.443	0.0139954
739.521	0.0139610
739.599	0.0137598
739.677	0.0136566
739.755	0.0136535
739.833	0.0136217
739.911	0.0135162
739.989	0.0133699
740.068	0.0132914
740.146	0.0134081
740.224	0.0132236
740.302	0.0132658
740.380	0.0133688
740.458	0.0133952
740.536	0.0132573
740.614	0.0134668
740.693	0.0134455
740.771	0.0132662
740.849	0.0134788
740.927	0.0134656
741.005	0.0134831
741.083	0.0135550
741.161	0.0134194
741.239	0.0135401
741.318	0.0135863
741.396	0.0134825
741.474	0.0135630
741.552	0.0137201
741.630	0.0135397
741.708	0.0135215
741.786	0.0135042
741.864	0.0135767
741.943	0.0135985
742.021	0.0133996
742.099	0.0133689
742.177	0.0133658
742.255	0.0133668
742.333	0.0133362
742.411	0.0133256
742.489	0.0133813
742.568	0.0132430
742.646	0.0131493
742.724	0.0130832
742.802	0.0131467
742.880	0.0132515
742.958	0.0132646
743.036	0.0132094
743.114	0.0132210
743.193	0.0133044
743.271	0.0132663
743.349	0.0133973
743.427	0.0132752
743.505	0.0134008
743.583	0.0133733
743.661	0.0134433
743.739	0.0136388
743.818	0.0135250
743.896	0.0135385
743.974	0.0134483
744.052	0.0135477
744.130	0.0135692
744.208	0.0136885
744.286	0.0135726
744.364	0.0135099
744.443	0.0134637
744.521	0.0134404
744.599	0.0134446
744.677	0.0134834
744.755	0.0135551
744.833	0.0134367
744.911	0.0133103
744.989	0.0134612
745.068	0.0134896
745.146	0.0133681
745.224	0.0134515
745.302	0.0135816
745.380	0.0133868
745.458	0.0135050
745.536	0.0133807
745.614	0.0134530
745.693	0.0136678
745.771	0.0135464
745.849	0.0135800
745.927	0.0135937
746.005	0.0136732
746.083	0.0138162
746.161	0.0137106
746.239	0.0136234
746.318	0.0136595
746.396	0.0136311
746.474	0.0137583
746.552	0.0136779
746.630	0.0136336
746.708	0.0136086
746.786	0.0136353
746.864	0.0134541
746.943	0.0135131
747.021	0.0135629
747.099	0.0132779
747.177	0.0134308
747.255	0.0135270
747.333	0.0136032
747.411	0.0135564
747.489	0.0135729
747.568	0.0135091
747.646	0.0134613
747.724	0.0135719
747.802	0.0135406
747.880	0.0135107
747.958	0.0134327
748.036	0.0134548
748.114	0.0133741
748.193	0.0134639
748.271	0.0133976
748.349	0.0133570
748.427	0.0132665
748.505	0.0132455
748.583	0.0131741
748.661	0.0130768
748.739	0.0131686
748.818	0.0130399
748.896	0.0130685
748.974	0.0129829
749.052	0.0130403
749.130	0.0130297
749.208	0.0131132
749.286	0.0131757
749.364	0.0132069
749.443	0.0131080
749.521	0.0132970
749.599	0.0134795
749.677	0.0135523
749.755	0.0134834
749.833	0.0134180
749.911	0.0137621
749.989	0.0137411
750.068	0.0137258
750.146	0.0136382
750.224	0.0137890
750.302	0.0139453
750.380	0.0137562
750.458	0.0137370
750.536	0.0137541
750.614	0.0137437
750.693	0.0136301
750.771	0.0136340
750.849	0.0135770
750.927	0.0134712
751.005	0.0135369
751.083	0.0133270
751.161	0.0133780
751.239	0.0133484
751.318	0.0133745
751.396	0.0133813
751.474	0.0133366
751.552	0.0134002
751.630	0.0133851
751.708	0.0134055
751.786	0.0135488
751.864	0.0135291
751.943	0.0137135
752.021	0.0138499
752.099	0.0137936
752.177	0.0136993
752.255	0.0138823
752.333	0.0138362
752.411	0.0139767
752.489	0.0139340
752.568	0.0140078
752.646	0.0139875
752.724	0.0138954
752.802	0.0140929
752.880	0.0139536
752.958	0.0138380
753.036	0.0137925
753.114	0.0138351
753.193	0.0137400
753.271	0.0136603
753.349	0.0135724
753.427	0.0136183
753.505	0.0135635
753.583	0.0135499
753.661	0.0134273
753.739	0.0134970
753.818	0.0134651
753.896	0.0134692
753.974	0.0134100
754.052	0.0133028
754.130	0.0133659
754.208	0.0134473
754.286	0.0132476
754.364	0.0131899
754.443	0.0130972
754.521	0.0131351
754.599	0.0130403
754.677	0.0130257
754.755	0.0130910
754.833	0.0130209
754.911	0.0128614
754.989	0.0128448
755.068	0.0128921
755.146	0.0129251
755.224	0.0129642
755.302	0.0128988
755.380	0.0130256
755.458	0.0131555
755.536	0.0131361
755.614	0.0132109
755.693	0.0133216
755.771	0.0134787
755.849	0.0133564
755.927	0.0134786
756.005	0.0136812
756.083	0.0135893
756.161	0.0136351
756.239	0.0137704
756.318	0.0140478
756.396	0.0137831
756.474	0.0138998
756.552	0.0139408
756.630	0.0138897
756.708	0.0140662
756.786	0.0138980
756.864	0.0138231
756.943	0.0139276
757.021	0.0138172
757.099	0.0139696
757.177	0.0138640
757.255	0.0136655
757.333	0.0136044
757.411	0.0137675
757.489	0.0134797
757.568	0.0133956
757.646	0.0133103
757.724	0.0133120
757.802	0.0133981
757.880	0.0131609
757.958	0.0131693
758.036	0.0130688
758.114	0.0130729
758.193	0.0131876
758.271	0.0131677
758.349	0.0131677
758.427	0.0134170
758.505	0.0134058
758.583	0.0135372
758.661	0.0134296
758.739	0.0135036
758.818	0.0134718
758.896	0.0134880
758.974	0.0135378
759.052	0.0135357
759.130	0.0137400
759.208	0.0134705
759.286	0.0134155
759.364	0.0134304
759.443	0.0134261
759.521	0.0134211
759.599	0.0135227
759.677	0.0133221
759.755	0.0134793
759.833	0.0134017
759.911	0.0134173
759.989	0.0134943
760.068	0.0134898
760.146	0.0133971
760.224	0.0133521
760.302	0.0136568
760.380	0.0137603
760.458	0.0137062
760.536	0.0137503
760.614	0.0138052
760.693	0.0138347
760.771	0.0138857
760.849	0.0138110
760.927	0.0137856
761.005	0.0136633
761.083	0.0137372
761.161	0.0137188
761.239	0.0136333
761.318	0.0134981
761.396	0.0132825
761.474	0.0133291
761.552	0.0132639
761.630	0.0133424
761.708	0.0131896
761.786	0.0132005
761.864	0.0131092
761.943	0.0131863
762.021	0.0131311
762.099	0.0131946
762.177	0.0131080
762.255	0.0132567
762.333	0.0133594
762.411	0.0133299
762.489	0.0133304
762.568	0.0133466
762.646	0.0134161
762.724	0.0133990
762.802	0.0133997
762.880	0.0135423
762.958	0.0135555
763.036	0.0136205
763.114	0.0135637
763.193	0.0135657
763.271	0.0136280
763.349	0.0136542
763.427	0.0136975
763.505	0.0136240
763.583	0.0135368
763.661	0.0134361
763.739	0.0134466
763.818	0.0135081
763.896	0.0134969
763.974	0.0136033
764.052	0.0134927
764.130	0.0136002
764.208	0.0134683
764.286	0.0136895
764.364	0.0135602
764.443	0.0134821
764.521	0.0133971
764.599	0.0136353
764.677	0.0135947
764.755	0.0136394
764.833	0.0137872
764.911	0.0137830
764.989	0.0137601
765.068	0.0137801
765.146	0.0137064
765.224	0.0138165
765.302	0.0137410
765.380	0.0138784
765.458	0.0138056
765.536	0.0138134
765.614	0.0135825
765.693	0.0138621
765.771	0.0137654
765.849	0.0136420
765.927	0.0136937
766.005	0.0136086
766.083	0.0136743
766.161	0.0135531
766.239	0.0136555
766.318	0.0136633
766.396	0.0135857
766.474	0.0135777
766.552	0.0135280
766.630	0.0135624
766.708	0.0135529
766.786	0.0135561
766.864	0.0136020
766.943	0.0135999
767.021	0.0134513
767.099	0.0134557
767.177	0.0134024
767.255	0.0134512
767.333	0.0133384
767.411	0.0130362
767.489	0.0130342
767.568	0.0132133
767.646	0.0131070
767.724	0.0130109
767.802	0.0130032
767.880	0.0130183
767.958	0.0127828
768.036	0.0129252
768.114	0.0128864
768.193	0.0129440
768.271	0.0129974
768.349	0.0129166
768.427	0.0129977
768.505	0.0130180
768.583	0.0131023
768.661	0.0132232
768.739	0.0132279
768.818	0.0131886
768.896	0.0135015
768.974	0.0133254
769.052	0.0134707
769.130	0.0135097
769.208	0.0137172
769.286	0.0136796
769.364	0.0136504
769.443	0.0138157
769.521	0.0138895
769.599	0.0139412
769.677	0.0138287
769.755	0.0139269
769.833	0.0138235
769.911	0.0138077
769.989	0.0138216
770.068	0.0138239
770.146	0.0138017
770.224	0.0138160
770.302	0.0136526
770.380	0.0137991
770.458	0.0137167
770.536	0.0137640
770.614	0.0137299
770.693	0.0136387
770.771	0.0137122
770.849	0.0137390
770.927	0.0136751
771.005	0.0137222
771.083	0.0136626
771.161	0.0137849
771.239	0.0136798
771.318	0.0136767
771.396	0.0138003
771.474	0.0137579
771.552	0.0136588
771.630	0.0136139
771.708	0.0135305
771.786	0.0135391
771.864	0.0134888
771.943	0.0134026
772.021	0.0132914
772.099	0.0132282
772.177	0.0131432
772.255	0.0131931
772.333	0.0130534
772.411	0.0130624
772.489	0.0132450
772.568	0.0130503
772.646	0.0131272
772.724	0.0130742
772.802	0.0130769
772.880	0.0130713
772.958	0.0131091
773.036	0.0132386
773.114	0.0132122
773.193	0.0132310
773.271	0.0132973
773.349	0.0134391
773.427	0.0134522
773.505	0.0134985
773.583	0.0135618
773.661	0.0134309
773.739	0.0136713
773.818	0.0134957
773.896	0.0136110
773.974	0.0134990
774.052	0.0136395
774.130	0.0136282
774.208	0.0134874
774.286	0.0135432
774.364	0.0135247
774.443	0.0135428
774.521	0.0136707
774.599	0.0136102
774.677	0.0136322
774.755	0.0137591
774.833	0.0137492
774.911	0.0137093
774.989	0.0137064
775.068	0.0136303
775.146	0.0138132
775.224	0.0139825
775.302	0.0138310
775.380	0.0138162
775.458	0.0138482
775.536	0.0138428
775.614	0.0137709
775.693	0.0137082
775.771	0.0138216
775.849	0.0138401
775.927	0.0139478
776.005	0.0137275
776.083	0.0136584
776.161	0.0136669
776.239	0.0135558
776.318	0.0135922
776.396	0.0136076
776.474	0.0135297
776.552	0.0136232
776.630	0.0135756
776.708	0.0134791
776.786	0.0134879
776.864	0.0133077
776.943	0.0134266
777.021	0.0133074
777.099	0.0132388
777.177	0.0131584
777.255	0.0132654
777.333	0.0132803
777.411	0.0131953
777.489	0.0132361
777.568	0.0131660
777.646	0.0131625
777.724	0.0132183
777.802	0.0133225
777.880	0.0133237
777.958	0.0131832
778.036	0.0134075
778.114	0.0132697
778.193	0.0132798
778.271	0.0134122
778.349	0.0132780
778.427	0.0133060
778.505	0.0133678
778.583	0.0135761
778.661	0.0136146
778.739	0.0134730
778.818	0.0133351
778.896	0.0135062
778.974	0.0135654
779.052	0.0134550
779.130	0.0135672
779.208	0.0135927
779.286	0.0135388
779.364	0.0137386
779.443	0.0136916
779.521	0.0135520
779.599	0.0137785
779.677	0.0138178
779.755	0.0137600
779.833	0.0137279
779.911	0.0137649
779.989	0.0138750
780.068	0.0138906
780.146	0.0139223
780.224	0.0140639
780.302	0.0138706
780.380	0.0139321
780.458	0.0138853
780.536	0.0137819
780.614	0.0137189
780.693	0.0137270
780.771	0.0137333
780.849	0.0136857
780.927	0.0136288
781.005	0.0136006
781.083	0.0135992
781.161	0.0135728
781.239	0.0134359
781.318	0.0134605
781.396	0.0133278
781.474	0.0131120
781.552	0.0132945
781.630	0.0134196
781.708	0.0133495
781.786	0.0132292
781.864	0.0130711
781.943	0.0131829
782.021	0.0133615
782.099	0.0131973
782.177	0.0132416
782.255	0.0131331
782.333	0.0132051
782.411	0.0131936
782.489	0.0130402
782.568	0.0130975
782.646	0.0131983
782.724	0.0131504
782.802	0.0132428
782.880	0.0131159
782.958	0.0132505
783.036	0.0133184
783.114	0.0132249
783.193	0.0131860
783.271	0.0133700
783.349	0.0134241
783.427	0.0133544
783.505	0.0135285
783.583	0.0134753
783.661	0.0135347
783.739	0.0134932
783.818	0.0135390
783.896	0.0137047
783.974	0.0136066
784.052	0.0136444
784.130	0.0136853
784.208	0.0137369
784.286	0.0137363
784.364	0.0137292
784.443	0.0136980
784.521	0.0138266
784.599	0.0137737
784.677	0.0137621
784.755	0.0139566
784.833	0.0136877
784.911	0.0136491
784.989	0.0137745
785.068	0.0138799
785.146	0.0136907
785.224	0.0136427
785.302	0.0136496
785.380	0.0136739
785.458	0.0136504
785.536	0.0136212
785.614	0.0137701
785.693	0.0136517
785.771	0.0137466
785.849	0.0135294
785.927	0.0135677
786.005	0.0136813
786.083	0.0136198
786.161	0.0136182
786.239	0.0136014
786.318	0.0135863
786.396	0.0135742
786.474	0.0134785
786.552	0.0135340
786.630	0.0134637
786.708	0.0131943
786.786	0.0133208
786.864	0.0135423
786.943	0.0132845
787.021	0.0133352
787.099	0.0131870
787.177	0.0131808
787.255	0.0133110
787.333	0.0132554
787.411	0.0131812
787.489	0.0132098
787.568	0.0133250
787.646	0.0132834
787.724	0.0132710
787.802	0.0133666
787.880	0.0134210
787.958	0.0132902
788.036	0.0135355
788.114	0.0135892
788.193	0.0135239
788.271	0.0135194
788.349	0.0135648
788.427	0.0136295
788.505	0.0135355
788.583	0.0134959
788.661	0.0135069
788.739	0.0135239
788.818	0.0134294
788.896	0.0134581
788.974	0.0135080
789.052	0.0132809
789.130	0.0135381
789.208	0.0134311
789.286	0.0134823
789.364	0.0133646
789.443	0.0135133
789.521	0.0135349
789.599	0.0134653
789.677	0.0135972
789.755	0.0136750
789.833	0.0136858
789.911	0.0135015
789.989	0.0135122
790.068	0.0135930
790.146	0.0137145
790.224	0.0136209
790.302	0.0136417
790.380	0.0137984
790.458	0.0135312
790.536	0.0135426
790.614	0.0135257
790.693	0.0136659
790.771	0.0135364
790.849	0.0134512
790.927	0.0134183
791.005	0.0133224
791.083	0.0132088
791.161	0.0132845
791.239	0.0131874
791.318	0.0131289
791.396	0.0130905
791.474	0.0131808
791.552	0.0131763
791.630	0.0131335
791.708	0.0132021
791.786	0.0131460
791.864	0.0132794
791.943	0.0132790
792.021	0.0133822
792.099	0.0134306
792.177	0.0135088
792.255	0.0136148
792.333	0.0137151
792.411	0.0137433
792.489	0.0136791
792.568	0.0136591
792.646	0.0137715
792.724	0.0137907
792.802	0.0136523
792.880	0.0136363
792.958	0.0137527
793.036	0.0137280
793.114	0.0136898
793.193	0.0136141
793.271	0.0136450
793.349	0.0136271
793.427	0.0134926
793.505	0.0133339
793.583	0.0133173
793.661	0.0132388
793.739	0.0131551
793.818	0.0131211
793.896	0.0130488
793.974	0.0129546
794.052	0.0131397
794.130	0.0130774
794.208	0.0130595
794.286	0.0130611
794.364	0.0131715
794.443	0.0131592
794.521	0.0132792
794.599	0.0133599
794.677	0.0133047
794.755	0.0134641
794.833	0.0134782
794.911	0.0134683
794.989	0.0136109
795.068	0.0136767
795.146	0.0136803
795.224	0.0136872
795.302	0.0138437
795.380	0.0137234
795.458	0.0135996
795.536	0.0136264
795.614	0.0137811
795.693	0.0136102
795.771	0.0136382
795.849	0.0135954
795.927	0.0135439
796.005	0.0135561
796.083	0.0133640
796.161	0.0134619
796.239	0.0135010
796.318	0.0133316
796.396	0.0132790
796.474	0.0132167
796.552	0.0132892
796.630	0.0133075
796.708	0.0133328
796.786	0.0134070
796.864	0.0135051
796.943	0.0133963
797.021	0.0133613
797.099	0.0134462
797.177	0.0134820
797.255	0.0134225
797.333	0.0132951
797.411	0.0133234
797.489	0.0135378
797.568	0.0135030
797.646	0.0135098
797.724	0.0135287
797.802	0.0133644
797.880	0.0134490
797.958	0.0134390
798.036	0.0134031
798.114	0.0135114
798.193	0.0135271
798.271	0.0136208
798.349	0.0137027
798.427	0.0136758
798.505	0.0135757
798.583	0.0135439
798.661	0.0136604
798.739	0.0136667
798.818	0.0137928
798.896	0.0137000
798.974	0.0136181
799.052	0.0135111
799.130	0.0134264
799.208	0.0136205
799.286	0.0135032
799.364	0.0134810
799.443	0.0134354
799.521	0.0135790
799.599	0.0135044
799.677	0.0134132
799.755	0.0133901
799.833	0.0132310
799.911	0.0133430
799.989	0.0134305
800.068	0.0135322
800.146	0.0134299
800.224	0.0135364
800.302	0.0133728
800.380	0.0135120
800.458	0.0134606
800.536	0.0135257
800.614	0.0135349
800.693	0.0134291
800.771	0.0137096
800.849	0.0135370
800.927	0.0135472
801.005	0.0135526
801.083	0.0135742
801.161	0.0135083
801.239	0.0136919
801.318	0.0136477
801.396	0.0137067
801.474	0.0135307
801.552	0.0135242
801.630	0.0137256
801.708	0.0136926
801.786	0.0136152
801.864	0.0135189
801.943	0.0135055
802.021	0.0134850
802.099	0.0135964
802.177	0.0134484
802.255	0.0133300
802.333	0.0133560
802.411	0.0133569
802.489	0.0134339
802.568	0.0133892
802.646	0.0132779
802.724	0.0133871
802.802	0.0134093
802.880	0.0133511
802.958	0.0132795
803.036	0.0132977
803.114	0.0132915
803.193	0.0133399
803.271	0.0133657
803.349	0.0132227
803.427	0.0132590
803.505	0.0131366
803.583	0.0132777
803.661	0.0131314
803.739	0.0133521
803.818	0.0133677
803.896	0.0131217
803.974	0.0133349
804.052	0.0132549
804.130	0.0132472
804.208	0.0132915
804.286	0.0134520
804.364	0.0134509
804.443	0.0135502
804.521	0.0137366
804.599	0.0135155
804.677	0.0136083
804.755	0.0138078
804.833	0.0138789
804.911	0.0137584
804.989	0.0138707
805.068	0.0138663
805.146	0.0139128
805.224	0.0137542
805.302	0.0137807
805.380	0.0136881
805.458	0.0136215
805.536	0.0136349
805.614	0.0135493
805.693	0.0135867
805.771	0.0134544
805.849	0.0135038
805.927	0.0134136
806.005	0.0133958
806.083	0.0132022
806.161	0.0133320
806.239	0.0135743
806.318	0.0133794
806.396	0.0131624
806.474	0.0133769
806.552	0.0132629
806.630	0.0132677
806.708	0.0133068
806.786	0.0134336
806.864	0.0132852
806.943	0.0135143
807.021	0.0134544
807.099	0.0133821
807.177	0.0135420
807.255	0.0136082
807.333	0.0136444
807.411	0.0134882
807.489	0.0134921
807.568	0.0134700
807.646	0.0134168
807.724	0.0135095
807.802	0.0135926
807.880	0.0135070
807.958	0.0135640
808.036	0.0134495
808.114	0.0134683
808.193	0.0133450
808.271	0.0134983
808.349	0.0133295
808.427	0.0137390
808.505	0.0134142
808.583	0.0135252
808.661	0.0135593
808.739	0.0134319
808.818	0.0135029
808.896	0.0135484
808.974	0.0135555
809.052	0.0135685
809.130	0.0137177
809.208	0.0137276
809.286	0.0137621
809.364	0.0136380
809.443	0.0135314
809.521	0.0137758
809.599	0.0136681
809.677	0.0137256
809.755	0.0135838
809.833	0.0135268
809.911	0.0135746
809.989	0.0134513
810.068	0.0135716
810.146	0.0135523
810.224	0.0134972
810.302	0.0133298
810.380	0.0134656
810.458	0.0134692
810.536	0.0133967
810.614	0.0133719
810.693	0.0133658
810.771	0.0132927
810.849	0.0133309
810.927	0.0133187
811.005	0.0132283
811.083	0.0133247
811.161	0.0132952
811.239	0.0132124
811.318	0.0132113
811.396	0.0131681
811.474	0.0132645
811.552	0.0131581
811.630	0.0133581
811.708	0.0133428
811.786	0.0133632
811.864	0.0133731
811.943	0.0134875
812.021	0.0134605
812.099	0.0135661
812.177	0.0135252
812.255	0.0136449
812.333	0.0138081
812.411	0.0136130
812.489	0.0135975
812.568	0.0135931
812.646	0.0136329
812.724	0.0137286
812.802	0.0135648
812.880	0.0136966
812.958	0.0137012
813.036	0.0136686
813.114	0.0135336
813.193	0.0135348
813.271	0.0135213
813.349	0.0137314
813.427	0.0134814
813.505	0.0135394
813.583	0.0134651
813.661	0.0135947
813.739	0.0136054
813.818	0.0137600
813.896	0.0135416
813.974	0.0136399
814.052	0.0135928
814.130	0.0136387
814.208	0.0135789
814.286	0.0136490
814.364	0.0135569
814.443	0.0135754
814.521	0.0135937
814.599	0.0135117
814.677	0.0134235
814.755	0.0133771
814.833	0.0134199
814.911	0.0132897
814.989	0.0133546
815.068	0.0132690
815.146	0.0132829
815.224	0.0131579
815.302	0.0131864
815.380	0.0131686
815.458	0.0131835
815.536	0.0131985
815.614	0.0132716
815.693	0.0131889
815.771	0.0132626
815.849	0.0134222
815.927	0.0135091
816.005	0.0134524
816.083	0.0134775
816.161	0.0133871
816.239	0.0135338
816.318	0.0134858
816.396	0.0135832
816.474	0.0135216
816.552	0.0135771
816.630	0.0136518
816.708	0.0136658
816.786	0.0136396
816.864	0.0136314
816.943	0.0136088
817.021	0.0134716
817.099	0.0134241
817.177	0.0133231
817.255	0.0134528
817.333	0.0132036
817.411	0.0131535
817.489	0.0132854
817.568	0.0132946
817.646	0.0132059
817.724	0.0130497
817.802	0.0131480
817.880	0.0130756
817.958	0.0130746
818.036	0.0132447
818.114	0.0131586
818.193	0.0132719
818.271	0.0131352
818.349	0.0132885
818.427	0.0134511
818.505	0.0133973
818.583	0.0135087
818.661	0.0133965
818.739	0.0134344
818.818	0.0137236
818.896	0.0136391
818.974	0.0137031
819.052	0.0136889
819.130	0.0136394
819.208	0.0136901
819.286	0.0137897
819.364	0.0136716
819.443	0.0137746
819.521	0.0136870
819.599	0.0137404
819.677	0.0138205
819.755	0.0138486
819.833	0.0138351
819.911	0.0138292
819.989	0.0135612
820.068	0.0136276
820.146	0.0135770
820.224	0.0136192
820.302	0.0136232
820.380	0.0134488
820.458	0.0133631
820.536	0.0134778
820.614	0.0133607
820.693	0.0133853
820.771	0.0131330
820.849	0.0131171
820.927	0.0131876
821.005	0.0131786
821.083	0.0131728
821.161	0.0130067
821.239	0.0130135
821.318	0.0131334
821.396	0.0132195
821.474	0.0130967
821.552	0.0130498
821.630	0.0130287
821.708	0.0130102
821.786	0.0131010
821.864	0.0132146
821.943	0.0131525
822.021	0.0130272
822.099	0.0131790
822.177	0.0131778
822.255	0.0131985
822.333	0.0132904
822.411	0.0132018
822.489	0.0131724
822.568	0.0132607
822.646	0.0133759
822.724	0.0134055
822.802	0.0135025
822.880	0.0135040
822.958	0.0134348
823.036	0.0134819
823.114	0.0136410
823.193	0.0136262
823.271	0.0136169
823.349	0.0136595
823.427	0.0137013
823.505	0.0135266
823.583	0.0135995
823.661	0.0137428
823.739	0.0137343
823.818	0.0137480
823.896	0.0134441
823.974	0.0135479
824.052	0.0136628
824.130	0.0135947
824.208	0.0137238
824.286	0.0136079
824.364	0.0135814
824.443	0.0136619
824.521	0.0136543
824.599	0.0136506
824.677	0.0137835
824.755	0.0136587
824.833	0.0138580
824.911	0.0137960
824.989	0.0137640
825.068	0.0136911
825.146	0.0136278
825.224	0.0137687
825.302	0.0136745
825.380	0.0136231
825.458	0.0137251
825.536	0.0135612
825.614	0.0134719
825.693	0.0134444
825.771	0.0134949
825.849	0.0135467
825.927	0.0134078
826.005	0.0134496
826.083	0.0133110
826.161	0.0131059
826.239	0.0132916
826.318	0.0131755
826.396	0.0131896
826.474	0.0130541
826.552	0.0129655
826.630	0.0130654
826.708	0.0131006
826.786	0.0131168
826.864	0.0130660
826.943	0.0130225
827.021	0.0129643
827.099	0.0131715
827.177	0.0131332
827.255	0.0130238
827.333	0.0130433
827.411	0.0130521
827.489	0.0131229
827.568	0.0131739
827.646	0.0132461
827.724	0.0133000
827.802	0.0135271
827.880	0.0135051
827.958	0.0134624
828.036	0.0133666
828.114	0.0135536
828.193	0.0135759
828.271	0.0136216
828.349	0.0135972
828.427	0.0136658
828.505	0.0137232
828.583	0.0136787
828.661	0.0137762
828.739	0.0139117
828.818	0.0137663
828.896	0.0136947
828.974	0.0139147
829.052	0.0139788
829.130	0.0138091
829.208	0.0137639
829.286	0.0139381
829.364	0.0138696
829.443	0.0138646
829.521	0.0138374
829.599	0.0139097
829.677	0.0137933
829.755	0.0136349
829.833	0.0135514
829.911	0.0137063
829.989	0.0137418
830.068	0.0137635
830.146	0.0137214
830.224	0.0136684
830.302	0.0136400
830.380	0.0134251
830.458	0.0136137
830.536	0.0135216
830.614	0.0134733
830.693	0.0135091
830.771	0.0134399
830.849	0.0135332
830.927	0.0133465
831.005	0.0133315
831.083	0.0133206
831.161	0.0133558
831.239	0.0133922
831.318	0.0134221
831.396	0.0131621
831.474	0.0131157
831.552	0.0131680
831.630	0.0131419
831.708	0.0132758
831.786	0.0132150
831.864	0.0132152
831.943	0.0131866
832.021	0.0131184
832.099	0.0130057
832.177	0.0131413
832.255	0.0131319
832.333	0.0130788
832.411	0.0131870
832.489	0.0132092
832.568	0.0132831
832.646	0.0131409
832.724	0.0132183
832.802	0.0131942
832.880	0.0133340
832.958	0.0133382
833.036	0.0133638
833.114	0.0133867
833.193	0.0134762
833.271	0.0135520
833.349	0.0134818
833.427	0.0136616
833.505	0.0136266
833.583	0.0137369
833.661	0.0136391
833.739	0.0138073
833.818	0.0137573
833.896	0.0137843
833.974	0.0137713
834.052	0.0136819
834.130	0.0136089
834.208	0.0137057
834.286	0.0136361
834.364	0.0136508
834.443	0.0136177
834.521	0.0134933
834.599	0.0136594
834.677	0.0135890
834.755	0.0136459
834.833	0.0137637
834.911	0.0135769
834.989	0.0135329
835.068	0.0135566
835.146	0.0134910
835.224	0.0135361
835.302	0.0135593
835.380	0.0137107
835.458	0.0136395
835.536	0.0134160
835.614	0.0134592
835.693	0.0136540
835.771	0.0135979
835.849	0.0135594
835.927	0.0135412
836.005	0.0135655
836.083	0.0135015
836.161	0.0136634
836.239	0.0137123
836.318	0.0134011
836.396	0.0135535
836.474	0.0135643
836.552	0.0135217
836.630	0.0135775
836.708	0.0134633
836.786	0.0134489
836.864	0.0134459
836.943	0.0133050
837.021	0.0132053
837.099	0.0133636
837.177	0.0132285
837.255	0.0131623
837.333	0.0132315
837.411	0.0130981
837.489	0.0131964
837.568	0.0131480
837.646	0.0131969
837.724	0.0131995
837.802	0.0132747
837.880	0.0133433
837.958	0.0131290
838.036	0.0132568
838.114	0.0132918
838.193	0.0132962
838.271	0.0133916
838.349	0.0134250
838.427	0.0134118
838.505	0.0136336
838.583	0.0136690
838.661	0.0136142
838.739	0.0135944
838.818	0.0136922
838.896	0.0136903
838.974	0.0137460
839.052	0.0137125
839.130	0.0138380
839.208	0.0138216
839.286	0.0137704
839.364	0.0137202
839.443	0.0138732
839.521	0.0137581
839.599	0.0136125
839.677	0.0138505
839.755	0.0136660
839.833	0.0136924
839.911	0.0137288
839.989	0.0135552
840.068	0.0135907
840.146	0.0135378
840.224	0.0135281
840.302	0.0136992
840.380	0.0135981
840.458	0.0136185
840.536	0.0136346
840.614	0.0135981
840.693	0.0134814
840.771	0.0135565
840.849	0.0135899
840.927	0.0134726
841.005	0.0133617
841.083	0.0133723
841.161	0.0133289
841.239	0.0133659
841.318	0.0132742
841.396	0.0132452
841.474	0.0130943
841.552	0.0132146
841.630	0.0131316
841.708	0.0131664
841.786	0.0131262
841.864	0.0130412
841.943	0.0130988
842.021	0.0131260
842.099	0.0131694
842.177	0.0131719
842.255	0.0132246
842.333	0.0131927
842.411	0.0132205
842.489	0.0132045
842.568	0.0131747
842.646	0.0132704
842.724	0.0134917
842.802	0.0133325
842.880	0.0134684
842.958	0.0135985
843.036	0.0136023
843.114	0.0135860
843.193	0.0136572
843.271	0.0136485
843.349	0.0136838
843.427	0.0136810
843.505	0.0135948
843.583	0.0137248
843.661	0.0138021
843.739	0.0137198
843.818	0.0137513
843.896	0.0136770
843.974	0.0138088
844.052	0.0136981
844.130	0.0136237
844.208	0.0138836
844.286	0.0136127
844.364	0.0136219
844.443	0.0137353
844.521	0.0136408
844.599	0.0136237
844.677	0.0136982
844.755	0.0135629
844.833	0.0135579
844.911	0.0134842
844.989	0.0132740
845.068	0.0134759
845.146	0.0133318
845.224	0.0133949
845.302	0.0134523
845.380	0.0134782
845.458	0.0134525
845.536	0.0132742
845.614	0.0134051
845.693	0.0133382
845.771	0.0135088
845.849	0.0134266
845.927	0.0134608
846.005	0.0134099
846.083	0.0134406
846.161	0.0134567
846.239	0.0134411
846.318	0.0135264
846.396	0.0135146
846.474	0.0135080
846.552	0.0134409
846.630	0.0133632
846.708	0.0135146
846.786	0.0134769
846.864	0.0135862
846.943	0.0135226
847.021	0.0135003
847.099	0.0136349
847.177	0.0135169
847.255	0.0135197
847.333	0.0134910
847.411	0.0135320
847.489	0.0135226
847.568	0.0135132
847.646	0.0134840
847.724	0.0137051
847.802	0.0135143
847.880	0.0136663
847.958	0.0136037
848.036	0.0135196
848.114	0.0135191
848.193	0.0136684
848.271	0.0137891
848.349	0.0135622
848.427	0.0134986
848.505	0.0134981
848.583	0.0134760
848.661	0.0137408
848.739	0.0137103
848.818	0.0137130
848.896	0.0136181
848.974	0.0135079
849.052	0.0135790
849.130	0.0135326
849.208	0.0135315
849.286	0.0135139
849.364	0.0135310
849.443	0.0134486
849.521	0.0133669
849.599	0.0134900
849.677	0.0134541
849.755	0.0132815
849.833	0.0134959
849.911	0.0133131
849.989	0.0132704
850.068	0.0134400
850.146	0.0134658
850.224	0.0134453
850.302	0.0135800
850.380	0.0135278
850.458	0.0134294
850.536	0.0135316
850.614	0.0134476
850.693	0.0136003
850.771	0.0134921
850.849	0.0135522
850.927	0.0136125
851.005	0.0135399
851.083	0.0135538
851.161	0.0135268
851.239	0.0134187
851.318	0.0133661
851.396	0.0134470
851.474	0.0135194
851.552	0.0134610
851.630	0.0134249
851.708	0.0134640
851.786	0.0133630
851.864	0.0133320
851.943	0.0134194
852.021	0.0135504
852.099	0.0135715
852.177	0.0135046
852.255	0.0135374
852.333	0.0135837
852.411	0.0136283
852.489	0.0135715
852.568	0.0135426
852.646	0.0135856
852.724	0.0134757
852.802	0.0136932
852.880	0.0136173
852.958	0.0137008
853.036	0.0136037
853.114	0.0135860
853.193	0.0137059
853.271	0.0136868
853.349	0.0135933
853.427	0.0136211
853.505	0.0135442
853.583	0.0135503
853.661	0.0137148
853.739	0.0135030
853.818	0.0137572
853.896	0.0137125
853.974	0.0134061
854.052	0.0134892
854.130	0.0135645
854.208	0.0135990
854.286	0.0136731
854.364	0.0135855
854.443	0.0134972
854.521	0.0135291
854.599	0.0136082
854.677	0.0134837
854.755	0.0135138
854.833	0.0135768
854.911	0.0135578
854.989	0.0134663
855.068	0.0134107
855.146	0.0135311
855.224	0.0134899
855.302	0.0133348
855.380	0.0134257
855.458	0.0134794
855.536	0.0134601
855.614	0.0133980
855.693	0.0133079
855.771	0.0135968
855.849	0.0133967
855.927	0.0135127
856.005	0.0134921
856.083	0.0135752
856.161	0.0135961
856.239	0.0134828
856.318	0.0135992
856.396	0.0137480
856.474	0.0135689
856.552	0.0136908
856.630	0.0135046
856.708	0.0134588
856.786	0.0135810
856.864	0.0136095
856.943	0.0134716
857.021	0.0136194
857.099	0.0136066
857.177	0.0134831
857.255	0.0135059
857.333	0.0136206
857.411	0.0135651
857.489	0.0135762
857.568	0.0134303
857.646	0.0132574
857.724	0.0133656
857.802	0.0133835
857.880	0.0133812
857.958	0.0134975
858.036	0.0133627
858.114	0.0133366
858.193	0.0134325
858.271	0.0134647
858.349	0.0135865
858.427	0.0134815
858.505	0.0133708
858.583	0.0134843
858.661	0.0135692
858.739	0.0133960
858.818	0.0135944
858.896	0.0136459
858.974	0.0134158
859.052	0.0135356
859.130	0.0135973
859.208	0.0135596
859.286	0.0135989
859.364	0.0136833
859.443	0.0137722
859.521	0.0135925
859.599	0.0135323
859.677	0.0136439
859.755	0.0136199
859.833	0.0135825
859.911	0.0137185
859.989	0.0135440
860.068	0.0135403
860.146	0.0136131
860.224	0.0135677
860.302	0.0136196
860.380	0.0135009
860.458	0.0134837
860.536	0.0135765
860.614	0.0135434
860.693	0.0135281
860.771	0.0134840
860.849	0.0135065
860.927	0.0135339
861.005	0.0135658
861.083	0.0135658
861.161	0.0136286
861.239	0.0135201
861.318	0.0134913
861.396	0.0135823
861.474	0.0135198
861.552	0.0134748
861.630	0.0134697
861.708	0.0134805
861.786	0.0134457
861.864	0.0134731
861.943	0.0133997
862.021	0.0133240
862.099	0.0132039
862.177	0.0133533
862.255	0.0133424
862.333	0.0132542
862.411	0.0132800
862.489	0.0133128
862.568	0.0133080
862.646	0.0133173
862.724	0.0132658
862.802	0.0133324
862.880	0.0133618
862.958	0.0134499
863.036	0.0134833
863.114	0.0135278
863.193	0.0135229
863.271	0.0135371
863.349	0.0135601
863.427	0.0134739
863.505	0.0134979
863.583	0.0136644
863.661	0.0135568
863.739	0.0134485
863.818	0.0135588
863.896	0.0135615
863.974	0.0134406
864.052	0.0135416
864.130	0.0135699
864.208	0.0134461
864.286	0.0134450
864.364	0.0134373
864.443	0.0133642
864.521	0.0133759
864.599	0.0135239
864.677	0.0135345
864.755	0.0134617
864.833	0.0133916
864.911	0.0134714
864.989	0.0135667
865.068	0.0135912
865.146	0.0135125
865.224	0.0134738
865.302	0.0136161
865.380	0.0137709
865.458	0.0136288
865.536	0.0136175
865.614	0.0136063
865.693	0.0137180
865.771	0.0135996
865.849	0.0137474
865.927	0.0137965
866.005	0.0136813
866.083	0.0136620
866.161	0.0137841
866.239	0.0136784
866.318	0.0136153
866.396	0.0137016
866.474	0.0136852
866.552	0.0136848
866.630	0.0136423
866.708	0.0136866
866.786	0.0137167
866.864	0.0136071
866.943	0.0138050
867.021	0.0137144
867.099	0.0136354
867.177	0.0135827
867.255	0.0135325
867.333	0.0134454
867.411	0.0135569
867.489	0.0134392
867.568	0.0134924
867.646	0.0135575
867.724	0.0133696
867.802	0.0134263
867.880	0.0134100
867.958	0.0132887
868.036	0.0134241
868.114	0.0133588
868.193	0.0133113
868.271	0.0133495
868.349	0.0133746
868.427	0.0132557
868.505	0.0133598
868.583	0.0134789
868.661	0.0134253
868.739	0.0133199
868.818	0.0132893
868.896	0.0134003
868.974	0.0133608
869.052	0.0133327
869.130	0.0134347
869.208	0.0133475
869.286	0.0133681
869.364	0.0134528
869.443	0.0134733
869.521	0.0135541
869.599	0.0134753
869.677	0.0135393
869.755	0.0134115
869.833	0.0136327
869.911	0.0134605
869.989	0.0134809
870.068	0.0135680
870.146	0.0133860
870.224	0.0134235
870.302	0.0135599
870.380	0.0135143
870.458	0.0134132
870.536	0.0135070
870.614	0.0134818
870.693	0.0134866
870.771	0.0135612
870.849	0.0136671
870.927	0.0135956
871.005	0.0134930
871.083	0.0137638
871.161	0.0137103
871.239	0.0137064
871.318	0.0136667
871.396	0.0135227
871.474	0.0135213
871.552	0.0137514
871.630	0.0138127
871.708	0.0136806
871.786	0.0136749
871.864	0.0137894
871.943	0.0136626
872.021	0.0136441
872.099	0.0136305
872.177	0.0137917
872.255	0.0137005
872.333	0.0137912
872.411	0.0137128
872.489	0.0137106
872.568	0.0136398
872.646	0.0137756
872.724	0.0137232
872.802	0.0137954
872.880	0.0137666
872.958	0.0136618
873.036	0.0137814
873.114	0.0136492
873.193	0.0136375
873.271	0.0136885
873.349	0.0135983
873.427	0.0136073
873.505	0.0135271
873.583	0.0133177
873.661	0.0134362
873.739	0.0135410
873.818	0.0133577
873.896	0.0133177
873.974	0.0132398
874.052	0.0131403
874.130	0.0133302
874.208	0.0131924
874.286	0.0133613
874.364	0.0132720
874.443	0.0131928
874.521	0.0132105
874.599	0.0131145
874.677	0.0131686
874.755	0.0132290
874.833	0.0133567
874.911	0.0130876
874.989	0.0132239
875.068	0.0131604
875.146	0.0133498
875.224	0.0133126
875.302	0.0133302
875.380	0.0134110
875.458	0.0134569
875.536	0.0135301
875.614	0.0135175
875.693	0.0135715
875.771	0.0134612
875.849	0.0135143
875.927	0.0134825
876.005	0.0135613
876.083	0.0137047
876.161	0.0135669
876.239	0.0135800
876.318	0.0136118
876.396	0.0135642
876.474	0.0137126
876.552	0.0136198
876.630	0.0136575
876.708	0.0135670
876.786	0.0135709
876.864	0.0136247
876.943	0.0135235
877.021	0.0134801
877.099	0.0134715
877.177	0.0135332
877.255	0.0135361
877.333	0.0134464
877.411	0.0135146
877.489	0.0134647
877.568	0.0135272
877.646	0.0134842
877.724	0.0135348
877.802	0.0134424
877.880	0.0135458
877.958	0.0135278
878.036	0.0135287
878.114	0.0135031
878.193	0.0134958
878.271	0.0135162
878.349	0.0135213
878.427	0.0135569
878.505	0.0136068
878.583	0.0135560
878.661	0.0135400
878.739	0.0136966
878.818	0.0135591
878.896	0.0135559
878.974	0.0134528
879.052	0.0134553
879.130	0.0135812
879.208	0.0135862
879.286	0.0135578
879.364	0.0133454
879.443	0.0134882
879.521	0.0135434
879.599	0.0134541
879.677	0.0135399
879.755	0.0135415
879.833	0.0134309
879.911	0.0135068
879.989	0.0136510
880.068	0.0135213
880.146	0.0135829
880.224	0.0133174
880.302	0.0133867
880.380	0.0135760
880.458	0.0134393
880.536	0.0135552
880.614	0.0135787
880.693	0.0135934
880.771	0.0135620
880.849	0.0134980
880.927	0.0134676
881.005	0.0134547
881.083	0.0133372
881.161	0.0133904
881.239	0.0133808
881.318	0.0133543
881.396	0.0131451
881.474	0.0133259
881.552	0.0132336
881.630	0.0132743
881.708	0.0132156
881.786	0.0132416
881.864	0.0131844
881.943	0.0133143
882.021	0.0134123
882.099	0.0132668
882.177	0.0133131
882.255	0.0132667
882.333	0.0134023
882.411	0.0134928
882.489	0.0132783
882.568	0.0134058
882.646	0.0135037
882.724	0.0135530
882.802	0.0137269
882.880	0.0135769
882.958	0.0136896
883.036	0.0137625
883.114	0.0137759
883.193	0.0137862
883.271	0.0137464
883.349	0.0138260
883.427	0.0137151
883.505	0.0138023
883.583	0.0137099
883.661	0.0136482
883.739	0.0136949
883.818	0.0135901
883.896	0.0135117
883.974	0.0134451
884.052	0.0133398
884.130	0.0134274
884.208	0.0135219
884.286	0.0133953
884.364	0.0134867
884.443	0.0134222
884.521	0.0135128
884.599	0.0135066
884.677	0.0136408
884.755	0.0136676
884.833	0.0136515
884.911	0.0137256
884.989	0.0135814
885.068	0.0137868
885.146	0.0137427
885.224	0.0137409
885.302	0.0137823
885.380	0.0137267
885.458	0.0137182
885.536	0.0135773
885.614	0.0134756
885.693	0.0132313
885.771	0.0131702
885.849	0.0131518
885.927	0.0130120
886.005	0.0130264
886.083	0.0129385
886.161	0.0129610
886.239	0.0128818
886.318	0.0128351
886.396	0.0129052
886.474	0.0129410
886.552	0.0130690
886.630	0.0131905
886.708	0.0132702
886.786	0.0133667
886.864	0.0134227
886.943	0.0134593
887.021	0.0136147
887.099	0.0136844
887.177	0.0137636
887.255	0.0137351
887.333	0.0136773
887.411	0.0138610
887.489	0.0137174
887.568	0.0135461
887.646	0.0135858
887.724	0.0135724
887.802	0.0132584
887.880	0.0133434
887.958	0.0132881
888.036	0.0133353
888.114	0.0133192
888.193	0.0131657
888.271	0.0131027
888.349	0.0131906
888.427	0.0132523
888.505	0.0132011
888.583	0.0131296
888.661	0.0130991
888.739	0.0132342
888.818	0.0131738
888.896	0.0131467
888.974	0.0132899
889.052	0.0133523
889.130	0.0133016
889.208	0.0134132
889.286	0.0136069
889.364	0.0136318
889.443	0.0136504
889.521	0.0135823
889.599	0.0136874
889.677	0.0137143
889.755	0.0136928
889.833	0.0137036
889.911	0.0138454
889.989	0.0137914
890.068	0.0137404
890.146	0.0137669
890.224	0.0136465
890.302	0.0136207
890.380	0.0137865
890.458	0.0136024
890.536	0.0135634
890.614	0.0135359
890.693	0.0133701
890.771	0.0132961
890.849	0.0133784
890.927	0.0134222
891.005	0.0134007
891.083	0.0134513
891.161	0.0133482
891.239	0.0134037
891.318	0.0134134
891.396	0.0132837
891.474	0.0134032
891.552	0.0134518
891.630	0.0136384
891.708	0.0135442
891.786	0.0135568
891.864	0.0135983
891.943	0.0136050
892.021	0.0135736
892.099	0.0137481
892.177	0.0135872
892.255	0.0135717
892.333	0.0135983
892.411	0.0135856
892.489	0.0134759
892.568	0.0133924
892.646	0.0134441
892.724	0.0133934
892.802	0.0133258
892.880	0.0133141
892.958	0.0132800
893.036	0.0133605
893.114	0.0133519
893.193	0.0133468
893.271	0.0132838
893.349	0.0134628
893.427	0.0135555
893.505	0.0133536
893.583	0.0133652
893.661	0.0133892
893.739	0.0133898
893.818	0.0135590
893.896	0.0134646
893.974	0.0135266
894.052	0.0135916
894.130	0.0135197
894.208	0.0137182
894.286	0.0137448
894.364	0.0135886
894.443	0.0134184
894.521	0.0135702
894.599	0.0136298
894.677	0.0137035
894.755	0.0137108
894.833	0.0136634
894.911	0.0137473
894.989	0.0136643
895.068	0.0135204
895.146	0.0135917
895.224	0.0136765
895.302	0.0135165
895.380	0.0134095
895.458	0.0134429
895.536	0.0135095
895.614	0.0134035
895.693	0.0133298
895.771	0.0134299
895.849	0.0133811
895.927	0.0134211
896.005	0.0134799
896.083	0.0132738
896.161	0.0134237
896.239	0.0132440
896.318	0.0133715
896.396	0.0134504
896.474	0.0133465
896.552	0.0132812
896.630	0.0134313
896.708	0.0134822
896.786	0.0135551
896.864	0.0135735
896.943	0.0135088
897.021	0.0135466
897.099	0.0135590
897.177	0.0134425
897.255	0.0134901
897.333	0.0134129
897.411	0.0134007
897.489	0.0134840
897.568	0.0134924
897.646	0.0135086
897.724	0.0133485
897.802	0.0134332
897.880	0.0134952
897.958	0.0133017
898.036	0.0133045
898.114	0.0133542
898.193	0.0132559
898.271	0.0133784
898.349	0.0132359
898.427	0.0132874
898.505	0.0130574
898.583	0.0132327
898.661	0.0132185
898.739	0.0133617
898.818	0.0132564
898.896	0.0133204
898.974	0.0134099
899.052	0.0133387
899.130	0.0133411
899.208	0.0134286
899.286	0.0135812
899.364	0.0133786
899.443	0.0135274
899.521	0.0136423
899.599	0.0135899
899.677	0.0136742
899.755	0.0137337
899.833	0.0138004
899.911	0.0137347
899.989	0.0136784
900.068	0.0136428
900.146	0.0136933
900.224	0.0137630
900.302	0.0135817
900.380	0.0135575
900.458	0.0135578
900.536	0.0136045
900.614	0.0134547
900.693	0.0134800
900.771	0.0134389
900.849	0.0133818
900.927	0.0132494
901.005	0.0132123
901.083	0.0133789
901.161	0.0131394
901.239	0.0133458
901.318	0.0133114
901.396	0.0133074
901.474	0.0133475
901.552	0.0133631
901.630	0.0133283
901.708	0.0132782
901.786	0.0133717
901.864	0.0134614
901.943	0.0134523
902.021	0.0136136
902.099	0.0134657
902.177	0.0136247
902.255	0.0134879
902.333	0.0136611
902.411	0.0135980
902.489	0.0138054
902.568	0.0137441
902.646	0.0137220
902.724	0.0136771
902.802	0.0135075
902.880	0.0136435
902.958	0.0135741
903.036	0.0133997
903.114	0.0134689
903.193	0.0135877
903.271	0.0135111
903.349	0.0135294
903.427	0.0135001
903.505	0.0135278
903.583	0.0136815
903.661	0.0137067
903.739	0.0137016
903.818	0.0138023
903.896	0.0138023
903.974	0.0137835
904.052	0.0135841
904.130	0.0137266
904.208	0.0136942
904.286	0.0136121
904.364	0.0135661
904.443	0.0136504
904.521	0.0136217
904.599	0.0135150
904.677	0.0133922
904.755	0.0133784
904.833	0.0132076
904.911	0.0130586
904.989	0.0129748
905.068	0.0130722
905.146	0.0131226
905.224	0.0130517
905.302	0.0130819
905.380	0.0130704
905.458	0.0129989
905.536	0.0130720
905.614	0.0132309
905.693	0.0131535
905.771	0.0131464
905.849	0.0133022
905.927	0.0132899
906.005	0.0133754
906.083	0.0135366
906.161	0.0137310
906.239	0.0136766
906.318	0.0138108
906.396	0.0137916
906.474	0.0140313
906.552	0.0138519
906.630	0.0139751
906.708	0.0139936
906.786	0.0138710
906.864	0.0139022
906.943	0.0137583
907.021	0.0138255
907.099	0.0137931
907.177	0.0137821
907.255	0.0134776
907.333	0.0135223
907.411	0.0135339
907.489	0.0134463
907.568	0.0133105
907.646	0.0133929
907.724	0.0134448
907.802	0.0131934
907.880	0.0133577
907.958	0.0134867
908.036	0.0133533
908.114	0.0133620
908.193	0.0132988
908.271	0.0133436
908.349	0.0134464
908.427	0.0135394
908.505	0.0134059
908.583	0.0135081
908.661	0.0134314
908.739	0.0134692
908.818	0.0134495
908.896	0.0135979
908.974	0.0136149
909.052	0.0134283
909.130	0.0135605
909.208	0.0135480
909.286	0.0134296
909.364	0.0132800
909.443	0.0131564
909.521	0.0132417
909.599	0.0133318
909.677	0.0131766
909.755	0.0132996
909.833	0.0131815
909.911	0.0132716
909.989	0.0131814
910.068	0.0130922
910.146	0.0132571
910.224	0.0133081
910.302	0.0132880
910.380	0.0133105
910.458	0.0133913
910.536	0.0133477
910.614	0.0132944
910.693	0.0133727
910.771	0.0133968
910.849	0.0133434
910.927	0.0135273
911.005	0.0134979
911.083	0.0134131
911.161	0.0135152
911.239	0.0136546
911.318	0.0134741
911.396	0.0134425
911.474	0.0134049
911.552	0.0134341
911.630	0.0135051
911.708	0.0133762
911.786	0.0133681
911.864	0.0133215
911.943	0.0132484
912.021	0.0133444
912.099	0.0134126
912.177	0.0133504
912.255	0.0133179
912.333	0.0133533
912.411	0.0133479
912.489	0.0133903
912.568	0.0133762
912.646	0.0134184
912.724	0.0134177
912.802	0.0134538
912.880	0.0135251
912.958	0.0135983
913.036	0.0134526
913.114	0.0135269
913.193	0.0134971
913.271	0.0134550
913.349	0.0136340
913.427	0.0137552
913.505	0.0136707
913.583	0.0136303
913.661	0.0135839
913.739	0.0136627
913.818	0.0138580
913.896	0.0137006
913.974	0.0137531
914.052	0.0136700
914.130	0.0136336
914.208	0.0138360
914.286	0.0137534
914.364	0.0136993
914.443	0.0136621
914.521	0.0134573
914.599	0.0134367
914.677	0.0134705
914.755	0.0134614
914.833	0.0133601
914.911	0.0132672
914.989	0.0133079
915.068	0.0131300
915.146	0.0129878
915.224	0.0130897
915.302	0.0131499
915.380	0.0131988
915.458	0.0131119
915.536	0.0131084
915.614	0.0130812
915.693	0.0131094
915.771	0.0131812
915.849	0.0131075
915.927	0.0131963
916.005	0.0130272
916.083	0.0132579
916.161	0.0132761
916.239	0.0133218
916.318	0.0134856
916.396	0.0135107
916.474	0.0135311
916.552	0.0135699
916.630	0.0135561
916.708	0.0136094
916.786	0.0136070
916.864	0.0137300
916.943	0.0137645
917.021	0.0136515
917.099	0.0137441
917.177	0.0137540
917.255	0.0136691
917.333	0.0137492
917.411	0.0137875
917.489	0.0137841
917.568	0.0136788
917.646	0.0135327
917.724	0.0136721
917.802	0.0136336
917.880	0.0135744
917.958	0.0136028
918.036	0.0134840
918.114	0.0136039
918.193	0.0134760
918.271	0.0134805
918.349	0.0134282
918.427	0.0134900
918.505	0.0133537
918.583	0.0133080
918.661	0.0133617
918.739	0.0136337
918.818	0.0135256
918.896	0.0134342
918.974	0.0134763
919.052	0.0134739
919.130	0.0134458
919.208	0.0133456
919.286	0.0134372
919.364	0.0134945
919.443	0.0135222
919.521	0.0134724
919.599	0.0134264
919.677	0.0136137
919.755	0.0135719
919.833	0.0134439
919.911	0.0135010
919.989	0.0136138
920.068	0.0136459
920.146	0.0134143
920.224	0.0134701
920.302	0.0136016
920.380	0.0136305
920.458	0.0136528
920.536	0.0137176
920.614	0.0135735
920.693	0.0134657
920.771	0.0134415
920.849	0.0133914
920.927	0.0136435
921.005	0.0134896
921.083	0.0135423
921.161	0.0134957
921.239	0.0135664
921.318	0.0135203
921.396	0.0135622
921.474	0.0133383
921.552	0.0132587
921.630	0.0135370
921.708	0.0134658
921.786	0.0132761
921.864	0.0133152
921.943	0.0133794
922.021	0.0133905
922.099	0.0135112
922.177	0.0134235
922.255	0.0133221
922.333	0.0134582
922.411	0.0133839
922.489	0.0134046
922.568	0.0135505
922.646	0.0135390
922.724	0.0135236
922.802	0.0135534
922.880	0.0136314
922.958	0.0135931
923.036	0.0134924
923.114	0.0136041
923.193	0.0136314
923.271	0.0135727
923.349	0.0135538
923.427	0.0135943
923.505	0.0137767
923.583	0.0137082
923.661	0.0135021
923.739	0.0136829
923.818	0.0135616
923.896	0.0134703
923.974	0.0136501
924.052	0.0137132
924.130	0.0135598
924.208	0.0136197
924.286	0.0136087
924.364	0.0135960
924.443	0.0134620
924.521	0.0136556
924.599	0.0134556
924.677	0.0136118
924.755	0.0134821
924.833	0.0134916
924.911	0.0135599
924.989	0.0135390
925.068	0.0134344
925.146	0.0135291
925.224	0.0135598
925.302	0.0135112
925.380	0.0134762
925.458	0.0134193
925.536	0.0134135
925.614	0.0134187
925.693	0.0133614
925.771	0.0133035
925.849	0.0134158
925.927	0.0135887
926.005	0.0133356
926.083	0.0133478
926.161	0.0133859
926.239	0.0134515
926.318	0.0132729
926.396	0.0132871
926.474	0.0133926
926.552	0.0132159
926.630	0.0133058
926.708	0.0134178
926.786	0.0134046
926.864	0.0134208
926.943	0.0133309
927.021	0.0133450
927.099	0.0134459
927.177	0.0133932
927.255	0.0134837
927.333	0.0135648
927.411	0.0134448
927.489	0.0135821
927.568	0.0135770
927.646	0.0135679
927.724	0.0135150
927.802	0.0135433
927.880	0.0136534
927.958	0.0136582
928.036	0.0137460
928.114	0.0136996
928.193	0.0135649
928.271	0.0136913
928.349	0.0138211
928.427	0.0136934
928.505	0.0135072
928.583	0.0135188
928.661	0.0135967
928.739	0.0135905
928.818	0.0134693
928.896	0.0135448
928.974	0.0136336
929.052	0.0134418
929.130	0.0134326
929.208	0.0133649
929.286	0.0134047
929.364	0.0133974
929.443	0.0133022
929.521	0.0134720
929.599	0.0134653
929.677	0.0134029
929.755	0.0133891
929.833	0.0133882
929.911	0.0134081
929.989	0.0134505
930.068	0.0133840
930.146	0.0134946
930.224	0.0133865
930.302	0.0133723
930.380	0.0134312
930.458	0.0135483
930.536	0.0133833
930.614	0.0133929
930.693	0.0134772
930.771	0.0134191
930.849	0.0133908
930.927	0.0134760
931.005	0.0134055
931.083	0.0134040
931.161	0.0134283
931.239	0.0134240
931.318	0.0134227
931.396	0.0134211
931.474	0.0134347
931.552	0.0134670
931.630	0.0133552
931.708	0.0134503
931.786	0.0134821
931.864	0.0133936
931.943	0.0134143
932.021	0.0133603
932.099	0.0135197
932.177	0.0136452
932.255	0.0135420
932.333	0.0134509
932.411	0.0135293
932.489	0.0135857
932.568	0.0135557
932.646	0.0134663
932.724	0.0136095
932.802	0.0136759
932.880	0.0136703
932.958	0.0135918
933.036	0.0137135
933.114	0.0136971
933.193	0.0136487
933.271	0.0136548
933.349	0.0135799
933.427	0.0135675
933.505	0.0137811
933.583	0.0135921
933.661	0.0134451
933.739	0.0135842
933.818	0.0136417
933.896	0.0134595
933.974	0.0133186
934.052	0.0135056
934.130	0.0135213
934.208	0.0136352
934.286	0.0135697
934.364	0.0134792
934.443	0.0133914
934.521	0.0134720
934.599	0.0134905
934.677	0.0136637
934.755	0.0135748
934.833	0.0134558
934.911	0.0134778
934.989	0.0134715
935.068	0.0135181
935.146	0.0135462
935.224	0.0135500
935.302	0.0135727
935.380	0.0136084
935.458	0.0134198
935.536	0.0134670
935.614	0.0135307
935.693	0.0135551
935.771	0.0135156
935.849	0.0134563
935.927	0.0134126
936.005	0.0135706
936.083	0.0135147
936.161	0.0134576
936.239	0.0136292
936.318	0.0134967
936.396	0.0133980
936.474	0.0133457
936.552	0.0132842
936.630	0.0133863
936.708	0.0134719
936.786	0.0135413
936.864	0.0135092
936.943	0.0135148
937.021	0.0134480
937.099	0.0135536
937.177	0.0134630
937.255	0.0136131
937.333	0.0137010
937.411	0.0135548
937.489	0.0136787
937.568	0.0136993
937.646	0.0137767
937.724	0.0135148
937.802	0.0137004
937.880	0.0134673
937.958	0.0134358
938.036	0.0135944
938.114	0.0135043
938.193	0.0133002
938.271	0.0133856
938.349	0.0133707
938.427	0.0134879
938.505	0.0135340
938.583	0.0134090
938.661	0.0132410
938.739	0.0133236
938.818	0.0134140
938.896	0.0134087
938.974	0.0134364
939.052	0.0133926
939.130	0.0132658
939.208	0.0135459
939.286	0.0134249
939.364	0.0133701
939.443	0.0134457
939.521	0.0135142
939.599	0.0134785
939.677	0.0135497
939.755	0.0135139
939.833	0.0136352
939.911	0.0136629
939.989	0.0134897
940.068	0.0135095
940.146	0.0135171
940.224	0.0133965
940.302	0.0135989
940.380	0.0135098
940.458	0.0134959
940.536	0.0136153
940.614	0.0134946
940.693	0.0135841
940.771	0.0134441
940.849	0.0133363
940.927	0.0134641
941.005	0.0136154
941.083	0.0137466
941.161	0.0135316
941.239	0.0134951
941.318	0.0135738
941.396	0.0135962
941.474	0.0135397
941.552	0.0135851
941.630	0.0135851
941.708	0.0135771
941.786	0.0136549
941.864	0.0136534
941.943	0.0135397
942.021	0.0137674
942.099	0.0134860
942.177	0.0137035
942.255	0.0135577
942.333	0.0134364
942.411	0.0134842
942.489	0.0135108
942.568	0.0135157
942.646	0.0134896
942.724	0.0134507
942.802	0.0133989
942.880	0.0134390
942.958	0.0136849
943.036	0.0134768
943.114	0.0133475
943.193	0.0134332
943.271	0.0135142
943.349	0.0135767
943.427	0.0135044
943.505	0.0135659
943.583	0.0134991
943.661	0.0135363
943.739	0.0135186
943.818	0.0136005
943.896	0.0133661
943.974	0.0134309
944.052	0.0135625
944.130	0.0134315
944.208	0.0133140
944.286	0.0134254
944.364	0.0134550
944.443	0.0134783
944.521	0.0132256
944.599	0.0133982
944.677	0.0133212
944.755	0.0132883
944.833	0.0134408
944.911	0.0134332
944.989	0.0133546
945.068	0.0134908
945.146	0.0135230
945.224	0.0133942
945.302	0.0135010
945.380	0.0136057
945.458	0.0135780
945.536	0.0135236
945.614	0.0137257
945.693	0.0136213
945.771	0.0137901
945.849	0.0136204
945.927	0.0137415
946.005	0.0137170
946.083	0.0137137
946.161	0.0137064
946.239	0.0137095
946.318	0.0138406
946.396	0.0136876
946.474	0.0136520
946.552	0.0136488
946.630	0.0135667
946.708	0.0136392
946.786	0.0135708
946.864	0.0135532
946.943	0.0135287
947.021	0.0135664
947.099	0.0135121
947.177	0.0133846
947.255	0.0135702
947.333	0.0135904
947.411	0.0135078
947.489	0.0136253
947.568	0.0135450
947.646	0.0136543
947.724	0.0135415
947.802	0.0135456
947.880	0.0135847
947.958	0.0135847
948.036	0.0135429
948.114	0.0135560
948.193	0.0136110
948.271	0.0134615
948.349	0.0135921
948.427	0.0135215
948.505	0.0135790
948.583	0.0135484
948.661	0.0135398
948.739	0.0134434
948.818	0.0135339
948.896	0.0135529
948.974	0.0134396
949.052	0.0134859
949.130	0.0134219
949.208	0.0135046
949.286	0.0134960
949.364	0.0135250
949.443	0.0134225
949.521	0.0135194
949.599	0.0135448
949.677	0.0135123
949.755	0.0135413
949.833	0.0135677
949.911	0.0133760
949.989	0.0133912
950.068	0.0136234
950.146	0.0135955
950.224	0.0134612
950.302	0.0136406
950.380	0.0136520
950.458	0.0135293
950.536	0.0134676
950.614	0.0136850
950.693	0.0135667
950.771	0.0135228
950.849	0.0135815
950.927	0.0135767
951.005	0.0134651
951.083	0.0135455
951.161	0.0135622
951.239	0.0135365
951.318	0.0134669
951.396	0.0136663
951.474	0.0136280
951.552	0.0136151
951.630	0.0136459
951.708	0.0135093
951.786	0.0134925
951.864	0.0134902
951.943	0.0133645
952.021	0.0135548
952.099	0.0134674
952.177	0.0135718
952.255	0.0136990
952.333	0.0134441
952.411	0.0134304
952.489	0.0136366
952.568	0.0135351
952.646	0.0134015
952.724	0.0133959
952.802	0.0135110
952.880	0.0135118
952.958	0.0135535
953.036	0.0135304
953.114	0.0135332
953.193	0.0134904
953.271	0.0135334
953.349	0.0135934
953.427	0.0134523
953.505	0.0135753
953.583	0.0135580
953.661	0.0133476
953.739	0.0135250
953.818	0.0134960
953.896	0.0134870
953.974	0.0135229
954.052	0.0134135
954.130	0.0134272
954.208	0.0135461
954.286	0.0135197
954.364	0.0136289
954.443	0.0135104
954.521	0.0135572
954.599	0.0136072
954.677	0.0135795
954.755	0.0135578
954.833	0.0134856
954.911	0.0136374
954.989	0.0136819
955.068	0.0134701
955.146	0.0135402
955.224	0.0134318
955.302	0.0136139
955.380	0.0135873
955.458	0.0135962
955.536	0.0133766
955.614	0.0134589
955.693	0.0134891
955.771	0.0136040
955.849	0.0135205
955.927	0.0134444
956.005	0.0134720
956.083	0.0136149
956.161	0.0135047
956.239	0.0136488
956.318	0.0136649
956.396	0.0136604
956.474	0.0135048
956.552	0.0134252
956.630	0.0135033
956.708	0.0134725
956.786	0.0137283
956.864	0.0137907
956.943	0.0138308
957.021	0.0136104
957.099	0.0135323
957.177	0.0136385
957.255	0.0135987
957.333	0.0136866
957.411	0.0135763
957.489	0.0135796
957.568	0.0135267
957.646	0.0134831
957.724	0.0135612
957.802	0.0134876
957.880	0.0134559
957.958	0.0133457
958.036	0.0134520
958.114	0.0133611
958.193	0.0134165
958.271	0.0133269
958.349	0.0134898
958.427	0.0134180
958.505	0.0135191
958.583	0.0135135
958.661	0.0134084
958.739	0.0134074
958.818	0.0135292
958.896	0.0134933
958.974	0.0133981
959.052	0.0134940
959.130	0.0133804
959.208	0.0134460
959.286	0.0135172
959.364	0.0133488
959.443	0.0134132
959.521	0.0134592
959.599	0.0135248
959.677	0.0134956
959.755	0.0135756
959.833	0.0135682
959.911	0.0134580
