05/14/2022	16:55:22	Ver.	4.1	UNKNOWN
Optical Delay	639.989416	Delta X		0.078125	Sweeps	1	Scan Rate	0/0
Coordinates	Axis 1	NaN	Axis 2	NaN	Axis 3	NaN	Axis 4	NaN	Axis 5	NaN	Axis 6	0.000000
TX Power	0.000000	RX Power	0.000000

639.989	0.0149068
640.068	0.0149062
640.146	0.0149394
640.224	0.0148454
640.302	0.0148507
640.380	0.0148744
640.458	0.0148881
640.536	0.0149316
640.614	0.0149281
640.693	0.0150006
640.771	0.0150838
640.849	0.0149264
640.927	0.0148625
641.005	0.0148708
641.083	0.0149229
641.161	0.0148239
641.239	0.0150535
641.318	0.0148199
641.396	0.0147617
641.474	0.0147794
641.552	0.0148347
641.630	0.0148349
641.708	0.0149837
641.786	0.0149848
641.864	0.0149417
641.943	0.0148190
642.021	0.0149071
642.099	0.0149995
642.177	0.0150999
642.255	0.0150462
642.333	0.0149951
642.411	0.0149377
642.489	0.0150381
642.568	0.0149570
642.646	0.0149220
642.724	0.0149614
642.802	0.0149934
642.880	0.0149644
642.958	0.0149736
643.036	0.0150545
643.114	0.0150552
643.193	0.0147805
643.271	0.0150179
643.349	0.0150362
643.427	0.0149063
643.505	0.0148209
643.583	0.0149222
643.661	0.0150466
643.739	0.0149513
643.818	0.0148970
643.896	0.0149780
643.974	0.0151577
644.052	0.0151552
644.130	0.0150217
644.208	0.0148998
644.286	0.0148935
644.364	0.0151474
644.443	0.0149625
644.521	0.0149751
644.599	0.0152374
644.677	0.0149705
644.755	0.0150816
644.833	0.0150520
644.911	0.0149104
644.989	0.0151868
645.068	0.0151443
645.146	0.0149647
645.224	0.0149042
645.302	0.0150480
645.380	0.0150539
645.458	0.0149920
645.536	0.0151448
645.614	0.0150610
645.693	0.0151096
645.771	0.0151923
645.849	0.0151227
645.927	0.0150613
646.005	0.0150474
646.083	0.0150117
646.161	0.0151414
646.239	0.0152032
646.318	0.0149771
646.396	0.0149978
646.474	0.0149186
646.552	0.0150851
646.630	0.0150289
646.708	0.0149718
646.786	0.0150271
646.864	0.0150275
646.943	0.0149820
647.021	0.0149132
647.099	0.0150233
647.177	0.0149897
647.255	0.0149619
647.333	0.0149545
647.411	0.0148711
647.489	0.0148981
647.568	0.0150054
647.646	0.0150043
647.724	0.0150172
647.802	0.0149267
647.880	0.0148964
647.958	0.0149968
648.036	0.0150895
648.114	0.0149971
648.193	0.0149390
648.271	0.0150485
648.349	0.0149688
648.427	0.0148481
648.505	0.0149081
648.583	0.0148341
648.661	0.0148987
648.739	0.0149127
648.818	0.0150323
648.896	0.0148499
648.974	0.0148550
649.052	0.0149166
649.130	0.0149915
649.208	0.0150282
649.286	0.0148544
649.364	0.0147516
649.443	0.0148825
649.521	0.0148836
649.599	0.0149891
649.677	0.0150398
649.755	0.0150230
649.833	0.0148245
649.911	0.0149145
649.989	0.0148003
650.068	0.0149497
650.146	0.0148854
650.224	0.0149615
650.302	0.0149906
650.380	0.0148578
650.458	0.0149112
650.536	0.0149003
650.614	0.0149948
650.693	0.0149077
650.771	0.0148731
650.849	0.0149681
650.927	0.0149985
651.005	0.0149429
651.083	0.0149496
651.161	0.0149668
651.239	0.0148605
651.318	0.0149259
651.396	0.0150030
651.474	0.0149400
651.552	0.0149824
651.630	0.0150833
651.708	0.0150263
651.786	0.0149949
651.864	0.0149510
651.943	0.0150265
652.021	0.0149914
652.099	0.0151247
652.177	0.0149113
652.255	0.0148920
652.333	0.0149886
652.411	0.0150070
652.489	0.0150072
652.568	0.0149421
652.646	0.0149870
652.724	0.0150130
652.802	0.0149081
652.880	0.0149503
652.958	0.0149312
653.036	0.0151089
653.114	0.0150800
653.193	0.0149542
653.271	0.0149521
653.349	0.0149825
653.427	0.0149234
653.505	0.0149339
653.583	0.0150259
653.661	0.0148756
653.739	0.0150412
653.818	0.0149952
653.896	0.0149721
653.974	0.0151163
654.052	0.0150465
654.130	0.0149905
654.208	0.0150714
654.286	0.0149938
654.364	0.0151605
654.443	0.0151022
654.521	0.0148322
654.599	0.0149355
654.677	0.0149696
654.755	0.0149661
654.833	0.0150704
654.911	0.0149603
654.989	0.0150577
655.068	0.0150870
655.146	0.0150910
655.224	0.0148740
655.302	0.0149420
655.380	0.0149983
655.458	0.0150050
655.536	0.0151345
655.614	0.0150344
655.693	0.0148771
655.771	0.0149523
655.849	0.0149785
655.927	0.0150936
656.005	0.0150374
656.083	0.0148983
656.161	0.0150182
656.239	0.0149297
656.318	0.0149082
656.396	0.0150527
656.474	0.0150536
656.552	0.0151009
656.630	0.0149308
656.708	0.0149000
656.786	0.0148277
656.864	0.0148668
656.943	0.0147931
657.021	0.0149103
657.099	0.0149441
657.177	0.0148122
657.255	0.0149369
657.333	0.0148953
657.411	0.0149424
657.489	0.0148663
657.568	0.0148462
657.646	0.0148075
657.724	0.0149181
657.802	0.0148836
657.880	0.0148019
657.958	0.0148260
658.036	0.0148454
658.114	0.0149107
658.193	0.0148592
658.271	0.0149308
658.349	0.0149841
658.427	0.0149186
658.505	0.0150026
658.583	0.0150609
658.661	0.0150622
658.739	0.0151505
658.818	0.0150512
658.896	0.0151379
658.974	0.0151777
659.052	0.0152178
659.130	0.0150573
659.208	0.0149883
659.286	0.0151119
659.364	0.0150673
659.443	0.0148908
659.521	0.0150737
659.599	0.0150849
659.677	0.0151196
659.755	0.0150058
659.833	0.0149525
659.911	0.0149253
659.989	0.0150487
660.068	0.0149121
660.146	0.0149852
660.224	0.0149837
660.302	0.0149741
660.380	0.0149689
660.458	0.0149495
660.536	0.0148634
660.614	0.0150423
660.693	0.0151340
660.771	0.0150978
660.849	0.0151642
660.927	0.0151605
661.005	0.0150915
661.083	0.0152011
661.161	0.0151715
661.239	0.0149969
661.318	0.0150895
661.396	0.0150174
661.474	0.0149270
661.552	0.0150442
661.630	0.0148305
661.708	0.0148188
661.786	0.0149162
661.864	0.0148866
661.943	0.0148466
662.021	0.0146260
662.099	0.0146754
662.177	0.0146825
662.255	0.0146421
662.333	0.0145963
662.411	0.0144688
662.489	0.0146299
662.568	0.0146955
662.646	0.0146360
662.724	0.0147479
662.802	0.0146751
662.880	0.0148280
662.958	0.0151221
663.036	0.0149538
663.114	0.0149561
663.193	0.0152624
663.271	0.0151701
663.349	0.0152700
663.427	0.0152574
663.505	0.0153816
663.583	0.0154787
663.661	0.0155943
663.739	0.0155026
663.818	0.0154788
663.896	0.0155990
663.974	0.0156850
664.052	0.0154173
664.130	0.0154053
664.208	0.0153813
664.286	0.0151246
664.364	0.0152055
664.443	0.0150833
664.521	0.0149278
664.599	0.0149253
664.677	0.0147700
664.755	0.0147467
664.833	0.0144515
664.911	0.0143350
664.989	0.0142998
665.068	0.0142200
665.146	0.0141359
665.224	0.0139925
665.302	0.0139927
665.380	0.0139804
665.458	0.0139248
665.536	0.0139063
665.614	0.0139582
665.693	0.0142015
665.771	0.0140635
665.849	0.0140920
665.927	0.0144336
666.005	0.0146691
666.083	0.0147474
666.161	0.0151193
666.239	0.0151511
666.318	0.0151962
666.396	0.0154858
666.474	0.0156844
666.552	0.0157561
666.630	0.0158555
666.708	0.0161461
666.786	0.0163241
666.864	0.0163522
666.943	0.0164573
667.021	0.0164285
667.099	0.0163106
667.177	0.0164220
667.255	0.0164066
667.333	0.0163376
667.411	0.0161489
667.489	0.0159787
667.568	0.0158627
667.646	0.0156034
667.724	0.0153672
667.802	0.0152374
667.880	0.0148974
667.958	0.0147323
668.036	0.0145593
668.114	0.0142335
668.193	0.0140657
668.271	0.0137004
668.349	0.0136848
668.427	0.0133878
668.505	0.0133270
668.583	0.0133204
668.661	0.0132209
668.739	0.0133269
668.818	0.0133036
668.896	0.0132652
668.974	0.0134698
669.052	0.0134785
669.130	0.0136038
669.208	0.0138020
669.286	0.0140194
669.364	0.0142486
669.443	0.0143198
669.521	0.0144551
669.599	0.0147972
669.677	0.0150061
669.755	0.0152453
669.833	0.0154452
669.911	0.0157085
669.989	0.0159171
670.068	0.0160468
670.146	0.0161401
670.224	0.0163503
670.302	0.0164311
670.380	0.0164751
670.458	0.0164235
670.536	0.0166083
670.614	0.0165010
670.693	0.0165020
670.771	0.0164098
670.849	0.0163613
670.927	0.0161446
671.005	0.0159275
671.083	0.0159340
671.161	0.0156193
671.239	0.0155244
671.318	0.0152355
671.396	0.0151054
671.474	0.0148186
671.552	0.0147134
671.630	0.0144424
671.708	0.0143631
671.786	0.0141488
671.864	0.0138779
671.943	0.0138226
672.021	0.0137221
672.099	0.0136819
672.177	0.0135100
672.255	0.0135043
672.333	0.0134643
672.411	0.0133746
672.489	0.0134567
672.568	0.0135576
672.646	0.0134164
672.724	0.0134293
672.802	0.0135329
672.880	0.0137452
672.958	0.0136160
673.036	0.0138928
673.114	0.0140289
673.193	0.0141188
673.271	0.0141616
673.349	0.0142834
673.427	0.0143211
673.505	0.0145059
673.583	0.0145789
673.661	0.0146667
673.739	0.0149007
673.818	0.0150069
673.896	0.0151169
673.974	0.0150986
674.052	0.0151390
674.130	0.0155144
674.208	0.0155405
674.286	0.0156771
674.364	0.0157504
674.443	0.0158936
674.521	0.0159981
674.599	0.0161636
674.677	0.0162817
674.755	0.0163117
674.833	0.0164999
674.911	0.0165386
674.989	0.0164359
675.068	0.0165578
675.146	0.0165689
675.224	0.0165727
675.302	0.0167055
675.380	0.0166488
675.458	0.0164674
675.536	0.0163945
675.614	0.0162336
675.693	0.0160822
675.771	0.0158660
675.849	0.0158454
675.927	0.0156464
676.005	0.0155236
676.083	0.0152006
676.161	0.0149224
676.239	0.0148039
676.318	0.0145288
676.396	0.0141064
676.474	0.0138600
676.552	0.0137679
676.630	0.0133718
676.708	0.0130605
676.786	0.0128706
676.864	0.0127340
676.943	0.0125138
677.021	0.0123235
677.099	0.0123610
677.177	0.0124774
677.255	0.0123680
677.333	0.0123747
677.411	0.0122672
677.489	0.0124046
677.568	0.0127434
677.646	0.0128723
677.724	0.0132888
677.802	0.0134486
677.880	0.0137603
677.958	0.0140385
678.036	0.0144913
678.114	0.0149017
678.193	0.0151807
678.271	0.0156475
678.349	0.0159371
678.427	0.0163029
678.505	0.0166209
678.583	0.0170653
678.661	0.0172736
678.739	0.0176546
678.818	0.0178369
678.896	0.0179689
678.974	0.0180846
679.052	0.0181254
679.130	0.0179604
679.208	0.0181809
679.286	0.0179880
679.364	0.0179339
679.443	0.0178188
679.521	0.0175001
679.599	0.0173933
679.677	0.0171368
679.755	0.0167558
679.833	0.0166080
679.911	0.0162799
679.989	0.0159607
680.068	0.0154620
680.146	0.0151300
680.224	0.0146706
680.302	0.0144195
680.380	0.0142254
680.458	0.0137849
680.536	0.0134362
680.614	0.0131531
680.693	0.0129126
680.771	0.0127696
680.849	0.0124803
680.927	0.0124148
681.005	0.0122646
681.083	0.0120522
681.161	0.0121731
681.239	0.0121751
681.318	0.0120779
681.396	0.0119953
681.474	0.0121898
681.552	0.0123173
681.630	0.0124184
681.708	0.0124999
681.786	0.0127726
681.864	0.0130254
681.943	0.0132352
682.021	0.0133073
682.099	0.0138263
682.177	0.0141667
682.255	0.0144260
682.333	0.0145835
682.411	0.0150523
682.489	0.0153742
682.568	0.0157146
682.646	0.0160479
682.724	0.0162982
682.802	0.0164719
682.880	0.0167316
682.958	0.0168677
683.036	0.0170771
683.114	0.0171187
683.193	0.0174516
683.271	0.0173451
683.349	0.0175620
683.427	0.0177907
683.505	0.0175892
683.583	0.0176796
683.661	0.0177087
683.739	0.0176469
683.818	0.0174458
683.896	0.0171951
683.974	0.0170059
684.052	0.0170123
684.130	0.0167635
684.208	0.0164976
684.286	0.0163843
684.364	0.0160696
684.443	0.0158475
684.521	0.0156512
684.599	0.0152665
684.677	0.0149883
684.755	0.0147892
684.833	0.0145317
684.911	0.0141003
684.989	0.0140085
685.068	0.0137737
685.146	0.0135127
685.224	0.0133309
685.302	0.0130878
685.380	0.0131071
685.458	0.0128260
685.536	0.0126598
685.614	0.0127234
685.693	0.0126313
685.771	0.0126390
685.849	0.0127203
685.927	0.0126056
686.005	0.0125791
686.083	0.0128658
686.161	0.0129151
686.239	0.0129601
686.318	0.0130384
686.396	0.0132168
686.474	0.0133904
686.552	0.0134801
686.630	0.0137667
686.708	0.0136884
686.786	0.0138860
686.864	0.0142133
686.943	0.0143388
687.021	0.0146515
687.099	0.0148227
687.177	0.0148500
687.255	0.0151543
687.333	0.0153177
687.411	0.0153686
687.489	0.0155087
687.568	0.0157991
687.646	0.0159705
687.724	0.0161783
687.802	0.0162993
687.880	0.0163557
687.958	0.0166908
688.036	0.0167704
688.114	0.0168233
688.193	0.0168831
688.271	0.0169370
688.349	0.0170119
688.427	0.0171068
688.505	0.0170319
688.583	0.0169635
688.661	0.0169045
688.739	0.0167599
688.818	0.0165710
688.896	0.0164967
688.974	0.0163170
689.052	0.0162910
689.130	0.0160175
689.208	0.0157811
689.286	0.0156010
689.364	0.0154758
689.443	0.0152293
689.521	0.0150109
689.599	0.0148557
689.677	0.0144765
689.755	0.0143164
689.833	0.0141502
689.911	0.0140775
689.989	0.0136021
690.068	0.0134325
690.146	0.0133445
690.224	0.0132743
690.302	0.0131459
690.380	0.0130908
690.458	0.0130997
690.536	0.0129504
690.614	0.0129426
690.693	0.0131186
690.771	0.0130475
690.849	0.0130339
690.927	0.0132079
691.005	0.0134506
691.083	0.0136095
691.161	0.0138875
691.239	0.0140289
691.318	0.0141795
691.396	0.0144982
691.474	0.0147038
691.552	0.0147977
691.630	0.0151009
691.708	0.0152733
691.786	0.0153597
691.864	0.0155148
691.943	0.0156902
692.021	0.0155605
692.099	0.0155442
692.177	0.0156853
692.255	0.0157504
692.333	0.0156763
692.411	0.0156535
692.489	0.0157301
692.568	0.0156597
692.646	0.0155978
692.724	0.0156477
692.802	0.0155047
692.880	0.0156118
692.958	0.0156755
693.036	0.0156345
693.114	0.0156251
693.193	0.0155508
693.271	0.0156499
693.349	0.0158173
693.427	0.0157594
693.505	0.0156963
693.583	0.0157891
693.661	0.0158375
693.739	0.0158982
693.818	0.0158355
693.896	0.0159451
693.974	0.0159099
694.052	0.0157832
694.130	0.0159248
694.208	0.0157679
694.286	0.0158447
694.364	0.0156721
694.443	0.0156767
694.521	0.0155397
694.599	0.0155290
694.677	0.0154553
694.755	0.0151607
694.833	0.0151249
694.911	0.0151022
694.989	0.0150554
695.068	0.0149174
695.146	0.0148310
695.224	0.0148035
695.302	0.0145845
695.380	0.0145042
695.458	0.0144103
695.536	0.0143787
695.614	0.0144475
695.693	0.0143254
695.771	0.0141470
695.849	0.0142186
695.927	0.0143198
696.005	0.0140360
696.083	0.0140755
696.161	0.0141122
696.239	0.0141051
696.318	0.0142358
696.396	0.0141907
696.474	0.0143899
696.552	0.0143754
696.630	0.0142099
696.708	0.0143758
696.786	0.0146085
696.864	0.0145853
696.943	0.0144463
697.021	0.0148280
697.099	0.0147857
697.177	0.0149474
697.255	0.0149731
697.333	0.0150930
697.411	0.0152116
697.489	0.0152731
697.568	0.0153111
697.646	0.0154664
697.724	0.0155257
697.802	0.0155371
697.880	0.0155264
697.958	0.0155753
698.036	0.0156126
698.114	0.0156947
698.193	0.0154914
698.271	0.0156669
698.349	0.0158057
698.427	0.0155847
698.505	0.0155799
698.583	0.0156649
698.661	0.0155505
698.739	0.0156046
698.818	0.0156428
698.896	0.0155690
698.974	0.0155142
699.052	0.0154546
699.130	0.0154594
699.208	0.0154364
699.286	0.0154671
699.364	0.0152245
699.443	0.0151542
699.521	0.0150529
699.599	0.0148695
699.677	0.0148758
699.755	0.0145829
699.833	0.0144698
699.911	0.0143250
699.989	0.0142178
700.068	0.0141846
700.146	0.0140609
700.224	0.0141683
700.302	0.0140205
700.380	0.0140107
700.458	0.0140756
700.536	0.0141597
700.614	0.0141010
700.693	0.0141785
700.771	0.0143105
700.849	0.0143595
700.927	0.0144732
701.005	0.0146353
701.083	0.0145141
701.161	0.0147308
701.239	0.0148460
701.318	0.0150485
701.396	0.0151292
701.474	0.0151961
701.552	0.0152785
701.630	0.0155273
701.708	0.0156323
701.786	0.0156136
701.864	0.0156834
701.943	0.0157754
702.021	0.0157048
702.099	0.0156303
702.177	0.0157961
702.255	0.0158372
702.333	0.0157858
702.411	0.0157707
702.489	0.0158831
702.568	0.0157814
702.646	0.0157535
702.724	0.0155851
702.802	0.0155576
702.880	0.0153573
702.958	0.0154376
703.036	0.0153455
703.114	0.0150690
703.193	0.0151657
703.271	0.0150296
703.349	0.0149359
703.427	0.0147114
703.505	0.0146743
703.583	0.0145872
703.661	0.0145276
703.739	0.0143572
703.818	0.0143837
703.896	0.0142740
703.974	0.0141357
704.052	0.0142175
704.130	0.0142187
704.208	0.0141866
704.286	0.0142238
704.364	0.0141554
704.443	0.0142998
704.521	0.0143933
704.599	0.0142852
704.677	0.0142689
704.755	0.0144172
704.833	0.0145229
704.911	0.0145950
704.989	0.0146349
705.068	0.0146541
705.146	0.0146269
705.224	0.0146398
705.302	0.0146827
705.380	0.0148565
705.458	0.0147705
705.536	0.0149501
705.614	0.0150394
705.693	0.0151104
705.771	0.0151366
705.849	0.0153506
705.927	0.0153629
706.005	0.0154373
706.083	0.0155138
706.161	0.0155919
706.239	0.0158126
706.318	0.0159657
706.396	0.0160661
706.474	0.0160709
706.552	0.0162634
706.630	0.0162379
706.708	0.0163052
706.786	0.0164471
706.864	0.0162491
706.943	0.0162916
707.021	0.0162437
707.099	0.0161620
707.177	0.0160575
707.255	0.0160047
707.333	0.0159033
707.411	0.0157706
707.489	0.0157185
707.568	0.0156522
707.646	0.0154641
707.724	0.0151240
707.802	0.0150267
707.880	0.0148871
707.958	0.0149455
708.036	0.0148836
708.114	0.0147606
708.193	0.0144955
708.271	0.0144595
708.349	0.0144947
708.427	0.0146217
708.505	0.0143256
708.583	0.0142807
708.661	0.0141475
708.739	0.0142679
708.818	0.0141536
708.896	0.0141171
708.974	0.0141740
709.052	0.0141251
709.130	0.0140351
709.208	0.0140164
709.286	0.0141448
709.364	0.0140113
709.443	0.0140504
709.521	0.0140812
709.599	0.0141093
709.677	0.0140485
709.755	0.0140289
709.833	0.0140614
709.911	0.0141172
709.989	0.0142919
710.068	0.0142857
710.146	0.0143944
710.224	0.0143706
710.302	0.0145580
710.380	0.0146689
710.458	0.0147751
710.536	0.0149683
710.614	0.0150694
710.693	0.0152557
710.771	0.0151861
710.849	0.0153856
710.927	0.0154155
711.005	0.0154646
711.083	0.0156827
711.161	0.0156584
711.239	0.0155952
711.318	0.0158287
711.396	0.0159109
711.474	0.0158369
711.552	0.0158174
711.630	0.0158284
711.708	0.0156091
711.786	0.0156260
711.864	0.0157027
711.943	0.0156230
712.021	0.0155019
712.099	0.0155380
712.177	0.0154580
712.255	0.0152921
712.333	0.0152828
712.411	0.0152099
712.489	0.0150947
712.568	0.0150267
712.646	0.0149693
712.724	0.0148291
712.802	0.0148685
712.880	0.0147610
712.958	0.0147660
713.036	0.0145838
713.114	0.0146915
713.193	0.0146664
713.271	0.0146824
713.349	0.0148570
713.427	0.0148576
713.505	0.0148612
713.583	0.0149460
713.661	0.0148652
713.739	0.0149904
713.818	0.0151298
713.896	0.0151791
713.974	0.0152131
714.052	0.0153070
714.130	0.0153012
714.208	0.0153801
714.286	0.0155050
714.364	0.0155637
714.443	0.0156065
714.521	0.0156773
714.599	0.0155095
714.677	0.0154308
714.755	0.0155384
714.833	0.0154570
714.911	0.0153777
714.989	0.0151484
715.068	0.0150138
715.146	0.0149821
715.224	0.0147926
715.302	0.0148027
715.380	0.0145879
715.458	0.0143580
715.536	0.0143844
715.614	0.0142467
715.693	0.0142467
715.771	0.0141815
715.849	0.0141290
715.927	0.0139852
716.005	0.0139596
716.083	0.0139664
716.161	0.0139554
716.239	0.0140265
716.318	0.0141795
716.396	0.0140837
716.474	0.0141372
716.552	0.0142145
716.630	0.0142982
716.708	0.0142928
716.786	0.0144485
716.864	0.0147075
716.943	0.0148207
717.021	0.0148192
717.099	0.0148055
717.177	0.0150395
717.255	0.0152427
717.333	0.0152742
717.411	0.0151820
717.489	0.0154508
717.568	0.0155681
717.646	0.0155019
717.724	0.0156374
717.802	0.0157504
717.880	0.0158279
717.958	0.0157104
718.036	0.0156398
718.114	0.0156756
718.193	0.0158017
718.271	0.0157433
718.349	0.0157551
718.427	0.0157261
718.505	0.0156337
718.583	0.0156834
718.661	0.0157604
718.739	0.0159126
718.818	0.0158523
718.896	0.0157187
718.974	0.0158562
719.052	0.0156975
719.130	0.0157809
719.208	0.0157456
719.286	0.0156618
719.364	0.0155680
719.443	0.0155910
719.521	0.0155876
719.599	0.0155021
719.677	0.0154152
719.755	0.0153687
719.833	0.0152074
719.911	0.0151479
719.989	0.0150519
720.068	0.0150099
720.146	0.0148183
720.224	0.0147890
720.302	0.0147025
720.380	0.0145699
720.458	0.0145063
720.536	0.0143889
720.614	0.0142659
720.693	0.0142487
720.771	0.0142855
720.849	0.0143271
720.927	0.0141994
721.005	0.0141376
721.083	0.0140948
721.161	0.0140949
721.239	0.0141768
721.318	0.0140635
721.396	0.0140983
721.474	0.0141501
721.552	0.0142501
721.630	0.0144254
721.708	0.0143295
721.786	0.0145431
721.864	0.0145900
721.943	0.0146680
722.021	0.0148091
722.099	0.0148867
722.177	0.0150845
722.255	0.0150496
722.333	0.0151570
722.411	0.0150727
722.489	0.0151566
722.568	0.0151771
722.646	0.0152730
722.724	0.0151950
722.802	0.0153538
722.880	0.0151915
722.958	0.0151578
723.036	0.0151697
723.114	0.0150154
723.193	0.0151365
723.271	0.0149254
723.349	0.0149580
723.427	0.0149358
723.505	0.0149334
723.583	0.0149232
723.661	0.0149419
723.739	0.0149745
723.818	0.0149622
723.896	0.0149775
723.974	0.0149550
724.052	0.0148714
724.130	0.0149356
724.208	0.0151023
724.286	0.0151381
724.364	0.0152422
724.443	0.0152628
724.521	0.0152966
724.599	0.0154298
724.677	0.0153953
724.755	0.0153777
724.833	0.0153631
724.911	0.0155556
724.989	0.0155579
725.068	0.0154712
725.146	0.0153730
725.224	0.0155636
725.302	0.0155562
725.380	0.0154473
725.458	0.0154511
725.536	0.0155079
725.614	0.0153198
725.693	0.0152180
725.771	0.0152413
725.849	0.0152120
725.927	0.0149598
726.005	0.0150539
726.083	0.0149721
726.161	0.0147545
726.239	0.0147932
726.318	0.0147447
726.396	0.0146576
726.474	0.0146710
726.552	0.0147516
726.630	0.0147746
726.708	0.0145947
726.786	0.0145147
726.864	0.0147337
726.943	0.0145628
727.021	0.0146359
727.099	0.0146612
727.177	0.0146818
727.255	0.0146473
727.333	0.0147160
727.411	0.0147777
727.489	0.0147606
727.568	0.0146909
727.646	0.0146829
727.724	0.0147118
727.802	0.0147516
727.880	0.0147781
727.958	0.0148071
728.036	0.0147749
728.114	0.0148883
728.193	0.0148676
728.271	0.0148154
728.349	0.0149323
728.427	0.0149609
728.505	0.0150184
728.583	0.0149210
728.661	0.0150162
728.739	0.0150307
728.818	0.0150418
728.896	0.0149863
728.974	0.0152704
729.052	0.0152075
729.130	0.0153812
729.208	0.0153651
729.286	0.0152348
729.364	0.0153934
729.443	0.0154473
729.521	0.0154810
729.599	0.0154304
729.677	0.0154950
729.755	0.0157035
729.833	0.0155699
729.911	0.0155518
729.989	0.0155572
730.068	0.0155154
730.146	0.0154362
730.224	0.0155091
730.302	0.0153603
730.380	0.0154103
730.458	0.0153105
730.536	0.0152427
730.614	0.0150656
730.693	0.0149884
730.771	0.0151347
730.849	0.0148598
730.927	0.0148218
731.005	0.0148145
731.083	0.0145383
731.161	0.0146745
731.239	0.0146420
731.318	0.0144350
731.396	0.0144798
731.474	0.0145450
731.552	0.0144641
731.630	0.0144978
731.708	0.0144786
731.786	0.0145777
731.864	0.0145452
731.943	0.0145027
732.021	0.0145739
732.099	0.0146049
732.177	0.0147874
732.255	0.0146976
732.333	0.0147327
732.411	0.0147228
732.489	0.0147541
732.568	0.0149323
732.646	0.0149643
732.724	0.0150372
732.802	0.0149654
732.880	0.0151078
732.958	0.0151251
733.036	0.0151918
733.114	0.0150949
733.193	0.0150864
733.271	0.0150204
733.349	0.0150912
733.427	0.0151383
733.505	0.0151619
733.583	0.0151251
733.661	0.0150899
733.739	0.0152632
733.818	0.0153257
733.896	0.0151405
733.974	0.0150961
734.052	0.0152171
734.130	0.0152694
734.208	0.0152348
734.286	0.0151477
734.364	0.0151318
734.443	0.0150942
734.521	0.0150986
734.599	0.0149732
734.677	0.0149117
734.755	0.0149130
734.833	0.0149243
734.911	0.0149942
734.989	0.0148658
735.068	0.0146662
735.146	0.0144532
735.224	0.0145060
735.302	0.0143508
735.380	0.0145269
735.458	0.0144802
735.536	0.0142997
735.614	0.0144476
735.693	0.0145267
735.771	0.0145699
735.849	0.0143129
735.927	0.0146356
736.005	0.0146844
736.083	0.0145865
736.161	0.0146815
736.239	0.0148212
736.318	0.0149224
736.396	0.0149766
736.474	0.0150960
736.552	0.0150265
736.630	0.0150141
736.708	0.0150758
736.786	0.0150128
736.864	0.0151886
736.943	0.0150806
737.021	0.0152153
737.099	0.0151856
737.177	0.0151449
737.255	0.0151812
737.333	0.0152240
737.411	0.0151632
737.489	0.0153245
737.568	0.0152024
737.646	0.0151275
737.724	0.0151089
737.802	0.0150540
737.880	0.0150344
737.958	0.0152031
738.036	0.0149291
738.114	0.0150243
738.193	0.0150639
738.271	0.0151897
738.349	0.0151048
738.427	0.0151371
738.505	0.0149781
738.583	0.0151124
738.661	0.0151351
738.739	0.0149124
738.818	0.0151862
738.896	0.0152142
738.974	0.0152104
739.052	0.0151767
739.130	0.0150645
739.208	0.0151900
739.286	0.0152403
739.364	0.0151743
739.443	0.0152290
739.521	0.0149961
739.599	0.0150864
739.677	0.0152643
739.755	0.0151431
739.833	0.0151493
739.911	0.0150154
739.989	0.0150631
740.068	0.0149809
740.146	0.0151283
740.224	0.0151524
740.302	0.0150945
740.380	0.0150343
740.458	0.0150784
740.536	0.0150231
740.614	0.0149268
740.693	0.0149110
740.771	0.0147707
740.849	0.0147098
740.927	0.0146818
741.005	0.0146616
741.083	0.0147350
741.161	0.0145897
741.239	0.0145152
741.318	0.0144986
741.396	0.0144173
741.474	0.0143360
741.552	0.0144527
741.630	0.0143744
741.708	0.0145677
741.786	0.0143727
741.864	0.0145242
741.943	0.0145732
742.021	0.0145359
742.099	0.0147084
742.177	0.0145392
742.255	0.0146024
742.333	0.0147337
742.411	0.0147128
742.489	0.0147804
742.568	0.0147581
742.646	0.0148462
742.724	0.0147408
742.802	0.0149542
742.880	0.0148172
742.958	0.0147791
743.036	0.0149081
743.114	0.0149591
743.193	0.0149456
743.271	0.0149372
743.349	0.0149139
743.427	0.0149912
743.505	0.0148258
743.583	0.0148164
743.661	0.0149628
743.739	0.0148756
743.818	0.0148775
743.896	0.0149416
743.974	0.0149886
744.052	0.0149603
744.130	0.0149543
744.208	0.0151562
744.286	0.0150115
744.364	0.0150835
744.443	0.0151277
744.521	0.0150366
744.599	0.0151010
744.677	0.0151190
744.755	0.0151308
744.833	0.0152438
744.911	0.0152314
744.989	0.0153411
745.068	0.0152596
745.146	0.0151407
745.224	0.0151907
745.302	0.0152328
745.380	0.0152448
745.458	0.0152735
745.536	0.0152399
745.614	0.0151075
745.693	0.0152180
745.771	0.0152873
745.849	0.0153524
745.927	0.0152281
746.005	0.0151953
746.083	0.0152192
746.161	0.0153509
746.239	0.0151764
746.318	0.0151751
746.396	0.0151826
746.474	0.0152581
746.552	0.0152145
746.630	0.0152470
746.708	0.0151318
746.786	0.0151871
746.864	0.0151956
746.943	0.0151923
747.021	0.0151658
747.099	0.0149358
747.177	0.0149658
747.255	0.0150628
747.333	0.0149334
747.411	0.0151331
747.489	0.0148360
747.568	0.0147950
747.646	0.0149294
747.724	0.0149081
747.802	0.0146675
747.880	0.0147511
747.958	0.0148293
748.036	0.0147236
748.114	0.0147016
748.193	0.0146542
748.271	0.0145788
748.349	0.0146490
748.427	0.0146316
748.505	0.0144952
748.583	0.0145814
748.661	0.0145324
748.739	0.0144983
748.818	0.0144047
748.896	0.0144646
748.974	0.0145415
749.052	0.0145561
749.130	0.0145426
749.208	0.0145907
749.286	0.0144656
749.364	0.0146444
749.443	0.0147549
749.521	0.0148282
749.599	0.0148245
749.677	0.0150121
749.755	0.0149358
749.833	0.0150964
749.911	0.0151450
749.989	0.0152306
750.068	0.0152675
750.146	0.0152921
750.224	0.0154636
750.302	0.0153613
750.380	0.0154113
750.458	0.0154248
750.536	0.0155979
750.614	0.0155785
750.693	0.0155438
750.771	0.0155813
750.849	0.0155476
750.927	0.0155641
751.005	0.0155748
751.083	0.0155476
751.161	0.0153603
751.239	0.0154552
751.318	0.0152596
751.396	0.0152837
751.474	0.0151425
751.552	0.0152870
751.630	0.0151661
751.708	0.0149585
751.786	0.0150620
751.864	0.0149456
751.943	0.0148858
752.021	0.0147839
752.099	0.0149043
752.177	0.0148368
752.255	0.0148163
752.333	0.0147958
752.411	0.0147588
752.489	0.0148609
752.568	0.0149216
752.646	0.0149004
752.724	0.0148518
752.802	0.0149673
752.880	0.0149521
752.958	0.0149800
753.036	0.0150272
753.114	0.0151100
753.193	0.0149484
753.271	0.0149679
753.349	0.0149489
753.427	0.0149680
753.505	0.0148991
753.583	0.0149123
753.661	0.0148598
753.739	0.0149621
753.818	0.0149735
753.896	0.0149815
753.974	0.0151126
754.052	0.0150446
754.130	0.0148277
754.208	0.0148940
754.286	0.0150166
754.364	0.0149576
754.443	0.0150280
754.521	0.0150922
754.599	0.0151160
754.677	0.0151174
754.755	0.0153594
754.833	0.0152211
754.911	0.0151855
754.989	0.0151926
755.068	0.0152357
755.146	0.0152209
755.224	0.0152699
755.302	0.0152254
755.380	0.0152934
755.458	0.0152083
755.536	0.0149554
755.614	0.0151483
755.693	0.0152863
755.771	0.0151823
755.849	0.0151164
755.927	0.0150907
756.005	0.0151127
756.083	0.0149009
756.161	0.0148694
756.239	0.0146859
756.318	0.0146684
756.396	0.0147968
756.474	0.0145706
756.552	0.0147253
756.630	0.0147241
756.708	0.0146078
756.786	0.0145565
756.864	0.0147136
756.943	0.0146139
757.021	0.0146441
757.099	0.0146549
757.177	0.0146609
757.255	0.0148337
757.333	0.0147158
757.411	0.0148230
757.489	0.0148932
757.568	0.0149226
757.646	0.0149883
757.724	0.0149064
757.802	0.0150305
757.880	0.0149908
757.958	0.0149406
758.036	0.0150140
758.114	0.0150529
758.193	0.0150395
758.271	0.0151133
758.349	0.0150924
758.427	0.0149677
758.505	0.0152408
758.583	0.0151492
758.661	0.0151793
758.739	0.0152182
758.818	0.0151867
758.896	0.0151980
758.974	0.0152580
759.052	0.0152108
759.130	0.0151665
759.208	0.0151205
759.286	0.0151534
759.364	0.0152103
759.443	0.0151789
759.521	0.0151405
759.599	0.0151595
759.677	0.0150677
759.755	0.0150864
759.833	0.0150781
759.911	0.0150174
759.989	0.0151337
760.068	0.0151787
760.146	0.0151311
760.224	0.0150848
760.302	0.0150089
760.380	0.0151770
760.458	0.0149870
760.536	0.0150024
760.614	0.0150262
760.693	0.0150282
760.771	0.0148740
760.849	0.0149062
760.927	0.0148266
761.005	0.0147562
761.083	0.0146684
761.161	0.0146540
761.239	0.0147755
761.318	0.0147460
761.396	0.0146455
761.474	0.0146181
761.552	0.0144791
761.630	0.0144193
761.708	0.0143897
761.786	0.0145058
761.864	0.0144943
761.943	0.0142953
762.021	0.0143109
762.099	0.0144112
762.177	0.0142613
762.255	0.0143201
762.333	0.0143043
762.411	0.0144778
762.489	0.0144400
762.568	0.0144398
762.646	0.0144759
762.724	0.0146581
762.802	0.0147616
762.880	0.0147617
762.958	0.0148040
763.036	0.0148218
763.114	0.0148917
763.193	0.0149854
763.271	0.0149688
763.349	0.0151963
763.427	0.0152174
763.505	0.0152966
763.583	0.0153319
763.661	0.0154280
763.739	0.0154742
763.818	0.0154346
763.896	0.0154554
763.974	0.0156152
764.052	0.0156538
764.130	0.0156023
764.208	0.0157127
764.286	0.0156112
764.364	0.0155629
764.443	0.0155968
764.521	0.0155898
764.599	0.0156126
764.677	0.0153178
764.755	0.0152147
764.833	0.0153098
764.911	0.0152836
764.989	0.0151010
765.068	0.0150718
765.146	0.0150040
765.224	0.0149654
765.302	0.0148257
765.380	0.0147878
765.458	0.0147150
765.536	0.0148701
765.614	0.0148161
765.693	0.0147815
765.771	0.0148366
765.849	0.0147375
765.927	0.0148574
766.005	0.0148433
766.083	0.0148027
766.161	0.0147542
766.239	0.0148055
766.318	0.0148761
766.396	0.0148958
766.474	0.0148126
766.552	0.0149378
766.630	0.0148100
766.708	0.0147822
766.786	0.0149017
766.864	0.0149250
766.943	0.0149404
767.021	0.0148548
767.099	0.0149403
767.177	0.0149120
767.255	0.0150575
767.333	0.0151391
767.411	0.0149479
767.489	0.0149557
767.568	0.0150047
767.646	0.0149998
767.724	0.0149830
767.802	0.0150117
767.880	0.0151291
767.958	0.0150408
768.036	0.0152384
768.114	0.0152484
768.193	0.0151012
768.271	0.0150680
768.349	0.0149817
768.427	0.0151201
768.505	0.0150790
768.583	0.0148997
768.661	0.0148751
768.739	0.0148940
768.818	0.0148687
768.896	0.0148141
768.974	0.0148697
769.052	0.0147018
769.130	0.0148183
769.208	0.0147601
769.286	0.0149026
769.364	0.0148139
769.443	0.0147808
769.521	0.0149216
769.599	0.0147885
769.677	0.0149246
769.755	0.0148507
769.833	0.0149426
769.911	0.0148916
769.989	0.0150676
770.068	0.0150949
770.146	0.0151406
770.224	0.0150805
770.302	0.0150950
770.380	0.0151434
770.458	0.0150669
770.536	0.0150843
770.614	0.0150776
770.693	0.0150153
770.771	0.0151764
770.849	0.0151987
770.927	0.0151002
771.005	0.0151565
771.083	0.0151221
771.161	0.0150919
771.239	0.0150136
771.318	0.0150665
771.396	0.0151610
771.474	0.0152205
771.552	0.0152501
771.630	0.0150897
771.708	0.0151407
771.786	0.0152061
771.864	0.0151662
771.943	0.0150909
772.021	0.0151834
772.099	0.0150388
772.177	0.0152779
772.255	0.0150087
772.333	0.0150867
772.411	0.0152208
772.489	0.0151649
772.568	0.0149371
772.646	0.0149236
772.724	0.0148684
772.802	0.0149416
772.880	0.0149681
772.958	0.0147475
773.036	0.0147658
773.114	0.0148505
773.193	0.0147832
773.271	0.0146799
773.349	0.0147826
773.427	0.0149244
773.505	0.0147989
773.583	0.0146507
773.661	0.0146444
773.739	0.0147005
773.818	0.0146777
773.896	0.0146564
773.974	0.0147852
774.052	0.0145978
774.130	0.0147826
774.208	0.0148309
774.286	0.0147833
774.364	0.0147795
774.443	0.0149358
774.521	0.0148164
774.599	0.0149040
774.677	0.0149682
774.755	0.0148803
774.833	0.0151331
774.911	0.0149686
774.989	0.0150251
775.068	0.0152265
775.146	0.0151035
775.224	0.0150441
775.302	0.0151060
775.380	0.0152234
775.458	0.0152834
775.536	0.0153643
775.614	0.0152232
775.693	0.0152471
775.771	0.0153226
775.849	0.0152402
775.927	0.0151913
776.005	0.0152952
776.083	0.0151821
776.161	0.0152608
776.239	0.0152682
776.318	0.0150939
776.396	0.0150574
776.474	0.0151244
776.552	0.0151437
776.630	0.0150823
776.708	0.0149615
776.786	0.0152122
776.864	0.0150768
776.943	0.0150275
777.021	0.0150203
777.099	0.0149136
777.177	0.0148417
777.255	0.0149327
777.333	0.0149390
777.411	0.0150518
777.489	0.0149726
777.568	0.0148464
777.646	0.0149293
777.724	0.0147971
777.802	0.0148061
777.880	0.0148302
777.958	0.0147739
778.036	0.0147404
778.114	0.0147159
778.193	0.0147900
778.271	0.0148222
778.349	0.0148344
778.427	0.0148271
778.505	0.0148352
778.583	0.0148277
778.661	0.0149306
778.739	0.0149138
778.818	0.0148598
778.896	0.0148613
778.974	0.0150404
779.052	0.0150188
779.130	0.0150968
779.208	0.0150792
779.286	0.0151077
779.364	0.0151122
779.443	0.0151502
779.521	0.0152280
779.599	0.0151135
779.677	0.0151113
779.755	0.0152107
779.833	0.0151900
779.911	0.0152659
779.989	0.0151064
780.068	0.0152142
780.146	0.0151907
780.224	0.0151871
780.302	0.0151701
780.380	0.0152979
780.458	0.0152852
780.536	0.0153315
780.614	0.0151235
780.693	0.0152048
780.771	0.0153394
780.849	0.0152396
780.927	0.0150890
781.005	0.0151942
781.083	0.0152419
781.161	0.0152448
781.239	0.0151746
781.318	0.0151160
781.396	0.0150096
781.474	0.0151376
781.552	0.0150969
781.630	0.0149890
781.708	0.0148383
781.786	0.0149502
781.864	0.0149575
781.943	0.0147125
782.021	0.0148952
782.099	0.0148566
782.177	0.0146732
782.255	0.0146819
782.333	0.0147271
782.411	0.0146331
782.489	0.0146509
782.568	0.0146039
782.646	0.0147616
782.724	0.0146558
782.802	0.0146560
782.880	0.0146585
782.958	0.0147672
783.036	0.0148441
783.114	0.0148289
783.193	0.0148074
783.271	0.0147039
783.349	0.0148634
783.427	0.0148772
783.505	0.0147431
783.583	0.0150113
783.661	0.0150719
783.739	0.0150500
783.818	0.0150961
783.896	0.0150440
783.974	0.0150242
784.052	0.0149640
784.130	0.0150793
784.208	0.0151044
784.286	0.0150513
784.364	0.0149957
784.443	0.0150357
784.521	0.0151859
784.599	0.0151324
784.677	0.0150806
784.755	0.0152702
784.833	0.0153114
784.911	0.0152228
784.989	0.0152475
785.068	0.0152397
785.146	0.0154043
785.224	0.0153275
785.302	0.0153633
785.380	0.0152798
785.458	0.0153284
785.536	0.0153291
785.614	0.0151651
785.693	0.0152837
785.771	0.0152053
785.849	0.0152730
785.927	0.0150809
786.005	0.0150805
786.083	0.0150348
786.161	0.0150201
786.239	0.0148372
786.318	0.0147282
786.396	0.0147779
786.474	0.0148292
786.552	0.0147742
786.630	0.0146812
786.708	0.0147255
786.786	0.0146806
786.864	0.0145858
786.943	0.0144978
787.021	0.0146332
787.099	0.0145872
787.177	0.0145664
787.255	0.0146439
787.333	0.0145994
787.411	0.0145916
787.489	0.0147158
787.568	0.0148007
787.646	0.0148988
787.724	0.0148074
787.802	0.0148427
787.880	0.0148751
787.958	0.0148546
788.036	0.0150255
788.114	0.0148625
788.193	0.0150188
788.271	0.0150067
788.349	0.0150849
788.427	0.0150299
788.505	0.0151251
788.583	0.0152238
788.661	0.0150996
788.739	0.0150922
788.818	0.0151166
788.896	0.0150453
788.974	0.0150388
789.052	0.0149606
789.130	0.0149194
789.208	0.0151480
789.286	0.0150650
789.364	0.0149950
789.443	0.0151716
789.521	0.0151326
789.599	0.0150738
789.677	0.0152577
789.755	0.0152405
789.833	0.0152009
789.911	0.0152825
789.989	0.0151923
790.068	0.0151424
790.146	0.0150868
790.224	0.0153159
790.302	0.0152293
790.380	0.0151768
790.458	0.0152198
790.536	0.0151722
790.614	0.0151777
790.693	0.0150733
790.771	0.0151314
790.849	0.0149648
790.927	0.0150072
791.005	0.0150115
791.083	0.0150688
791.161	0.0149519
791.239	0.0149609
791.318	0.0149580
791.396	0.0149572
791.474	0.0150628
791.552	0.0149830
791.630	0.0149261
791.708	0.0148353
791.786	0.0148846
791.864	0.0148785
791.943	0.0149558
792.021	0.0149377
792.099	0.0148383
792.177	0.0147607
792.255	0.0148709
792.333	0.0149092
792.411	0.0148016
792.489	0.0148175
792.568	0.0148017
792.646	0.0148585
792.724	0.0147837
792.802	0.0148175
792.880	0.0147412
792.958	0.0147414
793.036	0.0148031
793.114	0.0147288
793.193	0.0148557
793.271	0.0147260
793.349	0.0148856
793.427	0.0148238
793.505	0.0147447
793.583	0.0149293
793.661	0.0148923
793.739	0.0149303
793.818	0.0149726
793.896	0.0149818
793.974	0.0150304
794.052	0.0149720
794.130	0.0150448
794.208	0.0150368
794.286	0.0150096
794.364	0.0149812
794.443	0.0151756
794.521	0.0151235
794.599	0.0150952
794.677	0.0150843
794.755	0.0151411
794.833	0.0150986
794.911	0.0151725
794.989	0.0149544
795.068	0.0151463
795.146	0.0150366
795.224	0.0149673
795.302	0.0151246
795.380	0.0150740
795.458	0.0150314
795.536	0.0151527
795.614	0.0152579
795.693	0.0152118
795.771	0.0150627
795.849	0.0151324
795.927	0.0151608
796.005	0.0150882
796.083	0.0151633
796.161	0.0150908
796.239	0.0151813
796.318	0.0152219
796.396	0.0150414
796.474	0.0150798
796.552	0.0151141
796.630	0.0151984
796.708	0.0150538
796.786	0.0151133
796.864	0.0150828
796.943	0.0150751
797.021	0.0150693
797.099	0.0149325
797.177	0.0151658
797.255	0.0149858
797.333	0.0148790
797.411	0.0150406
797.489	0.0148062
797.568	0.0150168
797.646	0.0148181
797.724	0.0149219
797.802	0.0148878
797.880	0.0148898
797.958	0.0148613
798.036	0.0148483
798.114	0.0148454
798.193	0.0148252
798.271	0.0147326
798.349	0.0147677
798.427	0.0147796
798.505	0.0148701
798.583	0.0149831
798.661	0.0148251
798.739	0.0148048
798.818	0.0148748
798.896	0.0148897
798.974	0.0148352
799.052	0.0148608
799.130	0.0148466
799.208	0.0148476
799.286	0.0148726
799.364	0.0149779
799.443	0.0149516
799.521	0.0148875
799.599	0.0147859
799.677	0.0148589
799.755	0.0149451
799.833	0.0149500
799.911	0.0149039
799.989	0.0148874
800.068	0.0150454
800.146	0.0148345
800.224	0.0149435
800.302	0.0149252
800.380	0.0148689
800.458	0.0148730
800.536	0.0151302
800.614	0.0150076
800.693	0.0150014
800.771	0.0150567
800.849	0.0150706
800.927	0.0148634
801.005	0.0149590
801.083	0.0151225
801.161	0.0152248
801.239	0.0150993
801.318	0.0151788
801.396	0.0152069
801.474	0.0152061
801.552	0.0151038
801.630	0.0150398
801.708	0.0151067
801.786	0.0151232
801.864	0.0151033
801.943	0.0150354
802.021	0.0148495
802.099	0.0150428
802.177	0.0150053
802.255	0.0150881
802.333	0.0151276
802.411	0.0150131
802.489	0.0150103
802.568	0.0151302
802.646	0.0150597
802.724	0.0151772
802.802	0.0150805
802.880	0.0150830
802.958	0.0150900
803.036	0.0150771
803.114	0.0150020
803.193	0.0151231
803.271	0.0149135
803.349	0.0150100
803.427	0.0149390
803.505	0.0150602
803.583	0.0148965
803.661	0.0149605
803.739	0.0150036
803.818	0.0150422
803.896	0.0149547
803.974	0.0150470
804.052	0.0149097
804.130	0.0150519
804.208	0.0150498
804.286	0.0150610
804.364	0.0150168
804.443	0.0149963
804.521	0.0150375
804.599	0.0150745
804.677	0.0149759
804.755	0.0150118
804.833	0.0149689
804.911	0.0149281
804.989	0.0149199
805.068	0.0149062
805.146	0.0149813
805.224	0.0148495
805.302	0.0148569
805.380	0.0150852
805.458	0.0149741
805.536	0.0149353
805.614	0.0150547
805.693	0.0148882
805.771	0.0150171
805.849	0.0149042
805.927	0.0149661
806.005	0.0148486
806.083	0.0149330
806.161	0.0149926
806.239	0.0148873
806.318	0.0148918
806.396	0.0149389
806.474	0.0149524
806.552	0.0150201
806.630	0.0149898
806.708	0.0148755
806.786	0.0149634
806.864	0.0148822
806.943	0.0148804
807.021	0.0148926
807.099	0.0148488
807.177	0.0148981
807.255	0.0148574
807.333	0.0147334
807.411	0.0147619
807.489	0.0149810
807.568	0.0148048
807.646	0.0148359
807.724	0.0150321
807.802	0.0150068
807.880	0.0150452
807.958	0.0151962
808.036	0.0151593
808.114	0.0153233
808.193	0.0153371
808.271	0.0152660
808.349	0.0152770
808.427	0.0152193
808.505	0.0152354
808.583	0.0151547
808.661	0.0150767
808.739	0.0153967
808.818	0.0152863
808.896	0.0151813
808.974	0.0153237
809.052	0.0153403
809.130	0.0152813
809.208	0.0153469
809.286	0.0153844
809.364	0.0153082
809.443	0.0153214
809.521	0.0153878
809.599	0.0152971
809.677	0.0151698
809.755	0.0151819
809.833	0.0154221
809.911	0.0151165
809.989	0.0150848
810.068	0.0150429
810.146	0.0150841
810.224	0.0149052
810.302	0.0149637
810.380	0.0148346
810.458	0.0148412
810.536	0.0149276
810.614	0.0149096
810.693	0.0147781
810.771	0.0148219
810.849	0.0148440
810.927	0.0147912
811.005	0.0147115
811.083	0.0147132
811.161	0.0147797
811.239	0.0146049
811.318	0.0146802
811.396	0.0145539
811.474	0.0147120
811.552	0.0146986
811.630	0.0147182
811.708	0.0147488
811.786	0.0145858
811.864	0.0146733
811.943	0.0148476
812.021	0.0147498
812.099	0.0150010
812.177	0.0147025
812.255	0.0148082
812.333	0.0148707
812.411	0.0147942
812.489	0.0148474
812.568	0.0148986
812.646	0.0146975
812.724	0.0148571
812.802	0.0149191
812.880	0.0149671
812.958	0.0150462
813.036	0.0148126
813.114	0.0148115
813.193	0.0148755
813.271	0.0148012
813.349	0.0148622
813.427	0.0148019
813.505	0.0147691
813.583	0.0147821
813.661	0.0149222
813.739	0.0150303
813.818	0.0148373
813.896	0.0149534
813.974	0.0151158
814.052	0.0151151
814.130	0.0151931
814.208	0.0152273
814.286	0.0151685
814.364	0.0153014
814.443	0.0152921
814.521	0.0153792
814.599	0.0152080
814.677	0.0150484
814.755	0.0152172
814.833	0.0149445
814.911	0.0148022
814.989	0.0149055
815.068	0.0148817
815.146	0.0148251
815.224	0.0149198
815.302	0.0149981
815.380	0.0151670
815.458	0.0149886
815.536	0.0149624
815.614	0.0149918
815.693	0.0150891
815.771	0.0151121
815.849	0.0151216
815.927	0.0154300
816.005	0.0153386
816.083	0.0154662
816.161	0.0155157
816.239	0.0154922
816.318	0.0154575
816.396	0.0153806
816.474	0.0153140
816.552	0.0151958
816.630	0.0152145
816.708	0.0150509
816.786	0.0148988
816.864	0.0147842
816.943	0.0147161
817.021	0.0147392
817.099	0.0145413
817.177	0.0145442
817.255	0.0144066
817.333	0.0145741
817.411	0.0145653
817.489	0.0146086
817.568	0.0146252
817.646	0.0147305
817.724	0.0147968
817.802	0.0150407
817.880	0.0149821
817.958	0.0150188
818.036	0.0150871
818.114	0.0150467
818.193	0.0151443
818.271	0.0151970
818.349	0.0152475
818.427	0.0151517
818.505	0.0152955
818.583	0.0152306
818.661	0.0151959
818.739	0.0153822
818.818	0.0151135
818.896	0.0151792
818.974	0.0152389
819.052	0.0152122
819.130	0.0151844
819.208	0.0150608
819.286	0.0151456
819.364	0.0151517
819.443	0.0150892
819.521	0.0148646
819.599	0.0149277
819.677	0.0146872
819.755	0.0145226
819.833	0.0146430
819.911	0.0144781
819.989	0.0143831
820.068	0.0143689
820.146	0.0143760
820.224	0.0143285
820.302	0.0143737
820.380	0.0144366
820.458	0.0144977
820.536	0.0145856
820.614	0.0144553
820.693	0.0148024
820.771	0.0147523
820.849	0.0149126
820.927	0.0149850
821.005	0.0149912
821.083	0.0150191
821.161	0.0149599
821.239	0.0151257
821.318	0.0151747
821.396	0.0152416
821.474	0.0154031
821.552	0.0154263
821.630	0.0153679
821.708	0.0154469
821.786	0.0155450
821.864	0.0155568
821.943	0.0155186
822.021	0.0156453
822.099	0.0158456
822.177	0.0155882
822.255	0.0156886
822.333	0.0155711
822.411	0.0154483
822.489	0.0151799
822.568	0.0151070
822.646	0.0151028
822.724	0.0149033
822.802	0.0147607
822.880	0.0145703
822.958	0.0144750
823.036	0.0145190
823.114	0.0143405
823.193	0.0143547
823.271	0.0141135
823.349	0.0140761
823.427	0.0141288
823.505	0.0142293
823.583	0.0141725
823.661	0.0142303
823.739	0.0144186
823.818	0.0145712
823.896	0.0145858
823.974	0.0146360
824.052	0.0148353
824.130	0.0149650
824.208	0.0151778
824.286	0.0150404
824.364	0.0152153
824.443	0.0153313
824.521	0.0153932
824.599	0.0155142
824.677	0.0154491
824.755	0.0154784
824.833	0.0154295
824.911	0.0155032
824.989	0.0155009
825.068	0.0153939
825.146	0.0154579
825.224	0.0154060
825.302	0.0153330
825.380	0.0153603
825.458	0.0153358
825.536	0.0151743
825.614	0.0150947
825.693	0.0150021
825.771	0.0150055
825.849	0.0149484
825.927	0.0147760
826.005	0.0146699
826.083	0.0146122
826.161	0.0146230
826.239	0.0145080
826.318	0.0145068
826.396	0.0145003
826.474	0.0146581
826.552	0.0146621
826.630	0.0146754
826.708	0.0146949
826.786	0.0149229
826.864	0.0148709
826.943	0.0148773
827.021	0.0149018
827.099	0.0150134
827.177	0.0150515
827.255	0.0150872
827.333	0.0152879
827.411	0.0152334
827.489	0.0153497
827.568	0.0152964
827.646	0.0153922
827.724	0.0155379
827.802	0.0155277
827.880	0.0155456
827.958	0.0155573
828.036	0.0154354
828.114	0.0154348
828.193	0.0152979
828.271	0.0152358
828.349	0.0152042
828.427	0.0151803
828.505	0.0150223
828.583	0.0149272
828.661	0.0148981
828.739	0.0148514
828.818	0.0148686
828.896	0.0148074
828.974	0.0148058
829.052	0.0146788
829.130	0.0145145
829.208	0.0146472
829.286	0.0146874
829.364	0.0145239
829.443	0.0144609
829.521	0.0144997
829.599	0.0145689
829.677	0.0144872
829.755	0.0144830
829.833	0.0145418
829.911	0.0145439
829.989	0.0145805
830.068	0.0145744
830.146	0.0146293
830.224	0.0147231
830.302	0.0147563
830.380	0.0147688
830.458	0.0148759
830.536	0.0150608
830.614	0.0150677
830.693	0.0150196
830.771	0.0152199
830.849	0.0152157
830.927	0.0152002
831.005	0.0153355
831.083	0.0153839
831.161	0.0153290
831.239	0.0153226
831.318	0.0153862
831.396	0.0153995
831.474	0.0153822
831.552	0.0153687
831.630	0.0153427
831.708	0.0153790
831.786	0.0154120
831.864	0.0152486
831.943	0.0153079
832.021	0.0152920
832.099	0.0151837
832.177	0.0151502
832.255	0.0150714
832.333	0.0149401
832.411	0.0149509
832.489	0.0149583
832.568	0.0147481
832.646	0.0147396
832.724	0.0146300
832.802	0.0146373
832.880	0.0147119
832.958	0.0146526
833.036	0.0145124
833.114	0.0146178
833.193	0.0145050
833.271	0.0144050
833.349	0.0144506
833.427	0.0145949
833.505	0.0146482
833.583	0.0145895
833.661	0.0147337
833.739	0.0148394
833.818	0.0148582
833.896	0.0148564
833.974	0.0150343
834.052	0.0150880
834.130	0.0151935
834.208	0.0152589
834.286	0.0154007
834.364	0.0152934
834.443	0.0154201
834.521	0.0153138
834.599	0.0153644
834.677	0.0154324
834.755	0.0153397
834.833	0.0152302
834.911	0.0152587
834.989	0.0151819
835.068	0.0151244
835.146	0.0149852
835.224	0.0149316
835.302	0.0150137
835.380	0.0149637
835.458	0.0148278
835.536	0.0147810
835.614	0.0148470
835.693	0.0148809
835.771	0.0148112
835.849	0.0147433
835.927	0.0147072
836.005	0.0148589
836.083	0.0148476
836.161	0.0148267
836.239	0.0148584
836.318	0.0149144
836.396	0.0148454
836.474	0.0147524
836.552	0.0147263
836.630	0.0147546
836.708	0.0146476
836.786	0.0146732
836.864	0.0146803
836.943	0.0145681
837.021	0.0146126
837.099	0.0146355
837.177	0.0145898
837.255	0.0147069
837.333	0.0147169
837.411	0.0146611
837.489	0.0148071
837.568	0.0147585
837.646	0.0147646
837.724	0.0149209
837.802	0.0149133
837.880	0.0149980
837.958	0.0149996
838.036	0.0151171
838.114	0.0152611
838.193	0.0153278
838.271	0.0152930
838.349	0.0153268
838.427	0.0153278
838.505	0.0153250
838.583	0.0153159
838.661	0.0154118
838.739	0.0154985
838.818	0.0153488
838.896	0.0152911
838.974	0.0152856
839.052	0.0153178
839.130	0.0151492
839.208	0.0151687
839.286	0.0151423
839.364	0.0150069
839.443	0.0148877
839.521	0.0147021
839.599	0.0146542
839.677	0.0144831
839.755	0.0145259
839.833	0.0144691
839.911	0.0145499
839.989	0.0146054
840.068	0.0145513
840.146	0.0145942
840.224	0.0146633
840.302	0.0148119
840.380	0.0147642
840.458	0.0149981
840.536	0.0149777
840.614	0.0150230
840.693	0.0152317
840.771	0.0152370
840.849	0.0152213
840.927	0.0153523
841.005	0.0152892
841.083	0.0151212
841.161	0.0151095
841.239	0.0151188
841.318	0.0151509
841.396	0.0151337
841.474	0.0150132
841.552	0.0150066
841.630	0.0150227
841.708	0.0148610
841.786	0.0149409
841.864	0.0151556
841.943	0.0150567
842.021	0.0149972
842.099	0.0149796
842.177	0.0152154
842.255	0.0151609
842.333	0.0152158
842.411	0.0152806
842.489	0.0152625
842.568	0.0152089
842.646	0.0151248
842.724	0.0151706
842.802	0.0152489
842.880	0.0151104
842.958	0.0151382
843.036	0.0151205
843.114	0.0148946
843.193	0.0147699
843.271	0.0148237
843.349	0.0147371
843.427	0.0145776
843.505	0.0148789
843.583	0.0147617
843.661	0.0146667
843.739	0.0146717
843.818	0.0147373
843.896	0.0146932
843.974	0.0148534
844.052	0.0149789
844.130	0.0150954
844.208	0.0151574
844.286	0.0150569
844.364	0.0151617
844.443	0.0152743
844.521	0.0154657
844.599	0.0152200
844.677	0.0152789
844.755	0.0152369
844.833	0.0152898
844.911	0.0153812
844.989	0.0153972
845.068	0.0153640
845.146	0.0152435
845.224	0.0150239
845.302	0.0150956
845.380	0.0149752
845.458	0.0148176
845.536	0.0147922
845.614	0.0149023
845.693	0.0148453
845.771	0.0147293
845.849	0.0148373
845.927	0.0148629
846.005	0.0147604
846.083	0.0147070
846.161	0.0149815
846.239	0.0149876
846.318	0.0149195
846.396	0.0150286
846.474	0.0152162
846.552	0.0152464
846.630	0.0153405
846.708	0.0154012
846.786	0.0153183
846.864	0.0154936
846.943	0.0154194
847.021	0.0152984
847.099	0.0153273
847.177	0.0154186
847.255	0.0153872
847.333	0.0153297
847.411	0.0152411
847.489	0.0152439
847.568	0.0152116
847.646	0.0150391
847.724	0.0149299
847.802	0.0148475
847.880	0.0149861
847.958	0.0148701
848.036	0.0149433
848.114	0.0148634
848.193	0.0148190
848.271	0.0148076
848.349	0.0149809
848.427	0.0148373
848.505	0.0148633
848.583	0.0150282
848.661	0.0150758
848.739	0.0150685
848.818	0.0149712
848.896	0.0150153
848.974	0.0149946
849.052	0.0150145
849.130	0.0150539
849.208	0.0151769
849.286	0.0150883
849.364	0.0150964
849.443	0.0151683
849.521	0.0150249
849.599	0.0150320
849.677	0.0150517
849.755	0.0150016
849.833	0.0149841
849.911	0.0149318
849.989	0.0149793
850.068	0.0149973
850.146	0.0149874
850.224	0.0149241
850.302	0.0149622
850.380	0.0150142
850.458	0.0149765
850.536	0.0150652
850.614	0.0151012
850.693	0.0150404
850.771	0.0149840
850.849	0.0151010
850.927	0.0151465
851.005	0.0151322
851.083	0.0151488
851.161	0.0152077
851.239	0.0152274
851.318	0.0151110
851.396	0.0151567
851.474	0.0150436
851.552	0.0150811
851.630	0.0149858
851.708	0.0150880
851.786	0.0149583
851.864	0.0147855
851.943	0.0148798
852.021	0.0148625
852.099	0.0148619
852.177	0.0147612
852.255	0.0146375
852.333	0.0148375
852.411	0.0147753
852.489	0.0148159
852.568	0.0148988
852.646	0.0150423
852.724	0.0148894
852.802	0.0149037
852.880	0.0150494
852.958	0.0151761
853.036	0.0152379
853.114	0.0152201
853.193	0.0151157
853.271	0.0151851
853.349	0.0151531
853.427	0.0152480
853.505	0.0151323
853.583	0.0150351
853.661	0.0150638
853.739	0.0148688
853.818	0.0148144
853.896	0.0149328
853.974	0.0147311
854.052	0.0148672
854.130	0.0148167
854.208	0.0147673
854.286	0.0147401
854.364	0.0146971
854.443	0.0147684
854.521	0.0145827
854.599	0.0147842
854.677	0.0148227
854.755	0.0148884
854.833	0.0149632
854.911	0.0150816
854.989	0.0149700
855.068	0.0150739
855.146	0.0152134
855.224	0.0152333
855.302	0.0152993
855.380	0.0152385
855.458	0.0153940
855.536	0.0152631
855.614	0.0153717
855.693	0.0154233
855.771	0.0153608
855.849	0.0152603
855.927	0.0152643
856.005	0.0151987
856.083	0.0152963
856.161	0.0150404
856.239	0.0151349
856.318	0.0150065
856.396	0.0150462
856.474	0.0150688
856.552	0.0150335
856.630	0.0148502
856.708	0.0146163
856.786	0.0147298
856.864	0.0147703
856.943	0.0146071
857.021	0.0147652
857.099	0.0148402
857.177	0.0148836
857.255	0.0149095
857.333	0.0148696
857.411	0.0149623
857.489	0.0150528
857.568	0.0150372
857.646	0.0150838
857.724	0.0151465
857.802	0.0151953
857.880	0.0151331
857.958	0.0152219
858.036	0.0152522
858.114	0.0153249
858.193	0.0152116
858.271	0.0150489
858.349	0.0150105
858.427	0.0150715
858.505	0.0148940
858.583	0.0148988
858.661	0.0148804
858.739	0.0148138
858.818	0.0147305
858.896	0.0147065
858.974	0.0146342
859.052	0.0146432
859.130	0.0146156
859.208	0.0146703
859.286	0.0147044
859.364	0.0148151
859.443	0.0147546
859.521	0.0148508
859.599	0.0149174
859.677	0.0147918
859.755	0.0149640
859.833	0.0150566
859.911	0.0149764
859.989	0.0150723
860.068	0.0150482
860.146	0.0149876
860.224	0.0150086
860.302	0.0150282
860.380	0.0148119
860.458	0.0148597
860.536	0.0149846
860.614	0.0148781
860.693	0.0149483
860.771	0.0148286
860.849	0.0149193
860.927	0.0148293
861.005	0.0150002
861.083	0.0149500
861.161	0.0149850
861.239	0.0149700
861.318	0.0150690
861.396	0.0151542
861.474	0.0152318
861.552	0.0152386
861.630	0.0151427
861.708	0.0151348
861.786	0.0152193
861.864	0.0152743
861.943	0.0153152
862.021	0.0151099
862.099	0.0151383
862.177	0.0151933
862.255	0.0151994
862.333	0.0150071
862.411	0.0150204
862.489	0.0150490
862.568	0.0150352
862.646	0.0149101
862.724	0.0150180
862.802	0.0148425
862.880	0.0148242
862.958	0.0150041
863.036	0.0147499
863.114	0.0148290
863.193	0.0147721
863.271	0.0147366
863.349	0.0146976
863.427	0.0148145
863.505	0.0146904
863.583	0.0147086
863.661	0.0147366
863.739	0.0148276
863.818	0.0146357
863.896	0.0146152
863.974	0.0146882
864.052	0.0146827
864.130	0.0146490
864.208	0.0145955
864.286	0.0144874
864.364	0.0147118
864.443	0.0148894
864.521	0.0148508
864.599	0.0149646
864.677	0.0149928
864.755	0.0149887
864.833	0.0150933
864.911	0.0151273
864.989	0.0150729
865.068	0.0151991
865.146	0.0151968
865.224	0.0153410
865.302	0.0151646
865.380	0.0152261
865.458	0.0152065
865.536	0.0151321
865.614	0.0151538
865.693	0.0151569
865.771	0.0150718
865.849	0.0150413
865.927	0.0150211
866.005	0.0150027
866.083	0.0149460
866.161	0.0150020
866.239	0.0148409
866.318	0.0149222
866.396	0.0151749
866.474	0.0150907
866.552	0.0149595
866.630	0.0150506
866.708	0.0150204
866.786	0.0150273
866.864	0.0152358
866.943	0.0152702
867.021	0.0152110
867.099	0.0152355
867.177	0.0152013
867.255	0.0150979
867.333	0.0152464
867.411	0.0153158
867.489	0.0152316
867.568	0.0151995
867.646	0.0151620
867.724	0.0150975
867.802	0.0150536
867.880	0.0150914
867.958	0.0150880
868.036	0.0149827
868.114	0.0148743
868.193	0.0148827
868.271	0.0147502
868.349	0.0148456
868.427	0.0149170
868.505	0.0148583
868.583	0.0147909
868.661	0.0147068
868.739	0.0147794
868.818	0.0146155
868.896	0.0148367
868.974	0.0148801
869.052	0.0147558
869.130	0.0149802
869.208	0.0150394
869.286	0.0149010
869.364	0.0150303
869.443	0.0149682
869.521	0.0149901
869.599	0.0151187
869.677	0.0149934
869.755	0.0150869
869.833	0.0150181
869.911	0.0151562
869.989	0.0150588
870.068	0.0151240
870.146	0.0151913
870.224	0.0152545
870.302	0.0150769
870.380	0.0152290
870.458	0.0151755
870.536	0.0151471
870.614	0.0152837
870.693	0.0153326
870.771	0.0152923
870.849	0.0152982
870.927	0.0153444
871.005	0.0152603
871.083	0.0154186
871.161	0.0152308
871.239	0.0152483
871.318	0.0150558
871.396	0.0152335
871.474	0.0151080
871.552	0.0149837
871.630	0.0149165
871.708	0.0148867
871.786	0.0148872
871.864	0.0148310
871.943	0.0149142
872.021	0.0148598
872.099	0.0147010
872.177	0.0147675
872.255	0.0148236
872.333	0.0147988
872.411	0.0149168
872.489	0.0148406
872.568	0.0147489
872.646	0.0148283
872.724	0.0149319
872.802	0.0147849
872.880	0.0149513
872.958	0.0148984
873.036	0.0149213
873.114	0.0148906
873.193	0.0149465
873.271	0.0149670
873.349	0.0150643
873.427	0.0150006
873.505	0.0151072
873.583	0.0150098
873.661	0.0148440
873.739	0.0150488
873.818	0.0150590
873.896	0.0150538
873.974	0.0148467
874.052	0.0149784
874.130	0.0150003
874.208	0.0148959
874.286	0.0150391
874.364	0.0149620
874.443	0.0150473
874.521	0.0148769
874.599	0.0150368
874.677	0.0150198
874.755	0.0151363
874.833	0.0150477
874.911	0.0150923
874.989	0.0151463
875.068	0.0152501
875.146	0.0151133
875.224	0.0151165
875.302	0.0150745
875.380	0.0149429
875.458	0.0148958
875.536	0.0148582
875.614	0.0150042
875.693	0.0148930
875.771	0.0147456
875.849	0.0149035
875.927	0.0148179
876.005	0.0146683
876.083	0.0146958
876.161	0.0147310
876.239	0.0146839
876.318	0.0147404
876.396	0.0148647
876.474	0.0149276
876.552	0.0148576
876.630	0.0148962
876.708	0.0149741
876.786	0.0149140
876.864	0.0149995
876.943	0.0147446
877.021	0.0149560
877.099	0.0150047
877.177	0.0148869
877.255	0.0149165
877.333	0.0150819
877.411	0.0151950
877.489	0.0150959
877.568	0.0150471
877.646	0.0149733
877.724	0.0149707
877.802	0.0148524
877.880	0.0149703
877.958	0.0149429
878.036	0.0148971
878.114	0.0149413
878.193	0.0148458
878.271	0.0149979
878.349	0.0149503
878.427	0.0149155
878.505	0.0149289
878.583	0.0148853
878.661	0.0148892
878.739	0.0150558
878.818	0.0149550
878.896	0.0149648
878.974	0.0149655
879.052	0.0149249
879.130	0.0149653
879.208	0.0150481
879.286	0.0149483
879.364	0.0150239
879.443	0.0150856
879.521	0.0150545
879.599	0.0150854
879.677	0.0151551
879.755	0.0151239
879.833	0.0150996
879.911	0.0149267
879.989	0.0149984
880.068	0.0151015
880.146	0.0149394
880.224	0.0149472
880.302	0.0150497
880.380	0.0150183
880.458	0.0151170
880.536	0.0151082
880.614	0.0149776
880.693	0.0150058
880.771	0.0151278
880.849	0.0151710
880.927	0.0152785
881.005	0.0152654
881.083	0.0151500
881.161	0.0151879
881.239	0.0150222
881.318	0.0151413
881.396	0.0150383
881.474	0.0151347
881.552	0.0149380
881.630	0.0150587
881.708	0.0149440
881.786	0.0149007
881.864	0.0149306
881.943	0.0148056
882.021	0.0149153
882.099	0.0147691
882.177	0.0147619
882.255	0.0149230
882.333	0.0147784
882.411	0.0149317
882.489	0.0149580
882.568	0.0148511
882.646	0.0148720
882.724	0.0148955
882.802	0.0149390
882.880	0.0150746
882.958	0.0149976
883.036	0.0149976
883.114	0.0151982
883.193	0.0151344
883.271	0.0151776
883.349	0.0151748
883.427	0.0151285
883.505	0.0152034
883.583	0.0153893
883.661	0.0152153
883.739	0.0151946
883.818	0.0151134
883.896	0.0151370
883.974	0.0150527
884.052	0.0149365
884.130	0.0149522
884.208	0.0148145
884.286	0.0148768
884.364	0.0147410
884.443	0.0147493
884.521	0.0149290
884.599	0.0145789
884.677	0.0146310
884.755	0.0147153
884.833	0.0146372
884.911	0.0148670
884.989	0.0149191
885.068	0.0149598
885.146	0.0149849
885.224	0.0150320
885.302	0.0151132
885.380	0.0152448
885.458	0.0151711
885.536	0.0150956
885.614	0.0153468
885.693	0.0152590
885.771	0.0152642
885.849	0.0152590
885.927	0.0151604
886.005	0.0152211
886.083	0.0150396
886.161	0.0151427
886.239	0.0150204
886.318	0.0151617
886.396	0.0150549
886.474	0.0150088
886.552	0.0147535
886.630	0.0148175
886.708	0.0148651
886.786	0.0148374
886.864	0.0147523
886.943	0.0146133
887.021	0.0146276
887.099	0.0147873
887.177	0.0148189
887.255	0.0147209
887.333	0.0148301
887.411	0.0148510
887.489	0.0147158
887.568	0.0149302
887.646	0.0149113
887.724	0.0149760
887.802	0.0149728
887.880	0.0149329
887.958	0.0148866
888.036	0.0149644
888.114	0.0149975
888.193	0.0148421
888.271	0.0149770
888.349	0.0150278
888.427	0.0150198
888.505	0.0150304
888.583	0.0150726
888.661	0.0151758
888.739	0.0150264
888.818	0.0150596
888.896	0.0151691
888.974	0.0152156
889.052	0.0152302
889.130	0.0151464
889.208	0.0150062
889.286	0.0151135
889.364	0.0150795
889.443	0.0150378
889.521	0.0150561
889.599	0.0150412
889.677	0.0148806
889.755	0.0150488
889.833	0.0148891
889.911	0.0146878
889.989	0.0148853
890.068	0.0148981
890.146	0.0148494
890.224	0.0148408
890.302	0.0149430
890.380	0.0149564
890.458	0.0147906
890.536	0.0150061
890.614	0.0148965
890.693	0.0149517
890.771	0.0149167
890.849	0.0150241
890.927	0.0150056
891.005	0.0150053
891.083	0.0151958
891.161	0.0151443
891.239	0.0150913
891.318	0.0152984
891.396	0.0153001
891.474	0.0152513
891.552	0.0152461
891.630	0.0152944
891.708	0.0151746
891.786	0.0151352
891.864	0.0152163
891.943	0.0150211
892.021	0.0149230
892.099	0.0149102
892.177	0.0149788
892.255	0.0149456
892.333	0.0148759
892.411	0.0148940
892.489	0.0149541
892.568	0.0148995
892.646	0.0149423
892.724	0.0149627
892.802	0.0149529
892.880	0.0150613
892.958	0.0150304
893.036	0.0150396
893.114	0.0151521
893.193	0.0150951
893.271	0.0151016
893.349	0.0151350
893.427	0.0150588
893.505	0.0149852
893.583	0.0151286
893.661	0.0150716
893.739	0.0149560
893.818	0.0150739
893.896	0.0149627
893.974	0.0150356
894.052	0.0149413
894.130	0.0149279
894.208	0.0149290
894.286	0.0150620
894.364	0.0150568
894.443	0.0150175
894.521	0.0150584
894.599	0.0150507
894.677	0.0149845
894.755	0.0149949
894.833	0.0151125
894.911	0.0150056
894.989	0.0149821
895.068	0.0150533
895.146	0.0148743
895.224	0.0152083
895.302	0.0149509
895.380	0.0149921
895.458	0.0150936
895.536	0.0150421
895.614	0.0150085
895.693	0.0150700
895.771	0.0149381
895.849	0.0148103
895.927	0.0150401
896.005	0.0149643
896.083	0.0149042
896.161	0.0149820
896.239	0.0148607
896.318	0.0148057
896.396	0.0148975
896.474	0.0150256
896.552	0.0149297
896.630	0.0149127
896.708	0.0149613
896.786	0.0150236
896.864	0.0150062
896.943	0.0150966
897.021	0.0151229
897.099	0.0150617
897.177	0.0150610
897.255	0.0150380
897.333	0.0149869
897.411	0.0150300
897.489	0.0151465
897.568	0.0151222
897.646	0.0151125
897.724	0.0150198
897.802	0.0150113
897.880	0.0147857
897.958	0.0148981
898.036	0.0149791
898.114	0.0149225
898.193	0.0147683
898.271	0.0147527
898.349	0.0147329
898.427	0.0147742
898.505	0.0148209
898.583	0.0149809
898.661	0.0148928
898.739	0.0149121
898.818	0.0148076
898.896	0.0149294
898.974	0.0148888
899.052	0.0148233
899.130	0.0149210
899.208	0.0149465
899.286	0.0149078
899.364	0.0149478
899.443	0.0148705
899.521	0.0148856
899.599	0.0146963
899.677	0.0147948
899.755	0.0147560
899.833	0.0148883
899.911	0.0148763
899.989	0.0146910
900.068	0.0147401
900.146	0.0147310
900.224	0.0148299
900.302	0.0148844
900.380	0.0149129
900.458	0.0149892
900.536	0.0149434
900.614	0.0151183
900.693	0.0151050
900.771	0.0150179
900.849	0.0150740
900.927	0.0151266
901.005	0.0150163
901.083	0.0149247
901.161	0.0150348
901.239	0.0149333
901.318	0.0149113
901.396	0.0149687
901.474	0.0150679
901.552	0.0148782
901.630	0.0148729
901.708	0.0149811
901.786	0.0149702
901.864	0.0148869
901.943	0.0149564
902.021	0.0148716
902.099	0.0148852
902.177	0.0147917
902.255	0.0148209
902.333	0.0148283
902.411	0.0147955
902.489	0.0148769
902.568	0.0148363
902.646	0.0148852
902.724	0.0148389
902.802	0.0148685
902.880	0.0148061
902.958	0.0148660
903.036	0.0148766
903.114	0.0147977
903.193	0.0148305
903.271	0.0149483
903.349	0.0148760
903.427	0.0147733
903.505	0.0148589
903.583	0.0148398
903.661	0.0147958
903.739	0.0148759
903.818	0.0148058
903.896	0.0148000
903.974	0.0149371
904.052	0.0149016
904.130	0.0148884
904.208	0.0148820
904.286	0.0148129
904.364	0.0148608
904.443	0.0148610
904.521	0.0148915
904.599	0.0150144
904.677	0.0148836
904.755	0.0148763
904.833	0.0149070
904.911	0.0149369
904.989	0.0150942
905.068	0.0149474
905.146	0.0149869
905.224	0.0149766
905.302	0.0150275
905.380	0.0148274
905.458	0.0149696
905.536	0.0151104
905.614	0.0148099
905.693	0.0149120
905.771	0.0150488
905.849	0.0150247
905.927	0.0149067
906.005	0.0151589
906.083	0.0151107
906.161	0.0149145
906.239	0.0150019
906.318	0.0150551
906.396	0.0149857
906.474	0.0149717
906.552	0.0150459
906.630	0.0150299
906.708	0.0148460
906.786	0.0149334
906.864	0.0148798
906.943	0.0149803
907.021	0.0148694
907.099	0.0148355
907.177	0.0148320
907.255	0.0149072
907.333	0.0148685
907.411	0.0148959
907.489	0.0147295
907.568	0.0148335
907.646	0.0148158
907.724	0.0148745
907.802	0.0148206
907.880	0.0150578
907.958	0.0148359
908.036	0.0149052
908.114	0.0150914
908.193	0.0150698
908.271	0.0149189
908.349	0.0149834
908.427	0.0150352
908.505	0.0150906
908.583	0.0151513
908.661	0.0151315
908.739	0.0150733
908.818	0.0152957
908.896	0.0152088
908.974	0.0152414
909.052	0.0151841
909.130	0.0151096
909.208	0.0151378
909.286	0.0152001
909.364	0.0151481
909.443	0.0151590
909.521	0.0150318
909.599	0.0150648
909.677	0.0150391
909.755	0.0149256
909.833	0.0150585
909.911	0.0149314
909.989	0.0150681
910.068	0.0150896
910.146	0.0150438
910.224	0.0150551
910.302	0.0150016
910.380	0.0151782
910.458	0.0150845
910.536	0.0150883
910.614	0.0150031
910.693	0.0150146
910.771	0.0150285
910.849	0.0149932
910.927	0.0149252
911.005	0.0150278
911.083	0.0149680
911.161	0.0149412
911.239	0.0148496
911.318	0.0147128
911.396	0.0149188
911.474	0.0148798
911.552	0.0148611
911.630	0.0148061
911.708	0.0147501
911.786	0.0147359
911.864	0.0147068
911.943	0.0147323
912.021	0.0147586
912.099	0.0147800
912.177	0.0148114
912.255	0.0147267
912.333	0.0148358
912.411	0.0148319
912.489	0.0147916
912.568	0.0147826
912.646	0.0148235
912.724	0.0149570
912.802	0.0148013
912.880	0.0148537
912.958	0.0147192
913.036	0.0148161
913.114	0.0148547
913.193	0.0149450
913.271	0.0148472
913.349	0.0148878
913.427	0.0147233
913.505	0.0147878
913.583	0.0149581
913.661	0.0150291
913.739	0.0149477
913.818	0.0149921
913.896	0.0149483
913.974	0.0150242
914.052	0.0150890
914.130	0.0152401
914.208	0.0151060
914.286	0.0151185
914.364	0.0151475
914.443	0.0150756
914.521	0.0151632
914.599	0.0151265
914.677	0.0150855
914.755	0.0150641
914.833	0.0150237
914.911	0.0150581
914.989	0.0150280
915.068	0.0148637
915.146	0.0150240
915.224	0.0149710
915.302	0.0150125
915.380	0.0150359
915.458	0.0148818
915.536	0.0150174
915.614	0.0149960
915.693	0.0148284
915.771	0.0147649
915.849	0.0149421
915.927	0.0147006
916.005	0.0148135
916.083	0.0147461
916.161	0.0149519
916.239	0.0148029
916.318	0.0148421
916.396	0.0149457
916.474	0.0149586
916.552	0.0150089
916.630	0.0149343
916.708	0.0151078
916.786	0.0150078
916.864	0.0149603
916.943	0.0150276
917.021	0.0150130
917.099	0.0148972
917.177	0.0150536
917.255	0.0150189
917.333	0.0150842
917.411	0.0150793
917.489	0.0150256
917.568	0.0148367
917.646	0.0149787
917.724	0.0149489
917.802	0.0148141
917.880	0.0148014
917.958	0.0150502
918.036	0.0149382
918.114	0.0149618
918.193	0.0149946
918.271	0.0148969
918.349	0.0149390
918.427	0.0150581
918.505	0.0149589
918.583	0.0150883
918.661	0.0150963
918.739	0.0150749
918.818	0.0150533
918.896	0.0151372
918.974	0.0150497
919.052	0.0151635
919.130	0.0149890
919.208	0.0150365
919.286	0.0149933
919.364	0.0148808
919.443	0.0148997
919.521	0.0149223
919.599	0.0147195
919.677	0.0147057
919.755	0.0146728
919.833	0.0148614
919.911	0.0145784
919.989	0.0146156
920.068	0.0147531
920.146	0.0147193
920.224	0.0147649
920.302	0.0147811
920.380	0.0147382
920.458	0.0147558
920.536	0.0149679
920.614	0.0148073
920.693	0.0147796
920.771	0.0149344
920.849	0.0147822
920.927	0.0146558
921.005	0.0146826
921.083	0.0147276
921.161	0.0147194
921.239	0.0148093
921.318	0.0148261
921.396	0.0148322
921.474	0.0149054
921.552	0.0149054
921.630	0.0150027
921.708	0.0148472
921.786	0.0149356
921.864	0.0150158
921.943	0.0149870
922.021	0.0150478
922.099	0.0149548
922.177	0.0150355
922.255	0.0150269
922.333	0.0150110
922.411	0.0149665
922.489	0.0149731
922.568	0.0150494
922.646	0.0149214
922.724	0.0150464
922.802	0.0150506
922.880	0.0151727
922.958	0.0149137
923.036	0.0148724
923.114	0.0149744
923.193	0.0151173
923.271	0.0149300
923.349	0.0148902
923.427	0.0150117
923.505	0.0147718
923.583	0.0148885
923.661	0.0149525
923.739	0.0148267
923.818	0.0150092
923.896	0.0149004
923.974	0.0148496
924.052	0.0149202
924.130	0.0149866
924.208	0.0149897
924.286	0.0149799
924.364	0.0148817
924.443	0.0150296
924.521	0.0149305
924.599	0.0150867
924.677	0.0150522
924.755	0.0149332
924.833	0.0149323
924.911	0.0151222
924.989	0.0150731
925.068	0.0151281
925.146	0.0150710
925.224	0.0149957
925.302	0.0150580
925.380	0.0151653
925.458	0.0148690
925.536	0.0150040
925.614	0.0149757
925.693	0.0149281
925.771	0.0150034
925.849	0.0148589
925.927	0.0150064
926.005	0.0149706
926.083	0.0149258
926.161	0.0149702
926.239	0.0150416
926.318	0.0149084
926.396	0.0149030
926.474	0.0149609
926.552	0.0150343
926.630	0.0149625
926.708	0.0151241
926.786	0.0150622
926.864	0.0150052
926.943	0.0150783
927.021	0.0150543
927.099	0.0148763
927.177	0.0149206
927.255	0.0148232
927.333	0.0150481
927.411	0.0150199
927.489	0.0150993
927.568	0.0152812
927.646	0.0151138
927.724	0.0150681
927.802	0.0151093
927.880	0.0153619
927.958	0.0152209
928.036	0.0150906
928.114	0.0150629
928.193	0.0151056
928.271	0.0153375
928.349	0.0151596
928.427	0.0150403
928.505	0.0150425
928.583	0.0150620
928.661	0.0151017
928.739	0.0150975
928.818	0.0152628
928.896	0.0151622
928.974	0.0150655
929.052	0.0149950
929.130	0.0149493
929.208	0.0150323
929.286	0.0150124
929.364	0.0148909
929.443	0.0150638
929.521	0.0148440
929.599	0.0148200
929.677	0.0147229
929.755	0.0147667
929.833	0.0147493
929.911	0.0146947
929.989	0.0146217
930.068	0.0146991
930.146	0.0147701
930.224	0.0147586
930.302	0.0148416
930.380	0.0147788
930.458	0.0147076
930.536	0.0148331
930.614	0.0148638
930.693	0.0150161
930.771	0.0149772
930.849	0.0149450
930.927	0.0149856
931.005	0.0151214
931.083	0.0150299
931.161	0.0150230
931.239	0.0151059
931.318	0.0152450
931.396	0.0149862
931.474	0.0149949
931.552	0.0150780
931.630	0.0150890
931.708	0.0150637
931.786	0.0149962
931.864	0.0151240
931.943	0.0151668
932.021	0.0151012
932.099	0.0150780
932.177	0.0150555
932.255	0.0151366
932.333	0.0150538
932.411	0.0149836
932.489	0.0151604
932.568	0.0150122
932.646	0.0149466
932.724	0.0150431
932.802	0.0150182
932.880	0.0149255
932.958	0.0150096
933.036	0.0149434
933.114	0.0150616
933.193	0.0150150
933.271	0.0148698
933.349	0.0150455
933.427	0.0148857
933.505	0.0149013
933.583	0.0148503
933.661	0.0148891
933.739	0.0148970
933.818	0.0148568
933.896	0.0149184
933.974	0.0148833
934.052	0.0148032
934.130	0.0147888
934.208	0.0148785
934.286	0.0148689
934.364	0.0149294
934.443	0.0148205
934.521	0.0149960
934.599	0.0152017
934.677	0.0148436
934.755	0.0150844
934.833	0.0151237
934.911	0.0152341
934.989	0.0151604
935.068	0.0151862
935.146	0.0151466
935.224	0.0151942
935.302	0.0151622
935.380	0.0152040
935.458	0.0150115
935.536	0.0150049
935.614	0.0149770
935.693	0.0149610
935.771	0.0149436
935.849	0.0147871
935.927	0.0149387
936.005	0.0148281
936.083	0.0149416
936.161	0.0150127
936.239	0.0147827
936.318	0.0148067
936.396	0.0148718
936.474	0.0149841
936.552	0.0150150
936.630	0.0149261
936.708	0.0147877
936.786	0.0148686
936.864	0.0149935
936.943	0.0148957
937.021	0.0148120
937.099	0.0148545
937.177	0.0149371
937.255	0.0148756
937.333	0.0147801
937.411	0.0149147
937.489	0.0148856
937.568	0.0148991
937.646	0.0148819
937.724	0.0148473
937.802	0.0148429
937.880	0.0148228
937.958	0.0149178
938.036	0.0147731
938.114	0.0149012
938.193	0.0149768
938.271	0.0149183
938.349	0.0149150
938.427	0.0149848
938.505	0.0148901
938.583	0.0149628
938.661	0.0150885
938.739	0.0149242
938.818	0.0150387
938.896	0.0150037
938.974	0.0150309
939.052	0.0148825
939.130	0.0149899
939.208	0.0150397
939.286	0.0149642
939.364	0.0148997
939.443	0.0149357
939.521	0.0151108
939.599	0.0149535
939.677	0.0149998
939.755	0.0149595
939.833	0.0149498
939.911	0.0148419
939.989	0.0148820
940.068	0.0150514
940.146	0.0147625
940.224	0.0147605
940.302	0.0150021
940.380	0.0149051
940.458	0.0148275
940.536	0.0147713
940.614	0.0148988
940.693	0.0148940
940.771	0.0147718
940.849	0.0150041
940.927	0.0149746
941.005	0.0148107
941.083	0.0148812
941.161	0.0149088
941.239	0.0148866
941.318	0.0149916
941.396	0.0149337
941.474	0.0149632
941.552	0.0149742
941.630	0.0149601
941.708	0.0148951
941.786	0.0150765
941.864	0.0148891
941.943	0.0148340
942.021	0.0148788
942.099	0.0148798
942.177	0.0150063
942.255	0.0149429
942.333	0.0149302
942.411	0.0148528
942.489	0.0148848
942.568	0.0149780
942.646	0.0149998
942.724	0.0151363
942.802	0.0149931
942.880	0.0150378
942.958	0.0150944
943.036	0.0150203
943.114	0.0149760
943.193	0.0151326
943.271	0.0150116
943.349	0.0152540
943.427	0.0150201
943.505	0.0149543
943.583	0.0152023
943.661	0.0151807
943.739	0.0151173
943.818	0.0150295
943.896	0.0151034
943.974	0.0151606
944.052	0.0152149
944.130	0.0151398
944.208	0.0150854
944.286	0.0151724
944.364	0.0152798
944.443	0.0152159
944.521	0.0150367
944.599	0.0150400
944.677	0.0151255
944.755	0.0150028
944.833	0.0150301
944.911	0.0152066
944.989	0.0149430
945.068	0.0149536
945.146	0.0151305
945.224	0.0149615
945.302	0.0149164
945.380	0.0150986
945.458	0.0150477
945.536	0.0149809
945.614	0.0148946
945.693	0.0149614
945.771	0.0151105
945.849	0.0150825
945.927	0.0151877
946.005	0.0151786
946.083	0.0151102
946.161	0.0150554
946.239	0.0151443
946.318	0.0150420
946.396	0.0150462
946.474	0.0149706
946.552	0.0150154
946.630	0.0151160
946.708	0.0150082
946.786	0.0150420
946.864	0.0150891
946.943	0.0150465
947.021	0.0150980
947.099	0.0151041
947.177	0.0149908
947.255	0.0149482
947.333	0.0148697
947.411	0.0150425
947.489	0.0150520
947.568	0.0150430
947.646	0.0150912
947.724	0.0151290
947.802	0.0150812
947.880	0.0151336
947.958	0.0151656
948.036	0.0151504
948.114	0.0152056
948.193	0.0152170
948.271	0.0151202
948.349	0.0150889
948.427	0.0150319
948.505	0.0151088
948.583	0.0151376
948.661	0.0149659
948.739	0.0149151
948.818	0.0151407
948.896	0.0150039
948.974	0.0151447
949.052	0.0149565
949.130	0.0149699
949.208	0.0149821
949.286	0.0151107
949.364	0.0149899
949.443	0.0150387
949.521	0.0150951
949.599	0.0149081
949.677	0.0150127
949.755	0.0150314
949.833	0.0149071
949.911	0.0150056
949.989	0.0150278
950.068	0.0148318
950.146	0.0150742
950.224	0.0150317
950.302	0.0149818
950.380	0.0149110
950.458	0.0149023
950.536	0.0151281
950.614	0.0149313
950.693	0.0149997
950.771	0.0148442
950.849	0.0148890
950.927	0.0150153
951.005	0.0148895
951.083	0.0149484
951.161	0.0149287
951.239	0.0149753
951.318	0.0150209
951.396	0.0150528
951.474	0.0149074
951.552	0.0150278
951.630	0.0150113
951.708	0.0150465
951.786	0.0150181
951.864	0.0151641
951.943	0.0149265
952.021	0.0151637
952.099	0.0150703
952.177	0.0149580
952.255	0.0152063
952.333	0.0150817
952.411	0.0151134
952.489	0.0150999
952.568	0.0151470
952.646	0.0150517
952.724	0.0151417
952.802	0.0150459
952.880	0.0150992
952.958	0.0150473
953.036	0.0150227
953.114	0.0149847
953.193	0.0151215
953.271	0.0150333
953.349	0.0151457
953.427	0.0150580
953.505	0.0151858
953.583	0.0150714
953.661	0.0150805
953.739	0.0149586
953.818	0.0151271
953.896	0.0150941
953.974	0.0151115
954.052	0.0150621
954.130	0.0150861
954.208	0.0150422
954.286	0.0152372
954.364	0.0150948
954.443	0.0150967
954.521	0.0151146
954.599	0.0151953
954.677	0.0150565
954.755	0.0150603
954.833	0.0151326
954.911	0.0151542
954.989	0.0152104
955.068	0.0152013
955.146	0.0152025
955.224	0.0151804
955.302	0.0149726
955.380	0.0150626
955.458	0.0151153
955.536	0.0151163
955.614	0.0151534
955.693	0.0150803
955.771	0.0150666
955.849	0.0150149
955.927	0.0149097
956.005	0.0148650
956.083	0.0149532
956.161	0.0149491
956.239	0.0147733
956.318	0.0147649
956.396	0.0147758
956.474	0.0146551
956.552	0.0148328
956.630	0.0148279
956.708	0.0149596
956.786	0.0148197
956.864	0.0149426
956.943	0.0149752
957.021	0.0149191
957.099	0.0149677
957.177	0.0150406
957.255	0.0150286
957.333	0.0149890
957.411	0.0149921
957.489	0.0148312
957.568	0.0150710
957.646	0.0149049
957.724	0.0150449
957.802	0.0150587
957.880	0.0148788
957.958	0.0149772
958.036	0.0150285
958.114	0.0150810
958.193	0.0149238
958.271	0.0150668
958.349	0.0151707
958.427	0.0150993
958.505	0.0150801
958.583	0.0151482
958.661	0.0151699
958.739	0.0151424
958.818	0.0149916
958.896	0.0150313
958.974	0.0150616
959.052	0.0151440
959.130	0.0151717
959.208	0.0151060
959.286	0.0149700
959.364	0.0149309
959.443	0.0150931
959.521	0.0148627
959.599	0.0149712
959.677	0.0149928
959.755	0.0148293
959.833	0.0148566
959.911	0.0148025
