05/14/2022	16:56:38	Ver.	4.1	UNKNOWN
Optical Delay	639.989416	Delta X		0.078125	Sweeps	1	Scan Rate	0/0
Coordinates	Axis 1	NaN	Axis 2	NaN	Axis 3	NaN	Axis 4	NaN	Axis 5	NaN	Axis 6	0.000000
TX Power	0.000000	RX Power	0.000000

639.989	0.0150023
640.068	0.0148465
640.146	0.0147939
640.224	0.0149420
640.302	0.0148328
640.380	0.0148672
640.458	0.0148612
640.536	0.0148588
640.614	0.0147597
640.693	0.0148019
640.771	0.0147770
640.849	0.0147805
640.927	0.0149358
641.005	0.0148360
641.083	0.0148753
641.161	0.0148455
641.239	0.0149024
641.318	0.0148037
641.396	0.0149408
641.474	0.0149555
641.552	0.0149309
641.630	0.0148664
641.708	0.0148195
641.786	0.0148949
641.864	0.0148768
641.943	0.0146986
642.021	0.0148093
642.099	0.0150382
642.177	0.0148276
642.255	0.0147575
642.333	0.0148380
642.411	0.0151236
642.489	0.0149615
642.568	0.0150156
642.646	0.0149216
642.724	0.0148815
642.802	0.0150319
642.880	0.0150082
642.958	0.0149319
643.036	0.0148698
643.114	0.0148783
643.193	0.0148341
643.271	0.0149134
643.349	0.0150433
643.427	0.0150403
643.505	0.0150127
643.583	0.0148873
643.661	0.0149330
643.739	0.0149425
643.818	0.0148554
643.896	0.0147453
643.974	0.0149359
644.052	0.0149820
644.130	0.0149059
644.208	0.0150211
644.286	0.0148523
644.364	0.0149586
644.443	0.0148410
644.521	0.0146894
644.599	0.0149638
644.677	0.0149474
644.755	0.0149453
644.833	0.0149055
644.911	0.0148141
644.989	0.0148520
645.068	0.0148280
645.146	0.0149012
645.224	0.0149939
645.302	0.0147863
645.380	0.0149897
645.458	0.0150152
645.536	0.0147551
645.614	0.0149429
645.693	0.0150298
645.771	0.0150172
645.849	0.0150095
645.927	0.0150018
646.005	0.0149582
646.083	0.0150132
646.161	0.0149227
646.239	0.0150333
646.318	0.0149177
646.396	0.0150802
646.474	0.0150722
646.552	0.0149231
646.630	0.0151656
646.708	0.0150901
646.786	0.0149969
646.864	0.0150645
646.943	0.0148865
647.021	0.0150056
647.099	0.0149711
647.177	0.0149895
647.255	0.0151125
647.333	0.0150677
647.411	0.0150295
647.489	0.0151126
647.568	0.0151138
647.646	0.0150657
647.724	0.0151246
647.802	0.0151690
647.880	0.0150632
647.958	0.0151073
648.036	0.0151178
648.114	0.0150356
648.193	0.0150104
648.271	0.0150689
648.349	0.0152242
648.427	0.0151321
648.505	0.0152300
648.583	0.0150515
648.661	0.0151943
648.739	0.0151974
648.818	0.0150915
648.896	0.0151782
648.974	0.0150995
649.052	0.0152934
649.130	0.0151122
649.208	0.0151109
649.286	0.0151765
649.364	0.0152196
649.443	0.0152445
649.521	0.0152584
649.599	0.0151821
649.677	0.0152097
649.755	0.0152554
649.833	0.0154077
649.911	0.0154028
649.989	0.0152892
650.068	0.0150977
650.146	0.0152187
650.224	0.0151618
650.302	0.0152934
650.380	0.0151508
650.458	0.0152351
650.536	0.0152749
650.614	0.0152285
650.693	0.0152006
650.771	0.0151945
650.849	0.0151790
650.927	0.0151385
651.005	0.0150676
651.083	0.0152020
651.161	0.0152436
651.239	0.0151541
651.318	0.0151356
651.396	0.0152058
651.474	0.0151507
651.552	0.0151455
651.630	0.0150351
651.708	0.0151530
651.786	0.0152147
651.864	0.0150737
651.943	0.0151634
652.021	0.0151111
652.099	0.0152500
652.177	0.0151259
652.255	0.0150485
652.333	0.0151016
652.411	0.0150642
652.489	0.0149489
652.568	0.0150009
652.646	0.0150489
652.724	0.0149662
652.802	0.0150505
652.880	0.0151196
652.958	0.0150014
653.036	0.0149022
653.114	0.0149638
653.193	0.0150575
653.271	0.0149609
653.349	0.0148668
653.427	0.0150667
653.505	0.0150656
653.583	0.0149498
653.661	0.0152454
653.739	0.0150993
653.818	0.0150890
653.896	0.0150540
653.974	0.0150574
654.052	0.0149502
654.130	0.0150762
654.208	0.0150365
654.286	0.0151129
654.364	0.0149455
654.443	0.0150116
654.521	0.0150713
654.599	0.0150298
654.677	0.0150214
654.755	0.0151530
654.833	0.0150063
654.911	0.0149980
654.989	0.0150000
655.068	0.0149532
655.146	0.0149005
655.224	0.0149766
655.302	0.0149981
655.380	0.0149685
655.458	0.0148919
655.536	0.0150204
655.614	0.0150598
655.693	0.0149602
655.771	0.0150359
655.849	0.0149878
655.927	0.0150014
656.005	0.0149664
656.083	0.0149139
656.161	0.0150212
656.239	0.0149224
656.318	0.0148498
656.396	0.0150632
656.474	0.0149342
656.552	0.0149171
656.630	0.0149062
656.708	0.0149603
656.786	0.0149422
656.864	0.0149288
656.943	0.0147540
657.021	0.0148065
657.099	0.0149959
657.177	0.0149754
657.255	0.0148405
657.333	0.0149066
657.411	0.0148277
657.489	0.0149566
657.568	0.0149422
657.646	0.0150114
657.724	0.0150027
657.802	0.0150790
657.880	0.0148579
657.958	0.0148830
658.036	0.0148912
658.114	0.0148843
658.193	0.0149625
658.271	0.0149897
658.349	0.0148743
658.427	0.0148564
658.505	0.0147423
658.583	0.0148660
658.661	0.0148639
658.739	0.0148602
658.818	0.0147575
658.896	0.0147839
658.974	0.0148392
659.052	0.0148529
659.130	0.0148003
659.208	0.0149419
659.286	0.0149722
659.364	0.0149121
659.443	0.0149124
659.521	0.0149757
659.599	0.0149593
659.677	0.0149226
659.755	0.0149810
659.833	0.0149564
659.911	0.0149229
659.989	0.0149191
660.068	0.0148642
660.146	0.0148785
660.224	0.0148278
660.302	0.0149106
660.380	0.0148420
660.458	0.0149357
660.536	0.0148972
660.614	0.0148457
660.693	0.0147872
660.771	0.0148151
660.849	0.0148399
660.927	0.0148563
661.005	0.0147340
661.083	0.0147829
661.161	0.0149392
661.239	0.0148548
661.318	0.0150613
661.396	0.0148806
661.474	0.0150490
661.552	0.0151312
661.630	0.0150038
661.708	0.0149546
661.786	0.0150397
661.864	0.0151665
661.943	0.0150856
662.021	0.0151059
662.099	0.0150924
662.177	0.0151410
662.255	0.0151923
662.333	0.0149737
662.411	0.0149451
662.489	0.0150187
662.568	0.0149729
662.646	0.0150179
662.724	0.0147950
662.802	0.0147610
662.880	0.0146185
662.958	0.0147041
663.036	0.0148280
663.114	0.0144313
663.193	0.0145090
663.271	0.0146410
663.349	0.0146917
663.427	0.0145992
663.505	0.0146976
663.583	0.0147077
663.661	0.0148416
663.739	0.0146740
663.818	0.0148327
663.896	0.0149332
663.974	0.0150080
664.052	0.0150979
664.130	0.0150542
664.208	0.0154637
664.286	0.0154143
664.364	0.0153957
664.443	0.0152833
664.521	0.0154346
664.599	0.0155805
664.677	0.0154466
664.755	0.0154604
664.833	0.0154980
664.911	0.0155417
664.989	0.0154937
665.068	0.0153288
665.146	0.0152638
665.224	0.0150735
665.302	0.0149341
665.380	0.0149209
665.458	0.0149093
665.536	0.0147563
665.614	0.0145995
665.693	0.0144856
665.771	0.0144127
665.849	0.0143147
665.927	0.0142910
666.005	0.0143175
666.083	0.0143090
666.161	0.0140537
666.239	0.0141171
666.318	0.0140287
666.396	0.0141866
666.474	0.0141261
666.552	0.0141102
666.630	0.0143453
666.708	0.0144369
666.786	0.0144706
666.864	0.0147437
666.943	0.0148437
667.021	0.0149766
667.099	0.0151329
667.177	0.0153946
667.255	0.0153855
667.333	0.0155383
667.411	0.0157880
667.489	0.0159978
667.568	0.0160184
667.646	0.0161326
667.724	0.0161980
667.802	0.0162410
667.880	0.0161195
667.958	0.0161668
668.036	0.0161459
668.114	0.0160567
668.193	0.0159360
668.271	0.0159888
668.349	0.0156857
668.427	0.0155695
668.505	0.0155257
668.583	0.0153818
668.661	0.0151332
668.739	0.0149226
668.818	0.0147661
668.896	0.0145306
668.974	0.0143747
669.052	0.0141473
669.130	0.0139009
669.208	0.0139371
669.286	0.0137498
669.364	0.0136499
669.443	0.0137704
669.521	0.0136072
669.599	0.0136023
669.677	0.0137364
669.755	0.0137063
669.833	0.0138598
669.911	0.0139878
669.989	0.0139527
670.068	0.0142809
670.146	0.0141863
670.224	0.0146756
670.302	0.0149128
670.380	0.0147324
670.458	0.0150235
670.536	0.0151743
670.614	0.0154951
670.693	0.0157081
670.771	0.0157227
670.849	0.0160265
670.927	0.0159601
671.005	0.0160648
671.083	0.0162584
671.161	0.0163369
671.239	0.0163518
671.318	0.0164019
671.396	0.0164080
671.474	0.0164166
671.552	0.0162502
671.630	0.0161385
671.708	0.0159825
671.786	0.0159248
671.864	0.0159540
671.943	0.0155296
672.021	0.0154953
672.099	0.0152107
672.177	0.0151173
672.255	0.0149106
672.333	0.0148069
672.411	0.0146219
672.489	0.0145002
672.568	0.0141317
672.646	0.0141382
672.724	0.0139364
672.802	0.0139219
672.880	0.0138968
672.958	0.0138576
673.036	0.0138269
673.114	0.0139257
673.193	0.0137840
673.271	0.0138662
673.349	0.0140536
673.427	0.0140951
673.505	0.0142681
673.583	0.0142555
673.661	0.0144411
673.739	0.0144547
673.818	0.0145193
673.896	0.0146937
673.974	0.0148186
674.052	0.0149534
674.130	0.0151918
674.208	0.0152269
674.286	0.0154483
674.364	0.0152674
674.443	0.0155150
674.521	0.0154517
674.599	0.0154955
674.677	0.0155305
674.755	0.0155611
674.833	0.0156056
674.911	0.0154942
674.989	0.0156860
675.068	0.0156595
675.146	0.0156210
675.224	0.0156815
675.302	0.0156908
675.380	0.0156722
675.458	0.0155022
675.536	0.0155385
675.614	0.0156345
675.693	0.0157732
675.771	0.0158694
675.849	0.0157790
675.927	0.0157896
676.005	0.0159536
676.083	0.0160315
676.161	0.0160423
676.239	0.0161001
676.318	0.0160679
676.396	0.0160443
676.474	0.0160796
676.552	0.0160730
676.630	0.0159380
676.708	0.0159362
676.786	0.0158612
676.864	0.0157905
676.943	0.0156946
677.021	0.0155812
677.099	0.0152101
677.177	0.0150426
677.255	0.0149413
677.333	0.0146970
677.411	0.0144969
677.489	0.0143694
677.568	0.0141372
677.646	0.0138580
677.724	0.0136790
677.802	0.0135217
677.880	0.0133968
677.958	0.0132650
678.036	0.0131013
678.114	0.0130200
678.193	0.0130992
678.271	0.0131251
678.349	0.0130527
678.427	0.0131858
678.505	0.0132367
678.583	0.0133777
678.661	0.0136513
678.739	0.0139562
678.818	0.0141201
678.896	0.0144373
678.974	0.0148371
679.052	0.0149355
679.130	0.0153822
679.208	0.0155650
679.286	0.0158485
679.364	0.0161326
679.443	0.0166161
679.521	0.0169154
679.599	0.0170251
679.677	0.0174088
679.755	0.0174254
679.833	0.0175244
679.911	0.0176965
679.989	0.0176845
680.068	0.0177783
680.146	0.0177939
680.224	0.0177134
680.302	0.0175814
680.380	0.0173355
680.458	0.0173714
680.536	0.0171246
680.614	0.0167676
680.693	0.0166237
680.771	0.0162686
680.849	0.0159309
680.927	0.0156112
681.005	0.0153486
681.083	0.0150462
681.161	0.0147906
681.239	0.0144412
681.318	0.0141199
681.396	0.0137601
681.474	0.0134784
681.552	0.0132677
681.630	0.0130962
681.708	0.0129043
681.786	0.0127770
681.864	0.0125677
681.943	0.0125294
682.021	0.0125414
682.099	0.0124495
682.177	0.0125797
682.255	0.0125765
682.333	0.0126303
682.411	0.0127251
682.489	0.0128457
682.568	0.0131419
682.646	0.0131020
682.724	0.0133574
682.802	0.0135640
682.880	0.0138567
682.958	0.0140228
683.036	0.0143367
683.114	0.0146520
683.193	0.0149163
683.271	0.0152501
683.349	0.0154726
683.427	0.0157743
683.505	0.0159045
683.583	0.0161096
683.661	0.0163720
683.739	0.0165221
683.818	0.0167930
683.896	0.0169225
683.974	0.0169470
684.052	0.0172948
684.130	0.0174066
684.208	0.0172894
684.286	0.0173838
684.364	0.0174319
684.443	0.0173991
684.521	0.0173386
684.599	0.0172398
684.677	0.0171143
684.755	0.0171787
684.833	0.0169876
684.911	0.0168702
684.989	0.0165813
685.068	0.0164053
685.146	0.0162263
685.224	0.0160709
685.302	0.0157829
685.380	0.0154084
685.458	0.0152125
685.536	0.0149329
685.614	0.0148788
685.693	0.0147136
685.771	0.0143165
685.849	0.0140678
685.927	0.0138868
686.005	0.0137356
686.083	0.0134870
686.161	0.0134535
686.239	0.0133806
686.318	0.0132687
686.396	0.0131602
686.474	0.0131161
686.552	0.0131112
686.630	0.0131392
686.708	0.0130611
686.786	0.0131866
686.864	0.0133562
686.943	0.0132739
687.021	0.0133837
687.099	0.0136681
687.177	0.0137107
687.255	0.0137846
687.333	0.0139023
687.411	0.0141366
687.489	0.0142593
687.568	0.0142654
687.646	0.0144524
687.724	0.0145610
687.802	0.0145350
687.880	0.0149049
687.958	0.0149254
688.036	0.0151158
688.114	0.0153333
688.193	0.0154555
688.271	0.0155284
688.349	0.0156377
688.427	0.0160118
688.505	0.0160791
688.583	0.0161572
688.661	0.0163344
688.739	0.0164673
688.818	0.0164622
688.896	0.0165405
688.974	0.0166657
689.052	0.0167021
689.130	0.0167625
689.208	0.0167905
689.286	0.0168147
689.364	0.0167393
689.443	0.0166972
689.521	0.0165812
689.599	0.0165862
689.677	0.0164443
689.755	0.0163465
689.833	0.0160992
689.911	0.0161034
689.989	0.0159811
690.068	0.0160232
690.146	0.0157748
690.224	0.0155399
690.302	0.0155228
690.380	0.0152158
690.458	0.0152106
690.536	0.0148642
690.614	0.0146754
690.693	0.0145081
690.771	0.0142872
690.849	0.0141256
690.927	0.0140187
691.005	0.0138557
691.083	0.0136362
691.161	0.0135323
691.239	0.0135690
691.318	0.0137593
691.396	0.0134014
691.474	0.0132991
691.552	0.0133354
691.630	0.0135625
691.708	0.0136300
691.786	0.0135748
691.864	0.0137990
691.943	0.0139870
692.021	0.0140631
692.099	0.0140331
692.177	0.0144455
692.255	0.0145020
692.333	0.0147335
692.411	0.0147894
692.489	0.0149045
692.568	0.0151440
692.646	0.0153114
692.724	0.0155025
692.802	0.0157127
692.880	0.0157343
692.958	0.0160037
693.036	0.0160294
693.114	0.0160786
693.193	0.0162428
693.271	0.0163728
693.349	0.0164227
693.427	0.0163542
693.505	0.0163132
693.583	0.0161734
693.661	0.0163096
693.739	0.0162474
693.818	0.0162975
693.896	0.0161415
693.974	0.0161613
694.052	0.0161359
694.130	0.0161517
694.208	0.0161967
694.286	0.0160236
694.364	0.0158507
694.443	0.0157953
694.521	0.0158202
694.599	0.0156376
694.677	0.0156110
694.755	0.0155309
694.833	0.0154833
694.911	0.0154179
694.989	0.0151303
695.068	0.0150433
695.146	0.0150136
695.224	0.0149641
695.302	0.0146069
695.380	0.0148780
695.458	0.0147501
695.536	0.0144666
695.614	0.0144168
695.693	0.0144988
695.771	0.0144951
695.849	0.0144859
695.927	0.0144012
696.005	0.0144434
696.083	0.0143184
696.161	0.0144366
696.239	0.0143792
696.318	0.0144263
696.396	0.0144329
696.474	0.0143628
696.552	0.0143582
696.630	0.0143124
696.708	0.0145054
696.786	0.0145947
696.864	0.0144173
696.943	0.0146034
697.021	0.0146557
697.099	0.0148199
697.177	0.0147697
697.255	0.0148813
697.333	0.0149902
697.411	0.0148272
697.489	0.0150590
697.568	0.0150648
697.646	0.0151153
697.724	0.0151392
697.802	0.0152024
697.880	0.0153075
697.958	0.0152117
698.036	0.0153598
698.114	0.0153106
698.193	0.0152677
698.271	0.0154629
698.349	0.0151702
698.427	0.0150568
698.505	0.0151942
698.583	0.0151113
698.661	0.0150890
698.739	0.0149669
698.818	0.0150751
698.896	0.0150397
698.974	0.0150795
699.052	0.0150504
699.130	0.0150021
699.208	0.0150284
699.286	0.0149815
699.364	0.0150719
699.443	0.0153695
699.521	0.0153469
699.599	0.0154022
699.677	0.0153986
699.755	0.0153836
699.833	0.0155334
699.911	0.0156478
699.989	0.0155310
700.068	0.0156020
700.146	0.0158626
700.224	0.0157634
700.302	0.0156642
700.380	0.0156718
700.458	0.0157331
700.536	0.0156480
700.614	0.0155246
700.693	0.0154613
700.771	0.0152890
700.849	0.0153062
700.927	0.0152246
701.005	0.0151507
701.083	0.0150751
701.161	0.0148576
701.239	0.0148426
701.318	0.0145921
701.396	0.0145656
701.474	0.0145900
701.552	0.0144970
701.630	0.0144886
701.708	0.0145507
701.786	0.0144340
701.864	0.0144278
701.943	0.0145186
702.021	0.0144853
702.099	0.0145639
702.177	0.0144598
702.255	0.0146190
702.333	0.0146900
702.411	0.0148424
702.489	0.0149832
702.568	0.0149788
702.646	0.0149985
702.724	0.0152150
702.802	0.0152975
702.880	0.0152225
702.958	0.0155864
703.036	0.0155986
703.114	0.0157107
703.193	0.0157209
703.271	0.0157277
703.349	0.0158165
703.427	0.0159379
703.505	0.0159799
703.583	0.0158600
703.661	0.0158958
703.739	0.0159216
703.818	0.0157881
703.896	0.0159144
703.974	0.0156731
704.052	0.0155938
704.130	0.0154999
704.208	0.0154485
704.286	0.0153160
704.364	0.0151579
704.443	0.0152589
704.521	0.0149046
704.599	0.0146947
704.677	0.0146465
704.755	0.0145468
704.833	0.0144941
704.911	0.0143598
704.989	0.0143447
705.068	0.0142902
705.146	0.0142695
705.224	0.0140049
705.302	0.0141540
705.380	0.0141731
705.458	0.0142275
705.536	0.0143549
705.614	0.0144338
705.693	0.0145095
705.771	0.0145364
705.849	0.0145578
705.927	0.0148290
706.005	0.0148161
706.083	0.0147460
706.161	0.0149419
706.239	0.0149582
706.318	0.0150935
706.396	0.0150200
706.474	0.0150270
706.552	0.0150304
706.630	0.0150315
706.708	0.0149547
706.786	0.0149178
706.864	0.0148927
706.943	0.0149256
707.021	0.0148891
707.099	0.0148838
707.177	0.0149731
707.255	0.0148412
707.333	0.0149246
707.411	0.0149940
707.489	0.0151104
707.568	0.0150046
707.646	0.0149618
707.724	0.0150439
707.802	0.0150719
707.880	0.0149716
707.958	0.0152203
708.036	0.0153355
708.114	0.0150938
708.193	0.0151787
708.271	0.0153525
708.349	0.0153363
708.427	0.0153633
708.505	0.0155604
708.583	0.0154028
708.661	0.0154363
708.739	0.0153324
708.818	0.0155193
708.896	0.0156842
708.974	0.0155760
709.052	0.0154992
709.130	0.0155009
709.208	0.0155796
709.286	0.0156124
709.364	0.0154203
709.443	0.0153630
709.521	0.0153803
709.599	0.0155145
709.677	0.0152638
709.755	0.0153360
709.833	0.0153047
709.911	0.0151777
709.989	0.0151324
710.068	0.0149256
710.146	0.0149091
710.224	0.0149548
710.302	0.0148191
710.380	0.0147455
710.458	0.0146920
710.536	0.0146492
710.614	0.0147192
710.693	0.0147139
710.771	0.0145160
710.849	0.0146573
710.927	0.0145453
711.005	0.0144628
711.083	0.0144622
711.161	0.0144563
711.239	0.0143938
711.318	0.0142871
711.396	0.0144657
711.474	0.0144902
711.552	0.0145063
711.630	0.0145309
711.708	0.0144696
711.786	0.0145151
711.864	0.0146578
711.943	0.0146739
712.021	0.0147440
712.099	0.0149043
712.177	0.0150799
712.255	0.0150922
712.333	0.0149185
712.411	0.0152487
712.489	0.0151967
712.568	0.0152084
712.646	0.0154189
712.724	0.0157477
712.802	0.0156843
712.880	0.0157652
712.958	0.0159071
713.036	0.0158602
713.114	0.0159879
713.193	0.0159561
713.271	0.0160245
713.349	0.0160720
713.427	0.0160025
713.505	0.0159570
713.583	0.0161113
713.661	0.0159951
713.739	0.0158601
713.818	0.0158379
713.896	0.0157069
713.974	0.0157711
714.052	0.0156683
714.130	0.0155194
714.208	0.0152966
714.286	0.0153555
714.364	0.0150451
714.443	0.0150922
714.521	0.0149660
714.599	0.0148087
714.677	0.0147816
714.755	0.0144909
714.833	0.0144604
714.911	0.0145399
714.989	0.0145405
715.068	0.0143442
715.146	0.0143685
715.224	0.0143472
715.302	0.0143867
715.380	0.0144888
715.458	0.0143407
715.536	0.0145078
715.614	0.0146996
715.693	0.0145943
715.771	0.0147054
715.849	0.0147340
715.927	0.0147862
716.005	0.0149378
716.083	0.0149609
716.161	0.0151051
716.239	0.0149919
716.318	0.0151649
716.396	0.0152357
716.474	0.0152556
716.552	0.0154036
716.630	0.0154745
716.708	0.0155238
716.786	0.0154758
716.864	0.0156407
716.943	0.0154718
717.021	0.0156153
717.099	0.0156860
717.177	0.0155656
717.255	0.0154812
717.333	0.0154842
717.411	0.0154536
717.489	0.0153478
717.568	0.0152096
717.646	0.0151031
717.724	0.0150635
717.802	0.0151357
717.880	0.0148691
717.958	0.0148566
718.036	0.0148615
718.114	0.0147449
718.193	0.0147838
718.271	0.0146304
718.349	0.0147694
718.427	0.0145797
718.505	0.0147597
718.583	0.0146941
718.661	0.0146068
718.739	0.0145716
718.818	0.0146194
718.896	0.0147497
718.974	0.0147147
719.052	0.0146326
719.130	0.0146826
719.208	0.0147301
719.286	0.0148120
719.364	0.0149775
719.443	0.0149147
719.521	0.0151560
719.599	0.0153167
719.677	0.0153458
719.755	0.0154001
719.833	0.0155605
719.911	0.0156764
719.989	0.0158690
720.068	0.0158878
720.146	0.0158968
720.224	0.0160091
720.302	0.0160838
720.380	0.0161847
720.458	0.0161265
720.536	0.0160708
720.614	0.0160600
720.693	0.0159857
720.771	0.0160217
720.849	0.0159947
720.927	0.0160292
721.005	0.0158335
721.083	0.0158307
721.161	0.0158479
721.239	0.0156793
721.318	0.0155328
721.396	0.0154324
721.474	0.0153168
721.552	0.0151879
721.630	0.0152706
721.708	0.0149939
721.786	0.0148434
721.864	0.0148296
721.943	0.0146815
722.021	0.0145760
722.099	0.0144566
722.177	0.0144940
722.255	0.0140723
722.333	0.0139218
722.411	0.0140441
722.489	0.0138749
722.568	0.0138904
722.646	0.0138383
722.724	0.0139104
722.802	0.0138309
722.880	0.0137057
722.958	0.0138566
723.036	0.0139608
723.114	0.0139476
723.193	0.0140530
723.271	0.0141962
723.349	0.0144189
723.427	0.0142757
723.505	0.0145477
723.583	0.0144688
723.661	0.0146156
723.739	0.0147832
723.818	0.0149010
723.896	0.0150159
723.974	0.0151302
724.052	0.0151916
724.130	0.0154156
724.208	0.0154652
724.286	0.0155371
724.364	0.0157802
724.443	0.0156284
724.521	0.0156628
724.599	0.0156925
724.677	0.0156555
724.755	0.0157296
724.833	0.0157027
724.911	0.0156713
724.989	0.0154790
725.068	0.0156364
725.146	0.0154816
725.224	0.0154250
725.302	0.0153432
725.380	0.0153995
725.458	0.0153526
725.536	0.0151910
725.614	0.0152502
725.693	0.0152644
725.771	0.0151627
725.849	0.0150835
725.927	0.0150283
726.005	0.0150185
726.083	0.0150070
726.161	0.0151268
726.239	0.0150101
726.318	0.0149499
726.396	0.0150620
726.474	0.0150288
726.552	0.0149609
726.630	0.0149776
726.708	0.0150764
726.786	0.0147886
726.864	0.0149203
726.943	0.0150788
727.021	0.0150643
727.099	0.0149215
727.177	0.0150201
727.255	0.0150679
727.333	0.0149750
727.411	0.0149175
727.489	0.0149570
727.568	0.0150513
727.646	0.0147203
727.724	0.0150439
727.802	0.0149387
727.880	0.0148740
727.958	0.0149789
728.036	0.0148980
728.114	0.0148470
728.193	0.0149360
728.271	0.0149551
728.349	0.0148857
728.427	0.0148425
728.505	0.0148892
728.583	0.0148390
728.661	0.0149457
728.739	0.0149335
728.818	0.0147980
728.896	0.0149550
728.974	0.0148525
729.052	0.0148508
729.130	0.0149199
729.208	0.0149451
729.286	0.0147834
729.364	0.0148412
729.443	0.0147987
729.521	0.0147650
729.599	0.0149307
729.677	0.0150051
729.755	0.0149296
729.833	0.0148158
729.911	0.0147672
729.989	0.0149104
730.068	0.0148734
730.146	0.0147741
730.224	0.0148376
730.302	0.0147308
730.380	0.0148766
730.458	0.0148331
730.536	0.0149011
730.614	0.0148467
730.693	0.0147039
730.771	0.0149117
730.849	0.0149902
730.927	0.0149258
731.005	0.0150723
731.083	0.0152470
731.161	0.0153267
731.239	0.0153994
731.318	0.0154086
731.396	0.0154231
731.474	0.0157816
731.552	0.0158804
731.630	0.0158028
731.708	0.0159518
731.786	0.0160308
731.864	0.0159429
731.943	0.0159995
732.021	0.0158867
732.099	0.0160126
732.177	0.0159779
732.255	0.0158144
732.333	0.0156342
732.411	0.0156721
732.489	0.0157201
732.568	0.0156798
732.646	0.0154400
732.724	0.0152499
732.802	0.0152432
732.880	0.0151122
732.958	0.0148621
733.036	0.0148127
733.114	0.0147162
733.193	0.0145057
733.271	0.0144360
733.349	0.0143066
733.427	0.0141507
733.505	0.0140899
733.583	0.0140919
733.661	0.0140532
733.739	0.0138950
733.818	0.0139674
733.896	0.0139374
733.974	0.0138882
734.052	0.0140379
734.130	0.0140929
734.208	0.0139865
734.286	0.0140684
734.364	0.0141383
734.443	0.0143542
734.521	0.0144653
734.599	0.0144856
734.677	0.0146171
734.755	0.0145522
734.833	0.0147390
734.911	0.0148798
734.989	0.0149100
735.068	0.0151892
735.146	0.0152236
735.224	0.0152930
735.302	0.0152682
735.380	0.0154055
735.458	0.0153939
735.536	0.0156203
735.614	0.0155949
735.693	0.0155219
735.771	0.0155518
735.849	0.0157475
735.927	0.0157589
736.005	0.0155963
736.083	0.0156431
736.161	0.0157185
736.239	0.0156750
736.318	0.0156564
736.396	0.0155368
736.474	0.0154837
736.552	0.0153963
736.630	0.0154163
736.708	0.0154905
736.786	0.0153070
736.864	0.0150848
736.943	0.0151653
737.021	0.0150784
737.099	0.0149659
737.177	0.0149418
737.255	0.0148970
737.333	0.0148958
737.411	0.0148622
737.489	0.0147952
737.568	0.0146507
737.646	0.0146450
737.724	0.0145662
737.802	0.0146893
737.880	0.0146774
737.958	0.0147779
738.036	0.0145831
738.114	0.0145914
738.193	0.0147292
738.271	0.0148003
738.349	0.0147156
738.427	0.0147852
738.505	0.0148993
738.583	0.0149270
738.661	0.0148947
738.739	0.0151736
738.818	0.0151203
738.896	0.0152274
738.974	0.0151275
739.052	0.0152388
739.130	0.0152371
739.208	0.0153001
739.286	0.0152615
739.364	0.0151938
739.443	0.0151688
739.521	0.0150935
739.599	0.0151016
739.677	0.0151382
739.755	0.0150935
739.833	0.0150371
739.911	0.0150995
739.989	0.0148946
740.068	0.0149310
740.146	0.0149275
740.224	0.0149999
740.302	0.0149911
740.380	0.0148575
740.458	0.0150319
740.536	0.0149615
740.614	0.0149181
740.693	0.0148536
740.771	0.0149592
740.849	0.0149055
740.927	0.0149450
741.005	0.0149551
741.083	0.0148650
741.161	0.0149953
741.239	0.0151169
741.318	0.0148272
741.396	0.0150874
741.474	0.0151346
741.552	0.0152357
741.630	0.0150234
741.708	0.0150977
741.786	0.0152013
741.864	0.0150925
741.943	0.0150417
742.021	0.0149100
742.099	0.0148727
742.177	0.0148563
742.255	0.0149508
742.333	0.0148918
742.411	0.0148332
742.489	0.0149902
742.568	0.0149956
742.646	0.0148718
742.724	0.0148588
742.802	0.0150053
742.880	0.0148820
742.958	0.0148367
743.036	0.0148964
743.114	0.0148112
743.193	0.0148294
743.271	0.0148586
743.349	0.0149854
743.427	0.0150314
743.505	0.0149828
743.583	0.0151240
743.661	0.0151189
743.739	0.0151888
743.818	0.0152729
743.896	0.0152145
743.974	0.0153383
744.052	0.0153265
744.130	0.0153889
744.208	0.0154449
744.286	0.0153471
744.364	0.0154884
744.443	0.0154054
744.521	0.0153555
744.599	0.0152332
744.677	0.0154970
744.755	0.0153170
744.833	0.0152460
744.911	0.0151114
744.989	0.0150898
745.068	0.0151590
745.146	0.0150724
745.224	0.0151304
745.302	0.0150004
745.380	0.0149400
745.458	0.0148569
745.536	0.0148236
745.614	0.0147890
745.693	0.0147598
745.771	0.0145989
745.849	0.0147572
745.927	0.0146863
746.005	0.0146058
746.083	0.0147600
746.161	0.0146934
746.239	0.0146310
746.318	0.0145074
746.396	0.0146084
746.474	0.0148123
746.552	0.0149249
746.630	0.0147624
746.708	0.0149720
746.786	0.0147694
746.864	0.0147599
746.943	0.0147515
747.021	0.0149093
747.099	0.0148962
747.177	0.0148877
747.255	0.0150961
747.333	0.0149961
747.411	0.0151429
747.489	0.0151340
747.568	0.0152205
747.646	0.0152908
747.724	0.0152750
747.802	0.0153348
747.880	0.0154652
747.958	0.0154333
748.036	0.0154790
748.114	0.0155724
748.193	0.0155134
748.271	0.0156243
748.349	0.0156281
748.427	0.0154759
748.505	0.0155375
748.583	0.0154414
748.661	0.0154623
748.739	0.0155156
748.818	0.0155062
748.896	0.0152930
748.974	0.0154092
749.052	0.0152969
749.130	0.0152512
749.208	0.0153076
749.286	0.0153358
749.364	0.0150914
749.443	0.0150013
749.521	0.0150269
749.599	0.0148549
749.677	0.0148280
749.755	0.0149491
749.833	0.0148783
749.911	0.0148232
749.989	0.0147969
750.068	0.0147923
750.146	0.0148412
750.224	0.0148079
750.302	0.0146349
750.380	0.0147193
750.458	0.0146401
750.536	0.0147072
750.614	0.0145375
750.693	0.0145326
750.771	0.0146872
750.849	0.0145244
750.927	0.0145317
751.005	0.0143631
751.083	0.0145147
751.161	0.0145203
751.239	0.0145644
751.318	0.0143973
751.396	0.0145066
751.474	0.0146440
751.552	0.0146365
751.630	0.0146905
751.708	0.0147585
751.786	0.0148982
751.864	0.0149109
751.943	0.0151026
752.021	0.0152724
752.099	0.0152891
752.177	0.0154691
752.255	0.0155130
752.333	0.0155137
752.411	0.0157628
752.489	0.0158974
752.568	0.0157256
752.646	0.0158621
752.724	0.0160188
752.802	0.0160394
752.880	0.0159245
752.958	0.0159340
753.036	0.0160098
753.114	0.0158011
753.193	0.0158377
753.271	0.0159292
753.349	0.0158115
753.427	0.0157431
753.505	0.0157076
753.583	0.0157623
753.661	0.0155328
753.739	0.0156493
753.818	0.0156007
753.896	0.0154421
753.974	0.0153400
754.052	0.0153569
754.130	0.0152724
754.208	0.0151831
754.286	0.0153294
754.364	0.0151773
754.443	0.0149611
754.521	0.0148363
754.599	0.0147047
754.677	0.0148753
754.755	0.0147406
754.833	0.0146844
754.911	0.0147657
754.989	0.0146597
755.068	0.0146037
755.146	0.0145507
755.224	0.0145863
755.302	0.0144752
755.380	0.0146515
755.458	0.0143882
755.536	0.0144749
755.614	0.0146812
755.693	0.0144759
755.771	0.0144349
755.849	0.0145650
755.927	0.0146616
756.005	0.0146485
756.083	0.0146894
756.161	0.0146381
756.239	0.0145232
756.318	0.0147781
756.396	0.0147813
756.474	0.0147768
756.552	0.0148487
756.630	0.0147938
756.708	0.0148256
756.786	0.0148617
756.864	0.0149244
756.943	0.0148718
757.021	0.0149847
757.099	0.0149081
757.177	0.0149008
757.255	0.0149683
757.333	0.0150146
757.411	0.0151839
757.489	0.0151961
757.568	0.0152908
757.646	0.0153098
757.724	0.0153254
757.802	0.0152996
757.880	0.0152628
757.958	0.0154345
758.036	0.0153687
758.114	0.0152930
758.193	0.0154047
758.271	0.0152585
758.349	0.0151217
758.427	0.0153275
758.505	0.0151330
758.583	0.0151377
758.661	0.0150679
758.739	0.0150735
758.818	0.0149974
758.896	0.0150173
758.974	0.0149664
759.052	0.0151428
759.130	0.0151294
759.208	0.0150968
759.286	0.0149139
759.364	0.0150116
759.443	0.0150323
759.521	0.0149968
759.599	0.0149415
759.677	0.0149200
759.755	0.0149632
759.833	0.0148488
759.911	0.0149681
759.989	0.0149487
760.068	0.0148389
760.146	0.0148949
760.224	0.0149929
760.302	0.0148917
760.380	0.0148603
760.458	0.0148481
760.536	0.0148328
760.614	0.0148272
760.693	0.0148962
760.771	0.0149955
760.849	0.0149966
760.927	0.0149598
761.005	0.0150103
761.083	0.0151635
761.161	0.0151828
761.239	0.0150432
761.318	0.0151101
761.396	0.0151829
761.474	0.0153670
761.552	0.0154660
761.630	0.0153555
761.708	0.0152528
761.786	0.0153535
761.864	0.0154619
761.943	0.0154111
762.021	0.0152432
762.099	0.0153139
762.177	0.0152502
762.255	0.0153129
762.333	0.0153437
762.411	0.0152435
762.489	0.0151256
762.568	0.0150259
762.646	0.0150105
762.724	0.0149561
762.802	0.0148167
762.880	0.0151291
762.958	0.0148317
763.036	0.0148002
763.114	0.0149219
763.193	0.0146948
763.271	0.0148413
763.349	0.0147737
763.427	0.0148335
763.505	0.0146881
763.583	0.0146293
763.661	0.0148621
763.739	0.0147547
763.818	0.0147564
763.896	0.0147703
763.974	0.0147389
764.052	0.0146482
764.130	0.0146889
764.208	0.0148327
764.286	0.0149016
764.364	0.0148412
764.443	0.0148907
764.521	0.0148336
764.599	0.0148993
764.677	0.0148802
764.755	0.0150639
764.833	0.0151644
764.911	0.0150133
764.989	0.0151380
765.068	0.0150696
765.146	0.0151024
765.224	0.0151763
765.302	0.0153069
765.380	0.0153359
765.458	0.0153048
765.536	0.0153245
765.614	0.0152069
765.693	0.0151949
765.771	0.0152222
765.849	0.0152254
765.927	0.0151611
766.005	0.0152230
766.083	0.0151823
766.161	0.0152322
766.239	0.0151566
766.318	0.0152611
766.396	0.0151925
766.474	0.0151508
766.552	0.0152713
766.630	0.0152618
766.708	0.0150758
766.786	0.0149810
766.864	0.0152302
766.943	0.0153237
767.021	0.0153350
767.099	0.0151247
767.177	0.0152087
767.255	0.0151836
767.333	0.0151862
767.411	0.0151906
767.489	0.0151015
767.568	0.0150806
767.646	0.0151788
767.724	0.0151357
767.802	0.0151907
767.880	0.0152539
767.958	0.0151029
768.036	0.0151431
768.114	0.0150232
768.193	0.0150089
768.271	0.0150150
768.349	0.0149162
768.427	0.0149212
768.505	0.0148199
768.583	0.0147460
768.661	0.0148453
768.739	0.0149001
768.818	0.0147845
768.896	0.0146597
768.974	0.0146002
769.052	0.0146647
769.130	0.0148540
769.208	0.0147638
769.286	0.0146494
769.364	0.0148014
769.443	0.0146409
769.521	0.0147761
769.599	0.0147822
769.677	0.0148019
769.755	0.0147668
769.833	0.0147881
769.911	0.0149144
769.989	0.0148475
770.068	0.0148748
770.146	0.0151424
770.224	0.0150258
770.302	0.0151208
770.380	0.0151482
770.458	0.0150443
770.536	0.0151996
770.614	0.0152762
770.693	0.0151771
770.771	0.0151877
770.849	0.0152311
770.927	0.0155103
771.005	0.0152233
771.083	0.0151523
771.161	0.0152892
771.239	0.0152598
771.318	0.0151611
771.396	0.0150879
771.474	0.0150063
771.552	0.0149071
771.630	0.0149931
771.708	0.0149809
771.786	0.0149062
771.864	0.0149046
771.943	0.0149544
772.021	0.0149265
772.099	0.0148460
772.177	0.0147858
772.255	0.0148913
772.333	0.0147775
772.411	0.0146237
772.489	0.0148227
772.568	0.0148537
772.646	0.0148118
772.724	0.0149752
772.802	0.0149194
772.880	0.0148025
772.958	0.0150850
773.036	0.0150158
773.114	0.0148967
773.193	0.0149736
773.271	0.0149358
773.349	0.0149461
773.427	0.0151414
773.505	0.0150284
773.583	0.0151337
773.661	0.0150240
773.739	0.0150574
773.818	0.0150447
773.896	0.0151324
773.974	0.0150175
774.052	0.0150607
774.130	0.0151907
774.208	0.0150436
774.286	0.0151251
774.364	0.0150268
774.443	0.0150244
774.521	0.0151636
774.599	0.0151328
774.677	0.0151533
774.755	0.0150909
774.833	0.0150642
774.911	0.0149366
774.989	0.0150880
775.068	0.0151910
775.146	0.0151284
775.224	0.0150543
775.302	0.0151134
775.380	0.0151853
775.458	0.0150587
775.536	0.0151788
775.614	0.0152380
775.693	0.0152555
775.771	0.0152275
775.849	0.0151775
775.927	0.0153342
776.005	0.0153635
776.083	0.0153542
776.161	0.0152072
776.239	0.0152851
776.318	0.0153131
776.396	0.0154002
776.474	0.0153398
776.552	0.0152564
776.630	0.0152526
776.708	0.0154151
776.786	0.0153578
776.864	0.0151674
776.943	0.0152366
777.021	0.0152348
777.099	0.0150648
777.177	0.0152103
777.255	0.0151588
777.333	0.0151007
777.411	0.0150552
777.489	0.0148950
777.568	0.0148874
777.646	0.0149650
777.724	0.0148890
777.802	0.0149741
777.880	0.0148851
777.958	0.0148339
778.036	0.0148269
778.114	0.0148803
778.193	0.0148652
778.271	0.0149176
778.349	0.0149849
778.427	0.0149229
778.505	0.0149858
778.583	0.0148804
778.661	0.0149659
778.739	0.0151331
778.818	0.0151834
778.896	0.0151327
778.974	0.0150337
779.052	0.0151749
779.130	0.0151579
779.208	0.0150710
779.286	0.0149592
779.364	0.0152625
779.443	0.0150784
779.521	0.0151633
779.599	0.0152402
779.677	0.0152414
779.755	0.0152432
779.833	0.0151390
779.911	0.0152740
779.989	0.0153688
780.068	0.0152361
780.146	0.0153616
780.224	0.0152894
780.302	0.0153294
780.380	0.0153227
780.458	0.0154449
780.536	0.0155486
780.614	0.0154047
780.693	0.0152852
780.771	0.0154164
780.849	0.0154188
780.927	0.0153577
781.005	0.0153738
781.083	0.0153232
781.161	0.0153574
781.239	0.0150704
781.318	0.0153092
781.396	0.0152890
781.474	0.0152627
781.552	0.0151680
781.630	0.0150335
781.708	0.0151131
781.786	0.0150853
781.864	0.0151675
781.943	0.0150263
782.021	0.0148795
782.099	0.0148662
782.177	0.0149255
782.255	0.0148833
782.333	0.0147266
782.411	0.0148454
782.489	0.0147278
782.568	0.0147691
782.646	0.0147063
782.724	0.0149039
782.802	0.0147019
782.880	0.0147190
782.958	0.0147838
783.036	0.0147562
783.114	0.0147443
783.193	0.0149118
783.271	0.0148967
783.349	0.0148687
783.427	0.0147914
783.505	0.0148286
783.583	0.0147661
783.661	0.0148776
783.739	0.0148779
783.818	0.0149371
783.896	0.0149145
783.974	0.0148994
784.052	0.0150814
784.130	0.0149054
784.208	0.0148656
784.286	0.0149639
784.364	0.0150143
784.443	0.0150007
784.521	0.0152151
784.599	0.0153265
784.677	0.0151994
784.755	0.0152809
784.833	0.0153677
784.911	0.0151582
784.989	0.0152188
785.068	0.0153450
785.146	0.0154574
785.224	0.0154160
785.302	0.0154134
785.380	0.0154074
785.458	0.0154568
785.536	0.0154737
785.614	0.0154203
785.693	0.0155029
785.771	0.0154812
785.849	0.0154348
785.927	0.0154787
786.005	0.0153203
786.083	0.0154286
786.161	0.0153313
786.239	0.0153770
786.318	0.0152187
786.396	0.0152110
786.474	0.0152315
786.552	0.0149875
786.630	0.0150931
786.708	0.0151182
786.786	0.0151106
786.864	0.0150261
786.943	0.0149644
787.021	0.0150602
787.099	0.0149435
787.177	0.0149868
787.255	0.0148622
787.333	0.0148933
787.411	0.0150908
787.489	0.0148282
787.568	0.0150069
787.646	0.0149306
787.724	0.0149741
787.802	0.0148670
787.880	0.0147837
787.958	0.0147063
788.036	0.0146643
788.114	0.0148036
788.193	0.0147040
788.271	0.0146754
788.349	0.0147858
788.427	0.0145623
788.505	0.0148893
788.583	0.0148852
788.661	0.0147183
788.739	0.0148152
788.818	0.0148061
788.896	0.0149007
788.974	0.0149233
789.052	0.0149780
789.130	0.0148209
789.208	0.0148838
789.286	0.0149868
789.364	0.0148962
789.443	0.0150116
789.521	0.0150632
789.599	0.0148611
789.677	0.0148238
789.755	0.0149422
789.833	0.0150733
789.911	0.0149757
789.989	0.0149253
790.068	0.0147972
790.146	0.0149166
790.224	0.0148866
790.302	0.0147723
790.380	0.0149366
790.458	0.0149567
790.536	0.0147051
790.614	0.0147425
790.693	0.0148260
790.771	0.0150092
790.849	0.0148800
790.927	0.0150336
791.005	0.0150697
791.083	0.0149731
791.161	0.0149754
791.239	0.0150963
791.318	0.0150525
791.396	0.0151266
791.474	0.0151676
791.552	0.0151099
791.630	0.0151432
791.708	0.0151270
791.786	0.0151901
791.864	0.0152127
791.943	0.0151784
792.021	0.0151879
792.099	0.0152317
792.177	0.0152001
792.255	0.0151382
792.333	0.0152061
792.411	0.0152975
792.489	0.0151100
792.568	0.0152089
792.646	0.0153325
792.724	0.0152386
792.802	0.0150540
792.880	0.0149947
792.958	0.0150526
793.036	0.0151308
793.114	0.0151098
793.193	0.0148932
793.271	0.0148949
793.349	0.0149792
793.427	0.0149400
793.505	0.0147002
793.583	0.0147415
793.661	0.0148202
793.739	0.0148466
793.818	0.0148650
793.896	0.0147944
793.974	0.0148668
794.052	0.0146951
794.130	0.0146526
794.208	0.0148355
794.286	0.0147609
794.364	0.0148435
794.443	0.0146539
794.521	0.0146974
794.599	0.0147401
794.677	0.0146884
794.755	0.0147496
794.833	0.0147926
794.911	0.0146667
794.989	0.0147146
795.068	0.0147077
795.146	0.0145934
795.224	0.0145844
795.302	0.0147066
795.380	0.0147471
795.458	0.0148388
795.536	0.0147698
795.614	0.0147478
795.693	0.0148319
795.771	0.0147540
795.849	0.0149097
795.927	0.0150900
796.005	0.0149728
796.083	0.0150039
796.161	0.0150491
796.239	0.0150734
796.318	0.0150674
796.396	0.0152096
796.474	0.0152616
796.552	0.0151879
796.630	0.0153571
796.708	0.0151440
796.786	0.0153000
796.864	0.0152539
796.943	0.0154528
797.021	0.0155134
797.099	0.0153623
797.177	0.0152907
797.255	0.0153006
797.333	0.0155730
797.411	0.0153854
797.489	0.0153295
797.568	0.0153033
797.646	0.0152676
797.724	0.0152181
797.802	0.0151727
797.880	0.0152248
797.958	0.0150483
798.036	0.0152312
798.114	0.0151347
798.193	0.0151730
798.271	0.0151350
798.349	0.0150240
798.427	0.0150152
798.505	0.0150830
798.583	0.0150068
798.661	0.0150008
798.739	0.0149907
798.818	0.0148537
798.896	0.0148567
798.974	0.0149418
799.052	0.0148817
799.130	0.0148196
799.208	0.0148105
799.286	0.0147724
799.364	0.0149189
799.443	0.0148907
799.521	0.0148823
799.599	0.0149007
799.677	0.0149772
799.755	0.0148547
799.833	0.0149065
799.911	0.0149032
799.989	0.0149487
800.068	0.0149181
800.146	0.0149464
800.224	0.0150773
800.302	0.0150275
800.380	0.0150108
800.458	0.0149488
800.536	0.0148887
800.614	0.0151131
800.693	0.0150539
800.771	0.0151831
800.849	0.0152587
800.927	0.0153423
801.005	0.0152052
801.083	0.0151854
801.161	0.0152508
801.239	0.0151559
801.318	0.0151267
801.396	0.0152289
801.474	0.0150941
801.552	0.0151913
801.630	0.0151654
801.708	0.0149307
801.786	0.0149497
801.864	0.0150174
801.943	0.0150923
802.021	0.0150154
802.099	0.0149538
802.177	0.0150108
802.255	0.0149151
802.333	0.0149550
802.411	0.0148831
802.489	0.0148665
802.568	0.0150223
802.646	0.0148167
802.724	0.0147711
802.802	0.0149072
802.880	0.0149349
802.958	0.0149670
803.036	0.0147937
803.114	0.0150263
803.193	0.0150526
803.271	0.0149564
803.349	0.0149735
803.427	0.0151698
803.505	0.0149471
803.583	0.0148947
803.661	0.0150069
803.739	0.0149591
803.818	0.0150983
803.896	0.0151799
803.974	0.0149133
804.052	0.0151730
804.130	0.0151830
804.208	0.0151899
804.286	0.0152068
804.364	0.0151154
804.443	0.0152446
804.521	0.0152977
804.599	0.0151905
804.677	0.0151562
804.755	0.0152320
804.833	0.0151902
804.911	0.0153160
804.989	0.0153568
805.068	0.0151646
805.146	0.0153864
805.224	0.0152781
805.302	0.0152566
805.380	0.0153328
805.458	0.0155048
805.536	0.0153677
805.614	0.0154025
805.693	0.0153873
805.771	0.0153211
805.849	0.0152986
805.927	0.0153851
806.005	0.0153514
806.083	0.0153252
806.161	0.0154314
806.239	0.0153666
806.318	0.0153300
806.396	0.0153783
806.474	0.0155038
806.552	0.0154507
806.630	0.0152867
806.708	0.0151640
806.786	0.0151038
806.864	0.0152493
806.943	0.0152303
807.021	0.0150770
807.099	0.0149587
807.177	0.0149706
807.255	0.0150288
807.333	0.0149844
807.411	0.0150168
807.489	0.0149047
807.568	0.0148559
807.646	0.0148252
807.724	0.0147845
807.802	0.0148531
807.880	0.0149091
807.958	0.0146819
808.036	0.0145339
808.114	0.0147353
808.193	0.0147006
808.271	0.0145522
808.349	0.0146965
808.427	0.0147151
808.505	0.0148392
808.583	0.0146329
808.661	0.0147850
808.739	0.0148737
808.818	0.0149844
808.896	0.0148134
808.974	0.0148185
809.052	0.0148305
809.130	0.0149765
809.208	0.0151879
809.286	0.0150276
809.364	0.0149374
809.443	0.0150855
809.521	0.0151238
809.599	0.0151062
809.677	0.0151294
809.755	0.0152002
809.833	0.0152386
809.911	0.0153735
809.989	0.0152690
810.068	0.0155184
810.146	0.0154556
810.224	0.0154492
810.302	0.0153951
810.380	0.0154067
810.458	0.0155264
810.536	0.0154697
810.614	0.0151155
810.693	0.0153072
810.771	0.0152858
810.849	0.0152914
810.927	0.0152999
811.005	0.0150786
811.083	0.0151400
811.161	0.0151622
811.239	0.0150846
811.318	0.0150750
811.396	0.0151382
811.474	0.0150847
811.552	0.0151629
811.630	0.0150637
811.708	0.0150585
811.786	0.0150915
811.864	0.0152051
811.943	0.0150517
812.021	0.0149924
812.099	0.0150211
812.177	0.0149770
812.255	0.0150644
812.333	0.0149399
812.411	0.0148496
812.489	0.0147877
812.568	0.0148969
812.646	0.0147476
812.724	0.0148353
812.802	0.0149033
812.880	0.0149113
812.958	0.0149416
813.036	0.0149383
813.114	0.0150566
813.193	0.0151305
813.271	0.0150616
813.349	0.0150754
813.427	0.0152982
813.505	0.0151673
813.583	0.0150708
813.661	0.0150434
813.739	0.0150540
813.818	0.0151729
813.896	0.0150648
813.974	0.0150719
814.052	0.0151340
814.130	0.0150175
814.208	0.0150378
814.286	0.0150649
814.364	0.0150308
814.443	0.0149222
814.521	0.0149185
814.599	0.0149545
814.677	0.0148573
814.755	0.0150723
814.833	0.0148847
814.911	0.0149578
814.989	0.0148954
815.068	0.0148749
815.146	0.0149398
815.224	0.0147394
815.302	0.0148080
815.380	0.0149876
815.458	0.0150588
815.536	0.0151724
815.614	0.0151916
815.693	0.0151210
815.771	0.0152319
815.849	0.0153304
815.927	0.0154691
816.005	0.0154016
816.083	0.0153534
816.161	0.0153172
816.239	0.0153129
816.318	0.0151763
816.396	0.0153170
816.474	0.0152474
816.552	0.0152235
816.630	0.0150880
816.708	0.0150245
816.786	0.0150518
816.864	0.0149166
816.943	0.0148229
817.021	0.0148594
817.099	0.0147873
817.177	0.0145896
817.255	0.0145914
817.333	0.0146262
817.411	0.0147134
817.489	0.0145646
817.568	0.0145282
817.646	0.0147585
817.724	0.0147350
817.802	0.0147772
817.880	0.0148248
817.958	0.0147867
818.036	0.0150270
818.114	0.0151129
818.193	0.0150701
818.271	0.0153128
818.349	0.0152330
818.427	0.0154423
818.505	0.0154813
818.583	0.0154583
818.661	0.0153063
818.739	0.0154221
818.818	0.0154357
818.896	0.0152331
818.974	0.0152102
819.052	0.0150955
819.130	0.0151054
819.208	0.0149485
819.286	0.0147656
819.364	0.0145802
819.443	0.0145424
819.521	0.0142602
819.599	0.0141353
819.677	0.0141552
819.755	0.0142494
819.833	0.0141539
819.911	0.0142770
819.989	0.0142493
820.068	0.0144180
820.146	0.0146206
820.224	0.0148063
820.302	0.0147348
820.380	0.0147890
820.458	0.0150200
820.536	0.0151051
820.614	0.0152939
820.693	0.0152242
820.771	0.0153461
820.849	0.0155524
820.927	0.0156232
821.005	0.0156709
821.083	0.0157007
821.161	0.0157973
821.239	0.0158031
821.318	0.0157465
821.396	0.0157618
821.474	0.0157648
821.552	0.0155828
821.630	0.0155022
821.708	0.0153869
821.786	0.0153677
821.864	0.0153547
821.943	0.0151882
822.021	0.0151424
822.099	0.0151590
822.177	0.0148675
822.255	0.0147688
822.333	0.0148452
822.411	0.0147147
822.489	0.0147186
822.568	0.0145973
822.646	0.0145882
822.724	0.0145387
822.802	0.0146451
822.880	0.0147420
822.958	0.0146095
823.036	0.0146925
823.114	0.0149157
823.193	0.0148790
823.271	0.0151326
823.349	0.0152640
823.427	0.0152878
823.505	0.0154994
823.583	0.0157620
823.661	0.0157577
823.739	0.0158157
823.818	0.0155923
823.896	0.0157954
823.974	0.0156843
824.052	0.0157607
824.130	0.0157380
824.208	0.0154156
824.286	0.0154527
824.364	0.0154022
824.443	0.0153460
824.521	0.0152388
824.599	0.0150396
824.677	0.0149982
824.755	0.0150910
824.833	0.0149047
824.911	0.0148939
824.989	0.0148204
825.068	0.0148988
825.146	0.0146814
825.224	0.0147272
825.302	0.0147393
825.380	0.0146475
825.458	0.0146511
825.536	0.0147455
825.614	0.0148056
825.693	0.0147594
825.771	0.0147257
825.849	0.0146909
825.927	0.0147840
826.005	0.0146944
826.083	0.0146911
826.161	0.0144862
826.239	0.0146751
826.318	0.0146839
826.396	0.0147948
826.474	0.0148261
826.552	0.0148524
826.630	0.0148536
826.708	0.0151009
826.786	0.0150479
826.864	0.0151009
826.943	0.0151859
827.021	0.0152821
827.099	0.0153388
827.177	0.0154153
827.255	0.0153307
827.333	0.0152969
827.411	0.0154658
827.489	0.0153255
827.568	0.0152669
827.646	0.0151820
827.724	0.0151521
827.802	0.0152554
827.880	0.0152379
827.958	0.0151522
828.036	0.0151379
828.114	0.0149976
828.193	0.0150278
828.271	0.0149620
828.349	0.0149851
828.427	0.0149639
828.505	0.0150150
828.583	0.0149926
828.661	0.0149911
828.739	0.0149625
828.818	0.0149934
828.896	0.0149994
828.974	0.0149635
829.052	0.0150671
829.130	0.0150629
829.208	0.0149660
829.286	0.0150339
829.364	0.0150591
829.443	0.0150904
829.521	0.0151345
829.599	0.0151360
829.677	0.0151194
829.755	0.0150684
829.833	0.0151330
829.911	0.0149927
829.989	0.0148974
830.068	0.0149617
830.146	0.0150516
830.224	0.0147680
830.302	0.0146051
830.380	0.0146307
830.458	0.0145647
830.536	0.0145498
830.614	0.0143900
830.693	0.0145055
830.771	0.0144182
830.849	0.0145913
830.927	0.0145461
831.005	0.0146375
831.083	0.0147601
831.161	0.0148375
831.239	0.0147968
831.318	0.0149026
831.396	0.0151237
831.474	0.0153322
831.552	0.0152173
831.630	0.0152731
831.708	0.0154583
831.786	0.0154347
831.864	0.0155370
831.943	0.0156236
832.021	0.0157533
832.099	0.0155628
832.177	0.0156635
832.255	0.0157545
832.333	0.0157690
832.411	0.0158129
832.489	0.0158674
832.568	0.0158116
832.646	0.0156177
832.724	0.0156667
832.802	0.0154436
832.880	0.0155852
832.958	0.0154417
833.036	0.0153584
833.114	0.0151875
833.193	0.0151365
833.271	0.0149404
833.349	0.0148752
833.427	0.0148423
833.505	0.0148628
833.583	0.0148579
833.661	0.0147877
833.739	0.0145811
833.818	0.0144098
833.896	0.0145538
833.974	0.0146292
834.052	0.0146429
834.130	0.0145487
834.208	0.0144473
834.286	0.0146857
834.364	0.0149034
834.443	0.0148061
834.521	0.0149927
834.599	0.0148841
834.677	0.0151822
834.755	0.0153381
834.833	0.0153624
834.911	0.0154198
834.989	0.0156692
835.068	0.0156319
835.146	0.0157437
835.224	0.0156907
835.302	0.0156785
835.380	0.0156546
835.458	0.0154824
835.536	0.0155441
835.614	0.0153085
835.693	0.0152406
835.771	0.0151894
835.849	0.0151387
835.927	0.0150467
836.005	0.0148587
836.083	0.0149741
836.161	0.0147421
836.239	0.0147401
836.318	0.0147629
836.396	0.0149114
836.474	0.0150172
836.552	0.0149200
836.630	0.0150453
836.708	0.0151837
836.786	0.0153415
836.864	0.0153381
836.943	0.0154091
837.021	0.0154836
837.099	0.0155724
837.177	0.0154907
837.255	0.0154269
837.333	0.0153131
837.411	0.0153306
837.489	0.0154159
837.568	0.0152593
837.646	0.0152716
837.724	0.0152765
837.802	0.0152440
837.880	0.0152977
837.958	0.0151974
838.036	0.0151537
838.114	0.0150882
838.193	0.0151418
838.271	0.0152426
838.349	0.0151386
838.427	0.0149670
838.505	0.0150430
838.583	0.0151565
838.661	0.0150125
838.739	0.0151065
838.818	0.0150519
838.896	0.0150842
838.974	0.0150597
839.052	0.0150325
839.130	0.0149969
839.208	0.0149989
839.286	0.0150935
839.364	0.0151026
839.443	0.0149850
839.521	0.0150930
839.599	0.0150053
839.677	0.0151358
839.755	0.0151549
839.833	0.0148944
839.911	0.0150237
839.989	0.0148579
840.068	0.0149577
840.146	0.0150269
840.224	0.0149913
840.302	0.0150159
840.380	0.0150795
840.458	0.0151049
840.536	0.0151239
840.614	0.0151378
840.693	0.0150800
840.771	0.0151772
840.849	0.0152159
840.927	0.0151540
841.005	0.0151808
841.083	0.0150169
841.161	0.0151617
841.239	0.0151191
841.318	0.0150272
841.396	0.0148928
841.474	0.0151159
841.552	0.0150544
841.630	0.0148738
841.708	0.0150475
841.786	0.0149001
841.864	0.0150043
841.943	0.0149540
842.021	0.0149948
842.099	0.0148947
842.177	0.0150558
842.255	0.0150626
842.333	0.0151854
842.411	0.0151192
842.489	0.0150819
842.568	0.0151792
842.646	0.0151115
842.724	0.0151225
842.802	0.0149757
842.880	0.0149635
842.958	0.0148834
843.036	0.0149908
843.114	0.0149606
843.193	0.0149052
843.271	0.0149075
843.349	0.0149911
843.427	0.0149325
843.505	0.0147588
843.583	0.0148293
843.661	0.0150177
843.739	0.0149715
843.818	0.0149232
843.896	0.0149670
843.974	0.0149025
844.052	0.0149874
844.130	0.0150277
844.208	0.0150646
844.286	0.0149936
844.364	0.0149424
844.443	0.0151385
844.521	0.0150177
844.599	0.0150974
844.677	0.0151584
844.755	0.0151156
844.833	0.0152885
844.911	0.0153904
844.989	0.0153312
845.068	0.0153231
845.146	0.0154229
845.224	0.0153332
845.302	0.0155571
845.380	0.0155323
845.458	0.0154742
845.536	0.0154525
845.614	0.0155605
845.693	0.0154900
845.771	0.0155138
845.849	0.0153600
845.927	0.0153317
846.005	0.0153313
846.083	0.0153037
846.161	0.0150928
846.239	0.0150733
846.318	0.0151341
846.396	0.0148313
846.474	0.0148425
846.552	0.0148864
846.630	0.0146951
846.708	0.0147017
846.786	0.0147134
846.864	0.0147152
846.943	0.0148254
847.021	0.0148166
847.099	0.0146820
847.177	0.0149477
847.255	0.0148854
847.333	0.0148987
847.411	0.0150969
847.489	0.0150587
847.568	0.0149727
847.646	0.0151653
847.724	0.0152675
847.802	0.0152634
847.880	0.0153627
847.958	0.0154092
848.036	0.0153420
848.114	0.0152914
848.193	0.0153339
848.271	0.0153255
848.349	0.0151703
848.427	0.0153144
848.505	0.0150580
848.583	0.0150749
848.661	0.0151208
848.739	0.0150853
848.818	0.0149022
848.896	0.0148438
848.974	0.0147791
849.052	0.0150192
849.130	0.0149799
849.208	0.0149338
849.286	0.0149796
849.364	0.0149659
849.443	0.0150935
849.521	0.0150465
849.599	0.0152248
849.677	0.0153191
849.755	0.0152347
849.833	0.0153857
849.911	0.0154379
849.989	0.0154970
850.068	0.0154861
850.146	0.0154998
850.224	0.0154812
850.302	0.0154477
850.380	0.0154693
850.458	0.0154363
850.536	0.0154082
850.614	0.0153967
850.693	0.0153976
850.771	0.0153084
850.849	0.0153874
850.927	0.0153611
851.005	0.0152103
851.083	0.0152027
851.161	0.0149776
851.239	0.0150827
851.318	0.0151263
851.396	0.0148263
851.474	0.0148300
851.552	0.0148946
851.630	0.0148671
851.708	0.0147817
851.786	0.0147621
851.864	0.0149059
851.943	0.0146713
852.021	0.0146371
852.099	0.0146650
852.177	0.0148990
852.255	0.0146685
852.333	0.0146943
852.411	0.0146407
852.489	0.0146621
852.568	0.0146410
852.646	0.0146939
852.724	0.0146056
852.802	0.0148080
852.880	0.0147392
852.958	0.0148125
853.036	0.0150709
853.114	0.0149463
853.193	0.0151552
853.271	0.0151365
853.349	0.0152957
853.427	0.0151724
853.505	0.0152116
853.583	0.0152302
853.661	0.0152299
853.739	0.0152616
853.818	0.0153437
853.896	0.0152296
853.974	0.0152438
854.052	0.0151155
854.130	0.0151005
854.208	0.0152608
854.286	0.0152525
854.364	0.0151389
854.443	0.0152203
854.521	0.0150827
854.599	0.0150282
854.677	0.0150761
854.755	0.0150346
854.833	0.0151274
854.911	0.0150713
854.989	0.0151031
855.068	0.0149988
855.146	0.0150228
855.224	0.0151410
855.302	0.0152542
855.380	0.0153030
855.458	0.0151887
855.536	0.0152465
855.614	0.0154440
855.693	0.0153828
855.771	0.0154945
855.849	0.0154836
855.927	0.0154470
856.005	0.0155192
856.083	0.0154250
856.161	0.0155531
856.239	0.0153773
856.318	0.0153398
856.396	0.0151337
856.474	0.0151035
856.552	0.0149648
856.630	0.0150024
856.708	0.0148321
856.786	0.0148003
856.864	0.0145226
856.943	0.0145634
857.021	0.0145628
857.099	0.0144296
857.177	0.0145971
857.255	0.0145518
857.333	0.0145451
857.411	0.0146759
857.489	0.0145662
857.568	0.0147589
857.646	0.0149241
857.724	0.0150210
857.802	0.0151782
857.880	0.0151739
857.958	0.0151038
858.036	0.0152732
858.114	0.0154505
858.193	0.0153708
858.271	0.0153734
858.349	0.0154681
858.427	0.0153329
858.505	0.0152776
858.583	0.0153777
858.661	0.0153387
858.739	0.0154082
858.818	0.0152715
858.896	0.0153413
858.974	0.0152977
859.052	0.0151664
859.130	0.0150732
859.208	0.0150800
859.286	0.0150890
859.364	0.0148698
859.443	0.0148923
859.521	0.0148854
859.599	0.0148978
859.677	0.0148701
859.755	0.0147462
859.833	0.0146375
859.911	0.0146497
859.989	0.0146241
860.068	0.0146107
860.146	0.0145753
860.224	0.0145949
860.302	0.0146881
860.380	0.0148485
860.458	0.0149372
860.536	0.0150443
860.614	0.0150523
860.693	0.0150601
860.771	0.0153103
860.849	0.0153064
860.927	0.0153757
861.005	0.0156300
861.083	0.0155125
861.161	0.0154986
861.239	0.0154431
861.318	0.0155175
861.396	0.0154375
861.474	0.0153735
861.552	0.0152934
861.630	0.0151917
861.708	0.0151312
861.786	0.0151169
861.864	0.0149206
861.943	0.0148652
862.021	0.0149320
862.099	0.0148361
862.177	0.0146745
862.255	0.0146610
862.333	0.0146522
862.411	0.0147404
862.489	0.0148178
862.568	0.0149187
862.646	0.0151498
862.724	0.0152166
862.802	0.0153113
862.880	0.0155341
862.958	0.0156087
863.036	0.0154958
863.114	0.0157917
863.193	0.0158396
863.271	0.0160271
863.349	0.0159373
863.427	0.0159584
863.505	0.0160081
863.583	0.0156947
863.661	0.0156451
863.739	0.0155933
863.818	0.0154190
863.896	0.0152448
863.974	0.0153177
864.052	0.0151678
864.130	0.0149363
864.208	0.0148837
864.286	0.0148483
864.364	0.0146200
864.443	0.0146767
864.521	0.0144964
864.599	0.0146346
864.677	0.0146899
864.755	0.0145206
864.833	0.0146026
864.911	0.0146766
864.989	0.0146349
865.068	0.0146265
865.146	0.0148193
865.224	0.0148464
865.302	0.0149535
865.380	0.0150321
865.458	0.0150418
865.536	0.0150862
865.614	0.0152492
865.693	0.0153321
865.771	0.0153041
865.849	0.0154098
865.927	0.0154844
866.005	0.0156582
866.083	0.0153052
866.161	0.0154222
866.239	0.0153195
866.318	0.0153436
866.396	0.0152715
866.474	0.0153238
866.552	0.0152261
866.630	0.0152765
866.708	0.0151368
866.786	0.0150593
866.864	0.0151001
866.943	0.0149035
867.021	0.0148442
867.099	0.0147938
867.177	0.0147837
867.255	0.0146496
867.333	0.0145879
867.411	0.0145981
867.489	0.0145086
867.568	0.0144728
867.646	0.0144068
867.724	0.0144778
867.802	0.0146979
867.880	0.0147291
867.958	0.0146189
868.036	0.0148101
868.114	0.0148741
868.193	0.0149413
868.271	0.0150346
868.349	0.0150690
868.427	0.0153379
868.505	0.0151837
868.583	0.0153017
868.661	0.0152682
868.739	0.0153336
868.818	0.0154278
868.896	0.0154034
868.974	0.0152291
869.052	0.0151006
869.130	0.0151881
869.208	0.0151268
869.286	0.0150788
869.364	0.0150444
869.443	0.0148650
869.521	0.0147841
869.599	0.0146563
869.677	0.0146545
869.755	0.0146604
869.833	0.0146378
869.911	0.0146884
869.989	0.0148064
870.068	0.0147710
870.146	0.0147982
870.224	0.0148778
870.302	0.0148753
870.380	0.0149603
870.458	0.0150392
870.536	0.0150908
870.614	0.0153081
870.693	0.0153471
870.771	0.0153879
870.849	0.0153881
870.927	0.0155810
871.005	0.0154390
871.083	0.0153770
871.161	0.0154965
871.239	0.0155780
871.318	0.0155669
871.396	0.0155542
871.474	0.0154855
871.552	0.0154543
871.630	0.0154624
871.708	0.0152890
871.786	0.0154102
871.864	0.0152491
871.943	0.0152042
872.021	0.0151418
872.099	0.0151737
872.177	0.0151145
872.255	0.0149091
872.333	0.0149866
872.411	0.0148675
872.489	0.0149156
872.568	0.0148826
872.646	0.0147569
872.724	0.0147597
872.802	0.0146879
872.880	0.0146399
872.958	0.0146246
873.036	0.0147301
873.114	0.0147871
873.193	0.0146950
873.271	0.0147707
873.349	0.0148456
873.427	0.0148512
873.505	0.0148945
873.583	0.0151009
873.661	0.0150848
873.739	0.0151403
873.818	0.0153323
873.896	0.0153490
873.974	0.0153442
874.052	0.0154697
874.130	0.0156553
874.208	0.0158239
874.286	0.0157310
874.364	0.0156412
874.443	0.0158199
874.521	0.0156705
874.599	0.0156662
874.677	0.0156881
874.755	0.0155339
874.833	0.0154814
874.911	0.0154653
874.989	0.0153577
875.068	0.0153027
875.146	0.0151547
875.224	0.0149896
875.302	0.0150224
875.380	0.0150922
875.458	0.0148917
875.536	0.0147688
875.614	0.0150272
875.693	0.0150221
875.771	0.0149863
875.849	0.0151604
875.927	0.0151431
876.005	0.0151768
876.083	0.0151918
876.161	0.0150687
876.239	0.0151546
876.318	0.0152785
876.396	0.0152499
876.474	0.0153243
876.552	0.0152403
876.630	0.0153397
876.708	0.0153455
876.786	0.0152313
876.864	0.0152209
876.943	0.0151731
877.021	0.0151649
877.099	0.0150784
877.177	0.0149465
877.255	0.0149351
877.333	0.0149532
877.411	0.0148643
877.489	0.0148199
877.568	0.0148515
877.646	0.0146122
877.724	0.0145251
877.802	0.0146596
877.880	0.0145318
877.958	0.0145829
878.036	0.0145896
878.114	0.0145003
878.193	0.0144972
878.271	0.0146062
878.349	0.0146762
878.427	0.0146229
878.505	0.0148078
878.583	0.0148392
878.661	0.0147969
878.739	0.0148611
878.818	0.0150229
878.896	0.0150284
878.974	0.0150185
879.052	0.0151506
879.130	0.0150272
879.208	0.0151291
879.286	0.0150865
879.364	0.0149947
879.443	0.0151419
879.521	0.0151646
879.599	0.0152822
879.677	0.0150378
879.755	0.0149862
879.833	0.0151083
879.911	0.0151299
879.989	0.0150352
880.068	0.0150125
880.146	0.0149956
880.224	0.0149581
880.302	0.0149042
880.380	0.0149746
880.458	0.0150282
880.536	0.0149824
880.614	0.0150949
880.693	0.0148974
880.771	0.0148489
880.849	0.0149149
880.927	0.0149722
881.005	0.0149598
881.083	0.0149191
881.161	0.0150003
881.239	0.0148393
881.318	0.0149107
881.396	0.0149625
881.474	0.0149915
881.552	0.0150266
881.630	0.0150342
881.708	0.0150122
881.786	0.0151330
881.864	0.0151492
881.943	0.0151517
882.021	0.0152244
882.099	0.0150879
882.177	0.0151750
882.255	0.0151517
882.333	0.0150234
882.411	0.0150329
882.489	0.0149763
882.568	0.0149748
882.646	0.0149209
882.724	0.0148720
882.802	0.0147878
882.880	0.0149564
882.958	0.0147820
883.036	0.0147718
883.114	0.0147626
883.193	0.0148277
883.271	0.0149310
883.349	0.0148597
883.427	0.0147644
883.505	0.0147918
883.583	0.0148405
883.661	0.0148665
883.739	0.0148594
883.818	0.0150739
883.896	0.0149882
883.974	0.0151160
884.052	0.0150888
884.130	0.0150401
884.208	0.0151740
884.286	0.0151725
884.364	0.0152802
884.443	0.0153445
884.521	0.0152547
884.599	0.0152271
884.677	0.0151431
884.755	0.0153040
884.833	0.0151627
884.911	0.0150806
884.989	0.0151168
885.068	0.0150727
885.146	0.0151154
885.224	0.0151556
885.302	0.0150972
885.380	0.0151490
885.458	0.0151637
885.536	0.0150753
885.614	0.0151980
885.693	0.0152053
885.771	0.0151323
885.849	0.0149928
885.927	0.0150785
886.005	0.0150055
886.083	0.0149955
886.161	0.0150953
886.239	0.0151988
886.318	0.0150774
886.396	0.0151375
886.474	0.0150497
886.552	0.0153215
886.630	0.0150806
886.708	0.0150462
886.786	0.0153320
886.864	0.0152107
886.943	0.0152672
887.021	0.0150404
887.099	0.0151132
887.177	0.0150040
887.255	0.0152284
887.333	0.0150841
887.411	0.0150049
887.489	0.0149648
887.568	0.0149239
887.646	0.0150185
887.724	0.0151462
887.802	0.0149671
887.880	0.0149639
887.958	0.0152388
888.036	0.0149787
888.114	0.0149499
888.193	0.0151989
888.271	0.0151887
888.349	0.0151659
888.427	0.0149869
888.505	0.0151093
888.583	0.0151451
888.661	0.0151762
888.739	0.0152334
888.818	0.0151398
888.896	0.0152068
888.974	0.0150312
889.052	0.0152032
889.130	0.0153378
889.208	0.0152669
889.286	0.0152990
889.364	0.0152456
889.443	0.0151702
889.521	0.0152599
889.599	0.0151733
889.677	0.0151926
889.755	0.0151476
889.833	0.0151246
889.911	0.0150982
889.989	0.0150152
890.068	0.0151630
890.146	0.0151617
890.224	0.0149740
890.302	0.0149307
890.380	0.0150058
890.458	0.0149529
890.536	0.0149249
890.614	0.0149913
890.693	0.0149571
890.771	0.0149940
890.849	0.0149487
890.927	0.0149354
891.005	0.0149192
891.083	0.0148699
891.161	0.0149829
891.239	0.0149691
891.318	0.0149271
891.396	0.0149582
891.474	0.0148428
891.552	0.0149652
891.630	0.0149349
891.708	0.0149368
891.786	0.0149532
891.864	0.0149024
891.943	0.0151175
892.021	0.0149028
892.099	0.0149005
892.177	0.0149033
892.255	0.0147696
892.333	0.0148053
892.411	0.0148122
892.489	0.0146577
892.568	0.0146118
892.646	0.0145284
892.724	0.0146278
892.802	0.0146520
892.880	0.0146554
892.958	0.0146598
893.036	0.0146782
893.114	0.0147942
893.193	0.0148403
893.271	0.0147089
893.349	0.0147463
893.427	0.0149140
893.505	0.0146902
893.583	0.0146832
893.661	0.0147445
893.739	0.0145938
893.818	0.0148128
893.896	0.0147520
893.974	0.0148133
894.052	0.0149382
894.130	0.0147371
894.208	0.0147556
894.286	0.0147945
894.364	0.0148767
894.443	0.0149672
894.521	0.0151330
894.599	0.0150403
894.677	0.0152292
894.755	0.0152988
894.833	0.0151553
894.911	0.0152247
894.989	0.0153051
895.068	0.0152711
895.146	0.0152333
895.224	0.0152676
895.302	0.0151868
895.380	0.0152353
895.458	0.0151069
895.536	0.0151583
895.614	0.0150999
895.693	0.0151241
895.771	0.0150932
895.849	0.0150163
895.927	0.0151130
896.005	0.0151779
896.083	0.0151146
896.161	0.0149858
896.239	0.0151678
896.318	0.0152183
896.396	0.0150849
896.474	0.0151772
896.552	0.0151688
896.630	0.0151190
896.708	0.0151105
896.786	0.0150847
896.864	0.0151181
896.943	0.0150645
897.021	0.0149928
897.099	0.0151591
897.177	0.0150669
897.255	0.0151625
897.333	0.0151867
897.411	0.0152834
897.489	0.0150699
897.568	0.0151479
897.646	0.0152102
897.724	0.0151742
897.802	0.0150279
897.880	0.0150614
897.958	0.0149632
898.036	0.0149200
898.114	0.0151088
898.193	0.0150146
898.271	0.0150294
898.349	0.0150172
898.427	0.0151353
898.505	0.0153452
898.583	0.0150671
898.661	0.0151769
898.739	0.0153320
898.818	0.0152282
898.896	0.0151257
898.974	0.0153030
899.052	0.0153228
899.130	0.0151376
899.208	0.0152577
899.286	0.0150700
899.364	0.0151287
899.443	0.0150580
899.521	0.0152294
899.599	0.0153076
899.677	0.0150844
899.755	0.0150342
899.833	0.0149640
899.911	0.0150854
899.989	0.0151163
900.068	0.0151609
900.146	0.0150693
900.224	0.0151616
900.302	0.0151411
900.380	0.0151446
900.458	0.0151192
900.536	0.0150245
900.614	0.0149406
900.693	0.0148155
900.771	0.0148001
900.849	0.0148763
900.927	0.0147266
901.005	0.0146736
901.083	0.0146000
901.161	0.0146276
901.239	0.0145007
901.318	0.0145009
901.396	0.0145142
901.474	0.0146239
901.552	0.0146142
901.630	0.0147275
901.708	0.0146725
901.786	0.0146692
901.864	0.0147958
901.943	0.0148294
902.021	0.0148172
902.099	0.0148074
902.177	0.0148906
902.255	0.0150490
902.333	0.0149433
902.411	0.0148672
902.489	0.0149319
902.568	0.0147952
902.646	0.0147268
902.724	0.0147736
902.802	0.0145581
902.880	0.0146020
902.958	0.0145844
903.036	0.0145401
903.114	0.0144228
903.193	0.0146376
903.271	0.0146552
903.349	0.0146359
903.427	0.0147134
903.505	0.0147372
903.583	0.0149356
903.661	0.0149924
903.739	0.0149725
903.818	0.0149627
903.896	0.0150508
903.974	0.0150983
904.052	0.0150211
904.130	0.0150998
904.208	0.0151617
904.286	0.0150513
904.364	0.0151860
904.443	0.0149360
904.521	0.0149728
904.599	0.0152727
904.677	0.0150238
904.755	0.0150626
904.833	0.0149197
904.911	0.0149865
904.989	0.0150282
905.068	0.0149500
905.146	0.0148474
905.224	0.0148560
905.302	0.0150401
905.380	0.0149801
905.458	0.0149323
905.536	0.0148733
905.614	0.0151140
905.693	0.0151469
905.771	0.0150462
905.849	0.0151005
905.927	0.0151946
906.005	0.0150398
906.083	0.0150911
906.161	0.0149950
906.239	0.0150710
906.318	0.0149573
906.396	0.0150421
906.474	0.0150736
906.552	0.0151847
906.630	0.0150551
906.708	0.0149438
906.786	0.0150293
906.864	0.0151333
906.943	0.0151677
907.021	0.0150767
907.099	0.0151623
907.177	0.0153326
907.255	0.0150307
907.333	0.0151607
907.411	0.0152732
907.489	0.0153145
907.568	0.0153036
907.646	0.0152271
907.724	0.0152200
907.802	0.0150295
907.880	0.0151101
907.958	0.0151215
908.036	0.0151635
908.114	0.0150745
908.193	0.0150976
908.271	0.0150739
908.349	0.0149821
908.427	0.0152458
908.505	0.0151482
908.583	0.0150845
908.661	0.0151945
908.739	0.0151698
908.818	0.0152135
908.896	0.0151252
908.974	0.0153035
909.052	0.0151614
909.130	0.0152551
909.208	0.0152174
909.286	0.0151759
909.364	0.0152480
909.443	0.0152062
909.521	0.0151550
909.599	0.0151637
909.677	0.0150662
909.755	0.0152773
909.833	0.0151548
909.911	0.0151899
909.989	0.0151482
910.068	0.0151241
910.146	0.0153211
910.224	0.0150642
910.302	0.0152232
910.380	0.0151867
910.458	0.0151591
910.536	0.0151765
910.614	0.0152448
910.693	0.0153762
910.771	0.0151102
910.849	0.0151310
910.927	0.0152110
911.005	0.0151244
911.083	0.0152615
911.161	0.0151516
911.239	0.0150676
911.318	0.0149760
911.396	0.0150113
911.474	0.0149969
911.552	0.0150481
911.630	0.0149211
911.708	0.0150771
911.786	0.0148769
911.864	0.0151225
911.943	0.0149374
912.021	0.0150010
912.099	0.0150406
912.177	0.0151288
912.255	0.0149981
912.333	0.0149445
912.411	0.0150683
912.489	0.0149112
912.568	0.0149795
912.646	0.0150642
912.724	0.0151071
912.802	0.0149849
912.880	0.0149831
912.958	0.0149276
913.036	0.0149342
913.114	0.0149619
913.193	0.0149488
913.271	0.0147724
913.349	0.0146867
913.427	0.0149029
913.505	0.0147655
913.583	0.0147767
913.661	0.0147517
913.739	0.0147897
913.818	0.0148039
913.896	0.0147243
913.974	0.0148136
914.052	0.0148428
914.130	0.0149123
914.208	0.0150677
914.286	0.0150022
914.364	0.0150746
914.443	0.0149493
914.521	0.0150304
914.599	0.0150706
914.677	0.0151130
914.755	0.0151022
914.833	0.0150140
914.911	0.0150346
914.989	0.0150612
915.068	0.0149889
915.146	0.0149834
915.224	0.0149975
915.302	0.0149548
915.380	0.0150376
915.458	0.0149005
915.536	0.0149825
915.614	0.0149745
915.693	0.0149316
915.771	0.0148946
915.849	0.0149878
915.927	0.0150185
916.005	0.0150049
916.083	0.0149237
916.161	0.0149095
916.239	0.0149863
916.318	0.0149238
916.396	0.0148449
916.474	0.0148260
916.552	0.0147560
916.630	0.0148769
916.708	0.0148519
916.786	0.0148266
916.864	0.0148363
916.943	0.0148720
917.021	0.0147778
917.099	0.0147794
917.177	0.0149895
917.255	0.0147586
917.333	0.0149223
917.411	0.0148779
917.489	0.0150343
917.568	0.0150523
917.646	0.0149929
917.724	0.0150533
917.802	0.0151701
917.880	0.0151836
917.958	0.0151631
918.036	0.0152267
918.114	0.0152290
918.193	0.0151624
918.271	0.0151339
918.349	0.0151907
918.427	0.0151777
918.505	0.0152596
918.583	0.0152188
918.661	0.0151483
918.739	0.0151440
918.818	0.0150608
918.896	0.0151572
918.974	0.0151535
919.052	0.0152084
919.130	0.0151462
919.208	0.0151074
919.286	0.0149098
919.364	0.0150368
919.443	0.0150882
919.521	0.0152303
919.599	0.0150627
919.677	0.0151328
919.755	0.0151025
919.833	0.0150226
919.911	0.0152402
919.989	0.0152519
920.068	0.0150751
920.146	0.0151620
920.224	0.0151431
920.302	0.0150629
920.380	0.0150414
920.458	0.0149396
920.536	0.0150459
920.614	0.0149021
920.693	0.0149682
920.771	0.0150822
920.849	0.0148485
920.927	0.0150139
921.005	0.0149319
921.083	0.0149287
921.161	0.0149519
921.239	0.0148568
921.318	0.0150874
921.396	0.0148673
921.474	0.0149358
921.552	0.0147934
921.630	0.0148642
921.708	0.0150523
921.786	0.0148140
921.864	0.0147154
921.943	0.0147659
922.021	0.0146612
922.099	0.0147578
922.177	0.0147383
922.255	0.0147930
922.333	0.0147942
922.411	0.0148859
922.489	0.0148483
922.568	0.0149279
922.646	0.0150105
922.724	0.0149583
922.802	0.0150909
922.880	0.0149719
922.958	0.0149451
923.036	0.0150372
923.114	0.0150398
923.193	0.0152558
923.271	0.0152946
923.349	0.0152260
923.427	0.0152719
923.505	0.0151486
923.583	0.0152203
923.661	0.0151528
923.739	0.0152199
923.818	0.0151550
923.896	0.0151682
923.974	0.0152498
924.052	0.0151833
924.130	0.0150303
924.208	0.0151195
924.286	0.0150732
924.364	0.0150919
924.443	0.0150437
924.521	0.0149749
924.599	0.0150565
924.677	0.0149443
924.755	0.0149853
924.833	0.0149648
924.911	0.0148409
924.989	0.0150144
925.068	0.0149041
925.146	0.0149171
925.224	0.0148944
925.302	0.0149979
925.380	0.0150512
925.458	0.0149719
925.536	0.0149081
925.614	0.0148981
925.693	0.0148035
925.771	0.0149435
925.849	0.0148225
925.927	0.0150391
926.005	0.0150253
926.083	0.0148402
926.161	0.0149101
926.239	0.0149825
926.318	0.0151328
926.396	0.0150276
926.474	0.0149443
926.552	0.0150236
926.630	0.0148804
926.708	0.0150495
926.786	0.0151724
926.864	0.0150719
926.943	0.0150817
927.021	0.0151444
927.099	0.0151749
927.177	0.0152887
927.255	0.0151961
927.333	0.0151067
927.411	0.0152554
927.489	0.0151971
927.568	0.0151620
927.646	0.0151736
927.724	0.0152289
927.802	0.0150524
927.880	0.0151804
927.958	0.0152502
928.036	0.0151571
928.114	0.0151163
928.193	0.0151391
928.271	0.0150626
928.349	0.0151221
928.427	0.0150404
928.505	0.0150623
928.583	0.0150808
928.661	0.0150347
928.739	0.0150235
928.818	0.0148222
928.896	0.0149816
928.974	0.0150652
929.052	0.0150099
929.130	0.0149839
929.208	0.0148585
929.286	0.0149538
929.364	0.0150292
929.443	0.0150616
929.521	0.0151443
929.599	0.0149985
929.677	0.0149590
929.755	0.0148940
929.833	0.0149818
929.911	0.0149846
929.989	0.0149667
930.068	0.0150405
930.146	0.0148568
930.224	0.0149801
930.302	0.0149483
930.380	0.0150528
930.458	0.0150954
930.536	0.0149963
930.614	0.0149696
930.693	0.0151135
930.771	0.0151814
930.849	0.0152052
930.927	0.0152071
931.005	0.0150740
931.083	0.0150999
931.161	0.0152109
931.239	0.0151996
931.318	0.0152926
931.396	0.0153027
931.474	0.0151203
931.552	0.0150900
931.630	0.0152715
931.708	0.0150896
931.786	0.0151261
931.864	0.0151477
931.943	0.0150324
932.021	0.0151319
932.099	0.0151012
932.177	0.0151089
932.255	0.0150054
932.333	0.0151265
932.411	0.0150601
932.489	0.0151737
932.568	0.0151030
932.646	0.0149906
932.724	0.0150993
932.802	0.0149676
932.880	0.0149129
932.958	0.0148591
933.036	0.0151278
933.114	0.0151059
933.193	0.0150410
933.271	0.0150972
933.349	0.0150364
933.427	0.0150127
933.505	0.0151171
933.583	0.0151875
933.661	0.0150302
933.739	0.0150634
933.818	0.0150834
933.896	0.0150156
933.974	0.0150778
934.052	0.0150797
934.130	0.0150513
934.208	0.0152398
934.286	0.0152587
934.364	0.0151762
934.443	0.0152438
934.521	0.0150659
934.599	0.0152245
934.677	0.0152045
934.755	0.0152744
934.833	0.0152453
934.911	0.0152136
934.989	0.0151188
935.068	0.0152126
935.146	0.0151586
935.224	0.0152202
935.302	0.0151856
935.380	0.0151516
935.458	0.0150790
935.536	0.0150768
935.614	0.0150414
935.693	0.0152324
935.771	0.0150384
935.849	0.0149050
935.927	0.0149193
936.005	0.0151019
936.083	0.0150808
936.161	0.0149947
936.239	0.0149622
936.318	0.0150615
936.396	0.0150951
936.474	0.0150798
936.552	0.0151358
936.630	0.0151134
936.708	0.0152470
936.786	0.0150304
936.864	0.0150868
936.943	0.0152251
937.021	0.0150452
937.099	0.0149913
937.177	0.0151566
937.255	0.0150890
937.333	0.0150011
937.411	0.0149168
937.489	0.0151524
937.568	0.0150282
937.646	0.0150611
937.724	0.0151447
937.802	0.0150815
937.880	0.0150823
937.958	0.0151360
938.036	0.0149725
938.114	0.0151668
938.193	0.0151948
938.271	0.0152170
938.349	0.0150835
938.427	0.0151399
938.505	0.0152513
938.583	0.0152310
938.661	0.0150874
938.739	0.0150402
938.818	0.0151219
938.896	0.0152637
938.974	0.0152877
939.052	0.0152486
939.130	0.0150554
939.208	0.0151476
939.286	0.0152069
939.364	0.0152239
939.443	0.0151321
939.521	0.0151784
939.599	0.0152390
939.677	0.0153047
939.755	0.0151549
939.833	0.0152438
939.911	0.0152688
939.989	0.0150165
940.068	0.0153333
940.146	0.0152197
940.224	0.0150909
940.302	0.0152092
940.380	0.0151079
940.458	0.0151123
940.536	0.0151086
940.614	0.0150992
940.693	0.0151590
940.771	0.0151303
940.849	0.0151043
940.927	0.0151416
941.005	0.0151024
941.083	0.0151099
941.161	0.0149501
941.239	0.0151324
941.318	0.0149471
941.396	0.0150346
941.474	0.0151260
941.552	0.0152119
941.630	0.0150290
941.708	0.0149658
941.786	0.0151582
941.864	0.0151966
941.943	0.0152671
942.021	0.0151481
942.099	0.0150218
942.177	0.0152538
942.255	0.0150485
942.333	0.0151015
942.411	0.0150623
942.489	0.0149255
942.568	0.0150908
942.646	0.0151088
942.724	0.0149799
942.802	0.0149686
942.880	0.0149315
942.958	0.0150989
943.036	0.0149463
943.114	0.0149509
943.193	0.0150144
943.271	0.0150143
943.349	0.0149865
943.427	0.0149706
943.505	0.0150894
943.583	0.0150744
943.661	0.0149911
943.739	0.0150684
943.818	0.0150883
943.896	0.0149892
943.974	0.0149580
944.052	0.0150078
944.130	0.0151245
944.208	0.0150179
944.286	0.0150654
944.364	0.0150083
944.443	0.0152073
944.521	0.0149590
944.599	0.0149114
944.677	0.0151270
944.755	0.0151420
944.833	0.0149265
944.911	0.0150904
944.989	0.0151153
945.068	0.0151341
945.146	0.0151741
945.224	0.0149762
945.302	0.0151156
945.380	0.0151288
945.458	0.0150589
945.536	0.0150718
945.614	0.0152702
945.693	0.0150587
945.771	0.0151392
945.849	0.0150774
945.927	0.0149751
946.005	0.0151772
946.083	0.0150836
946.161	0.0150903
946.239	0.0149620
946.318	0.0148893
946.396	0.0149144
946.474	0.0149580
946.552	0.0150366
946.630	0.0150380
946.708	0.0150915
946.786	0.0148513
946.864	0.0148921
946.943	0.0150925
947.021	0.0150623
947.099	0.0151512
947.177	0.0149705
947.255	0.0149894
947.333	0.0149463
947.411	0.0149219
947.489	0.0150973
947.568	0.0150672
947.646	0.0150903
947.724	0.0150628
947.802	0.0149324
947.880	0.0150468
947.958	0.0150488
948.036	0.0150300
948.114	0.0149873
948.193	0.0149029
948.271	0.0149097
948.349	0.0149428
948.427	0.0149548
948.505	0.0150172
948.583	0.0148857
948.661	0.0149496
948.739	0.0148846
948.818	0.0150616
948.896	0.0149528
948.974	0.0149238
949.052	0.0151061
949.130	0.0150854
949.208	0.0150669
949.286	0.0150105
949.364	0.0150372
949.443	0.0151734
949.521	0.0152028
949.599	0.0151800
949.677	0.0151554
949.755	0.0151152
949.833	0.0152801
949.911	0.0153232
949.989	0.0152892
950.068	0.0152893
950.146	0.0152448
950.224	0.0152021
950.302	0.0151772
950.380	0.0151786
950.458	0.0153417
950.536	0.0153610
950.614	0.0151723
950.693	0.0152676
950.771	0.0152338
950.849	0.0150466
950.927	0.0152132
951.005	0.0151036
951.083	0.0153600
951.161	0.0151030
951.239	0.0150671
951.318	0.0151234
951.396	0.0150879
951.474	0.0151090
951.552	0.0150134
951.630	0.0150240
951.708	0.0150775
951.786	0.0150978
951.864	0.0150735
951.943	0.0149910
952.021	0.0150407
952.099	0.0151678
952.177	0.0150809
952.255	0.0150703
952.333	0.0150714
952.411	0.0151903
952.489	0.0149533
952.568	0.0152605
952.646	0.0150431
952.724	0.0151044
952.802	0.0149918
952.880	0.0150256
952.958	0.0150208
953.036	0.0150763
953.114	0.0150910
953.193	0.0150713
953.271	0.0151830
953.349	0.0151163
953.427	0.0151143
953.505	0.0150567
953.583	0.0152014
953.661	0.0150047
953.739	0.0150776
953.818	0.0150741
953.896	0.0149613
953.974	0.0151410
954.052	0.0151031
954.130	0.0149197
954.208	0.0151998
954.286	0.0150381
954.364	0.0149576
954.443	0.0149380
954.521	0.0150161
954.599	0.0149972
954.677	0.0150352
954.755	0.0149821
954.833	0.0151931
954.911	0.0150471
954.989	0.0150136
955.068	0.0151234
955.146	0.0149682
955.224	0.0149676
955.302	0.0149689
955.380	0.0150845
955.458	0.0150655
955.536	0.0150967
955.614	0.0151368
955.693	0.0151538
955.771	0.0149859
955.849	0.0150560
955.927	0.0150980
956.005	0.0150398
956.083	0.0149403
956.161	0.0151278
956.239	0.0150109
956.318	0.0151582
956.396	0.0149594
956.474	0.0150497
956.552	0.0149046
956.630	0.0150562
956.708	0.0152741
956.786	0.0150114
956.864	0.0150789
956.943	0.0149561
957.021	0.0149481
957.099	0.0149084
957.177	0.0150062
957.255	0.0149979
957.333	0.0150649
957.411	0.0150493
957.489	0.0148284
957.568	0.0150430
957.646	0.0149182
957.724	0.0151068
957.802	0.0149274
957.880	0.0149068
957.958	0.0149075
958.036	0.0149655
958.114	0.0149545
958.193	0.0150832
958.271	0.0148717
958.349	0.0150393
958.427	0.0151143
958.505	0.0150552
958.583	0.0149559
958.661	0.0151955
958.739	0.0152002
958.818	0.0151274
958.896	0.0151317
958.974	0.0152215
959.052	0.0151263
959.130	0.0152489
959.208	0.0151816
959.286	0.0152138
959.364	0.0151592
959.443	0.0152431
959.521	0.0152357
959.599	0.0152127
959.677	0.0153713
959.755	0.0152608
959.833	0.0153532
959.911	0.0154214
