05/14/2022	16:56:53	Ver.	4.1	UNKNOWN
Optical Delay	639.989416	Delta X		0.078125	Sweeps	1	Scan Rate	0/0
Coordinates	Axis 1	NaN	Axis 2	NaN	Axis 3	NaN	Axis 4	NaN	Axis 5	NaN	Axis 6	0.000000
TX Power	0.000000	RX Power	0.000000

639.989	0.0150217
640.068	0.0148764
640.146	0.0149847
640.224	0.0148295
640.302	0.0148317
640.380	0.0148260
640.458	0.0149126
640.536	0.0149713
640.614	0.0149122
640.693	0.0149741
640.771	0.0149200
640.849	0.0149881
640.927	0.0150718
641.005	0.0149934
641.083	0.0149134
641.161	0.0148081
641.239	0.0149767
641.318	0.0149506
641.396	0.0149000
641.474	0.0150093
641.552	0.0148947
641.630	0.0150282
641.708	0.0150414
641.786	0.0148356
641.864	0.0147253
641.943	0.0150563
642.021	0.0149287
642.099	0.0148524
642.177	0.0148646
642.255	0.0149579
642.333	0.0148668
642.411	0.0149852
642.489	0.0148597
642.568	0.0148437
642.646	0.0148927
642.724	0.0149364
642.802	0.0149462
642.880	0.0148390
642.958	0.0148303
643.036	0.0148763
643.114	0.0149037
643.193	0.0149226
643.271	0.0149168
643.349	0.0149541
643.427	0.0147721
643.505	0.0149543
643.583	0.0150156
643.661	0.0149969
643.739	0.0150330
643.818	0.0149307
643.896	0.0149361
643.974	0.0148992
644.052	0.0148950
644.130	0.0150471
644.208	0.0148911
644.286	0.0149597
644.364	0.0149261
644.443	0.0150717
644.521	0.0148862
644.599	0.0149760
644.677	0.0150787
644.755	0.0151076
644.833	0.0151228
644.911	0.0151766
644.989	0.0151324
645.068	0.0151377
645.146	0.0151202
645.224	0.0151063
645.302	0.0150882
645.380	0.0151897
645.458	0.0151829
645.536	0.0150900
645.614	0.0148921
645.693	0.0149028
645.771	0.0150249
645.849	0.0149827
645.927	0.0149359
646.005	0.0151344
646.083	0.0149174
646.161	0.0148864
646.239	0.0149571
646.318	0.0150760
646.396	0.0148424
646.474	0.0151044
646.552	0.0148846
646.630	0.0149663
646.708	0.0148813
646.786	0.0149393
646.864	0.0148185
646.943	0.0149757
647.021	0.0148804
647.099	0.0150076
647.177	0.0151238
647.255	0.0149715
647.333	0.0151064
647.411	0.0151157
647.489	0.0149739
647.568	0.0148859
647.646	0.0150603
647.724	0.0150247
647.802	0.0150085
647.880	0.0151466
647.958	0.0152065
648.036	0.0150890
648.114	0.0150478
648.193	0.0149945
648.271	0.0149911
648.349	0.0151028
648.427	0.0150266
648.505	0.0151054
648.583	0.0150780
648.661	0.0150877
648.739	0.0149612
648.818	0.0151247
648.896	0.0150925
648.974	0.0151504
649.052	0.0151151
649.130	0.0150217
649.208	0.0151077
649.286	0.0149853
649.364	0.0150576
649.443	0.0151877
649.521	0.0150900
649.599	0.0148844
649.677	0.0152402
649.755	0.0150742
649.833	0.0149200
649.911	0.0151067
649.989	0.0151658
650.068	0.0151960
650.146	0.0151429
650.224	0.0152009
650.302	0.0151623
650.380	0.0151392
650.458	0.0151228
650.536	0.0152038
650.614	0.0152374
650.693	0.0152542
650.771	0.0152526
650.849	0.0151889
650.927	0.0150854
651.005	0.0152976
651.083	0.0151424
651.161	0.0150156
651.239	0.0150777
651.318	0.0149730
651.396	0.0150481
651.474	0.0151863
651.552	0.0150774
651.630	0.0150568
651.708	0.0150129
651.786	0.0150812
651.864	0.0151503
651.943	0.0151443
652.021	0.0150489
652.099	0.0150571
652.177	0.0150164
652.255	0.0150668
652.333	0.0150545
652.411	0.0150132
652.489	0.0152184
652.568	0.0150643
652.646	0.0149419
652.724	0.0149437
652.802	0.0151179
652.880	0.0150627
652.958	0.0149538
653.036	0.0151626
653.114	0.0150392
653.193	0.0150705
653.271	0.0150643
653.349	0.0151828
653.427	0.0149887
653.505	0.0150697
653.583	0.0149189
653.661	0.0150807
653.739	0.0150403
653.818	0.0149483
653.896	0.0150069
653.974	0.0150613
654.052	0.0147542
654.130	0.0149052
654.208	0.0149645
654.286	0.0149880
654.364	0.0147063
654.443	0.0147994
654.521	0.0148787
654.599	0.0149229
654.677	0.0147713
654.755	0.0148495
654.833	0.0149709
654.911	0.0149249
654.989	0.0147747
655.068	0.0147554
655.146	0.0147875
655.224	0.0148689
655.302	0.0146883
655.380	0.0147876
655.458	0.0147691
655.536	0.0147372
655.614	0.0148378
655.693	0.0146759
655.771	0.0147839
655.849	0.0148921
655.927	0.0147220
656.005	0.0149297
656.083	0.0149200
656.161	0.0148742
656.239	0.0151035
656.318	0.0149593
656.396	0.0150060
656.474	0.0150436
656.552	0.0150705
656.630	0.0150665
656.708	0.0150416
656.786	0.0151499
656.864	0.0153053
656.943	0.0150991
657.021	0.0151276
657.099	0.0151540
657.177	0.0150555
657.255	0.0151761
657.333	0.0151869
657.411	0.0149991
657.489	0.0149609
657.568	0.0150686
657.646	0.0150975
657.724	0.0151003
657.802	0.0148109
657.880	0.0149296
657.958	0.0149174
658.036	0.0149303
658.114	0.0149763
658.193	0.0148714
658.271	0.0147990
658.349	0.0148959
658.427	0.0148108
658.505	0.0147379
658.583	0.0150261
658.661	0.0147281
658.739	0.0147866
658.818	0.0148696
658.896	0.0149107
658.974	0.0149515
659.052	0.0148435
659.130	0.0148460
659.208	0.0149548
659.286	0.0149306
659.364	0.0148138
659.443	0.0149493
659.521	0.0149094
659.599	0.0149123
659.677	0.0149607
659.755	0.0149640
659.833	0.0149888
659.911	0.0148469
659.989	0.0148537
660.068	0.0147728
660.146	0.0147618
660.224	0.0147887
660.302	0.0148318
660.380	0.0147989
660.458	0.0147931
660.536	0.0147488
660.614	0.0149607
660.693	0.0148765
660.771	0.0147905
660.849	0.0147821
660.927	0.0146954
661.005	0.0147404
661.083	0.0147431
661.161	0.0145745
661.239	0.0147168
661.318	0.0146870
661.396	0.0146735
661.474	0.0147868
661.552	0.0148120
661.630	0.0149561
661.708	0.0149034
661.786	0.0149634
661.864	0.0149745
661.943	0.0148540
662.021	0.0148608
662.099	0.0148859
662.177	0.0150907
662.255	0.0150365
662.333	0.0149144
662.411	0.0149830
662.489	0.0147636
662.568	0.0147824
662.646	0.0148728
662.724	0.0148565
662.802	0.0148306
662.880	0.0147930
662.958	0.0148153
663.036	0.0147509
663.114	0.0147459
663.193	0.0148540
663.271	0.0147528
663.349	0.0147341
663.427	0.0148689
663.505	0.0148754
663.583	0.0149186
663.661	0.0149512
663.739	0.0149767
663.818	0.0150730
663.896	0.0149575
663.974	0.0150500
664.052	0.0151611
664.130	0.0152669
664.208	0.0151441
664.286	0.0154077
664.364	0.0153749
664.443	0.0153860
664.521	0.0155140
664.599	0.0155363
664.677	0.0154813
664.755	0.0156235
664.833	0.0154899
664.911	0.0153331
664.989	0.0152080
665.068	0.0152358
665.146	0.0152592
665.224	0.0152521
665.302	0.0150453
665.380	0.0150397
665.458	0.0150079
665.536	0.0148073
665.614	0.0146185
665.693	0.0146616
665.771	0.0145240
665.849	0.0144775
665.927	0.0144403
666.005	0.0143375
666.083	0.0143840
666.161	0.0145177
666.239	0.0143326
666.318	0.0145629
666.396	0.0145586
666.474	0.0144907
666.552	0.0143382
666.630	0.0146117
666.708	0.0146626
666.786	0.0148528
666.864	0.0149129
666.943	0.0150488
667.021	0.0153170
667.099	0.0153915
667.177	0.0153884
667.255	0.0156017
667.333	0.0156689
667.411	0.0157877
667.489	0.0157797
667.568	0.0158178
667.646	0.0159499
667.724	0.0159860
667.802	0.0159737
667.880	0.0158099
667.958	0.0157507
668.036	0.0156907
668.114	0.0158039
668.193	0.0156837
668.271	0.0153173
668.349	0.0153194
668.427	0.0152571
668.505	0.0150249
668.583	0.0148398
668.661	0.0146117
668.739	0.0144834
668.818	0.0143617
668.896	0.0141330
668.974	0.0140176
669.052	0.0141893
669.130	0.0139019
669.208	0.0137222
669.286	0.0138151
669.364	0.0136771
669.443	0.0138197
669.521	0.0138937
669.599	0.0139766
669.677	0.0139207
669.755	0.0138995
669.833	0.0141418
669.911	0.0142293
669.989	0.0143542
670.068	0.0145061
670.146	0.0146525
670.224	0.0146564
670.302	0.0148676
670.380	0.0150675
670.458	0.0151460
670.536	0.0153074
670.614	0.0154214
670.693	0.0155737
670.771	0.0159045
670.849	0.0159499
670.927	0.0158257
671.005	0.0159064
671.083	0.0161523
671.161	0.0161951
671.239	0.0161933
671.318	0.0160627
671.396	0.0161180
671.474	0.0159692
671.552	0.0159480
671.630	0.0158475
671.708	0.0157451
671.786	0.0156091
671.864	0.0156647
671.943	0.0153985
672.021	0.0152501
672.099	0.0150750
672.177	0.0149960
672.255	0.0147539
672.333	0.0145187
672.411	0.0145886
672.489	0.0145119
672.568	0.0144700
672.646	0.0143119
672.724	0.0142622
672.802	0.0142661
672.880	0.0140475
672.958	0.0141819
673.036	0.0141197
673.114	0.0138284
673.193	0.0141013
673.271	0.0140559
673.349	0.0141743
673.427	0.0143167
673.505	0.0143700
673.583	0.0143976
673.661	0.0143427
673.739	0.0146676
673.818	0.0147867
673.896	0.0149628
673.974	0.0150696
674.052	0.0151440
674.130	0.0153143
674.208	0.0152298
674.286	0.0152822
674.364	0.0153250
674.443	0.0155351
674.521	0.0154951
674.599	0.0155006
674.677	0.0156348
674.755	0.0155193
674.833	0.0155540
674.911	0.0155888
674.989	0.0155846
675.068	0.0155627
675.146	0.0154983
675.224	0.0155833
675.302	0.0154900
675.380	0.0155965
675.458	0.0154848
675.536	0.0155061
675.614	0.0155346
675.693	0.0156163
675.771	0.0155776
675.849	0.0157285
675.927	0.0157542
676.005	0.0158309
676.083	0.0158337
676.161	0.0158348
676.239	0.0158368
676.318	0.0159421
676.396	0.0159503
676.474	0.0158103
676.552	0.0158028
676.630	0.0157862
676.708	0.0157706
676.786	0.0157102
676.864	0.0154728
676.943	0.0153886
677.021	0.0152444
677.099	0.0152088
677.177	0.0150768
677.255	0.0150134
677.333	0.0145963
677.411	0.0146200
677.489	0.0142833
677.568	0.0140673
677.646	0.0139674
677.724	0.0137154
677.802	0.0137100
677.880	0.0135865
677.958	0.0133746
678.036	0.0133619
678.114	0.0132334
678.193	0.0132285
678.271	0.0131818
678.349	0.0134041
678.427	0.0133498
678.505	0.0133966
678.583	0.0135951
678.661	0.0139400
678.739	0.0140446
678.818	0.0142844
678.896	0.0145244
678.974	0.0147915
679.052	0.0150128
679.130	0.0152804
679.208	0.0155840
679.286	0.0158955
679.364	0.0160765
679.443	0.0163380
679.521	0.0166399
679.599	0.0168366
679.677	0.0168807
679.755	0.0170986
679.833	0.0172392
679.911	0.0173292
679.989	0.0174155
680.068	0.0173796
680.146	0.0173470
680.224	0.0172311
680.302	0.0172146
680.380	0.0169620
680.458	0.0168912
680.536	0.0167324
680.614	0.0162478
680.693	0.0161746
680.771	0.0160494
680.849	0.0158361
680.927	0.0153870
681.005	0.0152546
681.083	0.0150359
681.161	0.0147589
681.239	0.0143694
681.318	0.0140995
681.396	0.0140819
681.474	0.0138001
681.552	0.0136695
681.630	0.0133874
681.708	0.0132004
681.786	0.0131298
681.864	0.0129960
681.943	0.0130201
682.021	0.0128808
682.099	0.0130050
682.177	0.0129470
682.255	0.0130131
682.333	0.0130850
682.411	0.0131174
682.489	0.0132182
682.568	0.0133917
682.646	0.0133011
682.724	0.0135938
682.802	0.0137635
682.880	0.0139218
682.958	0.0141261
683.036	0.0143450
683.114	0.0145515
683.193	0.0148534
683.271	0.0150339
683.349	0.0152167
683.427	0.0155069
683.505	0.0157785
683.583	0.0159803
683.661	0.0162054
683.739	0.0162308
683.818	0.0166380
683.896	0.0167817
683.974	0.0168446
684.052	0.0170083
684.130	0.0170026
684.208	0.0172175
684.286	0.0171833
684.364	0.0172601
684.443	0.0171160
684.521	0.0170963
684.599	0.0171202
684.677	0.0169718
684.755	0.0167470
684.833	0.0167212
684.911	0.0166026
684.989	0.0163625
685.068	0.0161010
685.146	0.0158759
685.224	0.0155971
685.302	0.0153948
685.380	0.0151607
685.458	0.0149487
685.536	0.0147620
685.614	0.0144300
685.693	0.0143033
685.771	0.0140176
685.849	0.0137169
685.927	0.0135807
686.005	0.0134447
686.083	0.0134834
686.161	0.0130898
686.239	0.0131210
686.318	0.0131948
686.396	0.0131174
686.474	0.0130458
686.552	0.0130949
686.630	0.0133027
686.708	0.0132893
686.786	0.0134103
686.864	0.0135776
686.943	0.0136941
687.021	0.0138672
687.099	0.0138605
687.177	0.0139698
687.255	0.0142474
687.333	0.0145255
687.411	0.0145677
687.489	0.0145785
687.568	0.0147337
687.646	0.0148250
687.724	0.0149137
687.802	0.0150163
687.880	0.0151413
687.958	0.0154818
688.036	0.0155677
688.114	0.0155296
688.193	0.0158142
688.271	0.0158450
688.349	0.0160974
688.427	0.0161434
688.505	0.0163210
688.583	0.0163435
688.661	0.0163688
688.739	0.0164837
688.818	0.0165710
688.896	0.0167422
688.974	0.0167539
689.052	0.0168539
689.130	0.0166783
689.208	0.0166800
689.286	0.0169055
689.364	0.0167294
689.443	0.0166377
689.521	0.0165207
689.599	0.0163765
689.677	0.0163044
689.755	0.0160735
689.833	0.0159405
689.911	0.0159985
689.989	0.0157278
690.068	0.0157350
690.146	0.0154385
690.224	0.0152786
690.302	0.0151428
690.380	0.0150900
690.458	0.0148763
690.536	0.0147640
690.614	0.0146551
690.693	0.0144213
690.771	0.0142916
690.849	0.0141566
690.927	0.0140478
691.005	0.0139342
691.083	0.0139357
691.161	0.0138212
691.239	0.0135278
691.318	0.0136811
691.396	0.0135152
691.474	0.0135863
691.552	0.0138013
691.630	0.0137373
691.708	0.0138446
691.786	0.0138354
691.864	0.0138666
691.943	0.0141013
692.021	0.0140738
692.099	0.0141808
692.177	0.0142920
692.255	0.0143328
692.333	0.0145287
692.411	0.0146835
692.489	0.0148287
692.568	0.0149377
692.646	0.0151637
692.724	0.0152895
692.802	0.0152689
692.880	0.0154185
692.958	0.0156900
693.036	0.0157150
693.114	0.0158183
693.193	0.0158697
693.271	0.0159863
693.349	0.0161087
693.427	0.0160484
693.505	0.0161156
693.583	0.0162113
693.661	0.0162206
693.739	0.0161374
693.818	0.0161361
693.896	0.0161703
693.974	0.0160880
694.052	0.0161975
694.130	0.0160423
694.208	0.0159570
694.286	0.0158050
694.364	0.0159488
694.443	0.0158418
694.521	0.0155669
694.599	0.0155045
694.677	0.0154466
694.755	0.0153752
694.833	0.0151382
694.911	0.0151635
694.989	0.0151513
695.068	0.0149422
695.146	0.0148876
695.224	0.0148225
695.302	0.0146443
695.380	0.0146704
695.458	0.0145987
695.536	0.0143733
695.614	0.0144391
695.693	0.0144684
695.771	0.0143844
695.849	0.0143679
695.927	0.0145090
696.005	0.0145585
696.083	0.0144787
696.161	0.0144714
696.239	0.0144379
696.318	0.0145516
696.396	0.0146053
696.474	0.0146980
696.552	0.0147138
696.630	0.0147265
696.708	0.0146220
696.786	0.0146888
696.864	0.0146876
696.943	0.0147713
697.021	0.0149309
697.099	0.0148837
697.177	0.0148061
697.255	0.0149977
697.333	0.0149010
697.411	0.0149920
697.489	0.0150825
697.568	0.0151182
697.646	0.0150977
697.724	0.0151252
697.802	0.0151394
697.880	0.0151512
697.958	0.0153565
698.036	0.0152615
698.114	0.0151669
698.193	0.0150739
698.271	0.0151847
698.349	0.0153480
698.427	0.0152176
698.505	0.0151028
698.583	0.0150782
698.661	0.0152312
698.739	0.0151346
698.818	0.0149950
698.896	0.0149235
698.974	0.0150308
699.052	0.0151927
699.130	0.0151018
699.208	0.0150224
699.286	0.0151418
699.364	0.0151363
699.443	0.0153428
699.521	0.0153164
699.599	0.0153299
699.677	0.0152497
699.755	0.0153287
699.833	0.0153074
699.911	0.0154521
699.989	0.0155453
700.068	0.0155171
700.146	0.0156563
700.224	0.0156809
700.302	0.0155341
700.380	0.0155621
700.458	0.0155962
700.536	0.0154399
700.614	0.0154926
700.693	0.0154182
700.771	0.0153825
700.849	0.0152225
700.927	0.0150692
701.005	0.0149631
701.083	0.0149033
701.161	0.0147897
701.239	0.0147277
701.318	0.0146047
701.396	0.0146274
701.474	0.0146584
701.552	0.0144749
701.630	0.0143770
701.708	0.0143471
701.786	0.0143102
701.864	0.0142440
701.943	0.0142893
702.021	0.0141858
702.099	0.0141460
702.177	0.0141994
702.255	0.0142715
702.333	0.0144595
702.411	0.0144048
702.489	0.0145695
702.568	0.0147256
702.646	0.0147000
702.724	0.0148135
702.802	0.0148345
702.880	0.0150040
702.958	0.0150229
703.036	0.0153345
703.114	0.0154476
703.193	0.0154330
703.271	0.0155952
703.349	0.0156675
703.427	0.0157430
703.505	0.0157581
703.583	0.0160227
703.661	0.0159749
703.739	0.0158894
703.818	0.0159229
703.896	0.0157828
703.974	0.0158682
704.052	0.0156808
704.130	0.0157144
704.208	0.0154950
704.286	0.0154829
704.364	0.0153741
704.443	0.0151501
704.521	0.0150439
704.599	0.0148826
704.677	0.0147906
704.755	0.0147221
704.833	0.0145637
704.911	0.0145359
704.989	0.0142905
705.068	0.0143953
705.146	0.0144978
705.224	0.0143603
705.302	0.0144254
705.380	0.0144471
705.458	0.0144845
705.536	0.0145518
705.614	0.0146946
705.693	0.0146970
705.771	0.0147188
705.849	0.0147829
705.927	0.0149689
706.005	0.0150487
706.083	0.0151888
706.161	0.0153203
706.239	0.0152586
706.318	0.0152276
706.396	0.0152235
706.474	0.0152656
706.552	0.0152737
706.630	0.0151118
706.708	0.0153239
706.786	0.0152718
706.864	0.0151916
706.943	0.0152884
707.021	0.0151509
707.099	0.0151798
707.177	0.0150789
707.255	0.0151007
707.333	0.0151134
707.411	0.0151299
707.489	0.0150511
707.568	0.0152210
707.646	0.0152076
707.724	0.0152380
707.802	0.0152300
707.880	0.0152016
707.958	0.0151772
708.036	0.0151708
708.114	0.0152895
708.193	0.0152193
708.271	0.0152283
708.349	0.0154389
708.427	0.0154737
708.505	0.0153717
708.583	0.0155818
708.661	0.0156593
708.739	0.0155138
708.818	0.0155670
708.896	0.0156210
708.974	0.0156413
709.052	0.0155465
709.130	0.0157288
709.208	0.0157722
709.286	0.0156951
709.364	0.0156913
709.443	0.0156613
709.521	0.0156998
709.599	0.0156596
709.677	0.0155524
709.755	0.0156076
709.833	0.0154169
709.911	0.0152299
709.989	0.0153584
710.068	0.0152046
710.146	0.0149412
710.224	0.0148370
710.302	0.0150504
710.380	0.0147139
710.458	0.0147705
710.536	0.0146031
710.614	0.0146638
710.693	0.0144899
710.771	0.0145536
710.849	0.0144003
710.927	0.0143963
711.005	0.0143579
711.083	0.0143080
711.161	0.0143002
711.239	0.0142986
711.318	0.0143045
711.396	0.0143069
711.474	0.0143449
711.552	0.0142000
711.630	0.0142319
711.708	0.0143252
711.786	0.0144927
711.864	0.0145252
711.943	0.0146676
712.021	0.0146502
712.099	0.0146309
712.177	0.0147012
712.255	0.0147511
712.333	0.0149111
712.411	0.0148872
712.489	0.0150220
712.568	0.0151728
712.646	0.0153417
712.724	0.0154337
712.802	0.0155282
712.880	0.0156184
712.958	0.0157249
713.036	0.0156878
713.114	0.0159007
713.193	0.0159818
713.271	0.0159541
713.349	0.0159936
713.427	0.0160825
713.505	0.0158993
713.583	0.0159368
713.661	0.0160138
713.739	0.0158380
713.818	0.0158318
713.896	0.0158801
713.974	0.0157732
714.052	0.0157298
714.130	0.0155354
714.208	0.0153586
714.286	0.0154218
714.364	0.0152353
714.443	0.0150073
714.521	0.0150237
714.599	0.0147000
714.677	0.0147683
714.755	0.0145840
714.833	0.0144366
714.911	0.0144531
714.989	0.0143103
715.068	0.0142940
715.146	0.0144165
715.224	0.0143047
715.302	0.0144069
715.380	0.0144213
715.458	0.0144699
715.536	0.0146012
715.614	0.0146202
715.693	0.0145873
715.771	0.0147249
715.849	0.0148619
715.927	0.0147912
716.005	0.0149612
716.083	0.0150319
716.161	0.0149648
716.239	0.0151295
716.318	0.0151026
716.396	0.0152236
716.474	0.0153270
716.552	0.0152496
716.630	0.0154578
716.708	0.0155257
716.786	0.0156324
716.864	0.0155826
716.943	0.0155520
717.021	0.0156844
717.099	0.0156788
717.177	0.0158720
717.255	0.0157925
717.333	0.0156004
717.411	0.0157285
717.489	0.0156747
717.568	0.0157423
717.646	0.0155449
717.724	0.0154196
717.802	0.0154753
717.880	0.0152518
717.958	0.0154210
718.036	0.0151558
718.114	0.0150919
718.193	0.0150259
718.271	0.0148701
718.349	0.0149812
718.427	0.0148526
718.505	0.0145919
718.583	0.0146188
718.661	0.0145111
718.739	0.0144010
718.818	0.0144570
718.896	0.0144687
718.974	0.0144203
719.052	0.0144639
719.130	0.0144244
719.208	0.0144836
719.286	0.0145874
719.364	0.0148003
719.443	0.0147543
719.521	0.0147663
719.599	0.0147575
719.677	0.0150450
719.755	0.0152373
719.833	0.0153677
719.911	0.0152567
719.989	0.0154785
720.068	0.0155946
720.146	0.0156751
720.224	0.0156698
720.302	0.0158163
720.380	0.0157941
720.458	0.0160493
720.536	0.0160519
720.614	0.0160374
720.693	0.0157909
720.771	0.0159303
720.849	0.0159544
720.927	0.0159723
721.005	0.0158642
721.083	0.0156036
721.161	0.0156808
721.239	0.0155519
721.318	0.0154835
721.396	0.0155442
721.474	0.0152519
721.552	0.0151993
721.630	0.0150428
721.708	0.0149746
721.786	0.0148251
721.864	0.0147868
721.943	0.0146612
722.021	0.0144682
722.099	0.0143480
722.177	0.0143568
722.255	0.0141952
722.333	0.0141496
722.411	0.0140365
722.489	0.0140099
722.568	0.0138498
722.646	0.0138540
722.724	0.0136092
722.802	0.0138585
722.880	0.0137066
722.958	0.0136440
723.036	0.0136836
723.114	0.0137765
723.193	0.0139258
723.271	0.0140289
723.349	0.0139479
723.427	0.0139782
723.505	0.0142113
723.583	0.0143584
723.661	0.0144846
723.739	0.0147227
723.818	0.0148524
723.896	0.0149148
723.974	0.0150150
724.052	0.0153088
724.130	0.0152937
724.208	0.0154962
724.286	0.0156495
724.364	0.0157938
724.443	0.0158167
724.521	0.0159982
724.599	0.0159837
724.677	0.0159788
724.755	0.0159466
724.833	0.0158873
724.911	0.0158875
724.989	0.0158127
725.068	0.0158025
725.146	0.0156932
725.224	0.0155642
725.302	0.0155251
725.380	0.0153923
725.458	0.0153490
725.536	0.0152609
725.614	0.0152502
725.693	0.0151833
725.771	0.0151079
725.849	0.0150155
725.927	0.0149573
726.005	0.0149300
726.083	0.0148717
726.161	0.0148119
726.239	0.0147838
726.318	0.0147005
726.396	0.0148687
726.474	0.0149583
726.552	0.0147634
726.630	0.0149471
726.708	0.0149916
726.786	0.0148967
726.864	0.0148646
726.943	0.0149804
727.021	0.0149178
727.099	0.0149833
727.177	0.0149696
727.255	0.0149977
727.333	0.0150435
727.411	0.0149174
727.489	0.0150256
727.568	0.0149918
727.646	0.0150394
727.724	0.0150037
727.802	0.0149614
727.880	0.0150018
727.958	0.0149989
728.036	0.0151253
728.114	0.0150503
728.193	0.0149953
728.271	0.0149252
728.349	0.0149768
728.427	0.0149632
728.505	0.0150799
728.583	0.0148750
728.661	0.0148857
728.739	0.0148654
728.818	0.0148370
728.896	0.0148145
728.974	0.0149574
729.052	0.0148218
729.130	0.0149104
729.208	0.0148066
729.286	0.0149312
729.364	0.0146978
729.443	0.0148972
729.521	0.0149809
729.599	0.0149650
729.677	0.0149343
729.755	0.0150053
729.833	0.0150284
729.911	0.0151368
729.989	0.0151637
730.068	0.0149124
730.146	0.0150141
730.224	0.0151763
730.302	0.0151321
730.380	0.0149653
730.458	0.0151115
730.536	0.0151784
730.614	0.0150590
730.693	0.0151050
730.771	0.0151307
730.849	0.0150496
730.927	0.0150961
731.005	0.0151799
731.083	0.0151111
731.161	0.0151376
731.239	0.0151707
731.318	0.0151896
731.396	0.0153513
731.474	0.0154401
731.552	0.0153976
731.630	0.0155494
731.708	0.0155377
731.786	0.0155646
731.864	0.0157490
731.943	0.0157304
732.021	0.0156731
732.099	0.0157552
732.177	0.0158491
732.255	0.0157365
732.333	0.0156371
732.411	0.0157018
732.489	0.0156873
732.568	0.0154699
732.646	0.0153986
732.724	0.0154754
732.802	0.0152965
732.880	0.0151181
732.958	0.0150187
733.036	0.0147787
733.114	0.0148077
733.193	0.0148387
733.271	0.0146570
733.349	0.0144546
733.427	0.0143877
733.505	0.0142284
733.583	0.0140662
733.661	0.0140361
733.739	0.0141184
733.818	0.0140189
733.896	0.0139187
733.974	0.0139049
734.052	0.0138890
734.130	0.0139185
734.208	0.0137987
734.286	0.0139186
734.364	0.0139625
734.443	0.0140701
734.521	0.0141055
734.599	0.0143609
734.677	0.0143472
734.755	0.0143833
734.833	0.0144356
734.911	0.0146835
734.989	0.0147931
735.068	0.0149322
735.146	0.0149597
735.224	0.0152542
735.302	0.0153111
735.380	0.0154619
735.458	0.0154624
735.536	0.0156130
735.614	0.0158137
735.693	0.0157221
735.771	0.0158867
735.849	0.0160095
735.927	0.0160881
736.005	0.0159254
736.083	0.0159474
736.161	0.0159346
736.239	0.0158207
736.318	0.0158191
736.396	0.0158585
736.474	0.0159068
736.552	0.0158549
736.630	0.0157227
736.708	0.0155793
736.786	0.0156490
736.864	0.0154247
736.943	0.0153481
737.021	0.0152909
737.099	0.0151317
737.177	0.0150426
737.255	0.0148188
737.333	0.0149896
737.411	0.0148767
737.489	0.0148238
737.568	0.0146935
737.646	0.0147236
737.724	0.0148293
737.802	0.0146928
737.880	0.0145739
737.958	0.0145817
738.036	0.0145457
738.114	0.0145081
738.193	0.0146544
738.271	0.0146498
738.349	0.0146933
738.427	0.0146645
738.505	0.0147837
738.583	0.0147980
738.661	0.0149254
738.739	0.0146909
738.818	0.0149016
738.896	0.0150064
738.974	0.0149634
739.052	0.0152559
739.130	0.0150516
739.208	0.0150836
739.286	0.0151463
739.364	0.0150494
739.443	0.0151373
739.521	0.0151744
739.599	0.0152335
739.677	0.0151275
739.755	0.0152042
739.833	0.0151753
739.911	0.0151346
739.989	0.0153048
740.068	0.0150878
740.146	0.0150169
740.224	0.0150384
740.302	0.0150198
740.380	0.0151620
740.458	0.0150527
740.536	0.0149096
740.614	0.0150061
740.693	0.0150720
740.771	0.0151270
740.849	0.0150954
740.927	0.0150456
741.005	0.0151609
741.083	0.0151347
741.161	0.0150848
741.239	0.0151178
741.318	0.0152728
741.396	0.0150786
741.474	0.0150600
741.552	0.0150715
741.630	0.0151292
741.708	0.0150329
741.786	0.0150825
741.864	0.0151305
741.943	0.0150407
742.021	0.0148642
742.099	0.0150413
742.177	0.0150894
742.255	0.0150848
742.333	0.0150588
742.411	0.0149928
742.489	0.0151212
742.568	0.0150886
742.646	0.0151157
742.724	0.0151276
742.802	0.0151363
742.880	0.0153205
742.958	0.0152087
743.036	0.0153819
743.114	0.0153369
743.193	0.0153380
743.271	0.0154228
743.349	0.0153931
743.427	0.0154488
743.505	0.0156020
743.583	0.0154440
743.661	0.0153456
743.739	0.0154192
743.818	0.0153879
743.896	0.0153906
743.974	0.0153873
744.052	0.0155331
744.130	0.0153197
744.208	0.0153511
744.286	0.0153712
744.364	0.0153228
744.443	0.0153545
744.521	0.0152485
744.599	0.0153635
744.677	0.0151854
744.755	0.0151231
744.833	0.0152615
744.911	0.0150948
744.989	0.0149989
745.068	0.0149333
745.146	0.0148888
745.224	0.0148991
745.302	0.0149222
745.380	0.0145583
745.458	0.0144955
745.536	0.0145825
745.614	0.0145623
745.693	0.0143922
745.771	0.0145118
745.849	0.0143275
745.927	0.0143222
746.005	0.0142291
746.083	0.0143033
746.161	0.0141785
746.239	0.0141488
746.318	0.0141193
746.396	0.0143160
746.474	0.0143333
746.552	0.0143012
746.630	0.0142981
746.708	0.0145087
746.786	0.0144603
746.864	0.0145806
746.943	0.0146181
747.021	0.0146201
747.099	0.0147702
747.177	0.0147501
747.255	0.0148513
747.333	0.0150609
747.411	0.0149791
747.489	0.0149149
747.568	0.0150634
747.646	0.0150045
747.724	0.0151664
747.802	0.0152943
747.880	0.0152097
747.958	0.0153115
748.036	0.0153867
748.114	0.0153722
748.193	0.0154486
748.271	0.0154346
748.349	0.0153931
748.427	0.0154227
748.505	0.0155385
748.583	0.0154024
748.661	0.0154898
748.739	0.0155690
748.818	0.0154218
748.896	0.0153680
748.974	0.0156682
749.052	0.0155180
749.130	0.0154538
749.208	0.0154474
749.286	0.0153307
749.364	0.0155026
749.443	0.0154211
749.521	0.0154124
749.599	0.0152364
749.677	0.0152202
749.755	0.0151920
749.833	0.0151609
749.911	0.0151511
749.989	0.0149003
750.068	0.0150376
750.146	0.0150981
750.224	0.0147617
750.302	0.0148216
750.380	0.0150855
750.458	0.0149081
750.536	0.0148700
750.614	0.0147953
750.693	0.0146439
750.771	0.0147488
750.849	0.0146449
750.927	0.0146839
751.005	0.0146339
751.083	0.0144771
751.161	0.0145567
751.239	0.0147372
751.318	0.0147246
751.396	0.0145506
751.474	0.0147588
751.552	0.0147727
751.630	0.0147368
751.708	0.0149506
751.786	0.0148691
751.864	0.0148730
751.943	0.0150003
752.021	0.0152232
752.099	0.0151764
752.177	0.0152561
752.255	0.0154052
752.333	0.0154410
752.411	0.0153912
752.489	0.0155766
752.568	0.0156551
752.646	0.0156879
752.724	0.0157906
752.802	0.0157372
752.880	0.0158738
752.958	0.0157771
753.036	0.0159063
753.114	0.0159322
753.193	0.0158859
753.271	0.0159203
753.349	0.0159438
753.427	0.0157102
753.505	0.0156924
753.583	0.0158721
753.661	0.0157387
753.739	0.0155863
753.818	0.0155476
753.896	0.0153894
753.974	0.0154585
754.052	0.0154343
754.130	0.0153455
754.208	0.0152367
754.286	0.0150449
754.364	0.0150369
754.443	0.0150195
754.521	0.0149818
754.599	0.0148181
754.677	0.0147256
754.755	0.0146281
754.833	0.0147093
754.911	0.0146889
754.989	0.0145033
755.068	0.0145020
755.146	0.0144066
755.224	0.0143497
755.302	0.0145345
755.380	0.0143725
755.458	0.0144770
755.536	0.0143305
755.614	0.0144962
755.693	0.0142165
755.771	0.0143614
755.849	0.0145101
755.927	0.0144263
756.005	0.0145438
756.083	0.0145757
756.161	0.0145043
756.239	0.0146045
756.318	0.0146559
756.396	0.0144338
756.474	0.0145967
756.552	0.0148313
756.630	0.0146542
756.708	0.0145683
756.786	0.0147022
756.864	0.0147924
756.943	0.0147565
757.021	0.0148447
757.099	0.0150014
757.177	0.0149444
757.255	0.0148840
757.333	0.0149490
757.411	0.0149673
757.489	0.0149707
757.568	0.0152055
757.646	0.0152893
757.724	0.0152750
757.802	0.0153092
757.880	0.0152760
757.958	0.0152015
758.036	0.0153127
758.114	0.0154372
758.193	0.0154900
758.271	0.0154582
758.349	0.0154184
758.427	0.0154901
758.505	0.0153370
758.583	0.0152852
758.661	0.0152957
758.739	0.0152930
758.818	0.0152663
758.896	0.0151031
758.974	0.0152212
759.052	0.0152605
759.130	0.0151018
759.208	0.0148985
759.286	0.0150808
759.364	0.0150639
759.443	0.0150014
759.521	0.0149306
759.599	0.0149306
759.677	0.0147918
759.755	0.0148554
759.833	0.0149171
759.911	0.0148753
759.989	0.0147773
760.068	0.0147170
760.146	0.0148598
760.224	0.0147544
760.302	0.0148530
760.380	0.0148035
760.458	0.0147493
760.536	0.0147236
760.614	0.0147825
760.693	0.0147965
760.771	0.0149088
760.849	0.0146669
760.927	0.0149023
761.005	0.0150294
761.083	0.0149331
761.161	0.0149905
761.239	0.0151381
761.318	0.0151464
761.396	0.0151711
761.474	0.0151353
761.552	0.0152106
761.630	0.0152613
761.708	0.0150935
761.786	0.0152004
761.864	0.0151945
761.943	0.0151397
762.021	0.0152080
762.099	0.0151476
762.177	0.0152193
762.255	0.0152386
762.333	0.0151648
762.411	0.0150620
762.489	0.0150442
762.568	0.0150110
762.646	0.0149825
762.724	0.0150722
762.802	0.0150294
762.880	0.0149438
762.958	0.0148671
763.036	0.0149446
763.114	0.0149086
763.193	0.0148785
763.271	0.0149213
763.349	0.0147349
763.427	0.0147474
763.505	0.0148363
763.583	0.0148327
763.661	0.0149930
763.739	0.0149561
763.818	0.0149181
763.896	0.0150034
763.974	0.0150127
764.052	0.0149574
764.130	0.0149591
764.208	0.0151381
764.286	0.0150625
764.364	0.0150087
764.443	0.0151176
764.521	0.0149804
764.599	0.0150016
764.677	0.0148819
764.755	0.0148653
764.833	0.0149439
764.911	0.0151954
764.989	0.0151573
765.068	0.0151013
765.146	0.0150723
765.224	0.0151192
765.302	0.0152065
765.380	0.0151192
765.458	0.0150657
765.536	0.0152486
765.614	0.0151731
765.693	0.0152242
765.771	0.0152164
765.849	0.0151660
765.927	0.0151214
766.005	0.0151719
766.083	0.0152277
766.161	0.0150861
766.239	0.0152556
766.318	0.0152206
766.396	0.0151590
766.474	0.0151163
766.552	0.0150898
766.630	0.0151229
766.708	0.0151761
766.786	0.0152109
766.864	0.0149708
766.943	0.0149871
767.021	0.0150842
767.099	0.0150817
767.177	0.0151197
767.255	0.0152061
767.333	0.0152032
767.411	0.0150953
767.489	0.0152581
767.568	0.0152522
767.646	0.0152536
767.724	0.0151732
767.802	0.0151310
767.880	0.0151205
767.958	0.0152113
768.036	0.0151875
768.114	0.0150159
768.193	0.0152043
768.271	0.0153768
768.349	0.0151236
768.427	0.0148954
768.505	0.0151556
768.583	0.0151283
768.661	0.0150838
768.739	0.0149514
768.818	0.0149333
768.896	0.0149221
768.974	0.0149234
769.052	0.0146455
769.130	0.0147297
769.208	0.0147916
769.286	0.0146430
769.364	0.0147986
769.443	0.0147988
769.521	0.0147080
769.599	0.0147341
769.677	0.0148709
769.755	0.0148149
769.833	0.0147366
769.911	0.0149734
769.989	0.0148647
770.068	0.0147260
770.146	0.0149125
770.224	0.0149895
770.302	0.0149034
770.380	0.0149448
770.458	0.0149011
770.536	0.0150127
770.614	0.0150402
770.693	0.0149546
770.771	0.0150051
770.849	0.0150901
770.927	0.0151304
771.005	0.0150478
771.083	0.0150270
771.161	0.0150493
771.239	0.0150282
771.318	0.0150613
771.396	0.0151346
771.474	0.0151143
771.552	0.0150030
771.630	0.0150458
771.708	0.0152206
771.786	0.0151509
771.864	0.0151343
771.943	0.0150738
772.021	0.0151778
772.099	0.0150775
772.177	0.0152007
772.255	0.0151806
772.333	0.0151657
772.411	0.0150184
772.489	0.0151388
772.568	0.0151015
772.646	0.0150749
772.724	0.0150490
772.802	0.0149941
772.880	0.0151533
772.958	0.0151054
773.036	0.0149205
773.114	0.0150368
773.193	0.0149930
773.271	0.0150871
773.349	0.0149426
773.427	0.0150657
773.505	0.0150867
773.583	0.0151139
773.661	0.0151682
773.739	0.0150631
773.818	0.0150911
773.896	0.0150311
773.974	0.0151649
774.052	0.0151704
774.130	0.0151244
774.208	0.0152577
774.286	0.0151097
774.364	0.0152191
774.443	0.0152528
774.521	0.0153703
774.599	0.0152797
774.677	0.0151260
774.755	0.0153693
774.833	0.0152800
774.911	0.0152685
774.989	0.0152933
775.068	0.0151964
775.146	0.0150849
775.224	0.0152121
775.302	0.0153964
775.380	0.0152018
775.458	0.0151012
775.536	0.0152504
775.614	0.0151183
775.693	0.0151299
775.771	0.0151743
775.849	0.0151244
775.927	0.0151972
776.005	0.0151781
776.083	0.0151096
776.161	0.0151730
776.239	0.0153639
776.318	0.0153559
776.396	0.0154125
776.474	0.0153810
776.552	0.0153336
776.630	0.0155193
776.708	0.0153484
776.786	0.0153646
776.864	0.0153829
776.943	0.0153613
777.021	0.0153195
777.099	0.0152903
777.177	0.0152299
777.255	0.0151829
777.333	0.0151205
777.411	0.0152288
777.489	0.0152199
777.568	0.0151576
777.646	0.0151141
777.724	0.0149316
777.802	0.0150301
777.880	0.0147515
777.958	0.0149390
778.036	0.0148051
778.114	0.0147623
778.193	0.0146480
778.271	0.0144826
778.349	0.0143719
778.427	0.0144164
778.505	0.0144180
778.583	0.0146038
778.661	0.0145780
778.739	0.0144259
778.818	0.0145223
778.896	0.0146840
778.974	0.0146961
779.052	0.0147954
779.130	0.0148682
779.208	0.0150050
779.286	0.0151599
779.364	0.0150777
779.443	0.0152435
779.521	0.0152008
779.599	0.0151965
779.677	0.0152901
779.755	0.0155149
779.833	0.0153976
779.911	0.0154375
779.989	0.0154149
780.068	0.0153250
780.146	0.0153391
780.224	0.0154193
780.302	0.0154078
780.380	0.0154037
780.458	0.0153224
780.536	0.0153925
780.614	0.0152993
780.693	0.0156478
780.771	0.0155206
780.849	0.0153792
780.927	0.0152711
781.005	0.0154027
781.083	0.0155183
781.161	0.0154184
781.239	0.0155258
781.318	0.0152554
781.396	0.0154350
781.474	0.0152961
781.552	0.0152807
781.630	0.0152728
781.708	0.0152451
781.786	0.0152415
781.864	0.0150105
781.943	0.0149839
782.021	0.0149303
782.099	0.0149969
782.177	0.0150384
782.255	0.0149240
782.333	0.0149360
782.411	0.0148556
782.489	0.0149351
782.568	0.0145864
782.646	0.0148034
782.724	0.0147940
782.802	0.0147911
782.880	0.0147671
782.958	0.0146326
783.036	0.0146737
783.114	0.0148193
783.193	0.0145972
783.271	0.0148930
783.349	0.0147753
783.427	0.0148235
783.505	0.0147800
783.583	0.0148205
783.661	0.0147899
783.739	0.0149704
783.818	0.0150195
783.896	0.0149175
783.974	0.0149931
784.052	0.0150070
784.130	0.0150622
784.208	0.0151116
784.286	0.0151604
784.364	0.0152433
784.443	0.0153191
784.521	0.0152914
784.599	0.0152554
784.677	0.0152934
784.755	0.0154343
784.833	0.0154276
784.911	0.0154729
784.989	0.0155477
785.068	0.0154792
785.146	0.0154673
785.224	0.0154915
785.302	0.0155666
785.380	0.0153976
785.458	0.0154369
785.536	0.0153914
785.614	0.0155097
785.693	0.0154545
785.771	0.0153413
785.849	0.0154281
785.927	0.0152131
786.005	0.0152381
786.083	0.0151923
786.161	0.0149955
786.239	0.0150335
786.318	0.0150466
786.396	0.0150885
786.474	0.0149200
786.552	0.0147877
786.630	0.0147660
786.708	0.0147128
786.786	0.0146829
786.864	0.0146634
786.943	0.0145491
787.021	0.0146161
787.099	0.0145744
787.177	0.0145432
787.255	0.0145804
787.333	0.0146793
787.411	0.0146206
787.489	0.0146449
787.568	0.0147708
787.646	0.0145700
787.724	0.0146301
787.802	0.0146198
787.880	0.0149010
787.958	0.0148244
788.036	0.0149103
788.114	0.0148235
788.193	0.0147728
788.271	0.0147626
788.349	0.0148540
788.427	0.0148328
788.505	0.0148888
788.583	0.0147848
788.661	0.0148638
788.739	0.0149725
788.818	0.0147635
788.896	0.0150246
788.974	0.0149226
789.052	0.0150851
789.130	0.0150447
789.208	0.0150544
789.286	0.0149944
789.364	0.0149051
789.443	0.0149467
789.521	0.0150662
789.599	0.0150478
789.677	0.0150709
789.755	0.0151581
789.833	0.0150771
789.911	0.0149820
789.989	0.0151077
790.068	0.0150755
790.146	0.0149746
790.224	0.0150291
790.302	0.0152204
790.380	0.0150653
790.458	0.0150123
790.536	0.0149978
790.614	0.0149986
790.693	0.0149215
790.771	0.0149451
790.849	0.0148586
790.927	0.0149969
791.005	0.0149384
791.083	0.0148898
791.161	0.0148872
791.239	0.0149756
791.318	0.0148193
791.396	0.0148451
791.474	0.0149879
791.552	0.0149547
791.630	0.0148790
791.708	0.0150684
791.786	0.0149493
791.864	0.0149194
791.943	0.0150975
792.021	0.0151144
792.099	0.0149860
792.177	0.0151235
792.255	0.0150091
792.333	0.0150086
792.411	0.0150907
792.489	0.0150187
792.568	0.0150777
792.646	0.0151611
792.724	0.0151244
792.802	0.0151337
792.880	0.0151595
792.958	0.0152077
793.036	0.0152201
793.114	0.0151902
793.193	0.0150430
793.271	0.0150582
793.349	0.0152637
793.427	0.0151127
793.505	0.0151196
793.583	0.0149700
793.661	0.0150185
793.739	0.0150335
793.818	0.0150444
793.896	0.0149725
793.974	0.0149046
794.052	0.0149503
794.130	0.0148903
794.208	0.0150597
794.286	0.0151490
794.364	0.0149215
794.443	0.0149302
794.521	0.0148981
794.599	0.0148152
794.677	0.0148587
794.755	0.0149570
794.833	0.0149171
794.911	0.0149174
794.989	0.0148631
795.068	0.0147737
795.146	0.0150172
795.224	0.0148832
795.302	0.0150242
795.380	0.0149674
795.458	0.0149551
795.536	0.0150039
795.614	0.0149381
795.693	0.0148091
795.771	0.0150217
795.849	0.0151786
795.927	0.0151392
796.005	0.0150092
796.083	0.0151479
796.161	0.0150180
796.239	0.0152663
796.318	0.0151507
796.396	0.0150299
796.474	0.0153004
796.552	0.0152579
796.630	0.0151046
796.708	0.0152851
796.786	0.0152389
796.864	0.0152726
796.943	0.0152258
797.021	0.0153263
797.099	0.0152311
797.177	0.0152319
797.255	0.0151884
797.333	0.0152139
797.411	0.0151820
797.489	0.0152477
797.568	0.0152628
797.646	0.0152386
797.724	0.0152246
797.802	0.0151154
797.880	0.0151852
797.958	0.0151735
798.036	0.0150752
798.114	0.0150146
798.193	0.0151459
798.271	0.0149348
798.349	0.0150388
798.427	0.0150694
798.505	0.0147720
798.583	0.0150346
798.661	0.0148992
798.739	0.0148107
798.818	0.0148977
798.896	0.0148730
798.974	0.0149362
799.052	0.0150726
799.130	0.0149108
799.208	0.0149187
799.286	0.0148280
799.364	0.0149422
799.443	0.0149717
799.521	0.0150574
799.599	0.0149432
799.677	0.0148546
799.755	0.0150434
799.833	0.0150491
799.911	0.0151513
799.989	0.0151711
800.068	0.0150588
800.146	0.0151376
800.224	0.0151593
800.302	0.0151025
800.380	0.0150558
800.458	0.0152582
800.536	0.0151975
800.614	0.0152084
800.693	0.0154773
800.771	0.0152846
800.849	0.0152605
800.927	0.0151913
801.005	0.0153323
801.083	0.0152643
801.161	0.0151266
801.239	0.0150904
801.318	0.0151662
801.396	0.0152656
801.474	0.0151942
801.552	0.0149717
801.630	0.0150061
801.708	0.0151344
801.786	0.0150272
801.864	0.0150431
801.943	0.0149123
802.021	0.0150011
802.099	0.0148766
802.177	0.0149805
802.255	0.0149461
802.333	0.0149057
802.411	0.0150045
802.489	0.0149529
802.568	0.0149815
802.646	0.0148534
802.724	0.0149265
802.802	0.0148170
802.880	0.0149548
802.958	0.0150055
803.036	0.0150673
803.114	0.0150684
803.193	0.0150764
803.271	0.0149901
803.349	0.0149793
803.427	0.0149689
803.505	0.0151669
803.583	0.0150036
803.661	0.0150323
803.739	0.0150155
803.818	0.0151756
803.896	0.0150005
803.974	0.0150269
804.052	0.0150497
804.130	0.0149939
804.208	0.0150190
804.286	0.0150255
804.364	0.0149389
804.443	0.0148739
804.521	0.0150042
804.599	0.0149528
804.677	0.0152168
804.755	0.0151781
804.833	0.0150201
804.911	0.0150761
804.989	0.0152122
805.068	0.0151669
805.146	0.0151485
805.224	0.0150578
805.302	0.0150739
805.380	0.0151981
805.458	0.0151389
805.536	0.0150858
805.614	0.0150594
805.693	0.0151440
805.771	0.0152165
805.849	0.0153764
805.927	0.0153337
806.005	0.0150431
806.083	0.0151719
806.161	0.0151733
806.239	0.0150839
806.318	0.0151586
806.396	0.0151805
806.474	0.0151237
806.552	0.0151653
806.630	0.0151142
806.708	0.0150659
806.786	0.0153046
806.864	0.0153278
806.943	0.0151665
807.021	0.0150998
807.099	0.0151955
807.177	0.0151308
807.255	0.0150867
807.333	0.0151088
807.411	0.0151068
807.489	0.0150318
807.568	0.0150283
807.646	0.0151575
807.724	0.0150972
807.802	0.0150020
807.880	0.0149387
807.958	0.0151199
808.036	0.0151214
808.114	0.0150210
808.193	0.0149907
808.271	0.0149482
808.349	0.0150663
808.427	0.0150200
808.505	0.0148779
808.583	0.0149347
808.661	0.0150694
808.739	0.0150743
808.818	0.0149792
808.896	0.0150385
808.974	0.0150578
809.052	0.0151763
809.130	0.0152003
809.208	0.0152111
809.286	0.0152785
809.364	0.0153351
809.443	0.0153898
809.521	0.0153906
809.599	0.0156356
809.677	0.0153623
809.755	0.0155527
809.833	0.0155756
809.911	0.0153886
809.989	0.0154014
810.068	0.0153065
810.146	0.0153247
810.224	0.0154704
810.302	0.0155554
810.380	0.0154908
810.458	0.0155941
810.536	0.0156403
810.614	0.0154411
810.693	0.0153538
810.771	0.0153847
810.849	0.0152799
810.927	0.0155297
811.005	0.0151202
811.083	0.0151656
811.161	0.0151455
811.239	0.0152759
811.318	0.0148914
811.396	0.0149579
811.474	0.0149273
811.552	0.0149628
811.630	0.0149595
811.708	0.0148634
811.786	0.0148947
811.864	0.0147794
811.943	0.0149527
812.021	0.0147991
812.099	0.0147631
812.177	0.0147284
812.255	0.0149748
812.333	0.0148237
812.411	0.0147521
812.489	0.0148874
812.568	0.0146776
812.646	0.0146812
812.724	0.0145490
812.802	0.0147642
812.880	0.0145711
812.958	0.0146037
813.036	0.0145237
813.114	0.0145912
813.193	0.0145169
813.271	0.0145396
813.349	0.0146589
813.427	0.0147278
813.505	0.0147112
813.583	0.0149233
813.661	0.0150230
813.739	0.0150528
813.818	0.0151579
813.896	0.0151059
813.974	0.0151694
814.052	0.0150993
814.130	0.0152392
814.208	0.0153036
814.286	0.0152158
814.364	0.0151355
814.443	0.0151237
814.521	0.0151819
814.599	0.0151579
814.677	0.0150941
814.755	0.0149781
814.833	0.0149764
814.911	0.0150790
814.989	0.0148885
815.068	0.0148315
815.146	0.0146691
815.224	0.0146918
815.302	0.0146381
815.380	0.0146132
815.458	0.0147082
815.536	0.0146255
815.614	0.0147119
815.693	0.0147545
815.771	0.0149487
815.849	0.0150336
815.927	0.0152342
816.005	0.0152659
816.083	0.0153851
816.161	0.0154824
816.239	0.0155807
816.318	0.0157152
816.396	0.0156874
816.474	0.0155908
816.552	0.0154507
816.630	0.0153609
816.708	0.0153123
816.786	0.0151874
816.864	0.0151742
816.943	0.0150496
817.021	0.0149017
817.099	0.0147253
817.177	0.0147839
817.255	0.0148033
817.333	0.0147413
817.411	0.0147132
817.489	0.0146317
817.568	0.0146207
817.646	0.0145461
817.724	0.0147377
817.802	0.0146889
817.880	0.0147225
817.958	0.0148059
818.036	0.0147874
818.114	0.0148976
818.193	0.0150099
818.271	0.0149771
818.349	0.0152090
818.427	0.0152940
818.505	0.0155791
818.583	0.0156886
818.661	0.0156672
818.739	0.0155746
818.818	0.0157710
818.896	0.0155370
818.974	0.0156785
819.052	0.0154778
819.130	0.0154720
819.208	0.0151166
819.286	0.0151264
819.364	0.0150790
819.443	0.0148595
819.521	0.0147242
819.599	0.0146343
819.677	0.0146001
819.755	0.0144450
819.833	0.0141900
819.911	0.0141661
819.989	0.0144025
820.068	0.0141425
820.146	0.0144415
820.224	0.0146001
820.302	0.0145239
820.380	0.0146358
820.458	0.0147324
820.536	0.0149632
820.614	0.0151274
820.693	0.0152926
820.771	0.0153698
820.849	0.0154797
820.927	0.0156213
821.005	0.0156318
821.083	0.0154731
821.161	0.0156073
821.239	0.0156151
821.318	0.0155265
821.396	0.0154768
821.474	0.0154507
821.552	0.0152816
821.630	0.0154845
821.708	0.0153515
821.786	0.0151122
821.864	0.0150634
821.943	0.0150443
822.021	0.0149909
822.099	0.0149093
822.177	0.0149830
822.255	0.0149803
822.333	0.0149099
822.411	0.0148316
822.489	0.0148549
822.568	0.0148232
822.646	0.0147752
822.724	0.0148931
822.802	0.0148876
822.880	0.0148058
822.958	0.0148140
823.036	0.0150098
823.114	0.0148343
823.193	0.0149290
823.271	0.0150690
823.349	0.0149820
823.427	0.0150615
823.505	0.0151945
823.583	0.0152559
823.661	0.0152132
823.739	0.0152847
823.818	0.0152770
823.896	0.0153172
823.974	0.0155255
824.052	0.0155056
824.130	0.0154304
824.208	0.0155305
824.286	0.0154791
824.364	0.0153533
824.443	0.0153406
824.521	0.0153786
824.599	0.0151709
824.677	0.0150690
824.755	0.0150453
824.833	0.0149519
824.911	0.0148032
824.989	0.0148010
825.068	0.0148114
825.146	0.0146681
825.224	0.0146191
825.302	0.0145332
825.380	0.0144807
825.458	0.0144363
825.536	0.0145751
825.614	0.0146877
825.693	0.0146938
825.771	0.0147398
825.849	0.0149083
825.927	0.0149067
826.005	0.0150645
826.083	0.0149459
826.161	0.0148120
826.239	0.0149954
826.318	0.0150416
826.396	0.0149479
826.474	0.0149545
826.552	0.0149077
826.630	0.0149186
826.708	0.0149134
826.786	0.0147536
826.864	0.0150335
826.943	0.0150337
827.021	0.0150526
827.099	0.0150864
827.177	0.0151267
827.255	0.0152251
827.333	0.0153014
827.411	0.0152560
827.489	0.0154163
827.568	0.0154496
827.646	0.0154901
827.724	0.0152392
827.802	0.0152850
827.880	0.0152797
827.958	0.0150937
828.036	0.0151337
828.114	0.0150260
828.193	0.0148160
828.271	0.0147195
828.349	0.0149944
828.427	0.0148055
828.505	0.0149216
828.583	0.0148533
828.661	0.0148706
828.739	0.0148125
828.818	0.0149326
828.896	0.0150080
828.974	0.0149502
829.052	0.0151240
829.130	0.0150105
829.208	0.0152055
829.286	0.0153448
829.364	0.0152838
829.443	0.0153808
829.521	0.0154691
829.599	0.0154549
829.677	0.0156198
829.755	0.0155106
829.833	0.0152365
829.911	0.0154661
829.989	0.0155159
830.068	0.0155019
830.146	0.0153320
830.224	0.0151563
830.302	0.0151197
830.380	0.0151296
830.458	0.0149199
830.536	0.0149209
830.614	0.0147106
830.693	0.0147166
830.771	0.0146329
830.849	0.0147188
830.927	0.0146099
831.005	0.0147121
831.083	0.0146519
831.161	0.0147881
831.239	0.0147456
831.318	0.0148696
831.396	0.0148949
831.474	0.0149657
831.552	0.0150764
831.630	0.0151850
831.708	0.0151165
831.786	0.0152826
831.864	0.0152970
831.943	0.0153255
832.021	0.0153864
832.099	0.0154658
832.177	0.0154263
832.255	0.0154847
832.333	0.0155750
832.411	0.0155785
832.489	0.0158775
832.568	0.0156527
832.646	0.0157130
832.724	0.0155906
832.802	0.0157339
832.880	0.0158350
832.958	0.0157325
833.036	0.0157532
833.114	0.0156596
833.193	0.0154879
833.271	0.0156245
833.349	0.0154041
833.427	0.0152837
833.505	0.0150773
833.583	0.0150645
833.661	0.0151367
833.739	0.0149657
833.818	0.0149544
833.896	0.0148248
833.974	0.0148803
834.052	0.0147520
834.130	0.0149207
834.208	0.0148297
834.286	0.0147070
834.364	0.0146500
834.443	0.0147275
834.521	0.0147624
834.599	0.0147817
834.677	0.0148711
834.755	0.0149087
834.833	0.0148457
834.911	0.0148635
834.989	0.0148639
835.068	0.0149524
835.146	0.0150700
835.224	0.0149480
835.302	0.0150233
835.380	0.0150325
835.458	0.0150291
835.536	0.0149758
835.614	0.0151838
835.693	0.0150587
835.771	0.0149368
835.849	0.0149014
835.927	0.0149585
836.005	0.0148345
836.083	0.0148441
836.161	0.0147437
836.239	0.0149509
836.318	0.0148973
836.396	0.0145194
836.474	0.0147285
836.552	0.0147303
836.630	0.0146869
836.708	0.0147641
836.786	0.0148377
836.864	0.0150230
836.943	0.0151436
837.021	0.0152552
837.099	0.0153252
837.177	0.0154252
837.255	0.0154929
837.333	0.0155905
837.411	0.0156562
837.489	0.0155332
837.568	0.0155235
837.646	0.0155781
837.724	0.0155552
837.802	0.0154482
837.880	0.0153573
837.958	0.0153562
838.036	0.0151730
838.114	0.0153413
838.193	0.0153440
838.271	0.0152765
838.349	0.0152254
838.427	0.0151704
838.505	0.0150757
838.583	0.0149978
838.661	0.0150325
838.739	0.0148768
838.818	0.0149361
838.896	0.0149232
838.974	0.0149518
839.052	0.0148845
839.130	0.0148438
839.208	0.0149007
839.286	0.0148548
839.364	0.0148153
839.443	0.0148193
839.521	0.0147849
839.599	0.0148210
839.677	0.0146230
839.755	0.0148443
839.833	0.0148322
839.911	0.0148597
839.989	0.0146750
840.068	0.0147355
840.146	0.0147329
840.224	0.0148006
840.302	0.0147529
840.380	0.0148324
840.458	0.0147671
840.536	0.0150127
840.614	0.0151336
840.693	0.0150983
840.771	0.0151760
840.849	0.0153804
840.927	0.0154625
841.005	0.0155889
841.083	0.0155285
841.161	0.0157032
841.239	0.0156716
841.318	0.0157017
841.396	0.0154947
841.474	0.0154583
841.552	0.0154504
841.630	0.0154556
841.708	0.0152827
841.786	0.0150237
841.864	0.0150116
841.943	0.0149894
842.021	0.0149746
842.099	0.0149686
842.177	0.0149226
842.255	0.0148956
842.333	0.0148275
842.411	0.0147990
842.489	0.0149886
842.568	0.0150192
842.646	0.0148659
842.724	0.0151430
842.802	0.0151726
842.880	0.0151204
842.958	0.0153026
843.036	0.0152274
843.114	0.0152052
843.193	0.0152200
843.271	0.0150130
843.349	0.0150317
843.427	0.0149402
843.505	0.0150488
843.583	0.0149683
843.661	0.0147341
843.739	0.0148353
843.818	0.0147292
843.896	0.0147721
843.974	0.0147294
844.052	0.0146916
844.130	0.0147848
844.208	0.0146859
844.286	0.0146966
844.364	0.0148554
844.443	0.0148376
844.521	0.0149313
844.599	0.0150413
844.677	0.0148163
844.755	0.0150600
844.833	0.0151554
844.911	0.0152044
844.989	0.0151920
845.068	0.0153710
845.146	0.0154364
845.224	0.0154794
845.302	0.0154215
845.380	0.0154259
845.458	0.0153867
845.536	0.0155656
845.614	0.0154906
845.693	0.0155817
845.771	0.0155625
845.849	0.0154209
845.927	0.0154661
846.005	0.0154968
846.083	0.0153668
846.161	0.0154585
846.239	0.0152664
846.318	0.0153216
846.396	0.0150027
846.474	0.0151178
846.552	0.0150771
846.630	0.0150163
846.708	0.0148278
846.786	0.0148425
846.864	0.0147646
846.943	0.0147279
847.021	0.0147070
847.099	0.0145999
847.177	0.0146045
847.255	0.0143968
847.333	0.0146694
847.411	0.0146313
847.489	0.0145707
847.568	0.0147464
847.646	0.0148795
847.724	0.0148191
847.802	0.0150186
847.880	0.0149455
847.958	0.0150446
848.036	0.0149740
848.114	0.0149648
848.193	0.0150079
848.271	0.0149731
848.349	0.0150404
848.427	0.0150657
848.505	0.0149570
848.583	0.0148231
848.661	0.0149659
848.739	0.0149525
848.818	0.0148523
848.896	0.0148459
848.974	0.0148753
849.052	0.0147427
849.130	0.0147768
849.208	0.0148488
849.286	0.0149339
849.364	0.0147063
849.443	0.0146381
849.521	0.0148446
849.599	0.0149137
849.677	0.0149039
849.755	0.0148820
849.833	0.0149377
849.911	0.0150716
849.989	0.0151267
850.068	0.0149937
850.146	0.0151234
850.224	0.0152176
850.302	0.0151560
850.380	0.0154285
850.458	0.0153417
850.536	0.0153802
850.614	0.0153826
850.693	0.0155348
850.771	0.0155064
850.849	0.0154449
850.927	0.0155267
851.005	0.0154082
851.083	0.0155974
851.161	0.0155019
851.239	0.0154182
851.318	0.0153721
851.396	0.0153186
851.474	0.0152631
851.552	0.0151476
851.630	0.0152242
851.708	0.0149197
851.786	0.0147871
851.864	0.0147977
851.943	0.0146134
852.021	0.0146404
852.099	0.0144952
852.177	0.0145189
852.255	0.0144698
852.333	0.0143681
852.411	0.0144910
852.489	0.0145249
852.568	0.0145100
852.646	0.0144059
852.724	0.0146455
852.802	0.0148108
852.880	0.0148467
852.958	0.0148994
853.036	0.0151855
853.114	0.0151460
853.193	0.0151683
853.271	0.0152655
853.349	0.0153264
853.427	0.0153306
853.505	0.0153787
853.583	0.0154756
853.661	0.0154955
853.739	0.0155360
853.818	0.0156166
853.896	0.0153748
853.974	0.0153088
854.052	0.0153661
854.130	0.0152591
854.208	0.0152246
854.286	0.0151463
854.364	0.0149486
854.443	0.0149043
854.521	0.0147427
854.599	0.0148667
854.677	0.0146391
854.755	0.0146285
854.833	0.0145184
854.911	0.0145936
854.989	0.0147054
855.068	0.0147583
855.146	0.0148538
855.224	0.0149184
855.302	0.0150208
855.380	0.0150154
855.458	0.0151127
855.536	0.0150616
855.614	0.0151649
855.693	0.0152879
855.771	0.0153529
855.849	0.0153372
855.927	0.0154254
856.005	0.0153905
856.083	0.0155119
856.161	0.0154810
856.239	0.0153462
856.318	0.0154842
856.396	0.0155348
856.474	0.0153801
856.552	0.0153616
856.630	0.0152716
856.708	0.0150748
856.786	0.0151418
856.864	0.0150063
856.943	0.0149303
857.021	0.0146268
857.099	0.0145894
857.177	0.0144911
857.255	0.0143845
857.333	0.0144434
857.411	0.0144255
857.489	0.0143702
857.568	0.0144398
857.646	0.0147172
857.724	0.0144505
857.802	0.0147962
857.880	0.0149151
857.958	0.0150767
858.036	0.0152895
858.114	0.0153013
858.193	0.0153997
858.271	0.0154886
858.349	0.0155169
858.427	0.0155837
858.505	0.0154455
858.583	0.0155866
858.661	0.0156947
858.739	0.0155627
858.818	0.0154583
858.896	0.0154259
858.974	0.0154212
859.052	0.0152583
859.130	0.0151671
859.208	0.0149704
859.286	0.0150922
859.364	0.0149001
859.443	0.0147686
859.521	0.0149087
859.599	0.0149034
859.677	0.0146254
859.755	0.0146226
859.833	0.0149030
859.911	0.0147514
859.989	0.0147574
860.068	0.0146539
860.146	0.0147942
860.224	0.0148689
860.302	0.0148531
860.380	0.0149622
860.458	0.0149652
860.536	0.0149417
860.614	0.0150779
860.693	0.0150517
860.771	0.0151232
860.849	0.0150967
860.927	0.0153312
861.005	0.0154649
861.083	0.0152174
861.161	0.0152444
861.239	0.0153816
861.318	0.0153059
861.396	0.0152218
861.474	0.0152278
861.552	0.0153564
861.630	0.0153188
861.708	0.0152038
861.786	0.0152246
861.864	0.0152167
861.943	0.0150504
862.021	0.0150479
862.099	0.0150203
862.177	0.0148631
862.255	0.0148016
862.333	0.0146786
862.411	0.0148044
862.489	0.0146434
862.568	0.0147366
862.646	0.0147779
862.724	0.0148099
862.802	0.0146246
862.880	0.0147933
862.958	0.0150525
863.036	0.0151971
863.114	0.0152342
863.193	0.0152169
863.271	0.0154187
863.349	0.0154763
863.427	0.0155786
863.505	0.0156586
863.583	0.0156770
863.661	0.0155527
863.739	0.0155759
863.818	0.0155984
863.896	0.0155886
863.974	0.0154736
864.052	0.0153217
864.130	0.0152428
864.208	0.0152352
864.286	0.0151326
864.364	0.0150646
864.443	0.0149048
864.521	0.0149075
864.599	0.0148044
864.677	0.0146837
864.755	0.0146211
864.833	0.0145935
864.911	0.0147244
864.989	0.0146697
865.068	0.0146378
865.146	0.0146298
865.224	0.0147125
865.302	0.0148398
865.380	0.0147863
865.458	0.0149126
865.536	0.0149427
865.614	0.0149577
865.693	0.0149461
865.771	0.0150877
865.849	0.0150531
865.927	0.0152591
866.005	0.0149789
866.083	0.0151048
866.161	0.0150715
866.239	0.0151755
866.318	0.0150647
866.396	0.0150978
866.474	0.0151756
866.552	0.0151075
866.630	0.0151164
866.708	0.0151838
866.786	0.0151658
866.864	0.0151163
866.943	0.0149989
867.021	0.0150144
867.099	0.0149548
867.177	0.0148717
867.255	0.0148043
867.333	0.0147039
867.411	0.0147237
867.489	0.0146943
867.568	0.0146631
867.646	0.0146204
867.724	0.0147590
867.802	0.0146130
867.880	0.0148216
867.958	0.0147549
868.036	0.0148028
868.114	0.0148171
868.193	0.0148916
868.271	0.0150399
868.349	0.0149901
868.427	0.0149683
868.505	0.0151286
868.583	0.0151994
868.661	0.0151769
868.739	0.0152261
868.818	0.0155518
868.896	0.0154216
868.974	0.0153825
869.052	0.0153986
869.130	0.0155155
869.208	0.0153945
869.286	0.0152827
869.364	0.0154316
869.443	0.0154327
869.521	0.0153310
869.599	0.0151456
869.677	0.0151495
869.755	0.0151158
869.833	0.0148538
869.911	0.0148541
869.989	0.0148174
870.068	0.0148676
870.146	0.0148650
870.224	0.0149358
870.302	0.0147935
870.380	0.0149226
870.458	0.0151133
870.536	0.0150519
870.614	0.0150081
870.693	0.0151465
870.771	0.0150963
870.849	0.0151924
870.927	0.0153171
871.005	0.0153291
871.083	0.0154090
871.161	0.0154766
871.239	0.0155003
871.318	0.0154528
871.396	0.0154572
871.474	0.0154831
871.552	0.0154062
871.630	0.0154593
871.708	0.0155215
871.786	0.0154667
871.864	0.0155119
871.943	0.0153940
872.021	0.0153818
872.099	0.0154277
872.177	0.0152425
872.255	0.0152671
872.333	0.0151329
872.411	0.0149725
872.489	0.0149762
872.568	0.0149760
872.646	0.0148916
872.724	0.0149844
872.802	0.0148188
872.880	0.0147346
872.958	0.0148380
873.036	0.0147858
873.114	0.0147013
873.193	0.0147423
873.271	0.0148048
873.349	0.0148145
873.427	0.0148221
873.505	0.0148891
873.583	0.0151379
873.661	0.0149153
873.739	0.0152359
873.818	0.0152550
873.896	0.0151594
873.974	0.0152538
874.052	0.0153692
874.130	0.0153744
874.208	0.0153102
874.286	0.0153883
874.364	0.0153216
874.443	0.0154698
874.521	0.0155241
874.599	0.0155335
874.677	0.0154290
874.755	0.0154206
874.833	0.0152888
874.911	0.0152054
874.989	0.0153510
875.068	0.0152850
875.146	0.0151174
875.224	0.0149449
875.302	0.0149780
875.380	0.0149046
875.458	0.0148428
875.536	0.0147553
875.614	0.0146730
875.693	0.0146765
875.771	0.0147050
875.849	0.0147142
875.927	0.0147923
876.005	0.0146840
876.083	0.0148270
876.161	0.0149337
876.239	0.0150014
876.318	0.0149940
876.396	0.0148947
876.474	0.0150499
876.552	0.0150385
876.630	0.0150632
876.708	0.0150275
876.786	0.0151722
876.864	0.0151782
876.943	0.0151318
877.021	0.0150715
877.099	0.0150928
877.177	0.0149905
877.255	0.0150092
877.333	0.0150879
877.411	0.0149329
877.489	0.0149700
877.568	0.0149707
877.646	0.0148929
877.724	0.0147153
877.802	0.0146259
877.880	0.0147739
877.958	0.0146181
878.036	0.0146436
878.114	0.0145554
878.193	0.0145667
878.271	0.0146174
878.349	0.0148450
878.427	0.0147646
878.505	0.0145949
878.583	0.0147075
878.661	0.0147543
878.739	0.0148849
878.818	0.0148194
878.896	0.0149677
878.974	0.0148560
879.052	0.0149500
879.130	0.0148395
879.208	0.0149854
879.286	0.0150114
879.364	0.0149815
879.443	0.0149904
879.521	0.0149712
879.599	0.0149172
879.677	0.0149548
879.755	0.0149014
879.833	0.0149056
879.911	0.0149270
879.989	0.0147805
880.068	0.0149229
880.146	0.0148318
880.224	0.0148582
880.302	0.0147669
880.380	0.0148312
880.458	0.0148288
880.536	0.0148803
880.614	0.0147218
880.693	0.0147829
880.771	0.0150158
880.849	0.0149900
880.927	0.0150708
881.005	0.0151877
881.083	0.0150522
881.161	0.0151125
881.239	0.0150395
881.318	0.0150131
881.396	0.0150574
881.474	0.0150363
881.552	0.0150987
881.630	0.0149384
881.708	0.0148769
881.786	0.0151233
881.864	0.0149421
881.943	0.0149282
882.021	0.0149979
882.099	0.0150331
882.177	0.0149754
882.255	0.0148781
882.333	0.0150656
882.411	0.0149689
882.489	0.0148572
882.568	0.0149701
882.646	0.0149967
882.724	0.0149683
882.802	0.0148605
882.880	0.0148602
882.958	0.0149809
883.036	0.0149792
883.114	0.0150357
883.193	0.0149571
883.271	0.0150174
883.349	0.0150639
883.427	0.0149588
883.505	0.0151282
883.583	0.0152166
883.661	0.0154172
883.739	0.0152120
883.818	0.0153350
883.896	0.0154024
883.974	0.0154176
884.052	0.0153604
884.130	0.0154754
884.208	0.0154917
884.286	0.0154622
884.364	0.0156876
884.443	0.0155296
884.521	0.0156018
884.599	0.0156221
884.677	0.0155218
884.755	0.0154465
884.833	0.0154792
884.911	0.0154321
884.989	0.0151810
885.068	0.0153650
885.146	0.0152615
885.224	0.0152818
885.302	0.0153539
885.380	0.0151629
885.458	0.0150557
885.536	0.0151712
885.614	0.0151791
885.693	0.0151632
885.771	0.0151450
885.849	0.0149979
885.927	0.0151889
886.005	0.0152279
886.083	0.0153466
886.161	0.0152442
886.239	0.0152599
886.318	0.0150775
886.396	0.0150710
886.474	0.0151027
886.552	0.0151086
886.630	0.0150310
886.708	0.0149222
886.786	0.0150394
886.864	0.0150388
886.943	0.0150547
887.021	0.0150610
887.099	0.0148714
887.177	0.0149408
887.255	0.0148603
887.333	0.0149103
887.411	0.0149652
887.489	0.0149065
887.568	0.0149370
887.646	0.0148380
887.724	0.0147939
887.802	0.0147893
887.880	0.0147874
887.958	0.0147477
888.036	0.0148794
888.114	0.0148181
888.193	0.0148325
888.271	0.0147449
888.349	0.0148685
888.427	0.0148074
888.505	0.0148399
888.583	0.0147665
888.661	0.0148698
888.739	0.0148653
888.818	0.0149373
888.896	0.0149139
888.974	0.0149214
889.052	0.0149291
889.130	0.0148830
889.208	0.0149042
889.286	0.0148898
889.364	0.0149178
889.443	0.0148644
889.521	0.0149638
889.599	0.0148343
889.677	0.0149493
889.755	0.0149102
889.833	0.0148365
889.911	0.0149583
889.989	0.0149068
890.068	0.0148157
890.146	0.0146780
890.224	0.0148647
890.302	0.0148533
890.380	0.0147499
890.458	0.0147537
890.536	0.0148741
890.614	0.0148465
890.693	0.0147111
890.771	0.0147423
890.849	0.0148413
890.927	0.0147737
891.005	0.0148882
891.083	0.0148238
891.161	0.0149438
891.239	0.0147716
891.318	0.0149350
891.396	0.0149081
891.474	0.0148248
891.552	0.0150755
891.630	0.0148824
891.708	0.0148642
891.786	0.0149706
891.864	0.0149252
891.943	0.0149181
892.021	0.0149976
892.099	0.0149671
892.177	0.0151698
892.255	0.0149790
892.333	0.0149911
892.411	0.0148967
892.489	0.0149759
892.568	0.0149508
892.646	0.0148772
892.724	0.0149170
892.802	0.0146986
892.880	0.0146416
892.958	0.0147551
893.036	0.0147105
893.114	0.0145707
893.193	0.0147662
893.271	0.0147610
893.349	0.0147764
893.427	0.0148244
893.505	0.0148576
893.583	0.0150199
893.661	0.0149218
893.739	0.0149967
893.818	0.0151814
893.896	0.0151757
893.974	0.0153216
894.052	0.0150821
894.130	0.0153147
894.208	0.0151863
894.286	0.0152336
894.364	0.0154480
894.443	0.0154031
894.521	0.0152554
894.599	0.0153255
894.677	0.0153050
894.755	0.0152979
894.833	0.0153767
894.911	0.0153475
894.989	0.0154964
895.068	0.0152952
895.146	0.0153448
895.224	0.0154033
895.302	0.0153638
895.380	0.0153329
895.458	0.0152934
895.536	0.0151617
895.614	0.0153251
895.693	0.0152347
895.771	0.0151820
895.849	0.0149872
895.927	0.0149460
896.005	0.0149956
896.083	0.0149624
896.161	0.0149314
896.239	0.0148482
896.318	0.0149327
896.396	0.0150780
896.474	0.0149155
896.552	0.0148689
896.630	0.0148692
896.708	0.0149408
896.786	0.0148526
896.864	0.0149026
896.943	0.0150380
897.021	0.0149653
897.099	0.0149052
897.177	0.0149996
897.255	0.0151198
897.333	0.0150597
897.411	0.0150140
897.489	0.0150393
897.568	0.0150750
897.646	0.0150399
897.724	0.0152781
897.802	0.0151779
897.880	0.0150751
897.958	0.0151276
898.036	0.0149876
898.114	0.0149715
898.193	0.0149229
898.271	0.0149690
898.349	0.0149561
898.427	0.0148521
898.505	0.0149188
898.583	0.0151159
898.661	0.0148847
898.739	0.0148033
898.818	0.0150177
898.896	0.0148298
898.974	0.0150008
899.052	0.0151641
899.130	0.0151579
899.208	0.0152057
899.286	0.0151824
899.364	0.0150323
899.443	0.0152097
899.521	0.0150145
899.599	0.0148900
899.677	0.0149949
899.755	0.0148036
899.833	0.0150447
899.911	0.0149075
899.989	0.0147485
900.068	0.0148259
900.146	0.0147521
900.224	0.0148176
900.302	0.0145804
900.380	0.0147531
900.458	0.0148989
900.536	0.0148286
900.614	0.0148194
900.693	0.0147992
900.771	0.0147281
900.849	0.0146862
900.927	0.0147358
901.005	0.0147272
901.083	0.0146983
901.161	0.0147298
901.239	0.0147052
901.318	0.0147310
901.396	0.0145353
901.474	0.0145824
901.552	0.0144992
901.630	0.0146147
901.708	0.0146149
901.786	0.0146217
901.864	0.0145303
901.943	0.0144386
902.021	0.0146322
902.099	0.0145518
902.177	0.0145887
902.255	0.0145866
902.333	0.0147276
902.411	0.0147478
902.489	0.0148291
902.568	0.0147948
902.646	0.0149637
902.724	0.0149004
902.802	0.0150571
902.880	0.0150887
902.958	0.0147686
903.036	0.0148248
903.114	0.0147903
903.193	0.0148873
903.271	0.0149623
903.349	0.0148686
903.427	0.0147201
903.505	0.0147326
903.583	0.0148746
903.661	0.0148830
903.739	0.0148884
903.818	0.0148984
903.896	0.0149876
903.974	0.0151278
904.052	0.0151910
904.130	0.0151003
904.208	0.0153112
904.286	0.0153646
904.364	0.0152501
904.443	0.0152409
904.521	0.0153212
904.599	0.0153743
904.677	0.0152742
904.755	0.0152592
904.833	0.0151770
904.911	0.0153227
904.989	0.0153410
905.068	0.0153333
905.146	0.0153111
905.224	0.0153447
905.302	0.0153303
905.380	0.0152950
905.458	0.0153511
905.536	0.0152530
905.614	0.0154092
905.693	0.0152666
905.771	0.0152361
905.849	0.0153566
905.927	0.0152380
906.005	0.0152091
906.083	0.0152082
906.161	0.0151705
906.239	0.0152794
906.318	0.0152485
906.396	0.0151991
906.474	0.0152525
906.552	0.0152027
906.630	0.0150498
906.708	0.0151124
906.786	0.0152230
906.864	0.0151270
906.943	0.0151166
907.021	0.0152471
907.099	0.0152200
907.177	0.0150857
907.255	0.0153350
907.333	0.0151364
907.411	0.0152582
907.489	0.0152448
907.568	0.0151122
907.646	0.0152666
907.724	0.0152691
907.802	0.0151448
907.880	0.0149572
907.958	0.0151349
908.036	0.0152874
908.114	0.0152392
908.193	0.0151365
908.271	0.0149579
908.349	0.0149375
908.427	0.0149812
908.505	0.0149029
908.583	0.0149799
908.661	0.0150291
908.739	0.0149677
908.818	0.0149931
908.896	0.0150435
908.974	0.0151216
909.052	0.0149848
909.130	0.0151243
909.208	0.0152779
909.286	0.0152351
909.364	0.0152272
909.443	0.0153500
909.521	0.0151556
909.599	0.0152519
909.677	0.0151704
909.755	0.0150217
909.833	0.0149981
909.911	0.0150847
909.989	0.0151276
910.068	0.0149729
910.146	0.0151237
910.224	0.0150546
910.302	0.0147730
910.380	0.0147967
910.458	0.0148688
910.536	0.0149510
910.614	0.0148267
910.693	0.0148604
910.771	0.0148911
910.849	0.0148679
910.927	0.0148970
911.005	0.0149500
911.083	0.0150128
911.161	0.0148393
911.239	0.0148900
911.318	0.0149865
911.396	0.0149914
911.474	0.0147636
911.552	0.0149029
911.630	0.0149119
911.708	0.0147885
911.786	0.0147149
911.864	0.0147926
911.943	0.0147716
912.021	0.0147085
912.099	0.0147175
912.177	0.0148792
912.255	0.0148462
912.333	0.0147346
912.411	0.0149614
912.489	0.0149036
912.568	0.0149832
912.646	0.0149147
912.724	0.0149203
912.802	0.0149422
912.880	0.0148950
912.958	0.0150063
913.036	0.0149172
913.114	0.0148245
913.193	0.0151502
913.271	0.0149287
913.349	0.0148548
913.427	0.0149077
913.505	0.0147382
913.583	0.0148547
913.661	0.0149000
913.739	0.0148434
913.818	0.0147688
913.896	0.0146091
913.974	0.0148699
914.052	0.0148457
914.130	0.0149127
914.208	0.0148357
914.286	0.0150180
914.364	0.0151057
914.443	0.0150083
914.521	0.0152242
914.599	0.0150333
914.677	0.0151904
914.755	0.0152331
914.833	0.0151218
914.911	0.0151948
914.989	0.0151504
915.068	0.0150381
915.146	0.0151398
915.224	0.0150199
915.302	0.0151167
915.380	0.0149636
915.458	0.0148817
915.536	0.0150240
915.614	0.0149670
915.693	0.0148695
915.771	0.0149259
915.849	0.0149004
915.927	0.0148061
916.005	0.0148387
916.083	0.0148184
916.161	0.0147928
916.239	0.0150104
916.318	0.0148330
916.396	0.0148492
916.474	0.0147884
916.552	0.0148155
916.630	0.0149326
916.708	0.0147760
916.786	0.0148843
916.864	0.0148492
916.943	0.0148549
917.021	0.0146710
917.099	0.0149237
917.177	0.0150255
917.255	0.0148673
917.333	0.0148732
917.411	0.0148392
917.489	0.0150610
917.568	0.0150053
917.646	0.0150033
917.724	0.0151289
917.802	0.0151315
917.880	0.0151025
917.958	0.0151434
918.036	0.0152333
918.114	0.0153129
918.193	0.0153203
918.271	0.0153555
918.349	0.0151571
918.427	0.0153011
918.505	0.0156230
918.583	0.0153808
918.661	0.0153052
918.739	0.0153456
918.818	0.0153674
918.896	0.0151880
918.974	0.0150661
919.052	0.0151213
919.130	0.0151361
919.208	0.0149725
919.286	0.0150541
919.364	0.0149532
919.443	0.0151401
919.521	0.0149973
919.599	0.0150583
919.677	0.0151173
919.755	0.0148467
919.833	0.0150502
919.911	0.0149155
919.989	0.0151328
920.068	0.0151717
920.146	0.0150050
920.224	0.0151168
920.302	0.0151289
920.380	0.0151360
920.458	0.0150188
920.536	0.0150530
920.614	0.0150155
920.693	0.0149677
920.771	0.0148505
920.849	0.0148331
920.927	0.0150706
921.005	0.0148294
921.083	0.0149996
921.161	0.0148869
921.239	0.0148154
921.318	0.0147604
921.396	0.0148639
921.474	0.0149120
921.552	0.0148931
921.630	0.0148211
921.708	0.0148797
921.786	0.0149062
921.864	0.0149307
921.943	0.0150270
922.021	0.0149615
922.099	0.0150867
922.177	0.0150368
922.255	0.0149664
922.333	0.0150550
922.411	0.0149821
922.489	0.0149670
922.568	0.0151212
922.646	0.0150583
922.724	0.0150394
922.802	0.0149805
922.880	0.0151891
922.958	0.0151536
923.036	0.0151721
923.114	0.0151556
923.193	0.0152476
923.271	0.0151393
923.349	0.0153178
923.427	0.0154430
923.505	0.0153233
923.583	0.0152689
923.661	0.0151824
923.739	0.0152222
923.818	0.0153605
923.896	0.0153006
923.974	0.0152068
924.052	0.0153207
924.130	0.0153294
924.208	0.0151395
924.286	0.0151971
924.364	0.0151860
924.443	0.0148746
924.521	0.0149187
924.599	0.0149689
924.677	0.0149819
924.755	0.0148876
924.833	0.0148790
924.911	0.0147346
924.989	0.0148100
925.068	0.0149409
925.146	0.0147787
925.224	0.0148756
925.302	0.0147895
925.380	0.0147953
925.458	0.0148766
925.536	0.0148473
925.614	0.0147746
925.693	0.0149068
925.771	0.0148265
925.849	0.0148157
925.927	0.0150199
926.005	0.0149969
926.083	0.0149389
926.161	0.0149996
926.239	0.0150364
926.318	0.0150052
926.396	0.0150079
926.474	0.0150531
926.552	0.0150494
926.630	0.0150083
926.708	0.0150517
926.786	0.0151931
926.864	0.0150547
926.943	0.0151630
927.021	0.0151508
927.099	0.0150837
927.177	0.0151048
927.255	0.0152700
927.333	0.0151077
927.411	0.0150950
927.489	0.0150840
927.568	0.0150713
927.646	0.0152126
927.724	0.0150868
927.802	0.0150916
927.880	0.0150355
927.958	0.0150246
928.036	0.0150514
928.114	0.0150804
928.193	0.0149903
928.271	0.0151532
928.349	0.0150362
928.427	0.0152065
928.505	0.0150826
928.583	0.0150565
928.661	0.0151810
928.739	0.0151494
928.818	0.0151651
928.896	0.0151895
928.974	0.0150927
929.052	0.0151472
929.130	0.0151067
929.208	0.0149832
929.286	0.0150051
929.364	0.0150076
929.443	0.0150524
929.521	0.0150946
929.599	0.0150811
929.677	0.0150706
929.755	0.0152059
929.833	0.0149905
929.911	0.0150545
929.989	0.0152331
930.068	0.0151520
930.146	0.0151782
930.224	0.0151591
930.302	0.0150812
930.380	0.0151600
930.458	0.0153943
930.536	0.0151501
930.614	0.0151753
930.693	0.0152977
930.771	0.0152287
930.849	0.0152264
930.927	0.0151492
931.005	0.0150443
931.083	0.0152151
931.161	0.0150349
931.239	0.0151640
931.318	0.0152605
931.396	0.0151379
931.474	0.0150522
931.552	0.0152336
931.630	0.0151173
931.708	0.0151100
931.786	0.0151466
931.864	0.0149870
931.943	0.0151691
932.021	0.0152322
932.099	0.0150910
932.177	0.0150855
932.255	0.0150902
932.333	0.0151074
932.411	0.0149142
932.489	0.0148621
932.568	0.0149148
932.646	0.0149406
932.724	0.0150727
932.802	0.0150182
932.880	0.0149421
932.958	0.0150629
933.036	0.0149279
933.114	0.0149323
933.193	0.0150470
933.271	0.0150410
933.349	0.0150130
933.427	0.0150490
933.505	0.0151369
933.583	0.0150637
933.661	0.0152458
933.739	0.0151433
933.818	0.0152303
933.896	0.0151449
933.974	0.0151418
934.052	0.0153512
934.130	0.0152438
934.208	0.0152431
934.286	0.0150272
934.364	0.0151075
934.443	0.0150826
934.521	0.0150742
934.599	0.0150717
934.677	0.0151659
934.755	0.0151554
934.833	0.0151331
934.911	0.0150972
934.989	0.0150356
935.068	0.0151554
935.146	0.0151104
935.224	0.0150530
935.302	0.0151115
935.380	0.0151672
935.458	0.0152139
935.536	0.0149897
935.614	0.0151099
935.693	0.0152261
935.771	0.0152340
935.849	0.0151672
935.927	0.0150232
936.005	0.0150662
936.083	0.0148844
936.161	0.0150179
936.239	0.0150220
936.318	0.0148392
936.396	0.0149069
936.474	0.0149742
936.552	0.0148270
936.630	0.0150393
936.708	0.0150436
936.786	0.0149003
936.864	0.0148921
936.943	0.0150912
937.021	0.0151092
937.099	0.0149927
937.177	0.0150870
937.255	0.0149981
937.333	0.0150686
937.411	0.0150196
937.489	0.0151066
937.568	0.0151388
937.646	0.0150887
937.724	0.0149846
937.802	0.0150177
937.880	0.0150831
937.958	0.0150776
938.036	0.0150834
938.114	0.0150351
938.193	0.0151735
938.271	0.0150339
938.349	0.0150332
938.427	0.0150774
938.505	0.0151469
938.583	0.0151387
938.661	0.0151017
938.739	0.0150739
938.818	0.0150233
938.896	0.0150111
938.974	0.0151622
939.052	0.0149710
939.130	0.0150822
939.208	0.0153036
939.286	0.0150761
939.364	0.0151464
939.443	0.0152921
939.521	0.0151550
939.599	0.0151783
939.677	0.0153212
939.755	0.0153594
939.833	0.0153259
939.911	0.0150339
939.989	0.0151234
940.068	0.0153285
940.146	0.0151526
940.224	0.0152563
940.302	0.0152056
940.380	0.0152254
940.458	0.0151548
940.536	0.0151371
940.614	0.0150854
940.693	0.0150561
940.771	0.0150582
940.849	0.0151389
940.927	0.0151154
941.005	0.0150415
941.083	0.0150539
941.161	0.0151042
941.239	0.0149519
941.318	0.0150519
941.396	0.0152050
941.474	0.0149395
941.552	0.0149373
941.630	0.0149826
941.708	0.0148138
941.786	0.0150835
941.864	0.0150597
941.943	0.0151826
942.021	0.0150525
942.099	0.0150260
942.177	0.0150885
942.255	0.0150102
942.333	0.0150416
942.411	0.0151679
942.489	0.0150724
942.568	0.0151648
942.646	0.0149934
942.724	0.0150962
942.802	0.0151529
942.880	0.0148926
942.958	0.0151419
943.036	0.0149083
943.114	0.0148530
943.193	0.0150755
943.271	0.0150448
943.349	0.0150226
943.427	0.0149105
943.505	0.0150804
943.583	0.0149959
943.661	0.0149141
943.739	0.0150357
943.818	0.0149561
943.896	0.0150974
943.974	0.0151653
944.052	0.0151571
944.130	0.0149714
944.208	0.0150352
944.286	0.0150756
944.364	0.0151080
944.443	0.0150743
944.521	0.0150457
944.599	0.0151144
944.677	0.0151389
944.755	0.0150460
944.833	0.0149429
944.911	0.0150330
944.989	0.0149073
945.068	0.0149257
945.146	0.0148952
945.224	0.0148958
945.302	0.0150620
945.380	0.0150079
945.458	0.0149652
945.536	0.0148954
945.614	0.0150050
945.693	0.0150484
945.771	0.0148557
945.849	0.0150626
945.927	0.0149561
946.005	0.0149374
946.083	0.0149132
946.161	0.0150786
946.239	0.0150642
946.318	0.0150259
946.396	0.0149488
946.474	0.0150388
946.552	0.0149694
946.630	0.0149256
946.708	0.0149565
946.786	0.0150367
946.864	0.0149853
946.943	0.0149317
947.021	0.0150845
947.099	0.0149952
947.177	0.0150909
947.255	0.0149637
947.333	0.0149575
947.411	0.0150197
947.489	0.0149568
947.568	0.0150241
947.646	0.0150210
947.724	0.0150463
947.802	0.0149252
947.880	0.0149874
947.958	0.0150906
948.036	0.0150697
948.114	0.0150660
948.193	0.0149987
948.271	0.0150386
948.349	0.0151062
948.427	0.0151903
948.505	0.0151013
948.583	0.0150211
948.661	0.0150850
948.739	0.0150295
948.818	0.0149764
948.896	0.0150841
948.974	0.0151206
949.052	0.0148965
949.130	0.0149016
949.208	0.0150003
949.286	0.0150930
949.364	0.0150578
949.443	0.0149677
949.521	0.0150439
949.599	0.0153161
949.677	0.0151552
949.755	0.0152621
949.833	0.0151503
949.911	0.0149654
949.989	0.0150247
950.068	0.0149821
950.146	0.0150906
950.224	0.0151672
950.302	0.0151006
950.380	0.0151381
950.458	0.0151382
950.536	0.0150393
950.614	0.0151611
950.693	0.0150651
950.771	0.0150405
950.849	0.0150663
950.927	0.0151752
951.005	0.0150412
951.083	0.0151775
951.161	0.0151826
951.239	0.0150523
951.318	0.0150695
951.396	0.0151456
951.474	0.0151422
951.552	0.0151779
951.630	0.0149304
951.708	0.0149578
951.786	0.0150987
951.864	0.0152020
951.943	0.0151930
952.021	0.0151178
952.099	0.0150933
952.177	0.0150769
952.255	0.0149913
952.333	0.0150245
952.411	0.0150214
952.489	0.0150407
952.568	0.0151395
952.646	0.0151884
952.724	0.0150859
952.802	0.0151456
952.880	0.0151585
952.958	0.0152365
953.036	0.0151627
953.114	0.0152027
953.193	0.0152510
953.271	0.0152122
953.349	0.0152627
953.427	0.0152280
953.505	0.0151868
953.583	0.0152762
953.661	0.0151728
953.739	0.0152101
953.818	0.0153386
953.896	0.0153096
953.974	0.0150788
954.052	0.0151437
954.130	0.0151687
954.208	0.0152333
954.286	0.0151679
954.364	0.0152275
954.443	0.0150923
954.521	0.0151551
954.599	0.0152299
954.677	0.0152393
954.755	0.0151891
954.833	0.0151729
954.911	0.0151234
954.989	0.0151857
955.068	0.0151779
955.146	0.0152524
955.224	0.0152465
955.302	0.0152147
955.380	0.0153482
955.458	0.0152966
955.536	0.0152491
955.614	0.0152738
955.693	0.0153652
955.771	0.0153337
955.849	0.0153809
955.927	0.0151514
956.005	0.0150538
956.083	0.0153643
956.161	0.0152378
956.239	0.0151818
956.318	0.0152361
956.396	0.0150983
956.474	0.0151624
956.552	0.0151198
956.630	0.0151423
956.708	0.0150044
956.786	0.0150178
956.864	0.0150488
956.943	0.0150443
957.021	0.0150208
957.099	0.0150718
957.177	0.0151757
957.255	0.0150575
957.333	0.0150597
957.411	0.0150337
957.489	0.0150423
957.568	0.0151760
957.646	0.0151563
957.724	0.0150108
957.802	0.0151424
957.880	0.0151084
957.958	0.0151414
958.036	0.0149721
958.114	0.0151357
958.193	0.0151247
958.271	0.0152306
958.349	0.0151803
958.427	0.0151075
958.505	0.0151366
958.583	0.0151208
958.661	0.0150893
958.739	0.0152265
958.818	0.0152110
958.896	0.0152409
958.974	0.0151627
959.052	0.0152869
959.130	0.0152231
959.208	0.0151340
959.286	0.0152266
959.364	0.0153106
959.443	0.0153451
959.521	0.0152626
959.599	0.0152169
959.677	0.0152691
959.755	0.0151748
959.833	0.0152761
959.911	0.0154105
