05/14/2022	16:19:56	Ver.	4.1	UNKNOWN
Optical Delay	639.989416	Delta X		0.078125	Sweeps	1	Scan Rate	0/0
Coordinates	Axis 1	NaN	Axis 2	NaN	Axis 3	NaN	Axis 4	NaN	Axis 5	NaN	Axis 6	0.000000
TX Power	0.000000	RX Power	0.000000

639.989	0.0132070
640.068	0.0131396
640.146	0.0133099
640.224	0.0130917
640.302	0.0132584
640.380	0.0131679
640.458	0.0131084
640.536	0.0132485
640.614	0.0133103
640.693	0.0131673
640.771	0.0132519
640.849	0.0131326
640.927	0.0132342
641.005	0.0131855
641.083	0.0131913
641.161	0.0131013
641.239	0.0131338
641.318	0.0131887
641.396	0.0132751
641.474	0.0131822
641.552	0.0131845
641.630	0.0131268
641.708	0.0132327
641.786	0.0131742
641.864	0.0131966
641.943	0.0133546
642.021	0.0131438
642.099	0.0131530
642.177	0.0131646
642.255	0.0131351
642.333	0.0131947
642.411	0.0132317
642.489	0.0132477
642.568	0.0133126
642.646	0.0132307
642.724	0.0133025
642.802	0.0132220
642.880	0.0133049
642.958	0.0131858
643.036	0.0133562
643.114	0.0132023
643.193	0.0130783
643.271	0.0131454
643.349	0.0131291
643.427	0.0132662
643.505	0.0132858
643.583	0.0131611
643.661	0.0132641
643.739	0.0131973
643.818	0.0132521
643.896	0.0132826
643.974	0.0133469
644.052	0.0132619
644.130	0.0132472
644.208	0.0132272
644.286	0.0131422
644.364	0.0131847
644.443	0.0133156
644.521	0.0133207
644.599	0.0132787
644.677	0.0130811
644.755	0.0133133
644.833	0.0132811
644.911	0.0131294
644.989	0.0131626
645.068	0.0132179
645.146	0.0132370
645.224	0.0132713
645.302	0.0131399
645.380	0.0131555
645.458	0.0132355
645.536	0.0132137
645.614	0.0131848
645.693	0.0132516
645.771	0.0131812
645.849	0.0132349
645.927	0.0131201
646.005	0.0132071
646.083	0.0133093
646.161	0.0132666
646.239	0.0132020
646.318	0.0132524
646.396	0.0133054
646.474	0.0133240
646.552	0.0131503
646.630	0.0132047
646.708	0.0130746
646.786	0.0130779
646.864	0.0131699
646.943	0.0132578
647.021	0.0132358
647.099	0.0131659
647.177	0.0131479
647.255	0.0132291
647.333	0.0133351
647.411	0.0131525
647.489	0.0131732
647.568	0.0130804
647.646	0.0131640
647.724	0.0131376
647.802	0.0132213
647.880	0.0132681
647.958	0.0130473
648.036	0.0131129
648.114	0.0132423
648.193	0.0130742
648.271	0.0132269
648.349	0.0131850
648.427	0.0132060
648.505	0.0132059
648.583	0.0131870
648.661	0.0132335
648.739	0.0131004
648.818	0.0131906
648.896	0.0131784
648.974	0.0132426
649.052	0.0132755
649.130	0.0131906
649.208	0.0132452
649.286	0.0132561
649.364	0.0132118
649.443	0.0130798
649.521	0.0130869
649.599	0.0132703
649.677	0.0132341
649.755	0.0130833
649.833	0.0133126
649.911	0.0132652
649.989	0.0132566
650.068	0.0131647
650.146	0.0130596
650.224	0.0132056
650.302	0.0132567
650.380	0.0132749
650.458	0.0131641
650.536	0.0131647
650.614	0.0132146
650.693	0.0130417
650.771	0.0131245
650.849	0.0131939
650.927	0.0132839
651.005	0.0130615
651.083	0.0132024
651.161	0.0132828
651.239	0.0132630
651.318	0.0132875
651.396	0.0133185
651.474	0.0132621
651.552	0.0130520
651.630	0.0132372
651.708	0.0131725
651.786	0.0132898
651.864	0.0132930
651.943	0.0132477
652.021	0.0132029
652.099	0.0131129
652.177	0.0131003
652.255	0.0131703
652.333	0.0132484
652.411	0.0133174
652.489	0.0132578
652.568	0.0132232
652.646	0.0132141
652.724	0.0131702
652.802	0.0131279
652.880	0.0131793
652.958	0.0132352
653.036	0.0132772
653.114	0.0132045
653.193	0.0131979
653.271	0.0132232
653.349	0.0132090
653.427	0.0132289
653.505	0.0132742
653.583	0.0131813
653.661	0.0132646
653.739	0.0131595
653.818	0.0133020
653.896	0.0132115
653.974	0.0131199
654.052	0.0133580
654.130	0.0131902
654.208	0.0131368
654.286	0.0132849
654.364	0.0132060
654.443	0.0131696
654.521	0.0132533
654.599	0.0133015
654.677	0.0133531
654.755	0.0131452
654.833	0.0131762
654.911	0.0131935
654.989	0.0131425
655.068	0.0132573
655.146	0.0132058
655.224	0.0131300
655.302	0.0131950
655.380	0.0132658
655.458	0.0131859
655.536	0.0132771
655.614	0.0131787
655.693	0.0131940
655.771	0.0131884
655.849	0.0131256
655.927	0.0132449
656.005	0.0132131
656.083	0.0132216
656.161	0.0132819
656.239	0.0133037
656.318	0.0131795
656.396	0.0131676
656.474	0.0132357
656.552	0.0132517
656.630	0.0131218
656.708	0.0132629
656.786	0.0131413
656.864	0.0130807
656.943	0.0132078
657.021	0.0131460
657.099	0.0130311
657.177	0.0132677
657.255	0.0130975
657.333	0.0131143
657.411	0.0132291
657.489	0.0131619
657.568	0.0131825
657.646	0.0131221
657.724	0.0131134
657.802	0.0132330
657.880	0.0133218
657.958	0.0131882
658.036	0.0131377
658.114	0.0132185
658.193	0.0132226
658.271	0.0132167
658.349	0.0131281
658.427	0.0131110
658.505	0.0133645
658.583	0.0133183
658.661	0.0132467
658.739	0.0133261
658.818	0.0131428
658.896	0.0131097
658.974	0.0133334
659.052	0.0131844
659.130	0.0130804
659.208	0.0130531
659.286	0.0132430
659.364	0.0131261
659.443	0.0131188
659.521	0.0131995
659.599	0.0131436
659.677	0.0132327
659.755	0.0131338
659.833	0.0131439
659.911	0.0131751
659.989	0.0132021
660.068	0.0132838
660.146	0.0132503
660.224	0.0131165
660.302	0.0130323
660.380	0.0132518
660.458	0.0131530
660.536	0.0133002
660.614	0.0132607
660.693	0.0131952
660.771	0.0132535
660.849	0.0132317
660.927	0.0131928
661.005	0.0131984
661.083	0.0133096
661.161	0.0132182
661.239	0.0131972
661.318	0.0132179
661.396	0.0132449
661.474	0.0130418
661.552	0.0132455
661.630	0.0133035
661.708	0.0131995
661.786	0.0132261
661.864	0.0131181
661.943	0.0131694
662.021	0.0131966
662.099	0.0130952
662.177	0.0132404
662.255	0.0130273
662.333	0.0132514
662.411	0.0133355
662.489	0.0131670
662.568	0.0132162
662.646	0.0132344
662.724	0.0130766
662.802	0.0133010
662.880	0.0131998
662.958	0.0131705
663.036	0.0131563
663.114	0.0133270
663.193	0.0132215
663.271	0.0130597
663.349	0.0131644
663.427	0.0132730
663.505	0.0132179
663.583	0.0131493
663.661	0.0132456
663.739	0.0133135
663.818	0.0131796
663.896	0.0130883
663.974	0.0131010
664.052	0.0132392
664.130	0.0132215
664.208	0.0131288
664.286	0.0130927
664.364	0.0131640
664.443	0.0131485
664.521	0.0132175
664.599	0.0132307
664.677	0.0132589
664.755	0.0133266
664.833	0.0131797
664.911	0.0130853
664.989	0.0133141
665.068	0.0132854
665.146	0.0131261
665.224	0.0130584
665.302	0.0132006
665.380	0.0131476
665.458	0.0132896
665.536	0.0132445
665.614	0.0132878
665.693	0.0130692
665.771	0.0131390
665.849	0.0132104
665.927	0.0131457
666.005	0.0131184
666.083	0.0131483
666.161	0.0130891
666.239	0.0131819
666.318	0.0133738
666.396	0.0132250
666.474	0.0130511
666.552	0.0132026
666.630	0.0131998
666.708	0.0130589
666.786	0.0131772
666.864	0.0132056
666.943	0.0132212
667.021	0.0132078
667.099	0.0132012
667.177	0.0132352
667.255	0.0132034
667.333	0.0132396
667.411	0.0131264
667.489	0.0130446
667.568	0.0132319
667.646	0.0132500
667.724	0.0132767
667.802	0.0131250
667.880	0.0131775
667.958	0.0131335
668.036	0.0132142
668.114	0.0131398
668.193	0.0131644
668.271	0.0130870
668.349	0.0132224
668.427	0.0131071
668.505	0.0130780
668.583	0.0132779
668.661	0.0131714
668.739	0.0131036
668.818	0.0131680
668.896	0.0132348
668.974	0.0131254
669.052	0.0132195
669.130	0.0131364
669.208	0.0130859
669.286	0.0132504
669.364	0.0131779
669.443	0.0131463
669.521	0.0130459
669.599	0.0132100
669.677	0.0131638
669.755	0.0132279
669.833	0.0131905
669.911	0.0132723
669.989	0.0132977
670.068	0.0131989
670.146	0.0130945
670.224	0.0131918
670.302	0.0131084
670.380	0.0132028
670.458	0.0130788
670.536	0.0131255
670.614	0.0130746
670.693	0.0131188
670.771	0.0131979
670.849	0.0130801
670.927	0.0131742
671.005	0.0132166
671.083	0.0130231
671.161	0.0132089
671.239	0.0131322
671.318	0.0131837
671.396	0.0132749
671.474	0.0131660
671.552	0.0132079
671.630	0.0132708
671.708	0.0133141
671.786	0.0131514
671.864	0.0131487
671.943	0.0131887
672.021	0.0132148
672.099	0.0130903
672.177	0.0131950
672.255	0.0132191
672.333	0.0131054
672.411	0.0131040
672.489	0.0132433
672.568	0.0132983
672.646	0.0132420
672.724	0.0133242
672.802	0.0133025
672.880	0.0132230
672.958	0.0131089
673.036	0.0132630
673.114	0.0132132
673.193	0.0133002
673.271	0.0133920
673.349	0.0131910
673.427	0.0130876
673.505	0.0132466
673.583	0.0131198
673.661	0.0132314
673.739	0.0132485
673.818	0.0132836
673.896	0.0132866
673.974	0.0132082
674.052	0.0131866
674.130	0.0132181
674.208	0.0132829
674.286	0.0133743
674.364	0.0133598
674.443	0.0131646
674.521	0.0131457
674.599	0.0133419
674.677	0.0133729
674.755	0.0132855
674.833	0.0131799
674.911	0.0131892
674.989	0.0134254
675.068	0.0133389
675.146	0.0132287
675.224	0.0133411
675.302	0.0133481
675.380	0.0132575
675.458	0.0131695
675.536	0.0132930
675.614	0.0133508
675.693	0.0133642
675.771	0.0133031
675.849	0.0132777
675.927	0.0134398
676.005	0.0133189
676.083	0.0131823
676.161	0.0132603
676.239	0.0133881
676.318	0.0132529
676.396	0.0132742
676.474	0.0132961
676.552	0.0133315
676.630	0.0132981
676.708	0.0135406
676.786	0.0133412
676.864	0.0132177
676.943	0.0132451
677.021	0.0133832
677.099	0.0133082
677.177	0.0132927
677.255	0.0133501
677.333	0.0133514
677.411	0.0132056
677.489	0.0132461
677.568	0.0133350
677.646	0.0133235
677.724	0.0133465
677.802	0.0132408
677.880	0.0132185
677.958	0.0133212
678.036	0.0131915
678.114	0.0133241
678.193	0.0133250
678.271	0.0132197
678.349	0.0132132
678.427	0.0131219
678.505	0.0132729
678.583	0.0132224
678.661	0.0133027
678.739	0.0132702
678.818	0.0132662
678.896	0.0132735
678.974	0.0131814
679.052	0.0131527
679.130	0.0131742
679.208	0.0132697
679.286	0.0132243
679.364	0.0133099
679.443	0.0132847
679.521	0.0131470
679.599	0.0129585
679.677	0.0131586
679.755	0.0133162
679.833	0.0131088
679.911	0.0131262
679.989	0.0130997
680.068	0.0132916
680.146	0.0132529
680.224	0.0131406
680.302	0.0131816
680.380	0.0132057
680.458	0.0134000
680.536	0.0131012
680.614	0.0131723
680.693	0.0131214
680.771	0.0131628
680.849	0.0131483
680.927	0.0131935
681.005	0.0132383
681.083	0.0131929
681.161	0.0132445
681.239	0.0131423
681.318	0.0130998
681.396	0.0132263
681.474	0.0130521
681.552	0.0130455
681.630	0.0131651
681.708	0.0131329
681.786	0.0131799
681.864	0.0132825
681.943	0.0131300
682.021	0.0131005
682.099	0.0129703
682.177	0.0129212
682.255	0.0131124
682.333	0.0131216
682.411	0.0130679
682.489	0.0130791
682.568	0.0132360
682.646	0.0130891
682.724	0.0130632
682.802	0.0130486
682.880	0.0131416
682.958	0.0132050
683.036	0.0129940
683.114	0.0131274
683.193	0.0131810
683.271	0.0132729
683.349	0.0131650
683.427	0.0131073
683.505	0.0130977
683.583	0.0131050
683.661	0.0130949
683.739	0.0130676
683.818	0.0132518
683.896	0.0132366
683.974	0.0129751
684.052	0.0131583
684.130	0.0131762
684.208	0.0130910
684.286	0.0132098
684.364	0.0132375
684.443	0.0130913
684.521	0.0132244
684.599	0.0130905
684.677	0.0130884
684.755	0.0132203
684.833	0.0132211
684.911	0.0131558
684.989	0.0131140
685.068	0.0131217
685.146	0.0131614
685.224	0.0130953
685.302	0.0132657
685.380	0.0131929
685.458	0.0131166
685.536	0.0132050
685.614	0.0133139
685.693	0.0131837
685.771	0.0133020
685.849	0.0132563
685.927	0.0132045
686.005	0.0132433
686.083	0.0131829
686.161	0.0131766
686.239	0.0133000
686.318	0.0130939
686.396	0.0132662
686.474	0.0132394
686.552	0.0133313
686.630	0.0132007
686.708	0.0132246
686.786	0.0132926
686.864	0.0131052
686.943	0.0130653
687.021	0.0130962
687.099	0.0132611
687.177	0.0131657
687.255	0.0133485
687.333	0.0132249
687.411	0.0131167
687.489	0.0132394
687.568	0.0133162
687.646	0.0132966
687.724	0.0132124
687.802	0.0131513
687.880	0.0132716
687.958	0.0131744
688.036	0.0133897
688.114	0.0130845
688.193	0.0131352
688.271	0.0131419
688.349	0.0132339
688.427	0.0131753
688.505	0.0131343
688.583	0.0131892
688.661	0.0132565
688.739	0.0133358
688.818	0.0133331
688.896	0.0133158
688.974	0.0133160
689.052	0.0132694
689.130	0.0132970
689.208	0.0132188
689.286	0.0132567
689.364	0.0130472
689.443	0.0131782
689.521	0.0130302
689.599	0.0130125
689.677	0.0129499
689.755	0.0127914
689.833	0.0127923
689.911	0.0128757
689.989	0.0129333
690.068	0.0129247
690.146	0.0131373
690.224	0.0132309
690.302	0.0134698
690.380	0.0136346
690.458	0.0137695
690.536	0.0140807
690.614	0.0139534
690.693	0.0140182
690.771	0.0140619
690.849	0.0140481
690.927	0.0140007
691.005	0.0137786
691.083	0.0134490
691.161	0.0134000
691.239	0.0132157
691.318	0.0129229
691.396	0.0126675
691.474	0.0124744
691.552	0.0121497
691.630	0.0118388
691.708	0.0116106
691.786	0.0114861
691.864	0.0114737
691.943	0.0115057
692.021	0.0115408
692.099	0.0119858
692.177	0.0121333
692.255	0.0123794
692.333	0.0129307
692.411	0.0135525
692.489	0.0141978
692.568	0.0147375
692.646	0.0152168
692.724	0.0157616
692.802	0.0160378
692.880	0.0162334
692.958	0.0163230
693.036	0.0163198
693.114	0.0161840
693.193	0.0158573
693.271	0.0153351
693.349	0.0147446
693.427	0.0140194
693.505	0.0131055
693.583	0.0124108
693.661	0.0115643
693.739	0.0107040
693.818	0.0101349
693.896	0.00949898
693.974	0.00905693
694.052	0.00870552
694.130	0.00862137
694.208	0.00864777
694.286	0.00878700
694.364	0.00916908
694.443	0.00973824
694.521	0.0103777
694.599	0.0111900
694.677	0.0120950
694.755	0.0131459
694.833	0.0142785
694.911	0.0153554
694.989	0.0164151
695.068	0.0171323
695.146	0.0178465
695.224	0.0185019
695.302	0.0187277
695.380	0.0190402
695.458	0.0191298
695.536	0.0187103
695.614	0.0182425
695.693	0.0178183
695.771	0.0168816
695.849	0.0158029
695.927	0.0147260
696.005	0.0135869
696.083	0.0123589
696.161	0.0112777
696.239	0.0102496
696.318	0.00926949
696.396	0.00863014
696.474	0.00809288
696.552	0.00755051
696.630	0.00742775
696.708	0.00732811
696.786	0.00730789
696.864	0.00771812
696.943	0.00815018
697.021	0.00861343
697.099	0.00918709
697.177	0.0100105
697.255	0.0107890
697.333	0.0115842
697.411	0.0126992
697.489	0.0136629
697.568	0.0146530
697.646	0.0154869
697.724	0.0162656
697.802	0.0170429
697.880	0.0177368
697.958	0.0182592
698.036	0.0185573
698.114	0.0186526
698.193	0.0185215
698.271	0.0184239
698.349	0.0181628
698.427	0.0176135
698.505	0.0169277
698.583	0.0163255
698.661	0.0157427
698.739	0.0148945
698.818	0.0140908
698.896	0.0131738
698.974	0.0125777
699.052	0.0118677
699.130	0.0113062
699.208	0.0106371
699.286	0.0101031
699.364	0.00973740
699.443	0.00938240
699.521	0.00922935
699.599	0.00911301
699.677	0.00910393
699.755	0.00929443
699.833	0.00920876
699.911	0.00953407
699.989	0.00982292
700.068	0.0101357
700.146	0.0108591
700.224	0.0113261
700.302	0.0118928
700.380	0.0125126
700.458	0.0131902
700.536	0.0137462
700.614	0.0143060
700.693	0.0149174
700.771	0.0154912
700.849	0.0157841
700.927	0.0159229
701.005	0.0162470
701.083	0.0161977
701.161	0.0161484
701.239	0.0163463
701.318	0.0160669
701.396	0.0157760
701.474	0.0154594
701.552	0.0151604
701.630	0.0148637
701.708	0.0146268
701.786	0.0140794
701.864	0.0137260
701.943	0.0133112
702.021	0.0130939
702.099	0.0127878
702.177	0.0124779
702.255	0.0122501
702.333	0.0119438
702.411	0.0119091
702.489	0.0117508
702.568	0.0114872
702.646	0.0113509
702.724	0.0114139
702.802	0.0114125
702.880	0.0115390
702.958	0.0117312
703.036	0.0119683
703.114	0.0120694
703.193	0.0125097
703.271	0.0128652
703.349	0.0132617
703.427	0.0136037
703.505	0.0138900
703.583	0.0142854
703.661	0.0145123
703.739	0.0148678
703.818	0.0149015
703.896	0.0147099
703.974	0.0147729
704.052	0.0147311
704.130	0.0146147
704.208	0.0143965
704.286	0.0141110
704.364	0.0138306
704.443	0.0134706
704.521	0.0132945
704.599	0.0130194
704.677	0.0128278
704.755	0.0125068
704.833	0.0123453
704.911	0.0122256
704.989	0.0118974
705.068	0.0118980
705.146	0.0119433
705.224	0.0117306
705.302	0.0116077
705.380	0.0117489
705.458	0.0118168
705.536	0.0117429
705.614	0.0118404
705.693	0.0119165
705.771	0.0120419
705.849	0.0124996
705.927	0.0125557
706.005	0.0127252
706.083	0.0131179
706.161	0.0134007
706.239	0.0135203
706.318	0.0135906
706.396	0.0137661
706.474	0.0139322
706.552	0.0139854
706.630	0.0141500
706.708	0.0141905
706.786	0.0141152
706.864	0.0139599
706.943	0.0142161
707.021	0.0141788
707.099	0.0141918
707.177	0.0143047
707.255	0.0142446
707.333	0.0142361
707.411	0.0143389
707.489	0.0144762
707.568	0.0145105
707.646	0.0144903
707.724	0.0142465
707.802	0.0142187
707.880	0.0142496
707.958	0.0140840
708.036	0.0139586
708.114	0.0136631
708.193	0.0134358
708.271	0.0133012
708.349	0.0130906
708.427	0.0128661
708.505	0.0125250
708.583	0.0123750
708.661	0.0122724
708.739	0.0120911
708.818	0.0119290
708.896	0.0117454
708.974	0.0117644
709.052	0.0115579
709.130	0.0115357
709.208	0.0115734
709.286	0.0114767
709.364	0.0115417
709.443	0.0116010
709.521	0.0116669
709.599	0.0115979
709.677	0.0117578
709.755	0.0119073
709.833	0.0119466
709.911	0.0120708
709.989	0.0122058
710.068	0.0122530
710.146	0.0123022
710.224	0.0126312
710.302	0.0126565
710.380	0.0127570
710.458	0.0129685
710.536	0.0133429
710.614	0.0134517
710.693	0.0137257
710.771	0.0138326
710.849	0.0141223
710.927	0.0142073
711.005	0.0144824
711.083	0.0145973
711.161	0.0145932
711.239	0.0148552
711.318	0.0147998
711.396	0.0149681
711.474	0.0151571
711.552	0.0152386
711.630	0.0153640
711.708	0.0155276
711.786	0.0155320
711.864	0.0155249
711.943	0.0156223
712.021	0.0154127
712.099	0.0152575
712.177	0.0151270
712.255	0.0149818
712.333	0.0148183
712.411	0.0145267
712.489	0.0140664
712.568	0.0136605
712.646	0.0133646
712.724	0.0130745
712.802	0.0126865
712.880	0.0122579
712.958	0.0117528
713.036	0.0114632
713.114	0.0111746
713.193	0.0109963
713.271	0.0108480
713.349	0.0105361
713.427	0.0104700
713.505	0.0105527
713.583	0.0106030
713.661	0.0105748
713.739	0.0106872
713.818	0.0107080
713.896	0.0110482
713.974	0.0113098
714.052	0.0115107
714.130	0.0117485
714.208	0.0119569
714.286	0.0122205
714.364	0.0126886
714.443	0.0129274
714.521	0.0130793
714.599	0.0132971
714.677	0.0136116
714.755	0.0135176
714.833	0.0137634
714.911	0.0138489
714.989	0.0138229
715.068	0.0139046
715.146	0.0140695
715.224	0.0139895
715.302	0.0140269
715.380	0.0140474
715.458	0.0139048
715.536	0.0138212
715.614	0.0139732
715.693	0.0138476
715.771	0.0140118
715.849	0.0141972
715.927	0.0139890
716.005	0.0139182
716.083	0.0142397
716.161	0.0141488
716.239	0.0142315
716.318	0.0143539
716.396	0.0144012
716.474	0.0145493
716.552	0.0144466
716.630	0.0144057
716.708	0.0145564
716.786	0.0144611
716.864	0.0143864
716.943	0.0144581
717.021	0.0144817
717.099	0.0142614
717.177	0.0142879
717.255	0.0141412
717.333	0.0139847
717.411	0.0138149
717.489	0.0137750
717.568	0.0135165
717.646	0.0130854
717.724	0.0129509
717.802	0.0127605
717.880	0.0124264
717.958	0.0121571
718.036	0.0119705
718.114	0.0117017
718.193	0.0115064
718.271	0.0114980
718.349	0.0113130
718.427	0.0110724
718.505	0.0112143
718.583	0.0110310
718.661	0.0110434
718.739	0.0110548
718.818	0.0112305
718.896	0.0112540
718.974	0.0112440
719.052	0.0113217
719.130	0.0115022
719.208	0.0118790
719.286	0.0116976
719.364	0.0118834
719.443	0.0121570
719.521	0.0123595
719.599	0.0125561
719.677	0.0126972
719.755	0.0130324
719.833	0.0131203
719.911	0.0134701
719.989	0.0135918
720.068	0.0137728
720.146	0.0141244
720.224	0.0141568
720.302	0.0142721
720.380	0.0144720
720.458	0.0144774
720.536	0.0144682
720.614	0.0145122
720.693	0.0145076
720.771	0.0143502
720.849	0.0144497
720.927	0.0144063
721.005	0.0143570
721.083	0.0142289
721.161	0.0142330
721.239	0.0141590
721.318	0.0142035
721.396	0.0141565
721.474	0.0139710
721.552	0.0139374
721.630	0.0139208
721.708	0.0139278
721.786	0.0138163
721.864	0.0137593
721.943	0.0139195
722.021	0.0137425
722.099	0.0135686
722.177	0.0137513
722.255	0.0137468
722.333	0.0137267
722.411	0.0135295
722.489	0.0136163
722.568	0.0136397
722.646	0.0136512
722.724	0.0133160
722.802	0.0132837
722.880	0.0132729
722.958	0.0129572
723.036	0.0128580
723.114	0.0127200
723.193	0.0124066
723.271	0.0122378
723.349	0.0121487
723.427	0.0118293
723.505	0.0116912
723.583	0.0115505
723.661	0.0114246
723.739	0.0114268
723.818	0.0113546
723.896	0.0115591
723.974	0.0114780
724.052	0.0114099
724.130	0.0115593
724.208	0.0116958
724.286	0.0118099
724.364	0.0119128
724.443	0.0121934
724.521	0.0123539
724.599	0.0127274
724.677	0.0129339
724.755	0.0130711
724.833	0.0132102
724.911	0.0133477
724.989	0.0134167
725.068	0.0137327
725.146	0.0138306
725.224	0.0140982
725.302	0.0141299
725.380	0.0141659
725.458	0.0143716
725.536	0.0142618
725.614	0.0143483
725.693	0.0143627
725.771	0.0142183
725.849	0.0142031
725.927	0.0141350
726.005	0.0140980
726.083	0.0141307
726.161	0.0140611
726.239	0.0137865
726.318	0.0137948
726.396	0.0136527
726.474	0.0136451
726.552	0.0134146
726.630	0.0133032
726.708	0.0133250
726.786	0.0133568
726.864	0.0131816
726.943	0.0131387
727.021	0.0131100
727.099	0.0131321
727.177	0.0131747
727.255	0.0131493
727.333	0.0132449
727.411	0.0133115
727.489	0.0135474
727.568	0.0133946
727.646	0.0135293
727.724	0.0136191
727.802	0.0135689
727.880	0.0137286
727.958	0.0136607
728.036	0.0136826
728.114	0.0135927
728.193	0.0135345
728.271	0.0134531
728.349	0.0134373
728.427	0.0132133
728.505	0.0131255
728.583	0.0129400
728.661	0.0127896
728.739	0.0126142
728.818	0.0125886
728.896	0.0123600
728.974	0.0121219
729.052	0.0121040
729.130	0.0119711
729.208	0.0119321
729.286	0.0120110
729.364	0.0120087
729.443	0.0119293
729.521	0.0119820
729.599	0.0121551
729.677	0.0121877
729.755	0.0123001
729.833	0.0123321
729.911	0.0126727
729.989	0.0126972
730.068	0.0128102
730.146	0.0131116
730.224	0.0132385
730.302	0.0132840
730.380	0.0134224
730.458	0.0135496
730.536	0.0135913
730.614	0.0138877
730.693	0.0138875
730.771	0.0139957
730.849	0.0140302
730.927	0.0139925
731.005	0.0139707
731.083	0.0138397
731.161	0.0137333
731.239	0.0136725
731.318	0.0136073
731.396	0.0135188
731.474	0.0133215
731.552	0.0132509
731.630	0.0131960
731.708	0.0132343
731.786	0.0132183
731.864	0.0131829
731.943	0.0130283
732.021	0.0129224
732.099	0.0128656
732.177	0.0129974
732.255	0.0130290
732.333	0.0130654
732.411	0.0128535
732.489	0.0128961
732.568	0.0131076
732.646	0.0132750
732.724	0.0133602
732.802	0.0134326
732.880	0.0134496
732.958	0.0136650
733.036	0.0136661
733.114	0.0138095
733.193	0.0138799
733.271	0.0138804
733.349	0.0138516
733.427	0.0139360
733.505	0.0138873
733.583	0.0137515
733.661	0.0136889
733.739	0.0135867
733.818	0.0134311
733.896	0.0133131
733.974	0.0133370
734.052	0.0132091
734.130	0.0132211
734.208	0.0128573
734.286	0.0128793
734.364	0.0128078
734.443	0.0128219
734.521	0.0126614
734.599	0.0126259
734.677	0.0125121
734.755	0.0127973
734.833	0.0127849
734.911	0.0126370
734.989	0.0125658
735.068	0.0126408
735.146	0.0127866
735.224	0.0129465
735.302	0.0130087
735.380	0.0130423
735.458	0.0131687
735.536	0.0130033
735.614	0.0131944
735.693	0.0133141
735.771	0.0133900
735.849	0.0132650
735.927	0.0133449
736.005	0.0133526
736.083	0.0132555
736.161	0.0133029
736.239	0.0133379
736.318	0.0132388
736.396	0.0131886
736.474	0.0132185
736.552	0.0130252
736.630	0.0129401
736.708	0.0129387
736.786	0.0129215
736.864	0.0129097
736.943	0.0128016
737.021	0.0128635
737.099	0.0127654
737.177	0.0128430
737.255	0.0129459
737.333	0.0128392
737.411	0.0129701
737.489	0.0129326
737.568	0.0130601
737.646	0.0131808
737.724	0.0132068
737.802	0.0133441
737.880	0.0133494
737.958	0.0134618
738.036	0.0135902
738.114	0.0134872
738.193	0.0136940
738.271	0.0137127
738.349	0.0138166
738.427	0.0138992
738.505	0.0138235
738.583	0.0140031
738.661	0.0139863
738.739	0.0140069
738.818	0.0140472
738.896	0.0140578
738.974	0.0137891
739.052	0.0136809
739.130	0.0137003
739.208	0.0134605
739.286	0.0133828
739.364	0.0132395
739.443	0.0132604
739.521	0.0130126
739.599	0.0128953
739.677	0.0128996
739.755	0.0128726
739.833	0.0129465
739.911	0.0129209
739.989	0.0128192
740.068	0.0127743
740.146	0.0128402
740.224	0.0129535
740.302	0.0129559
740.380	0.0130203
740.458	0.0130685
740.536	0.0130583
740.614	0.0131117
740.693	0.0131847
740.771	0.0132381
740.849	0.0132663
740.927	0.0131406
741.005	0.0130741
741.083	0.0131032
741.161	0.0131112
741.239	0.0129760
741.318	0.0130250
741.396	0.0130106
741.474	0.0130220
741.552	0.0129216
741.630	0.0130038
741.708	0.0128052
741.786	0.0128564
741.864	0.0130209
741.943	0.0129842
742.021	0.0128654
742.099	0.0129569
742.177	0.0130408
742.255	0.0127932
742.333	0.0127940
742.411	0.0129282
742.489	0.0129457
742.568	0.0128799
742.646	0.0130008
742.724	0.0129459
742.802	0.0131242
742.880	0.0131381
742.958	0.0130703
743.036	0.0130804
743.114	0.0131503
743.193	0.0130769
743.271	0.0131522
743.349	0.0130590
743.427	0.0131416
743.505	0.0131148
743.583	0.0132342
743.661	0.0131264
743.739	0.0131649
743.818	0.0131437
743.896	0.0132108
743.974	0.0133508
744.052	0.0133117
744.130	0.0132136
744.208	0.0133511
744.286	0.0133154
744.364	0.0132367
744.443	0.0134619
744.521	0.0133813
744.599	0.0133049
744.677	0.0134190
744.755	0.0133805
744.833	0.0133839
744.911	0.0133581
744.989	0.0132713
745.068	0.0133074
745.146	0.0134151
745.224	0.0133061
745.302	0.0133414
745.380	0.0133480
745.458	0.0132475
745.536	0.0132739
745.614	0.0133022
745.693	0.0133092
745.771	0.0132401
745.849	0.0131376
745.927	0.0131995
746.005	0.0131474
746.083	0.0131423
746.161	0.0129993
746.239	0.0131271
746.318	0.0130419
746.396	0.0131726
746.474	0.0132922
746.552	0.0131905
746.630	0.0129909
746.708	0.0129519
746.786	0.0132906
746.864	0.0132038
746.943	0.0130978
747.021	0.0130773
747.099	0.0129704
747.177	0.0130286
747.255	0.0131099
747.333	0.0131427
747.411	0.0131763
747.489	0.0132399
747.568	0.0130219
747.646	0.0130996
747.724	0.0130329
747.802	0.0131561
747.880	0.0131000
747.958	0.0129831
748.036	0.0132014
748.114	0.0131792
748.193	0.0130910
748.271	0.0130023
748.349	0.0130920
748.427	0.0130427
748.505	0.0132635
748.583	0.0130453
748.661	0.0130032
748.739	0.0130463
748.818	0.0130247
748.896	0.0128841
748.974	0.0129781
749.052	0.0128787
749.130	0.0130598
749.208	0.0129717
749.286	0.0128875
749.364	0.0129353
749.443	0.0130774
749.521	0.0131261
749.599	0.0130459
749.677	0.0130099
749.755	0.0131033
749.833	0.0132489
749.911	0.0131268
749.989	0.0130985
750.068	0.0131383
750.146	0.0133651
750.224	0.0132444
750.302	0.0134070
750.380	0.0134687
750.458	0.0134357
750.536	0.0134975
750.614	0.0135583
750.693	0.0134615
750.771	0.0135704
750.849	0.0135993
750.927	0.0135488
751.005	0.0135460
751.083	0.0135355
751.161	0.0135403
751.239	0.0136904
751.318	0.0137283
751.396	0.0135623
751.474	0.0136587
751.552	0.0138214
751.630	0.0135249
751.708	0.0136511
751.786	0.0136478
751.864	0.0135720
751.943	0.0135023
752.021	0.0135161
752.099	0.0134346
752.177	0.0134433
752.255	0.0133228
752.333	0.0132911
752.411	0.0132170
752.489	0.0132676
752.568	0.0131402
752.646	0.0131104
752.724	0.0130624
752.802	0.0130646
752.880	0.0129969
752.958	0.0129508
753.036	0.0129423
753.114	0.0130984
753.193	0.0129443
753.271	0.0129678
753.349	0.0130933
753.427	0.0129918
753.505	0.0128998
753.583	0.0129459
753.661	0.0128551
753.739	0.0129201
753.818	0.0127673
753.896	0.0128481
753.974	0.0128347
754.052	0.0128442
754.130	0.0127625
754.208	0.0128458
754.286	0.0128550
754.364	0.0128933
754.443	0.0128845
754.521	0.0129540
754.599	0.0129518
754.677	0.0131176
754.755	0.0131678
754.833	0.0131740
754.911	0.0132343
754.989	0.0132328
755.068	0.0133249
755.146	0.0133965
755.224	0.0134400
755.302	0.0134038
755.380	0.0135015
755.458	0.0134473
755.536	0.0134258
755.614	0.0135796
755.693	0.0134326
755.771	0.0134440
755.849	0.0133207
755.927	0.0133694
756.005	0.0133562
756.083	0.0133719
756.161	0.0132454
756.239	0.0133289
756.318	0.0132516
756.396	0.0131599
756.474	0.0132114
756.552	0.0131511
756.630	0.0132255
756.708	0.0131704
756.786	0.0132047
756.864	0.0130739
756.943	0.0130804
757.021	0.0130826
757.099	0.0129268
757.177	0.0128817
757.255	0.0131737
757.333	0.0130458
757.411	0.0130853
757.489	0.0131350
757.568	0.0131763
757.646	0.0131691
757.724	0.0131738
757.802	0.0132268
757.880	0.0132704
757.958	0.0133688
758.036	0.0134917
758.114	0.0134154
758.193	0.0133385
758.271	0.0134396
758.349	0.0136653
758.427	0.0134293
758.505	0.0134491
758.583	0.0135270
758.661	0.0135280
758.739	0.0134300
758.818	0.0134341
758.896	0.0133174
758.974	0.0133371
759.052	0.0133382
759.130	0.0131101
759.208	0.0131596
759.286	0.0131930
759.364	0.0129904
759.443	0.0130738
759.521	0.0129971
759.599	0.0130964
759.677	0.0128926
759.755	0.0129901
759.833	0.0130475
759.911	0.0130039
759.989	0.0131196
760.068	0.0130600
760.146	0.0130751
760.224	0.0130025
760.302	0.0130569
760.380	0.0131918
760.458	0.0131721
760.536	0.0133691
760.614	0.0132498
760.693	0.0132605
760.771	0.0131851
760.849	0.0131800
760.927	0.0130670
761.005	0.0131356
761.083	0.0131503
761.161	0.0131992
761.239	0.0131528
761.318	0.0131236
761.396	0.0131262
761.474	0.0130535
761.552	0.0129604
761.630	0.0130772
761.708	0.0131110
761.786	0.0129931
761.864	0.0128915
761.943	0.0129173
762.021	0.0127908
762.099	0.0130378
762.177	0.0130873
762.255	0.0129230
762.333	0.0130332
762.411	0.0129424
762.489	0.0130620
762.568	0.0130019
762.646	0.0130833
762.724	0.0130478
762.802	0.0131525
762.880	0.0131315
762.958	0.0132667
763.036	0.0132301
763.114	0.0132217
763.193	0.0131930
763.271	0.0131198
763.349	0.0133421
763.427	0.0132923
763.505	0.0134821
763.583	0.0133943
763.661	0.0135545
763.739	0.0134343
763.818	0.0136016
763.896	0.0136418
763.974	0.0136317
764.052	0.0139120
764.130	0.0139756
764.208	0.0139722
764.286	0.0138798
764.364	0.0138551
764.443	0.0138019
764.521	0.0138609
764.599	0.0140752
764.677	0.0137506
764.755	0.0136230
764.833	0.0136613
764.911	0.0134780
764.989	0.0133265
765.068	0.0135596
765.146	0.0132851
765.224	0.0132307
765.302	0.0131495
765.380	0.0130794
765.458	0.0130286
765.536	0.0130495
765.614	0.0130904
765.693	0.0129247
765.771	0.0128389
765.849	0.0128506
765.927	0.0128217
766.005	0.0127827
766.083	0.0128055
766.161	0.0127393
766.239	0.0128460
766.318	0.0126514
766.396	0.0127704
766.474	0.0128716
766.552	0.0127817
766.630	0.0126974
766.708	0.0128575
766.786	0.0126757
766.864	0.0126907
766.943	0.0126953
767.021	0.0126647
767.099	0.0127666
767.177	0.0128522
767.255	0.0128117
767.333	0.0128328
767.411	0.0128881
767.489	0.0128780
767.568	0.0130484
767.646	0.0130793
767.724	0.0131448
767.802	0.0129961
767.880	0.0132634
767.958	0.0133892
768.036	0.0134709
768.114	0.0132033
768.193	0.0133176
768.271	0.0135516
768.349	0.0135792
768.427	0.0135311
768.505	0.0136555
768.583	0.0135038
768.661	0.0136390
768.739	0.0136128
768.818	0.0136864
768.896	0.0136456
768.974	0.0135555
769.052	0.0136042
769.130	0.0136498
769.208	0.0135342
769.286	0.0135498
769.364	0.0134581
769.443	0.0134242
769.521	0.0134686
769.599	0.0134576
769.677	0.0133436
769.755	0.0132552
769.833	0.0131898
769.911	0.0132215
769.989	0.0132141
770.068	0.0130559
770.146	0.0129902
770.224	0.0130249
770.302	0.0128905
770.380	0.0130087
770.458	0.0130593
770.536	0.0131776
770.614	0.0130112
770.693	0.0129983
770.771	0.0129375
770.849	0.0129183
770.927	0.0130878
771.005	0.0129887
771.083	0.0129341
771.161	0.0130351
771.239	0.0130669
771.318	0.0130166
771.396	0.0130168
771.474	0.0132150
771.552	0.0131720
771.630	0.0131184
771.708	0.0130682
771.786	0.0130644
771.864	0.0131376
771.943	0.0133493
772.021	0.0131364
772.099	0.0131571
772.177	0.0132093
772.255	0.0132669
772.333	0.0132198
772.411	0.0132165
772.489	0.0134251
772.568	0.0131413
772.646	0.0132950
772.724	0.0132961
772.802	0.0132491
772.880	0.0133366
772.958	0.0133969
773.036	0.0134682
773.114	0.0134785
773.193	0.0133569
773.271	0.0134459
773.349	0.0133488
773.427	0.0132925
773.505	0.0132965
773.583	0.0131936
773.661	0.0131415
773.739	0.0131352
773.818	0.0130518
773.896	0.0131093
773.974	0.0131058
774.052	0.0130951
774.130	0.0130875
774.208	0.0131966
774.286	0.0131644
774.364	0.0132581
774.443	0.0130952
774.521	0.0132442
774.599	0.0131766
774.677	0.0131810
774.755	0.0132993
774.833	0.0133085
774.911	0.0133293
774.989	0.0133110
775.068	0.0133772
775.146	0.0133334
775.224	0.0132352
775.302	0.0131408
775.380	0.0131992
775.458	0.0132416
775.536	0.0131875
775.614	0.0131934
775.693	0.0131380
775.771	0.0132464
775.849	0.0131510
775.927	0.0131085
776.005	0.0132062
776.083	0.0131028
776.161	0.0129926
776.239	0.0131814
776.318	0.0131045
776.396	0.0131774
776.474	0.0132021
776.552	0.0132120
776.630	0.0130608
776.708	0.0131477
776.786	0.0130771
776.864	0.0131713
776.943	0.0129641
777.021	0.0131514
777.099	0.0131934
777.177	0.0130108
777.255	0.0131459
777.333	0.0131696
777.411	0.0131319
777.489	0.0131290
777.568	0.0131358
777.646	0.0130708
777.724	0.0131860
777.802	0.0131270
777.880	0.0131924
777.958	0.0129514
778.036	0.0130622
778.114	0.0130337
778.193	0.0131414
778.271	0.0131580
778.349	0.0131813
778.427	0.0133558
778.505	0.0135052
778.583	0.0133430
778.661	0.0133143
778.739	0.0133630
778.818	0.0133661
778.896	0.0136033
778.974	0.0134904
779.052	0.0134427
779.130	0.0135640
779.208	0.0136436
779.286	0.0135043
779.364	0.0134779
779.443	0.0133813
779.521	0.0133508
779.599	0.0133609
779.677	0.0134171
779.755	0.0133537
779.833	0.0132554
779.911	0.0131467
779.989	0.0132042
780.068	0.0131907
780.146	0.0130203
780.224	0.0132423
780.302	0.0129874
780.380	0.0131127
780.458	0.0130425
780.536	0.0130058
780.614	0.0130176
780.693	0.0130191
780.771	0.0131195
780.849	0.0129733
780.927	0.0130498
781.005	0.0129209
781.083	0.0128974
781.161	0.0129108
781.239	0.0129459
781.318	0.0128899
781.396	0.0129100
781.474	0.0129579
781.552	0.0129245
781.630	0.0129546
781.708	0.0128289
781.786	0.0129437
781.864	0.0129062
781.943	0.0129637
782.021	0.0128947
782.099	0.0131055
782.177	0.0129734
782.255	0.0128807
782.333	0.0130002
782.411	0.0130956
782.489	0.0130460
782.568	0.0130385
782.646	0.0132144
782.724	0.0130998
782.802	0.0130327
782.880	0.0132172
782.958	0.0131902
783.036	0.0130847
783.114	0.0132512
783.193	0.0131751
783.271	0.0132926
783.349	0.0133204
783.427	0.0134153
783.505	0.0132297
783.583	0.0133089
783.661	0.0133794
783.739	0.0133270
783.818	0.0132985
783.896	0.0134809
783.974	0.0134261
784.052	0.0135654
784.130	0.0134675
784.208	0.0135210
784.286	0.0134944
784.364	0.0134782
784.443	0.0135258
784.521	0.0135316
784.599	0.0135120
784.677	0.0135017
784.755	0.0133998
784.833	0.0133107
784.911	0.0133600
784.989	0.0133328
785.068	0.0134208
785.146	0.0134118
785.224	0.0132419
785.302	0.0133102
785.380	0.0132145
785.458	0.0132834
785.536	0.0133537
785.614	0.0130810
785.693	0.0132478
785.771	0.0131131
785.849	0.0131477
785.927	0.0129356
786.005	0.0129770
786.083	0.0129917
786.161	0.0129602
786.239	0.0128102
786.318	0.0128306
786.396	0.0129114
786.474	0.0129032
786.552	0.0128362
786.630	0.0127922
786.708	0.0129593
786.786	0.0129789
786.864	0.0130342
786.943	0.0129793
787.021	0.0130341
787.099	0.0132114
787.177	0.0130853
787.255	0.0132965
787.333	0.0132916
787.411	0.0132932
787.489	0.0132297
787.568	0.0132742
787.646	0.0135424
787.724	0.0133287
787.802	0.0131597
787.880	0.0133415
787.958	0.0132806
788.036	0.0132442
788.114	0.0130913
788.193	0.0130979
788.271	0.0131152
788.349	0.0130868
788.427	0.0130449
788.505	0.0130882
788.583	0.0128440
788.661	0.0130468
788.739	0.0131492
788.818	0.0131004
788.896	0.0131184
788.974	0.0130703
789.052	0.0131583
789.130	0.0131971
789.208	0.0133692
789.286	0.0132311
789.364	0.0133857
789.443	0.0134815
789.521	0.0134274
789.599	0.0135857
789.677	0.0135288
789.755	0.0134956
789.833	0.0136317
789.911	0.0135070
789.989	0.0134709
790.068	0.0133740
790.146	0.0133051
790.224	0.0133250
790.302	0.0132298
790.380	0.0131279
790.458	0.0130337
790.536	0.0129177
790.614	0.0129407
790.693	0.0127203
790.771	0.0126537
790.849	0.0127245
790.927	0.0126126
791.005	0.0124510
791.083	0.0127214
791.161	0.0126238
791.239	0.0127200
791.318	0.0127707
791.396	0.0128460
791.474	0.0130373
791.552	0.0129713
791.630	0.0132265
791.708	0.0132870
791.786	0.0132501
791.864	0.0134689
791.943	0.0135204
792.021	0.0134731
792.099	0.0134930
792.177	0.0137219
792.255	0.0135569
792.333	0.0136103
792.411	0.0136943
792.489	0.0135629
792.568	0.0134729
792.646	0.0132870
792.724	0.0132655
792.802	0.0133032
792.880	0.0131161
792.958	0.0129303
793.036	0.0128671
793.114	0.0128632
793.193	0.0127582
793.271	0.0127032
793.349	0.0126700
793.427	0.0125127
793.505	0.0125697
793.583	0.0126742
793.661	0.0128530
793.739	0.0127660
793.818	0.0129806
793.896	0.0127840
793.974	0.0128424
794.052	0.0131281
794.130	0.0131055
794.208	0.0132321
794.286	0.0134405
794.364	0.0134335
794.443	0.0134225
794.521	0.0134209
794.599	0.0135971
794.677	0.0136847
794.755	0.0136353
794.833	0.0136720
794.911	0.0137116
794.989	0.0137328
795.068	0.0137208
795.146	0.0136366
795.224	0.0135964
795.302	0.0134928
795.380	0.0135311
795.458	0.0135055
795.536	0.0133164
795.614	0.0132252
795.693	0.0132644
795.771	0.0130828
795.849	0.0129295
795.927	0.0129433
796.005	0.0128887
796.083	0.0128559
796.161	0.0128368
796.239	0.0126101
796.318	0.0126410
796.396	0.0125874
796.474	0.0127014
796.552	0.0126787
796.630	0.0126794
796.708	0.0128064
796.786	0.0128069
796.864	0.0127557
796.943	0.0128866
797.021	0.0129865
797.099	0.0129916
797.177	0.0130769
797.255	0.0131693
797.333	0.0132609
797.411	0.0131816
797.489	0.0131768
797.568	0.0134473
797.646	0.0135820
797.724	0.0136372
797.802	0.0134541
797.880	0.0135880
797.958	0.0135738
798.036	0.0133482
798.114	0.0135704
798.193	0.0137415
798.271	0.0136698
798.349	0.0134734
798.427	0.0134089
798.505	0.0134947
798.583	0.0135211
798.661	0.0133599
798.739	0.0133057
798.818	0.0132800
798.896	0.0133063
798.974	0.0131731
799.052	0.0131596
799.130	0.0131371
799.208	0.0131786
799.286	0.0129804
799.364	0.0129376
799.443	0.0129901
799.521	0.0128783
799.599	0.0128444
799.677	0.0129044
799.755	0.0129369
799.833	0.0128157
799.911	0.0129130
799.989	0.0127116
800.068	0.0130265
800.146	0.0128171
800.224	0.0128506
800.302	0.0130733
800.380	0.0129961
800.458	0.0129543
800.536	0.0129588
800.614	0.0132589
800.693	0.0130781
800.771	0.0132959
800.849	0.0131953
800.927	0.0133941
801.005	0.0134367
801.083	0.0133198
801.161	0.0134068
801.239	0.0135834
801.318	0.0136272
801.396	0.0133842
801.474	0.0134434
801.552	0.0135150
801.630	0.0134437
801.708	0.0133595
801.786	0.0133123
801.864	0.0131931
801.943	0.0132986
802.021	0.0133173
802.099	0.0132062
802.177	0.0131342
802.255	0.0131918
802.333	0.0129930
802.411	0.0129784
802.489	0.0128836
802.568	0.0129562
802.646	0.0129077
802.724	0.0128485
802.802	0.0128936
802.880	0.0128892
802.958	0.0128046
803.036	0.0128656
803.114	0.0128500
803.193	0.0130595
803.271	0.0130944
803.349	0.0130590
803.427	0.0130382
803.505	0.0130449
803.583	0.0130946
803.661	0.0131138
803.739	0.0132528
803.818	0.0131813
803.896	0.0131028
803.974	0.0132198
804.052	0.0133794
804.130	0.0133502
804.208	0.0134488
804.286	0.0134965
804.364	0.0134797
804.443	0.0136354
804.521	0.0135084
804.599	0.0135948
804.677	0.0136047
804.755	0.0137319
804.833	0.0135839
804.911	0.0134230
804.989	0.0134536
805.068	0.0134142
805.146	0.0134986
805.224	0.0133354
805.302	0.0133081
805.380	0.0132043
805.458	0.0132199
805.536	0.0130248
805.614	0.0130968
805.693	0.0131301
805.771	0.0128490
805.849	0.0128509
805.927	0.0129077
806.005	0.0128616
806.083	0.0128564
806.161	0.0127674
806.239	0.0127946
806.318	0.0129247
806.396	0.0128444
806.474	0.0129337
806.552	0.0129603
806.630	0.0129285
806.708	0.0130843
806.786	0.0130355
806.864	0.0130647
806.943	0.0130930
807.021	0.0130711
807.099	0.0132391
807.177	0.0132219
807.255	0.0133199
807.333	0.0134248
807.411	0.0134655
807.489	0.0133347
807.568	0.0134049
807.646	0.0132085
807.724	0.0134129
807.802	0.0134247
807.880	0.0133157
807.958	0.0133300
808.036	0.0134456
808.114	0.0134520
808.193	0.0132836
808.271	0.0133816
808.349	0.0135236
808.427	0.0136603
808.505	0.0134969
808.583	0.0133558
808.661	0.0133315
808.739	0.0131891
808.818	0.0133278
808.896	0.0132832
808.974	0.0133034
809.052	0.0133880
809.130	0.0129495
809.208	0.0130003
809.286	0.0131749
809.364	0.0130438
809.443	0.0130101
809.521	0.0128844
809.599	0.0130289
809.677	0.0128697
809.755	0.0127928
809.833	0.0128688
809.911	0.0128638
809.989	0.0128658
810.068	0.0129369
810.146	0.0128814
810.224	0.0128193
810.302	0.0129449
810.380	0.0128888
810.458	0.0130664
810.536	0.0132702
810.614	0.0130933
810.693	0.0130663
810.771	0.0131770
810.849	0.0132506
810.927	0.0132642
811.005	0.0131964
811.083	0.0131538
811.161	0.0132216
811.239	0.0132581
811.318	0.0132003
811.396	0.0132449
811.474	0.0133101
811.552	0.0132598
811.630	0.0132275
811.708	0.0130120
811.786	0.0132845
811.864	0.0133201
811.943	0.0132915
812.021	0.0130264
812.099	0.0131416
812.177	0.0131841
812.255	0.0131461
812.333	0.0131586
812.411	0.0132185
812.489	0.0133068
812.568	0.0133757
812.646	0.0132033
812.724	0.0131817
812.802	0.0132694
812.880	0.0133910
812.958	0.0134399
813.036	0.0134827
813.114	0.0134676
813.193	0.0134911
813.271	0.0135925
813.349	0.0136676
813.427	0.0137557
813.505	0.0136353
813.583	0.0136890
813.661	0.0135476
813.739	0.0136978
813.818	0.0135619
813.896	0.0134837
813.974	0.0134454
814.052	0.0134615
814.130	0.0133848
814.208	0.0133698
814.286	0.0130564
814.364	0.0130309
814.443	0.0130645
814.521	0.0128532
814.599	0.0127477
814.677	0.0126379
814.755	0.0125845
814.833	0.0126337
814.911	0.0124382
814.989	0.0125615
815.068	0.0125864
815.146	0.0124488
815.224	0.0125486
815.302	0.0125493
815.380	0.0126118
815.458	0.0126727
815.536	0.0128320
815.614	0.0126221
815.693	0.0127971
815.771	0.0129558
815.849	0.0130085
815.927	0.0129218
816.005	0.0132021
816.083	0.0132085
816.161	0.0132384
816.239	0.0132281
816.318	0.0133501
816.396	0.0131614
816.474	0.0132259
816.552	0.0133694
816.630	0.0133212
816.708	0.0133302
816.786	0.0134177
816.864	0.0133189
816.943	0.0132545
817.021	0.0132592
817.099	0.0132891
817.177	0.0132398
817.255	0.0131071
817.333	0.0130984
817.411	0.0131251
817.489	0.0132171
817.568	0.0132748
817.646	0.0132223
817.724	0.0131290
817.802	0.0132323
817.880	0.0133582
817.958	0.0132978
818.036	0.0134272
818.114	0.0134491
818.193	0.0133479
818.271	0.0134387
818.349	0.0135635
818.427	0.0135337
818.505	0.0135811
818.583	0.0136532
818.661	0.0134986
818.739	0.0135294
818.818	0.0135001
818.896	0.0135294
818.974	0.0134283
819.052	0.0135079
819.130	0.0134241
819.208	0.0133124
819.286	0.0132408
819.364	0.0132239
819.443	0.0132310
819.521	0.0132513
819.599	0.0131824
819.677	0.0129852
819.755	0.0128079
819.833	0.0127575
819.911	0.0128899
819.989	0.0128022
820.068	0.0127726
820.146	0.0126665
820.224	0.0126692
820.302	0.0125259
820.380	0.0126305
820.458	0.0125903
820.536	0.0126331
820.614	0.0124590
820.693	0.0126013
820.771	0.0126652
820.849	0.0126991
820.927	0.0127778
821.005	0.0128335
821.083	0.0128278
821.161	0.0129034
821.239	0.0129629
821.318	0.0129858
821.396	0.0131232
821.474	0.0132082
821.552	0.0131819
821.630	0.0131660
821.708	0.0134941
821.786	0.0134024
821.864	0.0133374
821.943	0.0132693
822.021	0.0134843
822.099	0.0136169
822.177	0.0135458
822.255	0.0136494
822.333	0.0137473
822.411	0.0136909
822.489	0.0136893
822.568	0.0137249
822.646	0.0135925
822.724	0.0135748
822.802	0.0135286
822.880	0.0136627
822.958	0.0135793
823.036	0.0135651
823.114	0.0134937
823.193	0.0135056
823.271	0.0134309
823.349	0.0133243
823.427	0.0133552
823.505	0.0133257
823.583	0.0132878
823.661	0.0132517
823.739	0.0132332
823.818	0.0131466
823.896	0.0132297
823.974	0.0132571
824.052	0.0130687
824.130	0.0130874
824.208	0.0130113
824.286	0.0130341
824.364	0.0130716
824.443	0.0132404
824.521	0.0131360
824.599	0.0130432
824.677	0.0130437
824.755	0.0129471
824.833	0.0128734
824.911	0.0131086
824.989	0.0128102
825.068	0.0129106
825.146	0.0130503
825.224	0.0127355
825.302	0.0129097
825.380	0.0128741
825.458	0.0128219
825.536	0.0127393
825.614	0.0128123
825.693	0.0126872
825.771	0.0127840
825.849	0.0129240
825.927	0.0128400
826.005	0.0129470
826.083	0.0129763
826.161	0.0129852
826.239	0.0131511
826.318	0.0131181
826.396	0.0131600
826.474	0.0132887
826.552	0.0133768
826.630	0.0134254
826.708	0.0135025
826.786	0.0135745
826.864	0.0135847
826.943	0.0135578
827.021	0.0135630
827.099	0.0137324
827.177	0.0138377
827.255	0.0138349
827.333	0.0138169
827.411	0.0137464
827.489	0.0138602
827.568	0.0138367
827.646	0.0138992
827.724	0.0137890
827.802	0.0136617
827.880	0.0137589
827.958	0.0137169
828.036	0.0135871
828.114	0.0134835
828.193	0.0135649
828.271	0.0134468
828.349	0.0134779
828.427	0.0133666
828.505	0.0131705
828.583	0.0132070
828.661	0.0130850
828.739	0.0130480
828.818	0.0128426
828.896	0.0128666
828.974	0.0127457
829.052	0.0128118
829.130	0.0127649
829.208	0.0126804
829.286	0.0126852
829.364	0.0126828
829.443	0.0125807
829.521	0.0125799
829.599	0.0126756
829.677	0.0126476
829.755	0.0127383
829.833	0.0127257
829.911	0.0127078
829.989	0.0126952
830.068	0.0128526
830.146	0.0129158
830.224	0.0128625
830.302	0.0130076
830.380	0.0131743
830.458	0.0131273
830.536	0.0132111
830.614	0.0133968
830.693	0.0132800
830.771	0.0133691
830.849	0.0135027
830.927	0.0134546
831.005	0.0135770
831.083	0.0136228
831.161	0.0136362
831.239	0.0137053
831.318	0.0137299
831.396	0.0136267
831.474	0.0135938
831.552	0.0136338
831.630	0.0137454
831.708	0.0137785
831.786	0.0135978
831.864	0.0136662
831.943	0.0137454
832.021	0.0136022
832.099	0.0136373
832.177	0.0135643
832.255	0.0136912
832.333	0.0135607
832.411	0.0136858
832.489	0.0136020
832.568	0.0134200
832.646	0.0135401
832.724	0.0135902
832.802	0.0134508
832.880	0.0134602
832.958	0.0133794
833.036	0.0133816
833.114	0.0134819
833.193	0.0131551
833.271	0.0130619
833.349	0.0130374
833.427	0.0131721
833.505	0.0129179
833.583	0.0128702
833.661	0.0128581
833.739	0.0128425
833.818	0.0125457
833.896	0.0125029
833.974	0.0124883
834.052	0.0125632
834.130	0.0125192
834.208	0.0125552
834.286	0.0123576
834.364	0.0124609
834.443	0.0124661
834.521	0.0124447
834.599	0.0125214
834.677	0.0125527
834.755	0.0127376
834.833	0.0125562
834.911	0.0126724
834.989	0.0127193
835.068	0.0129246
835.146	0.0130035
835.224	0.0131049
835.302	0.0130829
835.380	0.0133900
835.458	0.0133415
835.536	0.0134612
835.614	0.0137093
835.693	0.0137637
835.771	0.0139317
835.849	0.0138572
835.927	0.0139419
836.005	0.0140903
836.083	0.0141143
836.161	0.0141798
836.239	0.0141388
836.318	0.0142548
836.396	0.0142568
836.474	0.0142419
836.552	0.0141656
836.630	0.0140631
836.708	0.0141365
836.786	0.0138808
836.864	0.0138943
836.943	0.0138950
837.021	0.0136762
837.099	0.0137015
837.177	0.0137174
837.255	0.0135026
837.333	0.0133665
837.411	0.0133293
837.489	0.0131979
837.568	0.0131181
837.646	0.0132816
837.724	0.0128017
837.802	0.0128492
837.880	0.0129312
837.958	0.0128181
838.036	0.0126406
838.114	0.0125549
838.193	0.0127357
838.271	0.0125755
838.349	0.0125648
838.427	0.0126808
838.505	0.0126624
838.583	0.0125536
838.661	0.0125954
838.739	0.0125603
838.818	0.0124782
838.896	0.0124673
838.974	0.0124879
839.052	0.0124818
839.130	0.0125398
839.208	0.0126461
839.286	0.0127542
839.364	0.0127486
839.443	0.0125135
839.521	0.0126786
839.599	0.0128892
839.677	0.0128679
839.755	0.0127445
839.833	0.0129951
839.911	0.0129895
839.989	0.0130753
840.068	0.0131714
840.146	0.0131689
840.224	0.0132561
840.302	0.0132397
840.380	0.0134953
840.458	0.0135520
840.536	0.0133984
840.614	0.0133515
840.693	0.0135281
840.771	0.0135207
840.849	0.0136381
840.927	0.0135052
841.005	0.0135967
841.083	0.0137463
841.161	0.0137252
841.239	0.0137316
841.318	0.0137260
841.396	0.0135833
841.474	0.0137156
841.552	0.0136497
841.630	0.0137051
841.708	0.0137649
841.786	0.0135947
841.864	0.0137744
841.943	0.0135531
842.021	0.0134840
842.099	0.0134766
842.177	0.0133952
842.255	0.0133032
842.333	0.0133925
842.411	0.0133671
842.489	0.0132976
842.568	0.0132374
842.646	0.0131532
842.724	0.0131116
842.802	0.0132784
842.880	0.0132203
842.958	0.0132453
843.036	0.0131889
843.114	0.0131050
843.193	0.0131290
843.271	0.0131025
843.349	0.0128896
843.427	0.0130014
843.505	0.0130542
843.583	0.0129095
843.661	0.0128197
843.739	0.0128973
843.818	0.0128838
843.896	0.0128919
843.974	0.0127987
844.052	0.0126832
844.130	0.0126578
844.208	0.0128123
844.286	0.0127393
844.364	0.0128687
844.443	0.0127154
844.521	0.0127937
844.599	0.0129279
844.677	0.0127666
844.755	0.0127750
844.833	0.0128524
844.911	0.0128855
844.989	0.0127907
845.068	0.0129800
845.146	0.0129559
845.224	0.0130734
845.302	0.0131149
845.380	0.0130173
845.458	0.0132446
845.536	0.0132274
845.614	0.0132697
845.693	0.0133624
845.771	0.0133306
845.849	0.0133085
845.927	0.0132990
846.005	0.0133138
846.083	0.0135513
846.161	0.0135792
846.239	0.0136289
846.318	0.0134923
846.396	0.0136405
846.474	0.0138235
846.552	0.0136237
846.630	0.0136223
846.708	0.0137161
846.786	0.0136092
846.864	0.0135899
846.943	0.0137057
847.021	0.0135738
847.099	0.0135965
847.177	0.0136557
847.255	0.0134596
847.333	0.0135928
847.411	0.0135349
847.489	0.0134866
847.568	0.0135655
847.646	0.0133160
847.724	0.0131736
847.802	0.0132896
847.880	0.0131815
847.958	0.0130875
848.036	0.0130299
848.114	0.0131055
848.193	0.0130325
848.271	0.0129602
848.349	0.0128501
848.427	0.0127604
848.505	0.0128420
848.583	0.0128436
848.661	0.0125993
848.739	0.0128555
848.818	0.0127602
848.896	0.0127720
848.974	0.0129211
849.052	0.0127885
849.130	0.0127167
849.208	0.0126031
849.286	0.0128451
849.364	0.0128872
849.443	0.0127956
849.521	0.0129126
849.599	0.0131088
849.677	0.0131272
849.755	0.0130531
849.833	0.0131806
849.911	0.0132355
849.989	0.0133825
850.068	0.0134100
850.146	0.0135580
850.224	0.0133849
850.302	0.0133452
850.380	0.0135240
850.458	0.0135906
850.536	0.0135680
850.614	0.0134943
850.693	0.0135634
850.771	0.0136959
850.849	0.0135551
850.927	0.0135673
851.005	0.0134857
851.083	0.0134532
851.161	0.0135419
851.239	0.0134475
851.318	0.0133150
851.396	0.0133844
851.474	0.0133192
851.552	0.0134153
851.630	0.0133656
851.708	0.0133150
851.786	0.0133781
851.864	0.0132806
851.943	0.0131480
852.021	0.0132523
852.099	0.0132967
852.177	0.0133453
852.255	0.0132286
852.333	0.0133711
852.411	0.0132381
852.489	0.0132116
852.568	0.0132592
852.646	0.0131053
852.724	0.0132449
852.802	0.0131694
852.880	0.0131931
852.958	0.0132178
853.036	0.0131717
853.114	0.0129868
853.193	0.0129897
853.271	0.0130682
853.349	0.0129522
853.427	0.0131724
853.505	0.0131845
853.583	0.0130690
853.661	0.0129440
853.739	0.0130869
853.818	0.0131187
853.896	0.0131789
853.974	0.0129725
854.052	0.0130878
854.130	0.0132328
854.208	0.0131374
854.286	0.0131551
854.364	0.0131541
854.443	0.0132490
854.521	0.0131408
854.599	0.0131339
854.677	0.0132074
854.755	0.0132824
854.833	0.0133444
854.911	0.0131750
854.989	0.0131714
855.068	0.0133383
855.146	0.0132529
855.224	0.0131660
855.302	0.0132166
855.380	0.0134067
855.458	0.0133644
855.536	0.0132665
855.614	0.0134061
855.693	0.0134668
855.771	0.0134021
855.849	0.0135167
855.927	0.0135234
856.005	0.0134952
856.083	0.0134146
856.161	0.0134855
856.239	0.0134521
856.318	0.0134423
856.396	0.0133912
856.474	0.0134727
856.552	0.0133995
856.630	0.0132661
856.708	0.0132655
856.786	0.0133032
856.864	0.0132095
856.943	0.0131575
857.021	0.0132621
857.099	0.0131269
857.177	0.0131004
857.255	0.0131197
857.333	0.0131098
857.411	0.0131372
857.489	0.0130085
857.568	0.0130240
857.646	0.0130391
857.724	0.0131136
857.802	0.0131970
857.880	0.0130385
857.958	0.0131623
858.036	0.0132007
858.114	0.0130421
858.193	0.0131609
858.271	0.0132552
858.349	0.0132371
858.427	0.0132333
858.505	0.0132096
858.583	0.0133124
858.661	0.0133063
858.739	0.0133620
858.818	0.0133777
858.896	0.0134280
858.974	0.0132661
859.052	0.0132643
859.130	0.0131660
859.208	0.0131847
859.286	0.0133022
859.364	0.0133977
859.443	0.0131189
859.521	0.0132479
859.599	0.0133237
859.677	0.0132968
859.755	0.0131330
859.833	0.0131113
859.911	0.0131484
859.989	0.0130339
860.068	0.0130447
860.146	0.0131093
860.224	0.0131450
860.302	0.0132355
860.380	0.0130852
860.458	0.0130320
860.536	0.0132756
860.614	0.0132185
860.693	0.0133406
860.771	0.0133283
860.849	0.0132812
860.927	0.0132195
861.005	0.0133481
861.083	0.0133304
861.161	0.0134462
861.239	0.0133825
861.318	0.0132780
861.396	0.0132520
861.474	0.0132337
861.552	0.0133788
861.630	0.0132365
861.708	0.0133155
861.786	0.0131821
861.864	0.0131168
861.943	0.0132682
862.021	0.0132040
862.099	0.0131591
862.177	0.0131581
862.255	0.0131631
862.333	0.0131720
862.411	0.0130729
862.489	0.0132195
862.568	0.0132861
862.646	0.0133321
862.724	0.0134725
862.802	0.0134315
862.880	0.0132700
862.958	0.0132825
863.036	0.0133655
863.114	0.0134277
863.193	0.0134454
863.271	0.0134680
863.349	0.0134177
863.427	0.0133440
863.505	0.0133243
863.583	0.0132792
863.661	0.0133116
863.739	0.0132335
863.818	0.0132921
863.896	0.0130934
863.974	0.0131273
864.052	0.0131206
864.130	0.0132100
864.208	0.0131975
864.286	0.0132176
864.364	0.0130474
864.443	0.0131554
864.521	0.0130216
864.599	0.0130115
864.677	0.0131233
864.755	0.0131164
864.833	0.0129794
864.911	0.0131661
864.989	0.0131061
865.068	0.0131291
865.146	0.0132016
865.224	0.0131428
865.302	0.0130864
865.380	0.0132922
865.458	0.0131307
865.536	0.0130447
865.614	0.0132574
865.693	0.0133346
865.771	0.0132898
865.849	0.0132562
865.927	0.0132508
866.005	0.0132636
866.083	0.0133589
866.161	0.0132064
866.239	0.0134032
866.318	0.0132410
866.396	0.0131859
866.474	0.0132864
866.552	0.0131573
866.630	0.0132191
866.708	0.0131483
866.786	0.0132288
866.864	0.0131963
866.943	0.0132625
867.021	0.0131346
867.099	0.0132902
867.177	0.0132578
867.255	0.0133110
867.333	0.0132766
867.411	0.0132222
867.489	0.0132392
867.568	0.0132043
867.646	0.0132787
867.724	0.0133253
867.802	0.0133007
867.880	0.0132254
867.958	0.0132289
868.036	0.0133308
868.114	0.0132504
868.193	0.0131969
868.271	0.0132750
868.349	0.0131237
868.427	0.0131750
868.505	0.0132569
868.583	0.0132823
868.661	0.0131665
868.739	0.0132192
868.818	0.0130950
868.896	0.0131249
868.974	0.0132979
869.052	0.0130423
869.130	0.0131265
869.208	0.0131399
869.286	0.0130309
869.364	0.0129918
869.443	0.0130696
869.521	0.0129556
869.599	0.0129887
869.677	0.0129779
869.755	0.0129562
869.833	0.0129436
869.911	0.0129310
869.989	0.0130811
870.068	0.0130046
870.146	0.0131093
870.224	0.0131840
870.302	0.0131615
870.380	0.0132271
870.458	0.0132870
870.536	0.0133168
870.614	0.0131674
870.693	0.0132542
870.771	0.0133778
870.849	0.0131929
870.927	0.0133427
871.005	0.0132086
871.083	0.0132715
871.161	0.0133844
871.239	0.0133007
871.318	0.0131885
871.396	0.0131931
871.474	0.0131847
871.552	0.0132858
871.630	0.0132874
871.708	0.0131633
871.786	0.0131095
871.864	0.0132967
871.943	0.0131544
872.021	0.0132259
872.099	0.0132774
872.177	0.0131674
872.255	0.0130323
872.333	0.0132069
872.411	0.0133609
872.489	0.0132114
872.568	0.0131116
872.646	0.0132849
872.724	0.0131808
872.802	0.0133190
872.880	0.0132280
872.958	0.0131324
873.036	0.0130093
873.114	0.0131581
873.193	0.0131623
873.271	0.0131551
873.349	0.0130639
873.427	0.0131194
873.505	0.0131361
873.583	0.0131139
873.661	0.0131362
873.739	0.0131833
873.818	0.0131899
873.896	0.0131046
873.974	0.0131738
874.052	0.0130721
874.130	0.0131764
874.208	0.0131241
874.286	0.0130264
874.364	0.0131777
874.443	0.0130434
874.521	0.0130753
874.599	0.0131503
874.677	0.0132140
874.755	0.0133528
874.833	0.0132301
874.911	0.0133878
874.989	0.0135373
875.068	0.0133366
875.146	0.0133649
875.224	0.0133495
875.302	0.0133157
875.380	0.0134778
875.458	0.0133897
875.536	0.0134818
875.614	0.0133909
875.693	0.0133665
875.771	0.0132203
875.849	0.0132681
875.927	0.0133781
876.005	0.0132320
876.083	0.0134101
876.161	0.0132145
876.239	0.0131705
876.318	0.0131294
876.396	0.0130882
876.474	0.0131126
876.552	0.0130483
876.630	0.0131487
876.708	0.0131066
876.786	0.0129827
876.864	0.0130450
876.943	0.0130524
877.021	0.0130456
877.099	0.0128938
877.177	0.0129778
877.255	0.0130943
877.333	0.0128958
877.411	0.0129880
877.489	0.0131173
877.568	0.0128665
877.646	0.0130267
877.724	0.0131138
877.802	0.0130373
877.880	0.0130701
877.958	0.0128895
878.036	0.0129879
878.114	0.0131718
878.193	0.0131955
878.271	0.0129951
878.349	0.0131635
878.427	0.0131337
878.505	0.0131876
878.583	0.0131516
878.661	0.0131325
878.739	0.0131075
878.818	0.0131101
878.896	0.0131681
878.974	0.0131570
879.052	0.0131191
879.130	0.0131526
879.208	0.0132133
879.286	0.0131336
879.364	0.0131644
879.443	0.0132413
879.521	0.0132520
879.599	0.0132285
879.677	0.0133350
879.755	0.0132980
879.833	0.0132384
879.911	0.0134960
879.989	0.0133456
880.068	0.0133814
880.146	0.0134557
880.224	0.0132969
880.302	0.0134952
880.380	0.0134140
880.458	0.0135261
880.536	0.0133246
880.614	0.0131494
880.693	0.0134239
880.771	0.0134408
880.849	0.0133270
880.927	0.0131576
881.005	0.0132325
881.083	0.0131683
881.161	0.0130776
881.239	0.0131101
881.318	0.0130829
881.396	0.0129580
881.474	0.0128829
881.552	0.0129398
881.630	0.0128336
881.708	0.0129051
881.786	0.0129982
881.864	0.0131318
881.943	0.0130889
882.021	0.0129836
882.099	0.0130773
882.177	0.0130988
882.255	0.0130455
882.333	0.0130091
882.411	0.0131035
882.489	0.0131645
882.568	0.0131433
882.646	0.0131207
882.724	0.0130721
882.802	0.0130376
882.880	0.0129793
882.958	0.0130280
883.036	0.0128879
883.114	0.0129287
883.193	0.0129151
883.271	0.0128040
883.349	0.0128800
883.427	0.0130464
883.505	0.0129740
883.583	0.0130795
883.661	0.0131485
883.739	0.0131711
883.818	0.0131630
883.896	0.0132922
883.974	0.0133463
884.052	0.0133566
884.130	0.0133376
884.208	0.0135497
884.286	0.0135332
884.364	0.0136684
884.443	0.0136777
884.521	0.0138052
884.599	0.0137689
884.677	0.0136543
884.755	0.0136240
884.833	0.0135363
884.911	0.0134947
884.989	0.0132051
885.068	0.0132216
885.146	0.0130112
885.224	0.0130287
885.302	0.0130139
885.380	0.0127500
885.458	0.0128033
885.536	0.0127846
885.614	0.0126210
885.693	0.0126761
885.771	0.0125851
885.849	0.0127479
885.927	0.0128214
886.005	0.0126612
886.083	0.0128764
886.161	0.0130469
886.239	0.0130677
886.318	0.0133984
886.396	0.0134711
886.474	0.0135063
886.552	0.0138461
886.630	0.0138556
886.708	0.0138281
886.786	0.0139685
886.864	0.0138026
886.943	0.0137383
887.021	0.0138706
887.099	0.0137081
887.177	0.0137009
887.255	0.0136781
887.333	0.0134644
887.411	0.0132891
887.489	0.0131989
887.568	0.0129919
887.646	0.0126707
887.724	0.0126553
887.802	0.0126375
887.880	0.0125121
887.958	0.0124966
888.036	0.0124375
888.114	0.0124021
888.193	0.0124268
888.271	0.0126392
888.349	0.0126522
888.427	0.0127869
888.505	0.0127868
888.583	0.0128120
888.661	0.0128901
888.739	0.0129066
888.818	0.0131145
888.896	0.0132805
888.974	0.0132466
889.052	0.0134175
889.130	0.0135440
889.208	0.0136156
889.286	0.0135612
889.364	0.0137444
889.443	0.0137416
889.521	0.0137351
889.599	0.0135851
889.677	0.0136938
889.755	0.0137498
889.833	0.0136928
889.911	0.0136171
889.989	0.0135567
890.068	0.0133854
890.146	0.0132606
890.224	0.0132098
890.302	0.0133393
890.380	0.0132446
890.458	0.0132118
890.536	0.0130552
890.614	0.0130347
890.693	0.0130500
890.771	0.0130931
890.849	0.0130046
890.927	0.0130204
891.005	0.0129691
891.083	0.0130631
891.161	0.0129726
891.239	0.0130645
891.318	0.0129629
891.396	0.0131472
891.474	0.0130769
891.552	0.0131106
891.630	0.0131358
891.708	0.0132091
891.786	0.0132265
891.864	0.0134788
891.943	0.0133680
892.021	0.0134639
892.099	0.0133514
892.177	0.0134540
892.255	0.0133157
892.333	0.0133925
892.411	0.0134381
892.489	0.0133135
892.568	0.0132772
892.646	0.0132423
892.724	0.0131938
892.802	0.0130748
892.880	0.0131633
892.958	0.0131988
893.036	0.0130553
893.114	0.0128922
893.193	0.0129329
893.271	0.0129002
893.349	0.0130291
893.427	0.0128166
893.505	0.0128526
893.583	0.0128951
893.661	0.0129012
893.739	0.0128045
893.818	0.0128733
893.896	0.0128441
893.974	0.0128735
894.052	0.0130028
894.130	0.0129940
894.208	0.0130286
894.286	0.0130460
894.364	0.0130327
894.443	0.0128870
894.521	0.0130722
894.599	0.0131283
894.677	0.0129105
894.755	0.0129636
894.833	0.0129884
894.911	0.0130524
894.989	0.0130733
895.068	0.0130186
895.146	0.0130515
895.224	0.0131219
895.302	0.0132136
895.380	0.0131764
895.458	0.0133373
895.536	0.0133041
895.614	0.0132141
895.693	0.0132323
895.771	0.0133053
895.849	0.0134691
895.927	0.0133871
896.005	0.0134261
896.083	0.0131858
896.161	0.0133109
896.239	0.0133510
896.318	0.0132974
896.396	0.0133221
896.474	0.0133806
896.552	0.0132838
896.630	0.0132929
896.708	0.0133477
896.786	0.0131747
896.864	0.0132998
896.943	0.0130814
897.021	0.0131557
897.099	0.0130840
897.177	0.0128726
897.255	0.0128432
897.333	0.0129342
897.411	0.0129314
897.489	0.0128854
897.568	0.0127343
897.646	0.0126772
897.724	0.0126880
897.802	0.0127057
897.880	0.0125939
897.958	0.0127627
898.036	0.0125539
898.114	0.0127931
898.193	0.0127810
898.271	0.0127196
898.349	0.0127967
898.427	0.0128711
898.505	0.0128208
898.583	0.0129317
898.661	0.0130820
898.739	0.0130589
898.818	0.0131207
898.896	0.0132128
898.974	0.0133350
899.052	0.0134742
899.130	0.0134209
899.208	0.0134762
899.286	0.0134595
899.364	0.0135651
899.443	0.0134861
899.521	0.0134121
899.599	0.0134556
899.677	0.0134072
899.755	0.0133881
899.833	0.0133748
899.911	0.0133104
899.989	0.0133008
900.068	0.0131737
900.146	0.0132383
900.224	0.0130939
900.302	0.0130811
900.380	0.0130169
900.458	0.0129887
900.536	0.0131326
900.614	0.0130640
900.693	0.0129308
900.771	0.0129093
900.849	0.0130056
900.927	0.0129506
901.005	0.0130626
901.083	0.0131287
901.161	0.0129779
901.239	0.0130812
901.318	0.0130563
901.396	0.0131046
901.474	0.0130833
901.552	0.0132150
901.630	0.0130935
901.708	0.0130983
901.786	0.0131217
901.864	0.0130818
901.943	0.0130817
902.021	0.0132173
902.099	0.0131527
902.177	0.0130936
902.255	0.0131136
902.333	0.0132133
902.411	0.0130646
902.489	0.0130247
902.568	0.0132980
902.646	0.0133841
902.724	0.0131095
902.802	0.0131871
902.880	0.0133157
902.958	0.0133722
903.036	0.0133582
903.114	0.0132086
903.193	0.0132271
903.271	0.0134471
903.349	0.0134401
903.427	0.0134224
903.505	0.0133499
903.583	0.0134319
903.661	0.0134308
903.739	0.0133187
903.818	0.0133495
903.896	0.0133099
903.974	0.0133823
904.052	0.0132656
904.130	0.0131433
904.208	0.0130788
904.286	0.0128968
904.364	0.0128563
904.443	0.0129119
904.521	0.0128600
904.599	0.0128078
904.677	0.0128936
904.755	0.0129737
904.833	0.0128641
904.911	0.0129404
904.989	0.0129845
905.068	0.0130572
905.146	0.0130570
905.224	0.0130285
905.302	0.0131279
905.380	0.0132046
905.458	0.0131627
905.536	0.0133355
905.614	0.0134287
905.693	0.0132816
905.771	0.0133968
905.849	0.0134571
905.927	0.0135262
906.005	0.0135227
906.083	0.0133914
906.161	0.0134692
906.239	0.0133113
906.318	0.0133606
906.396	0.0132668
906.474	0.0133508
906.552	0.0133477
906.630	0.0134644
906.708	0.0133171
906.786	0.0131568
906.864	0.0132969
906.943	0.0133468
907.021	0.0130790
907.099	0.0128476
907.177	0.0131010
907.255	0.0130805
907.333	0.0129634
907.411	0.0131207
907.489	0.0130932
907.568	0.0131619
907.646	0.0131078
907.724	0.0130426
907.802	0.0130354
907.880	0.0132132
907.958	0.0132185
908.036	0.0131420
908.114	0.0132287
908.193	0.0131173
908.271	0.0133077
908.349	0.0131992
908.427	0.0131899
908.505	0.0131959
908.583	0.0131682
908.661	0.0132546
908.739	0.0133506
908.818	0.0134312
908.896	0.0132980
908.974	0.0133926
909.052	0.0133718
909.130	0.0134521
909.208	0.0133900
909.286	0.0134258
909.364	0.0134142
909.443	0.0133598
909.521	0.0134972
909.599	0.0134529
909.677	0.0133325
909.755	0.0134494
909.833	0.0133592
909.911	0.0133355
909.989	0.0133928
910.068	0.0131409
910.146	0.0132420
910.224	0.0132589
910.302	0.0131950
910.380	0.0129670
910.458	0.0130634
910.536	0.0130410
910.614	0.0129914
910.693	0.0129306
910.771	0.0129513
910.849	0.0129739
910.927	0.0129486
911.005	0.0129826
911.083	0.0128659
911.161	0.0129727
911.239	0.0127491
911.318	0.0128218
911.396	0.0130663
911.474	0.0128403
911.552	0.0129076
911.630	0.0131953
911.708	0.0130564
911.786	0.0130716
911.864	0.0130286
911.943	0.0131400
912.021	0.0134142
912.099	0.0134544
912.177	0.0132972
912.255	0.0133636
912.333	0.0133836
912.411	0.0133514
912.489	0.0134730
912.568	0.0133913
912.646	0.0135320
912.724	0.0135130
912.802	0.0134576
912.880	0.0134425
912.958	0.0135069
913.036	0.0134419
913.114	0.0135439
913.193	0.0135136
913.271	0.0135846
913.349	0.0134439
913.427	0.0134714
913.505	0.0133195
913.583	0.0134309
913.661	0.0131298
913.739	0.0132152
913.818	0.0132722
913.896	0.0131360
913.974	0.0131611
914.052	0.0131034
914.130	0.0131439
914.208	0.0130415
914.286	0.0131124
914.364	0.0130650
914.443	0.0129433
914.521	0.0128440
914.599	0.0128339
914.677	0.0128394
914.755	0.0127224
914.833	0.0128696
914.911	0.0127979
914.989	0.0129043
915.068	0.0127274
915.146	0.0129198
915.224	0.0127997
915.302	0.0128801
915.380	0.0129620
915.458	0.0129177
915.536	0.0130493
915.614	0.0129793
915.693	0.0129189
915.771	0.0130065
915.849	0.0132222
915.927	0.0132274
916.005	0.0133407
916.083	0.0132704
916.161	0.0131774
916.239	0.0134024
916.318	0.0133395
916.396	0.0132668
916.474	0.0134381
916.552	0.0134844
916.630	0.0133749
916.708	0.0133856
916.786	0.0133569
916.864	0.0131959
916.943	0.0131240
917.021	0.0131425
917.099	0.0132575
917.177	0.0131091
917.255	0.0130500
917.333	0.0130712
917.411	0.0130200
917.489	0.0129842
917.568	0.0129893
917.646	0.0130177
917.724	0.0129728
917.802	0.0128613
917.880	0.0128172
917.958	0.0128734
918.036	0.0129061
918.114	0.0129204
918.193	0.0128685
918.271	0.0130325
918.349	0.0130108
918.427	0.0128429
918.505	0.0129298
918.583	0.0131703
918.661	0.0131068
918.739	0.0130284
918.818	0.0131226
918.896	0.0132548
918.974	0.0133729
919.052	0.0132833
919.130	0.0133997
919.208	0.0132716
919.286	0.0134991
919.364	0.0134158
919.443	0.0134056
919.521	0.0134597
919.599	0.0134946
919.677	0.0133742
919.755	0.0135995
919.833	0.0133585
919.911	0.0133203
919.989	0.0134501
920.068	0.0133562
920.146	0.0133119
920.224	0.0133428
920.302	0.0132117
920.380	0.0131680
920.458	0.0131357
920.536	0.0130923
920.614	0.0130709
920.693	0.0130848
920.771	0.0129030
920.849	0.0129885
920.927	0.0130264
921.005	0.0130590
921.083	0.0129209
921.161	0.0129234
921.239	0.0129870
921.318	0.0128905
921.396	0.0130157
921.474	0.0128644
921.552	0.0129346
921.630	0.0129452
921.708	0.0128806
921.786	0.0130060
921.864	0.0128456
921.943	0.0129333
922.021	0.0130150
922.099	0.0130740
922.177	0.0130408
922.255	0.0130903
922.333	0.0129900
922.411	0.0130674
922.489	0.0131059
922.568	0.0132167
922.646	0.0131796
922.724	0.0132401
922.802	0.0132133
922.880	0.0131940
922.958	0.0132180
923.036	0.0132024
923.114	0.0131301
923.193	0.0132009
923.271	0.0132307
923.349	0.0133708
923.427	0.0131189
923.505	0.0133282
923.583	0.0132797
923.661	0.0132400
923.739	0.0131554
923.818	0.0133044
923.896	0.0132236
923.974	0.0131777
924.052	0.0130908
924.130	0.0131204
924.208	0.0132475
924.286	0.0131746
924.364	0.0132394
924.443	0.0132899
924.521	0.0133724
924.599	0.0134341
924.677	0.0133869
924.755	0.0132777
924.833	0.0135594
924.911	0.0133930
924.989	0.0134106
925.068	0.0134394
925.146	0.0134783
925.224	0.0133836
925.302	0.0132145
925.380	0.0132232
925.458	0.0133432
925.536	0.0133381
925.614	0.0132178
925.693	0.0132759
925.771	0.0131989
925.849	0.0131607
925.927	0.0131670
926.005	0.0129838
926.083	0.0130328
926.161	0.0129697
926.239	0.0129633
926.318	0.0129739
926.396	0.0130109
926.474	0.0129597
926.552	0.0130578
926.630	0.0130628
926.708	0.0130277
926.786	0.0129108
926.864	0.0131181
926.943	0.0130453
927.021	0.0131024
927.099	0.0131296
927.177	0.0132545
927.255	0.0130224
927.333	0.0133080
927.411	0.0133356
927.489	0.0133914
927.568	0.0133285
927.646	0.0133817
927.724	0.0133875
927.802	0.0133482
927.880	0.0135264
927.958	0.0134253
928.036	0.0133537
928.114	0.0134487
928.193	0.0134229
928.271	0.0134197
928.349	0.0133505
928.427	0.0133760
928.505	0.0133066
928.583	0.0131563
928.661	0.0131661
928.739	0.0132988
928.818	0.0131528
928.896	0.0132122
928.974	0.0132221
929.052	0.0130991
929.130	0.0131714
929.208	0.0133176
929.286	0.0130796
929.364	0.0130958
929.443	0.0131821
929.521	0.0132145
929.599	0.0132141
929.677	0.0130981
929.755	0.0133572
929.833	0.0132038
929.911	0.0132150
929.989	0.0131730
930.068	0.0132976
930.146	0.0132539
930.224	0.0130708
930.302	0.0131941
930.380	0.0132890
930.458	0.0133032
930.536	0.0132032
930.614	0.0131753
930.693	0.0131586
930.771	0.0132156
930.849	0.0132339
930.927	0.0132352
931.005	0.0131108
931.083	0.0130994
931.161	0.0132085
931.239	0.0130843
931.318	0.0130222
931.396	0.0131608
931.474	0.0132316
931.552	0.0130937
931.630	0.0131213
931.708	0.0130508
931.786	0.0132050
931.864	0.0132793
931.943	0.0134509
932.021	0.0134154
932.099	0.0133452
932.177	0.0133821
932.255	0.0133482
932.333	0.0134799
932.411	0.0134908
932.489	0.0135320
932.568	0.0134779
932.646	0.0136379
932.724	0.0134791
932.802	0.0135509
932.880	0.0135015
932.958	0.0134437
933.036	0.0133799
933.114	0.0135351
933.193	0.0135033
933.271	0.0135257
933.349	0.0134101
933.427	0.0135364
933.505	0.0133563
933.583	0.0133485
933.661	0.0133620
933.739	0.0132726
933.818	0.0134071
933.896	0.0132187
933.974	0.0132832
934.052	0.0132549
934.130	0.0132620
934.208	0.0132210
934.286	0.0132709
934.364	0.0131671
934.443	0.0131130
934.521	0.0132316
934.599	0.0131432
934.677	0.0131830
934.755	0.0131191
934.833	0.0130929
934.911	0.0131889
934.989	0.0130690
935.068	0.0129061
935.146	0.0130797
935.224	0.0130306
935.302	0.0129343
935.380	0.0129984
935.458	0.0129845
935.536	0.0130941
935.614	0.0132076
935.693	0.0130827
935.771	0.0129955
935.849	0.0129855
935.927	0.0128693
936.005	0.0130187
936.083	0.0129288
936.161	0.0129691
936.239	0.0130325
936.318	0.0130991
936.396	0.0129587
936.474	0.0130504
936.552	0.0131130
936.630	0.0131553
936.708	0.0132224
936.786	0.0132776
936.864	0.0133685
936.943	0.0133108
937.021	0.0134247
937.099	0.0134525
937.177	0.0134521
937.255	0.0135800
937.333	0.0134789
937.411	0.0134104
937.489	0.0134190
937.568	0.0134403
937.646	0.0134352
937.724	0.0133953
937.802	0.0134000
937.880	0.0133150
937.958	0.0134112
938.036	0.0132789
938.114	0.0132685
938.193	0.0131851
938.271	0.0131764
938.349	0.0130186
938.427	0.0131780
938.505	0.0129934
938.583	0.0129632
938.661	0.0128609
938.739	0.0130392
938.818	0.0130907
938.896	0.0130019
938.974	0.0129729
939.052	0.0130481
939.130	0.0130963
939.208	0.0131048
939.286	0.0132879
939.364	0.0132935
939.443	0.0133413
939.521	0.0131752
939.599	0.0133687
939.677	0.0132626
939.755	0.0132127
939.833	0.0132337
939.911	0.0133568
939.989	0.0133681
940.068	0.0133226
940.146	0.0131888
940.224	0.0131475
940.302	0.0131133
940.380	0.0132056
940.458	0.0130921
940.536	0.0130906
940.614	0.0131300
940.693	0.0130875
940.771	0.0131948
940.849	0.0131216
940.927	0.0130151
941.005	0.0130515
941.083	0.0132462
941.161	0.0130800
941.239	0.0131117
941.318	0.0130721
941.396	0.0131018
941.474	0.0132103
941.552	0.0130621
941.630	0.0130265
941.708	0.0130593
941.786	0.0130859
941.864	0.0131879
941.943	0.0131830
942.021	0.0132225
942.099	0.0132224
942.177	0.0131081
942.255	0.0131683
942.333	0.0132250
942.411	0.0133370
942.489	0.0131741
942.568	0.0131765
942.646	0.0132876
942.724	0.0133321
942.802	0.0132348
942.880	0.0132850
942.958	0.0133240
943.036	0.0133250
943.114	0.0132714
943.193	0.0132900
943.271	0.0132628
943.349	0.0132587
943.427	0.0131593
943.505	0.0132642
943.583	0.0131393
943.661	0.0131225
943.739	0.0131054
943.818	0.0130048
943.896	0.0129916
943.974	0.0130164
944.052	0.0131399
944.130	0.0130016
944.208	0.0128843
944.286	0.0129551
944.364	0.0129491
944.443	0.0130424
944.521	0.0130165
944.599	0.0130454
944.677	0.0129861
944.755	0.0130783
944.833	0.0131570
944.911	0.0131630
944.989	0.0132227
945.068	0.0132072
945.146	0.0132404
945.224	0.0133793
945.302	0.0133396
945.380	0.0132844
945.458	0.0133654
945.536	0.0133698
945.614	0.0133413
945.693	0.0135103
945.771	0.0133375
945.849	0.0132195
945.927	0.0131795
946.005	0.0131914
946.083	0.0132712
946.161	0.0132252
946.239	0.0132062
946.318	0.0132025
946.396	0.0130600
946.474	0.0130952
946.552	0.0130769
946.630	0.0130051
946.708	0.0130975
946.786	0.0130445
946.864	0.0130068
946.943	0.0131318
947.021	0.0130126
947.099	0.0130515
947.177	0.0130228
947.255	0.0131203
947.333	0.0131219
947.411	0.0132938
947.489	0.0131215
947.568	0.0132610
947.646	0.0133038
947.724	0.0133092
947.802	0.0133687
947.880	0.0133964
947.958	0.0134382
948.036	0.0133388
948.114	0.0134872
948.193	0.0134800
948.271	0.0132893
948.349	0.0133769
948.427	0.0133894
948.505	0.0133098
948.583	0.0133836
948.661	0.0131218
948.739	0.0131735
948.818	0.0132272
948.896	0.0131728
948.974	0.0133128
949.052	0.0132572
949.130	0.0132363
949.208	0.0132150
949.286	0.0132245
949.364	0.0132343
949.443	0.0132235
949.521	0.0130686
949.599	0.0131895
949.677	0.0131310
949.755	0.0132744
949.833	0.0132714
949.911	0.0131083
949.989	0.0131539
950.068	0.0132303
950.146	0.0132182
950.224	0.0132568
950.302	0.0131619
950.380	0.0132330
950.458	0.0130874
950.536	0.0132278
950.614	0.0132013
950.693	0.0133894
950.771	0.0131358
950.849	0.0130229
950.927	0.0132286
951.005	0.0131996
951.083	0.0132441
951.161	0.0132493
951.239	0.0131470
951.318	0.0131582
951.396	0.0132396
951.474	0.0132051
951.552	0.0132013
951.630	0.0132990
951.708	0.0132456
951.786	0.0132075
951.864	0.0133042
951.943	0.0134164
952.021	0.0134097
952.099	0.0133137
952.177	0.0133366
952.255	0.0134918
952.333	0.0132927
952.411	0.0132162
952.489	0.0132793
952.568	0.0132658
952.646	0.0132157
952.724	0.0133637
952.802	0.0132545
952.880	0.0132517
952.958	0.0131696
953.036	0.0130951
953.114	0.0132368
953.193	0.0133106
953.271	0.0132394
953.349	0.0132127
953.427	0.0132552
953.505	0.0131763
953.583	0.0131284
953.661	0.0132158
953.739	0.0131565
953.818	0.0130946
953.896	0.0131137
953.974	0.0131513
954.052	0.0132034
954.130	0.0130700
954.208	0.0132352
954.286	0.0131344
954.364	0.0130889
954.443	0.0132335
954.521	0.0131680
954.599	0.0130865
954.677	0.0131069
954.755	0.0130076
954.833	0.0131070
954.911	0.0131773
954.989	0.0132025
955.068	0.0131899
955.146	0.0131927
955.224	0.0132231
955.302	0.0131962
955.380	0.0131229
955.458	0.0131742
955.536	0.0132072
955.614	0.0133205
955.693	0.0133956
955.771	0.0134072
955.849	0.0133100
955.927	0.0133781
956.005	0.0132697
956.083	0.0134402
956.161	0.0134752
956.239	0.0133166
956.318	0.0133407
956.396	0.0133965
956.474	0.0132537
956.552	0.0132500
956.630	0.0133098
956.708	0.0132316
956.786	0.0132206
956.864	0.0132680
956.943	0.0133972
957.021	0.0133485
957.099	0.0131884
957.177	0.0132533
957.255	0.0131195
957.333	0.0132103
957.411	0.0132549
957.489	0.0130943
957.568	0.0131590
957.646	0.0130867
957.724	0.0131454
957.802	0.0130836
957.880	0.0130341
957.958	0.0131926
958.036	0.0130661
958.114	0.0130808
958.193	0.0130654
958.271	0.0130995
958.349	0.0131529
958.427	0.0132295
958.505	0.0131632
958.583	0.0131622
958.661	0.0131817
958.739	0.0132410
958.818	0.0133082
958.896	0.0133022
958.974	0.0132300
959.052	0.0132339
959.130	0.0133169
959.208	0.0131822
959.286	0.0131626
959.364	0.0132277
959.443	0.0131793
959.521	0.0130900
959.599	0.0132306
959.677	0.0132186
959.755	0.0130990
959.833	0.0131162
959.911	0.0130884
