05/14/2022	16:25:41	Ver.	4.1	UNKNOWN
Optical Delay	639.989416	Delta X		0.078125	Sweeps	1	Scan Rate	0/0
Coordinates	Axis 1	NaN	Axis 2	NaN	Axis 3	NaN	Axis 4	NaN	Axis 5	NaN	Axis 6	0.000000
TX Power	0.000000	RX Power	0.000000

639.989	0.0148267
640.068	0.0149052
640.146	0.0148479
640.224	0.0148702
640.302	0.0147961
640.380	0.0148731
640.458	0.0147458
640.536	0.0149030
640.614	0.0148248
640.693	0.0146833
640.771	0.0147221
640.849	0.0148181
640.927	0.0148557
641.005	0.0147775
641.083	0.0147809
641.161	0.0148186
641.239	0.0149072
641.318	0.0148190
641.396	0.0148256
641.474	0.0147317
641.552	0.0148910
641.630	0.0149944
641.708	0.0148663
641.786	0.0147881
641.864	0.0148537
641.943	0.0147826
642.021	0.0149545
642.099	0.0149080
642.177	0.0147943
642.255	0.0147829
642.333	0.0147272
642.411	0.0147436
642.489	0.0146715
642.568	0.0148150
642.646	0.0149388
642.724	0.0147688
642.802	0.0147759
642.880	0.0148689
642.958	0.0147825
643.036	0.0147847
643.114	0.0147678
643.193	0.0147833
643.271	0.0147689
643.349	0.0148009
643.427	0.0148090
643.505	0.0147700
643.583	0.0148558
643.661	0.0147816
643.739	0.0148300
643.818	0.0149162
643.896	0.0149706
643.974	0.0148577
644.052	0.0148264
644.130	0.0148647
644.208	0.0148269
644.286	0.0150063
644.364	0.0148830
644.443	0.0147162
644.521	0.0148215
644.599	0.0148446
644.677	0.0148605
644.755	0.0147190
644.833	0.0148264
644.911	0.0148088
644.989	0.0148338
645.068	0.0148465
645.146	0.0148846
645.224	0.0148895
645.302	0.0149129
645.380	0.0150063
645.458	0.0148911
645.536	0.0148765
645.614	0.0146662
645.693	0.0146680
645.771	0.0148503
645.849	0.0147811
645.927	0.0147294
646.005	0.0148512
646.083	0.0149276
646.161	0.0148093
646.239	0.0148324
646.318	0.0147902
646.396	0.0149463
646.474	0.0148728
646.552	0.0149752
646.630	0.0148858
646.708	0.0147676
646.786	0.0147021
646.864	0.0147598
646.943	0.0147113
647.021	0.0149665
647.099	0.0148665
647.177	0.0147734
647.255	0.0148376
647.333	0.0148518
647.411	0.0147393
647.489	0.0148573
647.568	0.0148729
647.646	0.0146986
647.724	0.0148494
647.802	0.0148601
647.880	0.0148025
647.958	0.0148081
648.036	0.0148389
648.114	0.0148212
648.193	0.0147929
648.271	0.0148447
648.349	0.0148508
648.427	0.0148895
648.505	0.0148777
648.583	0.0149146
648.661	0.0148637
648.739	0.0148043
648.818	0.0148428
648.896	0.0148183
648.974	0.0148020
649.052	0.0149641
649.130	0.0147847
649.208	0.0147807
649.286	0.0148043
649.364	0.0148684
649.443	0.0150553
649.521	0.0148225
649.599	0.0147105
649.677	0.0149335
649.755	0.0148781
649.833	0.0147988
649.911	0.0147117
649.989	0.0148331
650.068	0.0148064
650.146	0.0149502
650.224	0.0147157
650.302	0.0147033
650.380	0.0148999
650.458	0.0149731
650.536	0.0149614
650.614	0.0150101
650.693	0.0149437
650.771	0.0148383
650.849	0.0149389
650.927	0.0149998
651.005	0.0148403
651.083	0.0149160
651.161	0.0150503
651.239	0.0149123
651.318	0.0147594
651.396	0.0147779
651.474	0.0146942
651.552	0.0149064
651.630	0.0148997
651.708	0.0148412
651.786	0.0149838
651.864	0.0148508
651.943	0.0147430
652.021	0.0148406
652.099	0.0149558
652.177	0.0148197
652.255	0.0149402
652.333	0.0148451
652.411	0.0149074
652.489	0.0149386
652.568	0.0149200
652.646	0.0149371
652.724	0.0147260
652.802	0.0148363
652.880	0.0149915
652.958	0.0149157
653.036	0.0147427
653.114	0.0146888
653.193	0.0148981
653.271	0.0148656
653.349	0.0148914
653.427	0.0148980
653.505	0.0150233
653.583	0.0149067
653.661	0.0148051
653.739	0.0147466
653.818	0.0147689
653.896	0.0149998
653.974	0.0148830
654.052	0.0149331
654.130	0.0148563
654.208	0.0147337
654.286	0.0148109
654.364	0.0149816
654.443	0.0148374
654.521	0.0148467
654.599	0.0148463
654.677	0.0149335
654.755	0.0148132
654.833	0.0149199
654.911	0.0148508
654.989	0.0148550
655.068	0.0149186
655.146	0.0149766
655.224	0.0148653
655.302	0.0148125
655.380	0.0148691
655.458	0.0149608
655.536	0.0149140
655.614	0.0147734
655.693	0.0149273
655.771	0.0149297
655.849	0.0148569
655.927	0.0149205
656.005	0.0148288
656.083	0.0148467
656.161	0.0148503
656.239	0.0149702
656.318	0.0150349
656.396	0.0148486
656.474	0.0147822
656.552	0.0148939
656.630	0.0148562
656.708	0.0148228
656.786	0.0150121
656.864	0.0148290
656.943	0.0149151
657.021	0.0150379
657.099	0.0148711
657.177	0.0148060
657.255	0.0148929
657.333	0.0149496
657.411	0.0149148
657.489	0.0148730
657.568	0.0149583
657.646	0.0149848
657.724	0.0149403
657.802	0.0148779
657.880	0.0147720
657.958	0.0147712
658.036	0.0149009
658.114	0.0148026
658.193	0.0149191
658.271	0.0148891
658.349	0.0146025
658.427	0.0149076
658.505	0.0149894
658.583	0.0148316
658.661	0.0147500
658.739	0.0148471
658.818	0.0147231
658.896	0.0147471
658.974	0.0148542
659.052	0.0148167
659.130	0.0146922
659.208	0.0147713
659.286	0.0149316
659.364	0.0148588
659.443	0.0150015
659.521	0.0148779
659.599	0.0147385
659.677	0.0147945
659.755	0.0147861
659.833	0.0147852
659.911	0.0149083
659.989	0.0148181
660.068	0.0148427
660.146	0.0148586
660.224	0.0149647
660.302	0.0147623
660.380	0.0147828
660.458	0.0148219
660.536	0.0147361
660.614	0.0147511
660.693	0.0146683
660.771	0.0148165
660.849	0.0148619
660.927	0.0148331
661.005	0.0147588
661.083	0.0148335
661.161	0.0147485
661.239	0.0147603
661.318	0.0147620
661.396	0.0148240
661.474	0.0148045
661.552	0.0149303
661.630	0.0147276
661.708	0.0146951
661.786	0.0147656
661.864	0.0148241
661.943	0.0148751
662.021	0.0147753
662.099	0.0148406
662.177	0.0147023
662.255	0.0147825
662.333	0.0147565
662.411	0.0146320
662.489	0.0148565
662.568	0.0147868
662.646	0.0149321
662.724	0.0148219
662.802	0.0147689
662.880	0.0147997
662.958	0.0148750
663.036	0.0149641
663.114	0.0149203
663.193	0.0147549
663.271	0.0149072
663.349	0.0149018
663.427	0.0148401
663.505	0.0148042
663.583	0.0149091
663.661	0.0148683
663.739	0.0148011
663.818	0.0147253
663.896	0.0148915
663.974	0.0148171
664.052	0.0148660
664.130	0.0149046
664.208	0.0148236
664.286	0.0148516
664.364	0.0147712
664.443	0.0148849
664.521	0.0148383
664.599	0.0147619
664.677	0.0150488
664.755	0.0147921
664.833	0.0147932
664.911	0.0149633
664.989	0.0147586
665.068	0.0148297
665.146	0.0149197
665.224	0.0149043
665.302	0.0149034
665.380	0.0147404
665.458	0.0147983
665.536	0.0148753
665.614	0.0149525
665.693	0.0147366
665.771	0.0147730
665.849	0.0150356
665.927	0.0148169
666.005	0.0148804
666.083	0.0149004
666.161	0.0149133
666.239	0.0147905
666.318	0.0150384
666.396	0.0149358
666.474	0.0149078
666.552	0.0148352
666.630	0.0149535
666.708	0.0148720
666.786	0.0148173
666.864	0.0150253
666.943	0.0149479
667.021	0.0147659
667.099	0.0149579
667.177	0.0148996
667.255	0.0148907
667.333	0.0149748
667.411	0.0147465
667.489	0.0149921
667.568	0.0149379
667.646	0.0148922
667.724	0.0149819
667.802	0.0150275
667.880	0.0149073
667.958	0.0148991
668.036	0.0149094
668.114	0.0149389
668.193	0.0148639
668.271	0.0148637
668.349	0.0149722
668.427	0.0149831
668.505	0.0149490
668.583	0.0147916
668.661	0.0148133
668.739	0.0150049
668.818	0.0149380
668.896	0.0148796
668.974	0.0149149
669.052	0.0148867
669.130	0.0149424
669.208	0.0148311
669.286	0.0149602
669.364	0.0149231
669.443	0.0147732
669.521	0.0148249
669.599	0.0150165
669.677	0.0148857
669.755	0.0148458
669.833	0.0149359
669.911	0.0149635
669.989	0.0148879
670.068	0.0148489
670.146	0.0149957
670.224	0.0147822
670.302	0.0148676
670.380	0.0148876
670.458	0.0148382
670.536	0.0148715
670.614	0.0148214
670.693	0.0147398
670.771	0.0149684
670.849	0.0149301
670.927	0.0149013
671.005	0.0148886
671.083	0.0149334
671.161	0.0147961
671.239	0.0149385
671.318	0.0148444
671.396	0.0148043
671.474	0.0148060
671.552	0.0149478
671.630	0.0149451
671.708	0.0148959
671.786	0.0148562
671.864	0.0149626
671.943	0.0149068
672.021	0.0148927
672.099	0.0148741
672.177	0.0148997
672.255	0.0149770
672.333	0.0149668
672.411	0.0149649
672.489	0.0148635
672.568	0.0147724
672.646	0.0148993
672.724	0.0148960
672.802	0.0149712
672.880	0.0149901
672.958	0.0147682
673.036	0.0148325
673.114	0.0149353
673.193	0.0146988
673.271	0.0148720
673.349	0.0149251
673.427	0.0147478
673.505	0.0148185
673.583	0.0147474
673.661	0.0147987
673.739	0.0147414
673.818	0.0148703
673.896	0.0147814
673.974	0.0148150
674.052	0.0148439
674.130	0.0149160
674.208	0.0148409
674.286	0.0148032
674.364	0.0147690
674.443	0.0149601
674.521	0.0148970
674.599	0.0147836
674.677	0.0148302
674.755	0.0148094
674.833	0.0147253
674.911	0.0148608
674.989	0.0147977
675.068	0.0148343
675.146	0.0149496
675.224	0.0147676
675.302	0.0147919
675.380	0.0148640
675.458	0.0148121
675.536	0.0147594
675.614	0.0148639
675.693	0.0148737
675.771	0.0147970
675.849	0.0148670
675.927	0.0148029
676.005	0.0148011
676.083	0.0148729
676.161	0.0148475
676.239	0.0147498
676.318	0.0148877
676.396	0.0148091
676.474	0.0147457
676.552	0.0148437
676.630	0.0148802
676.708	0.0148856
676.786	0.0147073
676.864	0.0147684
676.943	0.0148022
677.021	0.0148386
677.099	0.0148659
677.177	0.0147417
677.255	0.0147196
677.333	0.0147177
677.411	0.0149089
677.489	0.0148199
677.568	0.0147786
677.646	0.0148823
677.724	0.0148531
677.802	0.0149145
677.880	0.0147669
677.958	0.0148165
678.036	0.0148586
678.114	0.0147038
678.193	0.0149364
678.271	0.0149061
678.349	0.0147745
678.427	0.0146755
678.505	0.0147926
678.583	0.0147690
678.661	0.0148808
678.739	0.0148054
678.818	0.0148920
678.896	0.0148787
678.974	0.0148010
679.052	0.0148872
679.130	0.0149133
679.208	0.0148923
679.286	0.0148641
679.364	0.0148325
679.443	0.0148669
679.521	0.0149282
679.599	0.0147590
679.677	0.0148325
679.755	0.0147994
679.833	0.0148374
679.911	0.0148341
679.989	0.0148463
680.068	0.0147724
680.146	0.0147723
680.224	0.0148764
680.302	0.0147845
680.380	0.0148541
680.458	0.0147225
680.536	0.0149009
680.614	0.0149719
680.693	0.0148487
680.771	0.0148724
680.849	0.0147417
680.927	0.0148846
681.005	0.0150307
681.083	0.0147231
681.161	0.0148187
681.239	0.0147130
681.318	0.0147426
681.396	0.0149673
681.474	0.0149301
681.552	0.0147980
681.630	0.0148770
681.708	0.0149253
681.786	0.0148547
681.864	0.0147732
681.943	0.0148622
682.021	0.0147787
682.099	0.0148386
682.177	0.0148020
682.255	0.0148866
682.333	0.0147144
682.411	0.0147472
682.489	0.0149197
682.568	0.0149172
682.646	0.0148107
682.724	0.0148941
682.802	0.0148276
682.880	0.0148933
682.958	0.0147854
683.036	0.0148561
683.114	0.0148562
683.193	0.0148099
683.271	0.0147944
683.349	0.0147421
683.427	0.0146976
683.505	0.0147958
683.583	0.0147469
683.661	0.0148541
683.739	0.0147867
683.818	0.0148734
683.896	0.0147961
683.974	0.0148412
684.052	0.0147772
684.130	0.0148666
684.208	0.0149319
684.286	0.0148611
684.364	0.0148546
684.443	0.0148759
684.521	0.0147930
684.599	0.0147739
684.677	0.0148825
684.755	0.0147456
684.833	0.0149641
684.911	0.0148554
684.989	0.0148109
685.068	0.0147583
685.146	0.0149500
685.224	0.0148990
685.302	0.0147492
685.380	0.0148618
685.458	0.0148669
685.536	0.0149248
685.614	0.0148784
685.693	0.0149496
685.771	0.0149120
685.849	0.0148826
685.927	0.0147832
686.005	0.0147251
686.083	0.0147490
686.161	0.0148544
686.239	0.0148402
686.318	0.0147132
686.396	0.0147260
686.474	0.0148077
686.552	0.0147695
686.630	0.0147652
686.708	0.0148887
686.786	0.0146880
686.864	0.0148006
686.943	0.0148925
687.021	0.0149581
687.099	0.0148322
687.177	0.0147473
687.255	0.0147945
687.333	0.0146694
687.411	0.0144369
687.489	0.0146944
687.568	0.0145894
687.646	0.0145767
687.724	0.0144721
687.802	0.0145975
687.880	0.0147474
687.958	0.0148653
688.036	0.0150517
688.114	0.0152601
688.193	0.0153349
688.271	0.0155055
688.349	0.0156216
688.427	0.0156809
688.505	0.0155434
688.583	0.0155488
688.661	0.0153044
688.739	0.0153149
688.818	0.0149648
688.896	0.0148360
688.974	0.0146656
689.052	0.0145676
689.130	0.0143826
689.208	0.0142416
689.286	0.0140836
689.364	0.0140547
689.443	0.0139149
689.521	0.0139818
689.599	0.0139365
689.677	0.0139687
689.755	0.0140102
689.833	0.0141216
689.911	0.0142772
689.989	0.0144309
690.068	0.0146460
690.146	0.0146984
690.224	0.0148118
690.302	0.0152608
690.380	0.0155388
690.458	0.0156964
690.536	0.0159620
690.614	0.0160502
690.693	0.0162943
690.771	0.0165419
690.849	0.0165066
690.927	0.0166838
691.005	0.0167571
691.083	0.0164810
691.161	0.0162424
691.239	0.0159602
691.318	0.0156691
691.396	0.0154733
691.474	0.0148666
691.552	0.0144131
691.630	0.0139853
691.708	0.0135426
691.786	0.0132169
691.864	0.0126934
691.943	0.0125011
692.021	0.0122356
692.099	0.0120497
692.177	0.0119868
692.255	0.0119997
692.333	0.0122108
692.411	0.0122781
692.489	0.0127494
692.568	0.0131777
692.646	0.0135126
692.724	0.0140237
692.802	0.0145025
692.880	0.0149316
692.958	0.0155193
693.036	0.0161011
693.114	0.0166801
693.193	0.0171149
693.271	0.0175658
693.349	0.0178256
693.427	0.0181091
693.505	0.0183923
693.583	0.0185197
693.661	0.0183360
693.739	0.0183408
693.818	0.0180167
693.896	0.0178395
693.974	0.0175921
694.052	0.0169264
694.130	0.0166090
694.208	0.0161774
694.286	0.0157036
694.364	0.0151729
694.443	0.0145940
694.521	0.0141605
694.599	0.0137450
694.677	0.0130836
694.755	0.0126942
694.833	0.0120886
694.911	0.0115331
694.989	0.0112708
695.068	0.0108630
695.146	0.0105724
695.224	0.0103566
695.302	0.0102531
695.380	0.0101773
695.458	0.0104277
695.536	0.0105360
695.614	0.0109021
695.693	0.0114551
695.771	0.0121363
695.849	0.0127092
695.927	0.0135550
696.005	0.0143272
696.083	0.0153115
696.161	0.0163572
696.239	0.0171698
696.318	0.0179868
696.396	0.0187320
696.474	0.0194037
696.552	0.0198220
696.630	0.0204282
696.708	0.0205685
696.786	0.0207818
696.864	0.0207143
696.943	0.0203981
697.021	0.0203698
697.099	0.0199072
697.177	0.0195729
697.255	0.0189533
697.333	0.0184736
697.411	0.0176160
697.489	0.0170150
697.568	0.0162833
697.646	0.0156375
697.724	0.0149513
697.802	0.0142011
697.880	0.0136859
697.958	0.0129343
698.036	0.0122197
698.114	0.0116052
698.193	0.0109416
698.271	0.0103315
698.349	0.00989746
698.427	0.00923347
698.505	0.00894188
698.583	0.00864014
698.661	0.00828018
698.739	0.00816063
698.818	0.00798630
698.896	0.00797516
698.974	0.00815231
699.052	0.00842857
699.130	0.00895981
699.208	0.00953987
699.286	0.0103739
699.364	0.0112818
699.443	0.0123279
699.521	0.0136511
699.599	0.0150028
699.677	0.0163575
699.755	0.0177003
699.833	0.0190782
699.911	0.0203596
699.989	0.0213447
700.068	0.0224922
700.146	0.0232320
700.224	0.0237006
700.302	0.0241313
700.380	0.0242972
700.458	0.0243095
700.536	0.0240151
700.614	0.0236391
700.693	0.0229442
700.771	0.0221012
700.849	0.0212361
700.927	0.0202862
701.005	0.0192062
701.083	0.0181136
701.161	0.0169328
701.239	0.0157377
701.318	0.0145493
701.396	0.0133827
701.474	0.0123196
701.552	0.0111060
701.630	0.00986137
701.708	0.00902977
701.786	0.00821404
701.864	0.00741676
701.943	0.00692612
702.021	0.00656738
702.099	0.00609718
702.177	0.00597031
702.255	0.00607597
702.333	0.00611099
702.411	0.00644722
702.489	0.00674950
702.568	0.00708382
702.646	0.00777039
702.724	0.00845284
702.802	0.00911148
702.880	0.0101235
702.958	0.0112125
703.036	0.0122654
703.114	0.0134794
703.193	0.0147220
703.271	0.0159707
703.349	0.0173940
703.427	0.0184918
703.505	0.0197063
703.583	0.0208211
703.661	0.0217525
703.739	0.0224663
703.818	0.0231668
703.896	0.0236245
703.974	0.0237471
704.052	0.0238206
704.130	0.0237261
704.208	0.0233720
704.286	0.0229371
704.364	0.0224828
704.443	0.0217948
704.521	0.0208892
704.599	0.0203608
704.677	0.0194009
704.755	0.0186150
704.833	0.0175937
704.911	0.0165806
704.989	0.0156031
705.068	0.0145038
705.146	0.0135361
705.224	0.0125441
705.302	0.0118427
705.380	0.0112045
705.458	0.0103877
705.536	0.00982254
705.614	0.00931557
705.693	0.00906021
705.771	0.00867645
705.849	0.00827003
705.927	0.00810638
706.005	0.00802132
706.083	0.00803833
706.161	0.00810486
706.239	0.00821648
706.318	0.00834152
706.396	0.00845901
706.474	0.00884506
706.552	0.00932762
706.630	0.0100151
706.708	0.0107391
706.786	0.0113672
706.864	0.0123632
706.943	0.0134679
707.021	0.0144639
707.099	0.0154481
707.177	0.0163786
707.255	0.0172420
707.333	0.0181516
707.411	0.0189117
707.489	0.0195051
707.568	0.0199895
707.646	0.0203266
707.724	0.0206614
707.802	0.0206546
707.880	0.0207849
707.958	0.0205726
708.036	0.0203144
708.114	0.0201206
708.193	0.0197464
708.271	0.0192349
708.349	0.0188815
708.427	0.0182992
708.505	0.0177357
708.583	0.0173872
708.661	0.0167066
708.739	0.0160770
708.818	0.0154893
708.896	0.0149200
708.974	0.0145580
709.052	0.0139772
709.130	0.0136054
709.208	0.0133210
709.286	0.0128484
709.364	0.0128648
709.443	0.0126274
709.521	0.0125628
709.599	0.0125759
709.677	0.0124569
709.755	0.0124348
709.833	0.0124393
709.911	0.0125489
709.989	0.0125491
710.068	0.0124316
710.146	0.0125216
710.224	0.0127612
710.302	0.0127922
710.380	0.0128417
710.458	0.0130891
710.536	0.0130964
710.614	0.0130972
710.693	0.0132010
710.771	0.0133855
710.849	0.0135154
710.927	0.0136874
711.005	0.0138118
711.083	0.0139326
711.161	0.0143320
711.239	0.0143726
711.318	0.0146297
711.396	0.0146394
711.474	0.0149158
711.552	0.0151511
711.630	0.0152949
711.708	0.0154166
711.786	0.0155892
711.864	0.0157697
711.943	0.0158568
712.021	0.0161330
712.099	0.0162914
712.177	0.0163963
712.255	0.0165460
712.333	0.0165512
712.411	0.0165878
712.489	0.0165586
712.568	0.0164602
712.646	0.0165823
712.724	0.0163421
712.802	0.0163393
712.880	0.0161788
712.958	0.0158539
713.036	0.0156107
713.114	0.0153830
713.193	0.0151150
713.271	0.0148862
713.349	0.0146265
713.427	0.0142902
713.505	0.0141843
713.583	0.0139185
713.661	0.0137769
713.739	0.0137908
713.818	0.0136832
713.896	0.0137667
713.974	0.0139018
714.052	0.0140611
714.130	0.0141311
714.208	0.0142776
714.286	0.0145016
714.364	0.0146400
714.443	0.0146507
714.521	0.0147007
714.599	0.0149336
714.677	0.0150314
714.755	0.0150824
714.833	0.0152703
714.911	0.0153483
714.989	0.0153848
715.068	0.0154008
715.146	0.0152847
715.224	0.0156329
715.302	0.0156358
715.380	0.0155476
715.458	0.0155421
715.536	0.0154187
715.614	0.0153902
715.693	0.0151644
715.771	0.0152004
715.849	0.0149224
715.927	0.0147256
716.005	0.0145267
716.083	0.0145108
716.161	0.0142285
716.239	0.0142412
716.318	0.0140198
716.396	0.0139949
716.474	0.0139985
716.552	0.0139149
716.630	0.0137877
716.708	0.0139123
716.786	0.0140033
716.864	0.0140553
716.943	0.0141940
717.021	0.0142002
717.099	0.0142793
717.177	0.0143246
717.255	0.0144045
717.333	0.0143781
717.411	0.0144946
717.489	0.0145360
717.568	0.0144850
717.646	0.0144237
717.724	0.0146085
717.802	0.0147376
717.880	0.0146222
717.958	0.0147709
718.036	0.0148460
718.114	0.0148235
718.193	0.0149387
718.271	0.0148750
718.349	0.0149383
718.427	0.0150249
718.505	0.0150125
718.583	0.0151513
718.661	0.0152431
718.739	0.0153513
718.818	0.0152863
718.896	0.0153697
718.974	0.0154536
719.052	0.0154848
719.130	0.0154233
719.208	0.0155866
719.286	0.0154747
719.364	0.0153404
719.443	0.0154330
719.521	0.0154163
719.599	0.0152184
719.677	0.0152301
719.755	0.0152343
719.833	0.0151973
719.911	0.0153080
719.989	0.0153794
720.068	0.0154002
720.146	0.0153830
720.224	0.0155151
720.302	0.0156482
720.380	0.0157786
720.458	0.0157081
720.536	0.0158967
720.614	0.0160522
720.693	0.0161309
720.771	0.0161982
720.849	0.0162495
720.927	0.0162179
721.005	0.0160652
721.083	0.0157356
721.161	0.0154285
721.239	0.0152596
721.318	0.0150372
721.396	0.0145719
721.474	0.0141656
721.552	0.0137361
721.630	0.0135656
721.708	0.0131738
721.786	0.0128429
721.864	0.0125375
721.943	0.0122400
722.021	0.0122210
722.099	0.0121306
722.177	0.0120731
722.255	0.0121214
722.333	0.0122340
722.411	0.0125409
722.489	0.0127444
722.568	0.0129327
722.646	0.0133109
722.724	0.0136527
722.802	0.0141527
722.880	0.0144094
722.958	0.0147320
723.036	0.0150092
723.114	0.0154899
723.193	0.0156718
723.271	0.0160580
723.349	0.0164268
723.427	0.0165002
723.505	0.0166309
723.583	0.0167960
723.661	0.0168747
723.739	0.0168883
723.818	0.0169270
723.896	0.0168060
723.974	0.0166062
724.052	0.0164078
724.130	0.0161600
724.208	0.0159090
724.286	0.0156155
724.364	0.0154569
724.443	0.0152663
724.521	0.0149978
724.599	0.0148104
724.677	0.0146095
724.755	0.0144633
724.833	0.0145105
724.911	0.0144550
724.989	0.0145745
725.068	0.0145144
725.146	0.0145001
725.224	0.0144382
725.302	0.0146466
725.380	0.0147232
725.458	0.0148339
725.536	0.0149471
725.614	0.0150008
725.693	0.0151241
725.771	0.0152173
725.849	0.0152915
725.927	0.0154562
726.005	0.0155225
726.083	0.0156056
726.161	0.0155494
726.239	0.0154447
726.318	0.0155497
726.396	0.0152507
726.474	0.0150490
726.552	0.0149189
726.630	0.0147800
726.708	0.0145914
726.786	0.0143024
726.864	0.0142177
726.943	0.0140511
727.021	0.0138339
727.099	0.0138708
727.177	0.0138223
727.255	0.0138817
727.333	0.0137807
727.411	0.0137376
727.489	0.0138835
727.568	0.0138773
727.646	0.0142024
727.724	0.0143059
727.802	0.0141637
727.880	0.0142656
727.958	0.0146702
728.036	0.0146381
728.114	0.0146922
728.193	0.0147184
728.271	0.0148978
728.349	0.0150008
728.427	0.0150700
728.505	0.0149501
728.583	0.0149748
728.661	0.0149728
728.739	0.0150703
728.818	0.0151305
728.896	0.0151572
728.974	0.0151580
729.052	0.0150890
729.130	0.0152348
729.208	0.0153606
729.286	0.0152747
729.364	0.0153566
729.443	0.0154047
729.521	0.0152375
729.599	0.0153745
729.677	0.0152446
729.755	0.0151099
729.833	0.0149679
729.911	0.0148778
729.989	0.0147653
730.068	0.0147893
730.146	0.0145879
730.224	0.0143691
730.302	0.0144246
730.380	0.0142975
730.458	0.0142506
730.536	0.0144466
730.614	0.0143771
730.693	0.0144523
730.771	0.0145396
730.849	0.0145043
730.927	0.0148810
731.005	0.0149590
731.083	0.0151415
731.161	0.0153596
731.239	0.0155015
731.318	0.0154945
731.396	0.0156927
731.474	0.0159483
731.552	0.0160613
731.630	0.0161567
731.708	0.0160619
731.786	0.0160008
731.864	0.0158941
731.943	0.0158717
732.021	0.0157984
732.099	0.0156621
732.177	0.0154152
732.255	0.0153470
732.333	0.0150370
732.411	0.0150052
732.489	0.0147839
732.568	0.0147580
732.646	0.0145044
732.724	0.0145086
732.802	0.0143684
732.880	0.0143929
732.958	0.0143287
733.036	0.0143031
733.114	0.0143760
733.193	0.0142922
733.271	0.0142812
733.349	0.0142605
733.427	0.0142155
733.505	0.0142480
733.583	0.0139626
733.661	0.0139563
733.739	0.0139822
733.818	0.0138015
733.896	0.0137396
733.974	0.0135390
734.052	0.0136411
734.130	0.0135949
734.208	0.0136718
734.286	0.0138184
734.364	0.0138815
734.443	0.0140184
734.521	0.0139948
734.599	0.0143578
734.677	0.0146227
734.755	0.0147270
734.833	0.0148988
734.911	0.0152277
734.989	0.0153387
735.068	0.0155209
735.146	0.0156253
735.224	0.0157513
735.302	0.0157869
735.380	0.0156903
735.458	0.0156851
735.536	0.0155389
735.614	0.0155128
735.693	0.0153529
735.771	0.0152879
735.849	0.0151617
735.927	0.0148788
736.005	0.0149229
736.083	0.0148789
736.161	0.0147021
736.239	0.0147789
736.318	0.0147320
736.396	0.0147642
736.474	0.0147315
736.552	0.0148590
736.630	0.0148248
736.708	0.0146927
736.786	0.0148823
736.864	0.0149438
736.943	0.0148655
737.021	0.0151652
737.099	0.0152639
737.177	0.0153466
737.255	0.0152708
737.333	0.0153443
737.411	0.0152717
737.489	0.0152419
737.568	0.0151162
737.646	0.0151868
737.724	0.0152623
737.802	0.0151523
737.880	0.0152819
737.958	0.0151857
738.036	0.0152024
738.114	0.0151673
738.193	0.0151264
738.271	0.0152618
738.349	0.0151505
738.427	0.0152158
738.505	0.0150070
738.583	0.0150797
738.661	0.0150883
738.739	0.0150951
738.818	0.0149740
738.896	0.0149620
738.974	0.0148294
739.052	0.0147414
739.130	0.0147042
739.208	0.0142865
739.286	0.0141811
739.364	0.0141344
739.443	0.0140352
739.521	0.0139594
739.599	0.0138424
739.677	0.0138509
739.755	0.0137783
739.833	0.0137651
739.911	0.0138169
739.989	0.0139043
740.068	0.0138470
740.146	0.0139323
740.224	0.0141134
740.302	0.0142998
740.380	0.0144495
740.458	0.0147363
740.536	0.0148088
740.614	0.0147155
740.693	0.0148893
740.771	0.0150669
740.849	0.0151420
740.927	0.0151237
741.005	0.0150539
741.083	0.0151115
741.161	0.0151965
741.239	0.0151208
741.318	0.0150092
741.396	0.0150382
741.474	0.0149384
741.552	0.0148782
741.630	0.0148666
741.708	0.0146747
741.786	0.0146985
741.864	0.0146497
741.943	0.0145624
742.021	0.0146080
742.099	0.0147181
742.177	0.0145972
742.255	0.0146849
742.333	0.0148206
742.411	0.0150108
742.489	0.0148249
742.568	0.0149722
742.646	0.0152794
742.724	0.0154916
742.802	0.0153434
742.880	0.0153503
742.958	0.0157292
743.036	0.0157847
743.114	0.0158907
743.193	0.0159236
743.271	0.0159338
743.349	0.0158919
743.427	0.0158012
743.505	0.0159491
743.583	0.0158495
743.661	0.0157999
743.739	0.0157915
743.818	0.0156783
743.896	0.0155622
743.974	0.0155204
744.052	0.0154263
744.130	0.0152870
744.208	0.0152237
744.286	0.0150186
744.364	0.0149086
744.443	0.0149840
744.521	0.0146740
744.599	0.0145230
744.677	0.0143578
744.755	0.0142667
744.833	0.0141175
744.911	0.0138783
744.989	0.0138705
745.068	0.0138425
745.146	0.0138007
745.224	0.0135544
745.302	0.0136031
745.380	0.0135524
745.458	0.0135487
745.536	0.0136758
745.614	0.0137164
745.693	0.0138052
745.771	0.0139895
745.849	0.0140151
745.927	0.0142802
746.005	0.0143944
746.083	0.0145108
746.161	0.0145100
746.239	0.0147295
746.318	0.0146989
746.396	0.0148463
746.474	0.0149443
746.552	0.0149754
746.630	0.0150751
746.708	0.0150555
746.786	0.0149722
746.864	0.0150389
746.943	0.0150508
747.021	0.0150507
747.099	0.0149092
747.177	0.0151707
747.255	0.0152055
747.333	0.0150851
747.411	0.0152747
747.489	0.0151891
747.568	0.0149279
747.646	0.0151048
747.724	0.0152341
747.802	0.0151749
747.880	0.0150790
747.958	0.0152125
748.036	0.0150169
748.114	0.0150499
748.193	0.0151968
748.271	0.0150952
748.349	0.0151244
748.427	0.0154183
748.505	0.0153651
748.583	0.0154147
748.661	0.0153996
748.739	0.0153262
748.818	0.0155276
748.896	0.0154210
748.974	0.0156313
749.052	0.0156878
749.130	0.0155633
749.208	0.0155209
749.286	0.0154378
749.364	0.0155145
749.443	0.0153164
749.521	0.0151466
749.599	0.0152612
749.677	0.0149858
749.755	0.0150177
749.833	0.0149182
749.911	0.0147360
749.989	0.0147014
750.068	0.0147228
750.146	0.0145073
750.224	0.0145325
750.302	0.0143954
750.380	0.0147063
750.458	0.0144840
750.536	0.0143253
750.614	0.0144878
750.693	0.0146653
750.771	0.0145679
750.849	0.0146198
750.927	0.0145691
751.005	0.0144798
751.083	0.0146008
751.161	0.0146272
751.239	0.0146977
751.318	0.0147312
751.396	0.0147137
751.474	0.0148406
751.552	0.0147928
751.630	0.0147338
751.708	0.0147309
751.786	0.0147531
751.864	0.0147868
751.943	0.0146878
752.021	0.0148096
752.099	0.0147436
752.177	0.0149438
752.255	0.0150194
752.333	0.0150829
752.411	0.0148796
752.489	0.0147983
752.568	0.0150214
752.646	0.0148975
752.724	0.0150282
752.802	0.0149581
752.880	0.0150276
752.958	0.0148746
753.036	0.0148646
753.114	0.0148895
753.193	0.0149857
753.271	0.0150092
753.349	0.0148873
753.427	0.0149536
753.505	0.0148740
753.583	0.0147923
753.661	0.0147482
753.739	0.0148820
753.818	0.0148836
753.896	0.0147505
753.974	0.0149396
754.052	0.0148853
754.130	0.0149198
754.208	0.0150402
754.286	0.0148292
754.364	0.0149611
754.443	0.0150747
754.521	0.0149632
754.599	0.0150822
754.677	0.0151742
754.755	0.0151801
754.833	0.0151461
754.911	0.0150703
754.989	0.0150997
755.068	0.0151778
755.146	0.0150066
755.224	0.0149780
755.302	0.0151097
755.380	0.0151406
755.458	0.0150153
755.536	0.0149414
755.614	0.0148949
755.693	0.0148019
755.771	0.0149860
755.849	0.0150376
755.927	0.0150569
756.005	0.0149503
756.083	0.0149185
756.161	0.0151105
756.239	0.0151524
756.318	0.0152079
756.396	0.0150224
756.474	0.0151657
756.552	0.0150333
756.630	0.0151817
756.708	0.0151694
756.786	0.0152061
756.864	0.0152197
756.943	0.0150204
757.021	0.0150372
757.099	0.0152235
757.177	0.0150392
757.255	0.0150385
757.333	0.0149982
757.411	0.0147413
757.489	0.0146793
757.568	0.0146445
757.646	0.0146653
757.724	0.0145740
757.802	0.0145584
757.880	0.0144652
757.958	0.0145002
758.036	0.0145330
758.114	0.0142446
758.193	0.0143110
758.271	0.0144548
758.349	0.0143540
758.427	0.0144482
758.505	0.0143518
758.583	0.0144393
758.661	0.0143431
758.739	0.0142827
758.818	0.0144666
758.896	0.0143407
758.974	0.0142131
759.052	0.0144005
759.130	0.0143867
759.208	0.0143222
759.286	0.0144164
759.364	0.0143783
759.443	0.0145514
759.521	0.0144875
759.599	0.0145642
759.677	0.0145663
759.755	0.0145765
759.833	0.0146054
759.911	0.0146442
759.989	0.0148435
760.068	0.0149879
760.146	0.0150967
760.224	0.0150257
760.302	0.0152116
760.380	0.0152049
760.458	0.0154427
760.536	0.0153997
760.614	0.0154250
760.693	0.0154536
760.771	0.0155952
760.849	0.0154441
760.927	0.0155221
761.005	0.0155893
761.083	0.0154921
761.161	0.0154612
761.239	0.0155861
761.318	0.0153925
761.396	0.0153460
761.474	0.0153884
761.552	0.0152312
761.630	0.0151899
761.708	0.0151294
761.786	0.0149780
761.864	0.0150110
761.943	0.0149378
762.021	0.0149673
762.099	0.0149515
762.177	0.0146621
762.255	0.0147610
762.333	0.0146834
762.411	0.0147144
762.489	0.0146639
762.568	0.0147215
762.646	0.0145741
762.724	0.0144832
762.802	0.0143669
762.880	0.0143851
762.958	0.0144570
763.036	0.0144147
763.114	0.0144888
763.193	0.0143855
763.271	0.0142722
763.349	0.0143285
763.427	0.0145067
763.505	0.0144077
763.583	0.0143794
763.661	0.0143246
763.739	0.0142914
763.818	0.0145886
763.896	0.0144693
763.974	0.0144292
764.052	0.0145602
764.130	0.0146240
764.208	0.0144926
764.286	0.0146738
764.364	0.0147054
764.443	0.0147957
764.521	0.0148143
764.599	0.0148432
764.677	0.0148456
764.755	0.0149023
764.833	0.0150539
764.911	0.0150411
764.989	0.0150271
765.068	0.0151727
765.146	0.0151638
765.224	0.0151526
765.302	0.0152457
765.380	0.0151900
765.458	0.0151927
765.536	0.0152181
765.614	0.0151379
765.693	0.0150496
765.771	0.0151048
765.849	0.0149944
765.927	0.0150394
766.005	0.0149063
766.083	0.0149500
766.161	0.0149045
766.239	0.0148296
766.318	0.0148502
766.396	0.0148120
766.474	0.0146564
766.552	0.0146888
766.630	0.0148270
766.708	0.0149157
766.786	0.0148321
766.864	0.0149201
766.943	0.0148427
767.021	0.0147189
767.099	0.0148014
767.177	0.0146447
767.255	0.0148251
767.333	0.0147537
767.411	0.0146563
767.489	0.0144492
767.568	0.0146584
767.646	0.0145897
767.724	0.0146948
767.802	0.0145383
767.880	0.0146754
767.958	0.0146578
768.036	0.0147501
768.114	0.0146416
768.193	0.0146361
768.271	0.0147827
768.349	0.0146428
768.427	0.0148547
768.505	0.0147984
768.583	0.0148657
768.661	0.0148302
768.739	0.0149397
768.818	0.0148441
768.896	0.0149487
768.974	0.0150303
769.052	0.0150346
769.130	0.0149011
769.208	0.0148615
769.286	0.0150140
769.364	0.0150053
769.443	0.0150275
769.521	0.0150475
769.599	0.0150460
769.677	0.0149066
769.755	0.0149463
769.833	0.0148850
769.911	0.0149406
769.989	0.0149009
770.068	0.0148959
770.146	0.0147467
770.224	0.0148486
770.302	0.0148106
770.380	0.0147498
770.458	0.0147662
770.536	0.0147272
770.614	0.0147998
770.693	0.0146758
770.771	0.0146301
770.849	0.0147068
770.927	0.0147523
771.005	0.0147620
771.083	0.0148009
771.161	0.0147885
771.239	0.0147471
771.318	0.0149355
771.396	0.0149247
771.474	0.0150703
771.552	0.0149757
771.630	0.0148525
771.708	0.0149761
771.786	0.0149709
771.864	0.0148943
771.943	0.0150552
772.021	0.0149267
772.099	0.0149160
772.177	0.0148400
772.255	0.0148189
772.333	0.0149061
772.411	0.0148046
772.489	0.0147779
772.568	0.0147660
772.646	0.0147732
772.724	0.0147622
772.802	0.0145982
772.880	0.0144724
772.958	0.0146113
773.036	0.0146902
773.114	0.0147259
773.193	0.0145604
773.271	0.0144756
773.349	0.0146026
773.427	0.0146416
773.505	0.0147039
773.583	0.0147443
773.661	0.0145991
773.739	0.0146112
773.818	0.0147296
773.896	0.0147353
773.974	0.0147169
774.052	0.0147108
774.130	0.0147579
774.208	0.0147694
774.286	0.0146995
774.364	0.0147663
774.443	0.0148983
774.521	0.0149598
774.599	0.0148132
774.677	0.0149165
774.755	0.0150799
774.833	0.0148708
774.911	0.0151059
774.989	0.0150225
775.068	0.0150736
775.146	0.0150643
775.224	0.0150701
775.302	0.0150063
775.380	0.0151362
775.458	0.0152040
775.536	0.0150937
775.614	0.0152750
775.693	0.0153065
775.771	0.0152615
775.849	0.0151315
775.927	0.0152081
776.005	0.0151122
776.083	0.0151216
776.161	0.0151256
776.239	0.0150249
776.318	0.0149831
776.396	0.0149254
776.474	0.0148567
776.552	0.0147578
776.630	0.0147245
776.708	0.0148548
776.786	0.0147125
776.864	0.0146490
776.943	0.0146033
777.021	0.0146777
777.099	0.0146407
777.177	0.0145945
777.255	0.0144177
777.333	0.0146140
777.411	0.0145746
777.489	0.0145359
777.568	0.0146889
777.646	0.0146734
777.724	0.0145903
777.802	0.0145084
777.880	0.0144333
777.958	0.0145434
778.036	0.0145119
778.114	0.0146003
778.193	0.0146964
778.271	0.0145951
778.349	0.0145888
778.427	0.0146722
778.505	0.0146419
778.583	0.0147208
778.661	0.0146423
778.739	0.0146432
778.818	0.0147329
778.896	0.0147071
778.974	0.0147530
779.052	0.0147583
779.130	0.0147964
779.208	0.0149752
779.286	0.0150587
779.364	0.0150412
779.443	0.0149570
779.521	0.0149837
779.599	0.0152154
779.677	0.0151379
779.755	0.0152393
779.833	0.0151073
779.911	0.0151565
779.989	0.0152328
780.068	0.0152463
780.146	0.0152477
780.224	0.0152550
780.302	0.0152337
780.380	0.0152295
780.458	0.0150114
780.536	0.0152531
780.614	0.0151852
780.693	0.0150869
780.771	0.0151502
780.849	0.0148553
780.927	0.0148473
781.005	0.0148438
781.083	0.0148752
781.161	0.0148881
781.239	0.0148291
781.318	0.0147945
781.396	0.0146618
781.474	0.0147717
781.552	0.0145470
781.630	0.0145310
781.708	0.0147110
781.786	0.0146780
781.864	0.0146326
781.943	0.0146067
782.021	0.0145418
782.099	0.0145003
782.177	0.0146561
782.255	0.0144945
782.333	0.0146112
782.411	0.0144531
782.489	0.0145614
782.568	0.0146320
782.646	0.0145482
782.724	0.0146185
782.802	0.0145683
782.880	0.0146345
782.958	0.0148004
783.036	0.0146714
783.114	0.0146320
783.193	0.0147955
783.271	0.0148674
783.349	0.0148154
783.427	0.0149651
783.505	0.0150733
783.583	0.0148631
783.661	0.0148360
783.739	0.0149872
783.818	0.0151086
783.896	0.0151077
783.974	0.0149712
784.052	0.0150539
784.130	0.0152117
784.208	0.0150032
784.286	0.0151196
784.364	0.0151811
784.443	0.0150938
784.521	0.0149609
784.599	0.0148983
784.677	0.0149596
784.755	0.0146674
784.833	0.0149614
784.911	0.0149199
784.989	0.0148048
785.068	0.0147417
785.146	0.0147349
785.224	0.0147591
785.302	0.0147518
785.380	0.0146222
785.458	0.0145882
785.536	0.0147366
785.614	0.0146976
785.693	0.0146408
785.771	0.0144852
785.849	0.0145644
785.927	0.0146725
786.005	0.0145288
786.083	0.0145097
786.161	0.0146665
786.239	0.0147114
786.318	0.0146896
786.396	0.0146214
786.474	0.0147129
786.552	0.0148170
786.630	0.0147529
786.708	0.0148114
786.786	0.0147459
786.864	0.0150163
786.943	0.0149362
787.021	0.0149326
787.099	0.0149802
787.177	0.0149117
787.255	0.0149690
787.333	0.0148992
787.411	0.0150049
787.489	0.0149468
787.568	0.0148985
787.646	0.0149538
787.724	0.0148940
787.802	0.0148637
787.880	0.0148351
787.958	0.0148635
788.036	0.0148879
788.114	0.0147449
788.193	0.0146787
788.271	0.0147437
788.349	0.0146618
788.427	0.0147604
788.505	0.0148909
788.583	0.0146450
788.661	0.0146003
788.739	0.0146514
788.818	0.0146955
788.896	0.0147063
788.974	0.0145793
789.052	0.0147382
789.130	0.0148217
789.208	0.0146239
789.286	0.0146510
789.364	0.0148660
789.443	0.0147125
789.521	0.0147086
789.599	0.0146858
789.677	0.0148489
789.755	0.0148741
789.833	0.0148477
789.911	0.0147804
789.989	0.0149557
790.068	0.0150970
790.146	0.0149413
790.224	0.0150529
790.302	0.0152469
790.380	0.0152667
790.458	0.0152723
790.536	0.0152220
790.614	0.0150753
790.693	0.0151905
790.771	0.0150980
790.849	0.0151424
790.927	0.0150219
791.005	0.0147678
791.083	0.0147736
791.161	0.0147327
791.239	0.0148306
791.318	0.0146242
791.396	0.0143884
791.474	0.0144227
791.552	0.0143090
791.630	0.0143236
791.708	0.0142313
791.786	0.0142430
791.864	0.0144012
791.943	0.0142737
792.021	0.0142764
792.099	0.0143584
792.177	0.0144842
792.255	0.0145313
792.333	0.0145459
792.411	0.0147291
792.489	0.0145473
792.568	0.0146773
792.646	0.0149658
792.724	0.0150268
792.802	0.0150851
792.880	0.0150782
792.958	0.0152110
793.036	0.0154430
793.114	0.0153927
793.193	0.0153861
793.271	0.0155003
793.349	0.0156176
793.427	0.0155524
793.505	0.0156444
793.583	0.0156789
793.661	0.0156211
793.739	0.0155175
793.818	0.0154498
793.896	0.0156750
793.974	0.0153941
794.052	0.0152528
794.130	0.0152473
794.208	0.0151680
794.286	0.0150322
794.364	0.0148595
794.443	0.0148161
794.521	0.0148451
794.599	0.0145959
794.677	0.0144632
794.755	0.0142722
794.833	0.0141463
794.911	0.0141441
794.989	0.0140569
795.068	0.0139126
795.146	0.0138062
795.224	0.0137790
795.302	0.0136715
795.380	0.0137330
795.458	0.0135998
795.536	0.0136339
795.614	0.0137886
795.693	0.0136468
795.771	0.0138019
795.849	0.0139015
795.927	0.0139784
796.005	0.0140648
796.083	0.0144876
796.161	0.0144614
796.239	0.0146421
796.318	0.0148207
796.396	0.0150627
796.474	0.0150199
796.552	0.0152829
796.630	0.0155153
796.708	0.0156110
796.786	0.0156670
796.864	0.0159570
796.943	0.0160492
797.021	0.0161271
797.099	0.0163195
797.177	0.0164561
797.255	0.0163679
797.333	0.0163234
797.411	0.0160800
797.489	0.0162723
797.568	0.0161726
797.646	0.0159814
797.724	0.0157790
797.802	0.0156468
797.880	0.0154511
797.958	0.0152291
798.036	0.0149533
798.114	0.0148612
798.193	0.0146870
798.271	0.0144543
798.349	0.0141429
798.427	0.0139673
798.505	0.0138583
798.583	0.0137411
798.661	0.0135806
798.739	0.0134276
798.818	0.0135227
798.896	0.0134515
798.974	0.0134620
799.052	0.0135986
799.130	0.0135635
799.208	0.0136118
799.286	0.0136045
799.364	0.0137833
799.443	0.0140446
799.521	0.0142591
799.599	0.0142273
799.677	0.0142886
799.755	0.0144210
799.833	0.0147108
799.911	0.0148612
799.989	0.0149941
800.068	0.0151476
800.146	0.0152733
800.224	0.0152444
800.302	0.0155048
800.380	0.0155169
800.458	0.0155668
800.536	0.0156059
800.614	0.0157804
800.693	0.0158743
800.771	0.0159612
800.849	0.0160663
800.927	0.0160497
801.005	0.0160748
801.083	0.0161916
801.161	0.0160461
801.239	0.0159367
801.318	0.0158837
801.396	0.0157501
801.474	0.0155889
801.552	0.0154000
801.630	0.0154440
801.708	0.0152936
801.786	0.0150363
801.864	0.0148093
801.943	0.0147077
802.021	0.0144489
802.099	0.0142867
802.177	0.0141991
802.255	0.0141795
802.333	0.0138492
802.411	0.0138624
802.489	0.0137976
802.568	0.0137760
802.646	0.0135601
802.724	0.0136602
802.802	0.0137553
802.880	0.0137276
802.958	0.0137382
803.036	0.0139362
803.114	0.0140253
803.193	0.0140295
803.271	0.0141306
803.349	0.0144434
803.427	0.0144285
803.505	0.0144519
803.583	0.0145577
803.661	0.0147549
803.739	0.0148929
803.818	0.0148777
803.896	0.0150478
803.974	0.0150479
804.052	0.0151965
804.130	0.0150055
804.208	0.0152508
804.286	0.0153408
804.364	0.0154421
804.443	0.0154462
804.521	0.0154359
804.599	0.0153769
804.677	0.0155044
804.755	0.0155454
804.833	0.0155027
804.911	0.0153791
804.989	0.0154446
805.068	0.0153608
805.146	0.0153500
805.224	0.0154172
805.302	0.0153952
805.380	0.0153345
805.458	0.0152395
805.536	0.0153603
805.614	0.0151234
805.693	0.0150671
805.771	0.0151606
805.849	0.0150174
805.927	0.0150720
806.005	0.0148839
806.083	0.0148629
806.161	0.0149710
806.239	0.0148209
806.318	0.0148853
806.396	0.0147086
806.474	0.0146115
806.552	0.0145856
806.630	0.0145930
806.708	0.0147012
806.786	0.0145959
806.864	0.0146110
806.943	0.0145241
807.021	0.0144513
807.099	0.0143641
807.177	0.0144313
807.255	0.0143121
807.333	0.0142846
807.411	0.0143559
807.489	0.0143633
807.568	0.0142490
807.646	0.0143755
807.724	0.0143990
807.802	0.0143421
807.880	0.0142886
807.958	0.0143513
808.036	0.0143555
808.114	0.0144790
808.193	0.0143906
808.271	0.0146089
808.349	0.0146365
808.427	0.0147014
808.505	0.0148296
808.583	0.0149072
808.661	0.0149237
808.739	0.0150083
808.818	0.0151103
808.896	0.0150285
808.974	0.0151614
809.052	0.0153725
809.130	0.0154238
809.208	0.0152989
809.286	0.0153579
809.364	0.0153677
809.443	0.0154198
809.521	0.0152369
809.599	0.0151746
809.677	0.0152135
809.755	0.0151598
809.833	0.0151095
809.911	0.0151907
809.989	0.0151087
810.068	0.0149831
810.146	0.0149625
810.224	0.0147568
810.302	0.0149390
810.380	0.0149485
810.458	0.0148398
810.536	0.0147385
810.614	0.0147684
810.693	0.0147038
810.771	0.0147069
810.849	0.0147157
810.927	0.0146779
811.005	0.0145571
811.083	0.0145914
811.161	0.0147032
811.239	0.0148067
811.318	0.0146932
811.396	0.0145853
811.474	0.0148379
811.552	0.0147346
811.630	0.0147398
811.708	0.0148757
811.786	0.0148050
811.864	0.0147192
811.943	0.0148396
812.021	0.0146781
812.099	0.0147086
812.177	0.0148523
812.255	0.0148654
812.333	0.0148075
812.411	0.0147247
812.489	0.0145275
812.568	0.0146014
812.646	0.0146528
812.724	0.0145940
812.802	0.0145901
812.880	0.0145918
812.958	0.0146368
813.036	0.0147588
813.114	0.0147134
813.193	0.0146389
813.271	0.0148268
813.349	0.0148567
813.427	0.0148682
813.505	0.0149118
813.583	0.0148997
813.661	0.0148025
813.739	0.0148916
813.818	0.0149886
813.896	0.0148611
813.974	0.0150009
814.052	0.0150135
814.130	0.0149632
814.208	0.0149924
814.286	0.0150206
814.364	0.0151244
814.443	0.0149554
814.521	0.0151073
814.599	0.0151136
814.677	0.0149823
814.755	0.0150536
814.833	0.0150391
814.911	0.0148495
814.989	0.0148662
815.068	0.0150665
815.146	0.0149743
815.224	0.0148995
815.302	0.0148683
815.380	0.0147240
815.458	0.0148013
815.536	0.0148318
815.614	0.0148079
815.693	0.0148205
815.771	0.0146896
815.849	0.0147791
815.927	0.0147347
816.005	0.0147969
816.083	0.0148814
816.161	0.0148301
816.239	0.0147350
816.318	0.0147785
816.396	0.0148441
816.474	0.0147009
816.552	0.0146838
816.630	0.0148967
816.708	0.0149857
816.786	0.0148650
816.864	0.0147850
816.943	0.0147874
817.021	0.0148505
817.099	0.0150144
817.177	0.0150955
817.255	0.0149371
817.333	0.0149504
817.411	0.0149802
817.489	0.0150479
817.568	0.0150984
817.646	0.0149922
817.724	0.0150697
817.802	0.0151439
817.880	0.0149814
817.958	0.0148921
818.036	0.0150487
818.114	0.0148734
818.193	0.0148133
818.271	0.0147691
818.349	0.0148087
818.427	0.0148640
818.505	0.0147422
818.583	0.0147054
818.661	0.0145487
818.739	0.0144659
818.818	0.0146231
818.896	0.0145411
818.974	0.0145576
819.052	0.0145062
819.130	0.0143694
819.208	0.0143466
819.286	0.0144707
819.364	0.0143929
819.443	0.0144852
819.521	0.0145135
819.599	0.0145717
819.677	0.0147054
819.755	0.0146628
819.833	0.0147036
819.911	0.0147837
819.989	0.0149002
820.068	0.0147041
820.146	0.0148596
820.224	0.0149162
820.302	0.0149295
820.380	0.0149112
820.458	0.0150357
820.536	0.0151868
820.614	0.0151548
820.693	0.0151107
820.771	0.0151704
820.849	0.0151559
820.927	0.0151800
821.005	0.0152861
821.083	0.0151449
821.161	0.0151302
821.239	0.0152768
821.318	0.0151771
821.396	0.0151999
821.474	0.0152948
821.552	0.0151437
821.630	0.0151409
821.708	0.0150743
821.786	0.0150965
821.864	0.0149500
821.943	0.0149923
822.021	0.0149734
822.099	0.0148582
822.177	0.0149334
822.255	0.0149418
822.333	0.0147479
822.411	0.0147398
822.489	0.0148503
822.568	0.0147771
822.646	0.0147988
822.724	0.0148260
822.802	0.0148070
822.880	0.0147664
822.958	0.0148585
823.036	0.0149310
823.114	0.0148017
823.193	0.0149651
823.271	0.0148087
823.349	0.0148454
823.427	0.0147868
823.505	0.0146887
823.583	0.0147834
823.661	0.0147242
823.739	0.0147649
823.818	0.0147163
823.896	0.0146117
823.974	0.0145480
824.052	0.0146468
824.130	0.0144041
824.208	0.0146458
824.286	0.0145361
824.364	0.0145211
824.443	0.0145750
824.521	0.0143817
824.599	0.0144786
824.677	0.0145313
824.755	0.0146424
824.833	0.0146667
824.911	0.0146605
824.989	0.0148231
825.068	0.0148766
825.146	0.0147382
825.224	0.0148148
825.302	0.0149546
825.380	0.0150516
825.458	0.0149719
825.536	0.0151323
825.614	0.0150925
825.693	0.0151144
825.771	0.0153577
825.849	0.0152197
825.927	0.0151474
826.005	0.0151965
826.083	0.0153675
826.161	0.0152975
826.239	0.0152961
826.318	0.0153458
826.396	0.0154209
826.474	0.0153353
826.552	0.0152828
826.630	0.0152575
826.708	0.0152906
826.786	0.0153075
826.864	0.0152083
826.943	0.0150565
827.021	0.0150512
827.099	0.0151473
827.177	0.0150827
827.255	0.0149612
827.333	0.0150184
827.411	0.0149167
827.489	0.0148901
827.568	0.0148464
827.646	0.0147136
827.724	0.0147195
827.802	0.0145469
827.880	0.0145908
827.958	0.0145589
828.036	0.0145212
828.114	0.0144852
828.193	0.0144785
828.271	0.0145759
828.349	0.0146078
828.427	0.0145370
828.505	0.0146319
828.583	0.0145114
828.661	0.0145403
828.739	0.0146412
828.818	0.0145776
828.896	0.0146441
828.974	0.0145949
829.052	0.0145935
829.130	0.0147936
829.208	0.0147197
829.286	0.0147446
829.364	0.0146339
829.443	0.0147009
829.521	0.0146906
829.599	0.0145924
829.677	0.0148163
829.755	0.0148363
829.833	0.0148167
829.911	0.0147829
829.989	0.0147871
830.068	0.0149348
830.146	0.0149913
830.224	0.0149542
830.302	0.0149948
830.380	0.0150813
830.458	0.0152458
830.536	0.0151157
830.614	0.0152389
830.693	0.0151559
830.771	0.0152080
830.849	0.0153935
830.927	0.0152185
831.005	0.0153428
831.083	0.0154009
831.161	0.0153542
831.239	0.0151937
831.318	0.0151934
831.396	0.0151611
831.474	0.0151633
831.552	0.0151386
831.630	0.0151150
831.708	0.0150299
831.786	0.0148414
831.864	0.0148500
831.943	0.0148289
832.021	0.0147955
832.099	0.0146198
832.177	0.0145299
832.255	0.0146255
832.333	0.0145327
832.411	0.0144337
832.489	0.0144173
832.568	0.0143375
832.646	0.0141749
832.724	0.0142386
832.802	0.0142498
832.880	0.0143172
832.958	0.0143382
833.036	0.0142454
833.114	0.0142376
833.193	0.0143580
833.271	0.0143861
833.349	0.0143968
833.427	0.0144527
833.505	0.0146542
833.583	0.0146841
833.661	0.0147037
833.739	0.0149023
833.818	0.0150537
833.896	0.0150002
833.974	0.0150686
834.052	0.0152164
834.130	0.0153843
834.208	0.0153661
834.286	0.0153706
834.364	0.0155882
834.443	0.0155894
834.521	0.0154613
834.599	0.0155166
834.677	0.0155391
834.755	0.0155966
834.833	0.0155318
834.911	0.0154762
834.989	0.0155318
835.068	0.0154646
835.146	0.0154052
835.224	0.0151474
835.302	0.0151878
835.380	0.0151074
835.458	0.0149944
835.536	0.0149570
835.614	0.0148190
835.693	0.0146392
835.771	0.0146603
835.849	0.0146411
835.927	0.0143873
836.005	0.0144786
836.083	0.0145754
836.161	0.0144233
836.239	0.0144536
836.318	0.0144459
836.396	0.0143227
836.474	0.0142546
836.552	0.0142249
836.630	0.0144282
836.708	0.0143226
836.786	0.0142249
836.864	0.0143813
836.943	0.0142487
837.021	0.0142344
837.099	0.0142040
837.177	0.0143945
837.255	0.0144676
837.333	0.0143537
837.411	0.0145603
837.489	0.0147395
837.568	0.0147134
837.646	0.0146333
837.724	0.0148470
837.802	0.0148585
837.880	0.0148407
837.958	0.0150039
838.036	0.0149492
838.114	0.0150648
838.193	0.0150615
838.271	0.0151938
838.349	0.0151987
838.427	0.0153203
838.505	0.0154160
838.583	0.0153652
838.661	0.0153687
838.739	0.0154578
838.818	0.0154324
838.896	0.0154571
838.974	0.0153848
839.052	0.0152397
839.130	0.0153683
839.208	0.0154199
839.286	0.0152587
839.364	0.0151939
839.443	0.0151920
839.521	0.0151137
839.599	0.0150053
839.677	0.0149274
839.755	0.0147944
839.833	0.0148296
839.911	0.0146874
839.989	0.0146461
840.068	0.0145524
840.146	0.0145214
840.224	0.0144260
840.302	0.0142619
840.380	0.0142126
840.458	0.0141679
840.536	0.0142613
840.614	0.0141035
840.693	0.0140746
840.771	0.0142644
840.849	0.0140268
840.927	0.0140703
841.005	0.0142023
841.083	0.0143053
841.161	0.0142327
841.239	0.0143253
841.318	0.0142620
841.396	0.0145309
841.474	0.0144191
841.552	0.0145232
841.630	0.0145990
841.708	0.0147501
841.786	0.0147007
841.864	0.0146835
841.943	0.0148961
842.021	0.0151363
842.099	0.0151611
842.177	0.0150811
842.255	0.0152075
842.333	0.0152654
842.411	0.0153142
842.489	0.0154037
842.568	0.0153334
842.646	0.0153458
842.724	0.0154476
842.802	0.0154014
842.880	0.0154814
842.958	0.0154391
843.036	0.0153365
843.114	0.0154279
843.193	0.0153654
843.271	0.0153437
843.349	0.0152650
843.427	0.0152490
843.505	0.0152621
843.583	0.0151685
843.661	0.0150576
843.739	0.0149656
843.818	0.0150182
843.896	0.0149890
843.974	0.0147934
844.052	0.0147207
844.130	0.0147237
844.208	0.0146079
844.286	0.0145189
844.364	0.0142072
844.443	0.0144402
844.521	0.0142854
844.599	0.0141515
844.677	0.0140414
844.755	0.0139995
844.833	0.0140334
844.911	0.0141199
844.989	0.0140532
845.068	0.0138581
845.146	0.0137389
845.224	0.0140688
845.302	0.0140398
845.380	0.0140296
845.458	0.0141940
845.536	0.0142372
845.614	0.0143299
845.693	0.0144213
845.771	0.0146734
845.849	0.0147240
845.927	0.0148098
846.005	0.0149168
846.083	0.0150243
846.161	0.0151704
846.239	0.0152556
846.318	0.0153776
846.396	0.0154582
846.474	0.0154082
846.552	0.0156117
846.630	0.0156676
846.708	0.0157800
846.786	0.0157635
846.864	0.0159224
846.943	0.0158331
847.021	0.0158964
847.099	0.0157742
847.177	0.0158215
847.255	0.0157863
847.333	0.0158579
847.411	0.0156541
847.489	0.0155366
847.568	0.0155125
847.646	0.0153503
847.724	0.0153261
847.802	0.0151907
847.880	0.0151617
847.958	0.0149407
848.036	0.0147704
848.114	0.0147482
848.193	0.0145939
848.271	0.0144578
848.349	0.0143418
848.427	0.0143967
848.505	0.0142593
848.583	0.0141822
848.661	0.0141279
848.739	0.0141013
848.818	0.0140595
848.896	0.0140827
848.974	0.0140239
849.052	0.0139750
849.130	0.0139491
849.208	0.0139368
849.286	0.0139421
849.364	0.0139800
849.443	0.0140457
849.521	0.0140546
849.599	0.0140230
849.677	0.0141446
849.755	0.0141831
849.833	0.0143645
849.911	0.0143075
849.989	0.0145375
850.068	0.0146312
850.146	0.0145380
850.224	0.0147562
850.302	0.0149231
850.380	0.0149154
850.458	0.0150218
850.536	0.0151524
850.614	0.0151677
850.693	0.0153754
850.771	0.0153542
850.849	0.0153251
850.927	0.0155197
851.005	0.0154434
851.083	0.0154347
851.161	0.0156425
851.239	0.0155495
851.318	0.0156005
851.396	0.0157429
851.474	0.0156281
851.552	0.0156606
851.630	0.0156511
851.708	0.0154454
851.786	0.0156011
851.864	0.0154964
851.943	0.0154693
852.021	0.0153545
852.099	0.0154147
852.177	0.0153812
852.255	0.0151095
852.333	0.0151980
852.411	0.0153088
852.489	0.0150733
852.568	0.0150082
852.646	0.0149685
852.724	0.0149734
852.802	0.0148271
852.880	0.0148192
852.958	0.0147335
853.036	0.0148217
853.114	0.0146535
853.193	0.0146523
853.271	0.0145609
853.349	0.0145880
853.427	0.0144465
853.505	0.0143369
853.583	0.0144123
853.661	0.0144158
853.739	0.0142465
853.818	0.0143459
853.896	0.0144047
853.974	0.0141664
854.052	0.0140583
854.130	0.0140369
854.208	0.0140208
854.286	0.0141467
854.364	0.0141472
854.443	0.0141261
854.521	0.0141676
854.599	0.0142352
854.677	0.0141921
854.755	0.0142106
854.833	0.0142139
854.911	0.0144604
854.989	0.0143223
855.068	0.0143710
855.146	0.0145422
855.224	0.0145777
855.302	0.0146288
855.380	0.0146148
855.458	0.0148058
855.536	0.0147764
855.614	0.0148255
855.693	0.0148864
855.771	0.0150130
855.849	0.0151549
855.927	0.0152393
856.005	0.0151346
856.083	0.0152104
856.161	0.0154838
856.239	0.0155579
856.318	0.0153901
856.396	0.0155543
856.474	0.0156384
856.552	0.0155700
856.630	0.0154276
856.708	0.0155090
856.786	0.0155213
856.864	0.0154944
856.943	0.0154079
857.021	0.0154404
857.099	0.0153939
857.177	0.0152698
857.255	0.0152802
857.333	0.0152337
857.411	0.0151380
857.489	0.0149609
857.568	0.0150448
857.646	0.0150418
857.724	0.0149299
857.802	0.0148047
857.880	0.0149332
857.958	0.0148887
858.036	0.0147011
858.114	0.0147202
858.193	0.0146671
858.271	0.0145661
858.349	0.0145107
858.427	0.0145600
858.505	0.0144672
858.583	0.0144039
858.661	0.0145512
858.739	0.0144420
858.818	0.0142715
858.896	0.0143641
858.974	0.0143298
859.052	0.0142854
859.130	0.0142847
859.208	0.0143551
859.286	0.0143430
859.364	0.0144048
859.443	0.0143987
859.521	0.0144798
859.599	0.0144884
859.677	0.0144491
859.755	0.0144887
859.833	0.0144755
859.911	0.0145790
859.989	0.0144582
860.068	0.0146574
860.146	0.0147294
860.224	0.0147704
860.302	0.0147551
860.380	0.0147098
860.458	0.0147332
860.536	0.0148407
860.614	0.0148913
860.693	0.0147763
860.771	0.0149295
860.849	0.0147908
860.927	0.0149862
861.005	0.0151138
861.083	0.0149724
861.161	0.0149867
861.239	0.0151090
861.318	0.0151250
861.396	0.0150316
861.474	0.0150706
861.552	0.0151283
861.630	0.0151070
861.708	0.0150172
861.786	0.0151057
861.864	0.0151070
861.943	0.0151002
862.021	0.0150189
862.099	0.0147984
862.177	0.0149815
862.255	0.0149989
862.333	0.0150235
862.411	0.0149048
862.489	0.0149612
862.568	0.0149281
862.646	0.0148984
862.724	0.0148453
862.802	0.0147565
862.880	0.0147781
862.958	0.0146824
863.036	0.0147527
863.114	0.0146082
863.193	0.0145521
863.271	0.0145919
863.349	0.0147251
863.427	0.0146303
863.505	0.0146854
863.583	0.0146805
863.661	0.0147305
863.739	0.0144860
863.818	0.0146288
863.896	0.0145990
863.974	0.0146964
864.052	0.0147416
864.130	0.0147044
864.208	0.0145795
864.286	0.0145717
864.364	0.0147106
864.443	0.0146238
864.521	0.0147008
864.599	0.0146507
864.677	0.0146994
864.755	0.0147247
864.833	0.0146629
864.911	0.0147355
864.989	0.0148608
865.068	0.0145097
865.146	0.0147246
865.224	0.0148701
865.302	0.0146884
865.380	0.0148395
865.458	0.0146308
865.536	0.0147517
865.614	0.0147654
865.693	0.0148148
865.771	0.0149486
865.849	0.0147276
865.927	0.0147736
866.005	0.0148276
866.083	0.0149903
866.161	0.0149380
866.239	0.0148713
866.318	0.0149662
866.396	0.0149844
866.474	0.0148608
866.552	0.0150530
866.630	0.0149274
866.708	0.0150768
866.786	0.0150734
866.864	0.0151595
866.943	0.0150111
867.021	0.0149477
867.099	0.0151503
867.177	0.0150045
867.255	0.0148575
867.333	0.0149423
867.411	0.0147983
867.489	0.0147449
867.568	0.0147714
867.646	0.0147376
867.724	0.0146539
867.802	0.0146557
867.880	0.0147389
867.958	0.0145461
868.036	0.0145760
868.114	0.0145708
868.193	0.0145071
868.271	0.0145898
868.349	0.0145975
868.427	0.0145295
868.505	0.0143896
868.583	0.0144237
868.661	0.0147276
868.739	0.0145953
868.818	0.0146346
868.896	0.0146535
868.974	0.0148124
869.052	0.0146855
869.130	0.0146770
869.208	0.0146755
869.286	0.0148286
869.364	0.0147822
869.443	0.0148487
869.521	0.0148974
869.599	0.0148803
869.677	0.0149412
869.755	0.0150818
869.833	0.0150206
869.911	0.0151767
869.989	0.0151346
870.068	0.0150182
870.146	0.0150582
870.224	0.0150375
870.302	0.0149010
870.380	0.0150651
870.458	0.0150706
870.536	0.0151631
870.614	0.0151504
870.693	0.0149864
870.771	0.0150299
870.849	0.0150091
870.927	0.0150142
871.005	0.0149851
871.083	0.0149180
871.161	0.0148933
871.239	0.0148714
871.318	0.0147929
871.396	0.0148178
871.474	0.0148158
871.552	0.0147051
871.630	0.0145227
871.708	0.0147903
871.786	0.0148135
871.864	0.0147232
871.943	0.0146568
872.021	0.0146437
872.099	0.0146400
872.177	0.0146893
872.255	0.0145783
872.333	0.0146707
872.411	0.0147459
872.489	0.0145961
872.568	0.0146255
872.646	0.0145651
872.724	0.0145223
872.802	0.0145628
872.880	0.0146324
872.958	0.0146825
873.036	0.0145698
873.114	0.0146748
873.193	0.0145663
873.271	0.0146391
873.349	0.0145603
873.427	0.0144903
873.505	0.0146647
873.583	0.0147541
873.661	0.0148081
873.739	0.0147924
873.818	0.0148061
873.896	0.0147078
873.974	0.0145993
874.052	0.0148373
874.130	0.0148460
874.208	0.0149725
874.286	0.0149065
874.364	0.0149789
874.443	0.0148189
874.521	0.0148747
874.599	0.0148225
874.677	0.0148749
874.755	0.0148876
874.833	0.0148290
874.911	0.0149867
874.989	0.0150012
875.068	0.0149419
875.146	0.0149881
875.224	0.0150678
875.302	0.0149774
875.380	0.0150649
875.458	0.0151624
875.536	0.0149968
875.614	0.0152847
875.693	0.0151389
875.771	0.0152551
875.849	0.0152239
875.927	0.0150656
876.005	0.0151438
876.083	0.0151185
876.161	0.0149665
876.239	0.0150539
876.318	0.0150717
876.396	0.0149384
876.474	0.0149545
876.552	0.0148883
876.630	0.0149824
876.708	0.0149640
876.786	0.0148870
876.864	0.0148045
876.943	0.0148759
877.021	0.0147259
877.099	0.0146907
877.177	0.0146961
877.255	0.0146468
877.333	0.0148370
877.411	0.0147718
877.489	0.0145446
877.568	0.0145457
877.646	0.0144907
877.724	0.0144424
877.802	0.0144645
877.880	0.0145304
877.958	0.0146101
878.036	0.0144460
878.114	0.0144144
878.193	0.0143469
878.271	0.0145220
878.349	0.0145453
878.427	0.0145252
878.505	0.0144827
878.583	0.0145279
878.661	0.0145921
878.739	0.0145948
878.818	0.0145028
878.896	0.0147056
878.974	0.0148244
879.052	0.0147776
879.130	0.0147250
879.208	0.0146972
879.286	0.0148587
879.364	0.0146915
879.443	0.0147816
879.521	0.0148674
879.599	0.0149812
879.677	0.0151035
879.755	0.0149658
879.833	0.0149792
879.911	0.0150371
879.989	0.0152931
880.068	0.0152562
880.146	0.0152164
880.224	0.0152572
880.302	0.0151430
880.380	0.0152298
880.458	0.0152775
880.536	0.0152744
880.614	0.0151481
880.693	0.0151142
880.771	0.0151270
880.849	0.0150111
880.927	0.0150327
881.005	0.0149863
881.083	0.0150429
881.161	0.0150771
881.239	0.0148149
881.318	0.0148103
881.396	0.0148061
881.474	0.0147768
881.552	0.0148721
881.630	0.0147956
881.708	0.0147324
881.786	0.0147630
881.864	0.0146138
881.943	0.0146346
882.021	0.0147102
882.099	0.0147858
882.177	0.0147416
882.255	0.0146867
882.333	0.0148109
882.411	0.0147762
882.489	0.0146933
882.568	0.0146589
882.646	0.0147863
882.724	0.0147329
882.802	0.0147359
882.880	0.0146832
882.958	0.0146379
883.036	0.0146185
883.114	0.0147176
883.193	0.0146836
883.271	0.0147058
883.349	0.0147222
883.427	0.0145936
883.505	0.0146785
883.583	0.0147074
883.661	0.0147114
883.739	0.0147633
883.818	0.0146106
883.896	0.0146679
883.974	0.0148492
884.052	0.0149506
884.130	0.0148897
884.208	0.0148019
884.286	0.0149862
884.364	0.0149952
884.443	0.0149251
884.521	0.0149144
884.599	0.0151208
884.677	0.0150623
884.755	0.0149677
884.833	0.0150548
884.911	0.0150923
884.989	0.0150568
885.068	0.0151986
885.146	0.0149990
885.224	0.0149233
885.302	0.0150092
885.380	0.0148666
885.458	0.0147072
885.536	0.0145764
885.614	0.0145071
885.693	0.0144473
885.771	0.0145140
885.849	0.0143552
885.927	0.0142863
886.005	0.0144496
886.083	0.0142321
886.161	0.0144007
886.239	0.0142682
886.318	0.0143069
886.396	0.0144808
886.474	0.0145282
886.552	0.0143877
886.630	0.0143735
886.708	0.0145177
886.786	0.0145683
886.864	0.0147351
886.943	0.0147029
887.021	0.0146394
887.099	0.0147347
887.177	0.0148871
887.255	0.0149856
887.333	0.0152814
887.411	0.0152522
887.489	0.0151461
887.568	0.0152151
887.646	0.0153661
887.724	0.0154098
887.802	0.0153256
887.880	0.0154988
887.958	0.0153868
888.036	0.0153356
888.114	0.0155621
888.193	0.0154650
888.271	0.0154063
888.349	0.0154890
888.427	0.0154649
888.505	0.0151384
888.583	0.0150495
888.661	0.0150199
888.739	0.0150047
888.818	0.0147990
888.896	0.0147350
888.974	0.0146279
889.052	0.0146214
889.130	0.0146212
889.208	0.0144179
889.286	0.0141579
889.364	0.0141394
889.443	0.0142635
889.521	0.0142344
889.599	0.0141737
889.677	0.0140421
889.755	0.0140279
889.833	0.0140285
889.911	0.0139878
889.989	0.0139758
890.068	0.0142358
890.146	0.0141246
890.224	0.0141331
890.302	0.0142125
890.380	0.0142735
890.458	0.0142299
890.536	0.0144668
890.614	0.0144829
890.693	0.0145930
890.771	0.0146278
890.849	0.0147539
890.927	0.0147022
891.005	0.0148273
891.083	0.0150260
891.161	0.0150894
891.239	0.0151985
891.318	0.0152662
891.396	0.0154391
891.474	0.0155050
891.552	0.0154720
891.630	0.0156261
891.708	0.0156046
891.786	0.0155556
891.864	0.0156763
891.943	0.0155906
892.021	0.0155946
892.099	0.0155894
892.177	0.0154514
892.255	0.0153254
892.333	0.0151974
892.411	0.0150557
892.489	0.0148145
892.568	0.0147271
892.646	0.0145678
892.724	0.0144695
892.802	0.0143979
892.880	0.0141818
892.958	0.0140665
893.036	0.0139891
893.114	0.0139353
893.193	0.0139535
893.271	0.0137481
893.349	0.0139788
893.427	0.0140497
893.505	0.0141943
893.583	0.0141731
893.661	0.0141753
893.739	0.0142785
893.818	0.0144604
893.896	0.0146108
893.974	0.0147818
894.052	0.0149615
894.130	0.0151180
894.208	0.0150289
894.286	0.0151100
894.364	0.0152094
894.443	0.0152581
894.521	0.0154289
894.599	0.0153769
894.677	0.0153260
894.755	0.0154591
894.833	0.0153668
894.911	0.0154929
894.989	0.0153744
895.068	0.0153633
895.146	0.0152434
895.224	0.0153319
895.302	0.0153167
895.380	0.0151598
895.458	0.0151917
895.536	0.0151410
895.614	0.0152478
895.693	0.0151275
895.771	0.0149385
895.849	0.0150906
895.927	0.0148885
896.005	0.0148679
896.083	0.0145983
896.161	0.0145667
896.239	0.0144494
896.318	0.0143933
896.396	0.0143147
896.474	0.0142853
896.552	0.0141732
896.630	0.0141688
896.708	0.0141048
896.786	0.0141582
896.864	0.0140623
896.943	0.0139919
897.021	0.0140939
897.099	0.0140070
897.177	0.0141230
897.255	0.0142413
897.333	0.0142999
897.411	0.0144597
897.489	0.0143693
897.568	0.0144972
897.646	0.0145772
897.724	0.0146415
897.802	0.0146555
897.880	0.0146974
897.958	0.0146787
898.036	0.0149300
898.114	0.0149007
898.193	0.0149670
898.271	0.0149796
898.349	0.0150978
898.427	0.0152218
898.505	0.0153745
898.583	0.0153223
898.661	0.0154115
898.739	0.0154394
898.818	0.0156377
898.896	0.0156356
898.974	0.0155055
899.052	0.0154991
899.130	0.0156266
899.208	0.0154938
899.286	0.0155080
899.364	0.0155202
899.443	0.0153430
899.521	0.0152585
899.599	0.0151343
899.677	0.0150693
899.755	0.0151644
899.833	0.0149789
899.911	0.0149791
899.989	0.0146857
900.068	0.0146648
900.146	0.0146529
900.224	0.0145985
900.302	0.0143356
900.380	0.0145018
900.458	0.0144258
900.536	0.0143575
900.614	0.0141579
900.693	0.0141856
900.771	0.0141763
900.849	0.0142784
900.927	0.0142435
901.005	0.0145152
901.083	0.0142733
901.161	0.0143048
901.239	0.0143354
901.318	0.0143999
901.396	0.0144270
901.474	0.0145630
901.552	0.0145463
901.630	0.0147301
901.708	0.0145686
901.786	0.0145856
901.864	0.0147530
901.943	0.0148740
902.021	0.0148325
902.099	0.0149917
902.177	0.0149656
902.255	0.0150694
902.333	0.0150246
902.411	0.0150285
902.489	0.0151486
902.568	0.0152377
902.646	0.0151453
902.724	0.0151255
902.802	0.0152206
902.880	0.0153223
902.958	0.0152744
903.036	0.0153778
903.114	0.0152946
903.193	0.0154165
903.271	0.0154082
903.349	0.0153823
903.427	0.0153269
903.505	0.0153661
903.583	0.0153388
903.661	0.0153510
903.739	0.0152546
903.818	0.0152740
903.896	0.0152349
903.974	0.0150832
904.052	0.0151534
904.130	0.0150536
904.208	0.0149216
904.286	0.0149542
904.364	0.0147289
904.443	0.0146451
904.521	0.0146603
904.599	0.0145427
904.677	0.0144311
904.755	0.0143295
904.833	0.0142685
904.911	0.0143117
904.989	0.0141570
905.068	0.0142511
905.146	0.0142702
905.224	0.0141232
905.302	0.0141626
905.380	0.0142332
905.458	0.0141210
905.536	0.0143401
905.614	0.0143056
905.693	0.0142780
905.771	0.0145006
905.849	0.0145113
905.927	0.0147692
906.005	0.0146747
906.083	0.0148339
906.161	0.0148498
906.239	0.0149616
906.318	0.0151599
906.396	0.0150353
906.474	0.0151778
906.552	0.0154418
906.630	0.0155067
906.708	0.0153367
906.786	0.0154015
906.864	0.0155050
906.943	0.0154365
907.021	0.0156200
907.099	0.0155661
907.177	0.0153889
907.255	0.0152592
907.333	0.0154439
907.411	0.0153835
907.489	0.0153470
907.568	0.0152484
907.646	0.0150880
907.724	0.0151080
907.802	0.0151036
907.880	0.0149795
907.958	0.0149215
908.036	0.0149203
908.114	0.0149343
908.193	0.0146970
908.271	0.0147817
908.349	0.0147244
908.427	0.0147168
908.505	0.0145464
908.583	0.0144460
908.661	0.0144862
908.739	0.0145051
908.818	0.0143267
908.896	0.0142159
908.974	0.0143155
909.052	0.0143449
909.130	0.0143428
909.208	0.0144547
909.286	0.0142667
909.364	0.0143129
909.443	0.0144004
909.521	0.0144453
909.599	0.0145021
909.677	0.0144562
909.755	0.0144811
909.833	0.0146237
909.911	0.0146524
909.989	0.0146394
910.068	0.0147701
910.146	0.0148964
910.224	0.0150328
910.302	0.0151051
910.380	0.0149628
910.458	0.0150607
910.536	0.0153520
910.614	0.0151345
910.693	0.0153620
910.771	0.0155045
910.849	0.0152891
910.927	0.0153896
911.005	0.0153424
911.083	0.0153855
911.161	0.0153989
911.239	0.0154411
911.318	0.0154121
911.396	0.0151069
911.474	0.0152270
911.552	0.0151523
911.630	0.0151530
911.708	0.0149441
911.786	0.0148918
911.864	0.0149555
911.943	0.0147674
912.021	0.0149557
912.099	0.0146852
912.177	0.0145560
912.255	0.0145419
912.333	0.0147021
912.411	0.0143947
912.489	0.0145012
912.568	0.0145315
912.646	0.0144366
912.724	0.0144810
912.802	0.0143773
912.880	0.0143745
912.958	0.0143042
913.036	0.0143375
913.114	0.0142378
913.193	0.0142773
913.271	0.0142728
913.349	0.0142639
913.427	0.0142771
913.505	0.0143693
913.583	0.0142219
913.661	0.0144085
913.739	0.0143116
913.818	0.0143858
913.896	0.0143758
913.974	0.0144847
914.052	0.0146577
914.130	0.0147388
914.208	0.0146897
914.286	0.0147487
914.364	0.0148420
914.443	0.0148487
914.521	0.0150985
914.599	0.0149688
914.677	0.0152367
914.755	0.0152861
914.833	0.0153217
914.911	0.0153379
914.989	0.0153450
915.068	0.0152608
915.146	0.0153214
915.224	0.0152084
915.302	0.0153897
915.380	0.0152486
915.458	0.0153946
915.536	0.0153505
915.614	0.0152966
915.693	0.0153082
915.771	0.0152252
915.849	0.0151950
915.927	0.0150466
916.005	0.0149244
916.083	0.0149273
916.161	0.0148177
916.239	0.0148529
916.318	0.0148705
916.396	0.0146685
916.474	0.0146713
916.552	0.0147662
916.630	0.0146439
916.708	0.0147108
916.786	0.0146817
916.864	0.0145800
916.943	0.0146348
917.021	0.0145066
917.099	0.0145108
917.177	0.0145213
917.255	0.0145702
917.333	0.0146063
917.411	0.0146402
917.489	0.0146544
917.568	0.0145180
917.646	0.0145403
917.724	0.0145970
917.802	0.0146152
917.880	0.0146067
917.958	0.0146652
918.036	0.0146259
918.114	0.0145688
918.193	0.0146691
918.271	0.0146780
918.349	0.0146040
918.427	0.0146931
918.505	0.0146178
918.583	0.0146114
918.661	0.0146417
918.739	0.0146672
918.818	0.0146670
918.896	0.0148421
918.974	0.0148161
919.052	0.0147533
919.130	0.0147363
919.208	0.0147598
919.286	0.0146967
919.364	0.0147454
919.443	0.0148457
919.521	0.0148048
919.599	0.0149699
919.677	0.0150401
919.755	0.0149500
919.833	0.0148865
919.911	0.0150044
919.989	0.0150700
920.068	0.0152721
920.146	0.0150837
920.224	0.0150704
920.302	0.0150938
920.380	0.0151089
920.458	0.0149984
920.536	0.0150534
920.614	0.0151357
920.693	0.0151632
920.771	0.0149803
920.849	0.0150759
920.927	0.0151193
921.005	0.0151425
921.083	0.0150726
921.161	0.0150913
921.239	0.0151315
921.318	0.0150215
921.396	0.0149924
921.474	0.0150832
921.552	0.0150111
921.630	0.0148973
921.708	0.0148339
921.786	0.0148083
921.864	0.0147092
921.943	0.0148184
922.021	0.0148537
922.099	0.0147198
922.177	0.0146979
922.255	0.0147337
922.333	0.0145758
922.411	0.0146603
922.489	0.0145693
922.568	0.0145506
922.646	0.0146111
922.724	0.0146599
922.802	0.0145663
922.880	0.0146902
922.958	0.0146420
923.036	0.0145526
923.114	0.0146839
923.193	0.0146907
923.271	0.0147534
923.349	0.0148535
923.427	0.0147301
923.505	0.0148325
923.583	0.0149772
923.661	0.0148576
923.739	0.0149727
923.818	0.0149553
923.896	0.0149939
923.974	0.0149526
924.052	0.0149956
924.130	0.0149564
924.208	0.0149815
924.286	0.0149426
924.364	0.0149165
924.443	0.0148093
924.521	0.0148727
924.599	0.0148695
924.677	0.0149752
924.755	0.0147896
924.833	0.0149424
924.911	0.0148939
924.989	0.0149400
925.068	0.0148470
925.146	0.0148507
925.224	0.0148543
925.302	0.0149982
925.380	0.0149133
925.458	0.0149493
925.536	0.0147984
925.614	0.0148917
925.693	0.0148193
925.771	0.0148660
925.849	0.0148118
925.927	0.0148862
926.005	0.0147935
926.083	0.0147868
926.161	0.0147060
926.239	0.0149432
926.318	0.0147567
926.396	0.0149364
926.474	0.0149347
926.552	0.0149147
926.630	0.0149385
926.708	0.0148888
926.786	0.0149775
926.864	0.0150115
926.943	0.0147951
927.021	0.0149194
927.099	0.0150089
927.177	0.0150569
927.255	0.0149354
927.333	0.0149397
927.411	0.0147813
927.489	0.0149364
927.568	0.0148634
927.646	0.0148749
927.724	0.0148465
927.802	0.0148841
927.880	0.0147607
927.958	0.0148391
928.036	0.0147658
928.114	0.0149164
928.193	0.0147160
928.271	0.0147547
928.349	0.0149091
928.427	0.0148379
928.505	0.0148955
928.583	0.0149649
928.661	0.0147842
928.739	0.0148473
928.818	0.0148237
928.896	0.0149006
928.974	0.0149895
929.052	0.0150022
929.130	0.0150272
929.208	0.0150150
929.286	0.0148995
929.364	0.0149781
929.443	0.0149360
929.521	0.0149595
929.599	0.0150562
929.677	0.0149452
929.755	0.0149079
929.833	0.0149415
929.911	0.0148698
929.989	0.0147929
930.068	0.0147621
930.146	0.0148335
930.224	0.0147973
930.302	0.0147415
930.380	0.0147816
930.458	0.0147881
930.536	0.0147417
930.614	0.0147817
930.693	0.0147817
930.771	0.0147116
930.849	0.0148479
930.927	0.0147060
931.005	0.0146850
931.083	0.0148879
931.161	0.0148866
931.239	0.0148061
931.318	0.0147594
931.396	0.0147641
931.474	0.0147666
931.552	0.0148349
931.630	0.0147810
931.708	0.0147334
931.786	0.0147231
931.864	0.0148406
931.943	0.0151102
932.021	0.0149863
932.099	0.0149249
932.177	0.0149866
932.255	0.0152309
932.333	0.0150061
932.411	0.0149636
932.489	0.0149777
932.568	0.0150370
932.646	0.0149863
932.724	0.0150037
932.802	0.0149326
932.880	0.0149717
932.958	0.0149209
933.036	0.0148280
933.114	0.0147831
933.193	0.0147328
933.271	0.0147984
933.349	0.0148285
933.427	0.0147509
933.505	0.0146552
933.583	0.0147389
933.661	0.0147314
933.739	0.0147190
933.818	0.0146943
933.896	0.0147363
933.974	0.0147617
934.052	0.0148627
934.130	0.0148724
934.208	0.0146674
934.286	0.0147430
934.364	0.0147298
934.443	0.0149139
934.521	0.0148837
934.599	0.0147832
934.677	0.0149508
934.755	0.0148951
934.833	0.0149480
934.911	0.0149876
934.989	0.0149322
935.068	0.0148826
935.146	0.0147666
935.224	0.0148612
935.302	0.0149151
935.380	0.0149752
935.458	0.0149790
935.536	0.0150214
935.614	0.0149086
935.693	0.0148839
935.771	0.0147929
935.849	0.0148006
935.927	0.0147531
936.005	0.0147631
936.083	0.0147415
936.161	0.0148537
936.239	0.0147420
936.318	0.0147070
936.396	0.0146523
936.474	0.0146767
936.552	0.0148314
936.630	0.0146765
936.708	0.0147623
936.786	0.0147289
936.864	0.0146720
936.943	0.0146957
937.021	0.0146568
937.099	0.0146494
937.177	0.0145052
937.255	0.0146682
937.333	0.0146521
937.411	0.0145519
937.489	0.0146468
937.568	0.0146629
937.646	0.0146561
937.724	0.0145886
937.802	0.0146027
937.880	0.0146231
937.958	0.0146632
938.036	0.0147288
938.114	0.0147781
938.193	0.0148095
938.271	0.0146510
938.349	0.0149126
938.427	0.0148362
938.505	0.0148646
938.583	0.0148503
938.661	0.0149485
938.739	0.0147584
938.818	0.0148721
938.896	0.0147554
938.974	0.0148426
939.052	0.0149598
939.130	0.0148727
939.208	0.0151006
939.286	0.0150745
939.364	0.0151051
939.443	0.0151074
939.521	0.0148907
939.599	0.0149413
939.677	0.0150011
939.755	0.0150971
939.833	0.0148981
939.911	0.0150242
939.989	0.0149447
940.068	0.0149220
940.146	0.0148293
940.224	0.0147054
940.302	0.0148246
940.380	0.0147615
940.458	0.0147663
940.536	0.0148824
940.614	0.0147123
940.693	0.0146780
940.771	0.0147648
940.849	0.0146492
940.927	0.0146951
941.005	0.0146617
941.083	0.0145567
941.161	0.0146502
941.239	0.0144955
941.318	0.0146053
941.396	0.0145693
941.474	0.0146471
941.552	0.0145061
941.630	0.0144848
941.708	0.0145019
941.786	0.0145470
941.864	0.0144848
941.943	0.0145928
942.021	0.0144798
942.099	0.0143596
942.177	0.0145808
942.255	0.0146809
942.333	0.0147083
942.411	0.0146809
942.489	0.0148158
942.568	0.0147768
942.646	0.0147734
942.724	0.0148512
942.802	0.0150343
942.880	0.0150609
942.958	0.0150082
943.036	0.0151759
943.114	0.0150295
943.193	0.0151192
943.271	0.0151333
943.349	0.0151985
943.427	0.0152348
943.505	0.0154675
943.583	0.0152524
943.661	0.0151249
943.739	0.0152586
943.818	0.0152097
943.896	0.0151682
943.974	0.0151099
944.052	0.0151974
944.130	0.0151460
944.208	0.0149474
944.286	0.0150033
944.364	0.0149431
944.443	0.0149142
944.521	0.0147649
944.599	0.0147286
944.677	0.0146775
944.755	0.0145806
944.833	0.0145154
944.911	0.0146146
944.989	0.0145640
945.068	0.0144546
945.146	0.0144351
945.224	0.0143481
945.302	0.0143395
945.380	0.0141815
945.458	0.0142941
945.536	0.0142545
945.614	0.0143344
945.693	0.0142440
945.771	0.0144518
945.849	0.0143882
945.927	0.0143059
946.005	0.0144937
946.083	0.0146502
946.161	0.0145321
946.239	0.0147308
946.318	0.0146436
946.396	0.0147306
946.474	0.0148603
946.552	0.0150683
946.630	0.0151377
946.708	0.0151452
946.786	0.0151135
946.864	0.0151866
946.943	0.0153808
947.021	0.0151893
947.099	0.0151985
947.177	0.0153178
947.255	0.0153647
947.333	0.0154101
947.411	0.0153973
947.489	0.0154211
947.568	0.0152279
947.646	0.0151694
947.724	0.0151669
947.802	0.0153656
947.880	0.0150789
947.958	0.0151170
948.036	0.0152536
948.114	0.0149879
948.193	0.0149717
948.271	0.0150403
948.349	0.0149078
948.427	0.0148345
948.505	0.0149223
948.583	0.0147096
948.661	0.0147153
948.739	0.0145514
948.818	0.0145813
948.896	0.0147416
948.974	0.0145952
949.052	0.0144563
949.130	0.0144137
949.208	0.0144251
949.286	0.0144646
949.364	0.0145580
949.443	0.0145485
949.521	0.0145178
949.599	0.0144522
949.677	0.0143778
949.755	0.0145946
949.833	0.0147728
949.911	0.0146815
949.989	0.0147900
950.068	0.0146059
950.146	0.0147607
950.224	0.0148452
950.302	0.0147618
950.380	0.0147803
950.458	0.0148552
950.536	0.0150274
950.614	0.0150330
950.693	0.0149190
950.771	0.0149828
950.849	0.0149326
950.927	0.0149529
951.005	0.0150509
951.083	0.0150595
951.161	0.0149506
951.239	0.0150340
951.318	0.0148698
951.396	0.0148831
951.474	0.0149287
951.552	0.0147800
951.630	0.0148343
951.708	0.0146944
951.786	0.0147842
951.864	0.0147195
951.943	0.0147454
952.021	0.0147858
952.099	0.0146786
952.177	0.0147264
952.255	0.0148157
952.333	0.0146019
952.411	0.0147018
952.489	0.0148771
952.568	0.0147086
952.646	0.0146159
952.724	0.0148153
952.802	0.0149136
952.880	0.0147841
952.958	0.0148006
953.036	0.0148688
953.114	0.0150166
953.193	0.0149006
953.271	0.0150585
953.349	0.0150321
953.427	0.0149099
953.505	0.0149491
953.583	0.0150040
953.661	0.0149660
953.739	0.0149956
953.818	0.0150172
953.896	0.0150781
953.974	0.0150573
954.052	0.0149936
954.130	0.0149906
954.208	0.0148251
954.286	0.0148392
954.364	0.0147954
954.443	0.0149724
954.521	0.0149983
954.599	0.0148697
954.677	0.0148292
954.755	0.0148099
954.833	0.0148338
954.911	0.0147416
954.989	0.0147091
955.068	0.0146992
955.146	0.0148512
955.224	0.0145914
955.302	0.0147019
955.380	0.0147300
955.458	0.0147479
955.536	0.0147279
955.614	0.0147525
955.693	0.0146873
955.771	0.0147230
955.849	0.0147093
955.927	0.0146320
956.005	0.0146873
956.083	0.0148505
956.161	0.0147804
956.239	0.0147616
956.318	0.0147982
956.396	0.0148267
956.474	0.0148624
956.552	0.0147990
956.630	0.0149192
956.708	0.0149229
956.786	0.0148708
956.864	0.0147901
956.943	0.0148412
957.021	0.0148866
957.099	0.0148716
957.177	0.0148911
957.255	0.0149226
957.333	0.0148232
957.411	0.0148435
957.489	0.0150572
957.568	0.0149840
957.646	0.0149044
957.724	0.0147443
957.802	0.0147986
957.880	0.0149127
957.958	0.0148675
958.036	0.0148110
958.114	0.0147649
958.193	0.0147778
958.271	0.0148198
958.349	0.0147521
958.427	0.0147248
958.505	0.0148069
958.583	0.0147114
958.661	0.0148093
958.739	0.0147565
958.818	0.0148344
958.896	0.0148207
958.974	0.0147041
959.052	0.0148505
959.130	0.0148605
959.208	0.0147009
959.286	0.0148389
959.364	0.0148678
959.443	0.0147620
959.521	0.0147684
959.599	0.0147974
959.677	0.0147904
959.755	0.0148910
959.833	0.0149406
959.911	0.0148737
