05/14/2022	16:27:11	Ver.	4.1	UNKNOWN
Optical Delay	639.989416	Delta X		0.078125	Sweeps	1	Scan Rate	0/0
Coordinates	Axis 1	NaN	Axis 2	NaN	Axis 3	NaN	Axis 4	NaN	Axis 5	NaN	Axis 6	0.000000
TX Power	0.000000	RX Power	0.000000

639.989	0.0136816
640.068	0.0136141
640.146	0.0136297
640.224	0.0136095
640.302	0.0138652
640.380	0.0136980
640.458	0.0136669
640.536	0.0137701
640.614	0.0136253
640.693	0.0136446
640.771	0.0137489
640.849	0.0137757
640.927	0.0135516
641.005	0.0137129
641.083	0.0138245
641.161	0.0137727
641.239	0.0137150
641.318	0.0136092
641.396	0.0136888
641.474	0.0137807
641.552	0.0136915
641.630	0.0136622
641.708	0.0137631
641.786	0.0136718
641.864	0.0136558
641.943	0.0135864
642.021	0.0135486
642.099	0.0136050
642.177	0.0137623
642.255	0.0136489
642.333	0.0136839
642.411	0.0136469
642.489	0.0138229
642.568	0.0138207
642.646	0.0138082
642.724	0.0137670
642.802	0.0137128
642.880	0.0137252
642.958	0.0135732
643.036	0.0137072
643.114	0.0137569
643.193	0.0137215
643.271	0.0136822
643.349	0.0136909
643.427	0.0137996
643.505	0.0137742
643.583	0.0136308
643.661	0.0136423
643.739	0.0135210
643.818	0.0137011
643.896	0.0136935
643.974	0.0136313
644.052	0.0136830
644.130	0.0136090
644.208	0.0137175
644.286	0.0135776
644.364	0.0137386
644.443	0.0137006
644.521	0.0136148
644.599	0.0136613
644.677	0.0136071
644.755	0.0136720
644.833	0.0137251
644.911	0.0136460
644.989	0.0137783
645.068	0.0136796
645.146	0.0136315
645.224	0.0135945
645.302	0.0136578
645.380	0.0138159
645.458	0.0138155
645.536	0.0137331
645.614	0.0136012
645.693	0.0136030
645.771	0.0137226
645.849	0.0137063
645.927	0.0137070
646.005	0.0136243
646.083	0.0136372
646.161	0.0134782
646.239	0.0137343
646.318	0.0137665
646.396	0.0137489
646.474	0.0135674
646.552	0.0136785
646.630	0.0137575
646.708	0.0136655
646.786	0.0136469
646.864	0.0138279
646.943	0.0138213
647.021	0.0137248
647.099	0.0136050
647.177	0.0137829
647.255	0.0137643
647.333	0.0136218
647.411	0.0136375
647.489	0.0137176
647.568	0.0137048
647.646	0.0137674
647.724	0.0136137
647.802	0.0136830
647.880	0.0136411
647.958	0.0137684
648.036	0.0137034
648.114	0.0137563
648.193	0.0136549
648.271	0.0135777
648.349	0.0137669
648.427	0.0136724
648.505	0.0136415
648.583	0.0136598
648.661	0.0137775
648.739	0.0136990
648.818	0.0135599
648.896	0.0134491
648.974	0.0135409
649.052	0.0136355
649.130	0.0137352
649.208	0.0136524
649.286	0.0136117
649.364	0.0135696
649.443	0.0135705
649.521	0.0137002
649.599	0.0137293
649.677	0.0137289
649.755	0.0137271
649.833	0.0137098
649.911	0.0136426
649.989	0.0135313
650.068	0.0136732
650.146	0.0136336
650.224	0.0136001
650.302	0.0136227
650.380	0.0136693
650.458	0.0137183
650.536	0.0136321
650.614	0.0136927
650.693	0.0136432
650.771	0.0135986
650.849	0.0136317
650.927	0.0136161
651.005	0.0136823
651.083	0.0136687
651.161	0.0137751
651.239	0.0136340
651.318	0.0136801
651.396	0.0136952
651.474	0.0137072
651.552	0.0137012
651.630	0.0137318
651.708	0.0136607
651.786	0.0137103
651.864	0.0136665
651.943	0.0136359
652.021	0.0136742
652.099	0.0136108
652.177	0.0137605
652.255	0.0138670
652.333	0.0137000
652.411	0.0137508
652.489	0.0137285
652.568	0.0136275
652.646	0.0136292
652.724	0.0135793
652.802	0.0136315
652.880	0.0135932
652.958	0.0137315
653.036	0.0137338
653.114	0.0137450
653.193	0.0136880
653.271	0.0136386
653.349	0.0136896
653.427	0.0137058
653.505	0.0135277
653.583	0.0136769
653.661	0.0137008
653.739	0.0136805
653.818	0.0136555
653.896	0.0136322
653.974	0.0136667
654.052	0.0136703
654.130	0.0137084
654.208	0.0137306
654.286	0.0136684
654.364	0.0136766
654.443	0.0136546
654.521	0.0137270
654.599	0.0137025
654.677	0.0135761
654.755	0.0137115
654.833	0.0136886
654.911	0.0136665
654.989	0.0136244
655.068	0.0136926
655.146	0.0136946
655.224	0.0137242
655.302	0.0136647
655.380	0.0136265
655.458	0.0135599
655.536	0.0136219
655.614	0.0136046
655.693	0.0136147
655.771	0.0136795
655.849	0.0136383
655.927	0.0135799
656.005	0.0137125
656.083	0.0137469
656.161	0.0137418
656.239	0.0137173
656.318	0.0135503
656.396	0.0137009
656.474	0.0138184
656.552	0.0136519
656.630	0.0136639
656.708	0.0137424
656.786	0.0136426
656.864	0.0137382
656.943	0.0136339
657.021	0.0136980
657.099	0.0136119
657.177	0.0135890
657.255	0.0136816
657.333	0.0136658
657.411	0.0135934
657.489	0.0135818
657.568	0.0136081
657.646	0.0136475
657.724	0.0137321
657.802	0.0136707
657.880	0.0137401
657.958	0.0137661
658.036	0.0137619
658.114	0.0136992
658.193	0.0136793
658.271	0.0135916
658.349	0.0137505
658.427	0.0137383
658.505	0.0137148
658.583	0.0135886
658.661	0.0136739
658.739	0.0137196
658.818	0.0136572
658.896	0.0136981
658.974	0.0137759
659.052	0.0136073
659.130	0.0135533
659.208	0.0136330
659.286	0.0137023
659.364	0.0136765
659.443	0.0137656
659.521	0.0136710
659.599	0.0135979
659.677	0.0138258
659.755	0.0136509
659.833	0.0136696
659.911	0.0137286
659.989	0.0136032
660.068	0.0138554
660.146	0.0136739
660.224	0.0136997
660.302	0.0138157
660.380	0.0136992
660.458	0.0137219
660.536	0.0136928
660.614	0.0138407
660.693	0.0138364
660.771	0.0136624
660.849	0.0136961
660.927	0.0137031
661.005	0.0136586
661.083	0.0138371
661.161	0.0138020
661.239	0.0137571
661.318	0.0136991
661.396	0.0136796
661.474	0.0137521
661.552	0.0136712
661.630	0.0137828
661.708	0.0137025
661.786	0.0137026
661.864	0.0137257
661.943	0.0135962
662.021	0.0137151
662.099	0.0136828
662.177	0.0137194
662.255	0.0136199
662.333	0.0138734
662.411	0.0138461
662.489	0.0137766
662.568	0.0137154
662.646	0.0137833
662.724	0.0137274
662.802	0.0137113
662.880	0.0137268
662.958	0.0137064
663.036	0.0137473
663.114	0.0137099
663.193	0.0138493
663.271	0.0136524
663.349	0.0135667
663.427	0.0137254
663.505	0.0136874
663.583	0.0138518
663.661	0.0137366
663.739	0.0136577
663.818	0.0137183
663.896	0.0137096
663.974	0.0136613
664.052	0.0137132
664.130	0.0137332
664.208	0.0136517
664.286	0.0135966
664.364	0.0137809
664.443	0.0138400
664.521	0.0137574
664.599	0.0136935
664.677	0.0136727
664.755	0.0136215
664.833	0.0138141
664.911	0.0137223
664.989	0.0136469
665.068	0.0134933
665.146	0.0137436
665.224	0.0136791
665.302	0.0135238
665.380	0.0136229
665.458	0.0136337
665.536	0.0137277
665.614	0.0136805
665.693	0.0137241
665.771	0.0136741
665.849	0.0136312
665.927	0.0137305
666.005	0.0137744
666.083	0.0137105
666.161	0.0137565
666.239	0.0136650
666.318	0.0136434
666.396	0.0137569
666.474	0.0137156
666.552	0.0138466
666.630	0.0137544
666.708	0.0136908
666.786	0.0138130
666.864	0.0137618
666.943	0.0136036
667.021	0.0137086
667.099	0.0136926
667.177	0.0136995
667.255	0.0137568
667.333	0.0137669
667.411	0.0136429
667.489	0.0136198
667.568	0.0136713
667.646	0.0136868
667.724	0.0135854
667.802	0.0136139
667.880	0.0136580
667.958	0.0136811
668.036	0.0136221
668.114	0.0136439
668.193	0.0137354
668.271	0.0137711
668.349	0.0137152
668.427	0.0135721
668.505	0.0135555
668.583	0.0135358
668.661	0.0136710
668.739	0.0137441
668.818	0.0137031
668.896	0.0136073
668.974	0.0137104
669.052	0.0137067
669.130	0.0136343
669.208	0.0137785
669.286	0.0137898
669.364	0.0136428
669.443	0.0137348
669.521	0.0137203
669.599	0.0135330
669.677	0.0138148
669.755	0.0137887
669.833	0.0137439
669.911	0.0137466
669.989	0.0137634
670.068	0.0135464
670.146	0.0137022
670.224	0.0137260
670.302	0.0136584
670.380	0.0136380
670.458	0.0137576
670.536	0.0137343
670.614	0.0136152
670.693	0.0137136
670.771	0.0137579
670.849	0.0136969
670.927	0.0136288
671.005	0.0136455
671.083	0.0137294
671.161	0.0137199
671.239	0.0136063
671.318	0.0136810
671.396	0.0137444
671.474	0.0137035
671.552	0.0137312
671.630	0.0136100
671.708	0.0136739
671.786	0.0136391
671.864	0.0136795
671.943	0.0136584
672.021	0.0136927
672.099	0.0136572
672.177	0.0136265
672.255	0.0136555
672.333	0.0138035
672.411	0.0137864
672.489	0.0138076
672.568	0.0137882
672.646	0.0136864
672.724	0.0138316
672.802	0.0138710
672.880	0.0136182
672.958	0.0136418
673.036	0.0137678
673.114	0.0137198
673.193	0.0137798
673.271	0.0137370
673.349	0.0138085
673.427	0.0137978
673.505	0.0138457
673.583	0.0137308
673.661	0.0136512
673.739	0.0137537
673.818	0.0137838
673.896	0.0136511
673.974	0.0136709
674.052	0.0137144
674.130	0.0137859
674.208	0.0137476
674.286	0.0136755
674.364	0.0134789
674.443	0.0137649
674.521	0.0136973
674.599	0.0136835
674.677	0.0137848
674.755	0.0137768
674.833	0.0137357
674.911	0.0138396
674.989	0.0137589
675.068	0.0136792
675.146	0.0136485
675.224	0.0136158
675.302	0.0138700
675.380	0.0136344
675.458	0.0138194
675.536	0.0137179
675.614	0.0137569
675.693	0.0136690
675.771	0.0137148
675.849	0.0136898
675.927	0.0138177
676.005	0.0136667
676.083	0.0136656
676.161	0.0137715
676.239	0.0137223
676.318	0.0137466
676.396	0.0136446
676.474	0.0136902
676.552	0.0136443
676.630	0.0136741
676.708	0.0137819
676.786	0.0136026
676.864	0.0136999
676.943	0.0137534
677.021	0.0137899
677.099	0.0136923
677.177	0.0137879
677.255	0.0137251
677.333	0.0137547
677.411	0.0138049
677.489	0.0137344
677.568	0.0137143
677.646	0.0135892
677.724	0.0135159
677.802	0.0136601
677.880	0.0135991
677.958	0.0136516
678.036	0.0138575
678.114	0.0138062
678.193	0.0136857
678.271	0.0137417
678.349	0.0136477
678.427	0.0137179
678.505	0.0137787
678.583	0.0136325
678.661	0.0137423
678.739	0.0138525
678.818	0.0136317
678.896	0.0135954
678.974	0.0137527
679.052	0.0138119
679.130	0.0136512
679.208	0.0137244
679.286	0.0137337
679.364	0.0136195
679.443	0.0136341
679.521	0.0136382
679.599	0.0136283
679.677	0.0135887
679.755	0.0137630
679.833	0.0137263
679.911	0.0137511
679.989	0.0137559
680.068	0.0136947
680.146	0.0137816
680.224	0.0136545
680.302	0.0137408
680.380	0.0137257
680.458	0.0136965
680.536	0.0136795
680.614	0.0138418
680.693	0.0137173
680.771	0.0136390
680.849	0.0136169
680.927	0.0137132
681.005	0.0136795
681.083	0.0135297
681.161	0.0135947
681.239	0.0137386
681.318	0.0136382
681.396	0.0136755
681.474	0.0137281
681.552	0.0136775
681.630	0.0137187
681.708	0.0136524
681.786	0.0136654
681.864	0.0136842
681.943	0.0135275
682.021	0.0136488
682.099	0.0135529
682.177	0.0136336
682.255	0.0138344
682.333	0.0135312
682.411	0.0136476
682.489	0.0136757
682.568	0.0137956
682.646	0.0137479
682.724	0.0137496
682.802	0.0136600
682.880	0.0136938
682.958	0.0136480
683.036	0.0137386
683.114	0.0136784
683.193	0.0138049
683.271	0.0136040
683.349	0.0137247
683.427	0.0137759
683.505	0.0138094
683.583	0.0136953
683.661	0.0137177
683.739	0.0137557
683.818	0.0136769
683.896	0.0136520
683.974	0.0138333
684.052	0.0138251
684.130	0.0135315
684.208	0.0136477
684.286	0.0135018
684.364	0.0137234
684.443	0.0137414
684.521	0.0136700
684.599	0.0136417
684.677	0.0137430
684.755	0.0135684
684.833	0.0136745
684.911	0.0137417
684.989	0.0137687
685.068	0.0138047
685.146	0.0138744
685.224	0.0138503
685.302	0.0137356
685.380	0.0137956
685.458	0.0136422
685.536	0.0136086
685.614	0.0136581
685.693	0.0134223
685.771	0.0135115
685.849	0.0134795
685.927	0.0133266
686.005	0.0132976
686.083	0.0132953
686.161	0.0134936
686.239	0.0134892
686.318	0.0136187
686.396	0.0137685
686.474	0.0137988
686.552	0.0139597
686.630	0.0140537
686.708	0.0140720
686.786	0.0142442
686.864	0.0143395
686.943	0.0142906
687.021	0.0142197
687.099	0.0142407
687.177	0.0141019
687.255	0.0138828
687.333	0.0137570
687.411	0.0136204
687.489	0.0133757
687.568	0.0132435
687.646	0.0131050
687.724	0.0130281
687.802	0.0128623
687.880	0.0127492
687.958	0.0126749
688.036	0.0126652
688.114	0.0126515
688.193	0.0125853
688.271	0.0128493
688.349	0.0132213
688.427	0.0133296
688.505	0.0135317
688.583	0.0137189
688.661	0.0138771
688.739	0.0143272
688.818	0.0146286
688.896	0.0148058
688.974	0.0152443
689.052	0.0156156
689.130	0.0155258
689.208	0.0156571
689.286	0.0156879
689.364	0.0155538
689.443	0.0154791
689.521	0.0150843
689.599	0.0147072
689.677	0.0142464
689.755	0.0137766
689.833	0.0133153
689.911	0.0129573
689.989	0.0124244
690.068	0.0121738
690.146	0.0118721
690.224	0.0115717
690.302	0.0115078
690.380	0.0113930
690.458	0.0114095
690.536	0.0113478
690.614	0.0116177
690.693	0.0117482
690.771	0.0119875
690.849	0.0123430
690.927	0.0126189
691.005	0.0129438
691.083	0.0133463
691.161	0.0136644
691.239	0.0141418
691.318	0.0146477
691.396	0.0148650
691.474	0.0152654
691.552	0.0157381
691.630	0.0160435
691.708	0.0161351
691.786	0.0164278
691.864	0.0165310
691.943	0.0165855
692.021	0.0165752
692.099	0.0162601
692.177	0.0163419
692.255	0.0160601
692.333	0.0157785
692.411	0.0154526
692.489	0.0150182
692.568	0.0146420
692.646	0.0142984
692.724	0.0137786
692.802	0.0133624
692.880	0.0129523
692.958	0.0124996
693.036	0.0121279
693.114	0.0117781
693.193	0.0115588
693.271	0.0113021
693.349	0.0109016
693.427	0.0106368
693.505	0.0105009
693.583	0.0102847
693.661	0.0101395
693.739	0.0102210
693.818	0.0100130
693.896	0.0102266
693.974	0.0103500
694.052	0.0105881
694.130	0.0109045
694.208	0.0113610
694.286	0.0119872
694.364	0.0124947
694.443	0.0132327
694.521	0.0141355
694.599	0.0147965
694.677	0.0156850
694.755	0.0163564
694.833	0.0170973
694.911	0.0177520
694.989	0.0182993
695.068	0.0187936
695.146	0.0189692
695.224	0.0191384
695.302	0.0191317
695.380	0.0190526
695.458	0.0188181
695.536	0.0183356
695.614	0.0178410
695.693	0.0172515
695.771	0.0167650
695.849	0.0159719
695.927	0.0151797
696.005	0.0143246
696.083	0.0136961
696.161	0.0128070
696.239	0.0120231
696.318	0.0112385
696.396	0.0108037
696.474	0.0102726
696.552	0.00987831
696.630	0.00944519
696.708	0.00932793
696.786	0.00920784
696.864	0.00918793
696.943	0.00931160
697.021	0.00935890
697.099	0.00934837
697.177	0.00952560
697.255	0.00985275
697.333	0.0100916
697.411	0.0103571
697.489	0.0107755
697.568	0.0112787
697.646	0.0116303
697.724	0.0120385
697.802	0.0125706
697.880	0.0129982
697.958	0.0135683
698.036	0.0139780
698.114	0.0145664
698.193	0.0151926
698.271	0.0156470
698.349	0.0162064
698.427	0.0167477
698.505	0.0171482
698.583	0.0173576
698.661	0.0176111
698.739	0.0179910
698.818	0.0180714
698.896	0.0181668
698.974	0.0181764
699.052	0.0180542
699.130	0.0181590
699.208	0.0178185
699.286	0.0177111
699.364	0.0175155
699.443	0.0173416
699.521	0.0168585
699.599	0.0165492
699.677	0.0161764
699.755	0.0154686
699.833	0.0149881
699.911	0.0144323
699.989	0.0134584
700.068	0.0126812
700.146	0.0120513
700.224	0.0114009
700.302	0.0106918
700.380	0.0102435
700.458	0.00988136
700.536	0.00941200
700.614	0.00932083
700.693	0.00911690
700.771	0.00914467
700.849	0.00941719
700.927	0.00947441
701.005	0.00966805
701.083	0.0100633
701.161	0.0102280
701.239	0.0105295
701.318	0.0107331
701.396	0.0109337
701.474	0.0113321
701.552	0.0116735
701.630	0.0118297
701.708	0.0121320
701.786	0.0123495
701.864	0.0125389
701.943	0.0128080
702.021	0.0130032
702.099	0.0132455
702.177	0.0134418
702.255	0.0138429
702.333	0.0140702
702.411	0.0143835
702.489	0.0148907
702.568	0.0152876
702.646	0.0155152
702.724	0.0159669
702.802	0.0163728
702.880	0.0167839
702.958	0.0167677
703.036	0.0171006
703.114	0.0173308
703.193	0.0174099
703.271	0.0172902
703.349	0.0173879
703.427	0.0174788
703.505	0.0174469
703.583	0.0173814
703.661	0.0174014
703.739	0.0173622
703.818	0.0174594
703.896	0.0171525
703.974	0.0171786
704.052	0.0170353
704.130	0.0168598
704.208	0.0165235
704.286	0.0160927
704.364	0.0155308
704.443	0.0149405
704.521	0.0142682
704.599	0.0134312
704.677	0.0125420
704.755	0.0116550
704.833	0.0109702
704.911	0.0102693
704.989	0.00958183
705.068	0.00911880
705.146	0.00858063
705.224	0.00841988
705.302	0.00821167
705.380	0.00821648
705.458	0.00812279
705.536	0.00821877
705.614	0.00840149
705.693	0.00833214
705.771	0.00868286
705.849	0.00894547
705.927	0.00918388
706.005	0.00922783
706.083	0.00962128
706.161	0.0101764
706.239	0.0104218
706.318	0.0108061
706.396	0.0111273
706.474	0.0117515
706.552	0.0121221
706.630	0.0126355
706.708	0.0130874
706.786	0.0134343
706.864	0.0139952
706.943	0.0143416
707.021	0.0147420
707.099	0.0152877
707.177	0.0159192
707.255	0.0165351
707.333	0.0174020
707.411	0.0182655
707.489	0.0191082
707.568	0.0197939
707.646	0.0206344
707.724	0.0213042
707.802	0.0217072
707.880	0.0218655
707.958	0.0221429
708.036	0.0220854
708.114	0.0218378
708.193	0.0216774
708.271	0.0213590
708.349	0.0207428
708.427	0.0200929
708.505	0.0191037
708.583	0.0183858
708.661	0.0175809
708.739	0.0165282
708.818	0.0157419
708.896	0.0146636
708.974	0.0135395
709.052	0.0124792
709.130	0.0115058
709.208	0.0101862
709.286	0.00901627
709.364	0.00785866
709.443	0.00672997
709.521	0.00576157
709.599	0.00492447
709.677	0.00430702
709.755	0.00410652
709.833	0.00377914
709.911	0.00413506
709.989	0.00442200
710.068	0.00515488
710.146	0.00577202
710.224	0.00660828
710.302	0.00765121
710.380	0.00855247
710.458	0.00963097
710.536	0.0104665
710.614	0.0113206
710.693	0.0118645
710.771	0.0125793
710.849	0.0130563
710.927	0.0131892
711.005	0.0136755
711.083	0.0140147
711.161	0.0142233
711.239	0.0144077
711.318	0.0148402
711.396	0.0152818
711.474	0.0155235
711.552	0.0161488
711.630	0.0165749
711.708	0.0171624
711.786	0.0177981
711.864	0.0184935
711.943	0.0189427
712.021	0.0194423
712.099	0.0199458
712.177	0.0204662
712.255	0.0207993
712.333	0.0212330
712.411	0.0212852
712.489	0.0212075
712.568	0.0213541
712.646	0.0213262
712.724	0.0208542
712.802	0.0204848
712.880	0.0199155
712.958	0.0192898
713.036	0.0184695
713.114	0.0177271
713.193	0.0168011
713.271	0.0158060
713.349	0.0148003
713.427	0.0138779
713.505	0.0126640
713.583	0.0116908
713.661	0.0106046
713.739	0.00960403
713.818	0.00864014
713.896	0.00797798
713.974	0.00708771
714.052	0.00671494
714.130	0.00635452
714.208	0.00604073
714.286	0.00607513
714.364	0.00624405
714.443	0.00655121
714.521	0.00701584
714.599	0.00746719
714.677	0.00815414
714.755	0.00889091
714.833	0.00936058
714.911	0.0100706
714.989	0.0105217
715.068	0.0108939
715.146	0.0113898
715.224	0.0116883
715.302	0.0118556
715.380	0.0120970
715.458	0.0123105
715.536	0.0123186
715.614	0.0126077
715.693	0.0128233
715.771	0.0131785
715.849	0.0134286
715.927	0.0136119
716.005	0.0141460
716.083	0.0145166
716.161	0.0151283
716.239	0.0155316
716.318	0.0159924
716.396	0.0164894
716.474	0.0169122
716.552	0.0174294
716.630	0.0181062
716.708	0.0185299
716.786	0.0188849
716.864	0.0192497
716.943	0.0195284
717.021	0.0196645
717.099	0.0198182
717.177	0.0197150
717.255	0.0196714
717.333	0.0193945
717.411	0.0191756
717.489	0.0186993
717.568	0.0180935
717.646	0.0175977
717.724	0.0168024
717.802	0.0161673
717.880	0.0154955
717.958	0.0147530
718.036	0.0138883
718.114	0.0130704
718.193	0.0123722
718.271	0.0115838
718.349	0.0109551
718.427	0.0102214
718.505	0.00975914
718.583	0.00950554
718.661	0.00938049
718.739	0.00919609
718.818	0.00922646
718.896	0.00952011
718.974	0.00974365
719.052	0.0102250
719.130	0.0108437
719.208	0.0114046
719.286	0.0118963
719.364	0.0125773
719.443	0.0127175
719.521	0.0129957
719.599	0.0133311
719.677	0.0135620
719.755	0.0133631
719.833	0.0133630
719.911	0.0130695
719.989	0.0128967
720.068	0.0124323
720.146	0.0120115
720.224	0.0116348
720.302	0.0112392
720.380	0.0110194
720.458	0.0109193
720.536	0.0105900
720.614	0.0105155
720.693	0.0105019
720.771	0.0107265
720.849	0.0109267
720.927	0.0112383
721.005	0.0116096
721.083	0.0120939
721.161	0.0125130
721.239	0.0134026
721.318	0.0140603
721.396	0.0148347
721.474	0.0155463
721.552	0.0163879
721.630	0.0170376
721.708	0.0176205
721.786	0.0181657
721.864	0.0186607
721.943	0.0189561
722.021	0.0191092
722.099	0.0191478
722.177	0.0188803
722.255	0.0186142
722.333	0.0183222
722.411	0.0179057
722.489	0.0173760
722.568	0.0168246
722.646	0.0161750
722.724	0.0157259
722.802	0.0151197
722.880	0.0144881
722.958	0.0140198
723.036	0.0134914
723.114	0.0130521
723.193	0.0125883
723.271	0.0124654
723.349	0.0121824
723.427	0.0119647
723.505	0.0119783
723.583	0.0120683
723.661	0.0120402
723.739	0.0120367
723.818	0.0120526
723.896	0.0121943
723.974	0.0124143
724.052	0.0125592
724.130	0.0126055
724.208	0.0126813
724.286	0.0128616
724.364	0.0128532
724.443	0.0128177
724.521	0.0127015
724.599	0.0126602
724.677	0.0124406
724.755	0.0123735
724.833	0.0121146
724.911	0.0118400
724.989	0.0119135
725.068	0.0118437
725.146	0.0117362
725.224	0.0118459
725.302	0.0117305
725.380	0.0121777
725.458	0.0122359
725.536	0.0124828
725.614	0.0125748
725.693	0.0128484
725.771	0.0130367
725.849	0.0132976
725.927	0.0134913
726.005	0.0135236
726.083	0.0137626
726.161	0.0138442
726.239	0.0139179
726.318	0.0140695
726.396	0.0140925
726.474	0.0141771
726.552	0.0143042
726.630	0.0145033
726.708	0.0146227
726.786	0.0148197
726.864	0.0150431
726.943	0.0151583
727.021	0.0151604
727.099	0.0153917
727.177	0.0152851
727.255	0.0153951
727.333	0.0153426
727.411	0.0155637
727.489	0.0154582
727.568	0.0155864
727.646	0.0155637
727.724	0.0156286
727.802	0.0155547
727.880	0.0154282
727.958	0.0154361
728.036	0.0152887
728.114	0.0152917
728.193	0.0150614
728.271	0.0150151
728.349	0.0146432
728.427	0.0144077
728.505	0.0141243
728.583	0.0137875
728.661	0.0136056
728.739	0.0131215
728.818	0.0128731
728.896	0.0127373
728.974	0.0123255
729.052	0.0120842
729.130	0.0120258
729.208	0.0119802
729.286	0.0118633
729.364	0.0118186
729.443	0.0118978
729.521	0.0120731
729.599	0.0120756
729.677	0.0122217
729.755	0.0125430
729.833	0.0127773
729.911	0.0128952
729.989	0.0132381
730.068	0.0134409
730.146	0.0135551
730.224	0.0137195
730.302	0.0137713
730.380	0.0139915
730.458	0.0140516
730.536	0.0140488
730.614	0.0141582
730.693	0.0141895
730.771	0.0140879
730.849	0.0141464
730.927	0.0142714
731.005	0.0142812
731.083	0.0143265
731.161	0.0143568
731.239	0.0143639
731.318	0.0143216
731.396	0.0141809
731.474	0.0140719
731.552	0.0140527
731.630	0.0139571
731.708	0.0135448
731.786	0.0133876
731.864	0.0133877
731.943	0.0131406
732.021	0.0130458
732.099	0.0129279
732.177	0.0127916
732.255	0.0126585
732.333	0.0128849
732.411	0.0129939
732.489	0.0130930
732.568	0.0132052
732.646	0.0134429
732.724	0.0135504
732.802	0.0139254
732.880	0.0140915
732.958	0.0145361
733.036	0.0146529
733.114	0.0148501
733.193	0.0149413
733.271	0.0150377
733.349	0.0151064
733.427	0.0150446
733.505	0.0151389
733.583	0.0150451
733.661	0.0149460
733.739	0.0147560
733.818	0.0145866
733.896	0.0142669
733.974	0.0139916
734.052	0.0135445
734.130	0.0133904
734.208	0.0132309
734.286	0.0128716
734.364	0.0125731
734.443	0.0124958
734.521	0.0121687
734.599	0.0120586
734.677	0.0121098
734.755	0.0119651
734.833	0.0121536
734.911	0.0123424
734.989	0.0123093
735.068	0.0128263
735.146	0.0130083
735.224	0.0133331
735.302	0.0136886
735.380	0.0140818
735.458	0.0143680
735.536	0.0147693
735.614	0.0149696
735.693	0.0152171
735.771	0.0153873
735.849	0.0155287
735.927	0.0155112
736.005	0.0155506
736.083	0.0154788
736.161	0.0151869
736.239	0.0150105
736.318	0.0148488
736.396	0.0142970
736.474	0.0138199
736.552	0.0136256
736.630	0.0130988
736.708	0.0128505
736.786	0.0125778
736.864	0.0123510
736.943	0.0122155
737.021	0.0120733
737.099	0.0120110
737.177	0.0120758
737.255	0.0122011
737.333	0.0123505
737.411	0.0125732
737.489	0.0128069
737.568	0.0131030
737.646	0.0132733
737.724	0.0136404
737.802	0.0137826
737.880	0.0139864
737.958	0.0141714
738.036	0.0144180
738.114	0.0145106
738.193	0.0144356
738.271	0.0144872
738.349	0.0144967
738.427	0.0143344
738.505	0.0142698
738.583	0.0142411
738.661	0.0138770
738.739	0.0138126
738.818	0.0138960
738.896	0.0136657
738.974	0.0136906
739.052	0.0135723
739.130	0.0134545
739.208	0.0133784
739.286	0.0133260
739.364	0.0132553
739.443	0.0132565
739.521	0.0133654
739.599	0.0133266
739.677	0.0131602
739.755	0.0133217
739.833	0.0135221
739.911	0.0136055
739.989	0.0135808
740.068	0.0135631
740.146	0.0138470
740.224	0.0137618
740.302	0.0137536
740.380	0.0138071
740.458	0.0137030
740.536	0.0138676
740.614	0.0138530
740.693	0.0138364
740.771	0.0138078
740.849	0.0136767
740.927	0.0136902
741.005	0.0137420
741.083	0.0137453
741.161	0.0138436
741.239	0.0137216
741.318	0.0136652
741.396	0.0138482
741.474	0.0138667
741.552	0.0138111
741.630	0.0137917
741.708	0.0139648
741.786	0.0140382
741.864	0.0138787
741.943	0.0139407
742.021	0.0139871
742.099	0.0140736
742.177	0.0139024
742.255	0.0137896
742.333	0.0137023
742.411	0.0138203
742.489	0.0137595
742.568	0.0136458
742.646	0.0135643
742.724	0.0136218
742.802	0.0136743
742.880	0.0136514
742.958	0.0137186
743.036	0.0136149
743.114	0.0137292
743.193	0.0138995
743.271	0.0138190
743.349	0.0140127
743.427	0.0138671
743.505	0.0139912
743.583	0.0141020
743.661	0.0140891
743.739	0.0138786
743.818	0.0140078
743.896	0.0139764
743.974	0.0137815
744.052	0.0138271
744.130	0.0138056
744.208	0.0134875
744.286	0.0134168
744.364	0.0135038
744.443	0.0133619
744.521	0.0131840
744.599	0.0130492
744.677	0.0130476
744.755	0.0129344
744.833	0.0128208
744.911	0.0129420
744.989	0.0129720
745.068	0.0129914
745.146	0.0128940
745.224	0.0131810
745.302	0.0133661
745.380	0.0133458
745.458	0.0135702
745.536	0.0136774
745.614	0.0137069
745.693	0.0138153
745.771	0.0136092
745.849	0.0135970
745.927	0.0136871
746.005	0.0137204
746.083	0.0136999
746.161	0.0134402
746.239	0.0136034
746.318	0.0136045
746.396	0.0133794
746.474	0.0134369
746.552	0.0133731
746.630	0.0134937
746.708	0.0136178
746.786	0.0136065
746.864	0.0137680
746.943	0.0137942
747.021	0.0139542
747.099	0.0141180
747.177	0.0142612
747.255	0.0144454
747.333	0.0144657
747.411	0.0145982
747.489	0.0146532
747.568	0.0147031
747.646	0.0148656
747.724	0.0148200
747.802	0.0147050
747.880	0.0146428
747.958	0.0146722
748.036	0.0145999
748.114	0.0146284
748.193	0.0144533
748.271	0.0143440
748.349	0.0142490
748.427	0.0139099
748.505	0.0137937
748.583	0.0137508
748.661	0.0135665
748.739	0.0134067
748.818	0.0134663
748.896	0.0132867
748.974	0.0132478
749.052	0.0131400
749.130	0.0131296
749.208	0.0131020
749.286	0.0131483
749.364	0.0132320
749.443	0.0133960
749.521	0.0131735
749.599	0.0133825
749.677	0.0136509
749.755	0.0136115
749.833	0.0134960
749.911	0.0136098
749.989	0.0135159
750.068	0.0135618
750.146	0.0134918
750.224	0.0134486
750.302	0.0133800
750.380	0.0133923
750.458	0.0132146
750.536	0.0132185
750.614	0.0131489
750.693	0.0131975
750.771	0.0131429
750.849	0.0130727
750.927	0.0131104
751.005	0.0132756
751.083	0.0133261
751.161	0.0134245
751.239	0.0134891
751.318	0.0134524
751.396	0.0136782
751.474	0.0138285
751.552	0.0139894
751.630	0.0140991
751.708	0.0142476
751.786	0.0141074
751.864	0.0142403
751.943	0.0141756
752.021	0.0142071
752.099	0.0142780
752.177	0.0142654
752.255	0.0141546
752.333	0.0142133
752.411	0.0141843
752.489	0.0141652
752.568	0.0142342
752.646	0.0140083
752.724	0.0141375
752.802	0.0141088
752.880	0.0139859
752.958	0.0141516
753.036	0.0138813
753.114	0.0140676
753.193	0.0140710
753.271	0.0140488
753.349	0.0139788
753.427	0.0138847
753.505	0.0136015
753.583	0.0138020
753.661	0.0135919
753.739	0.0135836
753.818	0.0136813
753.896	0.0133901
753.974	0.0134430
754.052	0.0133875
754.130	0.0133347
754.208	0.0133305
754.286	0.0133434
754.364	0.0133481
754.443	0.0132802
754.521	0.0133977
754.599	0.0133977
754.677	0.0134433
754.755	0.0133585
754.833	0.0135484
754.911	0.0137730
754.989	0.0137749
755.068	0.0136420
755.146	0.0138037
755.224	0.0137726
755.302	0.0140548
755.380	0.0141141
755.458	0.0140803
755.536	0.0140738
755.614	0.0138593
755.693	0.0139877
755.771	0.0140940
755.849	0.0141112
755.927	0.0140024
756.005	0.0140137
756.083	0.0139511
756.161	0.0138371
756.239	0.0138327
756.318	0.0137392
756.396	0.0137896
756.474	0.0135917
756.552	0.0137531
756.630	0.0135873
756.708	0.0136620
756.786	0.0135548
756.864	0.0135377
756.943	0.0135044
757.021	0.0134470
757.099	0.0133224
757.177	0.0133091
757.255	0.0133741
757.333	0.0133791
757.411	0.0133176
757.489	0.0133760
757.568	0.0134616
757.646	0.0132845
757.724	0.0133334
757.802	0.0134720
757.880	0.0134850
757.958	0.0133813
758.036	0.0132246
758.114	0.0133972
758.193	0.0136191
758.271	0.0136214
758.349	0.0136206
758.427	0.0135258
758.505	0.0135268
758.583	0.0136771
758.661	0.0138599
758.739	0.0138602
758.818	0.0137859
758.896	0.0138981
758.974	0.0139975
759.052	0.0140052
759.130	0.0141328
759.208	0.0141199
759.286	0.0142430
759.364	0.0140159
759.443	0.0140371
759.521	0.0139589
759.599	0.0140308
759.677	0.0139212
759.755	0.0138826
759.833	0.0137925
759.911	0.0137009
759.989	0.0137134
760.068	0.0136723
760.146	0.0137281
760.224	0.0135932
760.302	0.0137037
760.380	0.0136001
760.458	0.0136703
760.536	0.0138148
760.614	0.0137217
760.693	0.0137193
760.771	0.0136584
760.849	0.0139671
760.927	0.0139670
761.005	0.0138740
761.083	0.0139970
761.161	0.0138900
761.239	0.0138905
761.318	0.0140266
761.396	0.0140470
761.474	0.0139793
761.552	0.0140900
761.630	0.0139608
761.708	0.0138973
761.786	0.0138223
761.864	0.0139217
761.943	0.0137217
762.021	0.0135754
762.099	0.0134968
762.177	0.0136790
762.255	0.0135730
762.333	0.0135190
762.411	0.0134366
762.489	0.0133315
762.568	0.0135450
762.646	0.0133601
762.724	0.0134982
762.802	0.0134792
762.880	0.0135088
762.958	0.0135804
763.036	0.0136680
763.114	0.0136949
763.193	0.0136931
763.271	0.0138210
763.349	0.0137548
763.427	0.0137464
763.505	0.0137498
763.583	0.0137069
763.661	0.0137105
763.739	0.0138602
763.818	0.0137444
763.896	0.0136505
763.974	0.0135549
764.052	0.0134218
764.130	0.0134467
764.208	0.0133154
764.286	0.0134477
764.364	0.0134203
764.443	0.0132165
764.521	0.0132470
764.599	0.0133386
764.677	0.0133578
764.755	0.0131133
764.833	0.0133986
764.911	0.0134442
764.989	0.0133894
765.068	0.0134212
765.146	0.0135404
765.224	0.0136739
765.302	0.0138377
765.380	0.0138351
765.458	0.0138594
765.536	0.0137793
765.614	0.0139123
765.693	0.0139236
765.771	0.0140491
765.849	0.0140176
765.927	0.0138546
766.005	0.0138906
766.083	0.0140095
766.161	0.0138242
766.239	0.0139189
766.318	0.0137337
766.396	0.0137034
766.474	0.0136179
766.552	0.0136243
766.630	0.0134840
766.708	0.0134148
766.786	0.0134457
766.864	0.0134312
766.943	0.0135574
767.021	0.0135932
767.099	0.0135539
767.177	0.0135545
767.255	0.0136028
767.333	0.0137269
767.411	0.0135034
767.489	0.0136613
767.568	0.0136651
767.646	0.0137736
767.724	0.0136532
767.802	0.0137857
767.880	0.0139030
767.958	0.0139166
768.036	0.0139799
768.114	0.0140822
768.193	0.0138619
768.271	0.0139522
768.349	0.0140160
768.427	0.0141591
768.505	0.0140202
768.583	0.0139899
768.661	0.0139525
768.739	0.0140533
768.818	0.0140423
768.896	0.0140063
768.974	0.0138301
769.052	0.0137966
769.130	0.0137762
769.208	0.0137252
769.286	0.0136913
769.364	0.0137191
769.443	0.0136087
769.521	0.0135304
769.599	0.0136018
769.677	0.0134688
769.755	0.0132918
769.833	0.0133532
769.911	0.0132635
769.989	0.0132876
770.068	0.0132369
770.146	0.0132465
770.224	0.0130689
770.302	0.0130245
770.380	0.0132948
770.458	0.0131037
770.536	0.0130569
770.614	0.0131709
770.693	0.0133224
770.771	0.0134946
770.849	0.0134766
770.927	0.0134982
771.005	0.0136908
771.083	0.0136327
771.161	0.0136993
771.239	0.0136948
771.318	0.0138513
771.396	0.0138164
771.474	0.0139669
771.552	0.0139809
771.630	0.0138983
771.708	0.0138828
771.786	0.0139106
771.864	0.0139945
771.943	0.0141096
772.021	0.0139764
772.099	0.0140211
772.177	0.0140380
772.255	0.0139778
772.333	0.0139761
772.411	0.0139860
772.489	0.0139669
772.568	0.0140022
772.646	0.0142352
772.724	0.0140917
772.802	0.0140530
772.880	0.0140435
772.958	0.0139263
773.036	0.0141251
773.114	0.0141233
773.193	0.0141883
773.271	0.0139322
773.349	0.0138802
773.427	0.0139902
773.505	0.0139558
773.583	0.0139085
773.661	0.0139262
773.739	0.0138142
773.818	0.0137235
773.896	0.0137885
773.974	0.0137470
774.052	0.0137221
774.130	0.0137199
774.208	0.0136680
774.286	0.0136141
774.364	0.0137177
774.443	0.0135561
774.521	0.0134647
774.599	0.0134991
774.677	0.0134585
774.755	0.0133398
774.833	0.0135258
774.911	0.0135184
774.989	0.0135442
775.068	0.0134850
775.146	0.0133855
775.224	0.0134460
775.302	0.0134155
775.380	0.0136886
775.458	0.0135825
775.536	0.0134453
775.614	0.0133847
775.693	0.0135516
775.771	0.0134245
775.849	0.0135588
775.927	0.0136204
776.005	0.0136372
776.083	0.0137032
776.161	0.0136412
776.239	0.0136155
776.318	0.0137188
776.396	0.0135979
776.474	0.0136249
776.552	0.0137756
776.630	0.0138554
776.708	0.0138739
776.786	0.0139493
776.864	0.0140160
776.943	0.0141085
777.021	0.0140601
777.099	0.0140682
777.177	0.0140929
777.255	0.0140472
777.333	0.0139065
777.411	0.0139848
777.489	0.0142001
777.568	0.0142029
777.646	0.0140208
777.724	0.0140799
777.802	0.0140005
777.880	0.0139613
777.958	0.0139421
778.036	0.0139217
778.114	0.0138081
778.193	0.0136913
778.271	0.0137847
778.349	0.0137212
778.427	0.0135658
778.505	0.0135222
778.583	0.0136182
778.661	0.0136938
778.739	0.0136432
778.818	0.0136375
778.896	0.0137804
778.974	0.0136079
779.052	0.0137600
779.130	0.0135817
779.208	0.0136832
779.286	0.0136475
779.364	0.0137254
779.443	0.0135085
779.521	0.0135549
779.599	0.0136195
779.677	0.0135139
779.755	0.0134698
779.833	0.0135154
779.911	0.0134032
779.989	0.0133789
780.068	0.0134856
780.146	0.0135359
780.224	0.0136587
780.302	0.0135412
780.380	0.0133377
780.458	0.0134897
780.536	0.0134303
780.614	0.0134828
780.693	0.0136018
780.771	0.0136472
780.849	0.0135149
780.927	0.0135630
781.005	0.0136327
781.083	0.0138406
781.161	0.0137897
781.239	0.0137350
781.318	0.0138087
781.396	0.0138728
781.474	0.0139078
781.552	0.0139819
781.630	0.0138531
781.708	0.0138441
781.786	0.0139286
781.864	0.0139014
781.943	0.0139361
782.021	0.0139643
782.099	0.0139856
782.177	0.0139806
782.255	0.0139998
782.333	0.0138955
782.411	0.0139330
782.489	0.0138540
782.568	0.0138483
782.646	0.0138024
782.724	0.0138740
782.802	0.0137108
782.880	0.0136903
782.958	0.0138159
783.036	0.0136536
783.114	0.0137011
783.193	0.0137415
783.271	0.0137110
783.349	0.0136671
783.427	0.0136503
783.505	0.0135466
783.583	0.0137151
783.661	0.0136725
783.739	0.0135393
783.818	0.0134743
783.896	0.0135592
783.974	0.0137071
784.052	0.0135719
784.130	0.0135957
784.208	0.0136179
784.286	0.0135643
784.364	0.0136332
784.443	0.0134981
784.521	0.0134523
784.599	0.0135210
784.677	0.0134805
784.755	0.0134053
784.833	0.0134518
784.911	0.0134566
784.989	0.0135132
785.068	0.0133428
785.146	0.0134618
785.224	0.0135898
785.302	0.0135032
785.380	0.0134792
785.458	0.0137675
785.536	0.0137818
785.614	0.0137288
785.693	0.0137885
785.771	0.0138773
785.849	0.0139439
785.927	0.0139423
786.005	0.0140055
786.083	0.0138964
786.161	0.0138638
786.239	0.0137876
786.318	0.0137423
786.396	0.0137931
786.474	0.0138741
786.552	0.0139210
786.630	0.0137923
786.708	0.0137476
786.786	0.0137142
786.864	0.0137764
786.943	0.0136135
787.021	0.0136850
787.099	0.0136726
787.177	0.0136652
787.255	0.0137977
787.333	0.0137426
787.411	0.0136968
787.489	0.0137023
787.568	0.0135676
787.646	0.0137494
787.724	0.0136999
787.802	0.0137007
787.880	0.0138454
787.958	0.0137964
788.036	0.0137663
788.114	0.0138007
788.193	0.0138013
788.271	0.0138989
788.349	0.0137881
788.427	0.0138742
788.505	0.0138187
788.583	0.0137627
788.661	0.0137748
788.739	0.0138087
788.818	0.0136826
788.896	0.0136854
788.974	0.0137331
789.052	0.0135919
789.130	0.0135740
789.208	0.0136224
789.286	0.0135463
789.364	0.0133815
789.443	0.0133507
789.521	0.0135692
789.599	0.0134848
789.677	0.0133984
789.755	0.0134438
789.833	0.0133398
789.911	0.0133036
789.989	0.0133359
790.068	0.0134639
790.146	0.0134663
790.224	0.0133863
790.302	0.0132413
790.380	0.0134238
790.458	0.0134419
790.536	0.0134187
790.614	0.0132892
790.693	0.0135857
790.771	0.0135235
790.849	0.0135708
790.927	0.0137179
791.005	0.0136215
791.083	0.0137402
791.161	0.0139806
791.239	0.0139914
791.318	0.0140028
791.396	0.0140723
791.474	0.0141910
791.552	0.0141202
791.630	0.0142867
791.708	0.0144141
791.786	0.0144351
791.864	0.0143314
791.943	0.0144309
792.021	0.0145107
792.099	0.0144039
792.177	0.0144368
792.255	0.0143700
792.333	0.0142469
792.411	0.0142274
792.489	0.0139196
792.568	0.0139934
792.646	0.0138779
792.724	0.0137021
792.802	0.0135079
792.880	0.0136708
792.958	0.0133356
793.036	0.0131445
793.114	0.0131406
793.193	0.0130919
793.271	0.0130359
793.349	0.0129048
793.427	0.0128127
793.505	0.0128764
793.583	0.0128062
793.661	0.0128285
793.739	0.0128989
793.818	0.0128804
793.896	0.0128835
793.974	0.0128822
794.052	0.0128562
794.130	0.0130906
794.208	0.0131845
794.286	0.0134023
794.364	0.0134390
794.443	0.0133905
794.521	0.0134349
794.599	0.0135622
794.677	0.0136628
794.755	0.0137649
794.833	0.0138365
794.911	0.0138155
794.989	0.0140382
795.068	0.0140750
795.146	0.0142009
795.224	0.0140569
795.302	0.0141895
795.380	0.0143670
795.458	0.0141887
795.536	0.0143044
795.614	0.0143546
795.693	0.0143328
795.771	0.0142793
795.849	0.0143646
795.927	0.0143536
796.005	0.0142970
796.083	0.0142274
796.161	0.0142207
796.239	0.0142089
796.318	0.0141387
796.396	0.0139922
796.474	0.0139990
796.552	0.0140317
796.630	0.0139124
796.708	0.0138804
796.786	0.0137535
796.864	0.0137232
796.943	0.0136771
797.021	0.0135167
797.099	0.0133499
797.177	0.0134621
797.255	0.0134090
797.333	0.0132703
797.411	0.0131956
797.489	0.0131667
797.568	0.0132239
797.646	0.0132201
797.724	0.0132673
797.802	0.0131418
797.880	0.0131586
797.958	0.0130196
798.036	0.0132320
798.114	0.0133361
798.193	0.0132298
798.271	0.0133887
798.349	0.0134365
798.427	0.0133212
798.505	0.0134659
798.583	0.0135149
798.661	0.0135231
798.739	0.0135428
798.818	0.0135435
798.896	0.0136885
798.974	0.0136045
799.052	0.0135649
799.130	0.0137080
799.208	0.0137330
799.286	0.0137740
799.364	0.0138068
799.443	0.0138441
799.521	0.0138405
799.599	0.0139495
799.677	0.0138885
799.755	0.0139881
799.833	0.0140446
799.911	0.0139883
799.989	0.0140906
800.068	0.0141930
800.146	0.0140845
800.224	0.0143105
800.302	0.0142757
800.380	0.0142268
800.458	0.0143072
800.536	0.0144559
800.614	0.0143378
800.693	0.0144464
800.771	0.0144547
800.849	0.0143634
800.927	0.0141510
801.005	0.0141875
801.083	0.0141801
801.161	0.0141289
801.239	0.0139489
801.318	0.0139616
801.396	0.0139797
801.474	0.0138151
801.552	0.0135064
801.630	0.0136488
801.708	0.0134495
801.786	0.0132964
801.864	0.0132288
801.943	0.0130520
802.021	0.0130913
802.099	0.0130164
802.177	0.0129662
802.255	0.0129665
802.333	0.0127721
802.411	0.0127552
802.489	0.0128931
802.568	0.0128846
802.646	0.0129447
802.724	0.0128990
802.802	0.0129961
802.880	0.0129192
802.958	0.0132191
803.036	0.0131555
803.114	0.0134170
803.193	0.0132900
803.271	0.0131474
803.349	0.0134068
803.427	0.0135062
803.505	0.0134275
803.583	0.0134846
803.661	0.0136890
803.739	0.0138634
803.818	0.0139227
803.896	0.0139338
803.974	0.0140982
804.052	0.0142262
804.130	0.0144212
804.208	0.0145204
804.286	0.0144746
804.364	0.0146619
804.443	0.0148651
804.521	0.0146876
804.599	0.0148230
804.677	0.0150357
804.755	0.0150426
804.833	0.0149902
804.911	0.0149247
804.989	0.0149735
805.068	0.0149559
805.146	0.0147834
805.224	0.0148456
805.302	0.0147530
805.380	0.0145788
805.458	0.0143082
805.536	0.0141669
805.614	0.0140721
805.693	0.0137661
805.771	0.0135054
805.849	0.0132372
805.927	0.0132506
806.005	0.0129649
806.083	0.0127123
806.161	0.0126725
806.239	0.0125986
806.318	0.0124028
806.396	0.0123711
806.474	0.0123447
806.552	0.0124331
806.630	0.0124157
806.708	0.0124144
806.786	0.0124998
806.864	0.0125579
806.943	0.0125812
807.021	0.0125673
807.099	0.0126066
807.177	0.0128426
807.255	0.0129811
807.333	0.0131894
807.411	0.0132973
807.489	0.0132431
807.568	0.0133840
807.646	0.0134141
807.724	0.0136259
807.802	0.0136499
807.880	0.0136985
807.958	0.0138570
808.036	0.0139187
808.114	0.0139949
808.193	0.0140276
808.271	0.0141717
808.349	0.0143825
808.427	0.0144202
808.505	0.0143297
808.583	0.0145447
808.661	0.0146878
808.739	0.0146899
808.818	0.0147620
808.896	0.0148368
808.974	0.0148175
809.052	0.0147547
809.130	0.0148287
809.208	0.0149432
809.286	0.0148164
809.364	0.0148874
809.443	0.0147827
809.521	0.0147761
809.599	0.0146297
809.677	0.0145370
809.755	0.0145596
809.833	0.0142889
809.911	0.0142202
809.989	0.0140171
810.068	0.0138811
810.146	0.0138071
810.224	0.0136246
810.302	0.0133257
810.380	0.0132704
810.458	0.0129698
810.536	0.0128366
810.614	0.0126921
810.693	0.0125401
810.771	0.0125076
810.849	0.0125214
810.927	0.0125611
811.005	0.0124720
811.083	0.0126157
811.161	0.0124809
811.239	0.0125505
811.318	0.0126924
811.396	0.0126279
811.474	0.0126659
811.552	0.0130209
811.630	0.0129643
811.708	0.0129930
811.786	0.0131808
811.864	0.0132617
811.943	0.0132608
812.021	0.0134245
812.099	0.0134543
812.177	0.0135835
812.255	0.0138097
812.333	0.0138117
812.411	0.0137865
812.489	0.0137448
812.568	0.0139651
812.646	0.0139481
812.724	0.0138922
812.802	0.0140296
812.880	0.0142002
812.958	0.0142628
813.036	0.0143358
813.114	0.0144193
813.193	0.0143712
813.271	0.0143575
813.349	0.0143423
813.427	0.0144358
813.505	0.0143346
813.583	0.0144256
813.661	0.0145768
813.739	0.0144477
813.818	0.0142719
813.896	0.0142937
813.974	0.0143586
814.052	0.0142291
814.130	0.0140210
814.208	0.0142376
814.286	0.0141623
814.364	0.0139941
814.443	0.0139471
814.521	0.0138403
814.599	0.0136565
814.677	0.0135614
814.755	0.0136715
814.833	0.0136467
814.911	0.0135675
814.989	0.0134891
815.068	0.0135151
815.146	0.0133379
815.224	0.0134201
815.302	0.0134371
815.380	0.0133382
815.458	0.0132613
815.536	0.0133960
815.614	0.0132718
815.693	0.0133588
815.771	0.0133645
815.849	0.0132005
815.927	0.0133549
816.005	0.0134199
816.083	0.0134558
816.161	0.0134528
816.239	0.0134746
816.318	0.0134216
816.396	0.0134831
816.474	0.0133710
816.552	0.0133551
816.630	0.0134035
816.708	0.0134327
816.786	0.0133976
816.864	0.0133226
816.943	0.0133954
817.021	0.0134487
817.099	0.0134026
817.177	0.0134841
817.255	0.0134995
817.333	0.0135390
817.411	0.0134608
817.489	0.0135362
817.568	0.0134285
817.646	0.0134730
817.724	0.0136153
817.802	0.0136039
817.880	0.0136916
817.958	0.0136149
818.036	0.0138020
818.114	0.0138667
818.193	0.0137054
818.271	0.0138680
818.349	0.0138573
818.427	0.0140341
818.505	0.0140104
818.583	0.0140958
818.661	0.0142015
818.739	0.0143776
818.818	0.0143247
818.896	0.0143327
818.974	0.0143217
819.052	0.0142740
819.130	0.0143302
819.208	0.0141644
819.286	0.0142611
819.364	0.0142492
819.443	0.0141845
819.521	0.0142496
819.599	0.0141149
819.677	0.0139497
819.755	0.0138876
819.833	0.0138325
819.911	0.0139160
819.989	0.0137583
820.068	0.0137800
820.146	0.0136479
820.224	0.0138104
820.302	0.0136989
820.380	0.0136288
820.458	0.0136913
820.536	0.0136646
820.614	0.0137126
820.693	0.0136842
820.771	0.0135244
820.849	0.0135376
820.927	0.0134685
821.005	0.0134676
821.083	0.0133827
821.161	0.0134318
821.239	0.0133254
821.318	0.0132880
821.396	0.0133691
821.474	0.0131741
821.552	0.0132894
821.630	0.0132475
821.708	0.0131847
821.786	0.0130958
821.864	0.0131927
821.943	0.0133229
822.021	0.0132751
822.099	0.0132275
822.177	0.0132851
822.255	0.0132526
822.333	0.0132667
822.411	0.0133594
822.489	0.0133956
822.568	0.0135303
822.646	0.0135174
822.724	0.0134750
822.802	0.0136073
822.880	0.0136526
822.958	0.0136652
823.036	0.0135333
823.114	0.0136212
823.193	0.0136165
823.271	0.0136621
823.349	0.0135390
823.427	0.0137117
823.505	0.0137531
823.583	0.0137281
823.661	0.0138289
823.739	0.0139303
823.818	0.0140722
823.896	0.0140092
823.974	0.0140551
824.052	0.0142274
824.130	0.0142143
824.208	0.0141507
824.286	0.0142867
824.364	0.0143552
824.443	0.0143887
824.521	0.0143977
824.599	0.0144062
824.677	0.0142921
824.755	0.0143232
824.833	0.0142321
824.911	0.0142413
824.989	0.0141339
825.068	0.0142751
825.146	0.0141902
825.224	0.0139664
825.302	0.0139449
825.380	0.0138068
825.458	0.0138693
825.536	0.0136706
825.614	0.0136821
825.693	0.0136869
825.771	0.0137280
825.849	0.0135923
825.927	0.0135242
826.005	0.0135050
826.083	0.0135651
826.161	0.0135096
826.239	0.0135178
826.318	0.0135884
826.396	0.0135674
826.474	0.0133974
826.552	0.0135088
826.630	0.0134355
826.708	0.0135339
826.786	0.0135345
826.864	0.0135239
826.943	0.0133752
827.021	0.0134471
827.099	0.0134618
827.177	0.0134378
827.255	0.0134203
827.333	0.0134692
827.411	0.0133867
827.489	0.0135145
827.568	0.0132566
827.646	0.0131953
827.724	0.0134666
827.802	0.0133041
827.880	0.0132405
827.958	0.0133627
828.036	0.0133721
828.114	0.0135029
828.193	0.0133037
828.271	0.0135371
828.349	0.0136655
828.427	0.0137032
828.505	0.0138110
828.583	0.0137276
828.661	0.0137505
828.739	0.0138979
828.818	0.0140282
828.896	0.0140855
828.974	0.0139902
829.052	0.0141190
829.130	0.0141779
829.208	0.0142200
829.286	0.0143230
829.364	0.0142790
829.443	0.0144049
829.521	0.0142274
829.599	0.0142760
829.677	0.0143530
829.755	0.0142966
829.833	0.0143090
829.911	0.0144175
829.989	0.0140996
830.068	0.0141022
830.146	0.0141209
830.224	0.0140536
830.302	0.0138958
830.380	0.0139713
830.458	0.0139310
830.536	0.0138837
830.614	0.0138315
830.693	0.0138001
830.771	0.0136481
830.849	0.0135266
830.927	0.0135207
831.005	0.0135821
831.083	0.0136040
831.161	0.0134165
831.239	0.0133878
831.318	0.0135292
831.396	0.0135489
831.474	0.0134789
831.552	0.0133703
831.630	0.0133750
831.708	0.0134543
831.786	0.0134239
831.864	0.0133574
831.943	0.0134289
832.021	0.0133193
832.099	0.0133928
832.177	0.0134795
832.255	0.0135233
832.333	0.0135714
832.411	0.0135175
832.489	0.0134808
832.568	0.0134200
832.646	0.0136277
832.724	0.0134783
832.802	0.0136263
832.880	0.0136092
832.958	0.0136167
833.036	0.0136577
833.114	0.0137430
833.193	0.0138947
833.271	0.0139114
833.349	0.0136636
833.427	0.0137137
833.505	0.0138745
833.583	0.0137644
833.661	0.0138352
833.739	0.0137523
833.818	0.0138393
833.896	0.0138654
833.974	0.0140201
834.052	0.0138696
834.130	0.0138517
834.208	0.0138113
834.286	0.0137856
834.364	0.0139347
834.443	0.0137883
834.521	0.0138021
834.599	0.0137767
834.677	0.0137964
834.755	0.0137855
834.833	0.0136770
834.911	0.0136977
834.989	0.0137195
835.068	0.0138596
835.146	0.0138022
835.224	0.0138007
835.302	0.0137475
835.380	0.0137568
835.458	0.0137141
835.536	0.0138282
835.614	0.0136688
835.693	0.0136097
835.771	0.0136221
835.849	0.0135902
835.927	0.0135847
836.005	0.0136644
836.083	0.0135140
836.161	0.0134605
836.239	0.0133431
836.318	0.0134475
836.396	0.0134363
836.474	0.0134338
836.552	0.0134079
836.630	0.0133486
836.708	0.0132180
836.786	0.0133920
836.864	0.0132914
836.943	0.0133332
837.021	0.0133954
837.099	0.0133978
837.177	0.0133376
837.255	0.0133354
837.333	0.0134837
837.411	0.0136689
837.489	0.0136421
837.568	0.0135893
837.646	0.0135614
837.724	0.0137067
837.802	0.0138692
837.880	0.0137973
837.958	0.0138682
838.036	0.0140009
838.114	0.0140128
838.193	0.0139342
838.271	0.0140487
838.349	0.0140014
838.427	0.0140457
838.505	0.0139217
838.583	0.0139810
838.661	0.0139919
838.739	0.0139392
838.818	0.0139829
838.896	0.0139535
838.974	0.0137956
839.052	0.0139092
839.130	0.0139055
839.208	0.0138535
839.286	0.0137414
839.364	0.0137495
839.443	0.0137921
839.521	0.0137798
839.599	0.0138660
839.677	0.0136791
839.755	0.0136863
839.833	0.0136115
839.911	0.0135524
839.989	0.0137495
840.068	0.0135422
840.146	0.0134914
840.224	0.0135981
840.302	0.0136500
840.380	0.0134898
840.458	0.0135170
840.536	0.0134211
840.614	0.0134238
840.693	0.0135367
840.771	0.0135025
840.849	0.0134234
840.927	0.0133930
841.005	0.0133669
841.083	0.0134616
841.161	0.0133945
841.239	0.0135254
841.318	0.0133189
841.396	0.0134502
841.474	0.0134426
841.552	0.0134681
841.630	0.0135085
841.708	0.0134109
841.786	0.0135623
841.864	0.0135793
841.943	0.0135516
842.021	0.0135126
842.099	0.0136268
842.177	0.0137095
842.255	0.0138114
842.333	0.0138063
842.411	0.0137192
842.489	0.0138390
842.568	0.0137963
842.646	0.0140323
842.724	0.0140121
842.802	0.0139587
842.880	0.0141453
842.958	0.0141090
843.036	0.0141375
843.114	0.0143175
843.193	0.0142792
843.271	0.0142580
843.349	0.0141757
843.427	0.0141582
843.505	0.0142364
843.583	0.0142185
843.661	0.0138953
843.739	0.0140807
843.818	0.0141081
843.896	0.0140070
843.974	0.0138885
844.052	0.0136443
844.130	0.0136806
844.208	0.0136664
844.286	0.0135987
844.364	0.0135380
844.443	0.0134979
844.521	0.0134335
844.599	0.0133129
844.677	0.0133418
844.755	0.0134859
844.833	0.0133226
844.911	0.0132048
844.989	0.0132976
845.068	0.0134035
845.146	0.0133360
845.224	0.0133596
845.302	0.0132869
845.380	0.0134138
845.458	0.0134215
845.536	0.0133818
845.614	0.0134425
845.693	0.0134467
845.771	0.0135999
845.849	0.0134361
845.927	0.0135261
846.005	0.0136526
846.083	0.0137209
846.161	0.0138416
846.239	0.0138536
846.318	0.0137601
846.396	0.0139356
846.474	0.0140838
846.552	0.0140246
846.630	0.0140253
846.708	0.0141209
846.786	0.0141299
846.864	0.0139899
846.943	0.0140992
847.021	0.0140039
847.099	0.0139469
847.177	0.0140491
847.255	0.0140220
847.333	0.0139484
847.411	0.0139098
847.489	0.0138284
847.568	0.0139713
847.646	0.0137545
847.724	0.0137833
847.802	0.0137175
847.880	0.0138445
847.958	0.0137219
848.036	0.0137457
848.114	0.0136544
848.193	0.0135323
848.271	0.0135888
848.349	0.0135153
848.427	0.0135943
848.505	0.0135535
848.583	0.0134240
848.661	0.0133950
848.739	0.0134346
848.818	0.0134032
848.896	0.0134541
848.974	0.0133904
849.052	0.0132741
849.130	0.0133546
849.208	0.0132928
849.286	0.0132089
849.364	0.0133555
849.443	0.0133590
849.521	0.0133760
849.599	0.0135340
849.677	0.0134409
849.755	0.0134663
849.833	0.0134286
849.911	0.0135827
849.989	0.0137038
850.068	0.0136626
850.146	0.0137067
850.224	0.0138555
850.302	0.0138889
850.380	0.0139892
850.458	0.0140246
850.536	0.0139304
850.614	0.0139168
850.693	0.0141016
850.771	0.0139945
850.849	0.0139836
850.927	0.0141166
851.005	0.0141225
851.083	0.0139971
851.161	0.0141395
851.239	0.0139441
851.318	0.0138654
851.396	0.0140800
851.474	0.0139495
851.552	0.0138620
851.630	0.0140400
851.708	0.0139528
851.786	0.0138775
851.864	0.0138722
851.943	0.0139438
852.021	0.0137984
852.099	0.0138698
852.177	0.0137312
852.255	0.0137557
852.333	0.0138419
852.411	0.0138280
852.489	0.0138398
852.568	0.0136184
852.646	0.0136906
852.724	0.0136036
852.802	0.0135825
852.880	0.0134387
852.958	0.0135088
853.036	0.0133891
853.114	0.0133751
853.193	0.0133556
853.271	0.0133191
853.349	0.0133129
853.427	0.0132019
853.505	0.0131480
853.583	0.0132301
853.661	0.0132436
853.739	0.0132108
853.818	0.0131287
853.896	0.0131682
853.974	0.0132832
854.052	0.0131979
854.130	0.0132715
854.208	0.0133033
854.286	0.0133851
854.364	0.0134097
854.443	0.0135368
854.521	0.0136143
854.599	0.0136891
854.677	0.0136646
854.755	0.0136123
854.833	0.0137629
854.911	0.0139121
854.989	0.0139323
855.068	0.0139400
855.146	0.0140132
855.224	0.0140589
855.302	0.0140591
855.380	0.0140274
855.458	0.0139328
855.536	0.0140097
855.614	0.0140263
855.693	0.0140732
855.771	0.0140794
855.849	0.0140638
855.927	0.0139745
856.005	0.0139489
856.083	0.0139569
856.161	0.0140874
856.239	0.0140176
856.318	0.0140567
856.396	0.0140079
856.474	0.0138686
856.552	0.0138476
856.630	0.0137394
856.708	0.0136156
856.786	0.0136522
856.864	0.0137837
856.943	0.0137480
857.021	0.0135558
857.099	0.0134644
857.177	0.0135025
857.255	0.0135526
857.333	0.0134834
857.411	0.0133332
857.489	0.0133989
857.568	0.0135455
857.646	0.0135057
857.724	0.0133482
857.802	0.0134811
857.880	0.0133957
857.958	0.0134328
858.036	0.0134584
858.114	0.0135474
858.193	0.0135149
858.271	0.0134200
858.349	0.0135411
858.427	0.0134537
858.505	0.0136076
858.583	0.0136465
858.661	0.0137949
858.739	0.0136697
858.818	0.0137254
858.896	0.0137900
858.974	0.0138216
859.052	0.0138334
859.130	0.0137244
859.208	0.0137003
859.286	0.0138712
859.364	0.0138605
859.443	0.0137715
859.521	0.0137881
859.599	0.0137662
859.677	0.0137687
859.755	0.0138253
859.833	0.0137123
859.911	0.0138285
859.989	0.0137004
860.068	0.0135782
860.146	0.0136377
860.224	0.0135335
860.302	0.0134415
860.380	0.0136063
860.458	0.0137703
860.536	0.0135963
860.614	0.0134383
860.693	0.0135191
860.771	0.0133788
860.849	0.0135114
860.927	0.0135005
861.005	0.0134361
861.083	0.0136092
861.161	0.0136449
861.239	0.0135371
861.318	0.0135895
861.396	0.0136115
861.474	0.0136196
861.552	0.0136075
861.630	0.0136637
861.708	0.0137833
861.786	0.0137253
861.864	0.0137800
861.943	0.0138091
862.021	0.0136929
862.099	0.0136729
862.177	0.0137991
862.255	0.0138397
862.333	0.0138828
862.411	0.0138252
862.489	0.0139050
862.568	0.0137969
862.646	0.0137676
862.724	0.0137279
862.802	0.0138350
862.880	0.0138821
862.958	0.0137833
863.036	0.0137140
863.114	0.0137282
863.193	0.0137379
863.271	0.0136305
863.349	0.0135929
863.427	0.0137547
863.505	0.0135860
863.583	0.0136726
863.661	0.0136361
863.739	0.0135233
863.818	0.0135356
863.896	0.0136184
863.974	0.0136445
864.052	0.0136422
864.130	0.0136056
864.208	0.0134578
864.286	0.0134374
864.364	0.0137048
864.443	0.0136313
864.521	0.0136263
864.599	0.0134669
864.677	0.0135435
864.755	0.0135080
864.833	0.0133520
864.911	0.0135819
864.989	0.0135091
865.068	0.0135783
865.146	0.0135272
865.224	0.0134975
865.302	0.0136572
865.380	0.0135875
865.458	0.0134496
865.536	0.0135046
865.614	0.0134041
865.693	0.0134300
865.771	0.0135738
865.849	0.0136200
865.927	0.0137483
866.005	0.0137407
866.083	0.0136918
866.161	0.0136398
866.239	0.0137938
866.318	0.0138219
866.396	0.0138679
866.474	0.0138834
866.552	0.0138941
866.630	0.0138783
866.708	0.0139832
866.786	0.0139933
866.864	0.0138505
866.943	0.0139211
867.021	0.0139465
867.099	0.0139253
867.177	0.0140376
867.255	0.0139493
867.333	0.0139693
867.411	0.0138589
867.489	0.0137432
867.568	0.0138380
867.646	0.0137584
867.724	0.0137637
867.802	0.0138395
867.880	0.0138302
867.958	0.0136126
868.036	0.0136531
868.114	0.0140079
868.193	0.0136508
868.271	0.0136310
868.349	0.0137045
868.427	0.0135443
868.505	0.0134480
868.583	0.0135077
868.661	0.0134863
868.739	0.0134135
868.818	0.0133575
868.896	0.0134326
868.974	0.0134019
869.052	0.0134298
869.130	0.0133763
869.208	0.0133157
869.286	0.0133486
869.364	0.0133968
869.443	0.0133418
869.521	0.0133030
869.599	0.0134538
869.677	0.0133891
869.755	0.0133007
869.833	0.0134705
869.911	0.0135877
869.989	0.0135067
870.068	0.0136147
870.146	0.0135648
870.224	0.0136678
870.302	0.0136965
870.380	0.0136378
870.458	0.0138721
870.536	0.0139364
870.614	0.0139384
870.693	0.0138622
870.771	0.0138945
870.849	0.0139211
870.927	0.0139232
871.005	0.0138977
871.083	0.0139180
871.161	0.0139188
871.239	0.0139203
871.318	0.0138788
871.396	0.0137477
871.474	0.0138248
871.552	0.0138799
871.630	0.0138823
871.708	0.0139020
871.786	0.0137910
871.864	0.0138490
871.943	0.0138148
872.021	0.0139063
872.099	0.0137183
872.177	0.0137309
872.255	0.0137157
872.333	0.0137234
872.411	0.0134661
872.489	0.0135315
872.568	0.0136478
872.646	0.0137128
872.724	0.0135690
872.802	0.0133952
872.880	0.0133753
872.958	0.0135954
873.036	0.0135799
873.114	0.0134042
873.193	0.0135316
873.271	0.0135401
873.349	0.0135686
873.427	0.0136642
873.505	0.0135110
873.583	0.0133625
873.661	0.0134855
873.739	0.0134045
873.818	0.0134993
873.896	0.0135682
873.974	0.0135629
874.052	0.0135451
874.130	0.0135687
874.208	0.0136013
874.286	0.0135159
874.364	0.0134785
874.443	0.0135933
874.521	0.0136628
874.599	0.0135558
874.677	0.0137395
874.755	0.0136542
874.833	0.0136542
874.911	0.0136417
874.989	0.0136244
875.068	0.0136292
875.146	0.0136806
875.224	0.0137132
875.302	0.0138042
875.380	0.0137756
875.458	0.0138319
875.536	0.0138430
875.614	0.0137395
875.693	0.0138987
875.771	0.0138328
875.849	0.0139050
875.927	0.0136954
876.005	0.0137151
876.083	0.0136551
876.161	0.0137083
876.239	0.0137407
876.318	0.0136025
876.396	0.0136216
876.474	0.0136241
876.552	0.0137010
876.630	0.0136640
876.708	0.0136024
876.786	0.0137337
876.864	0.0135941
876.943	0.0136077
877.021	0.0138874
877.099	0.0138068
877.177	0.0137536
877.255	0.0137293
877.333	0.0136515
877.411	0.0137827
877.489	0.0137135
877.568	0.0136857
877.646	0.0136951
877.724	0.0137888
877.802	0.0138907
877.880	0.0137597
877.958	0.0138110
878.036	0.0138062
878.114	0.0138014
878.193	0.0137766
878.271	0.0138762
878.349	0.0138519
878.427	0.0138100
878.505	0.0138013
878.583	0.0137480
878.661	0.0140193
878.739	0.0139003
878.818	0.0136765
878.896	0.0136348
878.974	0.0137808
879.052	0.0136855
879.130	0.0136665
879.208	0.0135865
879.286	0.0134995
879.364	0.0135498
879.443	0.0136508
879.521	0.0137034
879.599	0.0136417
879.677	0.0136141
879.755	0.0136095
879.833	0.0135580
879.911	0.0137283
879.989	0.0137991
880.068	0.0136514
880.146	0.0136262
880.224	0.0138116
880.302	0.0138872
880.380	0.0138026
880.458	0.0137583
880.536	0.0138085
880.614	0.0138322
880.693	0.0138566
880.771	0.0138137
880.849	0.0138382
880.927	0.0137762
881.005	0.0137337
881.083	0.0136288
881.161	0.0135757
881.239	0.0134544
881.318	0.0133675
881.396	0.0133817
881.474	0.0133599
881.552	0.0133347
881.630	0.0133102
881.708	0.0132347
881.786	0.0131362
881.864	0.0131381
881.943	0.0131490
882.021	0.0133232
882.099	0.0132108
882.177	0.0134556
882.255	0.0133872
882.333	0.0133624
882.411	0.0135020
882.489	0.0137122
882.568	0.0137640
882.646	0.0138658
882.724	0.0138819
882.802	0.0141355
882.880	0.0140865
882.958	0.0141129
883.036	0.0142213
883.114	0.0141093
883.193	0.0141287
883.271	0.0141951
883.349	0.0143459
883.427	0.0142691
883.505	0.0142588
883.583	0.0143160
883.661	0.0142155
883.739	0.0141626
883.818	0.0140368
883.896	0.0139429
883.974	0.0139322
884.052	0.0138441
884.130	0.0137550
884.208	0.0137255
884.286	0.0137630
884.364	0.0137048
884.443	0.0136279
884.521	0.0135517
884.599	0.0136184
884.677	0.0134990
884.755	0.0133363
884.833	0.0134516
884.911	0.0134984
884.989	0.0133191
885.068	0.0133646
885.146	0.0133191
885.224	0.0133503
885.302	0.0133578
885.380	0.0132539
885.458	0.0132235
885.536	0.0132445
885.614	0.0130886
885.693	0.0133283
885.771	0.0133747
885.849	0.0132683
885.927	0.0131747
886.005	0.0133186
886.083	0.0134782
886.161	0.0133987
886.239	0.0135680
886.318	0.0136291
886.396	0.0135821
886.474	0.0136312
886.552	0.0137834
886.630	0.0138271
886.708	0.0137884
886.786	0.0139234
886.864	0.0138877
886.943	0.0138849
887.021	0.0138248
887.099	0.0137803
887.177	0.0138298
887.255	0.0137463
887.333	0.0137481
887.411	0.0137122
887.489	0.0137493
887.568	0.0138606
887.646	0.0137030
887.724	0.0136378
887.802	0.0135234
887.880	0.0135804
887.958	0.0136472
888.036	0.0135006
888.114	0.0135533
888.193	0.0135215
888.271	0.0134597
888.349	0.0135754
888.427	0.0136320
888.505	0.0135248
888.583	0.0135062
888.661	0.0134459
888.739	0.0135955
888.818	0.0137096
888.896	0.0137654
888.974	0.0137520
889.052	0.0136689
889.130	0.0136602
889.208	0.0137174
889.286	0.0137259
889.364	0.0137625
889.443	0.0139700
889.521	0.0139475
889.599	0.0139901
889.677	0.0139913
889.755	0.0140952
889.833	0.0140272
889.911	0.0140860
889.989	0.0140580
890.068	0.0140113
890.146	0.0141634
890.224	0.0139100
890.302	0.0139939
890.380	0.0139359
890.458	0.0138528
890.536	0.0138565
890.614	0.0139807
890.693	0.0139101
890.771	0.0136067
890.849	0.0138580
890.927	0.0138490
891.005	0.0135842
891.083	0.0134930
891.161	0.0134222
891.239	0.0134649
891.318	0.0135382
891.396	0.0133318
891.474	0.0133528
891.552	0.0134110
891.630	0.0133419
891.708	0.0134269
891.786	0.0132533
891.864	0.0132784
891.943	0.0132563
892.021	0.0133100
892.099	0.0130997
892.177	0.0133102
892.255	0.0133260
892.333	0.0133080
892.411	0.0133696
892.489	0.0134251
892.568	0.0135448
892.646	0.0135899
892.724	0.0133800
892.802	0.0134975
892.880	0.0135642
892.958	0.0136853
893.036	0.0136294
893.114	0.0134980
893.193	0.0136446
893.271	0.0136850
893.349	0.0138213
893.427	0.0137689
893.505	0.0137199
893.583	0.0137867
893.661	0.0138960
893.739	0.0138278
893.818	0.0138625
893.896	0.0137751
893.974	0.0139240
894.052	0.0138589
894.130	0.0139320
894.208	0.0140582
894.286	0.0140305
894.364	0.0139782
894.443	0.0141680
894.521	0.0140754
894.599	0.0140613
894.677	0.0142509
894.755	0.0142283
894.833	0.0142078
894.911	0.0142788
894.989	0.0140565
895.068	0.0140893
895.146	0.0141611
895.224	0.0141396
895.302	0.0140466
895.380	0.0139472
895.458	0.0139586
895.536	0.0139828
895.614	0.0139494
895.693	0.0139092
895.771	0.0136653
895.849	0.0136095
895.927	0.0137299
896.005	0.0135139
896.083	0.0134605
896.161	0.0136581
896.239	0.0134100
896.318	0.0134302
896.396	0.0132184
896.474	0.0132240
896.552	0.0131631
896.630	0.0130747
896.708	0.0131354
896.786	0.0132224
896.864	0.0132049
896.943	0.0131423
897.021	0.0131976
897.099	0.0133112
897.177	0.0133681
897.255	0.0133588
897.333	0.0135121
897.411	0.0135880
897.489	0.0135477
897.568	0.0135488
897.646	0.0136832
897.724	0.0137163
897.802	0.0138377
897.880	0.0138201
897.958	0.0138055
898.036	0.0138122
898.114	0.0140496
898.193	0.0138722
898.271	0.0139068
898.349	0.0139770
898.427	0.0141640
898.505	0.0140778
898.583	0.0140308
898.661	0.0140693
898.739	0.0139070
898.818	0.0140950
898.896	0.0141544
898.974	0.0141502
899.052	0.0141927
899.130	0.0142435
899.208	0.0143931
899.286	0.0144159
899.364	0.0144385
899.443	0.0143769
899.521	0.0145743
899.599	0.0145761
899.677	0.0144640
899.755	0.0145132
899.833	0.0142744
899.911	0.0142477
899.989	0.0140912
900.068	0.0138613
900.146	0.0138631
900.224	0.0137122
900.302	0.0133810
900.380	0.0133372
900.458	0.0133203
900.536	0.0131569
900.614	0.0130426
900.693	0.0130370
900.771	0.0128447
900.849	0.0127620
900.927	0.0128005
901.005	0.0126997
901.083	0.0127901
901.161	0.0127601
901.239	0.0127158
901.318	0.0128201
901.396	0.0129182
901.474	0.0131562
901.552	0.0131568
901.630	0.0133951
901.708	0.0134706
901.786	0.0137261
901.864	0.0137371
901.943	0.0139170
902.021	0.0141216
902.099	0.0143647
902.177	0.0143156
902.255	0.0144080
902.333	0.0145630
902.411	0.0144984
902.489	0.0143674
902.568	0.0144437
902.646	0.0142171
902.724	0.0143330
902.802	0.0142169
902.880	0.0140314
902.958	0.0140549
903.036	0.0139450
903.114	0.0139328
903.193	0.0138338
903.271	0.0137025
903.349	0.0137586
903.427	0.0138739
903.505	0.0138092
903.583	0.0137105
903.661	0.0137061
903.739	0.0137743
903.818	0.0135055
903.896	0.0137242
903.974	0.0137654
904.052	0.0136515
904.130	0.0136823
904.208	0.0136489
904.286	0.0136194
904.364	0.0136129
904.443	0.0137272
904.521	0.0136613
904.599	0.0135020
904.677	0.0134761
904.755	0.0135878
904.833	0.0134177
904.911	0.0135761
904.989	0.0134489
905.068	0.0134631
905.146	0.0136610
905.224	0.0135420
905.302	0.0134502
905.380	0.0133766
905.458	0.0134946
905.536	0.0135307
905.614	0.0135831
905.693	0.0136015
905.771	0.0136872
905.849	0.0137405
905.927	0.0138139
906.005	0.0138809
906.083	0.0137587
906.161	0.0137919
906.239	0.0138616
906.318	0.0138927
906.396	0.0139051
906.474	0.0138863
906.552	0.0138653
906.630	0.0141453
906.708	0.0139672
906.786	0.0139355
906.864	0.0139939
906.943	0.0137715
907.021	0.0137305
907.099	0.0136374
907.177	0.0137180
907.255	0.0135296
907.333	0.0133749
907.411	0.0134522
907.489	0.0133421
907.568	0.0132562
907.646	0.0134299
907.724	0.0131658
907.802	0.0132581
907.880	0.0133401
907.958	0.0133332
908.036	0.0134187
908.114	0.0134462
908.193	0.0136343
908.271	0.0136850
908.349	0.0137161
908.427	0.0136811
908.505	0.0138257
908.583	0.0138595
908.661	0.0138878
908.739	0.0138181
908.818	0.0139571
908.896	0.0139226
908.974	0.0139193
909.052	0.0138878
909.130	0.0138557
909.208	0.0138816
909.286	0.0138869
909.364	0.0137854
909.443	0.0137560
909.521	0.0136414
909.599	0.0138000
909.677	0.0136707
909.755	0.0136816
909.833	0.0137746
909.911	0.0135970
909.989	0.0136325
910.068	0.0136224
910.146	0.0135284
910.224	0.0135671
910.302	0.0134605
910.380	0.0135571
910.458	0.0136611
910.536	0.0136926
910.614	0.0136887
910.693	0.0137002
910.771	0.0138966
910.849	0.0138667
910.927	0.0140147
911.005	0.0141293
911.083	0.0138802
911.161	0.0140546
911.239	0.0140854
911.318	0.0140032
911.396	0.0139195
911.474	0.0138960
911.552	0.0139295
911.630	0.0138618
911.708	0.0138464
911.786	0.0137342
911.864	0.0136382
911.943	0.0135204
912.021	0.0135394
912.099	0.0132578
912.177	0.0133724
912.255	0.0131661
912.333	0.0131668
912.411	0.0132208
912.489	0.0132928
912.568	0.0131316
912.646	0.0132610
912.724	0.0131886
912.802	0.0133431
912.880	0.0133823
912.958	0.0135461
913.036	0.0135712
913.114	0.0136626
913.193	0.0137562
913.271	0.0138718
913.349	0.0138448
913.427	0.0138571
913.505	0.0139945
913.583	0.0140070
913.661	0.0141494
913.739	0.0140701
913.818	0.0139653
913.896	0.0140283
913.974	0.0139639
914.052	0.0139147
914.130	0.0139555
914.208	0.0138105
914.286	0.0136294
914.364	0.0136391
914.443	0.0136057
914.521	0.0135345
914.599	0.0135091
914.677	0.0134043
914.755	0.0133726
914.833	0.0134889
914.911	0.0135246
914.989	0.0134257
915.068	0.0133319
915.146	0.0135922
915.224	0.0135294
915.302	0.0136442
915.380	0.0136691
915.458	0.0137367
915.536	0.0137725
915.614	0.0137984
915.693	0.0138462
915.771	0.0139915
915.849	0.0140188
915.927	0.0139873
916.005	0.0141714
916.083	0.0141003
916.161	0.0140252
916.239	0.0138908
916.318	0.0140234
916.396	0.0140163
916.474	0.0139668
916.552	0.0139447
916.630	0.0137596
916.708	0.0137622
916.786	0.0137064
916.864	0.0137353
916.943	0.0137015
917.021	0.0136758
917.099	0.0135375
917.177	0.0136111
917.255	0.0134603
917.333	0.0135243
917.411	0.0134186
917.489	0.0135687
917.568	0.0135904
917.646	0.0134882
917.724	0.0134441
917.802	0.0135699
917.880	0.0136559
917.958	0.0136363
918.036	0.0135520
918.114	0.0135516
918.193	0.0135091
918.271	0.0136624
918.349	0.0139098
918.427	0.0137486
918.505	0.0138912
918.583	0.0138905
918.661	0.0138441
918.739	0.0138845
918.818	0.0139896
918.896	0.0140083
918.974	0.0140554
919.052	0.0139655
919.130	0.0138885
919.208	0.0139609
919.286	0.0139909
919.364	0.0138717
919.443	0.0138393
919.521	0.0138548
919.599	0.0137872
919.677	0.0136798
919.755	0.0138268
919.833	0.0136761
919.911	0.0135406
919.989	0.0135564
920.068	0.0135409
920.146	0.0134171
920.224	0.0134727
920.302	0.0133925
920.380	0.0133881
920.458	0.0134121
920.536	0.0133665
920.614	0.0134139
920.693	0.0135739
920.771	0.0134547
920.849	0.0136399
920.927	0.0136490
921.005	0.0136746
921.083	0.0136563
921.161	0.0137312
921.239	0.0138139
921.318	0.0136688
921.396	0.0137366
921.474	0.0138807
921.552	0.0139675
921.630	0.0139164
921.708	0.0138991
921.786	0.0140351
921.864	0.0139459
921.943	0.0138836
922.021	0.0140314
922.099	0.0139289
922.177	0.0137884
922.255	0.0139832
922.333	0.0139418
922.411	0.0139944
922.489	0.0139478
922.568	0.0136797
922.646	0.0138625
922.724	0.0139944
922.802	0.0138953
922.880	0.0138804
922.958	0.0137909
923.036	0.0139489
923.114	0.0139706
923.193	0.0139298
923.271	0.0137163
923.349	0.0137363
923.427	0.0140322
923.505	0.0137560
923.583	0.0138049
923.661	0.0138468
923.739	0.0138113
923.818	0.0138152
923.896	0.0138420
923.974	0.0136658
924.052	0.0137224
924.130	0.0136217
924.208	0.0137723
924.286	0.0136869
924.364	0.0136681
924.443	0.0136788
924.521	0.0138099
924.599	0.0136210
924.677	0.0135397
924.755	0.0136948
924.833	0.0136845
924.911	0.0137069
924.989	0.0136835
925.068	0.0135191
925.146	0.0135827
925.224	0.0136103
925.302	0.0135348
925.380	0.0135794
925.458	0.0134800
925.536	0.0135028
925.614	0.0135160
925.693	0.0135528
925.771	0.0136269
925.849	0.0135600
925.927	0.0135738
926.005	0.0135828
926.083	0.0136086
926.161	0.0135410
926.239	0.0135986
926.318	0.0135040
926.396	0.0135394
926.474	0.0135455
926.552	0.0136452
926.630	0.0136713
926.708	0.0136834
926.786	0.0136064
926.864	0.0136511
926.943	0.0138310
927.021	0.0138194
927.099	0.0139123
927.177	0.0137643
927.255	0.0137881
927.333	0.0139172
927.411	0.0139110
927.489	0.0138565
927.568	0.0138499
927.646	0.0139035
927.724	0.0138013
927.802	0.0139677
927.880	0.0138179
927.958	0.0138020
928.036	0.0137628
928.114	0.0138269
928.193	0.0135884
928.271	0.0136853
928.349	0.0135001
928.427	0.0136044
928.505	0.0135162
928.583	0.0136320
928.661	0.0136356
928.739	0.0135593
928.818	0.0136091
928.896	0.0137324
928.974	0.0135241
929.052	0.0135779
929.130	0.0136800
929.208	0.0140121
929.286	0.0139524
929.364	0.0138815
929.443	0.0138583
929.521	0.0139511
929.599	0.0140484
929.677	0.0140639
929.755	0.0138658
929.833	0.0139326
929.911	0.0140878
929.989	0.0140918
930.068	0.0140566
930.146	0.0138940
930.224	0.0139658
930.302	0.0139754
930.380	0.0138367
930.458	0.0137858
930.536	0.0138121
930.614	0.0136015
930.693	0.0135507
930.771	0.0136051
930.849	0.0135342
930.927	0.0134892
931.005	0.0135281
931.083	0.0134831
931.161	0.0134680
931.239	0.0133930
931.318	0.0132903
931.396	0.0133071
931.474	0.0134313
931.552	0.0133479
931.630	0.0133429
931.708	0.0133617
931.786	0.0134689
931.864	0.0133315
931.943	0.0133790
932.021	0.0133709
932.099	0.0132694
932.177	0.0132723
932.255	0.0134130
932.333	0.0133837
932.411	0.0135205
932.489	0.0136213
932.568	0.0135797
932.646	0.0135069
932.724	0.0135883
932.802	0.0137414
932.880	0.0137925
932.958	0.0137569
933.036	0.0136613
933.114	0.0138173
933.193	0.0138948
933.271	0.0138877
933.349	0.0138777
933.427	0.0139944
933.505	0.0138545
933.583	0.0138988
933.661	0.0139491
933.739	0.0139465
933.818	0.0138926
933.896	0.0139180
933.974	0.0138209
934.052	0.0138650
934.130	0.0139849
934.208	0.0139507
934.286	0.0139257
934.364	0.0139256
934.443	0.0140347
934.521	0.0140126
934.599	0.0137746
934.677	0.0138734
934.755	0.0137703
934.833	0.0138918
934.911	0.0139661
934.989	0.0138694
935.068	0.0136987
935.146	0.0137957
935.224	0.0138272
935.302	0.0136542
935.380	0.0136829
935.458	0.0137385
935.536	0.0136617
935.614	0.0135585
935.693	0.0135526
935.771	0.0134309
935.849	0.0135060
935.927	0.0135589
936.005	0.0133920
936.083	0.0134119
936.161	0.0133671
936.239	0.0134528
936.318	0.0134158
936.396	0.0134496
936.474	0.0133699
936.552	0.0134270
936.630	0.0134980
936.708	0.0132848
936.786	0.0133475
936.864	0.0134544
936.943	0.0135708
937.021	0.0134704
937.099	0.0136079
937.177	0.0135915
937.255	0.0137136
937.333	0.0136975
937.411	0.0136732
937.489	0.0136803
937.568	0.0136768
937.646	0.0137264
937.724	0.0137672
937.802	0.0137403
937.880	0.0137244
937.958	0.0137973
938.036	0.0137163
938.114	0.0137032
938.193	0.0137135
938.271	0.0137569
938.349	0.0138432
938.427	0.0138805
938.505	0.0137924
938.583	0.0138091
938.661	0.0138966
938.739	0.0138441
938.818	0.0138767
938.896	0.0138949
938.974	0.0140992
939.052	0.0140817
939.130	0.0139323
939.208	0.0139153
939.286	0.0140211
939.364	0.0140328
939.443	0.0138758
939.521	0.0139212
939.599	0.0138146
939.677	0.0139198
939.755	0.0137721
939.833	0.0137573
939.911	0.0137553
939.989	0.0136674
940.068	0.0136089
940.146	0.0135299
940.224	0.0136392
940.302	0.0136156
940.380	0.0134908
940.458	0.0134499
940.536	0.0134448
940.614	0.0134594
940.693	0.0134160
940.771	0.0135198
940.849	0.0134648
940.927	0.0134309
941.005	0.0133880
941.083	0.0135890
941.161	0.0136585
941.239	0.0135014
941.318	0.0135569
941.396	0.0135532
941.474	0.0136151
941.552	0.0135357
941.630	0.0136201
941.708	0.0137823
941.786	0.0138569
941.864	0.0137437
941.943	0.0137244
942.021	0.0138461
942.099	0.0138521
942.177	0.0139485
942.255	0.0139016
942.333	0.0140202
942.411	0.0139650
942.489	0.0139545
942.568	0.0138562
942.646	0.0139928
942.724	0.0139938
942.802	0.0139456
942.880	0.0139895
942.958	0.0139824
943.036	0.0141198
943.114	0.0140636
943.193	0.0141231
943.271	0.0139612
943.349	0.0138734
943.427	0.0139556
943.505	0.0138777
943.583	0.0138834
943.661	0.0137078
943.739	0.0136141
943.818	0.0135921
943.896	0.0136769
943.974	0.0135862
944.052	0.0133720
944.130	0.0134263
944.208	0.0133617
944.286	0.0135178
944.364	0.0134347
944.443	0.0134165
944.521	0.0132836
944.599	0.0134081
944.677	0.0133824
944.755	0.0134262
944.833	0.0132574
944.911	0.0133434
944.989	0.0133492
945.068	0.0133842
945.146	0.0134117
945.224	0.0135491
945.302	0.0136284
945.380	0.0135386
945.458	0.0135777
945.536	0.0136463
945.614	0.0136536
945.693	0.0137230
945.771	0.0137825
945.849	0.0137392
945.927	0.0138211
946.005	0.0139487
946.083	0.0139729
946.161	0.0139381
946.239	0.0140099
946.318	0.0140270
946.396	0.0140427
946.474	0.0140405
946.552	0.0140862
946.630	0.0140703
946.708	0.0140612
946.786	0.0140775
946.864	0.0141053
946.943	0.0141866
947.021	0.0140346
947.099	0.0138786
947.177	0.0139883
947.255	0.0139463
947.333	0.0138737
947.411	0.0137569
947.489	0.0136800
947.568	0.0136578
947.646	0.0135888
947.724	0.0135857
947.802	0.0135905
947.880	0.0134589
947.958	0.0135097
948.036	0.0136118
948.114	0.0135477
948.193	0.0134324
948.271	0.0134154
948.349	0.0134977
948.427	0.0135482
948.505	0.0136091
948.583	0.0136752
948.661	0.0137130
948.739	0.0136588
948.818	0.0135960
948.896	0.0135871
948.974	0.0135947
949.052	0.0137025
949.130	0.0136652
949.208	0.0135593
949.286	0.0136508
949.364	0.0135522
949.443	0.0136913
949.521	0.0135827
949.599	0.0134134
949.677	0.0135572
949.755	0.0135027
949.833	0.0134853
949.911	0.0134465
949.989	0.0135526
950.068	0.0135694
950.146	0.0134630
950.224	0.0135082
950.302	0.0136818
950.380	0.0136700
950.458	0.0135908
950.536	0.0136169
950.614	0.0137017
950.693	0.0137160
950.771	0.0136070
950.849	0.0135924
950.927	0.0137241
951.005	0.0138535
951.083	0.0138196
951.161	0.0138120
951.239	0.0138835
951.318	0.0136908
951.396	0.0138778
951.474	0.0138672
951.552	0.0137906
951.630	0.0138162
951.708	0.0137498
951.786	0.0137112
951.864	0.0139198
951.943	0.0138176
952.021	0.0138416
952.099	0.0137038
952.177	0.0138166
952.255	0.0137489
952.333	0.0137766
952.411	0.0136713
952.489	0.0138963
952.568	0.0137788
952.646	0.0137214
952.724	0.0138493
952.802	0.0135942
952.880	0.0135892
952.958	0.0136619
953.036	0.0136996
953.114	0.0137328
953.193	0.0135226
953.271	0.0135797
953.349	0.0136297
953.427	0.0137642
953.505	0.0136371
953.583	0.0134924
953.661	0.0135173
953.739	0.0136204
953.818	0.0136097
953.896	0.0135891
953.974	0.0137254
954.052	0.0135678
954.130	0.0135757
954.208	0.0138135
954.286	0.0135390
954.364	0.0136399
954.443	0.0136995
954.521	0.0137227
954.599	0.0138116
954.677	0.0136349
954.755	0.0137212
954.833	0.0136961
954.911	0.0136947
954.989	0.0136174
955.068	0.0137442
955.146	0.0137799
955.224	0.0136481
955.302	0.0136306
955.380	0.0137106
955.458	0.0137571
955.536	0.0137275
955.614	0.0136325
955.693	0.0136552
955.771	0.0135873
955.849	0.0135827
955.927	0.0136243
956.005	0.0134718
956.083	0.0136462
956.161	0.0135284
956.239	0.0135250
956.318	0.0135826
956.396	0.0135590
956.474	0.0135879
956.552	0.0137690
956.630	0.0136077
956.708	0.0136182
956.786	0.0137409
956.864	0.0136436
956.943	0.0137377
957.021	0.0138813
957.099	0.0138068
957.177	0.0138158
957.255	0.0139025
957.333	0.0138639
957.411	0.0139565
957.489	0.0138926
957.568	0.0139431
957.646	0.0140272
957.724	0.0139870
957.802	0.0139477
957.880	0.0138175
957.958	0.0138522
958.036	0.0138721
958.114	0.0139572
958.193	0.0139140
958.271	0.0137705
958.349	0.0138107
958.427	0.0139409
958.505	0.0138605
958.583	0.0136972
958.661	0.0136704
958.739	0.0137736
958.818	0.0136009
958.896	0.0137920
958.974	0.0136993
959.052	0.0136698
959.130	0.0135147
959.208	0.0136423
959.286	0.0136184
959.364	0.0135951
959.443	0.0136079
959.521	0.0135357
959.599	0.0135740
959.677	0.0136212
959.755	0.0134766
959.833	0.0136523
959.911	0.0135160
