05/14/2022	16:29:31	Ver.	4.1	UNKNOWN
Optical Delay	639.989416	Delta X		0.078125	Sweeps	1	Scan Rate	0/0
Coordinates	Axis 1	NaN	Axis 2	NaN	Axis 3	NaN	Axis 4	NaN	Axis 5	NaN	Axis 6	0.000000
TX Power	0.000000	RX Power	0.000000

639.989	0.0136977
640.068	0.0136732
640.146	0.0136870
640.224	0.0138150
640.302	0.0137502
640.380	0.0136812
640.458	0.0137145
640.536	0.0136392
640.614	0.0137553
640.693	0.0138404
640.771	0.0136794
640.849	0.0137428
640.927	0.0137485
641.005	0.0137202
641.083	0.0136620
641.161	0.0138124
641.239	0.0137923
641.318	0.0137099
641.396	0.0137901
641.474	0.0137450
641.552	0.0136955
641.630	0.0138046
641.708	0.0136931
641.786	0.0136354
641.864	0.0138200
641.943	0.0138072
642.021	0.0137509
642.099	0.0136650
642.177	0.0137597
642.255	0.0138351
642.333	0.0137392
642.411	0.0136705
642.489	0.0137936
642.568	0.0138190
642.646	0.0137222
642.724	0.0137565
642.802	0.0137632
642.880	0.0138012
642.958	0.0136433
643.036	0.0137034
643.114	0.0137097
643.193	0.0137871
643.271	0.0137538
643.349	0.0138120
643.427	0.0138470
643.505	0.0137630
643.583	0.0137870
643.661	0.0136585
643.739	0.0138623
643.818	0.0137854
643.896	0.0138657
643.974	0.0138702
644.052	0.0136790
644.130	0.0138466
644.208	0.0138677
644.286	0.0137380
644.364	0.0137035
644.443	0.0137734
644.521	0.0139166
644.599	0.0138371
644.677	0.0136952
644.755	0.0136750
644.833	0.0138530
644.911	0.0137891
644.989	0.0138360
645.068	0.0137794
645.146	0.0137006
645.224	0.0139031
645.302	0.0137905
645.380	0.0137817
645.458	0.0138017
645.536	0.0138346
645.614	0.0137551
645.693	0.0137637
645.771	0.0137300
645.849	0.0138776
645.927	0.0137990
646.005	0.0137836
646.083	0.0137704
646.161	0.0137563
646.239	0.0138453
646.318	0.0137534
646.396	0.0137833
646.474	0.0139450
646.552	0.0137799
646.630	0.0138024
646.708	0.0136888
646.786	0.0137679
646.864	0.0137035
646.943	0.0137849
647.021	0.0137298
647.099	0.0138876
647.177	0.0138719
647.255	0.0138169
647.333	0.0137488
647.411	0.0138229
647.489	0.0138704
647.568	0.0138737
647.646	0.0137469
647.724	0.0138011
647.802	0.0137843
647.880	0.0138467
647.958	0.0137419
648.036	0.0136919
648.114	0.0139179
648.193	0.0137959
648.271	0.0137080
648.349	0.0138685
648.427	0.0137639
648.505	0.0137737
648.583	0.0137772
648.661	0.0137093
648.739	0.0137611
648.818	0.0139336
648.896	0.0138238
648.974	0.0138041
649.052	0.0138464
649.130	0.0138562
649.208	0.0138914
649.286	0.0137502
649.364	0.0138039
649.443	0.0138162
649.521	0.0136582
649.599	0.0137521
649.677	0.0137717
649.755	0.0139279
649.833	0.0138457
649.911	0.0137029
649.989	0.0138551
650.068	0.0138648
650.146	0.0138547
650.224	0.0137186
650.302	0.0137823
650.380	0.0137437
650.458	0.0137526
650.536	0.0137701
650.614	0.0136902
650.693	0.0136676
650.771	0.0137200
650.849	0.0137547
650.927	0.0136835
651.005	0.0137791
651.083	0.0137528
651.161	0.0137270
651.239	0.0137511
651.318	0.0138020
651.396	0.0136429
651.474	0.0138251
651.552	0.0137620
651.630	0.0137945
651.708	0.0138728
651.786	0.0137618
651.864	0.0139704
651.943	0.0137589
652.021	0.0136985
652.099	0.0138485
652.177	0.0137358
652.255	0.0135907
652.333	0.0137601
652.411	0.0138451
652.489	0.0137724
652.568	0.0137121
652.646	0.0138744
652.724	0.0137961
652.802	0.0137268
652.880	0.0139102
652.958	0.0137180
653.036	0.0137685
653.114	0.0138088
653.193	0.0138361
653.271	0.0136688
653.349	0.0137752
653.427	0.0137795
653.505	0.0137800
653.583	0.0139450
653.661	0.0138904
653.739	0.0138828
653.818	0.0138892
653.896	0.0138487
653.974	0.0137687
654.052	0.0138105
654.130	0.0138322
654.208	0.0138097
654.286	0.0137404
654.364	0.0137725
654.443	0.0138690
654.521	0.0137952
654.599	0.0137550
654.677	0.0138329
654.755	0.0137800
654.833	0.0138123
654.911	0.0137674
654.989	0.0137833
655.068	0.0138100
655.146	0.0138311
655.224	0.0137753
655.302	0.0137714
655.380	0.0137881
655.458	0.0138564
655.536	0.0136189
655.614	0.0137449
655.693	0.0138278
655.771	0.0137503
655.849	0.0137135
655.927	0.0136043
656.005	0.0136309
656.083	0.0136586
656.161	0.0136688
656.239	0.0137705
656.318	0.0137418
656.396	0.0136699
656.474	0.0136784
656.552	0.0136327
656.630	0.0137916
656.708	0.0138518
656.786	0.0138055
656.864	0.0138889
656.943	0.0137933
657.021	0.0138235
657.099	0.0136975
657.177	0.0137166
657.255	0.0137316
657.333	0.0137781
657.411	0.0138058
657.489	0.0138487
657.568	0.0138654
657.646	0.0137078
657.724	0.0138484
657.802	0.0137787
657.880	0.0137338
657.958	0.0137915
658.036	0.0137791
658.114	0.0137840
658.193	0.0138572
658.271	0.0136808
658.349	0.0138451
658.427	0.0137606
658.505	0.0138483
658.583	0.0138275
658.661	0.0136822
658.739	0.0137574
658.818	0.0137868
658.896	0.0137861
658.974	0.0136715
659.052	0.0137664
659.130	0.0137278
659.208	0.0136801
659.286	0.0139491
659.364	0.0138547
659.443	0.0136511
659.521	0.0137419
659.599	0.0137798
659.677	0.0137814
659.755	0.0136990
659.833	0.0138228
659.911	0.0137328
659.989	0.0136935
660.068	0.0137563
660.146	0.0137563
660.224	0.0138016
660.302	0.0138237
660.380	0.0137341
660.458	0.0137548
660.536	0.0138145
660.614	0.0137336
660.693	0.0136146
660.771	0.0137325
660.849	0.0139543
660.927	0.0138040
661.005	0.0137390
661.083	0.0137333
661.161	0.0138335
661.239	0.0138229
661.318	0.0136789
661.396	0.0137154
661.474	0.0137545
661.552	0.0136986
661.630	0.0136903
661.708	0.0136964
661.786	0.0138721
661.864	0.0137365
661.943	0.0137237
662.021	0.0137610
662.099	0.0138321
662.177	0.0137527
662.255	0.0138041
662.333	0.0137070
662.411	0.0138242
662.489	0.0138823
662.568	0.0139175
662.646	0.0138348
662.724	0.0138513
662.802	0.0138032
662.880	0.0137193
662.958	0.0137491
663.036	0.0137652
663.114	0.0137254
663.193	0.0138595
663.271	0.0138339
663.349	0.0137565
663.427	0.0137786
663.505	0.0137985
663.583	0.0136770
663.661	0.0137372
663.739	0.0137283
663.818	0.0137637
663.896	0.0137983
663.974	0.0138331
664.052	0.0137557
664.130	0.0138114
664.208	0.0137269
664.286	0.0137450
664.364	0.0137848
664.443	0.0138297
664.521	0.0137649
664.599	0.0136608
664.677	0.0138214
664.755	0.0137930
664.833	0.0138363
664.911	0.0137127
664.989	0.0137270
665.068	0.0139906
665.146	0.0138654
665.224	0.0138035
665.302	0.0136634
665.380	0.0136994
665.458	0.0138059
665.536	0.0136773
665.614	0.0136711
665.693	0.0138622
665.771	0.0137513
665.849	0.0136815
665.927	0.0136759
666.005	0.0137970
666.083	0.0138693
666.161	0.0137576
666.239	0.0138459
666.318	0.0137220
666.396	0.0138116
666.474	0.0137148
666.552	0.0138450
666.630	0.0136926
666.708	0.0136802
666.786	0.0138796
666.864	0.0136978
666.943	0.0138260
667.021	0.0138667
667.099	0.0138352
667.177	0.0138060
667.255	0.0137812
667.333	0.0137886
667.411	0.0137426
667.489	0.0137608
667.568	0.0137200
667.646	0.0136877
667.724	0.0137621
667.802	0.0138181
667.880	0.0137434
667.958	0.0138705
668.036	0.0137627
668.114	0.0137910
668.193	0.0136566
668.271	0.0137099
668.349	0.0138337
668.427	0.0137661
668.505	0.0136990
668.583	0.0137740
668.661	0.0136668
668.739	0.0136849
668.818	0.0137514
668.896	0.0137644
668.974	0.0137183
669.052	0.0137058
669.130	0.0135897
669.208	0.0137120
669.286	0.0138622
669.364	0.0137975
669.443	0.0137318
669.521	0.0138448
669.599	0.0137634
669.677	0.0137414
669.755	0.0138440
669.833	0.0137170
669.911	0.0137748
669.989	0.0136653
670.068	0.0137305
670.146	0.0137426
670.224	0.0138864
670.302	0.0137872
670.380	0.0137912
670.458	0.0138138
670.536	0.0136211
670.614	0.0138088
670.693	0.0137663
670.771	0.0137780
670.849	0.0137482
670.927	0.0137914
671.005	0.0138889
671.083	0.0139101
671.161	0.0137656
671.239	0.0137024
671.318	0.0136955
671.396	0.0138799
671.474	0.0137125
671.552	0.0138407
671.630	0.0137698
671.708	0.0137207
671.786	0.0137610
671.864	0.0137992
671.943	0.0137409
672.021	0.0137672
672.099	0.0137595
672.177	0.0137176
672.255	0.0136969
672.333	0.0138416
672.411	0.0139140
672.489	0.0138139
672.568	0.0138280
672.646	0.0138986
672.724	0.0137289
672.802	0.0138442
672.880	0.0137641
672.958	0.0136902
673.036	0.0137162
673.114	0.0136754
673.193	0.0136614
673.271	0.0138724
673.349	0.0138045
673.427	0.0137833
673.505	0.0137713
673.583	0.0139478
673.661	0.0138506
673.739	0.0139748
673.818	0.0136868
673.896	0.0136180
673.974	0.0138244
674.052	0.0138511
674.130	0.0137696
674.208	0.0138557
674.286	0.0138089
674.364	0.0137690
674.443	0.0138789
674.521	0.0139462
674.599	0.0138264
674.677	0.0138326
674.755	0.0137808
674.833	0.0137084
674.911	0.0139513
674.989	0.0137481
675.068	0.0138153
675.146	0.0137370
675.224	0.0138110
675.302	0.0137437
675.380	0.0138885
675.458	0.0138194
675.536	0.0137472
675.614	0.0138007
675.693	0.0136713
675.771	0.0138721
675.849	0.0137598
675.927	0.0138611
676.005	0.0138180
676.083	0.0137672
676.161	0.0138292
676.239	0.0137692
676.318	0.0136914
676.396	0.0137627
676.474	0.0138787
676.552	0.0137962
676.630	0.0138335
676.708	0.0138569
676.786	0.0138289
676.864	0.0138432
676.943	0.0138052
677.021	0.0137432
677.099	0.0138200
677.177	0.0138379
677.255	0.0137681
677.333	0.0136552
677.411	0.0136473
677.489	0.0137871
677.568	0.0137763
677.646	0.0137541
677.724	0.0138122
677.802	0.0137690
677.880	0.0137645
677.958	0.0138673
678.036	0.0137872
678.114	0.0136674
678.193	0.0138944
678.271	0.0139128
678.349	0.0137898
678.427	0.0138300
678.505	0.0137608
678.583	0.0137211
678.661	0.0137148
678.739	0.0137244
678.818	0.0138053
678.896	0.0137342
678.974	0.0136868
679.052	0.0137716
679.130	0.0137324
679.208	0.0137795
679.286	0.0136042
679.364	0.0136952
679.443	0.0139101
679.521	0.0137791
679.599	0.0136610
679.677	0.0137254
679.755	0.0138789
679.833	0.0138653
679.911	0.0138272
679.989	0.0136243
680.068	0.0137185
680.146	0.0138609
680.224	0.0138861
680.302	0.0137138
680.380	0.0137759
680.458	0.0138710
680.536	0.0137819
680.614	0.0139133
680.693	0.0138226
680.771	0.0139202
680.849	0.0137817
680.927	0.0138465
681.005	0.0138776
681.083	0.0138560
681.161	0.0139244
681.239	0.0137500
681.318	0.0137129
681.396	0.0137293
681.474	0.0137572
681.552	0.0138499
681.630	0.0138518
681.708	0.0138174
681.786	0.0137456
681.864	0.0137103
681.943	0.0136703
682.021	0.0137723
682.099	0.0137982
682.177	0.0138107
682.255	0.0137666
682.333	0.0138583
682.411	0.0139066
682.489	0.0138708
682.568	0.0139846
682.646	0.0139085
682.724	0.0137663
682.802	0.0137424
682.880	0.0138805
682.958	0.0136409
683.036	0.0136366
683.114	0.0136172
683.193	0.0134951
683.271	0.0135485
683.349	0.0137029
683.427	0.0137413
683.505	0.0137975
683.583	0.0139060
683.661	0.0138781
683.739	0.0141762
683.818	0.0140225
683.896	0.0140347
683.974	0.0140759
684.052	0.0141063
684.130	0.0140794
684.208	0.0141437
684.286	0.0140938
684.364	0.0138796
684.443	0.0138153
684.521	0.0139084
684.599	0.0137641
684.677	0.0139167
684.755	0.0139155
684.833	0.0137856
684.911	0.0136433
684.989	0.0137003
685.068	0.0136543
685.146	0.0136019
685.224	0.0134618
685.302	0.0132050
685.380	0.0132256
685.458	0.0131675
685.536	0.0130781
685.614	0.0130491
685.693	0.0129323
685.771	0.0131657
685.849	0.0131623
685.927	0.0134779
686.005	0.0137174
686.083	0.0138527
686.161	0.0141071
686.239	0.0142255
686.318	0.0145045
686.396	0.0145759
686.474	0.0147977
686.552	0.0148219
686.630	0.0150955
686.708	0.0150433
686.786	0.0151197
686.864	0.0150072
686.943	0.0149419
687.021	0.0149524
687.099	0.0148328
687.177	0.0145375
687.255	0.0143579
687.333	0.0140159
687.411	0.0138464
687.489	0.0136089
687.568	0.0131358
687.646	0.0129199
687.724	0.0125954
687.802	0.0124181
687.880	0.0122871
687.958	0.0120486
688.036	0.0118514
688.114	0.0118734
688.193	0.0120583
688.271	0.0121008
688.349	0.0121848
688.427	0.0123176
688.505	0.0125876
688.583	0.0128892
688.661	0.0130872
688.739	0.0134311
688.818	0.0136628
688.896	0.0139165
688.974	0.0143576
689.052	0.0145280
689.130	0.0148547
689.208	0.0151727
689.286	0.0152576
689.364	0.0156467
689.443	0.0156204
689.521	0.0157210
689.599	0.0157977
689.677	0.0158012
689.755	0.0158218
689.833	0.0159307
689.911	0.0155794
689.989	0.0155888
690.068	0.0154605
690.146	0.0153188
690.224	0.0149255
690.302	0.0145718
690.380	0.0142922
690.458	0.0138490
690.536	0.0134272
690.614	0.0129966
690.693	0.0125735
690.771	0.0122950
690.849	0.0119150
690.927	0.0115482
691.005	0.0112556
691.083	0.0109422
691.161	0.0107564
691.239	0.0106363
691.318	0.0105394
691.396	0.0103019
691.474	0.0103960
691.552	0.0104561
691.630	0.0106374
691.708	0.0107730
691.786	0.0111797
691.864	0.0117204
691.943	0.0123074
692.021	0.0127834
692.099	0.0133731
692.177	0.0141084
692.255	0.0147855
692.333	0.0154742
692.411	0.0162650
692.489	0.0169933
692.568	0.0174245
692.646	0.0180090
692.724	0.0184557
692.802	0.0187778
692.880	0.0190688
692.958	0.0191762
693.036	0.0190447
693.114	0.0188300
693.193	0.0183813
693.271	0.0179099
693.349	0.0173350
693.427	0.0166253
693.505	0.0158287
693.583	0.0149896
693.661	0.0141288
693.739	0.0134564
693.818	0.0126922
693.896	0.0118446
693.974	0.0110795
694.052	0.0105193
694.130	0.00984406
694.208	0.00941353
694.286	0.00904366
694.364	0.00879959
694.443	0.00855965
694.521	0.00852333
694.599	0.00840401
694.677	0.00861511
694.755	0.00879341
694.833	0.00911659
694.911	0.00951164
694.989	0.00968430
695.068	0.0102988
695.146	0.0111018
695.224	0.0115288
695.302	0.0123208
695.380	0.0129019
695.458	0.0136311
695.536	0.0143943
695.614	0.0150379
695.693	0.0156664
695.771	0.0164996
695.849	0.0170385
695.927	0.0176099
696.005	0.0181170
696.083	0.0185551
696.161	0.0188271
696.239	0.0191751
696.318	0.0192591
696.396	0.0193382
696.474	0.0192287
696.552	0.0191251
696.630	0.0188249
696.708	0.0184390
696.786	0.0180264
696.864	0.0173428
696.943	0.0169226
697.021	0.0161359
697.099	0.0152791
697.177	0.0145795
697.255	0.0139304
697.333	0.0131692
697.411	0.0125494
697.489	0.0119043
697.568	0.0112531
697.646	0.0107471
697.724	0.0102441
697.802	0.00998871
697.880	0.00970055
697.958	0.00952362
698.036	0.00951805
698.114	0.00953781
698.193	0.00966393
698.271	0.0101479
698.349	0.0103513
698.427	0.0107217
698.505	0.0112995
698.583	0.0116502
698.661	0.0119848
698.739	0.0125222
698.818	0.0129790
698.896	0.0132814
698.974	0.0133434
699.052	0.0135816
699.130	0.0137470
699.208	0.0138223
699.286	0.0137856
699.364	0.0137677
699.443	0.0137842
699.521	0.0137675
699.599	0.0137412
699.677	0.0136964
699.755	0.0139741
699.833	0.0138932
699.911	0.0138505
699.989	0.0138972
700.068	0.0140662
700.146	0.0142155
700.224	0.0144555
700.302	0.0148296
700.380	0.0149676
700.458	0.0153489
700.536	0.0156323
700.614	0.0161127
700.693	0.0164746
700.771	0.0167481
700.849	0.0172185
700.927	0.0172698
701.005	0.0174035
701.083	0.0176373
701.161	0.0176809
701.239	0.0177713
701.318	0.0174733
701.396	0.0171636
701.474	0.0168620
701.552	0.0164931
701.630	0.0160927
701.708	0.0153577
701.786	0.0149477
701.864	0.0144952
701.943	0.0137198
702.021	0.0131828
702.099	0.0125264
702.177	0.0120691
702.255	0.0115144
702.333	0.0109386
702.411	0.0105119
702.489	0.0102762
702.568	0.0100682
702.646	0.00996643
702.724	0.00997681
702.802	0.0101910
702.880	0.0102579
702.958	0.0107458
703.036	0.0109923
703.114	0.0113107
703.193	0.0117416
703.271	0.0119649
703.349	0.0122949
703.427	0.0128078
703.505	0.0130856
703.583	0.0130790
703.661	0.0133177
703.739	0.0133090
703.818	0.0132417
703.896	0.0131059
703.974	0.0130894
704.052	0.0128095
704.130	0.0129023
704.208	0.0128307
704.286	0.0129115
704.364	0.0126688
704.443	0.0127212
704.521	0.0129919
704.599	0.0129995
704.677	0.0131970
704.755	0.0134594
704.833	0.0136958
704.911	0.0139735
704.989	0.0142856
705.068	0.0147435
705.146	0.0150682
705.224	0.0155927
705.302	0.0161819
705.380	0.0166079
705.458	0.0170785
705.536	0.0173317
705.614	0.0175742
705.693	0.0179064
705.771	0.0182725
705.849	0.0185518
705.927	0.0184386
706.005	0.0186543
706.083	0.0186771
706.161	0.0186625
706.239	0.0183916
706.318	0.0180853
706.396	0.0178338
706.474	0.0174393
706.552	0.0169257
706.630	0.0162923
706.708	0.0157259
706.786	0.0149766
706.864	0.0141753
706.943	0.0132898
707.021	0.0125854
707.099	0.0115673
707.177	0.0105750
707.255	0.00976639
707.333	0.00902298
707.411	0.00826584
707.489	0.00759155
707.568	0.00725853
707.646	0.00702477
707.724	0.00687920
707.802	0.00712433
707.880	0.00743416
707.958	0.00773163
708.036	0.00851814
708.114	0.00903198
708.193	0.00957932
708.271	0.0103542
708.349	0.0111220
708.427	0.0114793
708.505	0.0120577
708.583	0.0126708
708.661	0.0132940
708.739	0.0135744
708.818	0.0141399
708.896	0.0145629
708.974	0.0149004
709.052	0.0153615
709.130	0.0157099
709.208	0.0160287
709.286	0.0162577
709.364	0.0165453
709.443	0.0168208
709.521	0.0168876
709.599	0.0169920
709.677	0.0169577
709.755	0.0169440
709.833	0.0168845
709.911	0.0165876
709.989	0.0165977
710.068	0.0162885
710.146	0.0161420
710.224	0.0159393
710.302	0.0156874
710.380	0.0154769
710.458	0.0155991
710.536	0.0153171
710.614	0.0153990
710.693	0.0152715
710.771	0.0151064
710.849	0.0149287
710.927	0.0148424
711.005	0.0149187
711.083	0.0148969
711.161	0.0149664
711.239	0.0149738
711.318	0.0150465
711.396	0.0151551
711.474	0.0152368
711.552	0.0152458
711.630	0.0152494
711.708	0.0150645
711.786	0.0147262
711.864	0.0145219
711.943	0.0142405
712.021	0.0138725
712.099	0.0131403
712.177	0.0127142
712.255	0.0121903
712.333	0.0115889
712.411	0.0111733
712.489	0.0107388
712.568	0.0101452
712.646	0.00980835
712.724	0.00931572
712.802	0.00905716
712.880	0.00886459
712.958	0.00868057
713.036	0.00878510
713.114	0.00902634
713.193	0.00931496
713.271	0.00996727
713.349	0.0104031
713.427	0.0111331
713.505	0.0117639
713.583	0.0127103
713.661	0.0136312
713.739	0.0141389
713.818	0.0149782
713.896	0.0155580
713.974	0.0160293
714.052	0.0165077
714.130	0.0166496
714.208	0.0165865
714.286	0.0163350
714.364	0.0162225
714.443	0.0160416
714.521	0.0155090
714.599	0.0150587
714.677	0.0146040
714.755	0.0142383
714.833	0.0138857
714.911	0.0134163
714.989	0.0132967
715.068	0.0133355
715.146	0.0132812
715.224	0.0131427
715.302	0.0132156
715.380	0.0134597
715.458	0.0134936
715.536	0.0137424
715.614	0.0139751
715.693	0.0143714
715.771	0.0146239
715.849	0.0146639
715.927	0.0149998
716.005	0.0151714
716.083	0.0155912
716.161	0.0157508
716.239	0.0158005
716.318	0.0161829
716.396	0.0162941
716.474	0.0164718
716.552	0.0166324
716.630	0.0168501
716.708	0.0168474
716.786	0.0166962
716.864	0.0167976
716.943	0.0168017
717.021	0.0166370
717.099	0.0163704
717.177	0.0162909
717.255	0.0158964
717.333	0.0155911
717.411	0.0150150
717.489	0.0147702
717.568	0.0141738
717.646	0.0134480
717.724	0.0128377
717.802	0.0123462
717.880	0.0117934
717.958	0.0111951
718.036	0.0105065
718.114	0.0100661
718.193	0.00952003
718.271	0.00928185
718.349	0.00883034
718.427	0.00869621
718.505	0.00834137
718.583	0.00841003
718.661	0.00830605
718.739	0.00863419
718.818	0.00915451
718.896	0.00968239
718.974	0.0102928
719.052	0.0111098
719.130	0.0117867
719.208	0.0125305
719.286	0.0130220
719.364	0.0137493
719.443	0.0142717
719.521	0.0147043
719.599	0.0150603
719.677	0.0153476
719.755	0.0155256
719.833	0.0154883
719.911	0.0155838
719.989	0.0154516
720.068	0.0151515
720.146	0.0149986
720.224	0.0147250
720.302	0.0145613
720.380	0.0144553
720.458	0.0142837
720.536	0.0141780
720.614	0.0139654
720.693	0.0140182
720.771	0.0141216
720.849	0.0142657
720.927	0.0144951
721.005	0.0148529
721.083	0.0150768
721.161	0.0154183
721.239	0.0159389
721.318	0.0162131
721.396	0.0163720
721.474	0.0167675
721.552	0.0171168
721.630	0.0172443
721.708	0.0172652
721.786	0.0171382
721.864	0.0171946
721.943	0.0171838
722.021	0.0171892
722.099	0.0170521
722.177	0.0169138
722.255	0.0169323
722.333	0.0167650
722.411	0.0166003
722.489	0.0165239
722.568	0.0163171
722.646	0.0161450
722.724	0.0156905
722.802	0.0152052
722.880	0.0147600
722.958	0.0141158
723.036	0.0134842
723.114	0.0128253
723.193	0.0121442
723.271	0.0116078
723.349	0.0108275
723.427	0.0102943
723.505	0.00966499
723.583	0.00921417
723.661	0.00893761
723.739	0.00854729
723.818	0.00838982
723.896	0.00812126
723.974	0.00805191
724.052	0.00813515
724.130	0.00829102
724.208	0.00838554
724.286	0.00877136
724.364	0.00907028
724.443	0.00971855
724.521	0.0102802
724.599	0.0110315
724.677	0.0119542
724.755	0.0129646
724.833	0.0136223
724.911	0.0141895
724.989	0.0148392
725.068	0.0154215
725.146	0.0157414
725.224	0.0159538
725.302	0.0161674
725.380	0.0160964
725.458	0.0157888
725.536	0.0156310
725.614	0.0152774
725.693	0.0150336
725.771	0.0147553
725.849	0.0144313
725.927	0.0141495
726.005	0.0138984
726.083	0.0138744
726.161	0.0136774
726.239	0.0137164
726.318	0.0139226
726.396	0.0140772
726.474	0.0142284
726.552	0.0142676
726.630	0.0147972
726.708	0.0150898
726.786	0.0154977
726.864	0.0157106
726.943	0.0163253
727.021	0.0167625
727.099	0.0171522
727.177	0.0175718
727.255	0.0178464
727.333	0.0181263
727.411	0.0182211
727.489	0.0181642
727.568	0.0181750
727.646	0.0180779
727.724	0.0176711
727.802	0.0172390
727.880	0.0169112
727.958	0.0165362
728.036	0.0158904
728.114	0.0152242
728.193	0.0147664
728.271	0.0143227
728.349	0.0137738
728.427	0.0132838
728.505	0.0130187
728.583	0.0126019
728.661	0.0122044
728.739	0.0118548
728.818	0.0116514
728.896	0.0111326
728.974	0.0107757
729.052	0.0105360
729.130	0.0103102
729.208	0.00996765
729.286	0.00973244
729.364	0.00947762
729.443	0.00928520
729.521	0.00914124
729.599	0.00904427
729.677	0.00889442
729.755	0.00876846
729.833	0.00888847
729.911	0.00898590
729.989	0.00937042
730.068	0.00978142
730.146	0.0102759
730.224	0.0108490
730.302	0.0113634
730.380	0.0121073
730.458	0.0128593
730.536	0.0136102
730.614	0.0140176
730.693	0.0146785
730.771	0.0149999
730.849	0.0154143
730.927	0.0156408
731.005	0.0158832
731.083	0.0158289
731.161	0.0157759
731.239	0.0156110
731.318	0.0154691
731.396	0.0153622
731.474	0.0150838
731.552	0.0147767
731.630	0.0146875
731.708	0.0146163
731.786	0.0144849
731.864	0.0146413
731.943	0.0147253
732.021	0.0147228
732.099	0.0148769
732.177	0.0151069
732.255	0.0154843
732.333	0.0157347
732.411	0.0158327
732.489	0.0160236
732.568	0.0163045
732.646	0.0165077
732.724	0.0166133
732.802	0.0168542
732.880	0.0168977
732.958	0.0170675
733.036	0.0172141
733.114	0.0171856
733.193	0.0170776
733.271	0.0169457
733.349	0.0167961
733.427	0.0167365
733.505	0.0163543
733.583	0.0160484
733.661	0.0156275
733.739	0.0151247
733.818	0.0147034
733.896	0.0144382
733.974	0.0140430
734.052	0.0137114
734.130	0.0133151
734.208	0.0128770
734.286	0.0124920
734.364	0.0122159
734.443	0.0118452
734.521	0.0115725
734.599	0.0112298
734.677	0.0108165
734.755	0.0105047
734.833	0.0103712
734.911	0.0102355
734.989	0.00977158
735.068	0.00952988
735.146	0.00934807
735.224	0.00923622
735.302	0.00911476
735.380	0.00904060
735.458	0.00910149
735.536	0.00928452
735.614	0.00960266
735.693	0.00990997
735.771	0.0102869
735.849	0.0108463
735.927	0.0115533
736.005	0.0123016
736.083	0.0129772
736.161	0.0136008
736.239	0.0143264
736.318	0.0149223
736.396	0.0153495
736.474	0.0157905
736.552	0.0162267
736.630	0.0164263
736.708	0.0163369
736.786	0.0163717
736.864	0.0162878
736.943	0.0159510
737.021	0.0157060
737.099	0.0152142
737.177	0.0149041
737.255	0.0145114
737.333	0.0141979
737.411	0.0139850
737.489	0.0137074
737.568	0.0135834
737.646	0.0135996
737.724	0.0137979
737.802	0.0138740
737.880	0.0140027
737.958	0.0143604
738.036	0.0145731
738.114	0.0148276
738.193	0.0149242
738.271	0.0153504
738.349	0.0157407
738.427	0.0158581
738.505	0.0159973
738.583	0.0161860
738.661	0.0164581
738.739	0.0164812
738.818	0.0163091
738.896	0.0163453
738.974	0.0162273
739.052	0.0160564
739.130	0.0157759
739.208	0.0155689
739.286	0.0154639
739.364	0.0151462
739.443	0.0148975
739.521	0.0144945
739.599	0.0143248
739.677	0.0141357
739.755	0.0137404
739.833	0.0136131
739.911	0.0134116
739.989	0.0130518
740.068	0.0128661
740.146	0.0126101
740.224	0.0123267
740.302	0.0120800
740.380	0.0116832
740.458	0.0114125
740.536	0.0112132
740.614	0.0111299
740.693	0.0108595
740.771	0.0107133
740.849	0.0106255
740.927	0.0104057
741.005	0.0104755
741.083	0.0105009
741.161	0.0105524
741.239	0.0109222
741.318	0.0111347
741.396	0.0112746
741.474	0.0115537
741.552	0.0119969
741.630	0.0125136
741.708	0.0129842
741.786	0.0134782
741.864	0.0138271
741.943	0.0143102
742.021	0.0145031
742.099	0.0146970
742.177	0.0150873
742.255	0.0151268
742.333	0.0150993
742.411	0.0150187
742.489	0.0149184
742.568	0.0149053
742.646	0.0144437
742.724	0.0142535
742.802	0.0140328
742.880	0.0138081
742.958	0.0134365
743.036	0.0133358
743.114	0.0133040
743.193	0.0130775
743.271	0.0130892
743.349	0.0132420
743.427	0.0131676
743.505	0.0134511
743.583	0.0134759
743.661	0.0136661
743.739	0.0138214
743.818	0.0142458
743.896	0.0145583
743.974	0.0146838
744.052	0.0150461
744.130	0.0153395
744.208	0.0157935
744.286	0.0160194
744.364	0.0161445
744.443	0.0164194
744.521	0.0165100
744.599	0.0165654
744.677	0.0166809
744.755	0.0165561
744.833	0.0165071
744.911	0.0162173
744.989	0.0160653
745.068	0.0159184
745.146	0.0156905
745.224	0.0150955
745.302	0.0147524
745.380	0.0145355
745.458	0.0142292
745.536	0.0137677
745.614	0.0136027
745.693	0.0133968
745.771	0.0130061
745.849	0.0127231
745.927	0.0124877
746.005	0.0123270
746.083	0.0121006
746.161	0.0120261
746.239	0.0119540
746.318	0.0118681
746.396	0.0118132
746.474	0.0118529
746.552	0.0119195
746.630	0.0119978
746.708	0.0120717
746.786	0.0120941
746.864	0.0121889
746.943	0.0122696
747.021	0.0124297
747.099	0.0125361
747.177	0.0126103
747.255	0.0127193
747.333	0.0129553
747.411	0.0129169
747.489	0.0131364
747.568	0.0132448
747.646	0.0133645
747.724	0.0135204
747.802	0.0135822
747.880	0.0136427
747.958	0.0135502
748.036	0.0135767
748.114	0.0135865
748.193	0.0136433
748.271	0.0136349
748.349	0.0134545
748.427	0.0133636
748.505	0.0134917
748.583	0.0134549
748.661	0.0134411
748.739	0.0135249
748.818	0.0135255
748.896	0.0136144
748.974	0.0137801
749.052	0.0138336
749.130	0.0139565
749.208	0.0141175
749.286	0.0142277
749.364	0.0143114
749.443	0.0145363
749.521	0.0146405
749.599	0.0146959
749.677	0.0148385
749.755	0.0148823
749.833	0.0149364
749.911	0.0150100
749.989	0.0154333
750.068	0.0153033
750.146	0.0154046
750.224	0.0154707
750.302	0.0155763
750.380	0.0154901
750.458	0.0154163
750.536	0.0156469
750.614	0.0154472
750.693	0.0154137
750.771	0.0152447
750.849	0.0151144
750.927	0.0148627
751.005	0.0145751
751.083	0.0141516
751.161	0.0141455
751.239	0.0138889
751.318	0.0136514
751.396	0.0133647
751.474	0.0129579
751.552	0.0130489
751.630	0.0127798
751.708	0.0125189
751.786	0.0126036
751.864	0.0125049
751.943	0.0124987
752.021	0.0125649
752.099	0.0124703
752.177	0.0126066
752.255	0.0127210
752.333	0.0128586
752.411	0.0130325
752.489	0.0130370
752.568	0.0132019
752.646	0.0133670
752.724	0.0134332
752.802	0.0135501
752.880	0.0137532
752.958	0.0137440
753.036	0.0137786
753.114	0.0137997
753.193	0.0138458
753.271	0.0136562
753.349	0.0137553
753.427	0.0138266
753.505	0.0137048
753.583	0.0135526
753.661	0.0135756
753.739	0.0133694
753.818	0.0132990
753.896	0.0131482
753.974	0.0132069
754.052	0.0133366
754.130	0.0132610
754.208	0.0132353
754.286	0.0133076
754.364	0.0132121
754.443	0.0133481
754.521	0.0132960
754.599	0.0134072
754.677	0.0134379
754.755	0.0134300
754.833	0.0134218
754.911	0.0136572
754.989	0.0137367
755.068	0.0137138
755.146	0.0138737
755.224	0.0138145
755.302	0.0139172
755.380	0.0139529
755.458	0.0140347
755.536	0.0140102
755.614	0.0141364
755.693	0.0141776
755.771	0.0142560
755.849	0.0144231
755.927	0.0146147
756.005	0.0147512
756.083	0.0147334
756.161	0.0149252
756.239	0.0147435
756.318	0.0148154
756.396	0.0148576
756.474	0.0147493
756.552	0.0147319
756.630	0.0146992
756.708	0.0146319
756.786	0.0143436
756.864	0.0142264
756.943	0.0141245
757.021	0.0140455
757.099	0.0138685
757.177	0.0139397
757.255	0.0138197
757.333	0.0136871
757.411	0.0137443
757.489	0.0137496
757.568	0.0137794
757.646	0.0136575
757.724	0.0136454
757.802	0.0137106
757.880	0.0136703
757.958	0.0137167
758.036	0.0135880
758.114	0.0135684
758.193	0.0136664
758.271	0.0136223
758.349	0.0134595
758.427	0.0134550
758.505	0.0134628
758.583	0.0136082
758.661	0.0135596
758.739	0.0136798
758.818	0.0136266
758.896	0.0135249
758.974	0.0136945
759.052	0.0136311
759.130	0.0135867
759.208	0.0134964
759.286	0.0134463
759.364	0.0135574
759.443	0.0133643
759.521	0.0133426
759.599	0.0133302
759.677	0.0132188
759.755	0.0131647
759.833	0.0132349
759.911	0.0131127
759.989	0.0130965
760.068	0.0129797
760.146	0.0130603
760.224	0.0131054
760.302	0.0131298
760.380	0.0131628
760.458	0.0131442
760.536	0.0132613
760.614	0.0131773
760.693	0.0133366
760.771	0.0134926
760.849	0.0136766
760.927	0.0136069
761.005	0.0137124
761.083	0.0139674
761.161	0.0139120
761.239	0.0138632
761.318	0.0140881
761.396	0.0140660
761.474	0.0141873
761.552	0.0143206
761.630	0.0143419
761.708	0.0142844
761.786	0.0143550
761.864	0.0144138
761.943	0.0146374
762.021	0.0144000
762.099	0.0145276
762.177	0.0145222
762.255	0.0144102
762.333	0.0143108
762.411	0.0142493
762.489	0.0141669
762.568	0.0142679
762.646	0.0142012
762.724	0.0138914
762.802	0.0138573
762.880	0.0138608
762.958	0.0137769
763.036	0.0136288
763.114	0.0137119
763.193	0.0136479
763.271	0.0136199
763.349	0.0136398
763.427	0.0137049
763.505	0.0137178
763.583	0.0137666
763.661	0.0139716
763.739	0.0138580
763.818	0.0138968
763.896	0.0139166
763.974	0.0138527
764.052	0.0140290
764.130	0.0140462
764.208	0.0140302
764.286	0.0139398
764.364	0.0139285
764.443	0.0140170
764.521	0.0138432
764.599	0.0138558
764.677	0.0136421
764.755	0.0135921
764.833	0.0136819
764.911	0.0136264
764.989	0.0135255
765.068	0.0135877
765.146	0.0135252
765.224	0.0136536
765.302	0.0134892
765.380	0.0135856
765.458	0.0135825
765.536	0.0137117
765.614	0.0134187
765.693	0.0134756
765.771	0.0135812
765.849	0.0135087
765.927	0.0134412
766.005	0.0134341
766.083	0.0133176
766.161	0.0135385
766.239	0.0133629
766.318	0.0133200
766.396	0.0134178
766.474	0.0133866
766.552	0.0134621
766.630	0.0133478
766.708	0.0133858
766.786	0.0135157
766.864	0.0136008
766.943	0.0137337
767.021	0.0136515
767.099	0.0136134
767.177	0.0136115
767.255	0.0137888
767.333	0.0138882
767.411	0.0140413
767.489	0.0137923
767.568	0.0139783
767.646	0.0141261
767.724	0.0140686
767.802	0.0140622
767.880	0.0141334
767.958	0.0139997
768.036	0.0141167
768.114	0.0142355
768.193	0.0142182
768.271	0.0143202
768.349	0.0142992
768.427	0.0142345
768.505	0.0141959
768.583	0.0141412
768.661	0.0141462
768.739	0.0141872
768.818	0.0140923
768.896	0.0140307
768.974	0.0141300
769.052	0.0139433
769.130	0.0140169
769.208	0.0139361
769.286	0.0139119
769.364	0.0139111
769.443	0.0139439
769.521	0.0138301
769.599	0.0139742
769.677	0.0139735
769.755	0.0139703
769.833	0.0138332
769.911	0.0137561
769.989	0.0138984
770.068	0.0138267
770.146	0.0138831
770.224	0.0138088
770.302	0.0138655
770.380	0.0139267
770.458	0.0138055
770.536	0.0138554
770.614	0.0138316
770.693	0.0137977
770.771	0.0136715
770.849	0.0136880
770.927	0.0137367
771.005	0.0135507
771.083	0.0137988
771.161	0.0136516
771.239	0.0135764
771.318	0.0136752
771.396	0.0137894
771.474	0.0137878
771.552	0.0136165
771.630	0.0137029
771.708	0.0136812
771.786	0.0135241
771.864	0.0136369
771.943	0.0137079
772.021	0.0137122
772.099	0.0136859
772.177	0.0137581
772.255	0.0137351
772.333	0.0137088
772.411	0.0137888
772.489	0.0136677
772.568	0.0136786
772.646	0.0137997
772.724	0.0137282
772.802	0.0139024
772.880	0.0138619
772.958	0.0139036
773.036	0.0139183
773.114	0.0138329
773.193	0.0137963
773.271	0.0139828
773.349	0.0139573
773.427	0.0138522
773.505	0.0139468
773.583	0.0140249
773.661	0.0139324
773.739	0.0140171
773.818	0.0140442
773.896	0.0140495
773.974	0.0139639
774.052	0.0142036
774.130	0.0140684
774.208	0.0139295
774.286	0.0139803
774.364	0.0138984
774.443	0.0138626
774.521	0.0138582
774.599	0.0136707
774.677	0.0138734
774.755	0.0137230
774.833	0.0136983
774.911	0.0136050
774.989	0.0135835
775.068	0.0137276
775.146	0.0137184
775.224	0.0135596
775.302	0.0135920
775.380	0.0137056
775.458	0.0137911
775.536	0.0138571
775.614	0.0138946
775.693	0.0138641
775.771	0.0140163
775.849	0.0140923
775.927	0.0139171
776.005	0.0140377
776.083	0.0141400
776.161	0.0142250
776.239	0.0140108
776.318	0.0140529
776.396	0.0143224
776.474	0.0140629
776.552	0.0141112
776.630	0.0139674
776.708	0.0140372
776.786	0.0140267
776.864	0.0138593
776.943	0.0137719
777.021	0.0137159
777.099	0.0136907
777.177	0.0136655
777.255	0.0136584
777.333	0.0137248
777.411	0.0137111
777.489	0.0136040
777.568	0.0136462
777.646	0.0135558
777.724	0.0135995
777.802	0.0136653
777.880	0.0136167
777.958	0.0135996
778.036	0.0136950
778.114	0.0136113
778.193	0.0137090
778.271	0.0138469
778.349	0.0137946
778.427	0.0137755
778.505	0.0138229
778.583	0.0138612
778.661	0.0137730
778.739	0.0138174
778.818	0.0137556
778.896	0.0137139
778.974	0.0137603
779.052	0.0138187
779.130	0.0138326
779.208	0.0138415
779.286	0.0138907
779.364	0.0137605
779.443	0.0137193
779.521	0.0139690
779.599	0.0137909
779.677	0.0138653
779.755	0.0139929
779.833	0.0138840
779.911	0.0139479
779.989	0.0138718
780.068	0.0138688
780.146	0.0138645
780.224	0.0138895
780.302	0.0138987
780.380	0.0139159
780.458	0.0138073
780.536	0.0138132
780.614	0.0138155
780.693	0.0137770
780.771	0.0138161
780.849	0.0137428
780.927	0.0138467
781.005	0.0137527
781.083	0.0136935
781.161	0.0137102
781.239	0.0137498
781.318	0.0138090
781.396	0.0139017
781.474	0.0137927
781.552	0.0138757
781.630	0.0139500
781.708	0.0140312
781.786	0.0140643
781.864	0.0141660
781.943	0.0140146
782.021	0.0141455
782.099	0.0142018
782.177	0.0142757
782.255	0.0142497
782.333	0.0139726
782.411	0.0142023
782.489	0.0141240
782.568	0.0141553
782.646	0.0141203
782.724	0.0141441
782.802	0.0139145
782.880	0.0140673
782.958	0.0138874
783.036	0.0139656
783.114	0.0138287
783.193	0.0138115
783.271	0.0137606
783.349	0.0137703
783.427	0.0137083
783.505	0.0135960
783.583	0.0138368
783.661	0.0137177
783.739	0.0136432
783.818	0.0134641
783.896	0.0134772
783.974	0.0134935
784.052	0.0136622
784.130	0.0135366
784.208	0.0135242
784.286	0.0135170
784.364	0.0135230
784.443	0.0135866
784.521	0.0136723
784.599	0.0135310
784.677	0.0136652
784.755	0.0135767
784.833	0.0135806
784.911	0.0136824
784.989	0.0136449
785.068	0.0137553
785.146	0.0140514
785.224	0.0139180
785.302	0.0139556
785.380	0.0140688
785.458	0.0140511
785.536	0.0140247
785.614	0.0140427
785.693	0.0140111
785.771	0.0140501
785.849	0.0140978
785.927	0.0139860
786.005	0.0140420
786.083	0.0139322
786.161	0.0140344
786.239	0.0139292
786.318	0.0137120
786.396	0.0138157
786.474	0.0138184
786.552	0.0137582
786.630	0.0138754
786.708	0.0137406
786.786	0.0138139
786.864	0.0138207
786.943	0.0137614
787.021	0.0137720
787.099	0.0138335
787.177	0.0137058
787.255	0.0137591
787.333	0.0136770
787.411	0.0137143
787.489	0.0138365
787.568	0.0136524
787.646	0.0136607
787.724	0.0136662
787.802	0.0138254
787.880	0.0136389
787.958	0.0136467
788.036	0.0135187
788.114	0.0135459
788.193	0.0136084
788.271	0.0133741
788.349	0.0135425
788.427	0.0136494
788.505	0.0134568
788.583	0.0135204
788.661	0.0133677
788.739	0.0134624
788.818	0.0137323
788.896	0.0136089
788.974	0.0136176
789.052	0.0138446
789.130	0.0138444
789.208	0.0139524
789.286	0.0140757
789.364	0.0142241
789.443	0.0143935
789.521	0.0144209
789.599	0.0143737
789.677	0.0144968
789.755	0.0144733
789.833	0.0145998
789.911	0.0146936
789.989	0.0145841
790.068	0.0146848
790.146	0.0145450
790.224	0.0142627
790.302	0.0142973
790.380	0.0142310
790.458	0.0140415
790.536	0.0138109
790.614	0.0137012
790.693	0.0135695
790.771	0.0134700
790.849	0.0132300
790.927	0.0130969
791.005	0.0131514
791.083	0.0130436
791.161	0.0129044
791.239	0.0129703
791.318	0.0130420
791.396	0.0130781
791.474	0.0130638
791.552	0.0129020
791.630	0.0131085
791.708	0.0131910
791.786	0.0131979
791.864	0.0132854
791.943	0.0133572
792.021	0.0133562
792.099	0.0135319
792.177	0.0136200
792.255	0.0136692
792.333	0.0137890
792.411	0.0138383
792.489	0.0139671
792.568	0.0140558
792.646	0.0140804
792.724	0.0140208
792.802	0.0142714
792.880	0.0143297
792.958	0.0144967
793.036	0.0143802
793.114	0.0144849
793.193	0.0144545
793.271	0.0143678
793.349	0.0146716
793.427	0.0146220
793.505	0.0144826
793.583	0.0143772
793.661	0.0143711
793.739	0.0144046
793.818	0.0141724
793.896	0.0140733
793.974	0.0140508
794.052	0.0139446
794.130	0.0138531
794.208	0.0136436
794.286	0.0137089
794.364	0.0136628
794.443	0.0134597
794.521	0.0134335
794.599	0.0134309
794.677	0.0134418
794.755	0.0133527
794.833	0.0133781
794.911	0.0131723
794.989	0.0132852
795.068	0.0131613
795.146	0.0131687
795.224	0.0134356
795.302	0.0134243
795.380	0.0134445
795.458	0.0135576
795.536	0.0136517
795.614	0.0137808
795.693	0.0138009
795.771	0.0137156
795.849	0.0139643
795.927	0.0141310
796.005	0.0140746
796.083	0.0140553
796.161	0.0142120
796.239	0.0141068
796.318	0.0140742
796.396	0.0139684
796.474	0.0139796
796.552	0.0140791
796.630	0.0139384
796.708	0.0137923
796.786	0.0138603
796.864	0.0137839
796.943	0.0137631
797.021	0.0137796
797.099	0.0136008
797.177	0.0137118
797.255	0.0136660
797.333	0.0136802
797.411	0.0137503
797.489	0.0136802
797.568	0.0138637
797.646	0.0137638
797.724	0.0138179
797.802	0.0139637
797.880	0.0138766
797.958	0.0138922
798.036	0.0139869
798.114	0.0139999
798.193	0.0140586
798.271	0.0140114
798.349	0.0139899
798.427	0.0139708
798.505	0.0140497
798.583	0.0140390
798.661	0.0139964
798.739	0.0140002
798.818	0.0137871
798.896	0.0138306
798.974	0.0138515
799.052	0.0138387
799.130	0.0137279
799.208	0.0138421
799.286	0.0137880
799.364	0.0137286
799.443	0.0136703
799.521	0.0135718
799.599	0.0136091
799.677	0.0135258
799.755	0.0135757
799.833	0.0136163
799.911	0.0134711
799.989	0.0135810
800.068	0.0134628
800.146	0.0134647
800.224	0.0135501
800.302	0.0135787
800.380	0.0135822
800.458	0.0136955
800.536	0.0135807
800.614	0.0138857
800.693	0.0137361
800.771	0.0137451
800.849	0.0138508
800.927	0.0137669
801.005	0.0139042
801.083	0.0139204
801.161	0.0138779
801.239	0.0138669
801.318	0.0139111
801.396	0.0140182
801.474	0.0140209
801.552	0.0141151
801.630	0.0141929
801.708	0.0141029
801.786	0.0142303
801.864	0.0143770
801.943	0.0142658
802.021	0.0142777
802.099	0.0142442
802.177	0.0143121
802.255	0.0143338
802.333	0.0143415
802.411	0.0143737
802.489	0.0143620
802.568	0.0142917
802.646	0.0143353
802.724	0.0143082
802.802	0.0141592
802.880	0.0141282
802.958	0.0141830
803.036	0.0140672
803.114	0.0139684
803.193	0.0138284
803.271	0.0137399
803.349	0.0135479
803.427	0.0135197
803.505	0.0134756
803.583	0.0132558
803.661	0.0132755
803.739	0.0132944
803.818	0.0131001
803.896	0.0128530
803.974	0.0127917
804.052	0.0128096
804.130	0.0129031
804.208	0.0127258
804.286	0.0126887
804.364	0.0128902
804.443	0.0127447
804.521	0.0128833
804.599	0.0128271
804.677	0.0129100
804.755	0.0130286
804.833	0.0132311
804.911	0.0133152
804.989	0.0134175
805.068	0.0134542
805.146	0.0136160
805.224	0.0136952
805.302	0.0138781
805.380	0.0139143
805.458	0.0140562
805.536	0.0141592
805.614	0.0142074
805.693	0.0144726
805.771	0.0143649
805.849	0.0144565
805.927	0.0145113
806.005	0.0143861
806.083	0.0144280
806.161	0.0144813
806.239	0.0145917
806.318	0.0144554
806.396	0.0143890
806.474	0.0142521
806.552	0.0143333
806.630	0.0142858
806.708	0.0141956
806.786	0.0141811
806.864	0.0141889
806.943	0.0140857
807.021	0.0141103
807.099	0.0140907
807.177	0.0139963
807.255	0.0140718
807.333	0.0140980
807.411	0.0140842
807.489	0.0140370
807.568	0.0141028
807.646	0.0141824
807.724	0.0142075
807.802	0.0141121
807.880	0.0141121
807.958	0.0141267
808.036	0.0140373
808.114	0.0139522
808.193	0.0140011
808.271	0.0137998
808.349	0.0138891
808.427	0.0137393
808.505	0.0136133
808.583	0.0135427
808.661	0.0134753
808.739	0.0132900
808.818	0.0133629
808.896	0.0132944
808.974	0.0131325
809.052	0.0131703
809.130	0.0131396
809.208	0.0131906
809.286	0.0130284
809.364	0.0130134
809.443	0.0128639
809.521	0.0130521
809.599	0.0129905
809.677	0.0131270
809.755	0.0129931
809.833	0.0129658
809.911	0.0132953
809.989	0.0133034
810.068	0.0133633
810.146	0.0133743
810.224	0.0134483
810.302	0.0136336
810.380	0.0135999
810.458	0.0138265
810.536	0.0137473
810.614	0.0138556
810.693	0.0138757
810.771	0.0138814
810.849	0.0139378
810.927	0.0138953
811.005	0.0140083
811.083	0.0140257
811.161	0.0140235
811.239	0.0140557
811.318	0.0141619
811.396	0.0138703
811.474	0.0139396
811.552	0.0139372
811.630	0.0137566
811.708	0.0137606
811.786	0.0138594
811.864	0.0138470
811.943	0.0138841
812.021	0.0138847
812.099	0.0139153
812.177	0.0139966
812.255	0.0139209
812.333	0.0141303
812.411	0.0141357
812.489	0.0141914
812.568	0.0141186
812.646	0.0143254
812.724	0.0144444
812.802	0.0144538
812.880	0.0144711
812.958	0.0146186
813.036	0.0144993
813.114	0.0143943
813.193	0.0145463
813.271	0.0145507
813.349	0.0144534
813.427	0.0143399
813.505	0.0141932
813.583	0.0143439
813.661	0.0142035
813.739	0.0139464
813.818	0.0140011
813.896	0.0137438
813.974	0.0136900
814.052	0.0135458
814.130	0.0134354
814.208	0.0133819
814.286	0.0133788
814.364	0.0131589
814.443	0.0130998
814.521	0.0130421
814.599	0.0129525
814.677	0.0129202
814.755	0.0128671
814.833	0.0127672
814.911	0.0127170
814.989	0.0127699
815.068	0.0127154
815.146	0.0128231
815.224	0.0127803
815.302	0.0128180
815.380	0.0128985
815.458	0.0130924
815.536	0.0130447
815.614	0.0130249
815.693	0.0131241
815.771	0.0133761
815.849	0.0134464
815.927	0.0135308
816.005	0.0134798
816.083	0.0136337
816.161	0.0136560
816.239	0.0138964
816.318	0.0138715
816.396	0.0139745
816.474	0.0140580
816.552	0.0140633
816.630	0.0141055
816.708	0.0141810
816.786	0.0142275
816.864	0.0141177
816.943	0.0141106
817.021	0.0141300
817.099	0.0141776
817.177	0.0141334
817.255	0.0141107
817.333	0.0141117
817.411	0.0140485
817.489	0.0141174
817.568	0.0141698
817.646	0.0141823
817.724	0.0141349
817.802	0.0141138
817.880	0.0143032
817.958	0.0143275
818.036	0.0142762
818.114	0.0144732
818.193	0.0145051
818.271	0.0144766
818.349	0.0145471
818.427	0.0145511
818.505	0.0144109
818.583	0.0144508
818.661	0.0145930
818.739	0.0144328
818.818	0.0144268
818.896	0.0144927
818.974	0.0144189
819.052	0.0143725
819.130	0.0141570
819.208	0.0140009
819.286	0.0138980
819.364	0.0137820
819.443	0.0136942
819.521	0.0135160
819.599	0.0134544
819.677	0.0132732
819.755	0.0131519
819.833	0.0130287
819.911	0.0128989
819.989	0.0128712
820.068	0.0128043
820.146	0.0128336
820.224	0.0124527
820.302	0.0125663
820.380	0.0126106
820.458	0.0123622
820.536	0.0124920
820.614	0.0125471
820.693	0.0126831
820.771	0.0125770
820.849	0.0125767
820.927	0.0128334
821.005	0.0129706
821.083	0.0130454
821.161	0.0132130
821.239	0.0132659
821.318	0.0134458
821.396	0.0135482
821.474	0.0137608
821.552	0.0138966
821.630	0.0139304
821.708	0.0138634
821.786	0.0140077
821.864	0.0141597
821.943	0.0142113
822.021	0.0142979
822.099	0.0141832
822.177	0.0142025
822.255	0.0142909
822.333	0.0142021
822.411	0.0142244
822.489	0.0142319
822.568	0.0142230
822.646	0.0143713
822.724	0.0144091
822.802	0.0142984
822.880	0.0141755
822.958	0.0141720
823.036	0.0142290
823.114	0.0143687
823.193	0.0144029
823.271	0.0144827
823.349	0.0143710
823.427	0.0142750
823.505	0.0144837
823.583	0.0143405
823.661	0.0143320
823.739	0.0144688
823.818	0.0144258
823.896	0.0144030
823.974	0.0144181
824.052	0.0145208
824.130	0.0142873
824.208	0.0141392
824.286	0.0141674
824.364	0.0141837
824.443	0.0141597
824.521	0.0140607
824.599	0.0138964
824.677	0.0140462
824.755	0.0136271
824.833	0.0136524
824.911	0.0136083
824.989	0.0135156
825.068	0.0135396
825.146	0.0133020
825.224	0.0131355
825.302	0.0131621
825.380	0.0130752
825.458	0.0129980
825.536	0.0129694
825.614	0.0130363
825.693	0.0129095
825.771	0.0128571
825.849	0.0128525
825.927	0.0127742
826.005	0.0130054
826.083	0.0128528
826.161	0.0127986
826.239	0.0129021
826.318	0.0130070
826.396	0.0130590
826.474	0.0130850
826.552	0.0133596
826.630	0.0132870
826.708	0.0133264
826.786	0.0134850
826.864	0.0137663
826.943	0.0138139
827.021	0.0137901
827.099	0.0141207
827.177	0.0141264
827.255	0.0141775
827.333	0.0141559
827.411	0.0142360
827.489	0.0142921
827.568	0.0142726
827.646	0.0142727
827.724	0.0141525
827.802	0.0144197
827.880	0.0143958
827.958	0.0144006
828.036	0.0143688
828.114	0.0142196
828.193	0.0143629
828.271	0.0143587
828.349	0.0143184
828.427	0.0141578
828.505	0.0143124
828.583	0.0142181
828.661	0.0141620
828.739	0.0141936
828.818	0.0141872
828.896	0.0143069
828.974	0.0140327
829.052	0.0142373
829.130	0.0142463
829.208	0.0140788
829.286	0.0142134
829.364	0.0142205
829.443	0.0141512
829.521	0.0140477
829.599	0.0141924
829.677	0.0141177
829.755	0.0141280
829.833	0.0140492
829.911	0.0140075
829.989	0.0141543
830.068	0.0140060
830.146	0.0138036
830.224	0.0137953
830.302	0.0137982
830.380	0.0137074
830.458	0.0136466
830.536	0.0135674
830.614	0.0134293
830.693	0.0133972
830.771	0.0133503
830.849	0.0133197
830.927	0.0131786
831.005	0.0131610
831.083	0.0131207
831.161	0.0132374
831.239	0.0131306
831.318	0.0131352
831.396	0.0130835
831.474	0.0129435
831.552	0.0130145
831.630	0.0130746
831.708	0.0131981
831.786	0.0131942
831.864	0.0132000
831.943	0.0132285
832.021	0.0133764
832.099	0.0134772
832.177	0.0134926
832.255	0.0136981
832.333	0.0136532
832.411	0.0136200
832.489	0.0137504
832.568	0.0138977
832.646	0.0138786
832.724	0.0138422
832.802	0.0139085
832.880	0.0138493
832.958	0.0139106
833.036	0.0140174
833.114	0.0140311
833.193	0.0139650
833.271	0.0139467
833.349	0.0140461
833.427	0.0140125
833.505	0.0139404
833.583	0.0140742
833.661	0.0140890
833.739	0.0140374
833.818	0.0141079
833.896	0.0141133
833.974	0.0141167
834.052	0.0141664
834.130	0.0140447
834.208	0.0141992
834.286	0.0142176
834.364	0.0140527
834.443	0.0141104
834.521	0.0141016
834.599	0.0141375
834.677	0.0141292
834.755	0.0139262
834.833	0.0142190
834.911	0.0140855
834.989	0.0139968
835.068	0.0141499
835.146	0.0139072
835.224	0.0138883
835.302	0.0138984
835.380	0.0137070
835.458	0.0137424
835.536	0.0137727
835.614	0.0137381
835.693	0.0136411
835.771	0.0135865
835.849	0.0133154
835.927	0.0135919
836.005	0.0134669
836.083	0.0135117
836.161	0.0136610
836.239	0.0134847
836.318	0.0134807
836.396	0.0134128
836.474	0.0134381
836.552	0.0132956
836.630	0.0134205
836.708	0.0135506
836.786	0.0135780
836.864	0.0134459
836.943	0.0135083
837.021	0.0134979
837.099	0.0134961
837.177	0.0134544
837.255	0.0133819
837.333	0.0135601
837.411	0.0136187
837.489	0.0135489
837.568	0.0134897
837.646	0.0137077
837.724	0.0136328
837.802	0.0136297
837.880	0.0136387
837.958	0.0136523
838.036	0.0136464
838.114	0.0137771
838.193	0.0138632
838.271	0.0138925
838.349	0.0139696
838.427	0.0139969
838.505	0.0139737
838.583	0.0140174
838.661	0.0140559
838.739	0.0140295
838.818	0.0141698
838.896	0.0140826
838.974	0.0139722
839.052	0.0139974
839.130	0.0140915
839.208	0.0140078
839.286	0.0138651
839.364	0.0137917
839.443	0.0140421
839.521	0.0138871
839.599	0.0136374
839.677	0.0136021
839.755	0.0138058
839.833	0.0137538
839.911	0.0135677
839.989	0.0136660
840.068	0.0135358
840.146	0.0135320
840.224	0.0134652
840.302	0.0135481
840.380	0.0135126
840.458	0.0135378
840.536	0.0136738
840.614	0.0135400
840.693	0.0136623
840.771	0.0139345
840.849	0.0138538
840.927	0.0139616
841.005	0.0138322
841.083	0.0139322
841.161	0.0141520
841.239	0.0140843
841.318	0.0140374
841.396	0.0139628
841.474	0.0140596
841.552	0.0141311
841.630	0.0140860
841.708	0.0140681
841.786	0.0141838
841.864	0.0141328
841.943	0.0141791
842.021	0.0141148
842.099	0.0141177
842.177	0.0141831
842.255	0.0142905
842.333	0.0142245
842.411	0.0139262
842.489	0.0139045
842.568	0.0138800
842.646	0.0139721
842.724	0.0138293
842.802	0.0137912
842.880	0.0135416
842.958	0.0137614
843.036	0.0135584
843.114	0.0134978
843.193	0.0135641
843.271	0.0135077
843.349	0.0133600
843.427	0.0134988
843.505	0.0134529
843.583	0.0133132
843.661	0.0133266
843.739	0.0135371
843.818	0.0133398
843.896	0.0134241
843.974	0.0134101
844.052	0.0133915
844.130	0.0133738
844.208	0.0135050
844.286	0.0133801
844.364	0.0134705
844.443	0.0134972
844.521	0.0135757
844.599	0.0137816
844.677	0.0136950
844.755	0.0136768
844.833	0.0137138
844.911	0.0137823
844.989	0.0139540
845.068	0.0138367
845.146	0.0138280
845.224	0.0139576
845.302	0.0139555
845.380	0.0139569
845.458	0.0140472
845.536	0.0141887
845.614	0.0141747
845.693	0.0141333
845.771	0.0142805
845.849	0.0141496
845.927	0.0141330
846.005	0.0142767
846.083	0.0141702
846.161	0.0141596
846.239	0.0142664
846.318	0.0141815
846.396	0.0141383
846.474	0.0141303
846.552	0.0141774
846.630	0.0141593
846.708	0.0139300
846.786	0.0138879
846.864	0.0140112
846.943	0.0139127
847.021	0.0138352
847.099	0.0137680
847.177	0.0136971
847.255	0.0137840
847.333	0.0136913
847.411	0.0136543
847.489	0.0135751
847.568	0.0135622
847.646	0.0134457
847.724	0.0135480
847.802	0.0134956
847.880	0.0135352
847.958	0.0134980
848.036	0.0134889
848.114	0.0136180
848.193	0.0135006
848.271	0.0133429
848.349	0.0132929
848.427	0.0133505
848.505	0.0132766
848.583	0.0133897
848.661	0.0135369
848.739	0.0134949
848.818	0.0135257
848.896	0.0135799
848.974	0.0137769
849.052	0.0137238
849.130	0.0138663
849.208	0.0137990
849.286	0.0138141
849.364	0.0141135
849.443	0.0141438
849.521	0.0140135
849.599	0.0141202
849.677	0.0140865
849.755	0.0142033
849.833	0.0142168
849.911	0.0141089
849.989	0.0141685
850.068	0.0142793
850.146	0.0141091
850.224	0.0139681
850.302	0.0140486
850.380	0.0140344
850.458	0.0139173
850.536	0.0137912
850.614	0.0139332
850.693	0.0138643
850.771	0.0138593
850.849	0.0138443
850.927	0.0137143
851.005	0.0136901
851.083	0.0137870
851.161	0.0137096
851.239	0.0135601
851.318	0.0136304
851.396	0.0137464
851.474	0.0136638
851.552	0.0136166
851.630	0.0137383
851.708	0.0137656
851.786	0.0137151
851.864	0.0136640
851.943	0.0137709
852.021	0.0134660
852.099	0.0135639
852.177	0.0135933
852.255	0.0136543
852.333	0.0135678
852.411	0.0135108
852.489	0.0135455
852.568	0.0137047
852.646	0.0134021
852.724	0.0136730
852.802	0.0136115
852.880	0.0136780
852.958	0.0136541
853.036	0.0135669
853.114	0.0136905
853.193	0.0136430
853.271	0.0137191
853.349	0.0136743
853.427	0.0137627
853.505	0.0139609
853.583	0.0140652
853.661	0.0140565
853.739	0.0138914
853.818	0.0139164
853.896	0.0140984
853.974	0.0141719
854.052	0.0141704
854.130	0.0136965
854.208	0.0140206
854.286	0.0139661
854.364	0.0138892
854.443	0.0140607
854.521	0.0139476
854.599	0.0138972
854.677	0.0139115
854.755	0.0139240
854.833	0.0139252
854.911	0.0137939
854.989	0.0139840
855.068	0.0139497
855.146	0.0138493
855.224	0.0139743
855.302	0.0140275
855.380	0.0137830
855.458	0.0137724
855.536	0.0138744
855.614	0.0137457
855.693	0.0137224
855.771	0.0137141
855.849	0.0138109
855.927	0.0137071
856.005	0.0135307
856.083	0.0136299
856.161	0.0136382
856.239	0.0134639
856.318	0.0134475
856.396	0.0135311
856.474	0.0133839
856.552	0.0132986
856.630	0.0135203
856.708	0.0134631
856.786	0.0134373
856.864	0.0135904
856.943	0.0133954
857.021	0.0135409
857.099	0.0134435
857.177	0.0134301
857.255	0.0136694
857.333	0.0136324
857.411	0.0136060
857.489	0.0136301
857.568	0.0136619
857.646	0.0136178
857.724	0.0136266
857.802	0.0136459
857.880	0.0136373
857.958	0.0135703
858.036	0.0136998
858.114	0.0137582
858.193	0.0137263
858.271	0.0136380
858.349	0.0137022
858.427	0.0134848
858.505	0.0137426
858.583	0.0137138
858.661	0.0136475
858.739	0.0136462
858.818	0.0137181
858.896	0.0138054
858.974	0.0140191
859.052	0.0139088
859.130	0.0137674
859.208	0.0138886
859.286	0.0138827
859.364	0.0140400
859.443	0.0140147
859.521	0.0140479
859.599	0.0140230
859.677	0.0139274
859.755	0.0139960
859.833	0.0141915
859.911	0.0141188
859.989	0.0141814
860.068	0.0141819
860.146	0.0140587
860.224	0.0141924
860.302	0.0141064
860.380	0.0141470
860.458	0.0141090
860.536	0.0140611
860.614	0.0140726
860.693	0.0140431
860.771	0.0139799
860.849	0.0139320
860.927	0.0138772
861.005	0.0137603
861.083	0.0138343
861.161	0.0138270
861.239	0.0136911
861.318	0.0137206
861.396	0.0136061
861.474	0.0136255
861.552	0.0135657
861.630	0.0135248
861.708	0.0133440
861.786	0.0132879
861.864	0.0135072
861.943	0.0133111
862.021	0.0131110
862.099	0.0132729
862.177	0.0133572
862.255	0.0134550
862.333	0.0133875
862.411	0.0132964
862.489	0.0134386
862.568	0.0134065
862.646	0.0135337
862.724	0.0135529
862.802	0.0135956
862.880	0.0135374
862.958	0.0136124
863.036	0.0136687
863.114	0.0135275
863.193	0.0137662
863.271	0.0136295
863.349	0.0136150
863.427	0.0137610
863.505	0.0136874
863.583	0.0137262
863.661	0.0138124
863.739	0.0139743
863.818	0.0137152
863.896	0.0138869
863.974	0.0139487
864.052	0.0138766
864.130	0.0138809
864.208	0.0141179
864.286	0.0140260
864.364	0.0141077
864.443	0.0140242
864.521	0.0142145
864.599	0.0141395
864.677	0.0143316
864.755	0.0142806
864.833	0.0141863
864.911	0.0143145
864.989	0.0143092
865.068	0.0141364
865.146	0.0142214
865.224	0.0142616
865.302	0.0142442
865.380	0.0141940
865.458	0.0141638
865.536	0.0141491
865.614	0.0142352
865.693	0.0142808
865.771	0.0141339
865.849	0.0140300
865.927	0.0139806
866.005	0.0139135
866.083	0.0139863
866.161	0.0137414
866.239	0.0138393
866.318	0.0137730
866.396	0.0136855
866.474	0.0137280
866.552	0.0137220
866.630	0.0136515
866.708	0.0136555
866.786	0.0136509
866.864	0.0135592
866.943	0.0136500
867.021	0.0136365
867.099	0.0134293
867.177	0.0134930
867.255	0.0134987
867.333	0.0136323
867.411	0.0133734
867.489	0.0135284
867.568	0.0134591
867.646	0.0135097
867.724	0.0134841
867.802	0.0133688
867.880	0.0134643
867.958	0.0136040
868.036	0.0136447
868.114	0.0136409
868.193	0.0137148
868.271	0.0136694
868.349	0.0138568
868.427	0.0138008
868.505	0.0139316
868.583	0.0138709
868.661	0.0136825
868.739	0.0139640
868.818	0.0139671
868.896	0.0139548
868.974	0.0140272
869.052	0.0140224
869.130	0.0139879
869.208	0.0139349
869.286	0.0139391
869.364	0.0140365
869.443	0.0141011
869.521	0.0139925
869.599	0.0139809
869.677	0.0139503
869.755	0.0140520
869.833	0.0138276
869.911	0.0139714
869.989	0.0138432
870.068	0.0139088
870.146	0.0138511
870.224	0.0138779
870.302	0.0139143
870.380	0.0138480
870.458	0.0137276
870.536	0.0138254
870.614	0.0138908
870.693	0.0138394
870.771	0.0137191
870.849	0.0137504
870.927	0.0139617
871.005	0.0138950
871.083	0.0139001
871.161	0.0139018
871.239	0.0138859
871.318	0.0137238
871.396	0.0139661
871.474	0.0138000
871.552	0.0139297
871.630	0.0140105
871.708	0.0140067
871.786	0.0139391
871.864	0.0141178
871.943	0.0140387
872.021	0.0139958
872.099	0.0139954
872.177	0.0139612
872.255	0.0140192
872.333	0.0140694
872.411	0.0138879
872.489	0.0139587
872.568	0.0138807
872.646	0.0137103
872.724	0.0137509
872.802	0.0137016
872.880	0.0137379
872.958	0.0137165
873.036	0.0136363
873.114	0.0135997
873.193	0.0137270
873.271	0.0136363
873.349	0.0135947
873.427	0.0136848
873.505	0.0136953
873.583	0.0136973
873.661	0.0136881
873.739	0.0137895
873.818	0.0136829
873.896	0.0135946
873.974	0.0137209
874.052	0.0136789
874.130	0.0137747
874.208	0.0135703
874.286	0.0134754
874.364	0.0136979
874.443	0.0136363
874.521	0.0135608
874.599	0.0137723
874.677	0.0136742
874.755	0.0137156
874.833	0.0135056
874.911	0.0137841
874.989	0.0137108
875.068	0.0137138
875.146	0.0136700
875.224	0.0137446
875.302	0.0136710
875.380	0.0138026
875.458	0.0137888
875.536	0.0137816
875.614	0.0137772
875.693	0.0137796
875.771	0.0138718
875.849	0.0137421
875.927	0.0137415
876.005	0.0138010
876.083	0.0139525
876.161	0.0138253
876.239	0.0139956
876.318	0.0137876
876.396	0.0139211
876.474	0.0138600
876.552	0.0139742
876.630	0.0139851
876.708	0.0139352
876.786	0.0138778
876.864	0.0138227
876.943	0.0139484
877.021	0.0140144
877.099	0.0139540
877.177	0.0139111
877.255	0.0138524
877.333	0.0138010
877.411	0.0137953
877.489	0.0137775
877.568	0.0138599
877.646	0.0139022
877.724	0.0138646
877.802	0.0138295
877.880	0.0139415
877.958	0.0139972
878.036	0.0139516
878.114	0.0139663
878.193	0.0139423
878.271	0.0139556
878.349	0.0139494
878.427	0.0137416
878.505	0.0137701
878.583	0.0137078
878.661	0.0138263
878.739	0.0136090
878.818	0.0135804
878.896	0.0136150
878.974	0.0136478
879.052	0.0134902
879.130	0.0135606
879.208	0.0134830
879.286	0.0134920
879.364	0.0133170
879.443	0.0133334
879.521	0.0133890
879.599	0.0133901
879.677	0.0132224
879.755	0.0131939
879.833	0.0133417
879.911	0.0133717
879.989	0.0134804
880.068	0.0134267
880.146	0.0136332
880.224	0.0135554
880.302	0.0135883
880.380	0.0135996
880.458	0.0137160
880.536	0.0138285
880.614	0.0138512
880.693	0.0138699
880.771	0.0138634
880.849	0.0138815
880.927	0.0139272
881.005	0.0139438
881.083	0.0140631
881.161	0.0139504
881.239	0.0141049
881.318	0.0141314
881.396	0.0140904
881.474	0.0139312
881.552	0.0140631
881.630	0.0140271
881.708	0.0138491
881.786	0.0140245
881.864	0.0139226
881.943	0.0140265
882.021	0.0138919
882.099	0.0138644
882.177	0.0139670
882.255	0.0138592
882.333	0.0137807
882.411	0.0139177
882.489	0.0138134
882.568	0.0138650
882.646	0.0137965
882.724	0.0137534
882.802	0.0139875
882.880	0.0137867
882.958	0.0138319
883.036	0.0138250
883.114	0.0138206
883.193	0.0138496
883.271	0.0139717
883.349	0.0138854
883.427	0.0138512
883.505	0.0139330
883.583	0.0138231
883.661	0.0139116
883.739	0.0138808
883.818	0.0138122
883.896	0.0138741
883.974	0.0137817
884.052	0.0137930
884.130	0.0138698
884.208	0.0137822
884.286	0.0139432
884.364	0.0139558
884.443	0.0137548
884.521	0.0138680
884.599	0.0137331
884.677	0.0137153
884.755	0.0137418
884.833	0.0136918
884.911	0.0135225
884.989	0.0135207
885.068	0.0134878
885.146	0.0134248
885.224	0.0133653
885.302	0.0133921
885.380	0.0132412
885.458	0.0133521
885.536	0.0133175
885.614	0.0131847
885.693	0.0132016
885.771	0.0133129
885.849	0.0133120
885.927	0.0135285
886.005	0.0134476
886.083	0.0133641
886.161	0.0135587
886.239	0.0136249
886.318	0.0137600
886.396	0.0137554
886.474	0.0138803
886.552	0.0139416
886.630	0.0139632
886.708	0.0138618
886.786	0.0140781
886.864	0.0141097
886.943	0.0138963
887.021	0.0141532
887.099	0.0142186
887.177	0.0141570
887.255	0.0140641
887.333	0.0141095
887.411	0.0143068
887.489	0.0141225
887.568	0.0141061
887.646	0.0141831
887.724	0.0140366
887.802	0.0139678
887.880	0.0142318
887.958	0.0142548
888.036	0.0139947
888.114	0.0140989
888.193	0.0141206
888.271	0.0140724
888.349	0.0140261
888.427	0.0138852
888.505	0.0139095
888.583	0.0138567
888.661	0.0137887
888.739	0.0136613
888.818	0.0137030
888.896	0.0136939
888.974	0.0135812
889.052	0.0135954
889.130	0.0136218
889.208	0.0135986
889.286	0.0134111
889.364	0.0134846
889.443	0.0136717
889.521	0.0133897
889.599	0.0133539
889.677	0.0134406
889.755	0.0135521
889.833	0.0135949
889.911	0.0136378
889.989	0.0135862
890.068	0.0136284
890.146	0.0137360
890.224	0.0136368
890.302	0.0136604
890.380	0.0138369
890.458	0.0138176
890.536	0.0139177
890.614	0.0139747
890.693	0.0139007
890.771	0.0138696
890.849	0.0139072
890.927	0.0138783
891.005	0.0137011
891.083	0.0137590
891.161	0.0138451
891.239	0.0137103
891.318	0.0137014
891.396	0.0136666
891.474	0.0135493
891.552	0.0135259
891.630	0.0135241
891.708	0.0135304
891.786	0.0136246
891.864	0.0135447
891.943	0.0136454
892.021	0.0135732
892.099	0.0136442
892.177	0.0138316
892.255	0.0137337
892.333	0.0138187
892.411	0.0138783
892.489	0.0138311
892.568	0.0138915
892.646	0.0140539
892.724	0.0139985
892.802	0.0138673
892.880	0.0140700
892.958	0.0141615
893.036	0.0140855
893.114	0.0140350
893.193	0.0140278
893.271	0.0140668
893.349	0.0139034
893.427	0.0138320
893.505	0.0135995
893.583	0.0136600
893.661	0.0137231
893.739	0.0136801
893.818	0.0137493
893.896	0.0137519
893.974	0.0135612
894.052	0.0137231
894.130	0.0136641
894.208	0.0137440
894.286	0.0136980
894.364	0.0138188
894.443	0.0138227
894.521	0.0137849
894.599	0.0138100
894.677	0.0138164
894.755	0.0138735
894.833	0.0139635
894.911	0.0140092
894.989	0.0139888
895.068	0.0141393
895.146	0.0139935
895.224	0.0139819
895.302	0.0139965
895.380	0.0138443
895.458	0.0138664
895.536	0.0138992
895.614	0.0136507
895.693	0.0137353
895.771	0.0135622
895.849	0.0136760
895.927	0.0136193
896.005	0.0136517
896.083	0.0135844
896.161	0.0135155
896.239	0.0135894
896.318	0.0134496
896.396	0.0134264
896.474	0.0136432
896.552	0.0137308
896.630	0.0136584
896.708	0.0136806
896.786	0.0138409
896.864	0.0139779
896.943	0.0138097
897.021	0.0138735
897.099	0.0141184
897.177	0.0140383
897.255	0.0141860
897.333	0.0142075
897.411	0.0141621
897.489	0.0143763
897.568	0.0142801
897.646	0.0142358
897.724	0.0142515
897.802	0.0142559
897.880	0.0143330
897.958	0.0141280
898.036	0.0139521
898.114	0.0138677
898.193	0.0139214
898.271	0.0137947
898.349	0.0137069
898.427	0.0136525
898.505	0.0135463
898.583	0.0134772
898.661	0.0133674
898.739	0.0133650
898.818	0.0132652
898.896	0.0131617
898.974	0.0132207
899.052	0.0131513
899.130	0.0130978
899.208	0.0133038
899.286	0.0132658
899.364	0.0133062
899.443	0.0134285
899.521	0.0135073
899.599	0.0137115
899.677	0.0136487
899.755	0.0138623
899.833	0.0140694
899.911	0.0141488
899.989	0.0140742
900.068	0.0142152
900.146	0.0143029
900.224	0.0142328
900.302	0.0141572
900.380	0.0144348
900.458	0.0143003
900.536	0.0142368
900.614	0.0142342
900.693	0.0141878
900.771	0.0141842
900.849	0.0141219
900.927	0.0140299
901.005	0.0139240
901.083	0.0139993
901.161	0.0139543
901.239	0.0140099
901.318	0.0139268
901.396	0.0137080
901.474	0.0136739
901.552	0.0136356
901.630	0.0135757
901.708	0.0135789
901.786	0.0134368
901.864	0.0134077
901.943	0.0136010
902.021	0.0134465
902.099	0.0135511
902.177	0.0135083
902.255	0.0136160
902.333	0.0136330
902.411	0.0136371
902.489	0.0137888
902.568	0.0138232
902.646	0.0138114
902.724	0.0138464
902.802	0.0139842
902.880	0.0140011
902.958	0.0139108
903.036	0.0141341
903.114	0.0140414
903.193	0.0139773
903.271	0.0139494
903.349	0.0139862
903.427	0.0141179
903.505	0.0139604
903.583	0.0139788
903.661	0.0138453
903.739	0.0137460
903.818	0.0137272
903.896	0.0137753
903.974	0.0136552
904.052	0.0136485
904.130	0.0134248
904.208	0.0134616
904.286	0.0133556
904.364	0.0133170
904.443	0.0133893
904.521	0.0134084
904.599	0.0134489
904.677	0.0133896
904.755	0.0135469
904.833	0.0133625
904.911	0.0135694
904.989	0.0136887
905.068	0.0137251
905.146	0.0138074
905.224	0.0139433
905.302	0.0139433
905.380	0.0140809
905.458	0.0141659
905.536	0.0142280
905.614	0.0142458
905.693	0.0143718
905.771	0.0141972
905.849	0.0141557
905.927	0.0142277
906.005	0.0140800
906.083	0.0141878
906.161	0.0140235
906.239	0.0139449
906.318	0.0140169
906.396	0.0137242
906.474	0.0138024
906.552	0.0137168
906.630	0.0134803
906.708	0.0134513
906.786	0.0135303
906.864	0.0136591
906.943	0.0137489
907.021	0.0135197
907.099	0.0136572
907.177	0.0138070
907.255	0.0138032
907.333	0.0137766
907.411	0.0138175
907.489	0.0139401
907.568	0.0139856
907.646	0.0139463
907.724	0.0139796
907.802	0.0142425
907.880	0.0142294
907.958	0.0140910
908.036	0.0140247
908.114	0.0140392
908.193	0.0140210
908.271	0.0139792
908.349	0.0139514
908.427	0.0140051
908.505	0.0138552
908.583	0.0138589
908.661	0.0137664
908.739	0.0137884
908.818	0.0137235
908.896	0.0136860
908.974	0.0136862
909.052	0.0135618
909.130	0.0135690
909.208	0.0135490
909.286	0.0135799
909.364	0.0135207
909.443	0.0135850
909.521	0.0134581
909.599	0.0134894
909.677	0.0134696
909.755	0.0134732
909.833	0.0134692
909.911	0.0133389
909.989	0.0134469
910.068	0.0135069
910.146	0.0134792
910.224	0.0135635
910.302	0.0135638
910.380	0.0136404
910.458	0.0137341
910.536	0.0137466
910.614	0.0138831
910.693	0.0139903
910.771	0.0139816
910.849	0.0140495
910.927	0.0141725
911.005	0.0141492
911.083	0.0143356
911.161	0.0142493
911.239	0.0143300
911.318	0.0142214
911.396	0.0140645
911.474	0.0140923
911.552	0.0139925
911.630	0.0140494
911.708	0.0138412
911.786	0.0137524
911.864	0.0136632
911.943	0.0136531
912.021	0.0136569
912.099	0.0135707
912.177	0.0135986
912.255	0.0135374
912.333	0.0135457
912.411	0.0135043
912.489	0.0135027
912.568	0.0136335
912.646	0.0135317
912.724	0.0136804
912.802	0.0136774
912.880	0.0138367
912.958	0.0138802
913.036	0.0140167
913.114	0.0140374
913.193	0.0139565
913.271	0.0140232
913.349	0.0141969
913.427	0.0141854
913.505	0.0141001
913.583	0.0141885
913.661	0.0141119
913.739	0.0141607
913.818	0.0141253
913.896	0.0141376
913.974	0.0139765
914.052	0.0140257
914.130	0.0139728
914.208	0.0140160
914.286	0.0138757
914.364	0.0138039
914.443	0.0139516
914.521	0.0138661
914.599	0.0137280
914.677	0.0137477
914.755	0.0138165
914.833	0.0136638
914.911	0.0134937
914.989	0.0135480
915.068	0.0135773
915.146	0.0134777
915.224	0.0134728
915.302	0.0133096
915.380	0.0134569
915.458	0.0133332
915.536	0.0135618
915.614	0.0136304
915.693	0.0134457
915.771	0.0135651
915.849	0.0135389
915.927	0.0135316
916.005	0.0136496
916.083	0.0137344
916.161	0.0138629
916.239	0.0138451
916.318	0.0140582
916.396	0.0139531
916.474	0.0139496
916.552	0.0142009
916.630	0.0142403
916.708	0.0142350
916.786	0.0142760
916.864	0.0141649
916.943	0.0140900
917.021	0.0142795
917.099	0.0140212
917.177	0.0139465
917.255	0.0139779
917.333	0.0138834
917.411	0.0137395
917.489	0.0138067
917.568	0.0136406
917.646	0.0135965
917.724	0.0135701
917.802	0.0136181
917.880	0.0134684
917.958	0.0134943
918.036	0.0135731
918.114	0.0136584
918.193	0.0136570
918.271	0.0137205
918.349	0.0138052
918.427	0.0137439
918.505	0.0140578
918.583	0.0138992
918.661	0.0140041
918.739	0.0140063
918.818	0.0141367
918.896	0.0140958
918.974	0.0140628
919.052	0.0142077
919.130	0.0140501
919.208	0.0140276
919.286	0.0140369
919.364	0.0138472
919.443	0.0139809
919.521	0.0139473
919.599	0.0137933
919.677	0.0139394
919.755	0.0139133
919.833	0.0137147
919.911	0.0137023
919.989	0.0136806
920.068	0.0137836
920.146	0.0139090
920.224	0.0137189
920.302	0.0138096
920.380	0.0137118
920.458	0.0135755
920.536	0.0135911
920.614	0.0136449
920.693	0.0137251
920.771	0.0137843
920.849	0.0137306
920.927	0.0136795
921.005	0.0137858
921.083	0.0138073
921.161	0.0137366
921.239	0.0137242
921.318	0.0137361
921.396	0.0136579
921.474	0.0136495
921.552	0.0136242
921.630	0.0136948
921.708	0.0137655
921.786	0.0137806
921.864	0.0138879
921.943	0.0138741
922.021	0.0137812
922.099	0.0138075
922.177	0.0138769
922.255	0.0138510
922.333	0.0138491
922.411	0.0138142
922.489	0.0139217
922.568	0.0140670
922.646	0.0138018
922.724	0.0139214
922.802	0.0138726
922.880	0.0137727
922.958	0.0136516
923.036	0.0136023
923.114	0.0135042
923.193	0.0135289
923.271	0.0135399
923.349	0.0134343
923.427	0.0134602
923.505	0.0135732
923.583	0.0135393
923.661	0.0135550
923.739	0.0135841
923.818	0.0137273
923.896	0.0136565
923.974	0.0137931
924.052	0.0137621
924.130	0.0138030
924.208	0.0139530
924.286	0.0139827
924.364	0.0139593
924.443	0.0140224
924.521	0.0139423
924.599	0.0140612
924.677	0.0141526
924.755	0.0139474
924.833	0.0140522
924.911	0.0139214
924.989	0.0139278
925.068	0.0138921
925.146	0.0140088
925.224	0.0139043
925.302	0.0138841
925.380	0.0139352
925.458	0.0138284
925.536	0.0137210
925.614	0.0138329
925.693	0.0136864
925.771	0.0136776
925.849	0.0136442
925.927	0.0136955
926.005	0.0137415
926.083	0.0137329
926.161	0.0137283
926.239	0.0136166
926.318	0.0137669
926.396	0.0138732
926.474	0.0138705
926.552	0.0138417
926.630	0.0139526
926.708	0.0138111
926.786	0.0137486
926.864	0.0138264
926.943	0.0137483
927.021	0.0138710
927.099	0.0138420
927.177	0.0137614
927.255	0.0137402
927.333	0.0137944
927.411	0.0138688
927.489	0.0139130
927.568	0.0137954
927.646	0.0138802
927.724	0.0138821
927.802	0.0139684
927.880	0.0140157
927.958	0.0140522
928.036	0.0139861
928.114	0.0138746
928.193	0.0139400
928.271	0.0139582
928.349	0.0138483
928.427	0.0139010
928.505	0.0138230
928.583	0.0137950
928.661	0.0138126
928.739	0.0136819
928.818	0.0135370
928.896	0.0135273
928.974	0.0134645
929.052	0.0133587
929.130	0.0133584
929.208	0.0134055
929.286	0.0133605
929.364	0.0133479
929.443	0.0133544
929.521	0.0134590
929.599	0.0136134
929.677	0.0135840
929.755	0.0135667
929.833	0.0137121
929.911	0.0137567
929.989	0.0137266
930.068	0.0137756
930.146	0.0137022
930.224	0.0138645
930.302	0.0139442
930.380	0.0140197
930.458	0.0139381
930.536	0.0139462
930.614	0.0140160
930.693	0.0141132
930.771	0.0140347
930.849	0.0140722
930.927	0.0141118
931.005	0.0140395
931.083	0.0141704
931.161	0.0139800
931.239	0.0139758
931.318	0.0137611
931.396	0.0137955
931.474	0.0139950
931.552	0.0137814
931.630	0.0138687
931.708	0.0140089
931.786	0.0139374
931.864	0.0140221
931.943	0.0138366
932.021	0.0139152
932.099	0.0137791
932.177	0.0139399
932.255	0.0137458
932.333	0.0137941
932.411	0.0138093
932.489	0.0137555
932.568	0.0138265
932.646	0.0136131
932.724	0.0136412
932.802	0.0137302
932.880	0.0136275
932.958	0.0135727
933.036	0.0136496
933.114	0.0136223
933.193	0.0134715
933.271	0.0136124
933.349	0.0136472
933.427	0.0136779
933.505	0.0136372
933.583	0.0136450
933.661	0.0136791
933.739	0.0137727
933.818	0.0138269
933.896	0.0136993
933.974	0.0137102
934.052	0.0137865
934.130	0.0136751
934.208	0.0138029
934.286	0.0138198
934.364	0.0136845
934.443	0.0136147
934.521	0.0135696
934.599	0.0135464
934.677	0.0137069
934.755	0.0136642
934.833	0.0134437
934.911	0.0136798
934.989	0.0136069
935.068	0.0135886
935.146	0.0136842
935.224	0.0136736
935.302	0.0138235
935.380	0.0137753
935.458	0.0137874
935.536	0.0140771
935.614	0.0138857
935.693	0.0138815
935.771	0.0139403
935.849	0.0138026
935.927	0.0139613
936.005	0.0140212
936.083	0.0140686
936.161	0.0139957
936.239	0.0139552
936.318	0.0140316
936.396	0.0138200
936.474	0.0138908
936.552	0.0140343
936.630	0.0139635
936.708	0.0138889
936.786	0.0141203
936.864	0.0141779
936.943	0.0138877
937.021	0.0137682
937.099	0.0138553
937.177	0.0138238
937.255	0.0137594
937.333	0.0139317
937.411	0.0138356
937.489	0.0137228
937.568	0.0136516
937.646	0.0135471
937.724	0.0136616
937.802	0.0136082
937.880	0.0137402
937.958	0.0137227
938.036	0.0136446
938.114	0.0135433
938.193	0.0135329
938.271	0.0136932
938.349	0.0136595
938.427	0.0136396
938.505	0.0136702
938.583	0.0136389
938.661	0.0136110
938.739	0.0137650
938.818	0.0137501
938.896	0.0136679
938.974	0.0137141
939.052	0.0137667
939.130	0.0138204
939.208	0.0137614
939.286	0.0136877
939.364	0.0136882
939.443	0.0138911
939.521	0.0138576
939.599	0.0137270
939.677	0.0138836
939.755	0.0138394
939.833	0.0137379
939.911	0.0138634
939.989	0.0138072
940.068	0.0139146
940.146	0.0138025
940.224	0.0137740
940.302	0.0139336
940.380	0.0138858
940.458	0.0138380
940.536	0.0139464
940.614	0.0138735
940.693	0.0139213
940.771	0.0138285
940.849	0.0139650
940.927	0.0139007
941.005	0.0138339
941.083	0.0138267
941.161	0.0138138
941.239	0.0138409
941.318	0.0139156
941.396	0.0138488
941.474	0.0138295
941.552	0.0138844
941.630	0.0137260
941.708	0.0135767
941.786	0.0137254
941.864	0.0137186
941.943	0.0136753
942.021	0.0138702
942.099	0.0137219
942.177	0.0138212
942.255	0.0138175
942.333	0.0139886
942.411	0.0138003
942.489	0.0137067
942.568	0.0138553
942.646	0.0138567
942.724	0.0136474
942.802	0.0138979
942.880	0.0138618
942.958	0.0135733
943.036	0.0136671
943.114	0.0138871
943.193	0.0138020
943.271	0.0137348
943.349	0.0138057
943.427	0.0137065
943.505	0.0138918
943.583	0.0136877
943.661	0.0137695
943.739	0.0137064
943.818	0.0137580
943.896	0.0137129
943.974	0.0138162
944.052	0.0138779
944.130	0.0136143
944.208	0.0138170
944.286	0.0137750
944.364	0.0137169
944.443	0.0137592
944.521	0.0137379
944.599	0.0137982
944.677	0.0135868
944.755	0.0137705
944.833	0.0137911
944.911	0.0136904
944.989	0.0137231
945.068	0.0137302
945.146	0.0136363
945.224	0.0136179
945.302	0.0135011
945.380	0.0136968
945.458	0.0136730
945.536	0.0136665
945.614	0.0137808
945.693	0.0137709
945.771	0.0135873
945.849	0.0136380
945.927	0.0137614
946.005	0.0140304
946.083	0.0138150
946.161	0.0138726
946.239	0.0137309
946.318	0.0138197
946.396	0.0137848
946.474	0.0138705
946.552	0.0139851
946.630	0.0139276
946.708	0.0139328
946.786	0.0138662
946.864	0.0138837
946.943	0.0137359
947.021	0.0138193
947.099	0.0138615
947.177	0.0137519
947.255	0.0137518
947.333	0.0137754
947.411	0.0137678
947.489	0.0136314
947.568	0.0138208
947.646	0.0139487
947.724	0.0138103
947.802	0.0137589
947.880	0.0138142
947.958	0.0137511
948.036	0.0137841
948.114	0.0137574
948.193	0.0136473
948.271	0.0136194
948.349	0.0137641
948.427	0.0137439
948.505	0.0136435
948.583	0.0136297
948.661	0.0137115
948.739	0.0137833
948.818	0.0137666
948.896	0.0136561
948.974	0.0137833
949.052	0.0140493
949.130	0.0138155
949.208	0.0138491
949.286	0.0139799
949.364	0.0138774
949.443	0.0139918
949.521	0.0139393
949.599	0.0140351
949.677	0.0139527
949.755	0.0139551
949.833	0.0140230
949.911	0.0139572
949.989	0.0139688
950.068	0.0139426
950.146	0.0139809
950.224	0.0139545
950.302	0.0138897
950.380	0.0138844
950.458	0.0139036
950.536	0.0139253
950.614	0.0139199
950.693	0.0139392
950.771	0.0138187
950.849	0.0139241
950.927	0.0138330
951.005	0.0139389
951.083	0.0136553
951.161	0.0137598
951.239	0.0138184
951.318	0.0137798
951.396	0.0138299
951.474	0.0138006
951.552	0.0138345
951.630	0.0137341
951.708	0.0137961
951.786	0.0137894
951.864	0.0138354
951.943	0.0138310
952.021	0.0137534
952.099	0.0138173
952.177	0.0138107
952.255	0.0138432
952.333	0.0139230
952.411	0.0138416
952.489	0.0137317
952.568	0.0138663
952.646	0.0137025
952.724	0.0136733
952.802	0.0138522
952.880	0.0137866
952.958	0.0137561
953.036	0.0138113
953.114	0.0136182
953.193	0.0136899
953.271	0.0137457
953.349	0.0137486
953.427	0.0137730
953.505	0.0137725
953.583	0.0137540
953.661	0.0137093
953.739	0.0137527
953.818	0.0137617
953.896	0.0137000
953.974	0.0136936
954.052	0.0137531
954.130	0.0136738
954.208	0.0138249
954.286	0.0139682
954.364	0.0138757
954.443	0.0138744
954.521	0.0138997
954.599	0.0139579
954.677	0.0139203
954.755	0.0137675
954.833	0.0139133
954.911	0.0140090
954.989	0.0138487
955.068	0.0137751
955.146	0.0138651
955.224	0.0140028
955.302	0.0138731
955.380	0.0138854
955.458	0.0139593
955.536	0.0138690
955.614	0.0138780
955.693	0.0139088
955.771	0.0138244
955.849	0.0139303
955.927	0.0139310
956.005	0.0137842
956.083	0.0139476
956.161	0.0138302
956.239	0.0138705
956.318	0.0138362
956.396	0.0138843
956.474	0.0138688
956.552	0.0137154
956.630	0.0137318
956.708	0.0136655
956.786	0.0136053
956.864	0.0137168
956.943	0.0136049
957.021	0.0135078
957.099	0.0134816
957.177	0.0135883
957.255	0.0135622
957.333	0.0135735
957.411	0.0135278
957.489	0.0134684
957.568	0.0136822
957.646	0.0135456
957.724	0.0135233
957.802	0.0134219
957.880	0.0134427
957.958	0.0136207
958.036	0.0135303
958.114	0.0135232
958.193	0.0136349
958.271	0.0136745
958.349	0.0136485
958.427	0.0137377
958.505	0.0137213
958.583	0.0137794
958.661	0.0138091
958.739	0.0137193
958.818	0.0137597
958.896	0.0136417
958.974	0.0139856
959.052	0.0138722
959.130	0.0138097
959.208	0.0138073
959.286	0.0137811
959.364	0.0137741
959.443	0.0137969
959.521	0.0138281
959.599	0.0139391
959.677	0.0138402
959.755	0.0138116
959.833	0.0137682
959.911	0.0138151
