05/14/2022	16:29:56	Ver.	4.1	UNKNOWN
Optical Delay	639.989416	Delta X		0.078125	Sweeps	1	Scan Rate	0/0
Coordinates	Axis 1	NaN	Axis 2	NaN	Axis 3	NaN	Axis 4	NaN	Axis 5	NaN	Axis 6	0.000000
TX Power	0.000000	RX Power	0.000000

639.989	0.0139436
640.068	0.0139120
640.146	0.0140471
640.224	0.0138904
640.302	0.0139448
640.380	0.0139075
640.458	0.0140386
640.536	0.0139706
640.614	0.0140195
640.693	0.0139743
640.771	0.0139565
640.849	0.0137410
640.927	0.0138956
641.005	0.0139153
641.083	0.0141504
641.161	0.0139111
641.239	0.0138361
641.318	0.0139545
641.396	0.0139892
641.474	0.0139879
641.552	0.0140204
641.630	0.0140456
641.708	0.0138785
641.786	0.0139532
641.864	0.0138674
641.943	0.0138850
642.021	0.0139392
642.099	0.0141199
642.177	0.0140334
642.255	0.0138628
642.333	0.0140018
642.411	0.0140025
642.489	0.0139462
642.568	0.0139723
642.646	0.0139189
642.724	0.0139484
642.802	0.0139555
642.880	0.0139206
642.958	0.0140918
643.036	0.0139605
643.114	0.0139517
643.193	0.0139859
643.271	0.0139459
643.349	0.0137943
643.427	0.0138908
643.505	0.0139890
643.583	0.0139671
643.661	0.0138963
643.739	0.0139333
643.818	0.0138953
643.896	0.0139600
643.974	0.0139437
644.052	0.0138759
644.130	0.0139856
644.208	0.0140112
644.286	0.0138682
644.364	0.0140350
644.443	0.0138744
644.521	0.0138806
644.599	0.0139266
644.677	0.0139557
644.755	0.0139295
644.833	0.0140062
644.911	0.0139883
644.989	0.0138145
645.068	0.0139510
645.146	0.0140223
645.224	0.0140489
645.302	0.0139865
645.380	0.0140449
645.458	0.0139762
645.536	0.0139812
645.614	0.0140557
645.693	0.0140814
645.771	0.0138231
645.849	0.0139913
645.927	0.0138898
646.005	0.0139456
646.083	0.0139745
646.161	0.0138808
646.239	0.0139573
646.318	0.0140868
646.396	0.0139645
646.474	0.0139721
646.552	0.0140259
646.630	0.0138866
646.708	0.0139809
646.786	0.0140820
646.864	0.0139200
646.943	0.0139040
647.021	0.0139469
647.099	0.0139468
647.177	0.0138831
647.255	0.0140454
647.333	0.0140598
647.411	0.0140118
647.489	0.0139865
647.568	0.0139243
647.646	0.0140656
647.724	0.0140186
647.802	0.0140640
647.880	0.0140454
647.958	0.0140147
648.036	0.0140657
648.114	0.0138920
648.193	0.0140223
648.271	0.0140469
648.349	0.0140215
648.427	0.0139491
648.505	0.0141046
648.583	0.0140046
648.661	0.0139735
648.739	0.0140231
648.818	0.0139059
648.896	0.0138392
648.974	0.0139957
649.052	0.0139275
649.130	0.0140138
649.208	0.0138882
649.286	0.0140076
649.364	0.0138027
649.443	0.0140614
649.521	0.0138347
649.599	0.0138990
649.677	0.0140363
649.755	0.0139846
649.833	0.0138728
649.911	0.0139128
649.989	0.0139653
650.068	0.0140001
650.146	0.0138406
650.224	0.0138899
650.302	0.0140430
650.380	0.0137816
650.458	0.0138583
650.536	0.0140579
650.614	0.0140311
650.693	0.0139069
650.771	0.0138094
650.849	0.0139707
650.927	0.0139151
651.005	0.0139214
651.083	0.0140820
651.161	0.0139777
651.239	0.0139512
651.318	0.0139310
651.396	0.0140131
651.474	0.0139962
651.552	0.0139732
651.630	0.0140598
651.708	0.0140816
651.786	0.0139388
651.864	0.0139874
651.943	0.0138671
652.021	0.0139151
652.099	0.0140334
652.177	0.0140683
652.255	0.0139162
652.333	0.0138416
652.411	0.0139365
652.489	0.0139697
652.568	0.0140189
652.646	0.0139508
652.724	0.0139703
652.802	0.0139798
652.880	0.0140001
652.958	0.0140327
653.036	0.0138867
653.114	0.0139291
653.193	0.0139534
653.271	0.0140069
653.349	0.0141427
653.427	0.0139561
653.505	0.0139349
653.583	0.0139392
653.661	0.0140742
653.739	0.0138644
653.818	0.0139191
653.896	0.0139513
653.974	0.0138467
654.052	0.0139465
654.130	0.0140013
654.208	0.0138408
654.286	0.0139094
654.364	0.0139386
654.443	0.0141150
654.521	0.0139648
654.599	0.0139238
654.677	0.0139220
654.755	0.0139343
654.833	0.0138191
654.911	0.0141216
654.989	0.0139365
655.068	0.0139722
655.146	0.0140646
655.224	0.0139326
655.302	0.0139214
655.380	0.0138641
655.458	0.0139821
655.536	0.0138801
655.614	0.0139483
655.693	0.0139954
655.771	0.0139088
655.849	0.0138912
655.927	0.0139011
656.005	0.0139569
656.083	0.0140237
656.161	0.0138770
656.239	0.0139251
656.318	0.0137898
656.396	0.0139886
656.474	0.0138803
656.552	0.0139285
656.630	0.0139592
656.708	0.0138976
656.786	0.0139262
656.864	0.0139725
656.943	0.0140273
657.021	0.0139219
657.099	0.0137513
657.177	0.0140302
657.255	0.0141132
657.333	0.0139812
657.411	0.0138436
657.489	0.0139922
657.568	0.0139434
657.646	0.0137920
657.724	0.0138039
657.802	0.0140408
657.880	0.0139311
657.958	0.0138609
658.036	0.0139653
658.114	0.0139159
658.193	0.0139075
658.271	0.0138174
658.349	0.0139909
658.427	0.0140166
658.505	0.0138985
658.583	0.0138770
658.661	0.0138984
658.739	0.0139774
658.818	0.0139262
658.896	0.0139756
658.974	0.0139293
659.052	0.0139458
659.130	0.0139326
659.208	0.0139951
659.286	0.0139548
659.364	0.0138974
659.443	0.0138934
659.521	0.0138310
659.599	0.0138973
659.677	0.0140363
659.755	0.0139124
659.833	0.0138264
659.911	0.0139659
659.989	0.0138749
660.068	0.0138988
660.146	0.0139629
660.224	0.0139243
660.302	0.0138626
660.380	0.0140179
660.458	0.0139517
660.536	0.0138808
660.614	0.0138609
660.693	0.0138387
660.771	0.0138459
660.849	0.0139256
660.927	0.0139416
661.005	0.0139113
661.083	0.0138834
661.161	0.0140245
661.239	0.0140146
661.318	0.0139398
661.396	0.0140067
661.474	0.0139371
661.552	0.0138973
661.630	0.0138589
661.708	0.0139029
661.786	0.0139356
661.864	0.0139702
661.943	0.0139625
662.021	0.0140395
662.099	0.0139806
662.177	0.0139827
662.255	0.0138571
662.333	0.0139391
662.411	0.0139374
662.489	0.0139761
662.568	0.0139049
662.646	0.0139397
662.724	0.0140222
662.802	0.0139262
662.880	0.0139891
662.958	0.0139321
663.036	0.0138793
663.114	0.0138596
663.193	0.0138555
663.271	0.0139114
663.349	0.0138793
663.427	0.0138679
663.505	0.0140311
663.583	0.0140468
663.661	0.0138850
663.739	0.0139184
663.818	0.0140141
663.896	0.0139098
663.974	0.0141074
664.052	0.0139438
664.130	0.0138949
664.208	0.0139502
664.286	0.0138656
664.364	0.0138835
664.443	0.0139905
664.521	0.0139109
664.599	0.0139296
664.677	0.0140542
664.755	0.0139424
664.833	0.0140032
664.911	0.0138480
664.989	0.0138696
665.068	0.0139423
665.146	0.0140195
665.224	0.0140558
665.302	0.0138467
665.380	0.0138871
665.458	0.0138800
665.536	0.0139408
665.614	0.0139851
665.693	0.0139192
665.771	0.0138594
665.849	0.0140556
665.927	0.0139503
666.005	0.0138610
666.083	0.0140187
666.161	0.0140102
666.239	0.0139933
666.318	0.0139085
666.396	0.0140065
666.474	0.0138734
666.552	0.0139755
666.630	0.0139703
666.708	0.0139575
666.786	0.0139286
666.864	0.0139994
666.943	0.0139368
667.021	0.0140266
667.099	0.0139104
667.177	0.0139784
667.255	0.0139896
667.333	0.0138448
667.411	0.0140961
667.489	0.0138511
667.568	0.0138838
667.646	0.0139619
667.724	0.0139705
667.802	0.0140119
667.880	0.0139613
667.958	0.0139931
668.036	0.0140204
668.114	0.0139931
668.193	0.0140239
668.271	0.0139373
668.349	0.0140357
668.427	0.0140871
668.505	0.0138554
668.583	0.0138696
668.661	0.0140135
668.739	0.0139828
668.818	0.0140195
668.896	0.0139530
668.974	0.0140343
669.052	0.0140614
669.130	0.0139211
669.208	0.0139211
669.286	0.0139397
669.364	0.0140100
669.443	0.0140115
669.521	0.0140320
669.599	0.0139137
669.677	0.0139561
669.755	0.0138949
669.833	0.0138557
669.911	0.0139873
669.989	0.0137816
670.068	0.0139268
670.146	0.0140252
670.224	0.0138087
670.302	0.0139165
670.380	0.0139790
670.458	0.0139766
670.536	0.0140047
670.614	0.0139368
670.693	0.0140140
670.771	0.0140894
670.849	0.0139366
670.927	0.0138362
671.005	0.0139141
671.083	0.0139760
671.161	0.0140384
671.239	0.0139063
671.318	0.0139373
671.396	0.0140329
671.474	0.0139915
671.552	0.0138995
671.630	0.0138855
671.708	0.0141221
671.786	0.0139567
671.864	0.0139679
671.943	0.0138835
672.021	0.0139440
672.099	0.0139252
672.177	0.0139661
672.255	0.0139854
672.333	0.0139316
672.411	0.0139500
672.489	0.0139784
672.568	0.0139594
672.646	0.0137879
672.724	0.0139446
672.802	0.0141301
672.880	0.0140192
672.958	0.0138642
673.036	0.0140002
673.114	0.0139221
673.193	0.0139436
673.271	0.0140040
673.349	0.0140079
673.427	0.0139828
673.505	0.0138705
673.583	0.0139813
673.661	0.0139118
673.739	0.0139021
673.818	0.0139729
673.896	0.0139152
673.974	0.0138723
674.052	0.0141193
674.130	0.0139529
674.208	0.0139671
674.286	0.0139561
674.364	0.0137700
674.443	0.0139119
674.521	0.0140740
674.599	0.0139844
674.677	0.0139610
674.755	0.0138424
674.833	0.0139634
674.911	0.0139861
674.989	0.0140582
675.068	0.0140085
675.146	0.0139635
675.224	0.0140297
675.302	0.0139212
675.380	0.0139911
675.458	0.0139697
675.536	0.0139796
675.614	0.0139845
675.693	0.0140500
675.771	0.0138136
675.849	0.0140574
675.927	0.0138422
676.005	0.0138747
676.083	0.0139178
676.161	0.0139118
676.239	0.0138799
676.318	0.0140145
676.396	0.0139484
676.474	0.0139324
676.552	0.0139007
676.630	0.0138910
676.708	0.0139949
676.786	0.0140059
676.864	0.0140156
676.943	0.0141201
677.021	0.0139407
677.099	0.0138554
677.177	0.0139365
677.255	0.0140709
677.333	0.0140176
677.411	0.0141393
677.489	0.0139834
677.568	0.0140050
677.646	0.0140952
677.724	0.0139436
677.802	0.0139480
677.880	0.0138854
677.958	0.0139774
678.036	0.0139570
678.114	0.0138081
678.193	0.0138467
678.271	0.0139423
678.349	0.0139938
678.427	0.0140092
678.505	0.0141287
678.583	0.0140973
678.661	0.0138807
678.739	0.0139157
678.818	0.0140160
678.896	0.0139864
678.974	0.0139914
679.052	0.0140288
679.130	0.0140117
679.208	0.0140405
679.286	0.0139553
679.364	0.0140591
679.443	0.0140761
679.521	0.0139653
679.599	0.0140151
679.677	0.0139061
679.755	0.0138261
679.833	0.0141174
679.911	0.0140312
679.989	0.0140581
680.068	0.0139861
680.146	0.0141176
680.224	0.0139986
680.302	0.0140237
680.380	0.0139738
680.458	0.0140527
680.536	0.0141304
680.614	0.0140627
680.693	0.0140752
680.771	0.0139754
680.849	0.0139848
680.927	0.0140776
681.005	0.0140141
681.083	0.0140912
681.161	0.0140778
681.239	0.0140652
681.318	0.0140678
681.396	0.0139462
681.474	0.0140237
681.552	0.0140548
681.630	0.0138985
681.708	0.0139596
681.786	0.0140394
681.864	0.0141177
681.943	0.0139794
682.021	0.0140519
682.099	0.0141441
682.177	0.0140740
682.255	0.0140382
682.333	0.0141319
682.411	0.0141487
682.489	0.0139346
682.568	0.0138972
682.646	0.0138805
682.724	0.0137504
682.802	0.0137836
682.880	0.0139680
682.958	0.0139085
683.036	0.0139915
683.114	0.0139896
683.193	0.0140375
683.271	0.0141753
683.349	0.0142508
683.427	0.0141380
683.505	0.0142673
683.583	0.0142397
683.661	0.0141676
683.739	0.0141786
683.818	0.0140770
683.896	0.0141118
683.974	0.0141255
684.052	0.0141088
684.130	0.0140115
684.208	0.0140482
684.286	0.0138922
684.364	0.0140217
684.443	0.0139532
684.521	0.0137234
684.599	0.0137750
684.677	0.0137260
684.755	0.0137190
684.833	0.0135629
684.911	0.0134221
684.989	0.0133838
685.068	0.0133914
685.146	0.0133578
685.224	0.0133688
685.302	0.0133760
685.380	0.0134399
685.458	0.0135807
685.536	0.0136825
685.614	0.0140239
685.693	0.0141595
685.771	0.0142635
685.849	0.0145097
685.927	0.0145731
686.005	0.0146896
686.083	0.0149677
686.161	0.0150308
686.239	0.0150638
686.318	0.0150933
686.396	0.0151698
686.474	0.0151363
686.552	0.0150726
686.630	0.0150236
686.708	0.0146350
686.786	0.0146283
686.864	0.0143813
686.943	0.0141286
687.021	0.0138070
687.099	0.0134515
687.177	0.0131351
687.255	0.0128666
687.333	0.0126640
687.411	0.0124302
687.489	0.0122232
687.568	0.0120722
687.646	0.0122543
687.724	0.0121943
687.802	0.0121961
687.880	0.0123984
687.958	0.0123502
688.036	0.0127924
688.114	0.0129201
688.193	0.0132088
688.271	0.0136111
688.349	0.0137460
688.427	0.0141657
688.505	0.0146082
688.583	0.0147352
688.661	0.0150523
688.739	0.0153114
688.818	0.0154876
688.896	0.0157011
688.974	0.0157628
689.052	0.0159200
689.130	0.0157954
689.208	0.0159014
689.286	0.0159221
689.364	0.0158231
689.443	0.0156593
689.521	0.0155526
689.599	0.0153860
689.677	0.0152911
689.755	0.0150912
689.833	0.0148362
689.911	0.0144531
689.989	0.0142490
690.068	0.0139500
690.146	0.0135479
690.224	0.0131612
690.302	0.0128561
690.380	0.0123857
690.458	0.0121883
690.536	0.0120338
690.614	0.0117023
690.693	0.0113985
690.771	0.0112925
690.849	0.0111047
690.927	0.0108511
691.005	0.0108987
691.083	0.0110008
691.161	0.0110052
691.239	0.0112473
691.318	0.0113379
691.396	0.0117211
691.474	0.0119786
691.552	0.0124554
691.630	0.0130083
691.708	0.0136484
691.786	0.0143179
691.864	0.0150702
691.943	0.0157617
692.021	0.0163395
692.099	0.0169679
692.177	0.0174280
692.255	0.0179604
692.333	0.0183141
692.411	0.0187099
692.489	0.0188804
692.568	0.0191252
692.646	0.0189817
692.724	0.0186912
692.802	0.0184074
692.880	0.0181359
692.958	0.0175124
693.036	0.0168911
693.114	0.0160154
693.193	0.0152450
693.271	0.0145222
693.349	0.0137296
693.427	0.0130122
693.505	0.0120721
693.583	0.0113046
693.661	0.0107434
693.739	0.0102074
693.818	0.00966209
693.896	0.00921288
693.974	0.00887794
694.052	0.00848923
694.130	0.00855125
694.208	0.00844170
694.286	0.00881561
694.364	0.00877357
694.443	0.00901825
694.521	0.00941246
694.599	0.00981262
694.677	0.0105679
694.755	0.0111919
694.833	0.0117400
694.911	0.0123203
694.989	0.0130869
695.068	0.0138249
695.146	0.0145461
695.224	0.0152577
695.302	0.0160448
695.380	0.0168055
695.458	0.0173961
695.536	0.0177140
695.614	0.0182986
695.693	0.0188888
695.771	0.0190423
695.849	0.0194129
695.927	0.0194363
696.005	0.0194500
696.083	0.0196732
696.161	0.0193128
696.239	0.0190382
696.318	0.0187394
696.396	0.0181798
696.474	0.0178400
696.552	0.0173122
696.630	0.0164157
696.708	0.0157986
696.786	0.0151059
696.864	0.0141381
696.943	0.0137438
697.021	0.0127673
697.099	0.0120613
697.177	0.0114304
697.255	0.0107600
697.333	0.0102708
697.411	0.00978882
697.489	0.00958115
697.568	0.00941444
697.646	0.00912804
697.724	0.00923180
697.802	0.00944855
697.880	0.00957680
697.958	0.00981674
698.036	0.0102116
698.114	0.0105668
698.193	0.0110854
698.271	0.0114500
698.349	0.0120337
698.427	0.0125661
698.505	0.0128560
698.583	0.0132608
698.661	0.0137202
698.739	0.0139513
698.818	0.0141440
698.896	0.0144389
698.974	0.0145628
699.052	0.0146865
699.130	0.0148042
699.208	0.0149754
699.286	0.0150182
699.364	0.0152100
699.443	0.0151987
699.521	0.0151361
699.599	0.0153333
699.677	0.0153480
699.755	0.0153085
699.833	0.0154320
699.911	0.0155471
699.989	0.0157482
700.068	0.0158372
700.146	0.0161260
700.224	0.0161487
700.302	0.0165855
700.380	0.0167731
700.458	0.0169060
700.536	0.0169994
700.614	0.0170970
700.693	0.0171452
700.771	0.0171611
700.849	0.0169843
700.927	0.0167400
701.005	0.0166146
701.083	0.0163899
701.161	0.0159341
701.239	0.0154917
701.318	0.0149975
701.396	0.0144802
701.474	0.0138360
701.552	0.0131726
701.630	0.0126408
701.708	0.0120459
701.786	0.0116157
701.864	0.0110126
701.943	0.0106757
702.021	0.0103218
702.099	0.0101765
702.177	0.0100784
702.255	0.00988480
702.333	0.0102068
702.411	0.0102216
702.489	0.0105172
702.568	0.0106976
702.646	0.0112531
702.724	0.0116692
702.802	0.0119894
702.880	0.0124713
702.958	0.0129588
703.036	0.0133600
703.114	0.0135197
703.193	0.0139080
703.271	0.0141168
703.349	0.0143572
703.427	0.0144512
703.505	0.0144321
703.583	0.0143350
703.661	0.0141851
703.739	0.0140578
703.818	0.0138965
703.896	0.0137134
703.974	0.0134444
704.052	0.0132291
704.130	0.0132155
704.208	0.0131396
704.286	0.0129647
704.364	0.0130330
704.443	0.0130840
704.521	0.0133471
704.599	0.0137382
704.677	0.0141032
704.755	0.0144969
704.833	0.0150935
704.911	0.0156971
704.989	0.0161174
705.068	0.0164883
705.146	0.0170161
705.224	0.0172414
705.302	0.0174937
705.380	0.0178361
705.458	0.0181315
705.536	0.0182693
705.614	0.0182783
705.693	0.0183409
705.771	0.0181535
705.849	0.0182700
705.927	0.0178790
706.005	0.0175768
706.083	0.0172460
706.161	0.0168156
706.239	0.0163811
706.318	0.0157854
706.396	0.0151866
706.474	0.0146529
706.552	0.0138603
706.630	0.0130215
706.708	0.0124249
706.786	0.0114847
706.864	0.0106853
706.943	0.00993347
707.021	0.00936821
707.099	0.00875557
707.177	0.00858276
707.255	0.00821594
707.333	0.00810570
707.411	0.00809219
707.489	0.00817169
707.568	0.00851486
707.646	0.00879860
707.724	0.00919334
707.802	0.00970490
707.880	0.0102313
707.958	0.0105892
708.036	0.0110179
708.114	0.0114890
708.193	0.0120464
708.271	0.0125230
708.349	0.0129062
708.427	0.0133305
708.505	0.0138849
708.583	0.0142814
708.661	0.0146934
708.739	0.0152776
708.818	0.0156704
708.896	0.0157745
708.974	0.0161668
709.052	0.0165643
709.130	0.0166314
709.208	0.0167632
709.286	0.0168682
709.364	0.0168341
709.443	0.0167647
709.521	0.0169048
709.599	0.0168953
709.677	0.0169788
709.755	0.0169519
709.833	0.0167734
709.911	0.0167426
709.989	0.0168856
710.068	0.0167043
710.146	0.0165041
710.224	0.0164839
710.302	0.0163565
710.380	0.0162299
710.458	0.0160490
710.536	0.0158198
710.614	0.0156221
710.693	0.0153310
710.771	0.0152053
710.849	0.0152629
710.927	0.0151041
711.005	0.0150536
711.083	0.0149010
711.161	0.0148949
711.239	0.0149004
711.318	0.0144150
711.396	0.0143986
711.474	0.0142104
711.552	0.0136873
711.630	0.0131275
711.708	0.0126354
711.786	0.0121237
711.864	0.0115416
711.943	0.0109922
712.021	0.0105702
712.099	0.0102547
712.177	0.00986595
712.255	0.00952095
712.333	0.00943871
712.411	0.00920341
712.489	0.00897682
712.568	0.00900337
712.646	0.00914810
712.724	0.00957985
712.802	0.00986496
712.880	0.0104607
712.958	0.0109061
713.036	0.0113653
713.114	0.0120812
713.193	0.0128268
713.271	0.0135172
713.349	0.0141414
713.427	0.0148409
713.505	0.0155675
713.583	0.0160117
713.661	0.0164115
713.739	0.0166883
713.818	0.0169756
713.896	0.0170689
713.974	0.0169310
714.052	0.0167669
714.130	0.0164906
714.208	0.0163094
714.286	0.0159463
714.364	0.0155384
714.443	0.0150930
714.521	0.0144966
714.599	0.0140641
714.677	0.0140047
714.755	0.0135973
714.833	0.0134472
714.911	0.0132359
714.989	0.0132619
715.068	0.0133749
715.146	0.0136752
715.224	0.0138320
715.302	0.0142098
715.380	0.0144746
715.458	0.0147467
715.536	0.0149699
715.614	0.0152993
715.693	0.0154508
715.771	0.0157238
715.849	0.0159509
715.927	0.0160342
716.005	0.0164129
716.083	0.0163380
716.161	0.0162903
716.239	0.0164611
716.318	0.0165206
716.396	0.0163828
716.474	0.0162950
716.552	0.0161781
716.630	0.0160349
716.708	0.0158324
716.786	0.0156133
716.864	0.0152544
716.943	0.0149732
717.021	0.0143842
717.099	0.0137513
717.177	0.0134750
717.255	0.0127962
717.333	0.0123441
717.411	0.0118595
717.489	0.0113938
717.568	0.0110526
717.646	0.0106743
717.724	0.0103262
717.802	0.0101918
717.880	0.0100447
717.958	0.00974991
718.036	0.00971886
718.114	0.00979607
718.193	0.00982956
718.271	0.0101385
718.349	0.0104385
718.427	0.0109627
718.505	0.0114823
718.583	0.0119881
718.661	0.0127011
718.739	0.0132331
718.818	0.0137894
718.896	0.0143428
718.974	0.0148031
719.052	0.0149990
719.130	0.0152912
719.208	0.0154893
719.286	0.0153866
719.364	0.0154042
719.443	0.0152694
719.521	0.0150017
719.599	0.0147911
719.677	0.0147848
719.755	0.0144613
719.833	0.0141863
719.911	0.0140602
719.989	0.0138586
720.068	0.0138155
720.146	0.0137724
720.224	0.0136360
720.302	0.0135745
720.380	0.0137075
720.458	0.0137439
720.536	0.0140220
720.614	0.0142684
720.693	0.0145808
720.771	0.0150996
720.849	0.0154635
720.927	0.0157157
721.005	0.0162178
721.083	0.0167585
721.161	0.0170123
721.239	0.0173563
721.318	0.0174491
721.396	0.0175738
721.474	0.0175494
721.552	0.0175455
721.630	0.0175177
721.708	0.0173556
721.786	0.0170094
721.864	0.0168692
721.943	0.0166149
722.021	0.0163792
722.099	0.0161436
722.177	0.0159601
722.255	0.0156520
722.333	0.0153329
722.411	0.0151619
722.489	0.0147349
722.568	0.0142752
722.646	0.0138431
722.724	0.0132108
722.802	0.0128233
722.880	0.0124157
722.958	0.0117690
723.036	0.0112766
723.114	0.0106831
723.193	0.0104025
723.271	0.0102076
723.349	0.00988815
723.427	0.00959412
723.505	0.00938309
723.583	0.00939171
723.661	0.00926186
723.739	0.00933037
723.818	0.00960007
723.896	0.00965340
723.974	0.00997070
724.052	0.0105611
724.130	0.0107890
724.208	0.0113610
724.286	0.0119708
724.364	0.0127115
724.443	0.0132911
724.521	0.0139207
724.599	0.0142090
724.677	0.0147278
724.755	0.0150338
724.833	0.0151725
724.911	0.0153046
724.989	0.0153071
725.068	0.0152849
725.146	0.0150053
725.224	0.0150043
725.302	0.0147226
725.380	0.0143060
725.458	0.0142405
725.536	0.0139156
725.614	0.0137265
725.693	0.0136490
725.771	0.0135147
725.849	0.0135547
725.927	0.0137042
726.005	0.0138692
726.083	0.0140534
726.161	0.0143862
726.239	0.0147415
726.318	0.0151629
726.396	0.0154485
726.474	0.0159640
726.552	0.0163111
726.630	0.0168390
726.708	0.0174278
726.786	0.0177077
726.864	0.0180021
726.943	0.0182262
727.021	0.0183139
727.099	0.0184181
727.177	0.0182352
727.255	0.0181310
727.333	0.0177362
727.411	0.0175382
727.489	0.0171115
727.568	0.0167099
727.646	0.0161813
727.724	0.0157192
727.802	0.0152416
727.880	0.0147939
727.958	0.0145448
728.036	0.0140509
728.114	0.0137043
728.193	0.0132453
728.271	0.0130534
728.349	0.0125982
728.427	0.0124454
728.505	0.0121005
728.583	0.0117397
728.661	0.0115568
728.739	0.0112860
728.818	0.0108666
728.896	0.0106948
728.974	0.0103657
729.052	0.0101578
729.130	0.00999321
729.208	0.00969551
729.286	0.00944084
729.364	0.00932701
729.443	0.00913078
729.521	0.00921989
729.599	0.00938477
729.677	0.00940186
729.755	0.00975555
729.833	0.0100576
729.911	0.0105432
729.989	0.0111523
730.068	0.0116951
730.146	0.0122306
730.224	0.0130798
730.302	0.0136108
730.380	0.0140745
730.458	0.0147498
730.536	0.0152033
730.614	0.0154487
730.693	0.0157891
730.771	0.0160152
730.849	0.0160655
730.927	0.0159126
731.005	0.0158257
731.083	0.0157204
731.161	0.0156529
731.239	0.0152985
731.318	0.0150675
731.396	0.0149628
731.474	0.0147888
731.552	0.0146178
731.630	0.0146828
731.708	0.0146932
731.786	0.0148009
731.864	0.0149654
731.943	0.0151096
732.021	0.0153240
732.099	0.0156495
732.177	0.0159554
732.255	0.0161472
732.333	0.0165620
732.411	0.0166880
732.489	0.0170058
732.568	0.0171830
732.646	0.0172451
732.724	0.0174364
732.802	0.0174071
732.880	0.0175800
732.958	0.0173838
733.036	0.0172670
733.114	0.0168888
733.193	0.0164687
733.271	0.0163640
733.349	0.0158871
733.427	0.0156213
733.505	0.0151682
733.583	0.0147546
733.661	0.0142735
733.739	0.0139198
733.818	0.0136372
733.896	0.0132014
733.974	0.0129265
734.052	0.0125643
734.130	0.0122962
734.208	0.0119788
734.286	0.0117954
734.364	0.0115562
734.443	0.0112955
734.521	0.0111100
734.599	0.0108521
734.677	0.0103633
734.755	0.0102406
734.833	0.0100822
734.911	0.00990776
734.989	0.00965851
735.068	0.00952026
735.146	0.00938416
735.224	0.00915291
735.302	0.00910782
735.380	0.00947037
735.458	0.00964272
735.536	0.00984077
735.614	0.0105097
735.693	0.0110800
735.771	0.0117609
735.849	0.0123947
735.927	0.0132659
736.005	0.0139488
736.083	0.0145746
736.161	0.0152489
736.239	0.0159348
736.318	0.0162053
736.396	0.0163892
736.474	0.0166474
736.552	0.0168406
736.630	0.0167194
736.708	0.0165616
736.786	0.0163177
736.864	0.0160115
736.943	0.0158186
737.021	0.0152908
737.099	0.0151096
737.177	0.0147646
737.255	0.0145774
737.333	0.0141930
737.411	0.0140219
737.489	0.0140445
737.568	0.0139925
737.646	0.0141733
737.724	0.0142146
737.802	0.0144556
737.880	0.0146773
737.958	0.0150555
738.036	0.0153352
738.114	0.0155817
738.193	0.0159136
738.271	0.0160987
738.349	0.0164465
738.427	0.0165356
738.505	0.0166992
738.583	0.0168671
738.661	0.0169361
738.739	0.0167149
738.818	0.0166399
738.896	0.0164128
738.974	0.0161806
739.052	0.0158620
739.130	0.0156390
739.208	0.0152398
739.286	0.0148919
739.364	0.0145673
739.443	0.0141193
739.521	0.0137839
739.599	0.0136469
739.677	0.0132781
739.755	0.0130698
739.833	0.0127164
739.911	0.0124167
739.989	0.0121911
740.068	0.0118890
740.146	0.0117092
740.224	0.0114561
740.302	0.0112714
740.380	0.0111131
740.458	0.0109604
740.536	0.0107260
740.614	0.0105786
740.693	0.0104919
740.771	0.0104497
740.849	0.0106096
740.927	0.0106927
741.005	0.0108044
741.083	0.0109097
741.161	0.0111973
741.239	0.0114107
741.318	0.0118600
741.396	0.0123627
741.474	0.0127625
741.552	0.0131885
741.630	0.0136338
741.708	0.0139147
741.786	0.0145665
741.864	0.0150239
741.943	0.0151667
742.021	0.0153730
742.099	0.0154654
742.177	0.0155775
742.255	0.0156488
742.333	0.0155231
742.411	0.0153306
742.489	0.0151186
742.568	0.0148988
742.646	0.0144994
742.724	0.0143874
742.802	0.0140226
742.880	0.0137950
742.958	0.0135178
743.036	0.0134803
743.114	0.0133388
743.193	0.0133968
743.271	0.0134692
743.349	0.0135992
743.427	0.0137398
743.505	0.0139029
743.583	0.0141788
743.661	0.0144621
743.739	0.0147368
743.818	0.0150306
743.896	0.0155305
743.974	0.0157661
744.052	0.0160670
744.130	0.0164246
744.208	0.0166916
744.286	0.0169791
744.364	0.0171159
744.443	0.0171301
744.521	0.0169389
744.599	0.0170019
744.677	0.0167279
744.755	0.0164471
744.833	0.0161074
744.911	0.0158619
744.989	0.0154300
745.068	0.0150352
745.146	0.0146809
745.224	0.0141090
745.302	0.0139329
745.380	0.0134875
745.458	0.0131248
745.536	0.0128576
745.614	0.0126723
745.693	0.0125037
745.771	0.0124068
745.849	0.0122781
745.927	0.0122543
746.005	0.0120851
746.083	0.0121688
746.161	0.0119827
746.239	0.0121033
746.318	0.0122022
746.396	0.0123595
746.474	0.0123203
746.552	0.0123569
746.630	0.0124214
746.708	0.0123859
746.786	0.0123049
746.864	0.0126360
746.943	0.0125378
747.021	0.0125925
747.099	0.0125748
747.177	0.0128397
747.255	0.0129005
747.333	0.0130228
747.411	0.0132529
747.489	0.0132302
747.568	0.0133234
747.646	0.0135039
747.724	0.0136054
747.802	0.0135545
747.880	0.0138166
747.958	0.0138663
748.036	0.0138329
748.114	0.0140427
748.193	0.0139227
748.271	0.0141023
748.349	0.0141798
748.427	0.0142477
748.505	0.0142039
748.583	0.0141071
748.661	0.0139552
748.739	0.0141592
748.818	0.0144035
748.896	0.0142327
748.974	0.0143580
749.052	0.0144713
749.130	0.0144162
749.208	0.0145731
749.286	0.0146535
749.364	0.0148988
749.443	0.0150433
749.521	0.0150061
749.599	0.0150029
749.677	0.0153896
749.755	0.0154473
749.833	0.0154616
749.911	0.0157802
749.989	0.0158778
750.068	0.0157477
750.146	0.0156964
750.224	0.0157021
750.302	0.0159181
750.380	0.0157915
750.458	0.0155696
750.536	0.0154054
750.614	0.0151517
750.693	0.0150921
750.771	0.0149809
750.849	0.0144421
750.927	0.0141180
751.005	0.0139692
751.083	0.0136214
751.161	0.0133851
751.239	0.0131095
751.318	0.0129695
751.396	0.0128131
751.474	0.0128159
751.552	0.0126669
751.630	0.0127570
751.708	0.0127106
751.786	0.0128087
751.864	0.0128593
751.943	0.0129665
752.021	0.0132500
752.099	0.0132690
752.177	0.0132379
752.255	0.0132342
752.333	0.0135006
752.411	0.0134712
752.489	0.0134991
752.568	0.0134046
752.646	0.0134788
752.724	0.0134455
752.802	0.0134893
752.880	0.0135079
752.958	0.0135226
753.036	0.0131977
753.114	0.0132053
753.193	0.0132137
753.271	0.0131848
753.349	0.0132388
753.427	0.0132330
753.505	0.0132794
753.583	0.0132971
753.661	0.0132710
753.739	0.0133807
753.818	0.0134634
753.896	0.0135432
753.974	0.0134728
754.052	0.0136597
754.130	0.0135780
754.208	0.0135160
754.286	0.0138242
754.364	0.0140086
754.443	0.0138750
754.521	0.0141003
754.599	0.0140991
754.677	0.0140983
754.755	0.0141396
754.833	0.0141110
754.911	0.0142361
754.989	0.0142695
755.068	0.0143174
755.146	0.0142652
755.224	0.0143331
755.302	0.0143763
755.380	0.0145224
755.458	0.0144041
755.536	0.0146091
755.614	0.0145937
755.693	0.0147295
755.771	0.0148317
755.849	0.0148275
755.927	0.0148193
756.005	0.0150580
756.083	0.0148936
756.161	0.0150089
756.239	0.0150479
756.318	0.0149409
756.396	0.0148739
756.474	0.0146710
756.552	0.0146233
756.630	0.0146445
756.708	0.0143581
756.786	0.0143598
756.864	0.0142360
756.943	0.0140055
757.021	0.0139642
757.099	0.0139406
757.177	0.0137729
757.255	0.0136821
757.333	0.0136648
757.411	0.0136700
757.489	0.0136320
757.568	0.0134898
757.646	0.0136624
757.724	0.0135228
757.802	0.0135846
757.880	0.0134668
757.958	0.0134613
758.036	0.0134743
758.114	0.0135233
758.193	0.0134908
758.271	0.0136816
758.349	0.0135704
758.427	0.0136048
758.505	0.0136119
758.583	0.0136713
758.661	0.0136395
758.739	0.0137230
758.818	0.0136886
758.896	0.0136983
758.974	0.0136257
759.052	0.0135605
759.130	0.0135777
759.208	0.0135861
759.286	0.0135105
759.364	0.0133813
759.443	0.0134778
759.521	0.0133393
759.599	0.0132516
759.677	0.0132366
759.755	0.0132724
759.833	0.0132248
759.911	0.0132016
759.989	0.0130373
760.068	0.0132404
760.146	0.0132294
760.224	0.0133077
760.302	0.0133524
760.380	0.0133438
760.458	0.0134526
760.536	0.0135630
760.614	0.0136661
760.693	0.0138428
760.771	0.0137930
760.849	0.0138713
760.927	0.0140109
761.005	0.0142115
761.083	0.0142551
761.161	0.0142505
761.239	0.0143248
761.318	0.0143788
761.396	0.0143456
761.474	0.0144565
761.552	0.0145537
761.630	0.0145020
761.708	0.0146935
761.786	0.0147585
761.864	0.0146641
761.943	0.0147163
762.021	0.0147806
762.099	0.0146199
762.177	0.0146692
762.255	0.0148135
762.333	0.0145490
762.411	0.0144783
762.489	0.0144296
762.568	0.0143013
762.646	0.0141932
762.724	0.0141973
762.802	0.0140586
762.880	0.0140051
762.958	0.0138381
763.036	0.0138986
763.114	0.0137948
763.193	0.0138100
763.271	0.0136676
763.349	0.0136198
763.427	0.0136010
763.505	0.0136591
763.583	0.0136836
763.661	0.0136925
763.739	0.0138932
763.818	0.0137899
763.896	0.0138280
763.974	0.0139783
764.052	0.0139494
764.130	0.0138678
764.208	0.0139888
764.286	0.0140388
764.364	0.0140215
764.443	0.0140301
764.521	0.0140283
764.599	0.0139072
764.677	0.0138355
764.755	0.0139220
764.833	0.0137656
764.911	0.0139712
764.989	0.0137946
765.068	0.0138309
765.146	0.0138533
765.224	0.0138636
765.302	0.0138631
765.380	0.0137371
765.458	0.0137476
765.536	0.0137090
765.614	0.0137070
765.693	0.0135922
765.771	0.0135895
765.849	0.0134559
765.927	0.0135358
766.005	0.0133439
766.083	0.0133207
766.161	0.0134107
766.239	0.0135605
766.318	0.0134970
766.396	0.0135554
766.474	0.0132957
766.552	0.0134420
766.630	0.0137442
766.708	0.0136498
766.786	0.0136602
766.864	0.0137468
766.943	0.0137227
767.021	0.0138890
767.099	0.0139767
767.177	0.0140703
767.255	0.0142084
767.333	0.0141107
767.411	0.0141281
767.489	0.0142707
767.568	0.0142854
767.646	0.0143571
767.724	0.0144669
767.802	0.0145190
767.880	0.0145451
767.958	0.0146308
768.036	0.0145124
768.114	0.0145177
768.193	0.0146313
768.271	0.0145467
768.349	0.0143939
768.427	0.0143909
768.505	0.0143453
768.583	0.0142817
768.661	0.0142919
768.739	0.0141925
768.818	0.0141750
768.896	0.0139619
768.974	0.0139194
769.052	0.0140150
769.130	0.0137386
769.208	0.0137253
769.286	0.0137453
769.364	0.0138566
769.443	0.0137605
769.521	0.0138348
769.599	0.0139993
769.677	0.0139519
769.755	0.0140007
769.833	0.0141010
769.911	0.0139285
769.989	0.0140788
770.068	0.0139918
770.146	0.0141304
770.224	0.0140724
770.302	0.0140956
770.380	0.0140283
770.458	0.0141171
770.536	0.0138367
770.614	0.0138339
770.693	0.0138142
770.771	0.0138445
770.849	0.0138686
770.927	0.0137116
771.005	0.0137045
771.083	0.0137569
771.161	0.0137563
771.239	0.0138199
771.318	0.0137832
771.396	0.0137775
771.474	0.0138461
771.552	0.0138152
771.630	0.0138428
771.708	0.0138998
771.786	0.0139442
771.864	0.0139655
771.943	0.0140300
772.021	0.0139949
772.099	0.0138852
772.177	0.0139005
772.255	0.0138731
772.333	0.0138268
772.411	0.0138422
772.489	0.0138091
772.568	0.0139613
772.646	0.0136693
772.724	0.0138248
772.802	0.0139169
772.880	0.0139083
772.958	0.0140548
773.036	0.0140355
773.114	0.0141597
773.193	0.0141045
773.271	0.0141711
773.349	0.0142050
773.427	0.0143224
773.505	0.0143174
773.583	0.0142728
773.661	0.0143754
773.739	0.0143137
773.818	0.0143339
773.896	0.0141699
773.974	0.0140916
774.052	0.0141093
774.130	0.0139660
774.208	0.0138837
774.286	0.0138712
774.364	0.0137463
774.443	0.0136808
774.521	0.0136826
774.599	0.0137307
774.677	0.0135638
774.755	0.0135288
774.833	0.0136571
774.911	0.0136844
774.989	0.0135268
775.068	0.0137946
775.146	0.0139330
775.224	0.0139740
775.302	0.0140736
775.380	0.0142178
775.458	0.0142870
775.536	0.0142153
775.614	0.0143423
775.693	0.0144415
775.771	0.0143975
775.849	0.0143517
775.927	0.0142245
776.005	0.0143497
776.083	0.0143314
776.161	0.0141817
776.239	0.0142437
776.318	0.0140488
776.396	0.0142264
776.474	0.0140270
776.552	0.0138358
776.630	0.0139445
776.708	0.0138283
776.786	0.0137778
776.864	0.0138002
776.943	0.0136009
777.021	0.0137571
777.099	0.0138020
777.177	0.0138703
777.255	0.0137825
777.333	0.0136895
777.411	0.0138284
777.489	0.0137610
777.568	0.0137368
777.646	0.0136840
777.724	0.0139214
777.802	0.0138584
777.880	0.0138477
777.958	0.0137841
778.036	0.0139508
778.114	0.0138226
778.193	0.0138438
778.271	0.0138618
778.349	0.0138418
778.427	0.0138438
778.505	0.0138320
778.583	0.0140714
778.661	0.0137973
778.739	0.0138744
778.818	0.0139977
778.896	0.0139606
778.974	0.0139640
779.052	0.0139822
779.130	0.0138977
779.208	0.0140778
779.286	0.0140952
779.364	0.0141744
779.443	0.0140491
779.521	0.0140675
779.599	0.0142625
779.677	0.0142501
779.755	0.0139688
779.833	0.0139607
779.911	0.0141219
779.989	0.0140113
780.068	0.0139543
780.146	0.0138159
780.224	0.0138995
780.302	0.0140589
780.380	0.0139022
780.458	0.0139079
780.536	0.0138811
780.614	0.0138970
780.693	0.0138380
780.771	0.0137221
780.849	0.0137441
780.927	0.0137567
781.005	0.0138805
781.083	0.0140051
781.161	0.0140842
781.239	0.0140564
781.318	0.0140507
781.396	0.0140145
781.474	0.0141702
781.552	0.0141413
781.630	0.0141566
781.708	0.0142954
781.786	0.0143798
781.864	0.0143191
781.943	0.0143671
782.021	0.0144267
782.099	0.0143108
782.177	0.0143801
782.255	0.0143205
782.333	0.0144258
782.411	0.0142159
782.489	0.0141708
782.568	0.0142098
782.646	0.0141349
782.724	0.0140373
782.802	0.0141712
782.880	0.0140200
782.958	0.0139115
783.036	0.0138527
783.114	0.0137469
783.193	0.0137234
783.271	0.0137098
783.349	0.0137341
783.427	0.0134800
783.505	0.0135728
783.583	0.0135990
783.661	0.0135679
783.739	0.0136480
783.818	0.0135054
783.896	0.0134481
783.974	0.0135848
784.052	0.0135767
784.130	0.0137630
784.208	0.0137100
784.286	0.0137354
784.364	0.0138631
784.443	0.0138016
784.521	0.0139342
784.599	0.0140528
784.677	0.0140118
784.755	0.0140018
784.833	0.0140839
784.911	0.0141300
784.989	0.0142065
785.068	0.0142825
785.146	0.0141338
785.224	0.0141772
785.302	0.0141773
785.380	0.0143172
785.458	0.0140883
785.536	0.0141040
785.614	0.0140841
785.693	0.0141487
785.771	0.0139037
785.849	0.0140616
785.927	0.0139288
786.005	0.0138988
786.083	0.0139661
786.161	0.0138723
786.239	0.0138317
786.318	0.0137496
786.396	0.0138145
786.474	0.0138353
786.552	0.0138622
786.630	0.0139787
786.708	0.0137363
786.786	0.0137617
786.864	0.0137843
786.943	0.0138128
787.021	0.0136580
787.099	0.0137189
787.177	0.0137738
787.255	0.0136185
787.333	0.0137643
787.411	0.0136998
787.489	0.0137695
787.568	0.0136806
787.646	0.0137424
787.724	0.0137911
787.802	0.0136357
787.880	0.0135391
787.958	0.0135809
788.036	0.0136361
788.114	0.0136708
788.193	0.0135760
788.271	0.0135507
788.349	0.0135905
788.427	0.0137534
788.505	0.0139134
788.583	0.0140401
788.661	0.0139896
788.739	0.0139511
788.818	0.0142739
788.896	0.0143555
788.974	0.0143684
789.052	0.0143610
789.130	0.0144980
789.208	0.0146684
789.286	0.0146751
789.364	0.0147852
789.443	0.0145728
789.521	0.0146009
789.599	0.0146331
789.677	0.0145223
789.755	0.0144759
789.833	0.0143070
789.911	0.0143027
789.989	0.0142874
790.068	0.0142055
790.146	0.0139499
790.224	0.0137356
790.302	0.0138280
790.380	0.0136255
790.458	0.0134904
790.536	0.0132933
790.614	0.0133630
790.693	0.0131727
790.771	0.0131863
790.849	0.0130590
790.927	0.0130547
791.005	0.0131293
791.083	0.0131236
791.161	0.0131784
791.239	0.0131003
791.318	0.0133096
791.396	0.0133829
791.474	0.0133998
791.552	0.0133543
791.630	0.0134743
791.708	0.0136188
791.786	0.0138145
791.864	0.0137846
791.943	0.0139310
792.021	0.0139722
792.099	0.0141171
792.177	0.0142401
792.255	0.0141455
792.333	0.0143395
792.411	0.0144900
792.489	0.0143758
792.568	0.0146088
792.646	0.0145500
792.724	0.0146383
792.802	0.0147571
792.880	0.0147063
792.958	0.0146579
793.036	0.0146249
793.114	0.0145870
793.193	0.0145782
793.271	0.0146281
793.349	0.0144791
793.427	0.0143378
793.505	0.0141461
793.583	0.0140775
793.661	0.0140424
793.739	0.0139367
793.818	0.0139043
793.896	0.0137064
793.974	0.0137830
794.052	0.0135710
794.130	0.0134709
794.208	0.0134395
794.286	0.0134153
794.364	0.0134830
794.443	0.0134682
794.521	0.0133037
794.599	0.0133715
794.677	0.0134071
794.755	0.0134209
794.833	0.0135598
794.911	0.0135831
794.989	0.0137823
795.068	0.0138515
795.146	0.0138239
795.224	0.0139433
795.302	0.0139245
795.380	0.0140123
795.458	0.0139719
795.536	0.0141773
795.614	0.0140572
795.693	0.0142500
795.771	0.0141394
795.849	0.0142107
795.927	0.0142403
796.005	0.0141776
796.083	0.0140984
796.161	0.0140962
796.239	0.0141804
796.318	0.0140327
796.396	0.0140922
796.474	0.0140705
796.552	0.0139481
796.630	0.0140695
796.708	0.0140264
796.786	0.0138660
796.864	0.0139120
796.943	0.0139847
797.021	0.0138571
797.099	0.0140556
797.177	0.0139218
797.255	0.0138902
797.333	0.0139167
797.411	0.0139272
797.489	0.0139468
797.568	0.0139117
797.646	0.0138307
797.724	0.0139167
797.802	0.0139458
797.880	0.0138921
797.958	0.0139167
798.036	0.0139092
798.114	0.0140960
798.193	0.0140623
798.271	0.0139404
798.349	0.0140524
798.427	0.0140339
798.505	0.0138807
798.583	0.0139582
798.661	0.0139585
798.739	0.0139304
798.818	0.0139829
798.896	0.0139798
798.974	0.0138884
799.052	0.0139107
799.130	0.0139860
799.208	0.0139295
799.286	0.0138284
799.364	0.0138168
799.443	0.0139620
799.521	0.0138145
799.599	0.0137208
799.677	0.0136804
799.755	0.0136858
799.833	0.0136819
799.911	0.0138578
799.989	0.0138444
800.068	0.0138364
800.146	0.0137103
800.224	0.0138325
800.302	0.0138408
800.380	0.0138044
800.458	0.0137617
800.536	0.0139546
800.614	0.0138812
800.693	0.0138332
800.771	0.0139989
800.849	0.0140916
800.927	0.0140006
801.005	0.0139112
801.083	0.0141383
801.161	0.0141492
801.239	0.0141444
801.318	0.0140840
801.396	0.0141994
801.474	0.0143452
801.552	0.0143519
801.630	0.0143701
801.708	0.0142937
801.786	0.0144425
801.864	0.0144295
801.943	0.0146224
802.021	0.0146349
802.099	0.0144653
802.177	0.0145183
802.255	0.0146223
802.333	0.0144911
802.411	0.0144601
802.489	0.0144611
802.568	0.0144223
802.646	0.0143501
802.724	0.0142826
802.802	0.0142284
802.880	0.0142218
802.958	0.0139198
803.036	0.0138254
803.114	0.0137574
803.193	0.0136130
803.271	0.0134761
803.349	0.0135027
803.427	0.0131530
803.505	0.0131037
803.583	0.0130559
803.661	0.0128268
803.739	0.0128530
803.818	0.0128759
803.896	0.0128689
803.974	0.0127276
804.052	0.0128673
804.130	0.0127744
804.208	0.0129002
804.286	0.0130230
804.364	0.0130743
804.443	0.0131904
804.521	0.0133340
804.599	0.0133283
804.677	0.0135475
804.755	0.0135671
804.833	0.0136789
804.911	0.0137986
804.989	0.0140169
805.068	0.0141715
805.146	0.0141776
805.224	0.0142200
805.302	0.0144090
805.380	0.0145198
805.458	0.0144167
805.536	0.0145721
805.614	0.0144821
805.693	0.0147334
805.771	0.0147507
805.849	0.0146410
805.927	0.0146018
806.005	0.0147923
806.083	0.0146951
806.161	0.0146487
806.239	0.0145975
806.318	0.0145316
806.396	0.0145921
806.474	0.0145049
806.552	0.0145449
806.630	0.0145369
806.708	0.0143527
806.786	0.0142794
806.864	0.0143688
806.943	0.0143468
807.021	0.0142164
807.099	0.0142027
807.177	0.0143379
807.255	0.0141699
807.333	0.0141278
807.411	0.0142361
807.489	0.0142348
807.568	0.0141284
807.646	0.0140929
807.724	0.0139577
807.802	0.0141209
807.880	0.0140421
807.958	0.0139970
808.036	0.0138761
808.114	0.0136133
808.193	0.0135896
808.271	0.0137668
808.349	0.0135339
808.427	0.0135577
808.505	0.0133682
808.583	0.0133732
808.661	0.0133028
808.739	0.0132465
808.818	0.0132670
808.896	0.0131944
808.974	0.0131455
809.052	0.0131291
809.130	0.0130724
809.208	0.0130943
809.286	0.0130917
809.364	0.0132253
809.443	0.0132161
809.521	0.0133142
809.599	0.0133971
809.677	0.0134564
809.755	0.0134876
809.833	0.0136414
809.911	0.0136195
809.989	0.0137910
810.068	0.0139294
810.146	0.0140016
810.224	0.0140650
810.302	0.0141513
810.380	0.0141850
810.458	0.0143348
810.536	0.0144282
810.614	0.0142097
810.693	0.0141228
810.771	0.0142459
810.849	0.0141869
810.927	0.0141494
811.005	0.0141084
811.083	0.0139503
811.161	0.0140388
811.239	0.0139712
811.318	0.0139268
811.396	0.0139071
811.474	0.0139119
811.552	0.0140490
811.630	0.0141619
811.708	0.0142015
811.786	0.0141887
811.864	0.0141849
811.943	0.0142516
812.021	0.0143668
812.099	0.0142893
812.177	0.0142477
812.255	0.0144724
812.333	0.0145709
812.411	0.0146446
812.489	0.0146426
812.568	0.0146871
812.646	0.0147596
812.724	0.0146874
812.802	0.0147380
812.880	0.0147515
812.958	0.0147665
813.036	0.0146257
813.114	0.0144982
813.193	0.0145364
813.271	0.0143428
813.349	0.0143315
813.427	0.0143540
813.505	0.0140452
813.583	0.0140187
813.661	0.0139862
813.739	0.0136699
813.818	0.0135838
813.896	0.0135441
813.974	0.0134550
814.052	0.0133530
814.130	0.0131841
814.208	0.0130743
814.286	0.0130319
814.364	0.0129882
814.443	0.0128699
814.521	0.0128476
814.599	0.0129618
814.677	0.0129299
814.755	0.0128337
814.833	0.0129131
814.911	0.0130531
814.989	0.0130340
815.068	0.0131692
815.146	0.0131683
815.224	0.0133603
815.302	0.0135751
815.380	0.0134928
815.458	0.0135268
815.536	0.0136108
815.614	0.0136786
815.693	0.0138518
815.771	0.0140141
815.849	0.0140701
815.927	0.0141261
816.005	0.0141679
816.083	0.0143037
816.161	0.0140671
816.239	0.0141196
816.318	0.0141306
816.396	0.0143490
816.474	0.0142712
816.552	0.0141988
816.630	0.0144633
816.708	0.0143348
816.786	0.0143942
816.864	0.0142308
816.943	0.0143534
817.021	0.0143231
817.099	0.0142108
817.177	0.0143780
817.255	0.0143800
817.333	0.0143785
817.411	0.0143474
817.489	0.0144218
817.568	0.0144868
817.646	0.0146006
817.724	0.0144494
817.802	0.0146450
817.880	0.0146770
817.958	0.0146027
818.036	0.0146304
818.114	0.0146226
818.193	0.0147144
818.271	0.0147501
818.349	0.0145948
818.427	0.0145718
818.505	0.0145698
818.583	0.0144026
818.661	0.0143324
818.739	0.0143965
818.818	0.0142731
818.896	0.0142001
818.974	0.0142155
819.052	0.0140280
819.130	0.0138158
819.208	0.0137476
819.286	0.0136181
819.364	0.0134454
819.443	0.0134187
819.521	0.0134547
819.599	0.0132352
819.677	0.0131494
819.755	0.0130885
819.833	0.0130459
819.911	0.0130085
819.989	0.0128983
820.068	0.0127060
820.146	0.0127812
820.224	0.0128458
820.302	0.0129534
820.380	0.0129172
820.458	0.0130706
820.536	0.0131106
820.614	0.0131557
820.693	0.0130145
820.771	0.0131757
820.849	0.0133553
820.927	0.0135978
821.005	0.0137310
821.083	0.0138597
821.161	0.0138556
821.239	0.0140722
821.318	0.0141320
821.396	0.0142676
821.474	0.0142916
821.552	0.0142849
821.630	0.0143009
821.708	0.0143876
821.786	0.0144453
821.864	0.0144113
821.943	0.0144846
822.021	0.0144054
822.099	0.0143520
822.177	0.0143700
822.255	0.0143134
822.333	0.0144102
822.411	0.0142844
822.489	0.0142846
822.568	0.0144091
822.646	0.0143150
822.724	0.0143968
822.802	0.0143787
822.880	0.0143526
822.958	0.0144338
823.036	0.0145327
823.114	0.0145166
823.193	0.0145013
823.271	0.0145791
823.349	0.0144522
823.427	0.0146211
823.505	0.0146543
823.583	0.0147498
823.661	0.0147007
823.739	0.0148147
823.818	0.0146568
823.896	0.0147948
823.974	0.0147237
824.052	0.0145786
824.130	0.0144717
824.208	0.0143370
824.286	0.0142658
824.364	0.0141314
824.443	0.0141211
824.521	0.0139967
824.599	0.0138184
824.677	0.0137522
824.755	0.0135281
824.833	0.0135160
824.911	0.0134509
824.989	0.0135033
825.068	0.0134343
825.146	0.0134128
825.224	0.0131010
825.302	0.0131737
825.380	0.0130632
825.458	0.0130879
825.536	0.0130026
825.614	0.0129997
825.693	0.0130698
825.771	0.0131355
825.849	0.0131154
825.927	0.0131501
826.005	0.0130175
826.083	0.0131663
826.161	0.0131995
826.239	0.0132812
826.318	0.0134518
826.396	0.0134296
826.474	0.0135386
826.552	0.0136835
826.630	0.0137863
826.708	0.0140174
826.786	0.0140135
826.864	0.0140536
826.943	0.0141192
827.021	0.0141916
827.099	0.0142651
827.177	0.0142539
827.255	0.0143488
827.333	0.0144219
827.411	0.0144993
827.489	0.0144449
827.568	0.0144244
827.646	0.0146013
827.724	0.0144701
827.802	0.0144262
827.880	0.0144415
827.958	0.0144221
828.036	0.0143776
828.114	0.0143835
828.193	0.0143560
828.271	0.0142599
828.349	0.0144077
828.427	0.0143074
828.505	0.0142106
828.583	0.0141837
828.661	0.0143847
828.739	0.0143822
828.818	0.0143466
828.896	0.0143983
828.974	0.0143482
829.052	0.0144218
829.130	0.0144000
829.208	0.0145087
829.286	0.0144313
829.364	0.0141982
829.443	0.0143463
829.521	0.0143982
829.599	0.0142358
829.677	0.0140920
829.755	0.0142001
829.833	0.0140747
829.911	0.0139017
829.989	0.0138755
830.068	0.0139138
830.146	0.0137748
830.224	0.0136187
830.302	0.0136012
830.380	0.0136354
830.458	0.0136177
830.536	0.0134588
830.614	0.0133288
830.693	0.0131992
830.771	0.0131511
830.849	0.0131528
830.927	0.0131390
831.005	0.0131158
831.083	0.0132004
831.161	0.0131438
831.239	0.0132309
831.318	0.0132067
831.396	0.0132661
831.474	0.0133246
831.552	0.0133911
831.630	0.0133798
831.708	0.0135751
831.786	0.0135567
831.864	0.0136942
831.943	0.0136507
832.021	0.0136771
832.099	0.0138337
832.177	0.0138441
832.255	0.0137928
832.333	0.0140286
832.411	0.0141073
832.489	0.0139835
832.568	0.0139361
832.646	0.0141001
832.724	0.0141967
832.802	0.0142419
832.880	0.0141678
832.958	0.0142676
833.036	0.0142416
833.114	0.0142574
833.193	0.0141522
833.271	0.0141069
833.349	0.0140793
833.427	0.0141966
833.505	0.0142746
833.583	0.0141565
833.661	0.0141891
833.739	0.0141582
833.818	0.0142496
833.896	0.0142652
833.974	0.0142631
834.052	0.0142673
834.130	0.0142101
834.208	0.0143013
834.286	0.0142648
834.364	0.0141089
834.443	0.0142420
834.521	0.0141981
834.599	0.0142397
834.677	0.0140510
834.755	0.0141479
834.833	0.0141394
834.911	0.0140733
834.989	0.0138635
835.068	0.0138622
835.146	0.0138876
835.224	0.0137264
835.302	0.0137713
835.380	0.0138833
835.458	0.0138161
835.536	0.0137553
835.614	0.0138297
835.693	0.0138464
835.771	0.0136266
835.849	0.0137965
835.927	0.0138951
836.005	0.0137586
836.083	0.0137550
836.161	0.0137185
836.239	0.0138197
836.318	0.0137505
836.396	0.0137026
836.474	0.0138375
836.552	0.0137473
836.630	0.0138043
836.708	0.0136632
836.786	0.0138245
836.864	0.0138055
836.943	0.0137044
837.021	0.0138346
837.099	0.0137675
837.177	0.0138934
837.255	0.0136909
837.333	0.0136996
837.411	0.0138876
837.489	0.0137978
837.568	0.0137254
837.646	0.0137714
837.724	0.0138867
837.802	0.0138314
837.880	0.0138593
837.958	0.0141307
838.036	0.0140434
838.114	0.0140304
838.193	0.0141946
838.271	0.0141315
838.349	0.0141962
838.427	0.0142012
838.505	0.0141647
838.583	0.0142400
838.661	0.0142889
838.739	0.0141736
838.818	0.0140834
838.896	0.0142009
838.974	0.0141720
839.052	0.0140907
839.130	0.0140730
839.208	0.0140671
839.286	0.0140042
839.364	0.0140423
839.443	0.0140060
839.521	0.0139316
839.599	0.0138787
839.677	0.0138850
839.755	0.0138734
839.833	0.0137553
839.911	0.0138760
839.989	0.0138979
840.068	0.0137980
840.146	0.0138258
840.224	0.0137447
840.302	0.0138545
840.380	0.0138966
840.458	0.0140161
840.536	0.0140914
840.614	0.0140700
840.693	0.0141407
840.771	0.0141911
840.849	0.0141992
840.927	0.0141291
841.005	0.0142454
841.083	0.0144269
841.161	0.0142937
841.239	0.0141927
841.318	0.0143066
841.396	0.0143482
841.474	0.0143941
841.552	0.0142653
841.630	0.0143844
841.708	0.0144048
841.786	0.0144279
841.864	0.0143018
841.943	0.0141837
842.021	0.0142188
842.099	0.0141963
842.177	0.0139969
842.255	0.0140388
842.333	0.0141367
842.411	0.0139360
842.489	0.0138644
842.568	0.0137393
842.646	0.0136102
842.724	0.0135954
842.802	0.0137046
842.880	0.0135284
842.958	0.0136150
843.036	0.0135418
843.114	0.0135981
843.193	0.0135484
843.271	0.0134484
843.349	0.0133911
843.427	0.0134637
843.505	0.0133883
843.583	0.0133997
843.661	0.0134933
843.739	0.0136227
843.818	0.0134682
843.896	0.0136525
843.974	0.0136319
844.052	0.0136190
844.130	0.0137659
844.208	0.0137924
844.286	0.0139255
844.364	0.0138680
844.443	0.0138939
844.521	0.0140237
844.599	0.0140024
844.677	0.0140762
844.755	0.0142826
844.833	0.0141478
844.911	0.0140464
844.989	0.0143901
845.068	0.0144162
845.146	0.0143899
845.224	0.0144133
845.302	0.0144512
845.380	0.0144693
845.458	0.0145349
845.536	0.0145414
845.614	0.0144830
845.693	0.0143724
845.771	0.0145158
845.849	0.0144985
845.927	0.0144628
846.005	0.0144398
846.083	0.0144118
846.161	0.0142941
846.239	0.0142088
846.318	0.0142255
846.396	0.0142261
846.474	0.0140771
846.552	0.0140474
846.630	0.0141162
846.708	0.0140134
846.786	0.0140315
846.864	0.0138989
846.943	0.0138722
847.021	0.0137904
847.099	0.0136988
847.177	0.0139046
847.255	0.0137151
847.333	0.0136749
847.411	0.0135953
847.489	0.0136282
847.568	0.0135940
847.646	0.0136218
847.724	0.0136256
847.802	0.0137051
847.880	0.0135378
847.958	0.0135840
848.036	0.0135658
848.114	0.0136458
848.193	0.0135623
848.271	0.0135769
848.349	0.0138225
848.427	0.0137944
848.505	0.0136690
848.583	0.0137193
848.661	0.0139277
848.739	0.0139739
848.818	0.0137829
848.896	0.0140462
848.974	0.0143295
849.052	0.0141261
849.130	0.0141306
849.208	0.0142992
849.286	0.0142992
849.364	0.0144055
849.443	0.0143678
849.521	0.0142326
849.599	0.0143998
849.677	0.0143869
849.755	0.0143710
849.833	0.0142149
849.911	0.0142414
849.989	0.0143161
850.068	0.0141699
850.146	0.0141245
850.224	0.0140308
850.302	0.0139690
850.380	0.0140327
850.458	0.0138512
850.536	0.0136682
850.614	0.0139035
850.693	0.0138029
850.771	0.0137826
850.849	0.0138136
850.927	0.0137959
851.005	0.0136669
851.083	0.0138473
851.161	0.0138715
851.239	0.0138445
851.318	0.0138470
851.396	0.0140151
851.474	0.0139136
851.552	0.0137376
851.630	0.0139174
851.708	0.0140396
851.786	0.0137629
851.864	0.0138293
851.943	0.0138756
852.021	0.0137633
852.099	0.0139516
852.177	0.0137884
852.255	0.0137811
852.333	0.0139109
852.411	0.0138474
852.489	0.0138667
852.568	0.0139822
852.646	0.0139807
852.724	0.0138663
852.802	0.0140387
852.880	0.0139084
852.958	0.0140058
853.036	0.0140022
853.114	0.0141437
853.193	0.0141341
853.271	0.0140489
853.349	0.0139691
853.427	0.0141174
853.505	0.0142924
853.583	0.0141171
853.661	0.0140958
853.739	0.0141956
853.818	0.0141416
853.896	0.0141703
853.974	0.0140994
854.052	0.0140961
854.130	0.0139696
854.208	0.0140151
854.286	0.0142093
854.364	0.0140591
854.443	0.0140228
854.521	0.0141093
854.599	0.0140557
854.677	0.0140754
854.755	0.0140478
854.833	0.0139871
854.911	0.0141389
854.989	0.0140561
855.068	0.0142052
855.146	0.0139281
855.224	0.0139597
855.302	0.0138528
855.380	0.0139047
855.458	0.0140131
855.536	0.0139648
855.614	0.0138505
855.693	0.0137816
855.771	0.0137833
855.849	0.0136827
855.927	0.0136605
856.005	0.0136844
856.083	0.0136592
856.161	0.0137495
856.239	0.0135989
856.318	0.0137777
856.396	0.0136957
856.474	0.0135706
856.552	0.0137297
856.630	0.0137068
856.708	0.0137460
856.786	0.0137259
856.864	0.0139237
856.943	0.0138332
857.021	0.0138882
857.099	0.0138821
857.177	0.0139104
857.255	0.0138999
857.333	0.0139822
857.411	0.0139407
857.489	0.0138715
857.568	0.0139634
857.646	0.0138988
857.724	0.0138918
857.802	0.0137729
857.880	0.0139264
857.958	0.0138870
858.036	0.0137404
858.114	0.0139439
858.193	0.0139941
858.271	0.0138116
858.349	0.0140080
858.427	0.0138971
858.505	0.0139519
858.583	0.0138947
858.661	0.0140090
858.739	0.0139608
858.818	0.0140429
858.896	0.0140285
858.974	0.0139870
859.052	0.0140434
859.130	0.0140758
859.208	0.0140092
859.286	0.0141576
859.364	0.0141181
859.443	0.0141554
859.521	0.0141995
859.599	0.0141685
859.677	0.0141871
859.755	0.0142928
859.833	0.0141706
859.911	0.0141982
859.989	0.0142867
860.068	0.0142282
860.146	0.0141856
860.224	0.0141290
860.302	0.0141177
860.380	0.0141518
860.458	0.0142665
860.536	0.0140104
860.614	0.0140250
860.693	0.0140814
860.771	0.0140308
860.849	0.0139481
860.927	0.0139180
861.005	0.0137987
861.083	0.0139010
861.161	0.0138049
861.239	0.0137276
861.318	0.0137248
861.396	0.0135992
861.474	0.0136025
861.552	0.0136259
861.630	0.0136138
861.708	0.0135112
861.786	0.0135300
861.864	0.0134340
861.943	0.0134651
862.021	0.0135318
862.099	0.0135499
862.177	0.0136508
862.255	0.0136726
862.333	0.0135265
862.411	0.0137756
862.489	0.0138659
862.568	0.0136646
862.646	0.0137531
862.724	0.0136877
862.802	0.0137888
862.880	0.0138715
862.958	0.0138528
863.036	0.0139475
863.114	0.0139911
863.193	0.0139799
863.271	0.0138848
863.349	0.0139301
863.427	0.0140093
863.505	0.0141556
863.583	0.0141397
863.661	0.0140835
863.739	0.0142055
863.818	0.0142762
863.896	0.0141201
863.974	0.0141562
864.052	0.0142061
864.130	0.0141538
864.208	0.0142584
864.286	0.0143269
864.364	0.0142891
864.443	0.0142888
864.521	0.0143539
864.599	0.0143826
864.677	0.0143053
864.755	0.0142605
864.833	0.0143274
864.911	0.0143897
864.989	0.0143383
865.068	0.0141634
865.146	0.0143483
865.224	0.0142919
865.302	0.0140640
865.380	0.0141689
865.458	0.0141520
865.536	0.0140372
865.614	0.0141320
865.693	0.0140225
865.771	0.0141177
865.849	0.0141862
865.927	0.0140733
866.005	0.0138646
866.083	0.0139336
866.161	0.0139472
866.239	0.0138733
866.318	0.0137930
866.396	0.0137404
866.474	0.0138822
866.552	0.0137431
866.630	0.0136877
866.708	0.0138171
866.786	0.0136520
866.864	0.0135921
866.943	0.0137078
867.021	0.0137579
867.099	0.0135129
867.177	0.0136259
867.255	0.0136613
867.333	0.0136211
867.411	0.0135790
867.489	0.0137520
867.568	0.0137021
867.646	0.0137727
867.724	0.0138692
867.802	0.0137950
867.880	0.0138447
867.958	0.0138253
868.036	0.0140658
868.114	0.0140755
868.193	0.0140445
868.271	0.0140700
868.349	0.0139201
868.427	0.0141242
868.505	0.0139249
868.583	0.0140024
868.661	0.0140879
868.739	0.0140276
868.818	0.0141080
868.896	0.0140798
868.974	0.0140634
869.052	0.0139264
869.130	0.0140232
869.208	0.0139582
869.286	0.0139886
869.364	0.0140190
869.443	0.0139482
869.521	0.0141038
869.599	0.0140105
869.677	0.0140140
869.755	0.0139765
869.833	0.0140173
869.911	0.0138837
869.989	0.0137830
870.068	0.0139742
870.146	0.0141396
870.224	0.0139825
870.302	0.0138457
870.380	0.0139409
870.458	0.0140328
870.536	0.0141283
870.614	0.0141326
870.693	0.0140407
870.771	0.0141084
870.849	0.0141119
870.927	0.0140922
871.005	0.0141341
871.083	0.0142358
871.161	0.0142696
871.239	0.0142184
871.318	0.0141702
871.396	0.0142670
871.474	0.0140968
871.552	0.0140803
871.630	0.0141635
871.708	0.0141706
871.786	0.0141453
871.864	0.0140224
871.943	0.0141674
872.021	0.0140331
872.099	0.0139041
872.177	0.0140726
872.255	0.0139610
872.333	0.0139595
872.411	0.0138836
872.489	0.0139867
872.568	0.0138206
872.646	0.0138218
872.724	0.0139295
872.802	0.0136772
872.880	0.0138285
872.958	0.0137778
873.036	0.0136652
873.114	0.0137668
873.193	0.0138637
873.271	0.0137427
873.349	0.0136958
873.427	0.0137260
873.505	0.0137173
873.583	0.0137051
873.661	0.0137391
873.739	0.0138199
873.818	0.0137336
873.896	0.0137695
873.974	0.0138077
874.052	0.0137783
874.130	0.0139481
874.208	0.0138524
874.286	0.0136834
874.364	0.0137938
874.443	0.0138329
874.521	0.0137676
874.599	0.0138325
874.677	0.0139669
874.755	0.0138824
874.833	0.0140168
874.911	0.0139172
874.989	0.0140569
875.068	0.0138875
875.146	0.0140392
875.224	0.0141538
875.302	0.0140396
875.380	0.0140086
875.458	0.0141360
875.536	0.0140788
875.614	0.0139888
875.693	0.0140022
875.771	0.0141538
875.849	0.0142455
875.927	0.0140517
876.005	0.0140813
876.083	0.0141267
876.161	0.0141495
876.239	0.0142847
876.318	0.0141917
876.396	0.0142016
876.474	0.0141588
876.552	0.0142034
876.630	0.0140652
876.708	0.0140208
876.786	0.0140053
876.864	0.0139620
876.943	0.0140822
877.021	0.0139132
877.099	0.0141068
877.177	0.0140269
877.255	0.0139426
877.333	0.0140499
877.411	0.0139629
877.489	0.0138960
877.568	0.0141404
877.646	0.0141022
877.724	0.0140406
877.802	0.0140521
877.880	0.0141494
877.958	0.0140788
878.036	0.0139998
878.114	0.0140248
878.193	0.0139853
878.271	0.0139735
878.349	0.0139117
878.427	0.0140067
878.505	0.0137656
878.583	0.0137147
878.661	0.0138527
878.739	0.0137638
878.818	0.0135957
878.896	0.0136467
878.974	0.0137202
879.052	0.0136366
879.130	0.0135516
879.208	0.0136529
879.286	0.0135287
879.364	0.0135318
879.443	0.0136458
879.521	0.0136736
879.599	0.0135141
879.677	0.0136374
879.755	0.0138364
879.833	0.0136293
879.911	0.0136832
879.989	0.0139092
880.068	0.0140882
880.146	0.0141720
880.224	0.0139279
880.302	0.0140070
880.380	0.0139119
880.458	0.0141901
880.536	0.0141737
880.614	0.0141525
880.693	0.0141831
880.771	0.0140379
880.849	0.0142707
880.927	0.0142747
881.005	0.0141196
881.083	0.0141505
881.161	0.0141171
881.239	0.0142684
881.318	0.0141904
881.396	0.0141909
881.474	0.0141299
881.552	0.0140564
881.630	0.0141288
881.708	0.0142017
881.786	0.0139939
881.864	0.0139751
881.943	0.0140520
882.021	0.0140745
882.099	0.0141956
882.177	0.0140798
882.255	0.0139277
882.333	0.0140765
882.411	0.0141078
882.489	0.0140361
882.568	0.0140900
882.646	0.0140508
882.724	0.0139086
882.802	0.0139937
882.880	0.0139671
882.958	0.0139413
883.036	0.0141089
883.114	0.0141016
883.193	0.0139589
883.271	0.0141734
883.349	0.0141838
883.427	0.0140421
883.505	0.0142640
883.583	0.0140839
883.661	0.0140246
883.739	0.0141030
883.818	0.0140701
883.896	0.0140648
883.974	0.0140163
884.052	0.0139972
884.130	0.0141143
884.208	0.0138927
884.286	0.0138915
884.364	0.0140067
884.443	0.0137912
884.521	0.0137679
884.599	0.0136823
884.677	0.0135721
884.755	0.0135361
884.833	0.0134775
884.911	0.0134366
884.989	0.0133602
885.068	0.0134121
885.146	0.0134038
885.224	0.0133762
885.302	0.0133856
885.380	0.0134322
885.458	0.0135056
885.536	0.0134478
885.614	0.0136441
885.693	0.0136830
885.771	0.0136111
885.849	0.0137078
885.927	0.0138852
886.005	0.0139799
886.083	0.0140350
886.161	0.0139473
886.239	0.0140965
886.318	0.0140952
886.396	0.0143230
886.474	0.0142347
886.552	0.0143174
886.630	0.0144689
886.708	0.0144550
886.786	0.0143106
886.864	0.0144968
886.943	0.0144794
887.021	0.0143472
887.099	0.0144453
887.177	0.0144769
887.255	0.0143513
887.333	0.0143597
887.411	0.0143228
887.489	0.0143423
887.568	0.0143378
887.646	0.0144065
887.724	0.0141457
887.802	0.0141197
887.880	0.0141864
887.958	0.0140320
888.036	0.0141799
888.114	0.0142741
888.193	0.0139375
888.271	0.0138154
888.349	0.0137698
888.427	0.0136983
888.505	0.0137971
888.583	0.0139004
888.661	0.0136932
888.739	0.0136513
888.818	0.0136044
888.896	0.0136376
888.974	0.0137590
889.052	0.0135401
889.130	0.0136398
889.208	0.0135249
889.286	0.0137032
889.364	0.0136192
889.443	0.0135698
889.521	0.0137041
889.599	0.0138448
889.677	0.0137491
889.755	0.0136742
889.833	0.0138056
889.911	0.0139186
889.989	0.0139974
890.068	0.0139869
890.146	0.0139317
890.224	0.0140466
890.302	0.0139629
890.380	0.0139719
890.458	0.0140584
890.536	0.0140215
890.614	0.0140221
890.693	0.0138622
890.771	0.0139578
890.849	0.0140500
890.927	0.0138622
891.005	0.0139674
891.083	0.0140221
891.161	0.0139029
891.239	0.0138546
891.318	0.0138661
891.396	0.0139675
891.474	0.0138383
891.552	0.0138799
891.630	0.0138412
891.708	0.0139299
891.786	0.0137776
891.864	0.0139962
891.943	0.0138632
892.021	0.0140529
892.099	0.0141671
892.177	0.0141057
892.255	0.0139760
892.333	0.0141306
892.411	0.0141570
892.489	0.0141910
892.568	0.0141226
892.646	0.0141107
892.724	0.0139779
892.802	0.0141483
892.880	0.0140211
892.958	0.0139182
893.036	0.0140078
893.114	0.0138918
893.193	0.0138863
893.271	0.0137444
893.349	0.0138409
893.427	0.0136868
893.505	0.0137396
893.583	0.0137049
893.661	0.0137501
893.739	0.0138068
893.818	0.0138348
893.896	0.0138210
893.974	0.0138967
894.052	0.0140527
894.130	0.0140025
894.208	0.0141803
894.286	0.0140919
894.364	0.0142272
894.443	0.0141862
894.521	0.0141609
894.599	0.0141663
894.677	0.0141165
894.755	0.0142152
894.833	0.0141955
894.911	0.0141732
894.989	0.0141440
895.068	0.0140202
895.146	0.0138884
895.224	0.0139342
895.302	0.0139436
895.380	0.0137447
895.458	0.0137666
895.536	0.0137098
895.614	0.0135472
895.693	0.0136477
895.771	0.0136198
895.849	0.0136214
895.927	0.0136516
896.005	0.0135645
896.083	0.0137370
896.161	0.0137006
896.239	0.0136059
896.318	0.0138734
896.396	0.0138947
896.474	0.0139839
896.552	0.0139402
896.630	0.0141283
896.708	0.0141434
896.786	0.0142717
896.864	0.0144454
896.943	0.0143786
897.021	0.0143365
897.099	0.0144603
897.177	0.0143114
897.255	0.0143028
897.333	0.0142807
897.411	0.0142440
897.489	0.0142312
897.568	0.0140962
897.646	0.0140102
897.724	0.0140162
897.802	0.0141222
897.880	0.0138088
897.958	0.0136581
898.036	0.0138084
898.114	0.0135463
898.193	0.0136263
898.271	0.0136087
898.349	0.0135256
898.427	0.0134882
898.505	0.0133003
898.583	0.0133095
898.661	0.0134198
898.739	0.0133434
898.818	0.0133423
898.896	0.0134976
898.974	0.0135539
899.052	0.0135035
899.130	0.0135078
899.208	0.0138419
899.286	0.0138075
899.364	0.0138655
899.443	0.0139185
899.521	0.0141273
899.599	0.0141633
899.677	0.0142226
899.755	0.0142574
899.833	0.0142571
899.911	0.0142717
899.989	0.0144159
900.068	0.0144223
900.146	0.0142592
900.224	0.0143322
900.302	0.0143793
900.380	0.0142422
900.458	0.0141313
900.536	0.0141143
900.614	0.0141493
900.693	0.0141467
900.771	0.0141170
900.849	0.0138869
900.927	0.0139846
901.005	0.0140112
901.083	0.0139679
901.161	0.0137524
901.239	0.0136811
901.318	0.0136781
901.396	0.0137415
901.474	0.0137430
901.552	0.0135989
901.630	0.0138689
901.708	0.0135421
901.786	0.0136831
901.864	0.0137938
901.943	0.0137734
902.021	0.0138506
902.099	0.0138046
902.177	0.0138879
902.255	0.0140258
902.333	0.0139235
902.411	0.0141070
902.489	0.0140765
902.568	0.0140473
902.646	0.0141799
902.724	0.0142034
902.802	0.0141962
902.880	0.0143037
902.958	0.0141973
903.036	0.0144215
903.114	0.0142479
903.193	0.0140504
903.271	0.0140935
903.349	0.0141012
903.427	0.0138806
903.505	0.0138747
903.583	0.0138994
903.661	0.0137339
903.739	0.0136485
903.818	0.0136237
903.896	0.0135340
903.974	0.0135106
904.052	0.0135020
904.130	0.0133570
904.208	0.0133739
904.286	0.0135413
904.364	0.0135461
904.443	0.0136713
904.521	0.0136096
904.599	0.0136391
904.677	0.0136913
904.755	0.0138568
904.833	0.0139890
904.911	0.0139692
904.989	0.0139569
905.068	0.0140824
905.146	0.0139770
905.224	0.0140807
905.302	0.0141243
905.380	0.0141622
905.458	0.0140877
905.536	0.0141167
905.614	0.0142079
905.693	0.0141479
905.771	0.0140701
905.849	0.0140847
905.927	0.0139582
906.005	0.0140220
906.083	0.0138750
906.161	0.0139129
906.239	0.0136826
906.318	0.0136832
906.396	0.0137953
906.474	0.0137857
906.552	0.0135915
906.630	0.0137520
906.708	0.0137337
906.786	0.0137650
906.864	0.0138920
906.943	0.0139890
907.021	0.0140178
907.099	0.0140751
907.177	0.0141735
907.255	0.0142860
907.333	0.0142896
907.411	0.0142199
907.489	0.0142316
907.568	0.0144310
907.646	0.0142146
907.724	0.0142972
907.802	0.0142501
907.880	0.0141367
907.958	0.0140866
908.036	0.0139284
908.114	0.0141072
908.193	0.0139349
908.271	0.0138969
908.349	0.0137892
908.427	0.0136640
908.505	0.0137068
908.583	0.0138043
908.661	0.0137706
908.739	0.0136548
908.818	0.0135872
908.896	0.0136266
908.974	0.0136016
909.052	0.0135612
909.130	0.0135709
909.208	0.0134466
909.286	0.0135333
909.364	0.0135876
909.443	0.0134776
909.521	0.0134216
909.599	0.0135518
909.677	0.0135023
909.755	0.0136317
909.833	0.0136739
909.911	0.0137110
909.989	0.0138400
910.068	0.0139445
910.146	0.0140343
910.224	0.0139711
910.302	0.0141357
910.380	0.0141574
910.458	0.0142328
910.536	0.0140977
910.614	0.0141696
910.693	0.0142708
910.771	0.0142941
910.849	0.0142300
910.927	0.0142262
911.005	0.0143109
911.083	0.0140665
911.161	0.0139464
911.239	0.0138624
911.318	0.0139558
911.396	0.0138750
911.474	0.0138148
911.552	0.0136435
911.630	0.0136237
911.708	0.0135693
911.786	0.0134529
911.864	0.0135513
911.943	0.0137195
912.021	0.0135571
912.099	0.0136946
912.177	0.0138086
912.255	0.0137257
912.333	0.0138036
912.411	0.0139313
912.489	0.0140908
912.568	0.0139518
912.646	0.0139520
912.724	0.0140832
912.802	0.0141685
912.880	0.0141968
912.958	0.0141319
913.036	0.0142268
913.114	0.0143598
913.193	0.0142385
913.271	0.0142744
913.349	0.0142967
913.427	0.0142715
913.505	0.0139178
913.583	0.0139588
913.661	0.0141028
913.739	0.0141177
913.818	0.0139531
913.896	0.0138831
913.974	0.0139163
914.052	0.0138745
914.130	0.0137788
914.208	0.0139620
914.286	0.0140110
914.364	0.0138346
914.443	0.0137535
914.521	0.0137019
914.599	0.0136609
914.677	0.0137991
914.755	0.0137778
914.833	0.0137200
914.911	0.0136592
914.989	0.0136205
915.068	0.0137231
915.146	0.0136980
915.224	0.0135379
915.302	0.0135870
915.380	0.0135757
915.458	0.0137213
915.536	0.0135989
915.614	0.0138088
915.693	0.0138573
915.771	0.0139654
915.849	0.0138464
915.927	0.0139232
916.005	0.0140009
916.083	0.0141138
916.161	0.0140488
916.239	0.0141346
916.318	0.0141895
916.396	0.0142614
916.474	0.0142536
916.552	0.0143360
916.630	0.0143653
916.708	0.0140771
916.786	0.0140622
916.864	0.0142458
916.943	0.0140192
917.021	0.0139790
917.099	0.0138989
917.177	0.0138540
917.255	0.0136465
917.333	0.0137038
917.411	0.0136996
917.489	0.0136880
917.568	0.0137424
917.646	0.0136307
917.724	0.0137270
917.802	0.0136922
917.880	0.0138466
917.958	0.0138580
918.036	0.0139282
918.114	0.0138636
918.193	0.0140575
918.271	0.0142086
918.349	0.0141399
918.427	0.0141215
918.505	0.0141791
918.583	0.0141836
918.661	0.0142480
918.739	0.0142107
918.818	0.0142792
918.896	0.0142785
918.974	0.0141723
919.052	0.0141579
919.130	0.0140971
919.208	0.0139235
919.286	0.0139580
919.364	0.0140099
919.443	0.0138663
919.521	0.0139243
919.599	0.0139273
919.677	0.0139168
919.755	0.0140442
919.833	0.0138830
919.911	0.0139143
919.989	0.0139406
920.068	0.0140136
920.146	0.0139049
920.224	0.0138604
920.302	0.0137825
920.380	0.0140453
920.458	0.0140095
920.536	0.0138995
920.614	0.0139450
920.693	0.0138360
920.771	0.0139473
920.849	0.0140204
920.927	0.0139076
921.005	0.0138998
921.083	0.0138335
921.161	0.0137834
921.239	0.0136948
921.318	0.0138170
921.396	0.0137689
921.474	0.0137260
921.552	0.0138589
921.630	0.0137955
921.708	0.0139291
921.786	0.0138548
921.864	0.0140915
921.943	0.0140234
922.021	0.0139467
922.099	0.0139872
922.177	0.0140253
922.255	0.0141308
922.333	0.0139828
922.411	0.0140150
922.489	0.0139961
922.568	0.0140277
922.646	0.0137633
922.724	0.0138188
922.802	0.0137836
922.880	0.0136554
922.958	0.0136037
923.036	0.0134794
923.114	0.0136414
923.193	0.0136066
923.271	0.0134835
923.349	0.0137522
923.427	0.0137495
923.505	0.0137196
923.583	0.0137712
923.661	0.0138988
923.739	0.0138416
923.818	0.0139319
923.896	0.0141667
923.974	0.0141046
924.052	0.0140229
924.130	0.0139147
924.208	0.0140864
924.286	0.0141554
924.364	0.0140948
924.443	0.0140785
924.521	0.0141410
924.599	0.0141817
924.677	0.0141262
924.755	0.0141929
924.833	0.0141238
924.911	0.0142704
924.989	0.0140356
925.068	0.0140266
925.146	0.0140659
925.224	0.0139838
925.302	0.0140070
925.380	0.0138906
925.458	0.0139156
925.536	0.0139161
925.614	0.0138908
925.693	0.0139543
925.771	0.0139137
925.849	0.0140211
925.927	0.0138709
926.005	0.0139427
926.083	0.0139892
926.161	0.0139784
926.239	0.0140932
926.318	0.0140021
926.396	0.0140343
926.474	0.0140886
926.552	0.0140391
926.630	0.0139637
926.708	0.0139729
926.786	0.0139223
926.864	0.0138189
926.943	0.0138187
927.021	0.0139050
927.099	0.0138327
927.177	0.0138534
927.255	0.0139624
927.333	0.0140220
927.411	0.0140242
927.489	0.0140209
927.568	0.0141441
927.646	0.0140031
927.724	0.0140011
927.802	0.0142030
927.880	0.0140607
927.958	0.0140616
928.036	0.0142460
928.114	0.0140630
928.193	0.0139687
928.271	0.0139799
928.349	0.0140250
928.427	0.0138731
928.505	0.0137682
928.583	0.0137002
928.661	0.0134950
928.739	0.0136266
928.818	0.0133496
928.896	0.0134406
928.974	0.0134057
929.052	0.0133522
929.130	0.0133385
929.208	0.0136160
929.286	0.0135466
929.364	0.0136359
929.443	0.0136169
929.521	0.0137556
929.599	0.0136328
929.677	0.0138229
929.755	0.0138733
929.833	0.0141290
929.911	0.0138298
929.989	0.0140047
930.068	0.0140580
930.146	0.0142144
930.224	0.0142403
930.302	0.0141478
930.380	0.0143328
930.458	0.0142162
930.536	0.0142697
930.614	0.0144419
930.693	0.0142915
930.771	0.0144530
930.849	0.0142873
930.927	0.0141693
931.005	0.0143389
931.083	0.0141133
931.161	0.0143260
931.239	0.0142894
931.318	0.0141399
931.396	0.0141718
931.474	0.0140652
931.552	0.0141454
931.630	0.0141202
931.708	0.0141289
931.786	0.0140659
931.864	0.0139008
931.943	0.0139288
932.021	0.0138751
932.099	0.0139252
932.177	0.0138089
932.255	0.0138586
932.333	0.0137352
932.411	0.0138798
932.489	0.0136838
932.568	0.0138236
932.646	0.0137483
932.724	0.0136634
932.802	0.0136752
932.880	0.0138239
932.958	0.0138225
933.036	0.0137520
933.114	0.0137523
933.193	0.0137537
933.271	0.0137892
933.349	0.0138885
933.427	0.0138040
933.505	0.0139014
933.583	0.0139167
933.661	0.0139352
933.739	0.0138316
933.818	0.0138796
933.896	0.0139495
933.974	0.0138640
934.052	0.0138551
934.130	0.0136018
934.208	0.0137285
934.286	0.0136292
934.364	0.0136581
934.443	0.0136993
934.521	0.0136835
934.599	0.0136511
934.677	0.0135351
934.755	0.0136170
934.833	0.0137129
934.911	0.0138387
934.989	0.0136596
935.068	0.0136793
935.146	0.0139205
935.224	0.0138215
935.302	0.0139114
935.380	0.0140429
935.458	0.0140012
935.536	0.0142532
935.614	0.0142534
935.693	0.0141442
935.771	0.0140697
935.849	0.0140527
935.927	0.0141211
936.005	0.0142458
936.083	0.0142222
936.161	0.0142949
936.239	0.0143137
936.318	0.0142494
936.396	0.0142321
936.474	0.0142333
936.552	0.0142446
936.630	0.0142330
936.708	0.0140945
936.786	0.0141297
936.864	0.0140376
936.943	0.0140487
937.021	0.0139722
937.099	0.0138919
937.177	0.0138329
937.255	0.0139082
937.333	0.0138552
937.411	0.0138528
937.489	0.0138337
937.568	0.0137511
937.646	0.0137798
937.724	0.0136830
937.802	0.0138091
937.880	0.0138113
937.958	0.0139385
938.036	0.0138861
938.114	0.0138087
938.193	0.0138157
938.271	0.0138126
938.349	0.0139477
938.427	0.0139272
938.505	0.0138818
938.583	0.0139653
938.661	0.0140120
938.739	0.0139165
938.818	0.0138754
938.896	0.0138029
938.974	0.0138892
939.052	0.0139118
939.130	0.0138353
939.208	0.0139899
939.286	0.0139165
939.364	0.0139281
939.443	0.0139564
939.521	0.0140508
939.599	0.0140137
939.677	0.0139376
939.755	0.0138949
939.833	0.0138538
939.911	0.0140700
939.989	0.0139982
940.068	0.0139417
940.146	0.0140798
940.224	0.0138432
940.302	0.0139384
940.380	0.0139568
940.458	0.0139300
940.536	0.0140781
940.614	0.0139420
940.693	0.0138744
940.771	0.0139614
940.849	0.0138713
940.927	0.0139062
941.005	0.0139668
941.083	0.0138959
941.161	0.0138581
941.239	0.0139742
941.318	0.0139896
941.396	0.0137994
941.474	0.0138354
941.552	0.0138881
941.630	0.0139595
941.708	0.0139960
941.786	0.0139797
941.864	0.0139971
941.943	0.0141013
942.021	0.0140582
942.099	0.0139901
942.177	0.0141389
942.255	0.0140125
942.333	0.0140417
942.411	0.0139156
942.489	0.0140128
942.568	0.0140563
942.646	0.0139606
942.724	0.0140179
942.802	0.0140453
942.880	0.0140327
942.958	0.0139716
943.036	0.0140176
943.114	0.0139671
943.193	0.0139473
943.271	0.0138802
943.349	0.0139327
943.427	0.0138736
943.505	0.0138918
943.583	0.0140034
943.661	0.0139233
943.739	0.0137465
943.818	0.0139874
943.896	0.0138579
943.974	0.0138200
944.052	0.0138861
944.130	0.0138770
944.208	0.0138044
944.286	0.0137551
944.364	0.0138528
944.443	0.0137418
944.521	0.0137836
944.599	0.0136290
944.677	0.0137466
944.755	0.0137110
944.833	0.0138316
944.911	0.0135850
944.989	0.0137617
945.068	0.0138373
945.146	0.0138396
945.224	0.0137133
945.302	0.0138405
945.380	0.0137251
945.458	0.0138660
945.536	0.0139570
945.614	0.0139407
945.693	0.0139272
945.771	0.0139745
945.849	0.0140539
945.927	0.0140707
946.005	0.0141392
946.083	0.0140049
946.161	0.0139938
946.239	0.0142334
946.318	0.0141343
946.396	0.0142226
946.474	0.0141568
946.552	0.0141993
946.630	0.0140770
946.708	0.0140974
946.786	0.0141062
946.864	0.0140636
946.943	0.0140166
947.021	0.0140482
947.099	0.0137492
947.177	0.0136674
947.255	0.0138456
947.333	0.0138251
947.411	0.0137080
947.489	0.0137530
947.568	0.0139221
947.646	0.0137637
947.724	0.0137428
947.802	0.0137910
947.880	0.0136428
947.958	0.0136600
948.036	0.0137328
948.114	0.0137488
948.193	0.0137315
948.271	0.0137268
948.349	0.0139153
948.427	0.0137679
948.505	0.0138940
948.583	0.0139970
948.661	0.0139612
948.739	0.0138937
948.818	0.0138248
948.896	0.0140313
948.974	0.0139648
949.052	0.0141210
949.130	0.0140954
949.208	0.0141537
949.286	0.0141113
949.364	0.0140345
949.443	0.0140393
949.521	0.0141829
949.599	0.0141028
949.677	0.0140285
949.755	0.0140132
949.833	0.0138581
949.911	0.0141045
949.989	0.0140401
950.068	0.0140139
950.146	0.0139183
950.224	0.0140277
950.302	0.0139663
950.380	0.0139952
950.458	0.0139848
950.536	0.0139359
950.614	0.0139587
950.693	0.0140851
950.771	0.0138624
950.849	0.0137959
950.927	0.0138490
951.005	0.0139554
951.083	0.0139200
951.161	0.0138731
951.239	0.0139584
951.318	0.0141228
951.396	0.0139514
951.474	0.0139391
951.552	0.0139269
951.630	0.0139361
951.708	0.0139466
951.786	0.0140607
951.864	0.0139794
951.943	0.0138751
952.021	0.0138813
952.099	0.0140019
952.177	0.0140205
952.255	0.0140680
952.333	0.0139622
952.411	0.0138062
952.489	0.0139291
952.568	0.0139175
952.646	0.0138208
952.724	0.0138811
952.802	0.0138489
952.880	0.0139157
952.958	0.0137457
953.036	0.0138369
953.114	0.0138187
953.193	0.0138614
953.271	0.0138787
953.349	0.0138866
953.427	0.0139874
953.505	0.0138618
953.583	0.0140331
953.661	0.0138834
953.739	0.0139989
953.818	0.0139604
953.896	0.0139510
953.974	0.0139477
954.052	0.0139453
954.130	0.0139297
954.208	0.0139003
954.286	0.0139810
954.364	0.0140777
954.443	0.0139630
954.521	0.0139783
954.599	0.0139760
954.677	0.0139950
954.755	0.0139543
954.833	0.0140119
954.911	0.0140453
954.989	0.0139436
955.068	0.0141190
955.146	0.0141227
955.224	0.0141117
955.302	0.0140549
955.380	0.0141927
955.458	0.0141245
955.536	0.0139484
955.614	0.0139658
955.693	0.0140966
955.771	0.0139426
955.849	0.0140544
955.927	0.0140903
956.005	0.0138805
956.083	0.0138541
956.161	0.0138017
956.239	0.0139070
956.318	0.0139607
956.396	0.0137795
956.474	0.0137001
956.552	0.0136300
956.630	0.0137810
956.708	0.0136941
956.786	0.0137708
956.864	0.0136433
956.943	0.0136655
957.021	0.0137339
957.099	0.0137273
957.177	0.0136389
957.255	0.0137673
957.333	0.0136323
957.411	0.0138671
957.489	0.0137839
957.568	0.0138385
957.646	0.0138133
957.724	0.0138462
957.802	0.0138549
957.880	0.0137257
957.958	0.0138261
958.036	0.0138706
958.114	0.0138176
958.193	0.0139368
958.271	0.0138620
958.349	0.0138602
958.427	0.0139082
958.505	0.0139160
958.583	0.0138015
958.661	0.0137523
958.739	0.0139947
958.818	0.0140383
958.896	0.0139647
958.974	0.0139565
959.052	0.0138142
959.130	0.0139584
959.208	0.0141189
959.286	0.0140475
959.364	0.0140520
959.443	0.0140134
959.521	0.0140549
959.599	0.0139790
959.677	0.0141893
959.755	0.0140913
959.833	0.0140896
959.911	0.0141188
