05/14/2022	16:31:01	Ver.	4.1	UNKNOWN
Optical Delay	639.989416	Delta X		0.078125	Sweeps	1	Scan Rate	0/0
Coordinates	Axis 1	NaN	Axis 2	NaN	Axis 3	NaN	Axis 4	NaN	Axis 5	NaN	Axis 6	0.000000
TX Power	0.000000	RX Power	0.000000

639.989	0.0138117
640.068	0.0137566
640.146	0.0139293
640.224	0.0138225
640.302	0.0137064
640.380	0.0138498
640.458	0.0138831
640.536	0.0137718
640.614	0.0139621
640.693	0.0139019
640.771	0.0137994
640.849	0.0137840
640.927	0.0138091
641.005	0.0139209
641.083	0.0138229
641.161	0.0137071
641.239	0.0137328
641.318	0.0138290
641.396	0.0138566
641.474	0.0137711
641.552	0.0137566
641.630	0.0139616
641.708	0.0138237
641.786	0.0137592
641.864	0.0138551
641.943	0.0138194
642.021	0.0137872
642.099	0.0137875
642.177	0.0137463
642.255	0.0138360
642.333	0.0137527
642.411	0.0138874
642.489	0.0138354
642.568	0.0136469
642.646	0.0137482
642.724	0.0139736
642.802	0.0139204
642.880	0.0137006
642.958	0.0138274
643.036	0.0138721
643.114	0.0139741
643.193	0.0137521
643.271	0.0137277
643.349	0.0138397
643.427	0.0138171
643.505	0.0138259
643.583	0.0137367
643.661	0.0138799
643.739	0.0139512
643.818	0.0138713
643.896	0.0137814
643.974	0.0138329
644.052	0.0139668
644.130	0.0137814
644.208	0.0138755
644.286	0.0138039
644.364	0.0139156
644.443	0.0140429
644.521	0.0139310
644.599	0.0138992
644.677	0.0139076
644.755	0.0137595
644.833	0.0138357
644.911	0.0137729
644.989	0.0137669
645.068	0.0138243
645.146	0.0139082
645.224	0.0138710
645.302	0.0137716
645.380	0.0138667
645.458	0.0137365
645.536	0.0135813
645.614	0.0137292
645.693	0.0138515
645.771	0.0138435
645.849	0.0137934
645.927	0.0138448
646.005	0.0138646
646.083	0.0137794
646.161	0.0138356
646.239	0.0138823
646.318	0.0139643
646.396	0.0136678
646.474	0.0137145
646.552	0.0138161
646.630	0.0138240
646.708	0.0138786
646.786	0.0140005
646.864	0.0139017
646.943	0.0138264
647.021	0.0137051
647.099	0.0139393
647.177	0.0137479
647.255	0.0138300
647.333	0.0138952
647.411	0.0138761
647.489	0.0138202
647.568	0.0138632
647.646	0.0137371
647.724	0.0138278
647.802	0.0137552
647.880	0.0139077
647.958	0.0137341
648.036	0.0137936
648.114	0.0139442
648.193	0.0139068
648.271	0.0138613
648.349	0.0138291
648.427	0.0139574
648.505	0.0138716
648.583	0.0137806
648.661	0.0138402
648.739	0.0137783
648.818	0.0138223
648.896	0.0137580
648.974	0.0138489
649.052	0.0137675
649.130	0.0137920
649.208	0.0138123
649.286	0.0138799
649.364	0.0136415
649.443	0.0137656
649.521	0.0139145
649.599	0.0136876
649.677	0.0137335
649.755	0.0138358
649.833	0.0137025
649.911	0.0139165
649.989	0.0137540
650.068	0.0137541
650.146	0.0136327
650.224	0.0137744
650.302	0.0139362
650.380	0.0136781
650.458	0.0138239
650.536	0.0137021
650.614	0.0137714
650.693	0.0139233
650.771	0.0138963
650.849	0.0137959
650.927	0.0138499
651.005	0.0139299
651.083	0.0138255
651.161	0.0138375
651.239	0.0138435
651.318	0.0138575
651.396	0.0138699
651.474	0.0137738
651.552	0.0137334
651.630	0.0138581
651.708	0.0137362
651.786	0.0138165
651.864	0.0139129
651.943	0.0138800
652.021	0.0137360
652.099	0.0138347
652.177	0.0138683
652.255	0.0138267
652.333	0.0138571
652.411	0.0138761
652.489	0.0137331
652.568	0.0138113
652.646	0.0138348
652.724	0.0137483
652.802	0.0138754
652.880	0.0138046
652.958	0.0137437
653.036	0.0138473
653.114	0.0138179
653.193	0.0138287
653.271	0.0137273
653.349	0.0138005
653.427	0.0137853
653.505	0.0138439
653.583	0.0139528
653.661	0.0139117
653.739	0.0139366
653.818	0.0138541
653.896	0.0137186
653.974	0.0139481
654.052	0.0139440
654.130	0.0138618
654.208	0.0138696
654.286	0.0138689
654.364	0.0137766
654.443	0.0137969
654.521	0.0138840
654.599	0.0138617
654.677	0.0138223
654.755	0.0137361
654.833	0.0138912
654.911	0.0138405
654.989	0.0137370
655.068	0.0137804
655.146	0.0138081
655.224	0.0139211
655.302	0.0137850
655.380	0.0138279
655.458	0.0138446
655.536	0.0138184
655.614	0.0138158
655.693	0.0138463
655.771	0.0137809
655.849	0.0139053
655.927	0.0138844
656.005	0.0138581
656.083	0.0139243
656.161	0.0138488
656.239	0.0138007
656.318	0.0139314
656.396	0.0138400
656.474	0.0138525
656.552	0.0138793
656.630	0.0139108
656.708	0.0139348
656.786	0.0139057
656.864	0.0138557
656.943	0.0137941
657.021	0.0138470
657.099	0.0138778
657.177	0.0139580
657.255	0.0139671
657.333	0.0138339
657.411	0.0138279
657.489	0.0138861
657.568	0.0137556
657.646	0.0139105
657.724	0.0138671
657.802	0.0137539
657.880	0.0137366
657.958	0.0139040
658.036	0.0138679
658.114	0.0138198
658.193	0.0137351
658.271	0.0138856
658.349	0.0138412
658.427	0.0139046
658.505	0.0139770
658.583	0.0139608
658.661	0.0138885
658.739	0.0139824
658.818	0.0137927
658.896	0.0137221
658.974	0.0139042
659.052	0.0138157
659.130	0.0139127
659.208	0.0139184
659.286	0.0139267
659.364	0.0138824
659.443	0.0139819
659.521	0.0137821
659.599	0.0139200
659.677	0.0138271
659.755	0.0138054
659.833	0.0138145
659.911	0.0138643
659.989	0.0138957
660.068	0.0138757
660.146	0.0138938
660.224	0.0138830
660.302	0.0139429
660.380	0.0139792
660.458	0.0138809
660.536	0.0137744
660.614	0.0138654
660.693	0.0138208
660.771	0.0138597
660.849	0.0138082
660.927	0.0138076
661.005	0.0138975
661.083	0.0138132
661.161	0.0137218
661.239	0.0137133
661.318	0.0137741
661.396	0.0138450
661.474	0.0138403
661.552	0.0138728
661.630	0.0137679
661.708	0.0137756
661.786	0.0138110
661.864	0.0138779
661.943	0.0139548
662.021	0.0138428
662.099	0.0138246
662.177	0.0138808
662.255	0.0138282
662.333	0.0137527
662.411	0.0136888
662.489	0.0137794
662.568	0.0138051
662.646	0.0138576
662.724	0.0137729
662.802	0.0138313
662.880	0.0137918
662.958	0.0138096
663.036	0.0138220
663.114	0.0138852
663.193	0.0138074
663.271	0.0139230
663.349	0.0139075
663.427	0.0138625
663.505	0.0138332
663.583	0.0137199
663.661	0.0137894
663.739	0.0138570
663.818	0.0138825
663.896	0.0139071
663.974	0.0138215
664.052	0.0137745
664.130	0.0138944
664.208	0.0138412
664.286	0.0139543
664.364	0.0137310
664.443	0.0137385
664.521	0.0139163
664.599	0.0138078
664.677	0.0138737
664.755	0.0139141
664.833	0.0139055
664.911	0.0137314
664.989	0.0138633
665.068	0.0139427
665.146	0.0138964
665.224	0.0138408
665.302	0.0137686
665.380	0.0138955
665.458	0.0137180
665.536	0.0138963
665.614	0.0138590
665.693	0.0137641
665.771	0.0139147
665.849	0.0138439
665.927	0.0138346
666.005	0.0138483
666.083	0.0137708
666.161	0.0138721
666.239	0.0139194
666.318	0.0137242
666.396	0.0137025
666.474	0.0138343
666.552	0.0137901
666.630	0.0137057
666.708	0.0138426
666.786	0.0136887
666.864	0.0137319
666.943	0.0137894
667.021	0.0138611
667.099	0.0138068
667.177	0.0137476
667.255	0.0138501
667.333	0.0136527
667.411	0.0137830
667.489	0.0137040
667.568	0.0138458
667.646	0.0136720
667.724	0.0138805
667.802	0.0138038
667.880	0.0136300
667.958	0.0138468
668.036	0.0137735
668.114	0.0136915
668.193	0.0138726
668.271	0.0138742
668.349	0.0137790
668.427	0.0137675
668.505	0.0137672
668.583	0.0138096
668.661	0.0137693
668.739	0.0137424
668.818	0.0137617
668.896	0.0138386
668.974	0.0138308
669.052	0.0138191
669.130	0.0138486
669.208	0.0137790
669.286	0.0137544
669.364	0.0138651
669.443	0.0137791
669.521	0.0138572
669.599	0.0139481
669.677	0.0137832
669.755	0.0137446
669.833	0.0136984
669.911	0.0138290
669.989	0.0139211
670.068	0.0139121
670.146	0.0137404
670.224	0.0137569
670.302	0.0137280
670.380	0.0137538
670.458	0.0137232
670.536	0.0138541
670.614	0.0138496
670.693	0.0137224
670.771	0.0138069
670.849	0.0137048
670.927	0.0136796
671.005	0.0136394
671.083	0.0137517
671.161	0.0138237
671.239	0.0138038
671.318	0.0137218
671.396	0.0138047
671.474	0.0136321
671.552	0.0136653
671.630	0.0137934
671.708	0.0138080
671.786	0.0138240
671.864	0.0136409
671.943	0.0137574
672.021	0.0137254
672.099	0.0138528
672.177	0.0138147
672.255	0.0136147
672.333	0.0137785
672.411	0.0137874
672.489	0.0137789
672.568	0.0138594
672.646	0.0138762
672.724	0.0137411
672.802	0.0137234
672.880	0.0138220
672.958	0.0138708
673.036	0.0137755
673.114	0.0136321
673.193	0.0137815
673.271	0.0137859
673.349	0.0136822
673.427	0.0137033
673.505	0.0136684
673.583	0.0136532
673.661	0.0137474
673.739	0.0137521
673.818	0.0138690
673.896	0.0137402
673.974	0.0137143
674.052	0.0138280
674.130	0.0136954
674.208	0.0137492
674.286	0.0138174
674.364	0.0138132
674.443	0.0137314
674.521	0.0138141
674.599	0.0136454
674.677	0.0137954
674.755	0.0139050
674.833	0.0137902
674.911	0.0138865
674.989	0.0138332
675.068	0.0138829
675.146	0.0138016
675.224	0.0136468
675.302	0.0138512
675.380	0.0138682
675.458	0.0138469
675.536	0.0138354
675.614	0.0137132
675.693	0.0138566
675.771	0.0138171
675.849	0.0137446
675.927	0.0139433
676.005	0.0137486
676.083	0.0138922
676.161	0.0139629
676.239	0.0137337
676.318	0.0136821
676.396	0.0138963
676.474	0.0140320
676.552	0.0137568
676.630	0.0138504
676.708	0.0138945
676.786	0.0137489
676.864	0.0139006
676.943	0.0141174
677.021	0.0139890
677.099	0.0138612
677.177	0.0138269
677.255	0.0138377
677.333	0.0137526
677.411	0.0138647
677.489	0.0138905
677.568	0.0139867
677.646	0.0138311
677.724	0.0137640
677.802	0.0137797
677.880	0.0138194
677.958	0.0138950
678.036	0.0137945
678.114	0.0138328
678.193	0.0139030
678.271	0.0138830
678.349	0.0138808
678.427	0.0138537
678.505	0.0138876
678.583	0.0139744
678.661	0.0140215
678.739	0.0138834
678.818	0.0138757
678.896	0.0138249
678.974	0.0137339
679.052	0.0139099
679.130	0.0138399
679.208	0.0138084
679.286	0.0138511
679.364	0.0138906
679.443	0.0139103
679.521	0.0139535
679.599	0.0140247
679.677	0.0139079
679.755	0.0138982
679.833	0.0138472
679.911	0.0139336
679.989	0.0140306
680.068	0.0138663
680.146	0.0138287
680.224	0.0137945
680.302	0.0140296
680.380	0.0139791
680.458	0.0140091
680.536	0.0139321
680.614	0.0140602
680.693	0.0141666
680.771	0.0139201
680.849	0.0139757
680.927	0.0138496
681.005	0.0139219
681.083	0.0138771
681.161	0.0139264
681.239	0.0136432
681.318	0.0135253
681.396	0.0135988
681.474	0.0135729
681.552	0.0136845
681.630	0.0136204
681.708	0.0137627
681.786	0.0136653
681.864	0.0138477
681.943	0.0141734
682.021	0.0141169
682.099	0.0142336
682.177	0.0142843
682.255	0.0142262
682.333	0.0143163
682.411	0.0142725
682.489	0.0142113
682.568	0.0141402
682.646	0.0139819
682.724	0.0139500
682.802	0.0138403
682.880	0.0137925
682.958	0.0138155
683.036	0.0135477
683.114	0.0135523
683.193	0.0135378
683.271	0.0135995
683.349	0.0136292
683.427	0.0136082
683.505	0.0135482
683.583	0.0135242
683.661	0.0135004
683.739	0.0135885
683.818	0.0135172
683.896	0.0135495
683.974	0.0135300
684.052	0.0134980
684.130	0.0135358
684.208	0.0136052
684.286	0.0138422
684.364	0.0141529
684.443	0.0142037
684.521	0.0142870
684.599	0.0145444
684.677	0.0147202
684.755	0.0149685
684.833	0.0149497
684.911	0.0149752
684.989	0.0147929
685.068	0.0146987
685.146	0.0145814
685.224	0.0144256
685.302	0.0141678
685.380	0.0139677
685.458	0.0139505
685.536	0.0136366
685.614	0.0133911
685.693	0.0132589
685.771	0.0132650
685.849	0.0131383
685.927	0.0129969
686.005	0.0130406
686.083	0.0130401
686.161	0.0129572
686.239	0.0128571
686.318	0.0128717
686.396	0.0127635
686.474	0.0128846
686.552	0.0129002
686.630	0.0129280
686.708	0.0130406
686.786	0.0132738
686.864	0.0132837
686.943	0.0134631
687.021	0.0136699
687.099	0.0137183
687.177	0.0140349
687.255	0.0142500
687.333	0.0143307
687.411	0.0145333
687.489	0.0148141
687.568	0.0149577
687.646	0.0149961
687.724	0.0150404
687.802	0.0152045
687.880	0.0152829
687.958	0.0153781
688.036	0.0152641
688.114	0.0152042
688.193	0.0150803
688.271	0.0150685
688.349	0.0149634
688.427	0.0148811
688.505	0.0146703
688.583	0.0143390
688.661	0.0141524
688.739	0.0138493
688.818	0.0135480
688.896	0.0132875
688.974	0.0131055
689.052	0.0128400
689.130	0.0126311
689.208	0.0122501
689.286	0.0121033
689.364	0.0117912
689.443	0.0115577
689.521	0.0115804
689.599	0.0115833
689.677	0.0115553
689.755	0.0114418
689.833	0.0115262
689.911	0.0117378
689.989	0.0119293
690.068	0.0119843
690.146	0.0122591
690.224	0.0125087
690.302	0.0129310
690.380	0.0132416
690.458	0.0132735
690.536	0.0138810
690.614	0.0143561
690.693	0.0147749
690.771	0.0150301
690.849	0.0153271
690.927	0.0158449
691.005	0.0163649
691.083	0.0167340
691.161	0.0168293
691.239	0.0170802
691.318	0.0171165
691.396	0.0171368
691.474	0.0171710
691.552	0.0168260
691.630	0.0166894
691.708	0.0164468
691.786	0.0159866
691.864	0.0155325
691.943	0.0151822
692.021	0.0147847
692.099	0.0142234
692.177	0.0138573
692.255	0.0136493
692.333	0.0131541
692.411	0.0128101
692.489	0.0124673
692.568	0.0121470
692.646	0.0117847
692.724	0.0114678
692.802	0.0112404
692.880	0.0108202
692.958	0.0107289
693.036	0.0105280
693.114	0.0102139
693.193	0.0103639
693.271	0.0104059
693.349	0.0102443
693.427	0.0104421
693.505	0.0104713
693.583	0.0106978
693.661	0.0110057
693.739	0.0112143
693.818	0.0115041
693.896	0.0119701
693.974	0.0123590
694.052	0.0125542
694.130	0.0130496
694.208	0.0135345
694.286	0.0138392
694.364	0.0143701
694.443	0.0149989
694.521	0.0155288
694.599	0.0161993
694.677	0.0167551
694.755	0.0172515
694.833	0.0179510
694.911	0.0186674
694.989	0.0190375
695.068	0.0193254
695.146	0.0196165
695.224	0.0196752
695.302	0.0198339
695.380	0.0195054
695.458	0.0191384
695.536	0.0186539
695.614	0.0180737
695.693	0.0173567
695.771	0.0165889
695.849	0.0154962
695.927	0.0146158
696.005	0.0137906
696.083	0.0128754
696.161	0.0120921
696.239	0.0114100
696.318	0.0106899
696.396	0.0101643
696.474	0.00968376
696.552	0.00923515
696.630	0.00878181
696.708	0.00859413
696.786	0.00837379
696.864	0.00817581
696.943	0.00805046
697.021	0.00821136
697.099	0.00825333
697.177	0.00853584
697.255	0.00873108
697.333	0.00900337
697.411	0.00955925
697.489	0.00999107
697.568	0.0105438
697.646	0.0111187
697.724	0.0117699
697.802	0.0125008
697.880	0.0131566
697.958	0.0137709
698.036	0.0141651
698.114	0.0148917
698.193	0.0154771
698.271	0.0159754
698.349	0.0165874
698.427	0.0169596
698.505	0.0174397
698.583	0.0178600
698.661	0.0182283
698.739	0.0185382
698.818	0.0190118
698.896	0.0191031
698.974	0.0194180
699.052	0.0195117
699.130	0.0196384
699.208	0.0194579
699.286	0.0194031
699.364	0.0190892
699.443	0.0188304
699.521	0.0184482
699.599	0.0177708
699.677	0.0170662
699.755	0.0164263
699.833	0.0157392
699.911	0.0150709
699.989	0.0141580
700.068	0.0135237
700.146	0.0126601
700.224	0.0120954
700.302	0.0113569
700.380	0.0105724
700.458	0.0100182
700.536	0.00967377
700.614	0.00907120
700.693	0.00872414
700.771	0.00846954
700.849	0.00841316
700.927	0.00814110
701.005	0.00812424
701.083	0.00813522
701.161	0.00834511
701.239	0.00871117
701.318	0.00916527
701.396	0.00951088
701.474	0.0100199
701.552	0.0105371
701.630	0.0111410
701.708	0.0117651
701.786	0.0123162
701.864	0.0130400
701.943	0.0135430
702.021	0.0141198
702.099	0.0145706
702.177	0.0152332
702.255	0.0156442
702.333	0.0161107
702.411	0.0164394
702.489	0.0165858
702.568	0.0168593
702.646	0.0169642
702.724	0.0171306
702.802	0.0171851
702.880	0.0170467
702.958	0.0170372
703.036	0.0167981
703.114	0.0167174
703.193	0.0165551
703.271	0.0162252
703.349	0.0158447
703.427	0.0157209
703.505	0.0154768
703.583	0.0152803
703.661	0.0151781
703.739	0.0151824
703.818	0.0150291
703.896	0.0150085
703.974	0.0150670
704.052	0.0148993
704.130	0.0149993
704.208	0.0147050
704.286	0.0147777
704.364	0.0146060
704.443	0.0143864
704.521	0.0141717
704.599	0.0140776
704.677	0.0137576
704.755	0.0135522
704.833	0.0132588
704.911	0.0131030
704.989	0.0127083
705.068	0.0126441
705.146	0.0125076
705.224	0.0123439
705.302	0.0122436
705.380	0.0122275
705.458	0.0119928
705.536	0.0118073
705.614	0.0116138
705.693	0.0115893
705.771	0.0116684
705.849	0.0116872
705.927	0.0116384
706.005	0.0118185
706.083	0.0121124
706.161	0.0122630
706.239	0.0125443
706.318	0.0128371
706.396	0.0131022
706.474	0.0134479
706.552	0.0135930
706.630	0.0136770
706.708	0.0136792
706.786	0.0139117
706.864	0.0139788
706.943	0.0139839
707.021	0.0138663
707.099	0.0138353
707.177	0.0138607
707.255	0.0136749
707.333	0.0136155
707.411	0.0135837
707.489	0.0136618
707.568	0.0135268
707.646	0.0135590
707.724	0.0134331
707.802	0.0135672
707.880	0.0135745
707.958	0.0137868
708.036	0.0137228
708.114	0.0137589
708.193	0.0139083
708.271	0.0140400
708.349	0.0140596
708.427	0.0143403
708.505	0.0145155
708.583	0.0147558
708.661	0.0149320
708.739	0.0151534
708.818	0.0154485
708.896	0.0158187
708.974	0.0161137
709.052	0.0162871
709.130	0.0165858
709.208	0.0168288
709.286	0.0167867
709.364	0.0170335
709.443	0.0167204
709.521	0.0165798
709.599	0.0164324
709.677	0.0161680
709.755	0.0160052
709.833	0.0156959
709.911	0.0155364
709.989	0.0151440
710.068	0.0149255
710.146	0.0146587
710.224	0.0142999
710.302	0.0141805
710.380	0.0137166
710.458	0.0136179
710.536	0.0130688
710.614	0.0128630
710.693	0.0124253
710.771	0.0121547
710.849	0.0117420
710.927	0.0113624
711.005	0.0109760
711.083	0.0104070
711.161	0.0103130
711.239	0.0102126
711.318	0.0100723
711.396	0.0101134
711.474	0.0100521
711.552	0.0104885
711.630	0.0106921
711.708	0.0110020
711.786	0.0114561
711.864	0.0117945
711.943	0.0122866
712.021	0.0127631
712.099	0.0130972
712.177	0.0133720
712.255	0.0137309
712.333	0.0138301
712.411	0.0139871
712.489	0.0139182
712.568	0.0139104
712.646	0.0138850
712.724	0.0138215
712.802	0.0139161
712.880	0.0138679
712.958	0.0139629
713.036	0.0140367
713.114	0.0141430
713.193	0.0142022
713.271	0.0141992
713.349	0.0144968
713.427	0.0147223
713.505	0.0147691
713.583	0.0148071
713.661	0.0150206
713.739	0.0151244
713.818	0.0152750
713.896	0.0153788
713.974	0.0155268
714.052	0.0157114
714.130	0.0157102
714.208	0.0158086
714.286	0.0157250
714.364	0.0157758
714.443	0.0158236
714.521	0.0157700
714.599	0.0157233
714.677	0.0159476
714.755	0.0159423
714.833	0.0158325
714.911	0.0158991
714.989	0.0160497
715.068	0.0158972
715.146	0.0160406
715.224	0.0161134
715.302	0.0162280
715.380	0.0162086
715.458	0.0162276
715.536	0.0160583
715.614	0.0158208
715.693	0.0155308
715.771	0.0150972
715.849	0.0147265
715.927	0.0140433
716.005	0.0135222
716.083	0.0126905
716.161	0.0120396
716.239	0.0113212
716.318	0.0103868
716.396	0.00984283
716.474	0.00921700
716.552	0.00856071
716.630	0.00809654
716.708	0.00766846
716.786	0.00740829
716.864	0.00752914
716.943	0.00766457
717.021	0.00794373
717.099	0.00832314
717.177	0.00891937
717.255	0.00970818
717.333	0.0105124
717.411	0.0114548
717.489	0.0122290
717.568	0.0132005
717.646	0.0140284
717.724	0.0148158
717.802	0.0155058
717.880	0.0158954
717.958	0.0165382
718.036	0.0168506
718.114	0.0171597
718.193	0.0171717
718.271	0.0171126
718.349	0.0174380
718.427	0.0173080
718.505	0.0169543
718.583	0.0169222
718.661	0.0166802
718.739	0.0163793
718.818	0.0160232
718.896	0.0158440
718.974	0.0153104
719.052	0.0150768
719.130	0.0147315
719.208	0.0143272
719.286	0.0140007
719.364	0.0136268
719.443	0.0134854
719.521	0.0134048
719.599	0.0133315
719.677	0.0132942
719.755	0.0134031
719.833	0.0136070
719.911	0.0136256
719.989	0.0139256
720.068	0.0140898
720.146	0.0144467
720.224	0.0146611
720.302	0.0148242
720.380	0.0151233
720.458	0.0150633
720.536	0.0152988
720.614	0.0155598
720.693	0.0155428
720.771	0.0155437
720.849	0.0154637
720.927	0.0154752
721.005	0.0153950
721.083	0.0149963
721.161	0.0148145
721.239	0.0145126
721.318	0.0141560
721.396	0.0138678
721.474	0.0134135
721.552	0.0131705
721.630	0.0128094
721.708	0.0124585
721.786	0.0121275
721.864	0.0120408
721.943	0.0116992
722.021	0.0115363
722.099	0.0115823
722.177	0.0114239
722.255	0.0112702
722.333	0.0111470
722.411	0.0111970
722.489	0.0111561
722.568	0.0109364
722.646	0.0111121
722.724	0.0112354
722.802	0.0113224
722.880	0.0116524
722.958	0.0117215
723.036	0.0122518
723.114	0.0127060
723.193	0.0130259
723.271	0.0133444
723.349	0.0137331
723.427	0.0140406
723.505	0.0142541
723.583	0.0145126
723.661	0.0147984
723.739	0.0149113
723.818	0.0148808
723.896	0.0149379
723.974	0.0149805
724.052	0.0148766
724.130	0.0149634
724.208	0.0149429
724.286	0.0148627
724.364	0.0148561
724.443	0.0145890
724.521	0.0144503
724.599	0.0141935
724.677	0.0138927
724.755	0.0137566
724.833	0.0135276
724.911	0.0131929
724.989	0.0130632
725.068	0.0131279
725.146	0.0128490
725.224	0.0129700
725.302	0.0131586
725.380	0.0133767
725.458	0.0137907
725.536	0.0140694
725.614	0.0145096
725.693	0.0149516
725.771	0.0154173
725.849	0.0157523
725.927	0.0160551
726.005	0.0162964
726.083	0.0164108
726.161	0.0165320
726.239	0.0167180
726.318	0.0165228
726.396	0.0162982
726.474	0.0161752
726.552	0.0158711
726.630	0.0156597
726.708	0.0155390
726.786	0.0150973
726.864	0.0147336
726.943	0.0144430
727.021	0.0141823
727.099	0.0141603
727.177	0.0138522
727.255	0.0136947
727.333	0.0133719
727.411	0.0130486
727.489	0.0129777
727.568	0.0128144
727.646	0.0126170
727.724	0.0124336
727.802	0.0124041
727.880	0.0122070
727.958	0.0119743
728.036	0.0118292
728.114	0.0117215
728.193	0.0116621
728.271	0.0114890
728.349	0.0114493
728.427	0.0113444
728.505	0.0113889
728.583	0.0112855
728.661	0.0112969
728.739	0.0114316
728.818	0.0115408
728.896	0.0117701
728.974	0.0118359
729.052	0.0120659
729.130	0.0122967
729.208	0.0125922
729.286	0.0129267
729.364	0.0132742
729.443	0.0136124
729.521	0.0140128
729.599	0.0142893
729.677	0.0144925
729.755	0.0147768
729.833	0.0149305
729.911	0.0150581
729.989	0.0149860
730.068	0.0149762
730.146	0.0148862
730.224	0.0147433
730.302	0.0146774
730.380	0.0145421
730.458	0.0142334
730.536	0.0141022
730.614	0.0137549
730.693	0.0137844
730.771	0.0136875
730.849	0.0136061
730.927	0.0135101
731.005	0.0137546
731.083	0.0136231
731.161	0.0136590
731.239	0.0140975
731.318	0.0143283
731.396	0.0147126
731.474	0.0148097
731.552	0.0152675
731.630	0.0156438
731.708	0.0159970
731.786	0.0161543
731.864	0.0163824
731.943	0.0164484
732.021	0.0164561
732.099	0.0163776
732.177	0.0164339
732.255	0.0163663
732.333	0.0160664
732.411	0.0158871
732.489	0.0154540
732.568	0.0153204
732.646	0.0150153
732.724	0.0147977
732.802	0.0143810
732.880	0.0140034
732.958	0.0137989
733.036	0.0134081
733.114	0.0132223
733.193	0.0130415
733.271	0.0128513
733.349	0.0126701
733.427	0.0125779
733.505	0.0126257
733.583	0.0125768
733.661	0.0124812
733.739	0.0126117
733.818	0.0124162
733.896	0.0124967
733.974	0.0126121
734.052	0.0126746
734.130	0.0126765
734.208	0.0126989
734.286	0.0127448
734.364	0.0128110
734.443	0.0126308
734.521	0.0126260
734.599	0.0125075
734.677	0.0124339
734.755	0.0124798
734.833	0.0123119
734.911	0.0121643
734.989	0.0121395
735.068	0.0119542
735.146	0.0118046
735.224	0.0118524
735.302	0.0117319
735.380	0.0116360
735.458	0.0117561
735.536	0.0118053
735.614	0.0119107
735.693	0.0123701
735.771	0.0124435
735.849	0.0127150
735.927	0.0128928
736.005	0.0131526
736.083	0.0135287
736.161	0.0137444
736.239	0.0140404
736.318	0.0142643
736.396	0.0145779
736.474	0.0147157
736.552	0.0147994
736.630	0.0150054
736.708	0.0150022
736.786	0.0150653
736.864	0.0152202
736.943	0.0152972
737.021	0.0154617
737.099	0.0154716
737.177	0.0153464
737.255	0.0155653
737.333	0.0156167
737.411	0.0156316
737.489	0.0158057
737.568	0.0158518
737.646	0.0159560
737.724	0.0162133
737.802	0.0162813
737.880	0.0161938
737.958	0.0162240
738.036	0.0162936
738.114	0.0163525
738.193	0.0161636
738.271	0.0159370
738.349	0.0157600
738.427	0.0155504
738.505	0.0153010
738.583	0.0148103
738.661	0.0144294
738.739	0.0142731
738.818	0.0138688
738.896	0.0136235
738.974	0.0133443
739.052	0.0130365
739.130	0.0129315
739.208	0.0127149
739.286	0.0126015
739.364	0.0125689
739.443	0.0124831
739.521	0.0126280
739.599	0.0125285
739.677	0.0124630
739.755	0.0126442
739.833	0.0126192
739.911	0.0125832
739.989	0.0126716
740.068	0.0123648
740.146	0.0123878
740.224	0.0123218
740.302	0.0123954
740.380	0.0121978
740.458	0.0121523
740.536	0.0120758
740.614	0.0118481
740.693	0.0117959
740.771	0.0118269
740.849	0.0118424
740.927	0.0119478
741.005	0.0119003
741.083	0.0120166
741.161	0.0120361
741.239	0.0120218
741.318	0.0122137
741.396	0.0123217
741.474	0.0124970
741.552	0.0126574
741.630	0.0126709
741.708	0.0129482
741.786	0.0133299
741.864	0.0135645
741.943	0.0137558
742.021	0.0138694
742.099	0.0142367
742.177	0.0146643
742.255	0.0147652
742.333	0.0149388
742.411	0.0152635
742.489	0.0154181
742.568	0.0153923
742.646	0.0154501
742.724	0.0156450
742.802	0.0156683
742.880	0.0156282
742.958	0.0154264
743.036	0.0156417
743.114	0.0154785
743.193	0.0154548
743.271	0.0154613
743.349	0.0153509
743.427	0.0153352
743.505	0.0152599
743.583	0.0152406
743.661	0.0152164
743.739	0.0152721
743.818	0.0152840
743.896	0.0151829
743.974	0.0150813
744.052	0.0153133
744.130	0.0153451
744.208	0.0152883
744.286	0.0152013
744.364	0.0152459
744.443	0.0150349
744.521	0.0150498
744.599	0.0149529
744.677	0.0147249
744.755	0.0145305
744.833	0.0144908
744.911	0.0141308
744.989	0.0138922
745.068	0.0135619
745.146	0.0134354
745.224	0.0132391
745.302	0.0129323
745.380	0.0126823
745.458	0.0125430
745.536	0.0124925
745.614	0.0123082
745.693	0.0122500
745.771	0.0121515
745.849	0.0121851
745.927	0.0121835
746.005	0.0124365
746.083	0.0123692
746.161	0.0123717
746.239	0.0123732
746.318	0.0125805
746.396	0.0125346
746.474	0.0125726
746.552	0.0125780
746.630	0.0126338
746.708	0.0126072
746.786	0.0126450
746.864	0.0125533
746.943	0.0124620
747.021	0.0124663
747.099	0.0123270
747.177	0.0123507
747.255	0.0123498
747.333	0.0123586
747.411	0.0122781
747.489	0.0124305
747.568	0.0124406
747.646	0.0124480
747.724	0.0127012
747.802	0.0129634
747.880	0.0131888
747.958	0.0134904
748.036	0.0137611
748.114	0.0141107
748.193	0.0146295
748.271	0.0148479
748.349	0.0151413
748.427	0.0152154
748.505	0.0154389
748.583	0.0158607
748.661	0.0157635
748.739	0.0159675
748.818	0.0159594
748.896	0.0158227
748.974	0.0158717
749.052	0.0156811
749.130	0.0153664
749.208	0.0151594
749.286	0.0150105
749.364	0.0147723
749.443	0.0144643
749.521	0.0143523
749.599	0.0142657
749.677	0.0140659
749.755	0.0139717
749.833	0.0139468
749.911	0.0139297
749.989	0.0141913
750.068	0.0141976
750.146	0.0141990
750.224	0.0143564
750.302	0.0146256
750.380	0.0148083
750.458	0.0148515
750.536	0.0150907
750.614	0.0151806
750.693	0.0151123
750.771	0.0150799
750.849	0.0151984
750.927	0.0150419
751.005	0.0148671
751.083	0.0145549
751.161	0.0143600
751.239	0.0141174
751.318	0.0138070
751.396	0.0134350
751.474	0.0133241
751.552	0.0130254
751.630	0.0127937
751.708	0.0126001
751.786	0.0124934
751.864	0.0124458
751.943	0.0123258
752.021	0.0123734
752.099	0.0123479
752.177	0.0123774
752.255	0.0124113
752.333	0.0125228
752.411	0.0125780
752.489	0.0126994
752.568	0.0126646
752.646	0.0128318
752.724	0.0126472
752.802	0.0126940
752.880	0.0128972
752.958	0.0127579
753.036	0.0127693
753.114	0.0127370
753.193	0.0127460
753.271	0.0127904
753.349	0.0127772
753.427	0.0127422
753.505	0.0126811
753.583	0.0128214
753.661	0.0128966
753.739	0.0130178
753.818	0.0130753
753.896	0.0133047
753.974	0.0133608
754.052	0.0136440
754.130	0.0139191
754.208	0.0139990
754.286	0.0143547
754.364	0.0146278
754.443	0.0148322
754.521	0.0150160
754.599	0.0152283
754.677	0.0155260
754.755	0.0156322
754.833	0.0155764
754.911	0.0155601
754.989	0.0155244
755.068	0.0154382
755.146	0.0153265
755.224	0.0153384
755.302	0.0149329
755.380	0.0149030
755.458	0.0147174
755.536	0.0145419
755.614	0.0142370
755.693	0.0142050
755.771	0.0139641
755.849	0.0139417
755.927	0.0139666
756.005	0.0137819
756.083	0.0137703
756.161	0.0139162
756.239	0.0138725
756.318	0.0137772
756.396	0.0139487
756.474	0.0141225
756.552	0.0140515
756.630	0.0144308
756.708	0.0146456
756.786	0.0145419
756.864	0.0145361
756.943	0.0147288
757.021	0.0146397
757.099	0.0146915
757.177	0.0147520
757.255	0.0145587
757.333	0.0143567
757.411	0.0141490
757.489	0.0140390
757.568	0.0137109
757.646	0.0133969
757.724	0.0131989
757.802	0.0130565
757.880	0.0129179
757.958	0.0127296
758.036	0.0125764
758.114	0.0125832
758.193	0.0124802
758.271	0.0124587
758.349	0.0125461
758.427	0.0124953
758.505	0.0127225
758.583	0.0130526
758.661	0.0129510
758.739	0.0130786
758.818	0.0131712
758.896	0.0133108
758.974	0.0133546
759.052	0.0135922
759.130	0.0136329
759.208	0.0135649
759.286	0.0135394
759.364	0.0135905
759.443	0.0135338
759.521	0.0134708
759.599	0.0135219
759.677	0.0134720
759.755	0.0132963
759.833	0.0133820
759.911	0.0132712
759.989	0.0132092
760.068	0.0132162
760.146	0.0132397
760.224	0.0132622
760.302	0.0132776
760.380	0.0134830
760.458	0.0135412
760.536	0.0138240
760.614	0.0139014
760.693	0.0141547
760.771	0.0142069
760.849	0.0144339
760.927	0.0146308
761.005	0.0145918
761.083	0.0147456
761.161	0.0146964
761.239	0.0148263
761.318	0.0148370
761.396	0.0147638
761.474	0.0145765
761.552	0.0145682
761.630	0.0144387
761.708	0.0144592
761.786	0.0142984
761.864	0.0142490
761.943	0.0140408
762.021	0.0139539
762.099	0.0139045
762.177	0.0139268
762.255	0.0140442
762.333	0.0137817
762.411	0.0138870
762.489	0.0140955
762.568	0.0142514
762.646	0.0143123
762.724	0.0143732
762.802	0.0143565
762.880	0.0145168
762.958	0.0146507
763.036	0.0146339
763.114	0.0146114
763.193	0.0146649
763.271	0.0146106
763.349	0.0147095
763.427	0.0145101
763.505	0.0144031
763.583	0.0142046
763.661	0.0141672
763.739	0.0140013
763.818	0.0137823
763.896	0.0136367
763.974	0.0133438
764.052	0.0132142
764.130	0.0130998
764.208	0.0129919
764.286	0.0129885
764.364	0.0129271
764.443	0.0128949
764.521	0.0129441
764.599	0.0129778
764.677	0.0130795
764.755	0.0132572
764.833	0.0133067
764.911	0.0132980
764.989	0.0134554
765.068	0.0134752
765.146	0.0136255
765.224	0.0136525
765.302	0.0137650
765.380	0.0135625
765.458	0.0135783
765.536	0.0134923
765.614	0.0135439
765.693	0.0132919
765.771	0.0132742
765.849	0.0132220
765.927	0.0131078
766.005	0.0132134
766.083	0.0128751
766.161	0.0129974
766.239	0.0130335
766.318	0.0130592
766.396	0.0130350
766.474	0.0132558
766.552	0.0133125
766.630	0.0134032
766.708	0.0135950
766.786	0.0136947
766.864	0.0139381
766.943	0.0139803
767.021	0.0143821
767.099	0.0143891
767.177	0.0146357
767.255	0.0146623
767.333	0.0148148
767.411	0.0149070
767.489	0.0149164
767.568	0.0149316
767.646	0.0150291
767.724	0.0148077
767.802	0.0147858
767.880	0.0146532
767.958	0.0146889
768.036	0.0144778
768.114	0.0142838
768.193	0.0142480
768.271	0.0141309
768.349	0.0139919
768.427	0.0137684
768.505	0.0137436
768.583	0.0138001
768.661	0.0137221
768.739	0.0136934
768.818	0.0135658
768.896	0.0135030
768.974	0.0136899
769.052	0.0138229
769.130	0.0139060
769.208	0.0139451
769.286	0.0140056
769.364	0.0141303
769.443	0.0141534
769.521	0.0142635
769.599	0.0141939
769.677	0.0142287
769.755	0.0142645
769.833	0.0141655
769.911	0.0141589
769.989	0.0140512
770.068	0.0139941
770.146	0.0139780
770.224	0.0137288
770.302	0.0136871
770.380	0.0134175
770.458	0.0132871
770.536	0.0133426
770.614	0.0133002
770.693	0.0132224
770.771	0.0131664
770.849	0.0132063
770.927	0.0131162
771.005	0.0131311
771.083	0.0132467
771.161	0.0132787
771.239	0.0133250
771.318	0.0134350
771.396	0.0134346
771.474	0.0135415
771.552	0.0135225
771.630	0.0136844
771.708	0.0136244
771.786	0.0138091
771.864	0.0137209
771.943	0.0139385
772.021	0.0138751
772.099	0.0138864
772.177	0.0138651
772.255	0.0138082
772.333	0.0138283
772.411	0.0137590
772.489	0.0137965
772.568	0.0138400
772.646	0.0137798
772.724	0.0138796
772.802	0.0137689
772.880	0.0138371
772.958	0.0138171
773.036	0.0139011
773.114	0.0138979
773.193	0.0140025
773.271	0.0140119
773.349	0.0139364
773.427	0.0140385
773.505	0.0140297
773.583	0.0139746
773.661	0.0140559
773.739	0.0141879
773.818	0.0141913
773.896	0.0139488
773.974	0.0140406
774.052	0.0140577
774.130	0.0140589
774.208	0.0141648
774.286	0.0141341
774.364	0.0139248
774.443	0.0139685
774.521	0.0140583
774.599	0.0140304
774.677	0.0139172
774.755	0.0138644
774.833	0.0137384
774.911	0.0140105
774.989	0.0137447
775.068	0.0138763
775.146	0.0137334
775.224	0.0138879
775.302	0.0139008
775.380	0.0139491
775.458	0.0139625
775.536	0.0139716
775.614	0.0139202
775.693	0.0140347
775.771	0.0140138
775.849	0.0140167
775.927	0.0141061
776.005	0.0141342
776.083	0.0139886
776.161	0.0141273
776.239	0.0139345
776.318	0.0139391
776.396	0.0140311
776.474	0.0139611
776.552	0.0139521
776.630	0.0137988
776.708	0.0137754
776.786	0.0137691
776.864	0.0137701
776.943	0.0133894
777.021	0.0136070
777.099	0.0135835
777.177	0.0136002
777.255	0.0134766
777.333	0.0135139
777.411	0.0135809
777.489	0.0137827
777.568	0.0136926
777.646	0.0138341
777.724	0.0137325
777.802	0.0137985
777.880	0.0138675
777.958	0.0139484
778.036	0.0139835
778.114	0.0140004
778.193	0.0138755
778.271	0.0140390
778.349	0.0138840
778.427	0.0136913
778.505	0.0137858
778.583	0.0137615
778.661	0.0137567
778.739	0.0137279
778.818	0.0136826
778.896	0.0135673
778.974	0.0136723
779.052	0.0136372
779.130	0.0136485
779.208	0.0137459
779.286	0.0137700
779.364	0.0138592
779.443	0.0137714
779.521	0.0137860
779.599	0.0139525
779.677	0.0139700
779.755	0.0139259
779.833	0.0139629
779.911	0.0140211
779.989	0.0140401
780.068	0.0140473
780.146	0.0140829
780.224	0.0140546
780.302	0.0142007
780.380	0.0140592
780.458	0.0140127
780.536	0.0141267
780.614	0.0140718
780.693	0.0141190
780.771	0.0141238
780.849	0.0141750
780.927	0.0140697
781.005	0.0142273
781.083	0.0139860
781.161	0.0140802
781.239	0.0138976
781.318	0.0141468
781.396	0.0140945
781.474	0.0139835
781.552	0.0138915
781.630	0.0139295
781.708	0.0140378
781.786	0.0137454
781.864	0.0137689
781.943	0.0137239
782.021	0.0138586
782.099	0.0138687
782.177	0.0137727
782.255	0.0138989
782.333	0.0139005
782.411	0.0139855
782.489	0.0138899
782.568	0.0138241
782.646	0.0137700
782.724	0.0136398
782.802	0.0136692
782.880	0.0138132
782.958	0.0136407
783.036	0.0135519
783.114	0.0136115
783.193	0.0136106
783.271	0.0135689
783.349	0.0135723
783.427	0.0135318
783.505	0.0134148
783.583	0.0136153
783.661	0.0134907
783.739	0.0135648
783.818	0.0136312
783.896	0.0137378
783.974	0.0138064
784.052	0.0138151
784.130	0.0139074
784.208	0.0140276
784.286	0.0141327
784.364	0.0141180
784.443	0.0140548
784.521	0.0142357
784.599	0.0142327
784.677	0.0140382
784.755	0.0140195
784.833	0.0140562
784.911	0.0139839
784.989	0.0138579
785.068	0.0138306
785.146	0.0137453
785.224	0.0137217
785.302	0.0136536
785.380	0.0136484
785.458	0.0136137
785.536	0.0136142
785.614	0.0136993
785.693	0.0135568
785.771	0.0137720
785.849	0.0136418
785.927	0.0136829
786.005	0.0137640
786.083	0.0137530
786.161	0.0136369
786.239	0.0136166
786.318	0.0136551
786.396	0.0137887
786.474	0.0136770
786.552	0.0137103
786.630	0.0136782
786.708	0.0137041
786.786	0.0136601
786.864	0.0136351
786.943	0.0138299
787.021	0.0136683
787.099	0.0135812
787.177	0.0137116
787.255	0.0137667
787.333	0.0135868
787.411	0.0137022
787.489	0.0138396
787.568	0.0137299
787.646	0.0138642
787.724	0.0140560
787.802	0.0139882
787.880	0.0140807
787.958	0.0139622
788.036	0.0142412
788.114	0.0141712
788.193	0.0143274
788.271	0.0145242
788.349	0.0145881
788.427	0.0144504
788.505	0.0143314
788.583	0.0144608
788.661	0.0143227
788.739	0.0143546
788.818	0.0143636
788.896	0.0141364
788.974	0.0140290
789.052	0.0139397
789.130	0.0138760
789.208	0.0136478
789.286	0.0136457
789.364	0.0133557
789.443	0.0133414
789.521	0.0132541
789.599	0.0133163
789.677	0.0132588
789.755	0.0131557
789.833	0.0131422
789.911	0.0131092
789.989	0.0130634
790.068	0.0132185
790.146	0.0131130
790.224	0.0130573
790.302	0.0131232
790.380	0.0133046
790.458	0.0133691
790.536	0.0134316
790.614	0.0134944
790.693	0.0135088
790.771	0.0136114
790.849	0.0136942
790.927	0.0137402
791.005	0.0137430
791.083	0.0137103
791.161	0.0139845
791.239	0.0140145
791.318	0.0140699
791.396	0.0140729
791.474	0.0142335
791.552	0.0141367
791.630	0.0143089
791.708	0.0144170
791.786	0.0143896
791.864	0.0145074
791.943	0.0146007
792.021	0.0145637
792.099	0.0145475
792.177	0.0143968
792.255	0.0145036
792.333	0.0144646
792.411	0.0143216
792.489	0.0143555
792.568	0.0142165
792.646	0.0139874
792.724	0.0140936
792.802	0.0139019
792.880	0.0137083
792.958	0.0138454
793.036	0.0135120
793.114	0.0134541
793.193	0.0133796
793.271	0.0132755
793.349	0.0131479
793.427	0.0129546
793.505	0.0130854
793.583	0.0130354
793.661	0.0129504
793.739	0.0129845
793.818	0.0131416
793.896	0.0131989
793.974	0.0131499
794.052	0.0131573
794.130	0.0133391
794.208	0.0134293
794.286	0.0134297
794.364	0.0134972
794.443	0.0136855
794.521	0.0137296
794.599	0.0138165
794.677	0.0139665
794.755	0.0140295
794.833	0.0140524
794.911	0.0141618
794.989	0.0142540
795.068	0.0142885
795.146	0.0142717
795.224	0.0145319
795.302	0.0145644
795.380	0.0143767
795.458	0.0145631
795.536	0.0144284
795.614	0.0144936
795.693	0.0145731
795.771	0.0142641
795.849	0.0142137
795.927	0.0143535
796.005	0.0141539
796.083	0.0141570
796.161	0.0142140
796.239	0.0141717
796.318	0.0138466
796.396	0.0139215
796.474	0.0137088
796.552	0.0136478
796.630	0.0136314
796.708	0.0135062
796.786	0.0133961
796.864	0.0134250
796.943	0.0132443
797.021	0.0132135
797.099	0.0130996
797.177	0.0131390
797.255	0.0131114
797.333	0.0130556
797.411	0.0131182
797.489	0.0131609
797.568	0.0130119
797.646	0.0130257
797.724	0.0132061
797.802	0.0132812
797.880	0.0132799
797.958	0.0133513
798.036	0.0135701
798.114	0.0135516
798.193	0.0136536
798.271	0.0139104
798.349	0.0138115
798.427	0.0139560
798.505	0.0139909
798.583	0.0140912
798.661	0.0139750
798.739	0.0141476
798.818	0.0142516
798.896	0.0141859
798.974	0.0139716
799.052	0.0141267
799.130	0.0141264
799.208	0.0141983
799.286	0.0140903
799.364	0.0142422
799.443	0.0140166
799.521	0.0140104
799.599	0.0139275
799.677	0.0139346
799.755	0.0139824
799.833	0.0140291
799.911	0.0139095
799.989	0.0139273
800.068	0.0140301
800.146	0.0140047
800.224	0.0139326
800.302	0.0139841
800.380	0.0140730
800.458	0.0139874
800.536	0.0140883
800.614	0.0139886
800.693	0.0139995
800.771	0.0140366
800.849	0.0140781
800.927	0.0138721
801.005	0.0138045
801.083	0.0137967
801.161	0.0139745
801.239	0.0137237
801.318	0.0137434
801.396	0.0136240
801.474	0.0136891
801.552	0.0137144
801.630	0.0136528
801.708	0.0134830
801.786	0.0134623
801.864	0.0135213
801.943	0.0135787
802.021	0.0134709
802.099	0.0134717
802.177	0.0134982
802.255	0.0134745
802.333	0.0134953
802.411	0.0134390
802.489	0.0135516
802.568	0.0133226
802.646	0.0135420
802.724	0.0136497
802.802	0.0134134
802.880	0.0134650
802.958	0.0135834
803.036	0.0136292
803.114	0.0135282
803.193	0.0136151
803.271	0.0136487
803.349	0.0136826
803.427	0.0136322
803.505	0.0136259
803.583	0.0137902
803.661	0.0136659
803.739	0.0138364
803.818	0.0136910
803.896	0.0137637
803.974	0.0136980
804.052	0.0137495
804.130	0.0138623
804.208	0.0138677
804.286	0.0138499
804.364	0.0138438
804.443	0.0138543
804.521	0.0140304
804.599	0.0138982
804.677	0.0139279
804.755	0.0141093
804.833	0.0140517
804.911	0.0141192
804.989	0.0142245
805.068	0.0143726
805.146	0.0143538
805.224	0.0144579
805.302	0.0144743
805.380	0.0144245
805.458	0.0145111
805.536	0.0145552
805.614	0.0145445
805.693	0.0144366
805.771	0.0144310
805.849	0.0145115
805.927	0.0145647
806.005	0.0144980
806.083	0.0143835
806.161	0.0143283
806.239	0.0143253
806.318	0.0141159
806.396	0.0140147
806.474	0.0140506
806.552	0.0138220
806.630	0.0136916
806.708	0.0137999
806.786	0.0134847
806.864	0.0133972
806.943	0.0133857
807.021	0.0133891
807.099	0.0132893
807.177	0.0131348
807.255	0.0130658
807.333	0.0130616
807.411	0.0131174
807.489	0.0130100
807.568	0.0129942
807.646	0.0131487
807.724	0.0131409
807.802	0.0131738
807.880	0.0132230
807.958	0.0131558
808.036	0.0133364
808.114	0.0136064
808.193	0.0134711
808.271	0.0134834
808.349	0.0135916
808.427	0.0135410
808.505	0.0136749
808.583	0.0138095
808.661	0.0138814
808.739	0.0137599
808.818	0.0138303
808.896	0.0138895
808.974	0.0138366
809.052	0.0137617
809.130	0.0140215
809.208	0.0140659
809.286	0.0139549
809.364	0.0140350
809.443	0.0139486
809.521	0.0138840
809.599	0.0139149
809.677	0.0139286
809.755	0.0138199
809.833	0.0139027
809.911	0.0139288
809.989	0.0138018
810.068	0.0138702
810.146	0.0137923
810.224	0.0137650
810.302	0.0137694
810.380	0.0137738
810.458	0.0138577
810.536	0.0138262
810.614	0.0138525
810.693	0.0137775
810.771	0.0139240
810.849	0.0139902
810.927	0.0140808
811.005	0.0141513
811.083	0.0141763
811.161	0.0142107
811.239	0.0142599
811.318	0.0141899
811.396	0.0141866
811.474	0.0141779
811.552	0.0142246
811.630	0.0141675
811.708	0.0142792
811.786	0.0142779
811.864	0.0142776
811.943	0.0141695
812.021	0.0141141
812.099	0.0140746
812.177	0.0141628
812.255	0.0139964
812.333	0.0139503
812.411	0.0139078
812.489	0.0139083
812.568	0.0137540
812.646	0.0135719
812.724	0.0136172
812.802	0.0135334
812.880	0.0134424
812.958	0.0133755
813.036	0.0133781
813.114	0.0132807
813.193	0.0132635
813.271	0.0131338
813.349	0.0130322
813.427	0.0131114
813.505	0.0129936
813.583	0.0130800
813.661	0.0129875
813.739	0.0129801
813.818	0.0131275
813.896	0.0132047
813.974	0.0130399
814.052	0.0133301
814.130	0.0133938
814.208	0.0134731
814.286	0.0136011
814.364	0.0135812
814.443	0.0136011
814.521	0.0137827
814.599	0.0138469
814.677	0.0137765
814.755	0.0139395
814.833	0.0139653
814.911	0.0140659
814.989	0.0140364
815.068	0.0139954
815.146	0.0143337
815.224	0.0141412
815.302	0.0139259
815.380	0.0141049
815.458	0.0140887
815.536	0.0141397
815.614	0.0140913
815.693	0.0141825
815.771	0.0141380
815.849	0.0140517
815.927	0.0139796
816.005	0.0141665
816.083	0.0140823
816.161	0.0141559
816.239	0.0139530
816.318	0.0140087
816.396	0.0139938
816.474	0.0140770
816.552	0.0139386
816.630	0.0139926
816.708	0.0139135
816.786	0.0139613
816.864	0.0140577
816.943	0.0141093
817.021	0.0139491
817.099	0.0138873
817.177	0.0140600
817.255	0.0139476
817.333	0.0138258
817.411	0.0139257
817.489	0.0140176
817.568	0.0138295
817.646	0.0139522
817.724	0.0138394
817.802	0.0136584
817.880	0.0138644
817.958	0.0137472
818.036	0.0137490
818.114	0.0137807
818.193	0.0136864
818.271	0.0136350
818.349	0.0135576
818.427	0.0134961
818.505	0.0135826
818.583	0.0135442
818.661	0.0133912
818.739	0.0134242
818.818	0.0134952
818.896	0.0134859
818.974	0.0134198
819.052	0.0134069
819.130	0.0134313
819.208	0.0131403
819.286	0.0132780
819.364	0.0132970
819.443	0.0134250
819.521	0.0133875
819.599	0.0133726
819.677	0.0134106
819.755	0.0133936
819.833	0.0135204
819.911	0.0135767
819.989	0.0136268
820.068	0.0136662
820.146	0.0139706
820.224	0.0137701
820.302	0.0139545
820.380	0.0138001
820.458	0.0139467
820.536	0.0140705
820.614	0.0139680
820.693	0.0140977
820.771	0.0140816
820.849	0.0139690
820.927	0.0140410
821.005	0.0141130
821.083	0.0141096
821.161	0.0138622
821.239	0.0138768
821.318	0.0140358
821.396	0.0139983
821.474	0.0138362
821.552	0.0138051
821.630	0.0140042
821.708	0.0139222
821.786	0.0138897
821.864	0.0137178
821.943	0.0138879
822.021	0.0141261
822.099	0.0140598
822.177	0.0140443
822.255	0.0140204
822.333	0.0140224
822.411	0.0139954
822.489	0.0140915
822.568	0.0141144
822.646	0.0142139
822.724	0.0142925
822.802	0.0142792
822.880	0.0142421
822.958	0.0142580
823.036	0.0142043
823.114	0.0141285
823.193	0.0140577
823.271	0.0141882
823.349	0.0141125
823.427	0.0140372
823.505	0.0140159
823.583	0.0139120
823.661	0.0137709
823.739	0.0137175
823.818	0.0136462
823.896	0.0136182
823.974	0.0135819
824.052	0.0135159
824.130	0.0134404
824.208	0.0133923
824.286	0.0133221
824.364	0.0132333
824.443	0.0133044
824.521	0.0134499
824.599	0.0132832
824.677	0.0132877
824.755	0.0133753
824.833	0.0133178
824.911	0.0135617
824.989	0.0134865
825.068	0.0134891
825.146	0.0134353
825.224	0.0136092
825.302	0.0135553
825.380	0.0136127
825.458	0.0136861
825.536	0.0137093
825.614	0.0135701
825.693	0.0137316
825.771	0.0137096
825.849	0.0136515
825.927	0.0137482
826.005	0.0136413
826.083	0.0137700
826.161	0.0137532
826.239	0.0137350
826.318	0.0138603
826.396	0.0139055
826.474	0.0138342
826.552	0.0138251
826.630	0.0139437
826.708	0.0140119
826.786	0.0140110
826.864	0.0139647
826.943	0.0138912
827.021	0.0140259
827.099	0.0138370
827.177	0.0140629
827.255	0.0140326
827.333	0.0140846
827.411	0.0140421
827.489	0.0140285
827.568	0.0143034
827.646	0.0140372
827.724	0.0140477
827.802	0.0141966
827.880	0.0142968
827.958	0.0143250
828.036	0.0142120
828.114	0.0143234
828.193	0.0141969
828.271	0.0143343
828.349	0.0141972
828.427	0.0142373
828.505	0.0142819
828.583	0.0144347
828.661	0.0141421
828.739	0.0141979
828.818	0.0141449
828.896	0.0141033
828.974	0.0140989
829.052	0.0140295
829.130	0.0139449
829.208	0.0139074
829.286	0.0137467
829.364	0.0137041
829.443	0.0135123
829.521	0.0134672
829.599	0.0134187
829.677	0.0133668
829.755	0.0133161
829.833	0.0132523
829.911	0.0132042
829.989	0.0130961
830.068	0.0131859
830.146	0.0130872
830.224	0.0132551
830.302	0.0131166
830.380	0.0132261
830.458	0.0132721
830.536	0.0133553
830.614	0.0133690
830.693	0.0133898
830.771	0.0133810
830.849	0.0133806
830.927	0.0135372
831.005	0.0137067
831.083	0.0137965
831.161	0.0138517
831.239	0.0138197
831.318	0.0138432
831.396	0.0138363
831.474	0.0138477
831.552	0.0140029
831.630	0.0139619
831.708	0.0142205
831.786	0.0141582
831.864	0.0141047
831.943	0.0142639
832.021	0.0142538
832.099	0.0142291
832.177	0.0141985
832.255	0.0142263
832.333	0.0142358
832.411	0.0141943
832.489	0.0142830
832.568	0.0141827
832.646	0.0142434
832.724	0.0141138
832.802	0.0142177
832.880	0.0142225
832.958	0.0142348
833.036	0.0140124
833.114	0.0140840
833.193	0.0141138
833.271	0.0139161
833.349	0.0139957
833.427	0.0139368
833.505	0.0139757
833.583	0.0138213
833.661	0.0138065
833.739	0.0137674
833.818	0.0138534
833.896	0.0137283
833.974	0.0137554
834.052	0.0137418
834.130	0.0135217
834.208	0.0135741
834.286	0.0135219
834.364	0.0135287
834.443	0.0136565
834.521	0.0135760
834.599	0.0137419
834.677	0.0135611
834.755	0.0136579
834.833	0.0136189
834.911	0.0136514
834.989	0.0136832
835.068	0.0137320
835.146	0.0137659
835.224	0.0138332
835.302	0.0139230
835.380	0.0138060
835.458	0.0136816
835.536	0.0139775
835.614	0.0138898
835.693	0.0137951
835.771	0.0139175
835.849	0.0140292
835.927	0.0139738
836.005	0.0139586
836.083	0.0139384
836.161	0.0139413
836.239	0.0139053
836.318	0.0140744
836.396	0.0140886
836.474	0.0140672
836.552	0.0139387
836.630	0.0139169
836.708	0.0138837
836.786	0.0138995
836.864	0.0138481
836.943	0.0139059
837.021	0.0138558
837.099	0.0136861
837.177	0.0136159
837.255	0.0136349
837.333	0.0135967
837.411	0.0136756
837.489	0.0135791
837.568	0.0132761
837.646	0.0133170
837.724	0.0133352
837.802	0.0133695
837.880	0.0133290
837.958	0.0133111
838.036	0.0133868
838.114	0.0133251
838.193	0.0134321
838.271	0.0135716
838.349	0.0135839
838.427	0.0137312
838.505	0.0137987
838.583	0.0135812
838.661	0.0135860
838.739	0.0138710
838.818	0.0138766
838.896	0.0138233
838.974	0.0139342
839.052	0.0139671
839.130	0.0141215
839.208	0.0140816
839.286	0.0138844
839.364	0.0140792
839.443	0.0140149
839.521	0.0140161
839.599	0.0140913
839.677	0.0140526
839.755	0.0140854
839.833	0.0141692
839.911	0.0142168
839.989	0.0139782
840.068	0.0140263
840.146	0.0141648
840.224	0.0142062
840.302	0.0142362
840.380	0.0142471
840.458	0.0142967
840.536	0.0142038
840.614	0.0144065
840.693	0.0143244
840.771	0.0142242
840.849	0.0144443
840.927	0.0145004
841.005	0.0143505
841.083	0.0141952
841.161	0.0142522
841.239	0.0143291
841.318	0.0140911
841.396	0.0139821
841.474	0.0140038
841.552	0.0139544
841.630	0.0138989
841.708	0.0138213
841.786	0.0137490
841.864	0.0136634
841.943	0.0135488
842.021	0.0134365
842.099	0.0133028
842.177	0.0133369
842.255	0.0132256
842.333	0.0130602
842.411	0.0130247
842.489	0.0131747
842.568	0.0130950
842.646	0.0129736
842.724	0.0131498
842.802	0.0130312
842.880	0.0129250
842.958	0.0131667
843.036	0.0130915
843.114	0.0132248
843.193	0.0132746
843.271	0.0133280
843.349	0.0132235
843.427	0.0133754
843.505	0.0134896
843.583	0.0133923
843.661	0.0135966
843.739	0.0136270
843.818	0.0138152
843.896	0.0138533
843.974	0.0139095
844.052	0.0141090
844.130	0.0140424
844.208	0.0142239
844.286	0.0143953
844.364	0.0144061
844.443	0.0144113
844.521	0.0144427
844.599	0.0144227
844.677	0.0145604
844.755	0.0145784
844.833	0.0146322
844.911	0.0145515
844.989	0.0146267
845.068	0.0144833
845.146	0.0145236
845.224	0.0144821
845.302	0.0143169
845.380	0.0142474
845.458	0.0142841
845.536	0.0140284
845.614	0.0140889
845.693	0.0140399
845.771	0.0140148
845.849	0.0138786
845.927	0.0138568
846.005	0.0138409
846.083	0.0138957
846.161	0.0137106
846.239	0.0136654
846.318	0.0136929
846.396	0.0137184
846.474	0.0135725
846.552	0.0138134
846.630	0.0137460
846.708	0.0136958
846.786	0.0137692
846.864	0.0137514
846.943	0.0137742
847.021	0.0137210
847.099	0.0138760
847.177	0.0137051
847.255	0.0137346
847.333	0.0138100
847.411	0.0138694
847.489	0.0137980
847.568	0.0137015
847.646	0.0137856
847.724	0.0137492
847.802	0.0139063
847.880	0.0138464
847.958	0.0139533
848.036	0.0139696
848.114	0.0139709
848.193	0.0138817
848.271	0.0138345
848.349	0.0140508
848.427	0.0138634
848.505	0.0138184
848.583	0.0138336
848.661	0.0139715
848.739	0.0140094
848.818	0.0137907
848.896	0.0138351
848.974	0.0138261
849.052	0.0137920
849.130	0.0136887
849.208	0.0138876
849.286	0.0136129
849.364	0.0137390
849.443	0.0137032
849.521	0.0135971
849.599	0.0135855
849.677	0.0135555
849.755	0.0136537
849.833	0.0134795
849.911	0.0134042
849.989	0.0134032
850.068	0.0136021
850.146	0.0134156
850.224	0.0135645
850.302	0.0135624
850.380	0.0135903
850.458	0.0136673
850.536	0.0136906
850.614	0.0138017
850.693	0.0138626
850.771	0.0138153
850.849	0.0138598
850.927	0.0139319
851.005	0.0140005
851.083	0.0140464
851.161	0.0142927
851.239	0.0141613
851.318	0.0140816
851.396	0.0141187
851.474	0.0141658
851.552	0.0141981
851.630	0.0141577
851.708	0.0140308
851.786	0.0141100
851.864	0.0141349
851.943	0.0141659
852.021	0.0141180
852.099	0.0139798
852.177	0.0140833
852.255	0.0140556
852.333	0.0140302
852.411	0.0139364
852.489	0.0139346
852.568	0.0139775
852.646	0.0139937
852.724	0.0139536
852.802	0.0139043
852.880	0.0139183
852.958	0.0138454
853.036	0.0139195
853.114	0.0137924
853.193	0.0137338
853.271	0.0139098
853.349	0.0139207
853.427	0.0138957
853.505	0.0139111
853.583	0.0137907
853.661	0.0137852
853.739	0.0138760
853.818	0.0138567
853.896	0.0137714
853.974	0.0139292
854.052	0.0137153
854.130	0.0137057
854.208	0.0136395
854.286	0.0137125
854.364	0.0137292
854.443	0.0136543
854.521	0.0137152
854.599	0.0136685
854.677	0.0136282
854.755	0.0136380
854.833	0.0135273
854.911	0.0134332
854.989	0.0135123
855.068	0.0135670
855.146	0.0134549
855.224	0.0133331
855.302	0.0134707
855.380	0.0133344
855.458	0.0134521
855.536	0.0133508
855.614	0.0135361
855.693	0.0134953
855.771	0.0135206
855.849	0.0136320
855.927	0.0136961
856.005	0.0136438
856.083	0.0137859
856.161	0.0137929
856.239	0.0138306
856.318	0.0139589
856.396	0.0140194
856.474	0.0141537
856.552	0.0142204
856.630	0.0140193
856.708	0.0143119
856.786	0.0143015
856.864	0.0141812
856.943	0.0142567
857.021	0.0143137
857.099	0.0144021
857.177	0.0142588
857.255	0.0141827
857.333	0.0141099
857.411	0.0141000
857.489	0.0140938
857.568	0.0141851
857.646	0.0141010
857.724	0.0139129
857.802	0.0138731
857.880	0.0138962
857.958	0.0138507
858.036	0.0137579
858.114	0.0138454
858.193	0.0137128
858.271	0.0137315
858.349	0.0137155
858.427	0.0137228
858.505	0.0137642
858.583	0.0136511
858.661	0.0135801
858.739	0.0137054
858.818	0.0137299
858.896	0.0138266
858.974	0.0137469
859.052	0.0136941
859.130	0.0137913
859.208	0.0137866
859.286	0.0139173
859.364	0.0138347
859.443	0.0139323
859.521	0.0137988
859.599	0.0139492
859.677	0.0140108
859.755	0.0139311
859.833	0.0139343
859.911	0.0138602
859.989	0.0139410
860.068	0.0138901
860.146	0.0141032
860.224	0.0139806
860.302	0.0136715
860.380	0.0137779
860.458	0.0136897
860.536	0.0135459
860.614	0.0136474
860.693	0.0136480
860.771	0.0134576
860.849	0.0135375
860.927	0.0136501
861.005	0.0135679
861.083	0.0135486
861.161	0.0134118
861.239	0.0134212
861.318	0.0136228
861.396	0.0135605
861.474	0.0134945
861.552	0.0136605
861.630	0.0136700
861.708	0.0136266
861.786	0.0136370
861.864	0.0138474
861.943	0.0137666
862.021	0.0139181
862.099	0.0138190
862.177	0.0138545
862.255	0.0138561
862.333	0.0138957
862.411	0.0139754
862.489	0.0138081
862.568	0.0139149
862.646	0.0139316
862.724	0.0139012
862.802	0.0140605
862.880	0.0139501
862.958	0.0139870
863.036	0.0142246
863.114	0.0140484
863.193	0.0139839
863.271	0.0139304
863.349	0.0140416
863.427	0.0139736
863.505	0.0140115
863.583	0.0141819
863.661	0.0140451
863.739	0.0140298
863.818	0.0140719
863.896	0.0140530
863.974	0.0141003
864.052	0.0141183
864.130	0.0140016
864.208	0.0140485
864.286	0.0140556
864.364	0.0141011
864.443	0.0139896
864.521	0.0138851
864.599	0.0138594
864.677	0.0138927
864.755	0.0138660
864.833	0.0137022
864.911	0.0138082
864.989	0.0137905
865.068	0.0137930
865.146	0.0137722
865.224	0.0136601
865.302	0.0136198
865.380	0.0136280
865.458	0.0138028
865.536	0.0136781
865.614	0.0136173
865.693	0.0136212
865.771	0.0137888
865.849	0.0138213
865.927	0.0137267
866.005	0.0137824
866.083	0.0138017
866.161	0.0138291
866.239	0.0138699
866.318	0.0139967
866.396	0.0138779
866.474	0.0139861
866.552	0.0140047
866.630	0.0139037
866.708	0.0138776
866.786	0.0139179
866.864	0.0139094
866.943	0.0140184
867.021	0.0139112
867.099	0.0138095
867.177	0.0138157
867.255	0.0138966
867.333	0.0139503
867.411	0.0138122
867.489	0.0138350
867.568	0.0139367
867.646	0.0136724
867.724	0.0136927
867.802	0.0138888
867.880	0.0136964
867.958	0.0138322
868.036	0.0136555
868.114	0.0135930
868.193	0.0135851
868.271	0.0136367
868.349	0.0137226
868.427	0.0137441
868.505	0.0136452
868.583	0.0137924
868.661	0.0136928
868.739	0.0137076
868.818	0.0136976
868.896	0.0135699
868.974	0.0136058
869.052	0.0136964
869.130	0.0138403
869.208	0.0138405
869.286	0.0137592
869.364	0.0139880
869.443	0.0139066
869.521	0.0140102
869.599	0.0141236
869.677	0.0141351
869.755	0.0141522
869.833	0.0141061
869.911	0.0140687
869.989	0.0143631
870.068	0.0141579
870.146	0.0142496
870.224	0.0141802
870.302	0.0141112
870.380	0.0141184
870.458	0.0142007
870.536	0.0140520
870.614	0.0139351
870.693	0.0140802
870.771	0.0140931
870.849	0.0141276
870.927	0.0140411
871.005	0.0138988
871.083	0.0139317
871.161	0.0139666
871.239	0.0137869
871.318	0.0137960
871.396	0.0136604
871.474	0.0137003
871.552	0.0137617
871.630	0.0137902
871.708	0.0136895
871.786	0.0137427
871.864	0.0136514
871.943	0.0137893
872.021	0.0138148
872.099	0.0138258
872.177	0.0137658
872.255	0.0136983
872.333	0.0138187
872.411	0.0137054
872.489	0.0137449
872.568	0.0136917
872.646	0.0136994
872.724	0.0136037
872.802	0.0134624
872.880	0.0136169
872.958	0.0135406
873.036	0.0134510
873.114	0.0135303
873.193	0.0134866
873.271	0.0136362
873.349	0.0135458
873.427	0.0135748
873.505	0.0135493
873.583	0.0136052
873.661	0.0135848
873.739	0.0136623
873.818	0.0137632
873.896	0.0137496
873.974	0.0136136
874.052	0.0138726
874.130	0.0138331
874.208	0.0136538
874.286	0.0138382
874.364	0.0137949
874.443	0.0139131
874.521	0.0138158
874.599	0.0137440
874.677	0.0138683
874.755	0.0139410
874.833	0.0138438
874.911	0.0140114
874.989	0.0139847
875.068	0.0139706
875.146	0.0139585
875.224	0.0139912
875.302	0.0139749
875.380	0.0140546
875.458	0.0139311
875.536	0.0140765
875.614	0.0140182
875.693	0.0139908
875.771	0.0138794
875.849	0.0140971
875.927	0.0140774
876.005	0.0139063
876.083	0.0140239
876.161	0.0140634
876.239	0.0139577
876.318	0.0139805
876.396	0.0140147
876.474	0.0139236
876.552	0.0139907
876.630	0.0140100
876.708	0.0138443
876.786	0.0138110
876.864	0.0139636
876.943	0.0138897
877.021	0.0136494
877.099	0.0137333
877.177	0.0135454
877.255	0.0136364
877.333	0.0135968
877.411	0.0136245
877.489	0.0134523
877.568	0.0135770
877.646	0.0136741
877.724	0.0135779
877.802	0.0135215
877.880	0.0134688
877.958	0.0135456
878.036	0.0135010
878.114	0.0135349
878.193	0.0134859
878.271	0.0136251
878.349	0.0134737
878.427	0.0135596
878.505	0.0135799
878.583	0.0137192
878.661	0.0136115
878.739	0.0136390
878.818	0.0138351
878.896	0.0138010
878.974	0.0137074
879.052	0.0137650
879.130	0.0138410
879.208	0.0138815
879.286	0.0139305
879.364	0.0139677
879.443	0.0139229
879.521	0.0138325
879.599	0.0139915
879.677	0.0139705
879.755	0.0138181
879.833	0.0139437
879.911	0.0139637
879.989	0.0140188
880.068	0.0139046
880.146	0.0140571
880.224	0.0139849
880.302	0.0138326
880.380	0.0137784
880.458	0.0137892
880.536	0.0137717
880.614	0.0138932
880.693	0.0137667
880.771	0.0137198
880.849	0.0137648
880.927	0.0137807
881.005	0.0139120
881.083	0.0137490
881.161	0.0138982
881.239	0.0137955
881.318	0.0139428
881.396	0.0140150
881.474	0.0139044
881.552	0.0139358
881.630	0.0139132
881.708	0.0137714
881.786	0.0139028
881.864	0.0139055
881.943	0.0138602
882.021	0.0138821
882.099	0.0138802
882.177	0.0137746
882.255	0.0140362
882.333	0.0140163
882.411	0.0139399
882.489	0.0139674
882.568	0.0140780
882.646	0.0139756
882.724	0.0140543
882.802	0.0139097
882.880	0.0141004
882.958	0.0140344
883.036	0.0137736
883.114	0.0139644
883.193	0.0138217
883.271	0.0138182
883.349	0.0138535
883.427	0.0137271
883.505	0.0136729
883.583	0.0137344
883.661	0.0136367
883.739	0.0136623
883.818	0.0136840
883.896	0.0136027
883.974	0.0135258
884.052	0.0133727
884.130	0.0134244
884.208	0.0134184
884.286	0.0135861
884.364	0.0134376
884.443	0.0134966
884.521	0.0133501
884.599	0.0134630
884.677	0.0133885
884.755	0.0134109
884.833	0.0133636
884.911	0.0134463
884.989	0.0135355
885.068	0.0135690
885.146	0.0136121
885.224	0.0134663
885.302	0.0135912
885.380	0.0137176
885.458	0.0137025
885.536	0.0138529
885.614	0.0138421
885.693	0.0137543
885.771	0.0139263
885.849	0.0139534
885.927	0.0140961
886.005	0.0139803
886.083	0.0141666
886.161	0.0142324
886.239	0.0141948
886.318	0.0142882
886.396	0.0143194
886.474	0.0144060
886.552	0.0144252
886.630	0.0144466
886.708	0.0144157
886.786	0.0145069
886.864	0.0146581
886.943	0.0144984
887.021	0.0143671
887.099	0.0142702
887.177	0.0142805
887.255	0.0142011
887.333	0.0140451
887.411	0.0141211
887.489	0.0141019
887.568	0.0138360
887.646	0.0136383
887.724	0.0136173
887.802	0.0136457
887.880	0.0135274
887.958	0.0133611
888.036	0.0133375
888.114	0.0135190
888.193	0.0134509
888.271	0.0133082
888.349	0.0135301
888.427	0.0133987
888.505	0.0134398
888.583	0.0134477
888.661	0.0135636
888.739	0.0134746
888.818	0.0135918
888.896	0.0136323
888.974	0.0137271
889.052	0.0136431
889.130	0.0136848
889.208	0.0138216
889.286	0.0136943
889.364	0.0137921
889.443	0.0138721
889.521	0.0138171
889.599	0.0138126
889.677	0.0137686
889.755	0.0139693
889.833	0.0139461
889.911	0.0138972
889.989	0.0140841
890.068	0.0140254
890.146	0.0138680
890.224	0.0139469
890.302	0.0138717
890.380	0.0138832
890.458	0.0139787
890.536	0.0139306
890.614	0.0140026
890.693	0.0139322
890.771	0.0137844
890.849	0.0138931
890.927	0.0138076
891.005	0.0138017
891.083	0.0139318
891.161	0.0138513
891.239	0.0138280
891.318	0.0137402
891.396	0.0138050
891.474	0.0136863
891.552	0.0136378
891.630	0.0137010
891.708	0.0136584
891.786	0.0135587
891.864	0.0135355
891.943	0.0135615
892.021	0.0136903
892.099	0.0137020
892.177	0.0135274
892.255	0.0134785
892.333	0.0136511
892.411	0.0135424
892.489	0.0137579
892.568	0.0138473
892.646	0.0139817
892.724	0.0138792
892.802	0.0140065
892.880	0.0139481
892.958	0.0141296
893.036	0.0140582
893.114	0.0141003
893.193	0.0140986
893.271	0.0139811
893.349	0.0142210
893.427	0.0142332
893.505	0.0141297
893.583	0.0141733
893.661	0.0141175
893.739	0.0141466
893.818	0.0142061
893.896	0.0140415
893.974	0.0141595
894.052	0.0140343
894.130	0.0139729
894.208	0.0139441
894.286	0.0138098
894.364	0.0138422
894.443	0.0137216
894.521	0.0138998
894.599	0.0138675
894.677	0.0136069
894.755	0.0135495
894.833	0.0136591
894.911	0.0137031
894.989	0.0134803
895.068	0.0136330
895.146	0.0136359
895.224	0.0137408
895.302	0.0137286
895.380	0.0137807
895.458	0.0138887
895.536	0.0137791
895.614	0.0138863
895.693	0.0136563
895.771	0.0138730
895.849	0.0138469
895.927	0.0138642
896.005	0.0137843
896.083	0.0138751
896.161	0.0138892
896.239	0.0139652
896.318	0.0138625
896.396	0.0138527
896.474	0.0138089
896.552	0.0138110
896.630	0.0137984
896.708	0.0137526
896.786	0.0135786
896.864	0.0136465
896.943	0.0137443
897.021	0.0135728
897.099	0.0135316
897.177	0.0136485
897.255	0.0135640
897.333	0.0134306
897.411	0.0134178
897.489	0.0135167
897.568	0.0135548
897.646	0.0135045
897.724	0.0136765
897.802	0.0137338
897.880	0.0138049
897.958	0.0137970
898.036	0.0138126
898.114	0.0139066
898.193	0.0139664
898.271	0.0141486
898.349	0.0140277
898.427	0.0141308
898.505	0.0141276
898.583	0.0141694
898.661	0.0141451
898.739	0.0140292
898.818	0.0141910
898.896	0.0141484
898.974	0.0141558
899.052	0.0140530
899.130	0.0139545
899.208	0.0139276
899.286	0.0138889
899.364	0.0138412
899.443	0.0139498
899.521	0.0137499
899.599	0.0136565
899.677	0.0137044
899.755	0.0136395
899.833	0.0135751
899.911	0.0133559
899.989	0.0134530
900.068	0.0134899
900.146	0.0134545
900.224	0.0135329
900.302	0.0136210
900.380	0.0136449
900.458	0.0134641
900.536	0.0134668
900.614	0.0137440
900.693	0.0135472
900.771	0.0138293
900.849	0.0137485
900.927	0.0139973
901.005	0.0140660
901.083	0.0139096
901.161	0.0138885
901.239	0.0139488
901.318	0.0141572
901.396	0.0139732
901.474	0.0138286
901.552	0.0137702
901.630	0.0137893
901.708	0.0138748
901.786	0.0137672
901.864	0.0139613
901.943	0.0138363
902.021	0.0136339
902.099	0.0137827
902.177	0.0138066
902.255	0.0138065
902.333	0.0138670
902.411	0.0137337
902.489	0.0135823
902.568	0.0136726
902.646	0.0137874
902.724	0.0137032
902.802	0.0138103
902.880	0.0137099
902.958	0.0137589
903.036	0.0137739
903.114	0.0137905
903.193	0.0139162
903.271	0.0139609
903.349	0.0138678
903.427	0.0139626
903.505	0.0139787
903.583	0.0140105
903.661	0.0140269
903.739	0.0139140
903.818	0.0140662
903.896	0.0140403
903.974	0.0139602
904.052	0.0137630
904.130	0.0138691
904.208	0.0136827
904.286	0.0136625
904.364	0.0136642
904.443	0.0136238
904.521	0.0136031
904.599	0.0134858
904.677	0.0133990
904.755	0.0134472
904.833	0.0136149
904.911	0.0136205
904.989	0.0136401
905.068	0.0137319
905.146	0.0135938
905.224	0.0135876
905.302	0.0138404
905.380	0.0138543
905.458	0.0139764
905.536	0.0139755
905.614	0.0138744
905.693	0.0139757
905.771	0.0140288
905.849	0.0139758
905.927	0.0140842
906.005	0.0140356
906.083	0.0140341
906.161	0.0140105
906.239	0.0139058
906.318	0.0141399
906.396	0.0139712
906.474	0.0139133
906.552	0.0139294
906.630	0.0139860
906.708	0.0138860
906.786	0.0140189
906.864	0.0139291
906.943	0.0140106
907.021	0.0138660
907.099	0.0138479
907.177	0.0138649
907.255	0.0140108
907.333	0.0139384
907.411	0.0138728
907.489	0.0138025
907.568	0.0138814
907.646	0.0137262
907.724	0.0138006
907.802	0.0138692
907.880	0.0138119
907.958	0.0136932
908.036	0.0136608
908.114	0.0137002
908.193	0.0136583
908.271	0.0136378
908.349	0.0136151
908.427	0.0136049
908.505	0.0135968
908.583	0.0137107
908.661	0.0137369
908.739	0.0139656
908.818	0.0137531
908.896	0.0138744
908.974	0.0139243
909.052	0.0139621
909.130	0.0141076
909.208	0.0141203
909.286	0.0141279
909.364	0.0141629
909.443	0.0142281
909.521	0.0143559
909.599	0.0141711
909.677	0.0142393
909.755	0.0141515
909.833	0.0141849
909.911	0.0140966
909.989	0.0140874
910.068	0.0140044
910.146	0.0139375
910.224	0.0136820
910.302	0.0138155
910.380	0.0136790
910.458	0.0136288
910.536	0.0135158
910.614	0.0135853
910.693	0.0134270
910.771	0.0135181
910.849	0.0135379
910.927	0.0136598
911.005	0.0136490
911.083	0.0134511
911.161	0.0137273
911.239	0.0135739
911.318	0.0136376
911.396	0.0136293
911.474	0.0137070
911.552	0.0137763
911.630	0.0138361
911.708	0.0138909
911.786	0.0138621
911.864	0.0140550
911.943	0.0140226
912.021	0.0139327
912.099	0.0140054
912.177	0.0140299
912.255	0.0139900
912.333	0.0140977
912.411	0.0140046
912.489	0.0141711
912.568	0.0138728
912.646	0.0139165
912.724	0.0138988
912.802	0.0138844
912.880	0.0138449
912.958	0.0136310
913.036	0.0136546
913.114	0.0138428
913.193	0.0136433
913.271	0.0136615
913.349	0.0136012
913.427	0.0135976
913.505	0.0135979
913.583	0.0137836
913.661	0.0137009
913.739	0.0137380
913.818	0.0138171
913.896	0.0139291
913.974	0.0138041
914.052	0.0139304
914.130	0.0139403
914.208	0.0139958
914.286	0.0140008
914.364	0.0140022
914.443	0.0140338
914.521	0.0140478
914.599	0.0139837
914.677	0.0140829
914.755	0.0140718
914.833	0.0140083
914.911	0.0140085
914.989	0.0140945
915.068	0.0140967
915.146	0.0140620
915.224	0.0141460
915.302	0.0140453
915.380	0.0140513
915.458	0.0141324
915.536	0.0141128
915.614	0.0139175
915.693	0.0139217
915.771	0.0138640
915.849	0.0138348
915.927	0.0137387
916.005	0.0136391
916.083	0.0136638
916.161	0.0136180
916.239	0.0136909
916.318	0.0136852
916.396	0.0135461
916.474	0.0135612
916.552	0.0136530
916.630	0.0135104
916.708	0.0135582
916.786	0.0134106
916.864	0.0135527
916.943	0.0134296
917.021	0.0133849
917.099	0.0135356
917.177	0.0134575
917.255	0.0135226
917.333	0.0135529
917.411	0.0136177
917.489	0.0136420
917.568	0.0135880
917.646	0.0136462
917.724	0.0138216
917.802	0.0138417
917.880	0.0136676
917.958	0.0138267
918.036	0.0138775
918.114	0.0139183
918.193	0.0137482
918.271	0.0137784
918.349	0.0137450
918.427	0.0136115
918.505	0.0135870
918.583	0.0135696
918.661	0.0136053
918.739	0.0135992
918.818	0.0136331
918.896	0.0136390
918.974	0.0136626
919.052	0.0136722
919.130	0.0137783
919.208	0.0139158
919.286	0.0139645
919.364	0.0139066
919.443	0.0139046
919.521	0.0140269
919.599	0.0140218
919.677	0.0140985
919.755	0.0141521
919.833	0.0141473
919.911	0.0141381
919.989	0.0141219
920.068	0.0141643
920.146	0.0140371
920.224	0.0140924
920.302	0.0140379
920.380	0.0139562
920.458	0.0140080
920.536	0.0139286
920.614	0.0139273
920.693	0.0139272
920.771	0.0138579
920.849	0.0139383
920.927	0.0139267
921.005	0.0137347
921.083	0.0138181
921.161	0.0138583
921.239	0.0137923
921.318	0.0138253
921.396	0.0138043
921.474	0.0138008
921.552	0.0137103
921.630	0.0137703
921.708	0.0137736
921.786	0.0136887
921.864	0.0138004
921.943	0.0136818
922.021	0.0137145
922.099	0.0136838
922.177	0.0137643
922.255	0.0136118
922.333	0.0136919
922.411	0.0135226
922.489	0.0136257
922.568	0.0135291
922.646	0.0136553
922.724	0.0136186
922.802	0.0136954
922.880	0.0137099
922.958	0.0137254
923.036	0.0138470
923.114	0.0136604
923.193	0.0135551
923.271	0.0137914
923.349	0.0138036
923.427	0.0138516
923.505	0.0138459
923.583	0.0139289
923.661	0.0138332
923.739	0.0138850
923.818	0.0138094
923.896	0.0138380
923.974	0.0138789
924.052	0.0138693
924.130	0.0139759
924.208	0.0138427
924.286	0.0139275
924.364	0.0138064
924.443	0.0139082
924.521	0.0138880
924.599	0.0139388
924.677	0.0139453
924.755	0.0138696
924.833	0.0137701
924.911	0.0137998
924.989	0.0138879
925.068	0.0139357
925.146	0.0138960
925.224	0.0139458
925.302	0.0139974
925.380	0.0139735
925.458	0.0141143
925.536	0.0141098
925.614	0.0141769
925.693	0.0140965
925.771	0.0142684
925.849	0.0142149
925.927	0.0141571
926.005	0.0141804
926.083	0.0141669
926.161	0.0141574
926.239	0.0141690
926.318	0.0140829
926.396	0.0139626
926.474	0.0140567
926.552	0.0139230
926.630	0.0139882
926.708	0.0138794
926.786	0.0139722
926.864	0.0138681
926.943	0.0139230
927.021	0.0140054
927.099	0.0138239
927.177	0.0139504
927.255	0.0138664
927.333	0.0139230
927.411	0.0139105
927.489	0.0138979
927.568	0.0139005
927.646	0.0139866
927.724	0.0141328
927.802	0.0138586
927.880	0.0137012
927.958	0.0139219
928.036	0.0138841
928.114	0.0139859
928.193	0.0139450
928.271	0.0137479
928.349	0.0137421
928.427	0.0136431
928.505	0.0136237
928.583	0.0136409
928.661	0.0134983
928.739	0.0135863
928.818	0.0136676
928.896	0.0135743
928.974	0.0134252
929.052	0.0135448
929.130	0.0135358
929.208	0.0136722
929.286	0.0135921
929.364	0.0136012
929.443	0.0135841
929.521	0.0137726
929.599	0.0137379
929.677	0.0139771
929.755	0.0138985
929.833	0.0139516
929.911	0.0141132
929.989	0.0140674
930.068	0.0141036
930.146	0.0140559
930.224	0.0140366
930.302	0.0140237
930.380	0.0141644
930.458	0.0139910
930.536	0.0140279
930.614	0.0140889
930.693	0.0140411
930.771	0.0139111
930.849	0.0138670
930.927	0.0139285
931.005	0.0138271
931.083	0.0137454
931.161	0.0139256
931.239	0.0139446
931.318	0.0137167
931.396	0.0137113
931.474	0.0138570
931.552	0.0137533
931.630	0.0140191
931.708	0.0138666
931.786	0.0137995
931.864	0.0138867
931.943	0.0139527
932.021	0.0137384
932.099	0.0139707
932.177	0.0139154
932.255	0.0139207
932.333	0.0139019
932.411	0.0139046
932.489	0.0140016
932.568	0.0140409
932.646	0.0139053
932.724	0.0139848
932.802	0.0138947
932.880	0.0138237
932.958	0.0139182
933.036	0.0139005
933.114	0.0138516
933.193	0.0138785
933.271	0.0138533
933.349	0.0139551
933.427	0.0139185
933.505	0.0138754
933.583	0.0137789
933.661	0.0137824
933.739	0.0137988
933.818	0.0138418
933.896	0.0139670
933.974	0.0139265
934.052	0.0139156
934.130	0.0139150
934.208	0.0138706
934.286	0.0138236
934.364	0.0136588
934.443	0.0137492
934.521	0.0135738
934.599	0.0136291
934.677	0.0136382
934.755	0.0137183
934.833	0.0135033
934.911	0.0135828
934.989	0.0136670
935.068	0.0136662
935.146	0.0135844
935.224	0.0136749
935.302	0.0136178
935.380	0.0137746
935.458	0.0137520
935.536	0.0138701
935.614	0.0138190
935.693	0.0139233
935.771	0.0137659
935.849	0.0138943
935.927	0.0138634
936.005	0.0140057
936.083	0.0140673
936.161	0.0138029
936.239	0.0139097
936.318	0.0139035
936.396	0.0139995
936.474	0.0140404
936.552	0.0139754
936.630	0.0137846
936.708	0.0138179
936.786	0.0138306
936.864	0.0138013
936.943	0.0138331
937.021	0.0139017
937.099	0.0136980
937.177	0.0136573
937.255	0.0137419
937.333	0.0138754
937.411	0.0136868
937.489	0.0135801
937.568	0.0137999
937.646	0.0139789
937.724	0.0138094
937.802	0.0139587
937.880	0.0140627
937.958	0.0141129
938.036	0.0140070
938.114	0.0140210
938.193	0.0141019
938.271	0.0140873
938.349	0.0139793
938.427	0.0140869
938.505	0.0140293
938.583	0.0140206
938.661	0.0139152
938.739	0.0137386
938.818	0.0139199
938.896	0.0138156
938.974	0.0137658
939.052	0.0137527
939.130	0.0137282
939.208	0.0137492
939.286	0.0137955
939.364	0.0137887
939.443	0.0136388
939.521	0.0136514
939.599	0.0136727
939.677	0.0136230
939.755	0.0136322
939.833	0.0137616
939.911	0.0136402
939.989	0.0137700
940.068	0.0136725
940.146	0.0135955
940.224	0.0137130
940.302	0.0136758
940.380	0.0136398
940.458	0.0137168
940.536	0.0136446
940.614	0.0136021
940.693	0.0136585
940.771	0.0136705
940.849	0.0136121
940.927	0.0137682
941.005	0.0136259
941.083	0.0137022
941.161	0.0137189
941.239	0.0137260
941.318	0.0137288
941.396	0.0138679
941.474	0.0138866
941.552	0.0138383
941.630	0.0140441
941.708	0.0139801
941.786	0.0139529
941.864	0.0140798
941.943	0.0141433
942.021	0.0140965
942.099	0.0141614
942.177	0.0141608
942.255	0.0142374
942.333	0.0142412
942.411	0.0142517
942.489	0.0142756
942.568	0.0143436
942.646	0.0141833
942.724	0.0140025
942.802	0.0140420
942.880	0.0139355
942.958	0.0139809
943.036	0.0138598
943.114	0.0137212
943.193	0.0138077
943.271	0.0134257
943.349	0.0136087
943.427	0.0135736
943.505	0.0135598
943.583	0.0133735
943.661	0.0133738
943.739	0.0134668
943.818	0.0133739
943.896	0.0135110
943.974	0.0133822
944.052	0.0134741
944.130	0.0134415
944.208	0.0134618
944.286	0.0135486
944.364	0.0135538
944.443	0.0135493
944.521	0.0137501
944.599	0.0137207
944.677	0.0137195
944.755	0.0138882
944.833	0.0139304
944.911	0.0137870
944.989	0.0139011
945.068	0.0139803
945.146	0.0138658
945.224	0.0138917
945.302	0.0140120
945.380	0.0140482
945.458	0.0141911
945.536	0.0141515
945.614	0.0138732
945.693	0.0139466
945.771	0.0141651
945.849	0.0142659
945.927	0.0141275
946.005	0.0140082
946.083	0.0141093
946.161	0.0139764
946.239	0.0139912
946.318	0.0139810
946.396	0.0139566
946.474	0.0139417
946.552	0.0138596
946.630	0.0138441
946.708	0.0137860
946.786	0.0137722
946.864	0.0137521
946.943	0.0138166
947.021	0.0137475
947.099	0.0136842
947.177	0.0136810
947.255	0.0136875
947.333	0.0137196
947.411	0.0136759
947.489	0.0136091
947.568	0.0138283
947.646	0.0137521
947.724	0.0138097
947.802	0.0137809
947.880	0.0137746
947.958	0.0138584
948.036	0.0139847
948.114	0.0138758
948.193	0.0139286
948.271	0.0140379
948.349	0.0140133
948.427	0.0140831
948.505	0.0140434
948.583	0.0140222
948.661	0.0140447
948.739	0.0139794
948.818	0.0140791
948.896	0.0140346
948.974	0.0140545
949.052	0.0140148
949.130	0.0139100
949.208	0.0140456
949.286	0.0139600
949.364	0.0139626
949.443	0.0139916
949.521	0.0139615
949.599	0.0139027
949.677	0.0139564
949.755	0.0138667
949.833	0.0137731
949.911	0.0139122
949.989	0.0138165
950.068	0.0138778
950.146	0.0138484
950.224	0.0138205
950.302	0.0138394
950.380	0.0138383
950.458	0.0140039
950.536	0.0138073
950.614	0.0139066
950.693	0.0137733
950.771	0.0138435
950.849	0.0137933
950.927	0.0137406
951.005	0.0139491
951.083	0.0138354
951.161	0.0137462
951.239	0.0137492
951.318	0.0136763
951.396	0.0137942
951.474	0.0137868
951.552	0.0137539
951.630	0.0137876
951.708	0.0136933
951.786	0.0136723
951.864	0.0138014
951.943	0.0138105
952.021	0.0137874
952.099	0.0136298
952.177	0.0136794
952.255	0.0139628
952.333	0.0137896
952.411	0.0137274
952.489	0.0140070
952.568	0.0138750
952.646	0.0139163
952.724	0.0138892
952.802	0.0138303
952.880	0.0137496
952.958	0.0138885
953.036	0.0140916
953.114	0.0138564
953.193	0.0138916
953.271	0.0137598
953.349	0.0138860
953.427	0.0138226
953.505	0.0138364
953.583	0.0138819
953.661	0.0138587
953.739	0.0139160
953.818	0.0139592
953.896	0.0139697
953.974	0.0140337
954.052	0.0138776
954.130	0.0139355
954.208	0.0139053
954.286	0.0140027
954.364	0.0139621
954.443	0.0139135
954.521	0.0139637
954.599	0.0139635
954.677	0.0139697
954.755	0.0139037
954.833	0.0138428
954.911	0.0138614
954.989	0.0137881
955.068	0.0138175
955.146	0.0137398
955.224	0.0137486
955.302	0.0136703
955.380	0.0135004
955.458	0.0137416
955.536	0.0135858
955.614	0.0135391
955.693	0.0135583
955.771	0.0136089
955.849	0.0136906
955.927	0.0136516
956.005	0.0134737
956.083	0.0136063
956.161	0.0136440
956.239	0.0136786
956.318	0.0136732
956.396	0.0136623
956.474	0.0137186
956.552	0.0137605
956.630	0.0138480
956.708	0.0137733
956.786	0.0137289
956.864	0.0138054
956.943	0.0137708
957.021	0.0137276
957.099	0.0138844
957.177	0.0136856
957.255	0.0137381
957.333	0.0138251
957.411	0.0137997
957.489	0.0137316
957.568	0.0138901
957.646	0.0138345
957.724	0.0138519
957.802	0.0137559
957.880	0.0139523
957.958	0.0139127
958.036	0.0137875
958.114	0.0139498
958.193	0.0140089
958.271	0.0139455
958.349	0.0139835
958.427	0.0141143
958.505	0.0139487
958.583	0.0140585
958.661	0.0139880
958.739	0.0139832
958.818	0.0141487
958.896	0.0140433
958.974	0.0139643
959.052	0.0140818
959.130	0.0139677
959.208	0.0140524
959.286	0.0140047
959.364	0.0140347
959.443	0.0139875
959.521	0.0139035
959.599	0.0139584
959.677	0.0140082
959.755	0.0140083
959.833	0.0138444
959.911	0.0137293
