05/14/2022	16:31:16	Ver.	4.1	UNKNOWN
Optical Delay	639.989416	Delta X		0.078125	Sweeps	1	Scan Rate	0/0
Coordinates	Axis 1	NaN	Axis 2	NaN	Axis 3	NaN	Axis 4	NaN	Axis 5	NaN	Axis 6	0.000000
TX Power	0.000000	RX Power	0.000000

639.989	0.0136306
640.068	0.0136274
640.146	0.0136913
640.224	0.0135878
640.302	0.0135935
640.380	0.0135951
640.458	0.0136076
640.536	0.0136188
640.614	0.0136443
640.693	0.0135388
640.771	0.0136251
640.849	0.0137043
640.927	0.0135947
641.005	0.0137160
641.083	0.0135685
641.161	0.0137382
641.239	0.0137220
641.318	0.0136282
641.396	0.0135184
641.474	0.0136150
641.552	0.0137563
641.630	0.0135944
641.708	0.0136810
641.786	0.0135902
641.864	0.0135609
641.943	0.0137311
642.021	0.0136661
642.099	0.0135341
642.177	0.0136319
642.255	0.0136752
642.333	0.0135436
642.411	0.0134473
642.489	0.0135469
642.568	0.0135860
642.646	0.0136504
642.724	0.0135700
642.802	0.0136933
642.880	0.0136145
642.958	0.0135286
643.036	0.0135856
643.114	0.0136832
643.193	0.0136198
643.271	0.0137270
643.349	0.0136414
643.427	0.0137464
643.505	0.0136833
643.583	0.0137114
643.661	0.0136314
643.739	0.0136334
643.818	0.0136137
643.896	0.0135791
643.974	0.0137546
644.052	0.0136044
644.130	0.0136099
644.208	0.0136924
644.286	0.0137311
644.364	0.0135487
644.443	0.0136077
644.521	0.0135454
644.599	0.0136797
644.677	0.0136609
644.755	0.0136470
644.833	0.0136548
644.911	0.0136101
644.989	0.0135734
645.068	0.0136216
645.146	0.0135860
645.224	0.0136021
645.302	0.0136651
645.380	0.0136655
645.458	0.0135859
645.536	0.0137088
645.614	0.0136465
645.693	0.0135577
645.771	0.0135966
645.849	0.0136402
645.927	0.0136712
646.005	0.0135645
646.083	0.0136527
646.161	0.0135534
646.239	0.0135841
646.318	0.0136909
646.396	0.0137057
646.474	0.0136229
646.552	0.0134373
646.630	0.0136927
646.708	0.0136449
646.786	0.0135835
646.864	0.0136973
646.943	0.0136568
647.021	0.0137606
647.099	0.0136428
647.177	0.0135681
647.255	0.0136527
647.333	0.0135971
647.411	0.0137706
647.489	0.0137424
647.568	0.0136356
647.646	0.0136223
647.724	0.0135786
647.802	0.0136879
647.880	0.0135558
647.958	0.0135282
648.036	0.0137202
648.114	0.0134341
648.193	0.0136086
648.271	0.0136966
648.349	0.0135902
648.427	0.0135914
648.505	0.0136433
648.583	0.0135083
648.661	0.0135640
648.739	0.0135865
648.818	0.0135314
648.896	0.0137495
648.974	0.0136497
649.052	0.0135412
649.130	0.0135903
649.208	0.0137084
649.286	0.0135551
649.364	0.0136076
649.443	0.0136217
649.521	0.0136803
649.599	0.0135899
649.677	0.0135535
649.755	0.0137189
649.833	0.0136383
649.911	0.0136760
649.989	0.0135661
650.068	0.0136211
650.146	0.0135770
650.224	0.0137170
650.302	0.0137540
650.380	0.0135413
650.458	0.0135819
650.536	0.0136528
650.614	0.0136811
650.693	0.0136466
650.771	0.0135980
650.849	0.0136860
650.927	0.0136797
651.005	0.0137184
651.083	0.0136771
651.161	0.0135699
651.239	0.0136420
651.318	0.0137118
651.396	0.0136574
651.474	0.0136537
651.552	0.0136759
651.630	0.0135597
651.708	0.0135963
651.786	0.0137231
651.864	0.0136426
651.943	0.0136758
652.021	0.0138015
652.099	0.0137346
652.177	0.0134997
652.255	0.0136626
652.333	0.0136765
652.411	0.0136626
652.489	0.0136314
652.568	0.0136420
652.646	0.0136520
652.724	0.0137433
652.802	0.0137535
652.880	0.0138467
652.958	0.0135690
653.036	0.0136940
653.114	0.0135972
653.193	0.0137461
653.271	0.0137089
653.349	0.0137589
653.427	0.0137211
653.505	0.0137362
653.583	0.0137526
653.661	0.0135566
653.739	0.0136657
653.818	0.0136701
653.896	0.0137461
653.974	0.0135988
654.052	0.0137699
654.130	0.0137071
654.208	0.0136414
654.286	0.0135937
654.364	0.0135484
654.443	0.0136105
654.521	0.0137428
654.599	0.0135942
654.677	0.0137687
654.755	0.0136731
654.833	0.0135098
654.911	0.0136831
654.989	0.0137321
655.068	0.0137080
655.146	0.0136950
655.224	0.0135232
655.302	0.0136606
655.380	0.0136651
655.458	0.0137339
655.536	0.0137085
655.614	0.0136061
655.693	0.0135945
655.771	0.0136094
655.849	0.0137832
655.927	0.0137367
656.005	0.0135894
656.083	0.0136745
656.161	0.0136942
656.239	0.0137525
656.318	0.0136699
656.396	0.0137347
656.474	0.0135201
656.552	0.0137777
656.630	0.0137570
656.708	0.0137751
656.786	0.0136478
656.864	0.0138157
656.943	0.0137321
657.021	0.0136548
657.099	0.0135440
657.177	0.0136509
657.255	0.0137098
657.333	0.0137220
657.411	0.0137684
657.489	0.0136205
657.568	0.0134964
657.646	0.0137061
657.724	0.0137000
657.802	0.0137344
657.880	0.0136961
657.958	0.0137748
658.036	0.0137553
658.114	0.0136472
658.193	0.0136576
658.271	0.0136897
658.349	0.0138401
658.427	0.0137546
658.505	0.0137458
658.583	0.0136556
658.661	0.0136933
658.739	0.0136602
658.818	0.0136517
658.896	0.0135288
658.974	0.0135320
659.052	0.0136891
659.130	0.0137354
659.208	0.0135722
659.286	0.0137224
659.364	0.0137257
659.443	0.0136163
659.521	0.0137322
659.599	0.0135776
659.677	0.0136987
659.755	0.0135571
659.833	0.0135667
659.911	0.0137610
659.989	0.0136855
660.068	0.0136398
660.146	0.0137745
660.224	0.0136682
660.302	0.0135450
660.380	0.0136767
660.458	0.0136321
660.536	0.0137763
660.614	0.0137680
660.693	0.0136513
660.771	0.0136668
660.849	0.0134944
660.927	0.0136902
661.005	0.0137627
661.083	0.0136578
661.161	0.0136318
661.239	0.0136356
661.318	0.0136942
661.396	0.0135667
661.474	0.0138454
661.552	0.0136214
661.630	0.0136514
661.708	0.0137571
661.786	0.0137154
661.864	0.0136964
661.943	0.0136259
662.021	0.0136925
662.099	0.0136855
662.177	0.0136687
662.255	0.0135718
662.333	0.0137716
662.411	0.0137186
662.489	0.0136828
662.568	0.0136477
662.646	0.0136510
662.724	0.0137457
662.802	0.0136552
662.880	0.0135351
662.958	0.0136218
663.036	0.0136584
663.114	0.0136890
663.193	0.0136008
663.271	0.0135833
663.349	0.0135885
663.427	0.0136322
663.505	0.0137299
663.583	0.0135524
663.661	0.0136134
663.739	0.0136214
663.818	0.0136360
663.896	0.0137343
663.974	0.0136717
664.052	0.0135424
664.130	0.0137360
664.208	0.0135770
664.286	0.0136736
664.364	0.0136320
664.443	0.0136519
664.521	0.0138406
664.599	0.0138216
664.677	0.0136250
664.755	0.0135903
664.833	0.0135979
664.911	0.0135881
664.989	0.0137152
665.068	0.0136130
665.146	0.0136265
665.224	0.0136269
665.302	0.0136253
665.380	0.0136622
665.458	0.0136064
665.536	0.0134927
665.614	0.0136055
665.693	0.0135326
665.771	0.0136008
665.849	0.0134965
665.927	0.0136332
666.005	0.0136845
666.083	0.0136664
666.161	0.0135368
666.239	0.0135912
666.318	0.0134875
666.396	0.0136714
666.474	0.0135381
666.552	0.0135336
666.630	0.0135679
666.708	0.0136789
666.786	0.0135935
666.864	0.0135015
666.943	0.0136201
667.021	0.0135106
667.099	0.0134991
667.177	0.0135974
667.255	0.0135941
667.333	0.0136411
667.411	0.0135944
667.489	0.0137381
667.568	0.0137297
667.646	0.0136791
667.724	0.0135506
667.802	0.0135877
667.880	0.0135928
667.958	0.0136263
668.036	0.0137025
668.114	0.0137093
668.193	0.0136352
668.271	0.0136309
668.349	0.0135200
668.427	0.0135351
668.505	0.0136372
668.583	0.0135366
668.661	0.0136189
668.739	0.0136036
668.818	0.0134785
668.896	0.0136417
668.974	0.0135090
669.052	0.0136617
669.130	0.0134408
669.208	0.0135455
669.286	0.0137407
669.364	0.0136533
669.443	0.0136703
669.521	0.0136241
669.599	0.0135473
669.677	0.0134773
669.755	0.0135223
669.833	0.0136008
669.911	0.0136745
669.989	0.0134706
670.068	0.0135068
670.146	0.0137417
670.224	0.0136778
670.302	0.0136998
670.380	0.0135294
670.458	0.0136663
670.536	0.0136079
670.614	0.0136001
670.693	0.0135307
670.771	0.0137032
670.849	0.0137928
670.927	0.0135332
671.005	0.0134981
671.083	0.0135932
671.161	0.0135867
671.239	0.0135131
671.318	0.0135837
671.396	0.0136494
671.474	0.0135959
671.552	0.0138151
671.630	0.0136404
671.708	0.0135596
671.786	0.0137076
671.864	0.0136797
671.943	0.0136002
672.021	0.0135583
672.099	0.0136488
672.177	0.0136974
672.255	0.0136417
672.333	0.0135823
672.411	0.0135757
672.489	0.0135840
672.568	0.0136227
672.646	0.0136238
672.724	0.0135704
672.802	0.0136298
672.880	0.0136185
672.958	0.0135555
673.036	0.0135992
673.114	0.0136723
673.193	0.0137688
673.271	0.0138400
673.349	0.0136811
673.427	0.0136425
673.505	0.0137006
673.583	0.0135945
673.661	0.0136830
673.739	0.0137870
673.818	0.0137701
673.896	0.0136953
673.974	0.0136475
674.052	0.0136947
674.130	0.0137144
674.208	0.0136481
674.286	0.0136751
674.364	0.0136713
674.443	0.0136247
674.521	0.0137096
674.599	0.0136516
674.677	0.0137392
674.755	0.0136787
674.833	0.0134983
674.911	0.0136535
674.989	0.0136632
675.068	0.0136790
675.146	0.0136230
675.224	0.0135771
675.302	0.0137717
675.380	0.0136938
675.458	0.0136604
675.536	0.0136939
675.614	0.0137631
675.693	0.0137657
675.771	0.0137258
675.849	0.0138570
675.927	0.0138708
676.005	0.0138288
676.083	0.0137814
676.161	0.0137296
676.239	0.0139044
676.318	0.0136382
676.396	0.0136839
676.474	0.0136098
676.552	0.0137010
676.630	0.0138215
676.708	0.0137171
676.786	0.0136221
676.864	0.0137564
676.943	0.0135925
677.021	0.0136959
677.099	0.0136629
677.177	0.0137436
677.255	0.0138457
677.333	0.0138299
677.411	0.0137616
677.489	0.0139864
677.568	0.0136739
677.646	0.0138131
677.724	0.0137189
677.802	0.0137115
677.880	0.0137591
677.958	0.0136928
678.036	0.0136543
678.114	0.0137108
678.193	0.0138882
678.271	0.0138220
678.349	0.0137111
678.427	0.0137069
678.505	0.0137001
678.583	0.0137882
678.661	0.0137533
678.739	0.0137315
678.818	0.0138067
678.896	0.0136538
678.974	0.0135979
679.052	0.0137569
679.130	0.0137254
679.208	0.0138926
679.286	0.0139846
679.364	0.0137901
679.443	0.0137026
679.521	0.0136571
679.599	0.0138039
679.677	0.0136559
679.755	0.0137363
679.833	0.0137798
679.911	0.0136470
679.989	0.0138436
680.068	0.0138345
680.146	0.0136797
680.224	0.0137303
680.302	0.0137996
680.380	0.0136965
680.458	0.0138608
680.536	0.0137402
680.614	0.0138845
680.693	0.0137305
680.771	0.0137636
680.849	0.0137570
680.927	0.0135381
681.005	0.0135969
681.083	0.0136640
681.161	0.0135313
681.239	0.0134446
681.318	0.0134192
681.396	0.0136339
681.474	0.0135099
681.552	0.0135730
681.630	0.0137634
681.708	0.0139509
681.786	0.0138583
681.864	0.0140028
681.943	0.0141067
682.021	0.0141636
682.099	0.0142064
682.177	0.0141589
682.255	0.0140811
682.333	0.0140353
682.411	0.0139353
682.489	0.0137064
682.568	0.0135917
682.646	0.0135728
682.724	0.0135659
682.802	0.0134081
682.880	0.0134492
682.958	0.0134418
683.036	0.0133250
683.114	0.0133818
683.193	0.0134337
683.271	0.0133486
683.349	0.0134624
683.427	0.0133440
683.505	0.0136004
683.583	0.0135856
683.661	0.0135370
683.739	0.0134637
683.818	0.0135190
683.896	0.0135944
683.974	0.0136562
684.052	0.0138284
684.130	0.0138132
684.208	0.0139677
684.286	0.0141301
684.364	0.0142532
684.443	0.0142885
684.521	0.0145844
684.599	0.0144088
684.677	0.0145835
684.755	0.0143997
684.833	0.0143160
684.911	0.0143642
684.989	0.0140960
685.068	0.0140623
685.146	0.0138579
685.224	0.0137036
685.302	0.0135178
685.380	0.0134715
685.458	0.0131676
685.536	0.0131009
685.614	0.0129435
685.693	0.0128285
685.771	0.0129154
685.849	0.0127875
685.927	0.0125908
686.005	0.0125205
686.083	0.0126701
686.161	0.0126269
686.239	0.0127473
686.318	0.0127336
686.396	0.0127528
686.474	0.0130582
686.552	0.0130130
686.630	0.0131916
686.708	0.0133850
686.786	0.0136353
686.864	0.0137650
686.943	0.0138837
687.021	0.0139876
687.099	0.0140317
687.177	0.0142744
687.255	0.0144756
687.333	0.0144910
687.411	0.0146738
687.489	0.0147428
687.568	0.0148105
687.646	0.0149387
687.724	0.0150104
687.802	0.0149596
687.880	0.0149055
687.958	0.0150069
688.036	0.0150325
688.114	0.0149237
688.193	0.0146146
688.271	0.0144885
688.349	0.0142812
688.427	0.0139757
688.505	0.0137401
688.583	0.0134404
688.661	0.0133464
688.739	0.0129420
688.818	0.0126618
688.896	0.0122674
688.974	0.0120197
689.052	0.0118606
689.130	0.0117726
689.208	0.0115669
689.286	0.0113459
689.364	0.0113698
689.443	0.0116266
689.521	0.0114378
689.599	0.0116944
689.677	0.0117769
689.755	0.0118672
689.833	0.0121109
689.911	0.0122562
689.989	0.0124561
690.068	0.0127225
690.146	0.0130372
690.224	0.0132646
690.302	0.0135133
690.380	0.0140050
690.458	0.0142650
690.536	0.0146497
690.614	0.0148302
690.693	0.0152101
690.771	0.0155652
690.849	0.0160225
690.927	0.0163334
691.005	0.0164023
691.083	0.0166190
691.161	0.0167472
691.239	0.0167436
691.318	0.0165683
691.396	0.0163960
691.474	0.0161732
691.552	0.0157447
691.630	0.0153546
691.708	0.0149912
691.786	0.0145619
691.864	0.0141543
691.943	0.0138650
692.021	0.0134129
692.099	0.0131448
692.177	0.0128159
692.255	0.0124050
692.333	0.0121563
692.411	0.0118797
692.489	0.0116481
692.568	0.0113676
692.646	0.0111443
692.724	0.0108907
692.802	0.0107907
692.880	0.0107219
692.958	0.0105947
693.036	0.0105776
693.114	0.0106463
693.193	0.0105602
693.271	0.0106197
693.349	0.0109669
693.427	0.0109766
693.505	0.0111307
693.583	0.0112838
693.661	0.0116546
693.739	0.0121684
693.818	0.0124382
693.896	0.0129528
693.974	0.0131068
694.052	0.0135352
694.130	0.0140352
694.208	0.0144878
694.286	0.0147849
694.364	0.0154333
694.443	0.0156255
694.521	0.0160465
694.599	0.0165282
694.677	0.0170381
694.755	0.0174850
694.833	0.0178234
694.911	0.0182388
694.989	0.0185709
695.068	0.0186990
695.146	0.0187658
695.224	0.0186585
695.302	0.0185154
695.380	0.0182771
695.458	0.0178577
695.536	0.0173660
695.614	0.0166127
695.693	0.0158997
695.771	0.0151357
695.849	0.0142902
695.927	0.0136507
696.005	0.0130074
696.083	0.0120933
696.161	0.0114978
696.239	0.0110039
696.318	0.0103018
696.396	0.0100591
696.474	0.00945236
696.552	0.00912079
696.630	0.00873665
696.708	0.00832535
696.786	0.00816475
696.864	0.00799232
696.943	0.00809166
697.021	0.00800591
697.099	0.00807327
697.177	0.00830673
697.255	0.00846146
697.333	0.00891106
697.411	0.00922974
697.489	0.00987648
697.568	0.0105513
697.646	0.0112332
697.724	0.0120853
697.802	0.0128144
697.880	0.0135625
697.958	0.0143971
698.036	0.0153149
698.114	0.0159718
698.193	0.0166080
698.271	0.0172939
698.349	0.0178185
698.427	0.0182760
698.505	0.0186711
698.583	0.0192220
698.661	0.0195021
698.739	0.0197177
698.818	0.0198528
698.896	0.0199067
698.974	0.0200731
699.052	0.0200879
699.130	0.0198479
699.208	0.0193327
699.286	0.0191138
699.364	0.0185674
699.443	0.0179389
699.521	0.0172610
699.599	0.0165338
699.677	0.0157141
699.755	0.0148370
699.833	0.0140443
699.911	0.0131459
699.989	0.0123097
700.068	0.0114221
700.146	0.0106010
700.224	0.00998573
700.302	0.00936394
700.380	0.00875542
700.458	0.00841881
700.536	0.00800339
700.614	0.00772987
700.693	0.00770592
700.771	0.00764076
700.849	0.00785019
700.927	0.00813988
701.005	0.00823715
701.083	0.00854263
701.161	0.00907524
701.239	0.00927361
701.318	0.00997002
701.396	0.0104430
701.474	0.0110303
701.552	0.0115265
701.630	0.0120631
701.708	0.0127449
701.786	0.0132336
701.864	0.0137519
701.943	0.0142254
702.021	0.0148113
702.099	0.0152462
702.177	0.0155649
702.255	0.0159732
702.333	0.0161792
702.411	0.0165999
702.489	0.0166714
702.568	0.0168409
702.646	0.0170034
702.724	0.0170657
702.802	0.0172029
702.880	0.0172768
702.958	0.0170770
703.036	0.0168604
703.114	0.0166773
703.193	0.0166656
703.271	0.0164957
703.349	0.0161543
703.427	0.0158400
703.505	0.0156595
703.583	0.0155207
703.661	0.0155407
703.739	0.0154523
703.818	0.0154148
703.896	0.0150697
703.974	0.0150140
704.052	0.0149744
704.130	0.0146214
704.208	0.0145097
704.286	0.0143098
704.364	0.0141025
704.443	0.0138759
704.521	0.0134484
704.599	0.0131109
704.677	0.0126859
704.755	0.0122855
704.833	0.0119416
704.911	0.0114473
704.989	0.0111701
705.068	0.0108892
705.146	0.0105815
705.224	0.0104241
705.302	0.0104053
705.380	0.0101498
705.458	0.0102097
705.536	0.0100372
705.614	0.0103391
705.693	0.0106264
705.771	0.0109071
705.849	0.0111817
705.927	0.0115928
706.005	0.0119949
706.083	0.0123849
706.161	0.0130061
706.239	0.0133966
706.318	0.0139092
706.396	0.0142625
706.474	0.0146329
706.552	0.0148602
706.630	0.0150250
706.708	0.0151694
706.786	0.0149873
706.864	0.0148170
706.943	0.0147665
707.021	0.0146841
707.099	0.0144389
707.177	0.0140958
707.255	0.0141048
707.333	0.0140258
707.411	0.0137452
707.489	0.0137346
707.568	0.0135811
707.646	0.0135527
707.724	0.0133818
707.802	0.0136801
707.880	0.0136285
707.958	0.0135471
708.036	0.0137865
708.114	0.0137892
708.193	0.0139220
708.271	0.0139362
708.349	0.0140131
708.427	0.0141151
708.505	0.0143769
708.583	0.0146007
708.661	0.0147424
708.739	0.0150023
708.818	0.0151879
708.896	0.0154120
708.974	0.0155708
709.052	0.0157703
709.130	0.0156823
709.208	0.0159876
709.286	0.0158958
709.364	0.0157967
709.443	0.0157774
709.521	0.0157846
709.599	0.0155521
709.677	0.0153572
709.755	0.0151007
709.833	0.0147898
709.911	0.0145601
709.989	0.0142055
710.068	0.0138871
710.146	0.0135059
710.224	0.0128743
710.302	0.0126781
710.380	0.0123896
710.458	0.0119270
710.536	0.0116950
710.614	0.0116107
710.693	0.0112592
710.771	0.0109894
710.849	0.0109333
710.927	0.0107315
711.005	0.0107575
711.083	0.0105963
711.161	0.0108006
711.239	0.0109317
711.318	0.0112876
711.396	0.0115587
711.474	0.0118782
711.552	0.0121820
711.630	0.0124220
711.708	0.0127928
711.786	0.0130699
711.864	0.0132970
711.943	0.0136205
712.021	0.0137747
712.099	0.0139447
712.177	0.0137006
712.255	0.0138856
712.333	0.0138577
712.411	0.0138514
712.489	0.0138178
712.568	0.0137362
712.646	0.0136385
712.724	0.0133443
712.802	0.0132143
712.880	0.0133474
712.958	0.0133562
713.036	0.0131915
713.114	0.0134383
713.193	0.0134755
713.271	0.0136741
713.349	0.0134856
713.427	0.0138797
713.505	0.0140333
713.583	0.0142410
713.661	0.0143713
713.739	0.0148267
713.818	0.0149619
713.896	0.0150397
713.974	0.0153312
714.052	0.0156428
714.130	0.0155408
714.208	0.0157204
714.286	0.0157263
714.364	0.0158033
714.443	0.0158129
714.521	0.0158997
714.599	0.0159451
714.677	0.0159309
714.755	0.0158570
714.833	0.0158284
714.911	0.0157822
714.989	0.0157935
715.068	0.0159045
715.146	0.0157819
715.224	0.0158151
715.302	0.0157708
715.380	0.0156104
715.458	0.0154349
715.536	0.0151867
715.614	0.0148731
715.693	0.0141853
715.771	0.0138138
715.849	0.0131300
715.927	0.0125114
716.005	0.0120127
716.083	0.0112850
716.161	0.0107050
716.239	0.0101567
716.318	0.00971436
716.396	0.00924263
716.474	0.00877563
716.552	0.00860435
716.630	0.00839828
716.708	0.00835396
716.786	0.00832985
716.864	0.00857986
716.943	0.00882263
717.021	0.00936028
717.099	0.00998062
717.177	0.0105738
717.255	0.0111576
717.333	0.0119353
717.411	0.0125524
717.489	0.0134133
717.568	0.0139749
717.646	0.0145351
717.724	0.0149596
717.802	0.0153328
717.880	0.0155364
717.958	0.0158374
718.036	0.0159388
718.114	0.0159869
718.193	0.0158778
718.271	0.0158537
718.349	0.0159112
718.427	0.0158546
718.505	0.0157387
718.583	0.0156512
718.661	0.0154878
718.739	0.0154806
718.818	0.0153405
718.896	0.0152046
718.974	0.0152629
719.052	0.0149310
719.130	0.0147542
719.208	0.0147466
719.286	0.0146239
719.364	0.0145224
719.443	0.0145360
719.521	0.0145570
719.599	0.0144894
719.677	0.0143369
719.755	0.0144112
719.833	0.0145525
719.911	0.0143863
719.989	0.0143558
720.068	0.0143351
720.146	0.0142863
720.224	0.0143343
720.302	0.0142712
720.380	0.0143597
720.458	0.0143206
720.536	0.0145045
720.614	0.0145473
720.693	0.0144334
720.771	0.0144399
720.849	0.0143803
720.927	0.0143996
721.005	0.0143727
721.083	0.0141320
721.161	0.0140501
721.239	0.0137886
721.318	0.0134946
721.396	0.0131704
721.474	0.0127843
721.552	0.0126997
721.630	0.0122746
721.708	0.0119627
721.786	0.0117672
721.864	0.0115707
721.943	0.0112743
722.021	0.0112015
722.099	0.0113733
722.177	0.0112403
722.255	0.0112399
722.333	0.0113142
722.411	0.0112831
722.489	0.0112264
722.568	0.0113389
722.646	0.0113271
722.724	0.0116368
722.802	0.0117712
722.880	0.0120499
722.958	0.0122942
723.036	0.0125618
723.114	0.0129209
723.193	0.0131689
723.271	0.0133878
723.349	0.0137108
723.427	0.0141068
723.505	0.0142744
723.583	0.0144200
723.661	0.0143229
723.739	0.0144716
723.818	0.0146474
723.896	0.0146612
723.974	0.0147588
724.052	0.0146841
724.130	0.0144946
724.208	0.0146090
724.286	0.0146672
724.364	0.0144380
724.443	0.0143331
724.521	0.0142371
724.599	0.0142155
724.677	0.0139798
724.755	0.0140248
724.833	0.0138467
724.911	0.0138312
724.989	0.0138760
725.068	0.0138899
725.146	0.0138979
725.224	0.0139977
725.302	0.0141328
725.380	0.0143970
725.458	0.0144483
725.536	0.0146948
725.614	0.0149539
725.693	0.0152805
725.771	0.0153780
725.849	0.0156192
725.927	0.0156075
726.005	0.0158350
726.083	0.0157607
726.161	0.0157974
726.239	0.0157730
726.318	0.0156109
726.396	0.0155061
726.474	0.0152303
726.552	0.0149613
726.630	0.0148969
726.708	0.0147730
726.786	0.0142960
726.864	0.0141274
726.943	0.0138110
727.021	0.0134766
727.099	0.0132390
727.177	0.0131339
727.255	0.0127991
727.333	0.0126549
727.411	0.0123400
727.489	0.0121636
727.568	0.0121492
727.646	0.0119127
727.724	0.0116550
727.802	0.0115882
727.880	0.0113312
727.958	0.0114502
728.036	0.0114111
728.114	0.0112737
728.193	0.0112165
728.271	0.0114948
728.349	0.0114497
728.427	0.0115150
728.505	0.0116138
728.583	0.0117920
728.661	0.0118346
728.739	0.0120434
728.818	0.0120583
728.896	0.0123609
728.974	0.0125438
729.052	0.0128671
729.130	0.0131496
729.208	0.0132748
729.286	0.0134306
729.364	0.0136861
729.443	0.0139570
729.521	0.0142728
729.599	0.0144964
729.677	0.0147154
729.755	0.0148729
729.833	0.0149686
729.911	0.0150695
729.989	0.0151180
730.068	0.0150438
730.146	0.0148745
730.224	0.0147510
730.302	0.0147308
730.380	0.0145401
730.458	0.0142149
730.536	0.0140189
730.614	0.0137398
730.693	0.0136714
730.771	0.0135256
730.849	0.0133831
730.927	0.0134534
731.005	0.0135439
731.083	0.0135495
731.161	0.0136798
731.239	0.0138486
731.318	0.0142173
731.396	0.0145771
731.474	0.0149164
731.552	0.0152402
731.630	0.0154852
731.708	0.0156330
731.786	0.0158891
731.864	0.0159834
731.943	0.0160661
732.021	0.0158429
732.099	0.0158262
732.177	0.0156567
732.255	0.0152987
732.333	0.0150640
732.411	0.0146056
732.489	0.0142789
732.568	0.0140301
732.646	0.0138784
732.724	0.0136372
732.802	0.0133236
732.880	0.0129255
732.958	0.0129527
733.036	0.0126785
733.114	0.0124198
733.193	0.0124393
733.271	0.0123092
733.349	0.0122807
733.427	0.0121518
733.505	0.0121136
733.583	0.0121239
733.661	0.0121850
733.739	0.0120817
733.818	0.0121832
733.896	0.0123523
733.974	0.0123457
734.052	0.0124515
734.130	0.0127216
734.208	0.0126395
734.286	0.0127406
734.364	0.0130331
734.443	0.0131345
734.521	0.0132658
734.599	0.0131661
734.677	0.0133240
734.755	0.0131981
734.833	0.0131656
734.911	0.0133044
734.989	0.0129329
735.068	0.0128648
735.146	0.0127859
735.224	0.0125941
735.302	0.0124535
735.380	0.0124936
735.458	0.0123895
735.536	0.0122475
735.614	0.0123718
735.693	0.0124936
735.771	0.0125752
735.849	0.0125648
735.927	0.0127544
736.005	0.0126343
736.083	0.0128905
736.161	0.0130595
736.239	0.0132367
736.318	0.0133811
736.396	0.0132859
736.474	0.0135583
736.552	0.0137785
736.630	0.0139783
736.708	0.0141255
736.786	0.0143558
736.864	0.0144921
736.943	0.0148125
737.021	0.0149849
737.099	0.0151002
737.177	0.0153766
737.255	0.0155689
737.333	0.0158801
737.411	0.0159753
737.489	0.0161443
737.568	0.0162218
737.646	0.0163933
737.724	0.0163615
737.802	0.0163302
737.880	0.0164184
737.958	0.0163624
738.036	0.0161252
738.114	0.0159544
738.193	0.0157121
738.271	0.0154701
738.349	0.0150220
738.427	0.0147388
738.505	0.0143330
738.583	0.0138743
738.661	0.0134995
738.739	0.0131822
738.818	0.0129906
738.896	0.0127176
738.974	0.0125593
739.052	0.0124619
739.130	0.0122980
739.208	0.0124302
739.286	0.0123808
739.364	0.0124059
739.443	0.0125112
739.521	0.0127291
739.599	0.0127870
739.677	0.0128336
739.755	0.0129935
739.833	0.0129208
739.911	0.0130431
739.989	0.0128628
740.068	0.0128662
740.146	0.0126612
740.224	0.0125526
740.302	0.0125271
740.380	0.0122641
740.458	0.0121896
740.536	0.0121268
740.614	0.0120487
740.693	0.0119476
740.771	0.0118477
740.849	0.0118260
740.927	0.0118951
741.005	0.0118149
741.083	0.0119897
741.161	0.0119244
741.239	0.0120212
741.318	0.0122206
741.396	0.0123596
741.474	0.0124506
741.552	0.0126120
741.630	0.0128448
741.708	0.0131095
741.786	0.0130650
741.864	0.0133829
741.943	0.0136124
742.021	0.0138997
742.099	0.0139639
742.177	0.0141669
742.255	0.0143041
742.333	0.0143835
742.411	0.0146175
742.489	0.0147930
742.568	0.0150446
742.646	0.0151240
742.724	0.0153106
742.802	0.0154154
742.880	0.0154289
742.958	0.0156220
743.036	0.0155533
743.114	0.0154919
743.193	0.0154534
743.271	0.0154638
743.349	0.0155638
743.427	0.0154762
743.505	0.0154163
743.583	0.0153069
743.661	0.0152840
743.739	0.0151997
743.818	0.0151852
743.896	0.0151223
743.974	0.0150340
744.052	0.0148881
744.130	0.0149144
744.208	0.0148656
744.286	0.0146690
744.364	0.0143387
744.443	0.0143098
744.521	0.0141498
744.599	0.0142043
744.677	0.0138925
744.755	0.0138132
744.833	0.0136433
744.911	0.0134483
744.989	0.0134064
745.068	0.0132639
745.146	0.0132481
745.224	0.0130531
745.302	0.0129356
745.380	0.0128289
745.458	0.0128126
745.536	0.0124622
745.614	0.0124251
745.693	0.0124541
745.771	0.0123572
745.849	0.0124303
745.927	0.0123631
746.005	0.0124208
746.083	0.0123704
746.161	0.0124062
746.239	0.0123709
746.318	0.0123874
746.396	0.0124097
746.474	0.0125399
746.552	0.0124751
746.630	0.0124767
746.708	0.0125258
746.786	0.0126699
746.864	0.0126407
746.943	0.0125359
747.021	0.0125911
747.099	0.0125671
747.177	0.0124516
747.255	0.0125603
747.333	0.0126262
747.411	0.0125150
747.489	0.0125957
747.568	0.0125814
747.646	0.0128501
747.724	0.0129231
747.802	0.0130164
747.880	0.0132925
747.958	0.0135944
748.036	0.0138054
748.114	0.0140644
748.193	0.0142292
748.271	0.0145840
748.349	0.0146670
748.427	0.0149699
748.505	0.0151013
748.583	0.0150034
748.661	0.0152991
748.739	0.0154065
748.818	0.0154322
748.896	0.0152967
748.974	0.0153051
749.052	0.0152676
749.130	0.0149762
749.208	0.0148141
749.286	0.0147491
749.364	0.0147421
749.443	0.0145569
749.521	0.0142303
749.599	0.0141776
749.677	0.0140800
749.755	0.0138384
749.833	0.0137617
749.911	0.0138984
749.989	0.0137983
750.068	0.0139336
750.146	0.0140799
750.224	0.0143131
750.302	0.0143759
750.380	0.0146076
750.458	0.0147849
750.536	0.0147690
750.614	0.0148610
750.693	0.0150053
750.771	0.0148881
750.849	0.0151496
750.927	0.0149525
751.005	0.0147958
751.083	0.0146443
751.161	0.0145373
751.239	0.0143610
751.318	0.0140648
751.396	0.0137468
751.474	0.0134293
751.552	0.0133114
751.630	0.0130360
751.708	0.0128221
751.786	0.0126566
751.864	0.0125170
751.943	0.0122752
752.021	0.0123529
752.099	0.0122797
752.177	0.0122943
752.255	0.0122669
752.333	0.0123177
752.411	0.0124366
752.489	0.0124274
752.568	0.0125362
752.646	0.0124605
752.724	0.0126326
752.802	0.0126599
752.880	0.0128756
752.958	0.0127687
753.036	0.0128062
753.114	0.0127021
753.193	0.0127510
753.271	0.0128197
753.349	0.0125958
753.427	0.0126404
753.505	0.0125605
753.583	0.0127714
753.661	0.0126090
753.739	0.0127702
753.818	0.0129572
753.896	0.0130424
753.974	0.0133252
754.052	0.0134444
754.130	0.0136028
754.208	0.0137506
754.286	0.0140486
754.364	0.0142103
754.443	0.0144953
754.521	0.0147404
754.599	0.0149676
754.677	0.0151909
754.755	0.0151414
754.833	0.0151235
754.911	0.0152858
754.989	0.0152155
755.068	0.0150277
755.146	0.0152490
755.224	0.0152198
755.302	0.0150298
755.380	0.0148689
755.458	0.0147118
755.536	0.0146583
755.614	0.0144223
755.693	0.0142385
755.771	0.0141389
755.849	0.0139437
755.927	0.0138364
756.005	0.0136983
756.083	0.0135224
756.161	0.0134695
756.239	0.0134023
756.318	0.0133430
756.396	0.0134875
756.474	0.0137472
756.552	0.0139841
756.630	0.0140038
756.708	0.0140867
756.786	0.0141913
756.864	0.0143336
756.943	0.0145205
757.021	0.0146556
757.099	0.0147263
757.177	0.0147856
757.255	0.0146017
757.333	0.0145323
757.411	0.0144337
757.489	0.0142802
757.568	0.0139649
757.646	0.0137811
757.724	0.0135844
757.802	0.0133369
757.880	0.0129794
757.958	0.0127632
758.036	0.0124726
758.114	0.0122694
758.193	0.0120662
758.271	0.0122160
758.349	0.0122169
758.427	0.0122285
758.505	0.0120711
758.583	0.0122689
758.661	0.0124394
758.739	0.0123712
758.818	0.0126684
758.896	0.0130788
758.974	0.0130504
759.052	0.0131921
759.130	0.0132809
759.208	0.0132900
759.286	0.0133012
759.364	0.0133921
759.443	0.0135563
759.521	0.0133491
759.599	0.0132659
759.677	0.0134832
759.755	0.0133707
759.833	0.0133038
759.911	0.0131659
759.989	0.0132097
760.068	0.0131478
760.146	0.0131372
760.224	0.0131463
760.302	0.0133352
760.380	0.0133258
760.458	0.0135511
760.536	0.0136095
760.614	0.0136582
760.693	0.0139183
760.771	0.0140323
760.849	0.0142353
760.927	0.0143211
761.005	0.0144486
761.083	0.0144717
761.161	0.0145269
761.239	0.0144928
761.318	0.0146283
761.396	0.0145761
761.474	0.0145923
761.552	0.0143793
761.630	0.0143090
761.708	0.0142651
761.786	0.0140630
761.864	0.0138795
761.943	0.0138100
762.021	0.0136660
762.099	0.0136261
762.177	0.0135692
762.255	0.0134958
762.333	0.0136321
762.411	0.0136087
762.489	0.0137262
762.568	0.0137406
762.646	0.0139773
762.724	0.0139767
762.802	0.0140768
762.880	0.0143436
762.958	0.0144451
763.036	0.0145064
763.114	0.0146021
763.193	0.0147555
763.271	0.0147678
763.349	0.0148523
763.427	0.0147877
763.505	0.0147327
763.583	0.0146495
763.661	0.0145425
763.739	0.0140811
763.818	0.0139852
763.896	0.0138448
763.974	0.0135679
764.052	0.0132422
764.130	0.0129802
764.208	0.0128542
764.286	0.0127203
764.364	0.0124300
764.443	0.0124923
764.521	0.0124582
764.599	0.0125571
764.677	0.0123896
764.755	0.0126385
764.833	0.0126325
764.911	0.0128310
764.989	0.0128420
765.068	0.0129730
765.146	0.0131116
765.224	0.0132134
765.302	0.0132552
765.380	0.0134539
765.458	0.0133907
765.536	0.0134554
765.614	0.0132449
765.693	0.0132565
765.771	0.0133170
765.849	0.0131783
765.927	0.0131625
766.005	0.0131288
766.083	0.0129517
766.161	0.0128988
766.239	0.0129824
766.318	0.0130553
766.396	0.0131966
766.474	0.0131953
766.552	0.0132697
766.630	0.0134312
766.708	0.0134722
766.786	0.0137359
766.864	0.0139270
766.943	0.0140830
767.021	0.0141598
767.099	0.0141907
767.177	0.0144215
767.255	0.0144971
767.333	0.0144643
767.411	0.0147093
767.489	0.0146509
767.568	0.0146280
767.646	0.0146015
767.724	0.0145365
767.802	0.0144913
767.880	0.0144179
767.958	0.0144041
768.036	0.0142953
768.114	0.0141821
768.193	0.0140260
768.271	0.0138729
768.349	0.0138971
768.427	0.0138481
768.505	0.0135710
768.583	0.0136692
768.661	0.0136752
768.739	0.0136021
768.818	0.0135501
768.896	0.0135898
768.974	0.0135052
769.052	0.0135141
769.130	0.0135775
769.208	0.0135536
769.286	0.0135490
769.364	0.0138652
769.443	0.0138279
769.521	0.0138472
769.599	0.0140855
769.677	0.0140454
769.755	0.0140424
769.833	0.0142225
769.911	0.0143385
769.989	0.0141086
770.068	0.0139511
770.146	0.0140487
770.224	0.0139256
770.302	0.0137708
770.380	0.0135773
770.458	0.0134975
770.536	0.0132724
770.614	0.0132288
770.693	0.0130222
770.771	0.0128831
770.849	0.0129120
770.927	0.0128064
771.005	0.0129253
771.083	0.0128490
771.161	0.0129366
771.239	0.0128862
771.318	0.0130768
771.396	0.0131746
771.474	0.0133447
771.552	0.0134340
771.630	0.0133089
771.708	0.0134708
771.786	0.0137338
771.864	0.0137181
771.943	0.0137254
772.021	0.0137339
772.099	0.0138537
772.177	0.0137449
772.255	0.0138819
772.333	0.0136014
772.411	0.0136475
772.489	0.0136577
772.568	0.0133938
772.646	0.0134698
772.724	0.0134207
772.802	0.0135349
772.880	0.0135783
772.958	0.0134742
773.036	0.0135070
773.114	0.0135318
773.193	0.0135899
773.271	0.0137563
773.349	0.0137022
773.427	0.0139105
773.505	0.0138365
773.583	0.0138615
773.661	0.0139606
773.739	0.0140647
773.818	0.0140664
773.896	0.0141624
773.974	0.0141624
774.052	0.0141588
774.130	0.0140863
774.208	0.0141927
774.286	0.0141576
774.364	0.0141858
774.443	0.0140907
774.521	0.0138908
774.599	0.0139866
774.677	0.0137968
774.755	0.0137258
774.833	0.0136804
774.911	0.0137360
774.989	0.0137447
775.068	0.0136185
775.146	0.0136055
775.224	0.0136466
775.302	0.0136646
775.380	0.0136526
775.458	0.0135807
775.536	0.0136489
775.614	0.0136380
775.693	0.0136030
775.771	0.0138361
775.849	0.0138921
775.927	0.0138805
776.005	0.0140421
776.083	0.0138879
776.161	0.0140234
776.239	0.0141539
776.318	0.0139543
776.396	0.0138849
776.474	0.0137587
776.552	0.0138128
776.630	0.0137811
776.708	0.0137336
776.786	0.0136842
776.864	0.0134291
776.943	0.0134087
777.021	0.0133474
777.099	0.0133313
777.177	0.0133530
777.255	0.0133606
777.333	0.0131876
777.411	0.0134851
777.489	0.0133598
777.568	0.0133693
777.646	0.0133876
777.724	0.0135584
777.802	0.0136990
777.880	0.0136912
777.958	0.0137392
778.036	0.0138812
778.114	0.0139059
778.193	0.0137289
778.271	0.0138748
778.349	0.0137962
778.427	0.0136576
778.505	0.0138123
778.583	0.0136385
778.661	0.0136967
778.739	0.0136279
778.818	0.0136974
778.896	0.0134699
778.974	0.0135206
779.052	0.0134995
779.130	0.0135019
779.208	0.0134512
779.286	0.0135816
779.364	0.0135197
779.443	0.0133329
779.521	0.0135513
779.599	0.0136099
779.677	0.0135319
779.755	0.0136153
779.833	0.0136921
779.911	0.0135032
779.989	0.0138324
780.068	0.0138654
780.146	0.0139236
780.224	0.0138058
780.302	0.0138949
780.380	0.0139824
780.458	0.0140146
780.536	0.0139960
780.614	0.0140211
780.693	0.0140549
780.771	0.0139289
780.849	0.0140839
780.927	0.0138548
781.005	0.0139436
781.083	0.0139630
781.161	0.0138976
781.239	0.0136678
781.318	0.0136855
781.396	0.0137075
781.474	0.0135407
781.552	0.0135984
781.630	0.0134478
781.708	0.0133780
781.786	0.0134123
781.864	0.0134064
781.943	0.0133986
782.021	0.0133543
782.099	0.0135770
782.177	0.0134708
782.255	0.0135448
782.333	0.0135191
782.411	0.0136287
782.489	0.0136288
782.568	0.0137416
782.646	0.0138571
782.724	0.0138425
782.802	0.0139668
782.880	0.0137825
782.958	0.0138010
783.036	0.0139541
783.114	0.0137500
783.193	0.0137188
783.271	0.0135106
783.349	0.0136810
783.427	0.0136482
783.505	0.0135184
783.583	0.0134866
783.661	0.0135497
783.739	0.0135764
783.818	0.0135509
783.896	0.0135129
783.974	0.0135764
784.052	0.0135880
784.130	0.0136284
784.208	0.0137007
784.286	0.0135469
784.364	0.0137485
784.443	0.0137296
784.521	0.0136953
784.599	0.0136783
784.677	0.0137093
784.755	0.0136488
784.833	0.0136583
784.911	0.0136157
784.989	0.0135266
785.068	0.0135676
785.146	0.0135514
785.224	0.0134257
785.302	0.0134320
785.380	0.0135257
785.458	0.0135014
785.536	0.0134954
785.614	0.0134135
785.693	0.0134187
785.771	0.0134457
785.849	0.0133974
785.927	0.0134866
786.005	0.0135750
786.083	0.0135772
786.161	0.0135848
786.239	0.0136333
786.318	0.0135043
786.396	0.0136148
786.474	0.0135428
786.552	0.0136733
786.630	0.0136883
786.708	0.0136780
786.786	0.0136769
786.864	0.0136221
786.943	0.0136678
787.021	0.0137057
787.099	0.0138562
787.177	0.0138286
787.255	0.0138530
787.333	0.0137916
787.411	0.0138509
787.489	0.0138692
787.568	0.0138391
787.646	0.0137514
787.724	0.0140033
787.802	0.0138728
787.880	0.0138493
787.958	0.0139695
788.036	0.0138622
788.114	0.0138471
788.193	0.0139641
788.271	0.0139481
788.349	0.0138053
788.427	0.0138852
788.505	0.0138932
788.583	0.0139968
788.661	0.0137798
788.739	0.0136911
788.818	0.0138065
788.896	0.0136969
788.974	0.0136187
789.052	0.0134817
789.130	0.0134428
789.208	0.0136112
789.286	0.0133068
789.364	0.0131872
789.443	0.0131606
789.521	0.0132008
789.599	0.0130507
789.677	0.0130708
789.755	0.0131340
789.833	0.0130832
789.911	0.0130674
789.989	0.0131078
790.068	0.0131533
790.146	0.0131973
790.224	0.0131741
790.302	0.0131715
790.380	0.0132302
790.458	0.0133265
790.536	0.0132919
790.614	0.0134045
790.693	0.0136130
790.771	0.0136131
790.849	0.0137616
790.927	0.0137962
791.005	0.0140720
791.083	0.0140279
791.161	0.0141273
791.239	0.0141622
791.318	0.0140691
791.396	0.0142181
791.474	0.0142875
791.552	0.0142052
791.630	0.0142796
791.708	0.0143023
791.786	0.0142394
791.864	0.0143613
791.943	0.0141039
792.021	0.0142181
792.099	0.0142950
792.177	0.0140214
792.255	0.0140710
792.333	0.0139262
792.411	0.0139401
792.489	0.0137421
792.568	0.0137867
792.646	0.0135893
792.724	0.0134984
792.802	0.0134933
792.880	0.0134205
792.958	0.0134081
793.036	0.0133850
793.114	0.0133023
793.193	0.0131406
793.271	0.0131686
793.349	0.0130680
793.427	0.0129840
793.505	0.0131229
793.583	0.0130388
793.661	0.0130496
793.739	0.0131172
793.818	0.0130157
793.896	0.0129627
793.974	0.0130414
794.052	0.0129720
794.130	0.0129995
794.208	0.0132369
794.286	0.0132995
794.364	0.0133812
794.443	0.0133080
794.521	0.0135464
794.599	0.0134927
794.677	0.0135838
794.755	0.0138599
794.833	0.0138951
794.911	0.0139722
794.989	0.0140721
795.068	0.0140876
795.146	0.0141441
795.224	0.0144001
795.302	0.0145518
795.380	0.0144898
795.458	0.0145811
795.536	0.0145127
795.614	0.0144610
795.693	0.0144147
795.771	0.0142863
795.849	0.0143687
795.927	0.0143259
796.005	0.0141269
796.083	0.0140925
796.161	0.0140062
796.239	0.0138947
796.318	0.0137511
796.396	0.0136848
796.474	0.0135550
796.552	0.0133998
796.630	0.0132887
796.708	0.0131470
796.786	0.0131149
796.864	0.0130187
796.943	0.0129137
797.021	0.0129958
797.099	0.0129703
797.177	0.0129525
797.255	0.0128482
797.333	0.0127831
797.411	0.0129495
797.489	0.0128935
797.568	0.0130800
797.646	0.0129486
797.724	0.0131647
797.802	0.0130910
797.880	0.0131831
797.958	0.0132776
798.036	0.0133835
798.114	0.0134860
798.193	0.0134961
798.271	0.0136513
798.349	0.0136830
798.427	0.0136983
798.505	0.0138280
798.583	0.0138799
798.661	0.0141169
798.739	0.0141663
798.818	0.0140754
798.896	0.0140738
798.974	0.0142548
799.052	0.0141835
799.130	0.0141244
799.208	0.0140826
799.286	0.0140707
799.364	0.0139566
799.443	0.0141397
799.521	0.0140948
799.599	0.0139827
799.677	0.0140461
799.755	0.0140230
799.833	0.0138885
799.911	0.0137823
799.989	0.0139019
800.068	0.0139519
800.146	0.0139846
800.224	0.0140179
800.302	0.0138435
800.380	0.0139172
800.458	0.0139037
800.536	0.0139505
800.614	0.0138439
800.693	0.0138685
800.771	0.0138854
800.849	0.0137265
800.927	0.0137809
801.005	0.0136717
801.083	0.0137418
801.161	0.0135497
801.239	0.0135430
801.318	0.0135150
801.396	0.0133797
801.474	0.0133794
801.552	0.0133363
801.630	0.0133286
801.708	0.0134097
801.786	0.0132760
801.864	0.0132973
801.943	0.0132869
802.021	0.0132108
802.099	0.0131519
802.177	0.0132199
802.255	0.0133289
802.333	0.0133539
802.411	0.0132970
802.489	0.0134278
802.568	0.0135507
802.646	0.0135828
802.724	0.0134565
802.802	0.0135005
802.880	0.0135452
802.958	0.0135621
803.036	0.0135092
803.114	0.0136825
803.193	0.0138446
803.271	0.0136383
803.349	0.0137596
803.427	0.0138636
803.505	0.0137971
803.583	0.0138741
803.661	0.0137823
803.739	0.0136858
803.818	0.0137317
803.896	0.0137921
803.974	0.0137374
804.052	0.0136479
804.130	0.0135526
804.208	0.0136022
804.286	0.0136549
804.364	0.0137451
804.443	0.0138062
804.521	0.0138123
804.599	0.0137364
804.677	0.0138457
804.755	0.0138258
804.833	0.0138676
804.911	0.0139692
804.989	0.0139188
805.068	0.0139382
805.146	0.0141199
805.224	0.0141164
805.302	0.0141111
805.380	0.0140707
805.458	0.0141736
805.536	0.0140300
805.614	0.0141234
805.693	0.0140045
805.771	0.0140267
805.849	0.0140144
805.927	0.0140823
806.005	0.0140995
806.083	0.0139353
806.161	0.0138725
806.239	0.0136946
806.318	0.0137237
806.396	0.0138007
806.474	0.0135117
806.552	0.0135717
806.630	0.0134800
806.708	0.0134204
806.786	0.0133574
806.864	0.0132503
806.943	0.0132623
807.021	0.0132182
807.099	0.0131577
807.177	0.0129840
807.255	0.0130035
807.333	0.0131208
807.411	0.0131090
807.489	0.0131724
807.568	0.0131351
807.646	0.0132140
807.724	0.0132088
807.802	0.0130387
807.880	0.0133183
807.958	0.0133553
808.036	0.0132749
808.114	0.0133223
808.193	0.0135300
808.271	0.0135313
808.349	0.0136698
808.427	0.0136340
808.505	0.0137112
808.583	0.0138541
808.661	0.0139165
808.739	0.0138029
808.818	0.0138696
808.896	0.0138434
808.974	0.0140816
809.052	0.0139548
809.130	0.0139130
809.208	0.0139464
809.286	0.0137689
809.364	0.0138366
809.443	0.0137980
809.521	0.0137318
809.599	0.0136195
809.677	0.0136119
809.755	0.0136392
809.833	0.0135355
809.911	0.0134531
809.989	0.0135931
810.068	0.0134953
810.146	0.0133901
810.224	0.0135509
810.302	0.0135457
810.380	0.0134887
810.458	0.0135598
810.536	0.0136603
810.614	0.0137188
810.693	0.0138770
810.771	0.0138013
810.849	0.0138625
810.927	0.0139404
811.005	0.0140813
811.083	0.0141315
811.161	0.0139561
811.239	0.0141356
811.318	0.0140919
811.396	0.0142709
811.474	0.0141894
811.552	0.0140073
811.630	0.0139772
811.708	0.0140668
811.786	0.0140027
811.864	0.0140829
811.943	0.0140062
812.021	0.0138836
812.099	0.0138340
812.177	0.0137503
812.255	0.0137799
812.333	0.0138156
812.411	0.0136009
812.489	0.0136610
812.568	0.0133833
812.646	0.0134266
812.724	0.0134634
812.802	0.0133199
812.880	0.0133506
812.958	0.0132784
813.036	0.0131298
813.114	0.0130818
813.193	0.0130460
813.271	0.0130742
813.349	0.0131259
813.427	0.0129944
813.505	0.0130010
813.583	0.0130852
813.661	0.0131101
813.739	0.0130748
813.818	0.0130607
813.896	0.0131609
813.974	0.0130982
814.052	0.0132161
814.130	0.0133627
814.208	0.0134402
814.286	0.0134421
814.364	0.0134526
814.443	0.0135262
814.521	0.0135459
814.599	0.0135599
814.677	0.0135654
814.755	0.0136655
814.833	0.0137589
814.911	0.0139799
814.989	0.0138781
815.068	0.0138092
815.146	0.0138810
815.224	0.0137090
815.302	0.0139247
815.380	0.0138808
815.458	0.0138724
815.536	0.0138649
815.614	0.0138917
815.693	0.0139178
815.771	0.0138713
815.849	0.0140209
815.927	0.0139821
816.005	0.0140282
816.083	0.0139654
816.161	0.0140112
816.239	0.0140490
816.318	0.0139149
816.396	0.0141100
816.474	0.0142323
816.552	0.0139973
816.630	0.0140401
816.708	0.0140010
816.786	0.0139947
816.864	0.0140350
816.943	0.0138969
817.021	0.0137886
817.099	0.0137291
817.177	0.0137794
817.255	0.0136658
817.333	0.0137767
817.411	0.0136569
817.489	0.0135981
817.568	0.0136935
817.646	0.0136916
817.724	0.0136090
817.802	0.0135974
817.880	0.0135049
817.958	0.0135815
818.036	0.0134016
818.114	0.0134782
818.193	0.0134953
818.271	0.0134196
818.349	0.0133868
818.427	0.0133501
818.505	0.0132586
818.583	0.0133012
818.661	0.0132897
818.739	0.0131857
818.818	0.0131698
818.896	0.0131231
818.974	0.0131496
819.052	0.0133010
819.130	0.0133070
819.208	0.0132285
819.286	0.0132832
819.364	0.0132914
819.443	0.0133401
819.521	0.0133640
819.599	0.0135649
819.677	0.0133810
819.755	0.0135835
819.833	0.0136042
819.911	0.0137082
819.989	0.0136703
820.068	0.0136207
820.146	0.0138470
820.224	0.0138641
820.302	0.0136992
820.380	0.0138657
820.458	0.0139220
820.536	0.0138639
820.614	0.0137799
820.693	0.0138003
820.771	0.0138580
820.849	0.0138293
820.927	0.0138361
821.005	0.0138507
821.083	0.0138243
821.161	0.0138707
821.239	0.0137427
821.318	0.0137296
821.396	0.0139089
821.474	0.0138309
821.552	0.0138924
821.630	0.0140161
821.708	0.0137586
821.786	0.0138144
821.864	0.0138525
821.943	0.0138588
822.021	0.0139962
822.099	0.0139558
822.177	0.0140022
822.255	0.0140764
822.333	0.0141576
822.411	0.0140463
822.489	0.0140236
822.568	0.0141576
822.646	0.0140829
822.724	0.0140711
822.802	0.0140922
822.880	0.0141426
822.958	0.0140678
823.036	0.0138844
823.114	0.0137715
823.193	0.0139284
823.271	0.0138412
823.349	0.0137193
823.427	0.0136266
823.505	0.0135331
823.583	0.0134631
823.661	0.0132588
823.739	0.0133944
823.818	0.0131907
823.896	0.0132069
823.974	0.0131899
824.052	0.0131700
824.130	0.0131870
824.208	0.0130437
824.286	0.0130398
824.364	0.0129786
824.443	0.0131047
824.521	0.0132565
824.599	0.0132591
824.677	0.0131585
824.755	0.0132613
824.833	0.0133783
824.911	0.0133743
824.989	0.0134805
825.068	0.0134899
825.146	0.0134811
825.224	0.0136164
825.302	0.0136953
825.380	0.0137533
825.458	0.0136683
825.536	0.0136885
825.614	0.0137914
825.693	0.0138071
825.771	0.0137582
825.849	0.0138411
825.927	0.0137437
826.005	0.0137422
826.083	0.0137864
826.161	0.0137590
826.239	0.0138139
826.318	0.0138087
826.396	0.0136927
826.474	0.0137590
826.552	0.0138361
826.630	0.0138270
826.708	0.0137421
826.786	0.0137453
826.864	0.0137060
826.943	0.0138190
827.021	0.0137968
827.099	0.0138432
827.177	0.0139386
827.255	0.0139754
827.333	0.0139202
827.411	0.0139311
827.489	0.0140657
827.568	0.0139159
827.646	0.0139012
827.724	0.0140935
827.802	0.0139140
827.880	0.0141246
827.958	0.0141728
828.036	0.0140346
828.114	0.0140846
828.193	0.0141445
828.271	0.0140102
828.349	0.0139124
828.427	0.0140067
828.505	0.0139107
828.583	0.0141080
828.661	0.0140498
828.739	0.0139437
828.818	0.0137167
828.896	0.0138609
828.974	0.0136962
829.052	0.0135974
829.130	0.0135712
829.208	0.0134232
829.286	0.0134256
829.364	0.0132746
829.443	0.0131683
829.521	0.0132454
829.599	0.0130972
829.677	0.0130950
829.755	0.0129424
829.833	0.0130186
829.911	0.0130586
829.989	0.0129598
830.068	0.0129427
830.146	0.0129864
830.224	0.0129610
830.302	0.0130497
830.380	0.0131275
830.458	0.0132687
830.536	0.0132878
830.614	0.0133506
830.693	0.0134919
830.771	0.0134711
830.849	0.0135433
830.927	0.0134779
831.005	0.0138011
831.083	0.0138081
831.161	0.0137801
831.239	0.0137586
831.318	0.0138172
831.396	0.0139423
831.474	0.0139449
831.552	0.0139234
831.630	0.0139536
831.708	0.0140916
831.786	0.0139137
831.864	0.0139849
831.943	0.0139731
832.021	0.0141198
832.099	0.0141001
832.177	0.0139597
832.255	0.0139682
832.333	0.0139983
832.411	0.0138373
832.489	0.0139899
832.568	0.0138934
832.646	0.0138546
832.724	0.0138333
832.802	0.0138824
832.880	0.0138550
832.958	0.0137658
833.036	0.0137475
833.114	0.0136688
833.193	0.0136534
833.271	0.0136436
833.349	0.0135979
833.427	0.0135893
833.505	0.0134786
833.583	0.0136944
833.661	0.0134946
833.739	0.0134782
833.818	0.0135258
833.896	0.0135931
833.974	0.0133784
834.052	0.0134657
834.130	0.0135976
834.208	0.0133473
834.286	0.0135320
834.364	0.0135281
834.443	0.0135079
834.521	0.0135285
834.599	0.0136178
834.677	0.0135094
834.755	0.0135195
834.833	0.0136149
834.911	0.0136705
834.989	0.0136356
835.068	0.0137800
835.146	0.0137960
835.224	0.0138172
835.302	0.0137568
835.380	0.0136571
835.458	0.0138326
835.536	0.0138181
835.614	0.0136978
835.693	0.0138136
835.771	0.0139129
835.849	0.0138852
835.927	0.0138049
836.005	0.0138542
836.083	0.0139172
836.161	0.0139272
836.239	0.0139423
836.318	0.0138596
836.396	0.0138486
836.474	0.0139130
836.552	0.0136566
836.630	0.0138190
836.708	0.0137867
836.786	0.0137991
836.864	0.0135959
836.943	0.0135287
837.021	0.0135069
837.099	0.0134784
837.177	0.0135989
837.255	0.0134617
837.333	0.0132609
837.411	0.0131666
837.489	0.0132928
837.568	0.0133548
837.646	0.0131903
837.724	0.0131610
837.802	0.0130749
837.880	0.0132577
837.958	0.0130547
838.036	0.0131216
838.114	0.0131807
838.193	0.0131544
838.271	0.0132778
838.349	0.0132328
838.427	0.0133546
838.505	0.0133332
838.583	0.0134348
838.661	0.0135268
838.739	0.0136046
838.818	0.0137720
838.896	0.0137373
838.974	0.0138046
839.052	0.0139423
839.130	0.0137853
839.208	0.0139539
839.286	0.0140650
839.364	0.0139488
839.443	0.0140598
839.521	0.0139480
839.599	0.0140319
839.677	0.0141248
839.755	0.0140774
839.833	0.0140770
839.911	0.0139929
839.989	0.0141772
840.068	0.0142047
840.146	0.0140234
840.224	0.0142093
840.302	0.0141822
840.380	0.0141404
840.458	0.0140560
840.536	0.0141807
840.614	0.0142120
840.693	0.0142705
840.771	0.0141125
840.849	0.0141521
840.927	0.0140115
841.005	0.0140588
841.083	0.0140340
841.161	0.0140567
841.239	0.0138950
841.318	0.0138189
841.396	0.0137441
841.474	0.0138744
841.552	0.0136649
841.630	0.0136202
841.708	0.0134915
841.786	0.0133809
841.864	0.0134557
841.943	0.0133013
842.021	0.0132707
842.099	0.0131767
842.177	0.0130379
842.255	0.0131496
842.333	0.0130598
842.411	0.0130034
842.489	0.0130349
842.568	0.0130694
842.646	0.0129013
842.724	0.0127969
842.802	0.0128436
842.880	0.0131139
842.958	0.0130864
843.036	0.0130028
843.114	0.0130752
843.193	0.0132400
843.271	0.0132614
843.349	0.0132368
843.427	0.0132814
843.505	0.0133089
843.583	0.0134065
843.661	0.0135082
843.739	0.0134564
843.818	0.0136189
843.896	0.0136391
843.974	0.0138602
844.052	0.0137260
844.130	0.0137700
844.208	0.0139719
844.286	0.0140541
844.364	0.0138914
844.443	0.0141247
844.521	0.0141444
844.599	0.0141833
844.677	0.0142131
844.755	0.0142232
844.833	0.0142516
844.911	0.0144219
844.989	0.0143480
845.068	0.0141895
845.146	0.0141850
845.224	0.0141212
845.302	0.0141471
845.380	0.0141216
845.458	0.0140386
845.536	0.0139538
845.614	0.0140099
845.693	0.0139664
845.771	0.0137984
845.849	0.0137651
845.927	0.0138057
846.005	0.0136897
846.083	0.0135947
846.161	0.0136730
846.239	0.0136414
846.318	0.0133701
846.396	0.0134776
846.474	0.0135666
846.552	0.0136124
846.630	0.0135827
846.708	0.0135895
846.786	0.0135053
846.864	0.0135333
846.943	0.0136723
847.021	0.0136596
847.099	0.0137069
847.177	0.0136305
847.255	0.0136727
847.333	0.0137962
847.411	0.0136554
847.489	0.0138132
847.568	0.0138636
847.646	0.0136334
847.724	0.0136687
847.802	0.0139398
847.880	0.0137375
847.958	0.0136478
848.036	0.0137415
848.114	0.0136640
848.193	0.0137014
848.271	0.0136874
848.349	0.0136124
848.427	0.0135354
848.505	0.0135748
848.583	0.0136845
848.661	0.0135085
848.739	0.0134953
848.818	0.0136647
848.896	0.0135211
848.974	0.0134386
849.052	0.0133733
849.130	0.0134449
849.208	0.0134129
849.286	0.0134314
849.364	0.0131909
849.443	0.0134111
849.521	0.0134315
849.599	0.0133261
849.677	0.0132536
849.755	0.0132301
849.833	0.0132907
849.911	0.0132255
849.989	0.0133096
850.068	0.0133184
850.146	0.0131342
850.224	0.0133156
850.302	0.0134541
850.380	0.0134264
850.458	0.0133810
850.536	0.0134460
850.614	0.0135498
850.693	0.0134891
850.771	0.0135973
850.849	0.0136935
850.927	0.0137663
851.005	0.0139353
851.083	0.0138978
851.161	0.0138499
851.239	0.0140366
851.318	0.0140511
851.396	0.0140405
851.474	0.0142049
851.552	0.0140471
851.630	0.0139978
851.708	0.0139941
851.786	0.0140729
851.864	0.0140575
851.943	0.0140440
852.021	0.0139194
852.099	0.0138988
852.177	0.0138919
852.255	0.0140051
852.333	0.0138968
852.411	0.0138279
852.489	0.0139373
852.568	0.0139246
852.646	0.0138005
852.724	0.0139188
852.802	0.0139165
852.880	0.0137029
852.958	0.0138367
853.036	0.0138235
853.114	0.0137968
853.193	0.0137791
853.271	0.0137885
853.349	0.0137243
853.427	0.0138485
853.505	0.0137447
853.583	0.0137386
853.661	0.0136750
853.739	0.0135828
853.818	0.0136301
853.896	0.0137141
853.974	0.0136360
854.052	0.0135390
854.130	0.0135269
854.208	0.0134222
854.286	0.0135318
854.364	0.0133933
854.443	0.0132803
854.521	0.0132668
854.599	0.0133923
854.677	0.0132401
854.755	0.0133105
854.833	0.0132295
854.911	0.0132712
854.989	0.0133089
855.068	0.0132410
855.146	0.0132539
855.224	0.0133599
855.302	0.0133844
855.380	0.0132490
855.458	0.0132621
855.536	0.0132303
855.614	0.0132009
855.693	0.0132488
855.771	0.0133749
855.849	0.0135092
855.927	0.0134920
856.005	0.0135004
856.083	0.0137603
856.161	0.0137527
856.239	0.0138229
856.318	0.0138280
856.396	0.0139421
856.474	0.0139149
856.552	0.0139703
856.630	0.0141922
856.708	0.0142033
856.786	0.0140825
856.864	0.0140137
856.943	0.0142032
857.021	0.0140187
857.099	0.0141096
857.177	0.0143085
857.255	0.0141245
857.333	0.0141067
857.411	0.0139596
857.489	0.0138560
857.568	0.0139722
857.646	0.0138457
857.724	0.0138751
857.802	0.0138702
857.880	0.0139259
857.958	0.0137830
858.036	0.0134821
858.114	0.0135934
858.193	0.0135872
858.271	0.0136742
858.349	0.0135769
858.427	0.0136472
858.505	0.0136646
858.583	0.0134756
858.661	0.0134106
858.739	0.0135733
858.818	0.0135115
858.896	0.0135910
858.974	0.0134996
859.052	0.0134831
859.130	0.0137289
859.208	0.0136670
859.286	0.0137298
859.364	0.0137811
859.443	0.0137299
859.521	0.0138113
859.599	0.0136166
859.677	0.0138512
859.755	0.0138329
859.833	0.0136472
859.911	0.0138642
859.989	0.0137864
860.068	0.0138533
860.146	0.0139230
860.224	0.0137659
860.302	0.0135601
860.380	0.0135306
860.458	0.0136186
860.536	0.0134769
860.614	0.0134708
860.693	0.0134299
860.771	0.0133204
860.849	0.0134132
860.927	0.0133347
861.005	0.0132538
861.083	0.0133315
861.161	0.0134046
861.239	0.0134143
861.318	0.0134299
861.396	0.0135374
861.474	0.0134962
861.552	0.0135851
861.630	0.0135439
861.708	0.0136042
861.786	0.0136579
861.864	0.0136887
861.943	0.0136994
862.021	0.0136311
862.099	0.0138202
862.177	0.0136642
862.255	0.0138821
862.333	0.0138445
862.411	0.0138364
862.489	0.0137084
862.568	0.0138063
862.646	0.0138815
862.724	0.0138580
862.802	0.0139362
862.880	0.0138931
862.958	0.0137687
863.036	0.0138525
863.114	0.0139550
863.193	0.0140423
863.271	0.0139719
863.349	0.0139768
863.427	0.0139243
863.505	0.0138157
863.583	0.0139021
863.661	0.0141284
863.739	0.0139243
863.818	0.0139581
863.896	0.0138178
863.974	0.0141394
864.052	0.0138964
864.130	0.0138970
864.208	0.0138949
864.286	0.0138149
864.364	0.0138843
864.443	0.0138058
864.521	0.0136726
864.599	0.0136744
864.677	0.0136427
864.755	0.0136053
864.833	0.0135487
864.911	0.0135132
864.989	0.0134410
865.068	0.0135474
865.146	0.0135957
865.224	0.0134684
865.302	0.0134777
865.380	0.0135145
865.458	0.0135634
865.536	0.0135297
865.614	0.0134615
865.693	0.0134669
865.771	0.0135590
865.849	0.0135472
865.927	0.0138177
866.005	0.0137365
866.083	0.0139094
866.161	0.0137741
866.239	0.0137666
866.318	0.0139069
866.396	0.0138758
866.474	0.0137921
866.552	0.0137216
866.630	0.0139124
866.708	0.0137923
866.786	0.0137953
866.864	0.0138154
866.943	0.0138165
867.021	0.0137238
867.099	0.0138049
867.177	0.0136713
867.255	0.0137683
867.333	0.0136812
867.411	0.0136567
867.489	0.0137429
867.568	0.0135457
867.646	0.0134475
867.724	0.0135887
867.802	0.0135233
867.880	0.0134837
867.958	0.0134671
868.036	0.0134322
868.114	0.0134489
868.193	0.0134078
868.271	0.0135222
868.349	0.0134123
868.427	0.0132824
868.505	0.0133995
868.583	0.0135733
868.661	0.0135477
868.739	0.0135428
868.818	0.0136958
868.896	0.0135368
868.974	0.0135789
869.052	0.0137373
869.130	0.0136697
869.208	0.0137838
869.286	0.0137080
869.364	0.0138438
869.443	0.0139896
869.521	0.0139346
869.599	0.0138477
869.677	0.0139536
869.755	0.0140630
869.833	0.0140115
869.911	0.0140100
869.989	0.0139932
870.068	0.0141299
870.146	0.0140026
870.224	0.0138732
870.302	0.0140800
870.380	0.0141118
870.458	0.0139555
870.536	0.0140033
870.614	0.0138778
870.693	0.0138203
870.771	0.0138783
870.849	0.0138711
870.927	0.0137595
871.005	0.0136223
871.083	0.0136713
871.161	0.0137809
871.239	0.0137045
871.318	0.0137401
871.396	0.0137975
871.474	0.0136613
871.552	0.0135870
871.630	0.0135619
871.708	0.0135542
871.786	0.0135856
871.864	0.0134831
871.943	0.0135025
872.021	0.0135796
872.099	0.0135371
872.177	0.0134962
872.255	0.0133785
872.333	0.0135153
872.411	0.0133452
872.489	0.0134328
872.568	0.0134788
872.646	0.0135464
872.724	0.0134257
872.802	0.0133857
872.880	0.0133508
872.958	0.0134573
873.036	0.0132584
873.114	0.0135284
873.193	0.0133329
873.271	0.0134328
873.349	0.0133951
873.427	0.0134827
873.505	0.0136504
873.583	0.0136964
873.661	0.0137276
873.739	0.0135208
873.818	0.0137676
873.896	0.0135654
873.974	0.0137680
874.052	0.0135884
874.130	0.0136464
874.208	0.0135642
874.286	0.0135302
874.364	0.0136681
874.443	0.0137432
874.521	0.0136008
874.599	0.0135667
874.677	0.0136192
874.755	0.0138330
874.833	0.0136799
874.911	0.0138020
874.989	0.0138387
875.068	0.0140099
875.146	0.0139304
875.224	0.0138913
875.302	0.0139073
875.380	0.0138809
875.458	0.0137866
875.536	0.0139941
875.614	0.0140211
875.693	0.0138391
875.771	0.0139162
875.849	0.0139359
875.927	0.0138299
876.005	0.0138038
876.083	0.0138282
876.161	0.0140099
876.239	0.0139172
876.318	0.0138240
876.396	0.0139284
876.474	0.0137472
876.552	0.0136884
876.630	0.0137401
876.708	0.0136929
876.786	0.0137340
876.864	0.0136742
876.943	0.0136870
877.021	0.0136150
877.099	0.0135384
877.177	0.0134641
877.255	0.0134936
877.333	0.0134813
877.411	0.0136120
877.489	0.0133564
877.568	0.0133200
877.646	0.0132379
877.724	0.0133456
877.802	0.0131940
877.880	0.0133455
877.958	0.0133295
878.036	0.0131406
878.114	0.0131686
878.193	0.0132500
878.271	0.0133161
878.349	0.0133083
878.427	0.0132821
878.505	0.0133159
878.583	0.0135191
878.661	0.0136112
878.739	0.0135992
878.818	0.0136303
878.896	0.0134980
878.974	0.0136793
879.052	0.0136564
879.130	0.0136240
879.208	0.0135527
879.286	0.0135588
879.364	0.0136999
879.443	0.0137179
879.521	0.0138460
879.599	0.0137263
879.677	0.0138646
879.755	0.0138408
879.833	0.0137399
879.911	0.0137791
879.989	0.0138372
880.068	0.0139618
880.146	0.0138343
880.224	0.0137655
880.302	0.0138512
880.380	0.0137169
880.458	0.0136193
880.536	0.0137347
880.614	0.0136379
880.693	0.0137193
880.771	0.0136678
880.849	0.0137772
880.927	0.0137791
881.005	0.0137013
881.083	0.0135947
881.161	0.0136482
881.239	0.0139043
881.318	0.0137913
881.396	0.0138462
881.474	0.0138840
881.552	0.0137057
881.630	0.0137716
881.708	0.0137518
881.786	0.0136634
881.864	0.0138182
881.943	0.0136504
882.021	0.0137318
882.099	0.0137222
882.177	0.0136446
882.255	0.0138285
882.333	0.0138921
882.411	0.0138676
882.489	0.0137577
882.568	0.0137965
882.646	0.0138903
882.724	0.0139465
882.802	0.0139970
882.880	0.0138319
882.958	0.0139098
883.036	0.0138775
883.114	0.0138239
883.193	0.0137417
883.271	0.0137093
883.349	0.0136756
883.427	0.0135236
883.505	0.0135939
883.583	0.0135135
883.661	0.0134978
883.739	0.0134021
883.818	0.0133305
883.896	0.0133513
883.974	0.0132954
884.052	0.0134686
884.130	0.0134362
884.208	0.0133671
884.286	0.0134620
884.364	0.0132545
884.443	0.0132888
884.521	0.0133145
884.599	0.0132804
884.677	0.0133533
884.755	0.0133842
884.833	0.0133372
884.911	0.0133186
884.989	0.0133521
885.068	0.0133626
885.146	0.0135110
885.224	0.0133304
885.302	0.0135291
885.380	0.0135274
885.458	0.0136445
885.536	0.0137071
885.614	0.0137004
885.693	0.0137718
885.771	0.0137547
885.849	0.0136535
885.927	0.0138204
886.005	0.0139285
886.083	0.0139843
886.161	0.0139127
886.239	0.0140209
886.318	0.0140916
886.396	0.0139861
886.474	0.0140665
886.552	0.0140612
886.630	0.0141621
886.708	0.0142037
886.786	0.0141882
886.864	0.0141503
886.943	0.0142048
887.021	0.0142545
887.099	0.0141063
887.177	0.0142053
887.255	0.0141022
887.333	0.0138442
887.411	0.0137489
887.489	0.0136382
887.568	0.0134385
887.646	0.0134269
887.724	0.0136542
887.802	0.0134824
887.880	0.0133877
887.958	0.0134379
888.036	0.0132857
888.114	0.0133130
888.193	0.0134093
888.271	0.0133573
888.349	0.0133430
888.427	0.0133278
888.505	0.0132427
888.583	0.0133768
888.661	0.0134641
888.739	0.0135017
888.818	0.0134662
888.896	0.0134280
888.974	0.0133347
889.052	0.0134583
889.130	0.0135783
889.208	0.0135275
889.286	0.0137962
889.364	0.0138399
889.443	0.0136828
889.521	0.0136430
889.599	0.0138521
889.677	0.0139261
889.755	0.0140236
889.833	0.0140078
889.911	0.0140515
889.989	0.0139453
890.068	0.0138497
890.146	0.0139045
890.224	0.0139159
890.302	0.0139641
890.380	0.0138578
890.458	0.0137654
890.536	0.0137810
890.614	0.0138409
890.693	0.0137471
890.771	0.0136755
890.849	0.0136773
890.927	0.0136898
891.005	0.0136250
891.083	0.0136903
891.161	0.0135468
891.239	0.0135126
891.318	0.0136231
891.396	0.0135376
891.474	0.0133402
891.552	0.0133371
891.630	0.0132894
891.708	0.0134431
891.786	0.0133190
891.864	0.0133891
891.943	0.0133984
892.021	0.0132816
892.099	0.0132584
892.177	0.0134330
892.255	0.0135483
892.333	0.0134247
892.411	0.0134467
892.489	0.0136716
892.568	0.0136969
892.646	0.0137849
892.724	0.0138246
892.802	0.0137405
892.880	0.0138992
892.958	0.0139140
893.036	0.0139630
893.114	0.0139500
893.193	0.0139415
893.271	0.0140411
893.349	0.0140265
893.427	0.0140815
893.505	0.0140982
893.583	0.0139603
893.661	0.0140462
893.739	0.0139732
893.818	0.0138066
893.896	0.0138646
893.974	0.0138818
894.052	0.0139766
894.130	0.0138411
894.208	0.0136742
894.286	0.0136647
894.364	0.0135051
894.443	0.0136623
894.521	0.0133721
894.599	0.0135033
894.677	0.0135194
894.755	0.0133866
894.833	0.0135676
894.911	0.0135022
894.989	0.0134837
895.068	0.0136190
895.146	0.0135141
895.224	0.0135982
895.302	0.0137556
895.380	0.0136913
895.458	0.0136244
895.536	0.0137682
895.614	0.0138080
895.693	0.0137911
895.771	0.0137405
895.849	0.0137205
895.927	0.0137914
896.005	0.0136988
896.083	0.0135441
896.161	0.0136866
896.239	0.0137099
896.318	0.0136920
896.396	0.0135976
896.474	0.0136459
896.552	0.0135925
896.630	0.0134340
896.708	0.0132834
896.786	0.0132076
896.864	0.0133341
896.943	0.0132642
897.021	0.0132564
897.099	0.0132603
897.177	0.0131172
897.255	0.0130301
897.333	0.0132616
897.411	0.0133015
897.489	0.0133044
897.568	0.0135343
897.646	0.0135925
897.724	0.0136126
897.802	0.0135535
897.880	0.0138439
897.958	0.0138638
898.036	0.0139832
898.114	0.0139516
898.193	0.0139576
898.271	0.0141851
898.349	0.0141917
898.427	0.0140311
898.505	0.0142010
898.583	0.0142297
898.661	0.0139585
898.739	0.0139135
898.818	0.0139246
898.896	0.0138929
898.974	0.0139479
899.052	0.0139670
899.130	0.0138951
899.208	0.0137338
899.286	0.0137260
899.364	0.0136860
899.443	0.0137344
899.521	0.0136846
899.599	0.0135572
899.677	0.0136092
899.755	0.0135481
899.833	0.0133298
899.911	0.0132758
899.989	0.0132789
900.068	0.0134048
900.146	0.0133189
900.224	0.0134766
900.302	0.0133575
900.380	0.0134208
900.458	0.0135024
900.536	0.0135416
900.614	0.0135606
900.693	0.0135793
900.771	0.0138386
900.849	0.0137460
900.927	0.0137211
901.005	0.0137514
901.083	0.0137957
901.161	0.0138336
901.239	0.0139161
901.318	0.0138744
901.396	0.0137193
901.474	0.0139574
901.552	0.0139677
901.630	0.0138527
901.708	0.0138545
901.786	0.0137043
901.864	0.0137769
901.943	0.0136416
902.021	0.0136765
902.099	0.0135494
902.177	0.0136517
902.255	0.0135811
902.333	0.0135551
902.411	0.0135036
902.489	0.0134030
902.568	0.0135423
902.646	0.0135535
902.724	0.0135611
902.802	0.0136986
902.880	0.0136944
902.958	0.0136601
903.036	0.0138612
903.114	0.0138893
903.193	0.0137726
903.271	0.0139101
903.349	0.0138547
903.427	0.0139938
903.505	0.0138946
903.583	0.0139080
903.661	0.0138255
903.739	0.0139510
903.818	0.0137167
903.896	0.0137001
903.974	0.0136455
904.052	0.0137659
904.130	0.0135239
904.208	0.0136840
904.286	0.0135061
904.364	0.0134024
904.443	0.0134646
904.521	0.0134602
904.599	0.0135332
904.677	0.0135087
904.755	0.0134297
904.833	0.0133238
904.911	0.0134446
904.989	0.0133952
905.068	0.0134942
905.146	0.0135719
905.224	0.0136898
905.302	0.0137477
905.380	0.0138274
905.458	0.0138485
905.536	0.0137762
905.614	0.0138973
905.693	0.0140331
905.771	0.0140823
905.849	0.0141179
905.927	0.0140937
906.005	0.0140987
906.083	0.0139345
906.161	0.0139742
906.239	0.0139704
906.318	0.0138860
906.396	0.0137133
906.474	0.0136887
906.552	0.0136746
906.630	0.0136894
906.708	0.0136575
906.786	0.0134710
906.864	0.0136027
906.943	0.0136221
907.021	0.0136141
907.099	0.0134836
907.177	0.0136060
907.255	0.0135204
907.333	0.0136626
907.411	0.0134523
907.489	0.0136177
907.568	0.0135744
907.646	0.0134221
907.724	0.0135425
907.802	0.0135355
907.880	0.0135999
907.958	0.0135464
908.036	0.0135092
908.114	0.0135732
908.193	0.0134420
908.271	0.0135641
908.349	0.0136496
908.427	0.0136668
908.505	0.0137431
908.583	0.0137319
908.661	0.0139645
908.739	0.0137759
908.818	0.0140004
908.896	0.0139105
908.974	0.0140765
909.052	0.0139671
909.130	0.0139291
909.208	0.0141788
909.286	0.0140801
909.364	0.0139546
909.443	0.0140983
909.521	0.0138947
909.599	0.0139828
909.677	0.0138600
909.755	0.0137725
909.833	0.0138770
909.911	0.0138098
909.989	0.0135754
910.068	0.0135902
910.146	0.0133971
910.224	0.0134123
910.302	0.0133621
910.380	0.0135110
910.458	0.0135331
910.536	0.0134058
910.614	0.0135424
910.693	0.0135625
910.771	0.0134198
910.849	0.0134837
910.927	0.0136015
911.005	0.0135796
911.083	0.0133937
911.161	0.0135535
911.239	0.0136349
911.318	0.0135120
911.396	0.0137093
911.474	0.0137416
911.552	0.0136630
911.630	0.0136871
911.708	0.0137975
911.786	0.0139012
911.864	0.0138335
911.943	0.0137821
912.021	0.0137372
912.099	0.0137643
912.177	0.0137308
912.255	0.0137363
912.333	0.0137660
912.411	0.0137373
912.489	0.0137788
912.568	0.0136717
912.646	0.0136156
912.724	0.0135193
912.802	0.0135786
912.880	0.0136518
912.958	0.0136548
913.036	0.0136359
913.114	0.0136580
913.193	0.0135755
913.271	0.0135445
913.349	0.0134742
913.427	0.0134619
913.505	0.0135567
913.583	0.0135529
913.661	0.0135669
913.739	0.0136144
913.818	0.0136151
913.896	0.0136769
913.974	0.0137795
914.052	0.0137460
914.130	0.0137198
914.208	0.0139243
914.286	0.0138017
914.364	0.0138708
914.443	0.0138877
914.521	0.0137625
914.599	0.0139661
914.677	0.0137676
914.755	0.0137413
914.833	0.0137214
914.911	0.0139541
914.989	0.0137035
915.068	0.0137986
915.146	0.0138594
915.224	0.0137886
915.302	0.0139034
915.380	0.0138412
915.458	0.0138535
915.536	0.0137117
915.614	0.0137084
915.693	0.0137537
915.771	0.0135965
915.849	0.0136560
915.927	0.0135946
916.005	0.0135883
916.083	0.0136175
916.161	0.0135831
916.239	0.0135165
916.318	0.0135345
916.396	0.0135418
916.474	0.0135646
916.552	0.0134732
916.630	0.0135791
916.708	0.0134008
916.786	0.0134530
916.864	0.0133444
916.943	0.0134170
917.021	0.0134019
917.099	0.0134277
917.177	0.0132903
917.255	0.0135175
917.333	0.0135154
917.411	0.0133418
917.489	0.0134555
917.568	0.0135271
917.646	0.0136125
917.724	0.0135377
917.802	0.0135827
917.880	0.0136468
917.958	0.0136385
918.036	0.0136014
918.114	0.0135186
918.193	0.0136307
918.271	0.0134665
918.349	0.0136251
918.427	0.0135650
918.505	0.0136107
918.583	0.0135445
918.661	0.0135046
918.739	0.0134335
918.818	0.0134520
918.896	0.0136460
918.974	0.0136919
919.052	0.0136886
919.130	0.0135922
919.208	0.0135978
919.286	0.0136760
919.364	0.0138721
919.443	0.0137776
919.521	0.0139436
919.599	0.0138179
919.677	0.0138863
919.755	0.0139405
919.833	0.0138403
919.911	0.0138964
919.989	0.0139938
920.068	0.0139922
920.146	0.0138580
920.224	0.0137954
920.302	0.0138702
920.380	0.0137593
920.458	0.0139098
920.536	0.0137335
920.614	0.0138438
920.693	0.0136075
920.771	0.0136650
920.849	0.0137872
920.927	0.0136915
921.005	0.0136414
921.083	0.0136401
921.161	0.0136989
921.239	0.0137601
921.318	0.0135972
921.396	0.0135786
921.474	0.0135595
921.552	0.0135074
921.630	0.0135673
921.708	0.0135540
921.786	0.0135923
921.864	0.0134734
921.943	0.0136610
922.021	0.0134644
922.099	0.0135422
922.177	0.0135342
922.255	0.0135917
922.333	0.0134299
922.411	0.0134014
922.489	0.0133741
922.568	0.0132862
922.646	0.0134030
922.724	0.0134785
922.802	0.0133701
922.880	0.0133549
922.958	0.0135217
923.036	0.0135329
923.114	0.0134573
923.193	0.0135801
923.271	0.0135889
923.349	0.0137041
923.427	0.0137025
923.505	0.0135927
923.583	0.0136385
923.661	0.0136700
923.739	0.0136169
923.818	0.0136546
923.896	0.0137299
923.974	0.0137144
924.052	0.0135475
924.130	0.0135786
924.208	0.0135622
924.286	0.0135776
924.364	0.0135900
924.443	0.0135519
924.521	0.0136456
924.599	0.0135670
924.677	0.0136335
924.755	0.0136854
924.833	0.0137208
924.911	0.0137686
924.989	0.0138578
925.068	0.0138362
925.146	0.0136629
925.224	0.0137237
925.302	0.0139708
925.380	0.0139832
925.458	0.0139413
925.536	0.0139429
925.614	0.0139343
925.693	0.0138932
925.771	0.0139854
925.849	0.0138915
925.927	0.0139109
926.005	0.0139387
926.083	0.0140826
926.161	0.0140435
926.239	0.0139915
926.318	0.0139217
926.396	0.0139150
926.474	0.0138670
926.552	0.0139017
926.630	0.0138107
926.708	0.0137915
926.786	0.0138179
926.864	0.0137585
926.943	0.0137343
927.021	0.0137540
927.099	0.0136777
927.177	0.0135815
927.255	0.0135271
927.333	0.0136719
927.411	0.0137054
927.489	0.0137569
927.568	0.0136383
927.646	0.0136646
927.724	0.0136293
927.802	0.0136619
927.880	0.0137283
927.958	0.0135068
928.036	0.0136108
928.114	0.0137365
928.193	0.0136618
928.271	0.0136416
928.349	0.0135351
928.427	0.0135108
928.505	0.0135343
928.583	0.0134576
928.661	0.0134869
928.739	0.0134416
928.818	0.0135001
928.896	0.0134932
928.974	0.0134592
929.052	0.0134692
929.130	0.0134530
929.208	0.0135918
929.286	0.0135857
929.364	0.0136933
929.443	0.0136088
929.521	0.0135657
929.599	0.0137494
929.677	0.0138234
929.755	0.0138356
929.833	0.0136977
929.911	0.0137228
929.989	0.0138291
930.068	0.0138856
930.146	0.0137701
930.224	0.0138348
930.302	0.0136603
930.380	0.0137535
930.458	0.0136969
930.536	0.0137434
930.614	0.0137103
930.693	0.0136587
930.771	0.0135637
930.849	0.0136254
930.927	0.0136792
931.005	0.0135533
931.083	0.0135674
931.161	0.0135951
931.239	0.0135725
931.318	0.0135472
931.396	0.0136623
931.474	0.0137399
931.552	0.0137910
931.630	0.0137582
931.708	0.0136899
931.786	0.0137527
931.864	0.0137988
931.943	0.0137982
932.021	0.0137827
932.099	0.0137882
932.177	0.0138498
932.255	0.0138585
932.333	0.0137566
932.411	0.0136590
932.489	0.0136433
932.568	0.0137280
932.646	0.0137173
932.724	0.0137354
932.802	0.0137498
932.880	0.0135803
932.958	0.0135476
933.036	0.0136832
933.114	0.0136058
933.193	0.0136999
933.271	0.0137100
933.349	0.0135576
933.427	0.0136628
933.505	0.0136699
933.583	0.0136855
933.661	0.0136121
933.739	0.0137366
933.818	0.0135955
933.896	0.0136742
933.974	0.0136357
934.052	0.0135298
934.130	0.0135079
934.208	0.0135962
934.286	0.0135818
934.364	0.0137593
934.443	0.0135245
934.521	0.0134960
934.599	0.0135174
934.677	0.0133987
934.755	0.0134921
934.833	0.0134808
934.911	0.0134101
934.989	0.0135424
935.068	0.0134483
935.146	0.0135391
935.224	0.0134666
935.302	0.0134735
935.380	0.0134946
935.458	0.0137070
935.536	0.0135110
935.614	0.0136876
935.693	0.0137752
935.771	0.0137172
935.849	0.0136994
935.927	0.0136166
936.005	0.0136840
936.083	0.0136353
936.161	0.0137366
936.239	0.0137601
936.318	0.0138102
936.396	0.0137632
936.474	0.0136603
936.552	0.0137476
936.630	0.0139391
936.708	0.0137595
936.786	0.0136133
936.864	0.0137035
936.943	0.0137958
937.021	0.0136988
937.099	0.0135512
937.177	0.0136540
937.255	0.0136657
937.333	0.0136071
937.411	0.0136610
937.489	0.0137607
937.568	0.0136907
937.646	0.0137821
937.724	0.0137925
937.802	0.0139554
937.880	0.0139997
937.958	0.0137968
938.036	0.0139354
938.114	0.0138918
938.193	0.0140456
938.271	0.0139534
938.349	0.0139646
938.427	0.0137187
938.505	0.0139668
938.583	0.0140208
938.661	0.0137825
938.739	0.0138704
938.818	0.0138136
938.896	0.0136443
938.974	0.0135499
939.052	0.0136626
939.130	0.0134050
939.208	0.0135056
939.286	0.0134319
939.364	0.0134159
939.443	0.0133618
939.521	0.0133989
939.599	0.0134765
939.677	0.0135088
939.755	0.0133469
939.833	0.0134174
939.911	0.0134531
939.989	0.0134464
940.068	0.0133605
940.146	0.0134908
940.224	0.0134623
940.302	0.0134229
940.380	0.0133749
940.458	0.0135668
940.536	0.0135236
940.614	0.0133939
940.693	0.0135003
940.771	0.0134812
940.849	0.0135131
940.927	0.0135867
941.005	0.0136299
941.083	0.0135683
941.161	0.0135091
941.239	0.0136260
941.318	0.0136021
941.396	0.0136838
941.474	0.0137897
941.552	0.0137527
941.630	0.0136607
941.708	0.0138186
941.786	0.0139391
941.864	0.0138036
941.943	0.0139523
942.021	0.0140925
942.099	0.0139459
942.177	0.0139747
942.255	0.0140575
942.333	0.0140788
942.411	0.0140780
942.489	0.0140984
942.568	0.0140073
942.646	0.0139571
942.724	0.0140298
942.802	0.0138908
942.880	0.0137582
942.958	0.0136684
943.036	0.0135672
943.114	0.0135077
943.193	0.0133881
943.271	0.0134099
943.349	0.0134348
943.427	0.0132517
943.505	0.0132204
943.583	0.0132158
943.661	0.0132563
943.739	0.0132928
943.818	0.0131117
943.896	0.0132825
943.974	0.0133750
944.052	0.0132490
944.130	0.0133895
944.208	0.0133275
944.286	0.0134155
944.364	0.0135137
944.443	0.0133833
944.521	0.0135469
944.599	0.0135730
944.677	0.0137086
944.755	0.0137463
944.833	0.0136903
944.911	0.0138022
944.989	0.0138981
945.068	0.0139274
945.146	0.0137661
945.224	0.0136986
945.302	0.0137497
945.380	0.0137666
945.458	0.0138214
945.536	0.0137125
945.614	0.0137161
945.693	0.0138041
945.771	0.0137624
945.849	0.0137524
945.927	0.0137914
946.005	0.0137175
946.083	0.0136771
946.161	0.0138095
946.239	0.0136977
946.318	0.0137181
946.396	0.0135550
946.474	0.0137641
946.552	0.0137151
946.630	0.0136378
946.708	0.0135725
946.786	0.0134859
946.864	0.0135754
946.943	0.0136107
947.021	0.0135196
947.099	0.0137315
947.177	0.0137480
947.255	0.0136091
947.333	0.0134946
947.411	0.0135670
947.489	0.0135109
947.568	0.0136572
947.646	0.0135493
947.724	0.0136930
947.802	0.0137002
947.880	0.0136423
947.958	0.0135928
948.036	0.0137834
948.114	0.0135381
948.193	0.0137932
948.271	0.0137980
948.349	0.0138135
948.427	0.0139039
948.505	0.0139722
948.583	0.0141702
948.661	0.0139349
948.739	0.0138414
948.818	0.0139552
948.896	0.0139532
948.974	0.0140403
949.052	0.0139608
949.130	0.0140025
949.208	0.0140095
949.286	0.0138340
949.364	0.0136738
949.443	0.0135443
949.521	0.0135951
949.599	0.0137055
949.677	0.0136071
949.755	0.0136161
949.833	0.0134807
949.911	0.0134909
949.989	0.0134980
950.068	0.0135773
950.146	0.0135467
950.224	0.0133964
950.302	0.0136418
950.380	0.0135836
950.458	0.0136102
950.536	0.0135531
950.614	0.0137153
950.693	0.0135962
950.771	0.0135629
950.849	0.0136147
950.927	0.0136600
951.005	0.0137424
951.083	0.0136586
951.161	0.0135695
951.239	0.0137476
951.318	0.0138369
951.396	0.0135886
951.474	0.0135992
951.552	0.0135394
951.630	0.0134335
951.708	0.0134455
951.786	0.0134985
951.864	0.0134114
951.943	0.0135901
952.021	0.0134746
952.099	0.0134299
952.177	0.0135152
952.255	0.0136811
952.333	0.0135931
952.411	0.0136562
952.489	0.0136646
952.568	0.0137083
952.646	0.0136375
952.724	0.0135336
952.802	0.0137375
952.880	0.0137953
952.958	0.0135953
953.036	0.0137714
953.114	0.0136990
953.193	0.0138237
953.271	0.0138212
953.349	0.0138182
953.427	0.0137718
953.505	0.0137249
953.583	0.0137485
953.661	0.0138857
953.739	0.0138047
953.818	0.0137926
953.896	0.0136782
953.974	0.0136992
954.052	0.0138956
954.130	0.0138805
954.208	0.0137959
954.286	0.0137814
954.364	0.0137343
954.443	0.0137090
954.521	0.0135606
954.599	0.0136882
954.677	0.0136901
954.755	0.0135844
954.833	0.0138557
954.911	0.0137221
954.989	0.0135577
955.068	0.0134634
955.146	0.0135874
955.224	0.0134726
955.302	0.0134821
955.380	0.0135615
955.458	0.0134561
955.536	0.0133896
955.614	0.0134567
955.693	0.0133024
955.771	0.0132054
955.849	0.0133585
955.927	0.0132983
956.005	0.0133379
956.083	0.0134634
956.161	0.0134188
956.239	0.0134365
956.318	0.0133994
956.396	0.0134419
956.474	0.0133401
956.552	0.0134525
956.630	0.0135139
956.708	0.0136045
956.786	0.0135482
956.864	0.0135528
956.943	0.0136267
957.021	0.0135606
957.099	0.0134227
957.177	0.0135506
957.255	0.0135907
957.333	0.0136089
957.411	0.0135732
957.489	0.0135521
957.568	0.0135712
957.646	0.0136314
957.724	0.0135704
957.802	0.0137759
957.880	0.0136723
957.958	0.0137608
958.036	0.0135941
958.114	0.0137244
958.193	0.0136636
958.271	0.0136955
958.349	0.0138187
958.427	0.0137285
958.505	0.0138811
958.583	0.0137727
958.661	0.0136818
958.739	0.0138039
958.818	0.0137892
958.896	0.0139582
958.974	0.0139173
959.052	0.0138496
959.130	0.0138572
959.208	0.0139788
959.286	0.0138292
959.364	0.0138419
959.443	0.0137522
959.521	0.0137807
959.599	0.0138358
959.677	0.0136878
959.755	0.0135777
959.833	0.0136185
959.911	0.0136841
