05/14/2022	16:31:36	Ver.	4.1	UNKNOWN
Optical Delay	639.989416	Delta X		0.078125	Sweeps	1	Scan Rate	0/0
Coordinates	Axis 1	NaN	Axis 2	NaN	Axis 3	NaN	Axis 4	NaN	Axis 5	NaN	Axis 6	0.000000
TX Power	0.000000	RX Power	0.000000

639.989	0.0136781
640.068	0.0136829
640.146	0.0136403
640.224	0.0136005
640.302	0.0138018
640.380	0.0137437
640.458	0.0136848
640.536	0.0135822
640.614	0.0136959
640.693	0.0136567
640.771	0.0136266
640.849	0.0137595
640.927	0.0135788
641.005	0.0136751
641.083	0.0136331
641.161	0.0136424
641.239	0.0137002
641.318	0.0137008
641.396	0.0136778
641.474	0.0136828
641.552	0.0136211
641.630	0.0136157
641.708	0.0135169
641.786	0.0136547
641.864	0.0136221
641.943	0.0136013
642.021	0.0134933
642.099	0.0136187
642.177	0.0136987
642.255	0.0136153
642.333	0.0138392
642.411	0.0137371
642.489	0.0136913
642.568	0.0136806
642.646	0.0135162
642.724	0.0137583
642.802	0.0136528
642.880	0.0136086
642.958	0.0136722
643.036	0.0137193
643.114	0.0136645
643.193	0.0136478
643.271	0.0137408
643.349	0.0136854
643.427	0.0136438
643.505	0.0136416
643.583	0.0135735
643.661	0.0136235
643.739	0.0136090
643.818	0.0135946
643.896	0.0137370
643.974	0.0136371
644.052	0.0135574
644.130	0.0136559
644.208	0.0136154
644.286	0.0135372
644.364	0.0137621
644.443	0.0136219
644.521	0.0136884
644.599	0.0136282
644.677	0.0136284
644.755	0.0137129
644.833	0.0136972
644.911	0.0136895
644.989	0.0137248
645.068	0.0136855
645.146	0.0137828
645.224	0.0136970
645.302	0.0135851
645.380	0.0137449
645.458	0.0137745
645.536	0.0136348
645.614	0.0136720
645.693	0.0137725
645.771	0.0138253
645.849	0.0136269
645.927	0.0136862
646.005	0.0135469
646.083	0.0137514
646.161	0.0136961
646.239	0.0137336
646.318	0.0137621
646.396	0.0136853
646.474	0.0135401
646.552	0.0137601
646.630	0.0136419
646.708	0.0137364
646.786	0.0138040
646.864	0.0136111
646.943	0.0135205
647.021	0.0137495
647.099	0.0137263
647.177	0.0136631
647.255	0.0137684
647.333	0.0135715
647.411	0.0136387
647.489	0.0135895
647.568	0.0136590
647.646	0.0135248
647.724	0.0136719
647.802	0.0138059
647.880	0.0136569
647.958	0.0135927
648.036	0.0137677
648.114	0.0136571
648.193	0.0137769
648.271	0.0137621
648.349	0.0137186
648.427	0.0137022
648.505	0.0136794
648.583	0.0138311
648.661	0.0135730
648.739	0.0136718
648.818	0.0137315
648.896	0.0136050
648.974	0.0137329
649.052	0.0137431
649.130	0.0137193
649.208	0.0137096
649.286	0.0137407
649.364	0.0135423
649.443	0.0137636
649.521	0.0135888
649.599	0.0136076
649.677	0.0137080
649.755	0.0136813
649.833	0.0137547
649.911	0.0137326
649.989	0.0136521
650.068	0.0137307
650.146	0.0137278
650.224	0.0137552
650.302	0.0138757
650.380	0.0136537
650.458	0.0137192
650.536	0.0137288
650.614	0.0136536
650.693	0.0137177
650.771	0.0137762
650.849	0.0136152
650.927	0.0136858
651.005	0.0137790
651.083	0.0136623
651.161	0.0136306
651.239	0.0137312
651.318	0.0136482
651.396	0.0137881
651.474	0.0136268
651.552	0.0135676
651.630	0.0137795
651.708	0.0138364
651.786	0.0138356
651.864	0.0137041
651.943	0.0136694
652.021	0.0137204
652.099	0.0136823
652.177	0.0137749
652.255	0.0136851
652.333	0.0137549
652.411	0.0137385
652.489	0.0136361
652.568	0.0136518
652.646	0.0136683
652.724	0.0137009
652.802	0.0137330
652.880	0.0136338
652.958	0.0136971
653.036	0.0135819
653.114	0.0137748
653.193	0.0137563
653.271	0.0137449
653.349	0.0136883
653.427	0.0136733
653.505	0.0136866
653.583	0.0136260
653.661	0.0136844
653.739	0.0137079
653.818	0.0137794
653.896	0.0136494
653.974	0.0136976
654.052	0.0136876
654.130	0.0136510
654.208	0.0136782
654.286	0.0137325
654.364	0.0137438
654.443	0.0136764
654.521	0.0137830
654.599	0.0137250
654.677	0.0136697
654.755	0.0138127
654.833	0.0136529
654.911	0.0136744
654.989	0.0136858
655.068	0.0136562
655.146	0.0137236
655.224	0.0136827
655.302	0.0136063
655.380	0.0137318
655.458	0.0136741
655.536	0.0135882
655.614	0.0136962
655.693	0.0136829
655.771	0.0135950
655.849	0.0136737
655.927	0.0137128
656.005	0.0137507
656.083	0.0136214
656.161	0.0137433
656.239	0.0137464
656.318	0.0135489
656.396	0.0135535
656.474	0.0137873
656.552	0.0138063
656.630	0.0136290
656.708	0.0136526
656.786	0.0135722
656.864	0.0135586
656.943	0.0137489
657.021	0.0137784
657.099	0.0137225
657.177	0.0136349
657.255	0.0136809
657.333	0.0138249
657.411	0.0137672
657.489	0.0137196
657.568	0.0138398
657.646	0.0137260
657.724	0.0136911
657.802	0.0136774
657.880	0.0138505
657.958	0.0139674
658.036	0.0136842
658.114	0.0136651
658.193	0.0136594
658.271	0.0136987
658.349	0.0136702
658.427	0.0136971
658.505	0.0138015
658.583	0.0136990
658.661	0.0136237
658.739	0.0137216
658.818	0.0137751
658.896	0.0137218
658.974	0.0136276
659.052	0.0136227
659.130	0.0136457
659.208	0.0136633
659.286	0.0136780
659.364	0.0135986
659.443	0.0136829
659.521	0.0137169
659.599	0.0135556
659.677	0.0137703
659.755	0.0136770
659.833	0.0137672
659.911	0.0137318
659.989	0.0137196
660.068	0.0137264
660.146	0.0137095
660.224	0.0136936
660.302	0.0135621
660.380	0.0137120
660.458	0.0137263
660.536	0.0136254
660.614	0.0136994
660.693	0.0137015
660.771	0.0137490
660.849	0.0136732
660.927	0.0135895
661.005	0.0136404
661.083	0.0136710
661.161	0.0136836
661.239	0.0136198
661.318	0.0136949
661.396	0.0137629
661.474	0.0136665
661.552	0.0135230
661.630	0.0137331
661.708	0.0137384
661.786	0.0135850
661.864	0.0136467
661.943	0.0136582
662.021	0.0136151
662.099	0.0136772
662.177	0.0135796
662.255	0.0134686
662.333	0.0135393
662.411	0.0136303
662.489	0.0135550
662.568	0.0135938
662.646	0.0136455
662.724	0.0137213
662.802	0.0137363
662.880	0.0136523
662.958	0.0136777
663.036	0.0136776
663.114	0.0136331
663.193	0.0136551
663.271	0.0136659
663.349	0.0136966
663.427	0.0137257
663.505	0.0135342
663.583	0.0136970
663.661	0.0135661
663.739	0.0136229
663.818	0.0135355
663.896	0.0137691
663.974	0.0137492
664.052	0.0136300
664.130	0.0136460
664.208	0.0136697
664.286	0.0135901
664.364	0.0136658
664.443	0.0136377
664.521	0.0135318
664.599	0.0137233
664.677	0.0135311
664.755	0.0134998
664.833	0.0135725
664.911	0.0136924
664.989	0.0135334
665.068	0.0135461
665.146	0.0136118
665.224	0.0135955
665.302	0.0136198
665.380	0.0136053
665.458	0.0135884
665.536	0.0135728
665.614	0.0134853
665.693	0.0137061
665.771	0.0136558
665.849	0.0136382
665.927	0.0136262
666.005	0.0134746
666.083	0.0135243
666.161	0.0137275
666.239	0.0137244
666.318	0.0135244
666.396	0.0135092
666.474	0.0136438
666.552	0.0136053
666.630	0.0137204
666.708	0.0134747
666.786	0.0135586
666.864	0.0135947
666.943	0.0135311
667.021	0.0136703
667.099	0.0134836
667.177	0.0135246
667.255	0.0137888
667.333	0.0135067
667.411	0.0136488
667.489	0.0136640
667.568	0.0136415
667.646	0.0135640
667.724	0.0136538
667.802	0.0136912
667.880	0.0136488
667.958	0.0136095
668.036	0.0137218
668.114	0.0136987
668.193	0.0137109
668.271	0.0137688
668.349	0.0137383
668.427	0.0136386
668.505	0.0136803
668.583	0.0137643
668.661	0.0137621
668.739	0.0136968
668.818	0.0136027
668.896	0.0137613
668.974	0.0136121
669.052	0.0137316
669.130	0.0136529
669.208	0.0136925
669.286	0.0137802
669.364	0.0136948
669.443	0.0136955
669.521	0.0136564
669.599	0.0136619
669.677	0.0134788
669.755	0.0137370
669.833	0.0137253
669.911	0.0136727
669.989	0.0136881
670.068	0.0137438
670.146	0.0135648
670.224	0.0137428
670.302	0.0137841
670.380	0.0136398
670.458	0.0137676
670.536	0.0137772
670.614	0.0136576
670.693	0.0137489
670.771	0.0136692
670.849	0.0137237
670.927	0.0137361
671.005	0.0137062
671.083	0.0135735
671.161	0.0139024
671.239	0.0137663
671.318	0.0135909
671.396	0.0137122
671.474	0.0138491
671.552	0.0135709
671.630	0.0137114
671.708	0.0137270
671.786	0.0136777
671.864	0.0136936
671.943	0.0137481
672.021	0.0135700
672.099	0.0135866
672.177	0.0137442
672.255	0.0137064
672.333	0.0137889
672.411	0.0137901
672.489	0.0136890
672.568	0.0137746
672.646	0.0137034
672.724	0.0137531
672.802	0.0137209
672.880	0.0136953
672.958	0.0137891
673.036	0.0137906
673.114	0.0137119
673.193	0.0137874
673.271	0.0136689
673.349	0.0136308
673.427	0.0137719
673.505	0.0137289
673.583	0.0137849
673.661	0.0137762
673.739	0.0137170
673.818	0.0136383
673.896	0.0137594
673.974	0.0137030
674.052	0.0136935
674.130	0.0136649
674.208	0.0136305
674.286	0.0138258
674.364	0.0137684
674.443	0.0138844
674.521	0.0136985
674.599	0.0137272
674.677	0.0138337
674.755	0.0137249
674.833	0.0137480
674.911	0.0136394
674.989	0.0136874
675.068	0.0138495
675.146	0.0137641
675.224	0.0136053
675.302	0.0137738
675.380	0.0137901
675.458	0.0137981
675.536	0.0137885
675.614	0.0138496
675.693	0.0137472
675.771	0.0137749
675.849	0.0138016
675.927	0.0136697
676.005	0.0137669
676.083	0.0137106
676.161	0.0137494
676.239	0.0137027
676.318	0.0138297
676.396	0.0139092
676.474	0.0139393
676.552	0.0138807
676.630	0.0137765
676.708	0.0137679
676.786	0.0137776
676.864	0.0138264
676.943	0.0138307
677.021	0.0138072
677.099	0.0138567
677.177	0.0137784
677.255	0.0136990
677.333	0.0137597
677.411	0.0139157
677.489	0.0137443
677.568	0.0137431
677.646	0.0138248
677.724	0.0135085
677.802	0.0136710
677.880	0.0137325
677.958	0.0138727
678.036	0.0137902
678.114	0.0137643
678.193	0.0137393
678.271	0.0137299
678.349	0.0138972
678.427	0.0139368
678.505	0.0137846
678.583	0.0138907
678.661	0.0137592
678.739	0.0138584
678.818	0.0136789
678.896	0.0137028
678.974	0.0137690
679.052	0.0137404
679.130	0.0137450
679.208	0.0138531
679.286	0.0136864
679.364	0.0136835
679.443	0.0136895
679.521	0.0137295
679.599	0.0136321
679.677	0.0137736
679.755	0.0136860
679.833	0.0136207
679.911	0.0136828
679.989	0.0137696
680.068	0.0139411
680.146	0.0137667
680.224	0.0138640
680.302	0.0139508
680.380	0.0138643
680.458	0.0136698
680.536	0.0138021
680.614	0.0136968
680.693	0.0135868
680.771	0.0134728
680.849	0.0133797
680.927	0.0134341
681.005	0.0134389
681.083	0.0134484
681.161	0.0136563
681.239	0.0137788
681.318	0.0137827
681.396	0.0138953
681.474	0.0138914
681.552	0.0140645
681.630	0.0141406
681.708	0.0141805
681.786	0.0140763
681.864	0.0140097
681.943	0.0140549
682.021	0.0140076
682.099	0.0136748
682.177	0.0137474
682.255	0.0136722
682.333	0.0136549
682.411	0.0135286
682.489	0.0135983
682.568	0.0135181
682.646	0.0133855
682.724	0.0134525
682.802	0.0134112
682.880	0.0133939
682.958	0.0134469
683.036	0.0133875
683.114	0.0132847
683.193	0.0133800
683.271	0.0133168
683.349	0.0132591
683.427	0.0132131
683.505	0.0133472
683.583	0.0135860
683.661	0.0135487
683.739	0.0137156
683.818	0.0138352
683.896	0.0140182
683.974	0.0143484
684.052	0.0143294
684.130	0.0145177
684.208	0.0145979
684.286	0.0147735
684.364	0.0145805
684.443	0.0145174
684.521	0.0143272
684.599	0.0142885
684.677	0.0140302
684.755	0.0138426
684.833	0.0136476
684.911	0.0133337
684.989	0.0132684
685.068	0.0131697
685.146	0.0128814
685.224	0.0127262
685.302	0.0126601
685.380	0.0125916
685.458	0.0125143
685.536	0.0126081
685.614	0.0126567
685.693	0.0124802
685.771	0.0127219
685.849	0.0128400
685.927	0.0127215
686.005	0.0129877
686.083	0.0131182
686.161	0.0132077
686.239	0.0134544
686.318	0.0138794
686.396	0.0138664
686.474	0.0140475
686.552	0.0142837
686.630	0.0142332
686.708	0.0143445
686.786	0.0144917
686.864	0.0145375
686.943	0.0145705
687.021	0.0146694
687.099	0.0146831
687.177	0.0145091
687.255	0.0144471
687.333	0.0144898
687.411	0.0143968
687.489	0.0145055
687.568	0.0143839
687.646	0.0144036
687.724	0.0144588
687.802	0.0144319
687.880	0.0144392
687.958	0.0142239
688.036	0.0140898
688.114	0.0139468
688.193	0.0137675
688.271	0.0134848
688.349	0.0133848
688.427	0.0130422
688.505	0.0128236
688.583	0.0126686
688.661	0.0122733
688.739	0.0121680
688.818	0.0118858
688.896	0.0117822
688.974	0.0116467
689.052	0.0115678
689.130	0.0116434
689.208	0.0117628
689.286	0.0117725
689.364	0.0120344
689.443	0.0122187
689.521	0.0123919
689.599	0.0126849
689.677	0.0129485
689.755	0.0132324
689.833	0.0134569
689.911	0.0137850
689.989	0.0138175
690.068	0.0141338
690.146	0.0145755
690.224	0.0148291
690.302	0.0150578
690.380	0.0151279
690.458	0.0156334
690.536	0.0159771
690.614	0.0162537
690.693	0.0162939
690.771	0.0165101
690.849	0.0166037
690.927	0.0166299
691.005	0.0165187
691.083	0.0162975
691.161	0.0158785
691.239	0.0157751
691.318	0.0152823
691.396	0.0149178
691.474	0.0144939
691.552	0.0141296
691.630	0.0136884
691.708	0.0132008
691.786	0.0128994
691.864	0.0125127
691.943	0.0121422
692.021	0.0120071
692.099	0.0116016
692.177	0.0115323
692.255	0.0112238
692.333	0.0111011
692.411	0.0109993
692.489	0.0109562
692.568	0.0108524
692.646	0.0108212
692.724	0.0107697
692.802	0.0109399
692.880	0.0110661
692.958	0.0112224
693.036	0.0112465
693.114	0.0114589
693.193	0.0118496
693.271	0.0120094
693.349	0.0124238
693.427	0.0126718
693.505	0.0130962
693.583	0.0134259
693.661	0.0136402
693.739	0.0139621
693.818	0.0142876
693.896	0.0144991
693.974	0.0150183
694.052	0.0153765
694.130	0.0157321
694.208	0.0160880
694.286	0.0163724
694.364	0.0167017
694.443	0.0171623
694.521	0.0173510
694.599	0.0176437
694.677	0.0176636
694.755	0.0176559
694.833	0.0180083
694.911	0.0178646
694.989	0.0175629
695.068	0.0172964
695.146	0.0169096
695.224	0.0166299
695.302	0.0160347
695.380	0.0156756
695.458	0.0152737
695.536	0.0144201
695.614	0.0139027
695.693	0.0135949
695.771	0.0130926
695.849	0.0125507
695.927	0.0120455
696.005	0.0116628
696.083	0.0111450
696.161	0.0106593
696.239	0.0101756
696.318	0.00968895
696.396	0.00935875
696.474	0.00909882
696.552	0.00870598
696.630	0.00847641
696.708	0.00824989
696.786	0.00820587
696.864	0.00825157
696.943	0.00834946
697.021	0.00851669
697.099	0.00869957
697.177	0.00919762
697.255	0.00960083
697.333	0.0100500
697.411	0.0109885
697.489	0.0117484
697.568	0.0125410
697.646	0.0132848
697.724	0.0142670
697.802	0.0151424
697.880	0.0158924
697.958	0.0167496
698.036	0.0174276
698.114	0.0181696
698.193	0.0189561
698.271	0.0194955
698.349	0.0199327
698.427	0.0203303
698.505	0.0206085
698.583	0.0208705
698.661	0.0208579
698.739	0.0208847
698.818	0.0207412
698.896	0.0204809
698.974	0.0200266
699.052	0.0195107
699.130	0.0188353
699.208	0.0179724
699.286	0.0172205
699.364	0.0160670
699.443	0.0151532
699.521	0.0141326
699.599	0.0129623
699.677	0.0118967
699.755	0.0110212
699.833	0.0101261
699.911	0.00939987
699.989	0.00857277
700.068	0.00808777
700.146	0.00755569
700.224	0.00732552
700.302	0.00721886
700.380	0.00719429
700.458	0.00704956
700.536	0.00724503
700.614	0.00761673
700.693	0.00801430
700.771	0.00828407
700.849	0.00881721
700.927	0.00935234
701.005	0.00998062
701.083	0.0105119
701.161	0.0111987
701.239	0.0118936
701.318	0.0125368
701.396	0.0131273
701.474	0.0138718
701.552	0.0143443
701.630	0.0150496
701.708	0.0152599
701.786	0.0155737
701.864	0.0158789
701.943	0.0160366
702.021	0.0162682
702.099	0.0163343
702.177	0.0163362
702.255	0.0165050
702.333	0.0164215
702.411	0.0164165
702.489	0.0166708
702.568	0.0168521
702.646	0.0167487
702.724	0.0169258
702.802	0.0169061
702.880	0.0167667
702.958	0.0168504
703.036	0.0168908
703.114	0.0167959
703.193	0.0166520
703.271	0.0164810
703.349	0.0164043
703.427	0.0160899
703.505	0.0158935
703.583	0.0158160
703.661	0.0154767
703.739	0.0152135
703.818	0.0150212
703.896	0.0147716
703.974	0.0145943
704.052	0.0143779
704.130	0.0139443
704.208	0.0136617
704.286	0.0132797
704.364	0.0127633
704.443	0.0123621
704.521	0.0117102
704.599	0.0112955
704.677	0.0107493
704.755	0.0102464
704.833	0.0100168
704.911	0.00958565
704.989	0.00942085
705.068	0.00929230
705.146	0.00929474
705.224	0.00919724
705.302	0.00932533
705.380	0.00938004
705.458	0.00974846
705.536	0.0102451
705.614	0.0106672
705.693	0.0111076
705.771	0.0117217
705.849	0.0122694
705.927	0.0129486
706.005	0.0134509
706.083	0.0141125
706.161	0.0147346
706.239	0.0151265
706.318	0.0155595
706.396	0.0158918
706.474	0.0161012
706.552	0.0162736
706.630	0.0163309
706.708	0.0163567
706.786	0.0161114
706.864	0.0158437
706.943	0.0155883
707.021	0.0153869
707.099	0.0149213
707.177	0.0148803
707.255	0.0146064
707.333	0.0141723
707.411	0.0141939
707.489	0.0141176
707.568	0.0137940
707.646	0.0136876
707.724	0.0136629
707.802	0.0136090
707.880	0.0138260
707.958	0.0137585
708.036	0.0138580
708.114	0.0140588
708.193	0.0142480
708.271	0.0142728
708.349	0.0145470
708.427	0.0146497
708.505	0.0147591
708.583	0.0149558
708.661	0.0150841
708.739	0.0151796
708.818	0.0151524
708.896	0.0152026
708.974	0.0150651
709.052	0.0152005
709.130	0.0150623
709.208	0.0149979
709.286	0.0148992
709.364	0.0147707
709.443	0.0144581
709.521	0.0143246
709.599	0.0142057
709.677	0.0138033
709.755	0.0135191
709.833	0.0131367
709.911	0.0126927
709.989	0.0122527
710.068	0.0120812
710.146	0.0116643
710.224	0.0113434
710.302	0.0109603
710.380	0.0107405
710.458	0.0105910
710.536	0.0107705
710.614	0.0105439
710.693	0.0106821
710.771	0.0108008
710.849	0.0111488
710.927	0.0113086
711.005	0.0119418
711.083	0.0122607
711.161	0.0127423
711.239	0.0133346
711.318	0.0137987
711.396	0.0140729
711.474	0.0144286
711.552	0.0145124
711.630	0.0146337
711.708	0.0148975
711.786	0.0147099
711.864	0.0145525
711.943	0.0145309
712.021	0.0142400
712.099	0.0139964
712.177	0.0136641
712.255	0.0136903
712.333	0.0134322
712.411	0.0132215
712.489	0.0131783
712.568	0.0130994
712.646	0.0131186
712.724	0.0130131
712.802	0.0130236
712.880	0.0131227
712.958	0.0131606
713.036	0.0130865
713.114	0.0131318
713.193	0.0135179
713.271	0.0136364
713.349	0.0137189
713.427	0.0140388
713.505	0.0144356
713.583	0.0146088
713.661	0.0150227
713.739	0.0150946
713.818	0.0152809
713.896	0.0155388
713.974	0.0158379
714.052	0.0159362
714.130	0.0159711
714.208	0.0159586
714.286	0.0160178
714.364	0.0160047
714.443	0.0158813
714.521	0.0160635
714.599	0.0159326
714.677	0.0158795
714.755	0.0157767
714.833	0.0157529
714.911	0.0157245
714.989	0.0155043
715.068	0.0152395
715.146	0.0151583
715.224	0.0148894
715.302	0.0143925
715.380	0.0140005
715.458	0.0134456
715.536	0.0130219
715.614	0.0125492
715.693	0.0119952
715.771	0.0113406
715.849	0.0109171
715.927	0.0102968
716.005	0.00995651
716.083	0.00964615
716.161	0.00940308
716.239	0.00924034
716.318	0.00920021
716.396	0.00929947
716.474	0.00956635
716.552	0.00982574
716.630	0.0100911
716.708	0.0107540
716.786	0.0112098
716.864	0.0118160
716.943	0.0124249
717.021	0.0129998
717.099	0.0134396
717.177	0.0137711
717.255	0.0140883
717.333	0.0144613
717.411	0.0144947
717.489	0.0146776
717.568	0.0147299
717.646	0.0148315
717.724	0.0148734
717.802	0.0148589
717.880	0.0148022
717.958	0.0148302
718.036	0.0147643
718.114	0.0147748
718.193	0.0146628
718.271	0.0146852
718.349	0.0147294
718.427	0.0146605
718.505	0.0147979
718.583	0.0146645
718.661	0.0147284
718.739	0.0149107
718.818	0.0149290
718.896	0.0150164
718.974	0.0150040
719.052	0.0151073
719.130	0.0153825
719.208	0.0153822
719.286	0.0154368
719.364	0.0155125
719.443	0.0154806
719.521	0.0154784
719.599	0.0154888
719.677	0.0154200
719.755	0.0151096
719.833	0.0151201
719.911	0.0149250
719.989	0.0148273
720.068	0.0145058
720.146	0.0144141
720.224	0.0144243
720.302	0.0143264
720.380	0.0140112
720.458	0.0139534
720.536	0.0139365
720.614	0.0137381
720.693	0.0135590
720.771	0.0133486
720.849	0.0131635
720.927	0.0129776
721.005	0.0128217
721.083	0.0126775
721.161	0.0125135
721.239	0.0125402
721.318	0.0123119
721.396	0.0121342
721.474	0.0119800
721.552	0.0118855
721.630	0.0118333
721.708	0.0117836
721.786	0.0118826
721.864	0.0117718
721.943	0.0117872
722.021	0.0119751
722.099	0.0119547
722.177	0.0120675
722.255	0.0121793
722.333	0.0122953
722.411	0.0123751
722.489	0.0124747
722.568	0.0126611
722.646	0.0126589
722.724	0.0128399
722.802	0.0129192
722.880	0.0130123
722.958	0.0129957
723.036	0.0131416
723.114	0.0132264
723.193	0.0131844
723.271	0.0132880
723.349	0.0134032
723.427	0.0134303
723.505	0.0137028
723.583	0.0137985
723.661	0.0137841
723.739	0.0141145
723.818	0.0142155
723.896	0.0143295
723.974	0.0145427
724.052	0.0144328
724.130	0.0146239
724.208	0.0147542
724.286	0.0148486
724.364	0.0146696
724.443	0.0148197
724.521	0.0147768
724.599	0.0147473
724.677	0.0149364
724.755	0.0148803
724.833	0.0150055
724.911	0.0150205
724.989	0.0151160
725.068	0.0150272
725.146	0.0150755
725.224	0.0151878
725.302	0.0150628
725.380	0.0152240
725.458	0.0152138
725.536	0.0152360
725.614	0.0152967
725.693	0.0153188
725.771	0.0150558
725.849	0.0151043
725.927	0.0149914
726.005	0.0150898
726.083	0.0150449
726.161	0.0149190
726.239	0.0148057
726.318	0.0147363
726.396	0.0145926
726.474	0.0143869
726.552	0.0143169
726.630	0.0141175
726.708	0.0138966
726.786	0.0136479
726.864	0.0132864
726.943	0.0128677
727.021	0.0127219
727.099	0.0122309
727.177	0.0119901
727.255	0.0117905
727.333	0.0114937
727.411	0.0111909
727.489	0.0110760
727.568	0.0109745
727.646	0.0109513
727.724	0.0108683
727.802	0.0109009
727.880	0.0108698
727.958	0.0111013
728.036	0.0112259
728.114	0.0112720
728.193	0.0115775
728.271	0.0116891
728.349	0.0119511
728.427	0.0122923
728.505	0.0125248
728.583	0.0127579
728.661	0.0130414
728.739	0.0132390
728.818	0.0135973
728.896	0.0136087
728.974	0.0139607
729.052	0.0141223
729.130	0.0142487
729.208	0.0140986
729.286	0.0143506
729.364	0.0145309
729.443	0.0146899
729.521	0.0146717
729.599	0.0148668
729.677	0.0149516
729.755	0.0149475
729.833	0.0151253
729.911	0.0150190
729.989	0.0149581
730.068	0.0149911
730.146	0.0149615
730.224	0.0149001
730.302	0.0148032
730.380	0.0147180
730.458	0.0143822
730.536	0.0142506
730.614	0.0141145
730.693	0.0142316
730.771	0.0141399
730.849	0.0140922
730.927	0.0141384
731.005	0.0140976
731.083	0.0141976
731.161	0.0143734
731.239	0.0145123
731.318	0.0146876
731.396	0.0149401
731.474	0.0150518
731.552	0.0149392
731.630	0.0151818
731.708	0.0152332
731.786	0.0152346
731.864	0.0149809
731.943	0.0150110
732.021	0.0147933
732.099	0.0145757
732.177	0.0143834
732.255	0.0142093
732.333	0.0139084
732.411	0.0135944
732.489	0.0133526
732.568	0.0131277
732.646	0.0129451
732.724	0.0125694
732.802	0.0122819
732.880	0.0120490
732.958	0.0120169
733.036	0.0119413
733.114	0.0118143
733.193	0.0116772
733.271	0.0116651
733.349	0.0117136
733.427	0.0118132
733.505	0.0119722
733.583	0.0119767
733.661	0.0120508
733.739	0.0121435
733.818	0.0125166
733.896	0.0127415
733.974	0.0129257
734.052	0.0132015
734.130	0.0132129
734.208	0.0134316
734.286	0.0136771
734.364	0.0138740
734.443	0.0139285
734.521	0.0140140
734.599	0.0141586
734.677	0.0140506
734.755	0.0138651
734.833	0.0138297
734.911	0.0139120
734.989	0.0137022
735.068	0.0136547
735.146	0.0135630
735.224	0.0134487
735.302	0.0132954
735.380	0.0133237
735.458	0.0132612
735.536	0.0131361
735.614	0.0130666
735.693	0.0130241
735.771	0.0128008
735.849	0.0128275
735.927	0.0128223
736.005	0.0127461
736.083	0.0127234
736.161	0.0127949
736.239	0.0128710
736.318	0.0128751
736.396	0.0131986
736.474	0.0131828
736.552	0.0136417
736.630	0.0139423
736.708	0.0141749
736.786	0.0142847
736.864	0.0147390
736.943	0.0149688
737.021	0.0153153
737.099	0.0157739
737.177	0.0159533
737.255	0.0160956
737.333	0.0164589
737.411	0.0165786
737.489	0.0165474
737.568	0.0164693
737.646	0.0164442
737.724	0.0163772
737.802	0.0160954
737.880	0.0160121
737.958	0.0156891
738.036	0.0153680
738.114	0.0149920
738.193	0.0146210
738.271	0.0141254
738.349	0.0137682
738.427	0.0132981
738.505	0.0130751
738.583	0.0127357
738.661	0.0125455
738.739	0.0123004
738.818	0.0123493
738.896	0.0123712
738.974	0.0121442
739.052	0.0120397
739.130	0.0123861
739.208	0.0124290
739.286	0.0124800
739.364	0.0128155
739.443	0.0129016
739.521	0.0130566
739.599	0.0131981
739.677	0.0130992
739.755	0.0131219
739.833	0.0132723
739.911	0.0132771
739.989	0.0130708
740.068	0.0129248
740.146	0.0127528
740.224	0.0128080
740.302	0.0128501
740.380	0.0124840
740.458	0.0124053
740.536	0.0124316
740.614	0.0123198
740.693	0.0123139
740.771	0.0122220
740.849	0.0123115
740.927	0.0121729
741.005	0.0122047
741.083	0.0124059
741.161	0.0125704
741.239	0.0126765
741.318	0.0127913
741.396	0.0127753
741.474	0.0131845
741.552	0.0133348
741.630	0.0135949
741.708	0.0137106
741.786	0.0137914
741.864	0.0140625
741.943	0.0140942
742.021	0.0141412
742.099	0.0142699
742.177	0.0143653
742.255	0.0144819
742.333	0.0146361
742.411	0.0149519
742.489	0.0149374
742.568	0.0149416
742.646	0.0150946
742.724	0.0152931
742.802	0.0153863
742.880	0.0153487
742.958	0.0152765
743.036	0.0153304
743.114	0.0152757
743.193	0.0153164
743.271	0.0153243
743.349	0.0151672
743.427	0.0152309
743.505	0.0152091
743.583	0.0151024
743.661	0.0150928
743.739	0.0150825
743.818	0.0148859
743.896	0.0148624
743.974	0.0147466
744.052	0.0145559
744.130	0.0143472
744.208	0.0142884
744.286	0.0140784
744.364	0.0139008
744.443	0.0136970
744.521	0.0135406
744.599	0.0133635
744.677	0.0132369
744.755	0.0131435
744.833	0.0130203
744.911	0.0128864
744.989	0.0127732
745.068	0.0126289
745.146	0.0127907
745.224	0.0126978
745.302	0.0126067
745.380	0.0126288
745.458	0.0127689
745.536	0.0128568
745.614	0.0127469
745.693	0.0129512
745.771	0.0129277
745.849	0.0129160
745.927	0.0128124
746.005	0.0126923
746.083	0.0128594
746.161	0.0129233
746.239	0.0127927
746.318	0.0128027
746.396	0.0127402
746.474	0.0127331
746.552	0.0126587
746.630	0.0126118
746.708	0.0127030
746.786	0.0127171
746.864	0.0127461
746.943	0.0127599
747.021	0.0127389
747.099	0.0128024
747.177	0.0128749
747.255	0.0129003
747.333	0.0129729
747.411	0.0130587
747.489	0.0130511
747.568	0.0134781
747.646	0.0134258
747.724	0.0135698
747.802	0.0138901
747.880	0.0140050
747.958	0.0142021
748.036	0.0141433
748.114	0.0142359
748.193	0.0145506
748.271	0.0144528
748.349	0.0145310
748.427	0.0146753
748.505	0.0146712
748.583	0.0145694
748.661	0.0146330
748.739	0.0147405
748.818	0.0146185
748.896	0.0144373
748.974	0.0144233
749.052	0.0144514
749.130	0.0144648
749.208	0.0143975
749.286	0.0142347
749.364	0.0141960
749.443	0.0139911
749.521	0.0139485
749.599	0.0139037
749.677	0.0140796
749.755	0.0140897
749.833	0.0141988
749.911	0.0142757
749.989	0.0143666
750.068	0.0145004
750.146	0.0145489
750.224	0.0146305
750.302	0.0147138
750.380	0.0148560
750.458	0.0148001
750.536	0.0148173
750.614	0.0147988
750.693	0.0148765
750.771	0.0147244
750.849	0.0146468
750.927	0.0143954
751.005	0.0142937
751.083	0.0142177
751.161	0.0139180
751.239	0.0136916
751.318	0.0135629
751.396	0.0134940
751.474	0.0131190
751.552	0.0130199
751.630	0.0129612
751.708	0.0128967
751.786	0.0127090
751.864	0.0127221
751.943	0.0126893
752.021	0.0126533
752.099	0.0126101
752.177	0.0125948
752.255	0.0125724
752.333	0.0125755
752.411	0.0125328
752.489	0.0126131
752.568	0.0126585
752.646	0.0126038
752.724	0.0126040
752.802	0.0126031
752.880	0.0125024
752.958	0.0126265
753.036	0.0126826
753.114	0.0126081
753.193	0.0124461
753.271	0.0124462
753.349	0.0126638
753.427	0.0127331
753.505	0.0126655
753.583	0.0126771
753.661	0.0130058
753.739	0.0130428
753.818	0.0133299
753.896	0.0135062
753.974	0.0135722
754.052	0.0138696
754.130	0.0139944
754.208	0.0141657
754.286	0.0142534
754.364	0.0144728
754.443	0.0145797
754.521	0.0147866
754.599	0.0149344
754.677	0.0148982
754.755	0.0150314
754.833	0.0150916
754.911	0.0151853
754.989	0.0151749
755.068	0.0150385
755.146	0.0149810
755.224	0.0148691
755.302	0.0147990
755.380	0.0148752
755.458	0.0146092
755.536	0.0144942
755.614	0.0143246
755.693	0.0141795
755.771	0.0139513
755.849	0.0139252
755.927	0.0136852
756.005	0.0136498
756.083	0.0136651
756.161	0.0136665
756.239	0.0136789
756.318	0.0137920
756.396	0.0137480
756.474	0.0139384
756.552	0.0141602
756.630	0.0141895
756.708	0.0141602
756.786	0.0144154
756.864	0.0144962
756.943	0.0145413
757.021	0.0146621
757.099	0.0145298
757.177	0.0146047
757.255	0.0144105
757.333	0.0143609
757.411	0.0142196
757.489	0.0139256
757.568	0.0138011
757.646	0.0136141
757.724	0.0134533
757.802	0.0130490
757.880	0.0128113
757.958	0.0127104
758.036	0.0125117
758.114	0.0122881
758.193	0.0122050
758.271	0.0120774
758.349	0.0121819
758.427	0.0122120
758.505	0.0123128
758.583	0.0124543
758.661	0.0123314
758.739	0.0123907
758.818	0.0125802
758.896	0.0127081
758.974	0.0128365
759.052	0.0129311
759.130	0.0130593
759.208	0.0133191
759.286	0.0132655
759.364	0.0131969
759.443	0.0133051
759.521	0.0134248
759.599	0.0134291
759.677	0.0132474
759.755	0.0133363
759.833	0.0133637
759.911	0.0134754
759.989	0.0134811
760.068	0.0134017
760.146	0.0134615
760.224	0.0135226
760.302	0.0136495
760.380	0.0136151
760.458	0.0137868
760.536	0.0140982
760.614	0.0140363
760.693	0.0140416
760.771	0.0142373
760.849	0.0143954
760.927	0.0144202
761.005	0.0144434
761.083	0.0142303
761.161	0.0144270
761.239	0.0145918
761.318	0.0145554
761.396	0.0144894
761.474	0.0143426
761.552	0.0142707
761.630	0.0141430
761.708	0.0140285
761.786	0.0139114
761.864	0.0139063
761.943	0.0138509
762.021	0.0139101
762.099	0.0135806
762.177	0.0136461
762.255	0.0136985
762.333	0.0137108
762.411	0.0135548
762.489	0.0136470
762.568	0.0137570
762.646	0.0140070
762.724	0.0140807
762.802	0.0142388
762.880	0.0143917
762.958	0.0144739
763.036	0.0144622
763.114	0.0147927
763.193	0.0148775
763.271	0.0147319
763.349	0.0147346
763.427	0.0148209
763.505	0.0145353
763.583	0.0142369
763.661	0.0142403
763.739	0.0140911
763.818	0.0138123
763.896	0.0136156
763.974	0.0132587
764.052	0.0129884
764.130	0.0127848
764.208	0.0127348
764.286	0.0126420
764.364	0.0124689
764.443	0.0124218
764.521	0.0122520
764.599	0.0123653
764.677	0.0123870
764.755	0.0124582
764.833	0.0125971
764.911	0.0126197
764.989	0.0127646
765.068	0.0129093
765.146	0.0130581
765.224	0.0132379
765.302	0.0132803
765.380	0.0133136
765.458	0.0134295
765.536	0.0134434
765.614	0.0135111
765.693	0.0134637
765.771	0.0134647
765.849	0.0135365
765.927	0.0135156
766.005	0.0133362
766.083	0.0133967
766.161	0.0133247
766.239	0.0132719
766.318	0.0133959
766.396	0.0133828
766.474	0.0133874
766.552	0.0135555
766.630	0.0136916
766.708	0.0136374
766.786	0.0139665
766.864	0.0139877
766.943	0.0139938
767.021	0.0142207
767.099	0.0142702
767.177	0.0143134
767.255	0.0142884
767.333	0.0144254
767.411	0.0143352
767.489	0.0144207
767.568	0.0145325
767.646	0.0145573
767.724	0.0144469
767.802	0.0143294
767.880	0.0143620
767.958	0.0143860
768.036	0.0141673
768.114	0.0140204
768.193	0.0140032
768.271	0.0138860
768.349	0.0138557
768.427	0.0138541
768.505	0.0137875
768.583	0.0137004
768.661	0.0137663
768.739	0.0136640
768.818	0.0136051
768.896	0.0136765
768.974	0.0138366
769.052	0.0137024
769.130	0.0137425
769.208	0.0139116
769.286	0.0138847
769.364	0.0139565
769.443	0.0141914
769.521	0.0142182
769.599	0.0143166
769.677	0.0142545
769.755	0.0144261
769.833	0.0143283
769.911	0.0141912
769.989	0.0141306
770.068	0.0140549
770.146	0.0139102
770.224	0.0138377
770.302	0.0138773
770.380	0.0136216
770.458	0.0132681
770.536	0.0132143
770.614	0.0130652
770.693	0.0130216
770.771	0.0129491
770.849	0.0128905
770.927	0.0129060
771.005	0.0126945
771.083	0.0127242
771.161	0.0128531
771.239	0.0129675
771.318	0.0132310
771.396	0.0132303
771.474	0.0132633
771.552	0.0133718
771.630	0.0134519
771.708	0.0136406
771.786	0.0137260
771.864	0.0136869
771.943	0.0136533
772.021	0.0137298
772.099	0.0137183
772.177	0.0138560
772.255	0.0135822
772.333	0.0135345
772.411	0.0135882
772.489	0.0135319
772.568	0.0135860
772.646	0.0135004
772.724	0.0134730
772.802	0.0134587
772.880	0.0135590
772.958	0.0137036
773.036	0.0136879
773.114	0.0135954
773.193	0.0138271
773.271	0.0139814
773.349	0.0138276
773.427	0.0141428
773.505	0.0143015
773.583	0.0142793
773.661	0.0142947
773.739	0.0143742
773.818	0.0144802
773.896	0.0144863
773.974	0.0144973
774.052	0.0143921
774.130	0.0141671
774.208	0.0143044
774.286	0.0142661
774.364	0.0141946
774.443	0.0139230
774.521	0.0139136
774.599	0.0138685
774.677	0.0138780
774.755	0.0138112
774.833	0.0136237
774.911	0.0135198
774.989	0.0136754
775.068	0.0136510
775.146	0.0135162
775.224	0.0134365
775.302	0.0134351
775.380	0.0135533
775.458	0.0135043
775.536	0.0135738
775.614	0.0135490
775.693	0.0135188
775.771	0.0137373
775.849	0.0137807
775.927	0.0136433
776.005	0.0137430
776.083	0.0137894
776.161	0.0138400
776.239	0.0138380
776.318	0.0139011
776.396	0.0137996
776.474	0.0138095
776.552	0.0138836
776.630	0.0136332
776.708	0.0136749
776.786	0.0137878
776.864	0.0136429
776.943	0.0136707
777.021	0.0135109
777.099	0.0136401
777.177	0.0134435
777.255	0.0135637
777.333	0.0134252
777.411	0.0134288
777.489	0.0135355
777.568	0.0136710
777.646	0.0134562
777.724	0.0135928
777.802	0.0136124
777.880	0.0136593
777.958	0.0136263
778.036	0.0136974
778.114	0.0138847
778.193	0.0138470
778.271	0.0138467
778.349	0.0138640
778.427	0.0139132
778.505	0.0138744
778.583	0.0137171
778.661	0.0138039
778.739	0.0136847
778.818	0.0137173
778.896	0.0136123
778.974	0.0134573
779.052	0.0135511
779.130	0.0135519
779.208	0.0134018
779.286	0.0133479
779.364	0.0133132
779.443	0.0134229
779.521	0.0134509
779.599	0.0134415
779.677	0.0135027
779.755	0.0136142
779.833	0.0136517
779.911	0.0136118
779.989	0.0137074
780.068	0.0137990
780.146	0.0138670
780.224	0.0138895
780.302	0.0139725
780.380	0.0140285
780.458	0.0142021
780.536	0.0139318
780.614	0.0141668
780.693	0.0141085
780.771	0.0140050
780.849	0.0142579
780.927	0.0140779
781.005	0.0137411
781.083	0.0137108
781.161	0.0135950
781.239	0.0135516
781.318	0.0135375
781.396	0.0134480
781.474	0.0132820
781.552	0.0133443
781.630	0.0133047
781.708	0.0131261
781.786	0.0131387
781.864	0.0132213
781.943	0.0131261
782.021	0.0133410
782.099	0.0132083
782.177	0.0133843
782.255	0.0135511
782.333	0.0137003
782.411	0.0138400
782.489	0.0139098
782.568	0.0138889
782.646	0.0140757
782.724	0.0140905
782.802	0.0141250
782.880	0.0139831
782.958	0.0141295
783.036	0.0141530
783.114	0.0140720
783.193	0.0139351
783.271	0.0139346
783.349	0.0137601
783.427	0.0137631
783.505	0.0135983
783.583	0.0134740
783.661	0.0132958
783.739	0.0132027
783.818	0.0132850
783.896	0.0131396
783.974	0.0131338
784.052	0.0133234
784.130	0.0133608
784.208	0.0134253
784.286	0.0133044
784.364	0.0133827
784.443	0.0135678
784.521	0.0135590
784.599	0.0136093
784.677	0.0136597
784.755	0.0136292
784.833	0.0138235
784.911	0.0136819
784.989	0.0136995
785.068	0.0136843
785.146	0.0135260
785.224	0.0135077
785.302	0.0137041
785.380	0.0133881
785.458	0.0134663
785.536	0.0134229
785.614	0.0132933
785.693	0.0134261
785.771	0.0134066
785.849	0.0133377
785.927	0.0134040
786.005	0.0133231
786.083	0.0135471
786.161	0.0135174
786.239	0.0134561
786.318	0.0136231
786.396	0.0137088
786.474	0.0138437
786.552	0.0137779
786.630	0.0138564
786.708	0.0138847
786.786	0.0140381
786.864	0.0140362
786.943	0.0139093
787.021	0.0140823
787.099	0.0140090
787.177	0.0140173
787.255	0.0139713
787.333	0.0141071
787.411	0.0139555
787.489	0.0139099
787.568	0.0139143
787.646	0.0138014
787.724	0.0136969
787.802	0.0136256
787.880	0.0138207
787.958	0.0138737
788.036	0.0136289
788.114	0.0136039
788.193	0.0138144
788.271	0.0136765
788.349	0.0135606
788.427	0.0135598
788.505	0.0137483
788.583	0.0135871
788.661	0.0136002
788.739	0.0134622
788.818	0.0133577
788.896	0.0135102
788.974	0.0134212
789.052	0.0134332
789.130	0.0132852
789.208	0.0134007
789.286	0.0134056
789.364	0.0134788
789.443	0.0131362
789.521	0.0133477
789.599	0.0132237
789.677	0.0132522
789.755	0.0133329
789.833	0.0132111
789.911	0.0131543
789.989	0.0132922
790.068	0.0134797
790.146	0.0133131
790.224	0.0133479
790.302	0.0134033
790.380	0.0134858
790.458	0.0137769
790.536	0.0136405
790.614	0.0136848
790.693	0.0138641
790.771	0.0138042
790.849	0.0139036
790.927	0.0141215
791.005	0.0141459
791.083	0.0141356
791.161	0.0142010
791.239	0.0143090
791.318	0.0141749
791.396	0.0141512
791.474	0.0142268
791.552	0.0141370
791.630	0.0141559
791.708	0.0141355
791.786	0.0140695
791.864	0.0138808
791.943	0.0139740
792.021	0.0137966
792.099	0.0138071
792.177	0.0137310
792.255	0.0136969
792.333	0.0136401
792.411	0.0135767
792.489	0.0134145
792.568	0.0133137
792.646	0.0132565
792.724	0.0132915
792.802	0.0131879
792.880	0.0131639
792.958	0.0131155
793.036	0.0132397
793.114	0.0132530
793.193	0.0131995
793.271	0.0131989
793.349	0.0130622
793.427	0.0131503
793.505	0.0131909
793.583	0.0131615
793.661	0.0132362
793.739	0.0130814
793.818	0.0130300
793.896	0.0132063
793.974	0.0131265
794.052	0.0132769
794.130	0.0134155
794.208	0.0133732
794.286	0.0134283
794.364	0.0134383
794.443	0.0136575
794.521	0.0138223
794.599	0.0139188
794.677	0.0140212
794.755	0.0141441
794.833	0.0141402
794.911	0.0141995
794.989	0.0143756
795.068	0.0144576
795.146	0.0145329
795.224	0.0143736
795.302	0.0145737
795.380	0.0144942
795.458	0.0146355
795.536	0.0145158
795.614	0.0145427
795.693	0.0145380
795.771	0.0144068
795.849	0.0142514
795.927	0.0142307
796.005	0.0142683
796.083	0.0141181
796.161	0.0138203
796.239	0.0137301
796.318	0.0135958
796.396	0.0134885
796.474	0.0132129
796.552	0.0131042
796.630	0.0131631
796.708	0.0128894
796.786	0.0128011
796.864	0.0127569
796.943	0.0126809
797.021	0.0126469
797.099	0.0128033
797.177	0.0126646
797.255	0.0127673
797.333	0.0126376
797.411	0.0128494
797.489	0.0129251
797.568	0.0129675
797.646	0.0131882
797.724	0.0133508
797.802	0.0134069
797.880	0.0134447
797.958	0.0135400
798.036	0.0137132
798.114	0.0138866
798.193	0.0138641
798.271	0.0139847
798.349	0.0140474
798.427	0.0140679
798.505	0.0140620
798.583	0.0142257
798.661	0.0141943
798.739	0.0143069
798.818	0.0144041
798.896	0.0143971
798.974	0.0142492
799.052	0.0141657
799.130	0.0143325
799.208	0.0143732
799.286	0.0142718
799.364	0.0140679
799.443	0.0142195
799.521	0.0141960
799.599	0.0141203
799.677	0.0140427
799.755	0.0141260
799.833	0.0140833
799.911	0.0142506
799.989	0.0139512
800.068	0.0141046
800.146	0.0139991
800.224	0.0140691
800.302	0.0141151
800.380	0.0139046
800.458	0.0139095
800.536	0.0138138
800.614	0.0137720
800.693	0.0136095
800.771	0.0135858
800.849	0.0135239
800.927	0.0134563
801.005	0.0132347
801.083	0.0132420
801.161	0.0132320
801.239	0.0131948
801.318	0.0131763
801.396	0.0131281
801.474	0.0131271
801.552	0.0131756
801.630	0.0131104
801.708	0.0130328
801.786	0.0130656
801.864	0.0131506
801.943	0.0132098
802.021	0.0132388
802.099	0.0132927
802.177	0.0133139
802.255	0.0133389
802.333	0.0135777
802.411	0.0134315
802.489	0.0136368
802.568	0.0135951
802.646	0.0136045
802.724	0.0136544
802.802	0.0137007
802.880	0.0137280
802.958	0.0136563
803.036	0.0136933
803.114	0.0137995
803.193	0.0137982
803.271	0.0137969
803.349	0.0137868
803.427	0.0138863
803.505	0.0138975
803.583	0.0138869
803.661	0.0138124
803.739	0.0137174
803.818	0.0139059
803.896	0.0139526
803.974	0.0139062
804.052	0.0137698
804.130	0.0140143
804.208	0.0140475
804.286	0.0139721
804.364	0.0139591
804.443	0.0139648
804.521	0.0139389
804.599	0.0139370
804.677	0.0139404
804.755	0.0141409
804.833	0.0138335
804.911	0.0139478
804.989	0.0140002
805.068	0.0141580
805.146	0.0139673
805.224	0.0138614
805.302	0.0139005
805.380	0.0138416
805.458	0.0139309
805.536	0.0137696
805.614	0.0138799
805.693	0.0137756
805.771	0.0137462
805.849	0.0138308
805.927	0.0137959
806.005	0.0136388
806.083	0.0137595
806.161	0.0134911
806.239	0.0134589
806.318	0.0134933
806.396	0.0134791
806.474	0.0132871
806.552	0.0132284
806.630	0.0132820
806.708	0.0133359
806.786	0.0132578
806.864	0.0131137
806.943	0.0131537
807.021	0.0131393
807.099	0.0131831
807.177	0.0131927
807.255	0.0131106
807.333	0.0131994
807.411	0.0132773
807.489	0.0132906
807.568	0.0132863
807.646	0.0132933
807.724	0.0134150
807.802	0.0132872
807.880	0.0133965
807.958	0.0136553
808.036	0.0135671
808.114	0.0136196
808.193	0.0136301
808.271	0.0137392
808.349	0.0137809
808.427	0.0137486
808.505	0.0138699
808.583	0.0138379
808.661	0.0139742
808.739	0.0140521
808.818	0.0139420
808.896	0.0139861
808.974	0.0139105
809.052	0.0137719
809.130	0.0137526
809.208	0.0137486
809.286	0.0136981
809.364	0.0135954
809.443	0.0135986
809.521	0.0135727
809.599	0.0134968
809.677	0.0133728
809.755	0.0134069
809.833	0.0134468
809.911	0.0134594
809.989	0.0133910
810.068	0.0135924
810.146	0.0134006
810.224	0.0136325
810.302	0.0138261
810.380	0.0136007
810.458	0.0137969
810.536	0.0138477
810.614	0.0139658
810.693	0.0139510
810.771	0.0139108
810.849	0.0140630
810.927	0.0140614
811.005	0.0140218
811.083	0.0140668
811.161	0.0140929
811.239	0.0141734
811.318	0.0141682
811.396	0.0142168
811.474	0.0142118
811.552	0.0140326
811.630	0.0139322
811.708	0.0137416
811.786	0.0137678
811.864	0.0138667
811.943	0.0137183
812.021	0.0136497
812.099	0.0135493
812.177	0.0134859
812.255	0.0135511
812.333	0.0133435
812.411	0.0133827
812.489	0.0134040
812.568	0.0133431
812.646	0.0131998
812.724	0.0132407
812.802	0.0130869
812.880	0.0132567
812.958	0.0132620
813.036	0.0132989
813.114	0.0131811
813.193	0.0132053
813.271	0.0131806
813.349	0.0132751
813.427	0.0132739
813.505	0.0133196
813.583	0.0134140
813.661	0.0133246
813.739	0.0133389
813.818	0.0133140
813.896	0.0132899
813.974	0.0133860
814.052	0.0134319
814.130	0.0135830
814.208	0.0135691
814.286	0.0136885
814.364	0.0135622
814.443	0.0136237
814.521	0.0136845
814.599	0.0136568
814.677	0.0136590
814.755	0.0137539
814.833	0.0138268
814.911	0.0137487
814.989	0.0137108
815.068	0.0139033
815.146	0.0138714
815.224	0.0139011
815.302	0.0139127
815.380	0.0140218
815.458	0.0141167
815.536	0.0140524
815.614	0.0140395
815.693	0.0141132
815.771	0.0141270
815.849	0.0142059
815.927	0.0140985
816.005	0.0141761
816.083	0.0142849
816.161	0.0143723
816.239	0.0142586
816.318	0.0142101
816.396	0.0140797
816.474	0.0140466
816.552	0.0140202
816.630	0.0140310
816.708	0.0140623
816.786	0.0137921
816.864	0.0138897
816.943	0.0136172
817.021	0.0136231
817.099	0.0136120
817.177	0.0136559
817.255	0.0135597
817.333	0.0135165
817.411	0.0134869
817.489	0.0133797
817.568	0.0133459
817.646	0.0133768
817.724	0.0133796
817.802	0.0135280
817.880	0.0134521
817.958	0.0133595
818.036	0.0133754
818.114	0.0133706
818.193	0.0132811
818.271	0.0132906
818.349	0.0132323
818.427	0.0132852
818.505	0.0132972
818.583	0.0132813
818.661	0.0132166
818.739	0.0131326
818.818	0.0132847
818.896	0.0132833
818.974	0.0132166
819.052	0.0134995
819.130	0.0133627
819.208	0.0133958
819.286	0.0135204
819.364	0.0134682
819.443	0.0136579
819.521	0.0136032
819.599	0.0137020
819.677	0.0138050
819.755	0.0136844
819.833	0.0137103
819.911	0.0138657
819.989	0.0138993
820.068	0.0138429
820.146	0.0139537
820.224	0.0140948
820.302	0.0139349
820.380	0.0140182
820.458	0.0139903
820.536	0.0140321
820.614	0.0138879
820.693	0.0138891
820.771	0.0139731
820.849	0.0140326
820.927	0.0138814
821.005	0.0139534
821.083	0.0137778
821.161	0.0138004
821.239	0.0138615
821.318	0.0137505
821.396	0.0139278
821.474	0.0141134
821.552	0.0138886
821.630	0.0140283
821.708	0.0139753
821.786	0.0140343
821.864	0.0140444
821.943	0.0140520
822.021	0.0140940
822.099	0.0140402
822.177	0.0141798
822.255	0.0141052
822.333	0.0140705
822.411	0.0141085
822.489	0.0140912
822.568	0.0140199
822.646	0.0140691
822.724	0.0138644
822.802	0.0139084
822.880	0.0138173
822.958	0.0136637
823.036	0.0135844
823.114	0.0137790
823.193	0.0134161
823.271	0.0133490
823.349	0.0132318
823.427	0.0131152
823.505	0.0129815
823.583	0.0130927
823.661	0.0130022
823.739	0.0130472
823.818	0.0129057
823.896	0.0129995
823.974	0.0130384
824.052	0.0129559
824.130	0.0130730
824.208	0.0129724
824.286	0.0131496
824.364	0.0132992
824.443	0.0133549
824.521	0.0135177
824.599	0.0134697
824.677	0.0135786
824.755	0.0136785
824.833	0.0135851
824.911	0.0137050
824.989	0.0137623
825.068	0.0138965
825.146	0.0137583
825.224	0.0137650
825.302	0.0137741
825.380	0.0138256
825.458	0.0138563
825.536	0.0139154
825.614	0.0137908
825.693	0.0139796
825.771	0.0139538
825.849	0.0139256
825.927	0.0138891
826.005	0.0138568
826.083	0.0139212
826.161	0.0140393
826.239	0.0138592
826.318	0.0138779
826.396	0.0136335
826.474	0.0137714
826.552	0.0137263
826.630	0.0137469
826.708	0.0138202
826.786	0.0139149
826.864	0.0137002
826.943	0.0139254
827.021	0.0138963
827.099	0.0139879
827.177	0.0138816
827.255	0.0139518
827.333	0.0140077
827.411	0.0138969
827.489	0.0139553
827.568	0.0139725
827.646	0.0140175
827.724	0.0141176
827.802	0.0139371
827.880	0.0140796
827.958	0.0140311
828.036	0.0139805
828.114	0.0138533
828.193	0.0138709
828.271	0.0138451
828.349	0.0137634
828.427	0.0139309
828.505	0.0136980
828.583	0.0136413
828.661	0.0136692
828.739	0.0136044
828.818	0.0134946
828.896	0.0135178
828.974	0.0133253
829.052	0.0132826
829.130	0.0133414
829.208	0.0132168
829.286	0.0131326
829.364	0.0132414
829.443	0.0131216
829.521	0.0130161
829.599	0.0130918
829.677	0.0130178
829.755	0.0129688
829.833	0.0130873
829.911	0.0130347
829.989	0.0131192
830.068	0.0133331
830.146	0.0133053
830.224	0.0133105
830.302	0.0132467
830.380	0.0134200
830.458	0.0135652
830.536	0.0135596
830.614	0.0136536
830.693	0.0136820
830.771	0.0137944
830.849	0.0139261
830.927	0.0139677
831.005	0.0140426
831.083	0.0140484
831.161	0.0140453
831.239	0.0141279
831.318	0.0139955
831.396	0.0140194
831.474	0.0141504
831.552	0.0141969
831.630	0.0141667
831.708	0.0141428
831.786	0.0141922
831.864	0.0141334
831.943	0.0141029
832.021	0.0140618
832.099	0.0138567
832.177	0.0139117
832.255	0.0139957
832.333	0.0138148
832.411	0.0137593
832.489	0.0137774
832.568	0.0136877
832.646	0.0136294
832.724	0.0136819
832.802	0.0135960
832.880	0.0136947
832.958	0.0135792
833.036	0.0135316
833.114	0.0134245
833.193	0.0135325
833.271	0.0133656
833.349	0.0134940
833.427	0.0135113
833.505	0.0134651
833.583	0.0134492
833.661	0.0134942
833.739	0.0134832
833.818	0.0135867
833.896	0.0135879
833.974	0.0136383
834.052	0.0137154
834.130	0.0136052
834.208	0.0137141
834.286	0.0137942
834.364	0.0138190
834.443	0.0136267
834.521	0.0137764
834.599	0.0138008
834.677	0.0138143
834.755	0.0139158
834.833	0.0136686
834.911	0.0138287
834.989	0.0138257
835.068	0.0138528
835.146	0.0139054
835.224	0.0138454
835.302	0.0138698
835.380	0.0137285
835.458	0.0138365
835.536	0.0138357
835.614	0.0137384
835.693	0.0137762
835.771	0.0137870
835.849	0.0136963
835.927	0.0137709
836.005	0.0137995
836.083	0.0137087
836.161	0.0138289
836.239	0.0138863
836.318	0.0137817
836.396	0.0138879
836.474	0.0137185
836.552	0.0138061
836.630	0.0136482
836.708	0.0136324
836.786	0.0136090
836.864	0.0136737
836.943	0.0135004
837.021	0.0134669
837.099	0.0135545
837.177	0.0135294
837.255	0.0133347
837.333	0.0133841
837.411	0.0133389
837.489	0.0133305
837.568	0.0132607
837.646	0.0133552
837.724	0.0134727
837.802	0.0132049
837.880	0.0133903
837.958	0.0134950
838.036	0.0134184
838.114	0.0132774
838.193	0.0134388
838.271	0.0134552
838.349	0.0134098
838.427	0.0134724
838.505	0.0135339
838.583	0.0135735
838.661	0.0137152
838.739	0.0138348
838.818	0.0138402
838.896	0.0137507
838.974	0.0139186
839.052	0.0139852
839.130	0.0139231
839.208	0.0140285
839.286	0.0141228
839.364	0.0140800
839.443	0.0141862
839.521	0.0142315
839.599	0.0140939
839.677	0.0141848
839.755	0.0142548
839.833	0.0143712
839.911	0.0143520
839.989	0.0142914
840.068	0.0142287
840.146	0.0143596
840.224	0.0142783
840.302	0.0142814
840.380	0.0143076
840.458	0.0141042
840.536	0.0142046
840.614	0.0143227
840.693	0.0142214
840.771	0.0140431
840.849	0.0140272
840.927	0.0139256
841.005	0.0137884
841.083	0.0137648
841.161	0.0136759
841.239	0.0136321
841.318	0.0134480
841.396	0.0135149
841.474	0.0135452
841.552	0.0132844
841.630	0.0133628
841.708	0.0132197
841.786	0.0131975
841.864	0.0132884
841.943	0.0131928
842.021	0.0131305
842.099	0.0131776
842.177	0.0130770
842.255	0.0131345
842.333	0.0129605
842.411	0.0130776
842.489	0.0130256
842.568	0.0132490
842.646	0.0133450
842.724	0.0132929
842.802	0.0132338
842.880	0.0131128
842.958	0.0133249
843.036	0.0134740
843.114	0.0134006
843.193	0.0134944
843.271	0.0134608
843.349	0.0137986
843.427	0.0137392
843.505	0.0136758
843.583	0.0138100
843.661	0.0138869
843.739	0.0137552
843.818	0.0138041
843.896	0.0139213
843.974	0.0139719
844.052	0.0140393
844.130	0.0140529
844.208	0.0141333
844.286	0.0141126
844.364	0.0141443
844.443	0.0140700
844.521	0.0141612
844.599	0.0141885
844.677	0.0140960
844.755	0.0142272
844.833	0.0141197
844.911	0.0140758
844.989	0.0140038
845.068	0.0139994
845.146	0.0140838
845.224	0.0140488
845.302	0.0138998
845.380	0.0138647
845.458	0.0139479
845.536	0.0137988
845.614	0.0138409
845.693	0.0138866
845.771	0.0137745
845.849	0.0137126
845.927	0.0136742
846.005	0.0137309
846.083	0.0135835
846.161	0.0136737
846.239	0.0135491
846.318	0.0136428
846.396	0.0136362
846.474	0.0136772
846.552	0.0136471
846.630	0.0136201
846.708	0.0137008
846.786	0.0136507
846.864	0.0136681
846.943	0.0136449
847.021	0.0136824
847.099	0.0137824
847.177	0.0137766
847.255	0.0137547
847.333	0.0138599
847.411	0.0138699
847.489	0.0138245
847.568	0.0136026
847.646	0.0137473
847.724	0.0136732
847.802	0.0136855
847.880	0.0137249
847.958	0.0136156
848.036	0.0137936
848.114	0.0136805
848.193	0.0136625
848.271	0.0135996
848.349	0.0137415
848.427	0.0136454
848.505	0.0134669
848.583	0.0134624
848.661	0.0134508
848.739	0.0134164
848.818	0.0134966
848.896	0.0133529
848.974	0.0132082
849.052	0.0134007
849.130	0.0132847
849.208	0.0133779
849.286	0.0132372
849.364	0.0134186
849.443	0.0133398
849.521	0.0134266
849.599	0.0134483
849.677	0.0132863
849.755	0.0132793
849.833	0.0132896
849.911	0.0134650
849.989	0.0133064
850.068	0.0134434
850.146	0.0134341
850.224	0.0135180
850.302	0.0135598
850.380	0.0136677
850.458	0.0135035
850.536	0.0136982
850.614	0.0137704
850.693	0.0138286
850.771	0.0138854
850.849	0.0140294
850.927	0.0140054
851.005	0.0140003
851.083	0.0140556
851.161	0.0141990
851.239	0.0139998
851.318	0.0140624
851.396	0.0141516
851.474	0.0140120
851.552	0.0140752
851.630	0.0141872
851.708	0.0141257
851.786	0.0140073
851.864	0.0139881
851.943	0.0139985
852.021	0.0140475
852.099	0.0139234
852.177	0.0139073
852.255	0.0138274
852.333	0.0138520
852.411	0.0139467
852.489	0.0138750
852.568	0.0139120
852.646	0.0137708
852.724	0.0139373
852.802	0.0137631
852.880	0.0137281
852.958	0.0136591
853.036	0.0137680
853.114	0.0138107
853.193	0.0136778
853.271	0.0136996
853.349	0.0136578
853.427	0.0137342
853.505	0.0136026
853.583	0.0136560
853.661	0.0135159
853.739	0.0135999
853.818	0.0134796
853.896	0.0133483
853.974	0.0135377
854.052	0.0134159
854.130	0.0134319
854.208	0.0134777
854.286	0.0133965
854.364	0.0131819
854.443	0.0132639
854.521	0.0133228
854.599	0.0132655
854.677	0.0132443
854.755	0.0133341
854.833	0.0130936
854.911	0.0131078
854.989	0.0133059
855.068	0.0133125
855.146	0.0132729
855.224	0.0132230
855.302	0.0132247
855.380	0.0133846
855.458	0.0135023
855.536	0.0134614
855.614	0.0136417
855.693	0.0136155
855.771	0.0137927
855.849	0.0136563
855.927	0.0136021
856.005	0.0139738
856.083	0.0138931
856.161	0.0138715
856.239	0.0140646
856.318	0.0141029
856.396	0.0141956
856.474	0.0138635
856.552	0.0140974
856.630	0.0141932
856.708	0.0142303
856.786	0.0141071
856.864	0.0141985
856.943	0.0141460
857.021	0.0142139
857.099	0.0141028
857.177	0.0141671
857.255	0.0141283
857.333	0.0140626
857.411	0.0140188
857.489	0.0138551
857.568	0.0137972
857.646	0.0139891
857.724	0.0138254
857.802	0.0138877
857.880	0.0137605
857.958	0.0136538
858.036	0.0137004
858.114	0.0137148
858.193	0.0137278
858.271	0.0136420
858.349	0.0137148
858.427	0.0136459
858.505	0.0136988
858.583	0.0136801
858.661	0.0137184
858.739	0.0137554
858.818	0.0137149
858.896	0.0135809
858.974	0.0136246
859.052	0.0136863
859.130	0.0136492
859.208	0.0138356
859.286	0.0137728
859.364	0.0138749
859.443	0.0139165
859.521	0.0138094
859.599	0.0138753
859.677	0.0138636
859.755	0.0138546
859.833	0.0138116
859.911	0.0137068
859.989	0.0138496
860.068	0.0137746
860.146	0.0136608
860.224	0.0136306
860.302	0.0135073
860.380	0.0135292
860.458	0.0135704
860.536	0.0134587
860.614	0.0133368
860.693	0.0132016
860.771	0.0132519
860.849	0.0133204
860.927	0.0133453
861.005	0.0133752
861.083	0.0132491
861.161	0.0134236
861.239	0.0134324
861.318	0.0135205
861.396	0.0136359
861.474	0.0135918
861.552	0.0136425
861.630	0.0137287
861.708	0.0136795
861.786	0.0137641
861.864	0.0138260
861.943	0.0138680
862.021	0.0138318
862.099	0.0139340
862.177	0.0139289
862.255	0.0139105
862.333	0.0139493
862.411	0.0139111
862.489	0.0139810
862.568	0.0139947
862.646	0.0139674
862.724	0.0138679
862.802	0.0138370
862.880	0.0139388
862.958	0.0139775
863.036	0.0139291
863.114	0.0138311
863.193	0.0138358
863.271	0.0140269
863.349	0.0138098
863.427	0.0139313
863.505	0.0140385
863.583	0.0137888
863.661	0.0138787
863.739	0.0140571
863.818	0.0138126
863.896	0.0138307
863.974	0.0138303
864.052	0.0138404
864.130	0.0138246
864.208	0.0136942
864.286	0.0137227
864.364	0.0137781
864.443	0.0136389
864.521	0.0136411
864.599	0.0136165
864.677	0.0136054
864.755	0.0134240
864.833	0.0133168
864.911	0.0134778
864.989	0.0136291
865.068	0.0134581
865.146	0.0133825
865.224	0.0133755
865.302	0.0134913
865.380	0.0133759
865.458	0.0134943
865.536	0.0136414
865.614	0.0136008
865.693	0.0136500
865.771	0.0136730
865.849	0.0137272
865.927	0.0138020
866.005	0.0137656
866.083	0.0137525
866.161	0.0138131
866.239	0.0138279
866.318	0.0137192
866.396	0.0135944
866.474	0.0138108
866.552	0.0139019
866.630	0.0136219
866.708	0.0136556
866.786	0.0136725
866.864	0.0137644
866.943	0.0136362
867.021	0.0136344
867.099	0.0136221
867.177	0.0136747
867.255	0.0135786
867.333	0.0136395
867.411	0.0136922
867.489	0.0135944
867.568	0.0133549
867.646	0.0133894
867.724	0.0135207
867.802	0.0135709
867.880	0.0135709
867.958	0.0133801
868.036	0.0133451
868.114	0.0133776
868.193	0.0133973
868.271	0.0133369
868.349	0.0134984
868.427	0.0134882
868.505	0.0134497
868.583	0.0135571
868.661	0.0135309
868.739	0.0135992
868.818	0.0137697
868.896	0.0138648
868.974	0.0138428
869.052	0.0138042
869.130	0.0139159
869.208	0.0138076
869.286	0.0139724
869.364	0.0140544
869.443	0.0140428
869.521	0.0138857
869.599	0.0141019
869.677	0.0140244
869.755	0.0140481
869.833	0.0140173
869.911	0.0140199
869.989	0.0140012
870.068	0.0139346
870.146	0.0139577
870.224	0.0139812
870.302	0.0139790
870.380	0.0138899
870.458	0.0138281
870.536	0.0138059
870.614	0.0138144
870.693	0.0137267
870.771	0.0137396
870.849	0.0137206
870.927	0.0136873
871.005	0.0137315
871.083	0.0135737
871.161	0.0135733
871.239	0.0135746
871.318	0.0136490
871.396	0.0134576
871.474	0.0136527
871.552	0.0135382
871.630	0.0135612
871.708	0.0135064
871.786	0.0134217
871.864	0.0134514
871.943	0.0133899
872.021	0.0135462
872.099	0.0134953
872.177	0.0132679
872.255	0.0134034
872.333	0.0134514
872.411	0.0134538
872.489	0.0134200
872.568	0.0133717
872.646	0.0133968
872.724	0.0132578
872.802	0.0135196
872.880	0.0134846
872.958	0.0134039
873.036	0.0134289
873.114	0.0135852
873.193	0.0135210
873.271	0.0134747
873.349	0.0136259
873.427	0.0136346
873.505	0.0135927
873.583	0.0136280
873.661	0.0135865
873.739	0.0136249
873.818	0.0135844
873.896	0.0136234
873.974	0.0136430
874.052	0.0136469
874.130	0.0136172
874.208	0.0136903
874.286	0.0137067
874.364	0.0136622
874.443	0.0137651
874.521	0.0137897
874.599	0.0139126
874.677	0.0137996
874.755	0.0138284
874.833	0.0137259
874.911	0.0138394
874.989	0.0139960
875.068	0.0138156
875.146	0.0139008
875.224	0.0139137
875.302	0.0139454
875.380	0.0137811
875.458	0.0139184
875.536	0.0140220
875.614	0.0139034
875.693	0.0139548
875.771	0.0140052
875.849	0.0138392
875.927	0.0138305
876.005	0.0139879
876.083	0.0139681
876.161	0.0138606
876.239	0.0138698
876.318	0.0137966
876.396	0.0137867
876.474	0.0136389
876.552	0.0134913
876.630	0.0135968
876.708	0.0134986
876.786	0.0135883
876.864	0.0136269
876.943	0.0135902
877.021	0.0134991
877.099	0.0135018
877.177	0.0135121
877.255	0.0134934
877.333	0.0133038
877.411	0.0133438
877.489	0.0132451
877.568	0.0133029
877.646	0.0132988
877.724	0.0132907
877.802	0.0133177
877.880	0.0132586
877.958	0.0132210
878.036	0.0132384
878.114	0.0133986
878.193	0.0134209
878.271	0.0133949
878.349	0.0135986
878.427	0.0133940
878.505	0.0135423
878.583	0.0136372
878.661	0.0134508
878.739	0.0135258
878.818	0.0137120
878.896	0.0135497
878.974	0.0136814
879.052	0.0137787
879.130	0.0138451
879.208	0.0138026
879.286	0.0138760
879.364	0.0138703
879.443	0.0139315
879.521	0.0138969
879.599	0.0138755
879.677	0.0139565
879.755	0.0141380
879.833	0.0141109
879.911	0.0138113
879.989	0.0138524
880.068	0.0140929
880.146	0.0138970
880.224	0.0138519
880.302	0.0138204
880.380	0.0137683
880.458	0.0137560
880.536	0.0137499
880.614	0.0136312
880.693	0.0136222
880.771	0.0137339
880.849	0.0138132
880.927	0.0137762
881.005	0.0137278
881.083	0.0137466
881.161	0.0138184
881.239	0.0137086
881.318	0.0137407
881.396	0.0137603
881.474	0.0137008
881.552	0.0137296
881.630	0.0137108
881.708	0.0137653
881.786	0.0136978
881.864	0.0136672
881.943	0.0135104
882.021	0.0135830
882.099	0.0137423
882.177	0.0137003
882.255	0.0137341
882.333	0.0137671
882.411	0.0137291
882.489	0.0138628
882.568	0.0137971
882.646	0.0139209
882.724	0.0137500
882.802	0.0137247
882.880	0.0139694
882.958	0.0138918
883.036	0.0137068
883.114	0.0136451
883.193	0.0135834
883.271	0.0135224
883.349	0.0135154
883.427	0.0135105
883.505	0.0135633
883.583	0.0134186
883.661	0.0133902
883.739	0.0135028
883.818	0.0134396
883.896	0.0133588
883.974	0.0133091
884.052	0.0134033
884.130	0.0133354
884.208	0.0132836
884.286	0.0132126
884.364	0.0132209
884.443	0.0133392
884.521	0.0134089
884.599	0.0133086
884.677	0.0133761
884.755	0.0133694
884.833	0.0133620
884.911	0.0134447
884.989	0.0136594
885.068	0.0135625
885.146	0.0135086
885.224	0.0136425
885.302	0.0135428
885.380	0.0137067
885.458	0.0136256
885.536	0.0136351
885.614	0.0137466
885.693	0.0138216
885.771	0.0138008
885.849	0.0139054
885.927	0.0139816
886.005	0.0139845
886.083	0.0140308
886.161	0.0140849
886.239	0.0141857
886.318	0.0140681
886.396	0.0141386
886.474	0.0141586
886.552	0.0140446
886.630	0.0141024
886.708	0.0140257
886.786	0.0140738
886.864	0.0140984
886.943	0.0141103
887.021	0.0139500
887.099	0.0138245
887.177	0.0138122
887.255	0.0136945
887.333	0.0136513
887.411	0.0135531
887.489	0.0135727
887.568	0.0133602
887.646	0.0135001
887.724	0.0135017
887.802	0.0133985
887.880	0.0135258
887.958	0.0133521
888.036	0.0133501
888.114	0.0132912
888.193	0.0133767
888.271	0.0133558
888.349	0.0133621
888.427	0.0132922
888.505	0.0133566
888.583	0.0134392
888.661	0.0133881
888.739	0.0134227
888.818	0.0135780
888.896	0.0134669
888.974	0.0135593
889.052	0.0135678
889.130	0.0137001
889.208	0.0138813
889.286	0.0138050
889.364	0.0138039
889.443	0.0137483
889.521	0.0138065
889.599	0.0139047
889.677	0.0138926
889.755	0.0138426
889.833	0.0138081
889.911	0.0138863
889.989	0.0139424
890.068	0.0137865
890.146	0.0138645
890.224	0.0138800
890.302	0.0138614
890.380	0.0137617
890.458	0.0138782
890.536	0.0135999
890.614	0.0137077
890.693	0.0136228
890.771	0.0134764
890.849	0.0135303
890.927	0.0134241
891.005	0.0134579
891.083	0.0132735
891.161	0.0133138
891.239	0.0133248
891.318	0.0131511
891.396	0.0131556
891.474	0.0132462
891.552	0.0131190
891.630	0.0132925
891.708	0.0132149
891.786	0.0131458
891.864	0.0132601
891.943	0.0133515
892.021	0.0133867
892.099	0.0134261
892.177	0.0135419
892.255	0.0135427
892.333	0.0136134
892.411	0.0137209
892.489	0.0138742
892.568	0.0140757
892.646	0.0139892
892.724	0.0139458
892.802	0.0141083
892.880	0.0141695
892.958	0.0141116
893.036	0.0139780
893.114	0.0140905
893.193	0.0141554
893.271	0.0141637
893.349	0.0140532
893.427	0.0138528
893.505	0.0141025
893.583	0.0138631
893.661	0.0139309
893.739	0.0138064
893.818	0.0137537
893.896	0.0137377
893.974	0.0137170
894.052	0.0136784
894.130	0.0135358
894.208	0.0135386
894.286	0.0134985
894.364	0.0134339
894.443	0.0134567
894.521	0.0133855
894.599	0.0135655
894.677	0.0135292
894.755	0.0134645
894.833	0.0137040
894.911	0.0136443
894.989	0.0138380
895.068	0.0136780
895.146	0.0135793
895.224	0.0137146
895.302	0.0138152
895.380	0.0137157
895.458	0.0136823
895.536	0.0138096
895.614	0.0136674
895.693	0.0137077
895.771	0.0136718
895.849	0.0135259
895.927	0.0136299
896.005	0.0137112
896.083	0.0134249
896.161	0.0135817
896.239	0.0135390
896.318	0.0133801
896.396	0.0133862
896.474	0.0133917
896.552	0.0133410
896.630	0.0132349
896.708	0.0132920
896.786	0.0132043
896.864	0.0131211
896.943	0.0132276
897.021	0.0132879
897.099	0.0132549
897.177	0.0133855
897.255	0.0134536
897.333	0.0134910
897.411	0.0135090
897.489	0.0136810
897.568	0.0137832
897.646	0.0136882
897.724	0.0140365
897.802	0.0139990
897.880	0.0141193
897.958	0.0142512
898.036	0.0144241
898.114	0.0142773
898.193	0.0143749
898.271	0.0142491
898.349	0.0144516
898.427	0.0141994
898.505	0.0142200
898.583	0.0140856
898.661	0.0141146
898.739	0.0141000
898.818	0.0139456
898.896	0.0140596
898.974	0.0138874
899.052	0.0136869
899.130	0.0135533
899.208	0.0136433
899.286	0.0135744
899.364	0.0134921
899.443	0.0133644
899.521	0.0134287
899.599	0.0132864
899.677	0.0133370
899.755	0.0133836
899.833	0.0133949
899.911	0.0133411
899.989	0.0133311
900.068	0.0134693
900.146	0.0133300
900.224	0.0134140
900.302	0.0136058
900.380	0.0135940
900.458	0.0135305
900.536	0.0136108
900.614	0.0137453
900.693	0.0136331
900.771	0.0137494
900.849	0.0137094
900.927	0.0137383
901.005	0.0137812
901.083	0.0138109
901.161	0.0138229
901.239	0.0138132
901.318	0.0138239
901.396	0.0137415
901.474	0.0137343
901.552	0.0136492
901.630	0.0136327
901.708	0.0136720
901.786	0.0136857
901.864	0.0137868
901.943	0.0135313
902.021	0.0136425
902.099	0.0137750
902.177	0.0136302
902.255	0.0136733
902.333	0.0137743
902.411	0.0136136
902.489	0.0137960
902.568	0.0138266
902.646	0.0137138
902.724	0.0139847
902.802	0.0139568
902.880	0.0141443
902.958	0.0139436
903.036	0.0138219
903.114	0.0138631
903.193	0.0140373
903.271	0.0139925
903.349	0.0138474
903.427	0.0137598
903.505	0.0137483
903.583	0.0135977
903.661	0.0136851
903.739	0.0136073
903.818	0.0135379
903.896	0.0135889
903.974	0.0133932
904.052	0.0135383
904.130	0.0135494
904.208	0.0134383
904.286	0.0133907
904.364	0.0134450
904.443	0.0134885
904.521	0.0133941
904.599	0.0135178
904.677	0.0136344
904.755	0.0136445
904.833	0.0135482
904.911	0.0135896
904.989	0.0136655
905.068	0.0136132
905.146	0.0136707
905.224	0.0137399
905.302	0.0139144
905.380	0.0139452
905.458	0.0139374
905.536	0.0139652
905.614	0.0140990
905.693	0.0140470
905.771	0.0140387
905.849	0.0140529
905.927	0.0139402
906.005	0.0138329
906.083	0.0139952
906.161	0.0139275
906.239	0.0135976
906.318	0.0134817
906.396	0.0135400
906.474	0.0135802
906.552	0.0134197
906.630	0.0133418
906.708	0.0136018
906.786	0.0134953
906.864	0.0135075
906.943	0.0133807
907.021	0.0133740
907.099	0.0133109
907.177	0.0133421
907.255	0.0134274
907.333	0.0134764
907.411	0.0135480
907.489	0.0134111
907.568	0.0134126
907.646	0.0134808
907.724	0.0136324
907.802	0.0135643
907.880	0.0135060
907.958	0.0135957
908.036	0.0137476
908.114	0.0137138
908.193	0.0137592
908.271	0.0138122
908.349	0.0139559
908.427	0.0140503
908.505	0.0140051
908.583	0.0140693
908.661	0.0140308
908.739	0.0140085
908.818	0.0140347
908.896	0.0141235
908.974	0.0141427
909.052	0.0141633
909.130	0.0138398
909.208	0.0138972
909.286	0.0138960
909.364	0.0137761
909.443	0.0137649
909.521	0.0136291
909.599	0.0135526
909.677	0.0135660
909.755	0.0134154
909.833	0.0134583
909.911	0.0134250
909.989	0.0134382
910.068	0.0135104
910.146	0.0134452
910.224	0.0134675
910.302	0.0134315
910.380	0.0134608
910.458	0.0134619
910.536	0.0133124
910.614	0.0135191
910.693	0.0135080
910.771	0.0136644
910.849	0.0135357
910.927	0.0136604
911.005	0.0137091
911.083	0.0135947
911.161	0.0137600
911.239	0.0139021
911.318	0.0137912
911.396	0.0137740
911.474	0.0137421
911.552	0.0138052
911.630	0.0139494
911.708	0.0137292
911.786	0.0137686
911.864	0.0137324
911.943	0.0137363
912.021	0.0136574
912.099	0.0136713
912.177	0.0137716
912.255	0.0136834
912.333	0.0136357
912.411	0.0135714
912.489	0.0135789
912.568	0.0135677
912.646	0.0135950
912.724	0.0135591
912.802	0.0135635
912.880	0.0135194
912.958	0.0135711
913.036	0.0135442
913.114	0.0134952
913.193	0.0136190
913.271	0.0134242
913.349	0.0135870
913.427	0.0136597
913.505	0.0136580
913.583	0.0136352
913.661	0.0138839
913.739	0.0138554
913.818	0.0137403
913.896	0.0137895
913.974	0.0138419
914.052	0.0138855
914.130	0.0139134
914.208	0.0139408
914.286	0.0138578
914.364	0.0139114
914.443	0.0138976
914.521	0.0138681
914.599	0.0138995
914.677	0.0137097
914.755	0.0137831
914.833	0.0137749
914.911	0.0136871
914.989	0.0137833
915.068	0.0136495
915.146	0.0138012
915.224	0.0137483
915.302	0.0137676
915.380	0.0137275
915.458	0.0137148
915.536	0.0135749
915.614	0.0135948
915.693	0.0137532
915.771	0.0136118
915.849	0.0136047
915.927	0.0136466
916.005	0.0136684
916.083	0.0137811
916.161	0.0135617
916.239	0.0134689
916.318	0.0135968
916.396	0.0136431
916.474	0.0134882
916.552	0.0135453
916.630	0.0135052
916.708	0.0134698
916.786	0.0134943
916.864	0.0134085
916.943	0.0135710
917.021	0.0135381
917.099	0.0133522
917.177	0.0135477
917.255	0.0134822
917.333	0.0134698
917.411	0.0134695
917.489	0.0135808
917.568	0.0135493
917.646	0.0136324
917.724	0.0137449
917.802	0.0136602
917.880	0.0136486
917.958	0.0136104
918.036	0.0137325
918.114	0.0136764
918.193	0.0136429
918.271	0.0137527
918.349	0.0136966
918.427	0.0136652
918.505	0.0136834
918.583	0.0137581
918.661	0.0135281
918.739	0.0136541
918.818	0.0138184
918.896	0.0137512
918.974	0.0137289
919.052	0.0137559
919.130	0.0140141
919.208	0.0139550
919.286	0.0137315
919.364	0.0137868
919.443	0.0138826
919.521	0.0139752
919.599	0.0139546
919.677	0.0139502
919.755	0.0138010
919.833	0.0136786
919.911	0.0138941
919.989	0.0139018
920.068	0.0137740
920.146	0.0137077
920.224	0.0136623
920.302	0.0137899
920.380	0.0138515
920.458	0.0137498
920.536	0.0136946
920.614	0.0136787
920.693	0.0138478
920.771	0.0139204
920.849	0.0138522
920.927	0.0137384
921.005	0.0136446
921.083	0.0137959
921.161	0.0136813
921.239	0.0138748
921.318	0.0137545
921.396	0.0136085
921.474	0.0137754
921.552	0.0137932
921.630	0.0137837
921.708	0.0136279
921.786	0.0135823
921.864	0.0136687
921.943	0.0135728
922.021	0.0136265
922.099	0.0136844
922.177	0.0136893
922.255	0.0135793
922.333	0.0134717
922.411	0.0134753
922.489	0.0135307
922.568	0.0136875
922.646	0.0135635
922.724	0.0134888
922.802	0.0134474
922.880	0.0137321
922.958	0.0136201
923.036	0.0136727
923.114	0.0136842
923.193	0.0137649
923.271	0.0138407
923.349	0.0138229
923.427	0.0137512
923.505	0.0137856
923.583	0.0137004
923.661	0.0136347
923.739	0.0137435
923.818	0.0137546
923.896	0.0134723
923.974	0.0135204
924.052	0.0136713
924.130	0.0134814
924.208	0.0135219
924.286	0.0135179
924.364	0.0135017
924.443	0.0135727
924.521	0.0137112
924.599	0.0138416
924.677	0.0137395
924.755	0.0138412
924.833	0.0137496
924.911	0.0138158
924.989	0.0138132
925.068	0.0139711
925.146	0.0140672
925.224	0.0138911
925.302	0.0138906
925.380	0.0140668
925.458	0.0140568
925.536	0.0140829
925.614	0.0139659
925.693	0.0139921
925.771	0.0139497
925.849	0.0137534
925.927	0.0138433
926.005	0.0139645
926.083	0.0139489
926.161	0.0139095
926.239	0.0137780
926.318	0.0137141
926.396	0.0138308
926.474	0.0136665
926.552	0.0135283
926.630	0.0138045
926.708	0.0139106
926.786	0.0135688
926.864	0.0136590
926.943	0.0136642
927.021	0.0136882
927.099	0.0136603
927.177	0.0136608
927.255	0.0134595
927.333	0.0135612
927.411	0.0136022
927.489	0.0135720
927.568	0.0135387
927.646	0.0134143
927.724	0.0135397
927.802	0.0135834
927.880	0.0134900
927.958	0.0136214
928.036	0.0136226
928.114	0.0135886
928.193	0.0136078
928.271	0.0135614
928.349	0.0135226
928.427	0.0135667
928.505	0.0135717
928.583	0.0135596
928.661	0.0135149
928.739	0.0137056
928.818	0.0138464
928.896	0.0137585
928.974	0.0137506
929.052	0.0137703
929.130	0.0137979
929.208	0.0138660
929.286	0.0138964
929.364	0.0138072
929.443	0.0138458
929.521	0.0138242
929.599	0.0138968
929.677	0.0137454
929.755	0.0137187
929.833	0.0137099
929.911	0.0137865
929.989	0.0137468
930.068	0.0136114
930.146	0.0136507
930.224	0.0137394
930.302	0.0135758
930.380	0.0134528
930.458	0.0136996
930.536	0.0133958
930.614	0.0135091
930.693	0.0135459
930.771	0.0134260
930.849	0.0133919
930.927	0.0134488
931.005	0.0135706
931.083	0.0136629
931.161	0.0137112
931.239	0.0135838
931.318	0.0136245
931.396	0.0137868
931.474	0.0137201
931.552	0.0138012
931.630	0.0138320
931.708	0.0138750
931.786	0.0138153
931.864	0.0137867
931.943	0.0140044
932.021	0.0139833
932.099	0.0138866
932.177	0.0138643
932.255	0.0137077
932.333	0.0138374
932.411	0.0139616
932.489	0.0138738
932.568	0.0138775
932.646	0.0137241
932.724	0.0137070
932.802	0.0136646
932.880	0.0136137
932.958	0.0137875
933.036	0.0136311
933.114	0.0136659
933.193	0.0136481
933.271	0.0136411
933.349	0.0135937
933.427	0.0135751
933.505	0.0135349
933.583	0.0137035
933.661	0.0137113
933.739	0.0135683
933.818	0.0135905
933.896	0.0136076
933.974	0.0136408
934.052	0.0136565
934.130	0.0136180
934.208	0.0136732
934.286	0.0135548
934.364	0.0135098
934.443	0.0137156
934.521	0.0137629
934.599	0.0136465
934.677	0.0135973
934.755	0.0136198
934.833	0.0136986
934.911	0.0136035
934.989	0.0136819
935.068	0.0136626
935.146	0.0135116
935.224	0.0136387
935.302	0.0136456
935.380	0.0135510
935.458	0.0137559
935.536	0.0137029
935.614	0.0136971
935.693	0.0136739
935.771	0.0136691
935.849	0.0137007
935.927	0.0138050
936.005	0.0136770
936.083	0.0137777
936.161	0.0137145
936.239	0.0138205
936.318	0.0137299
936.396	0.0137040
936.474	0.0137884
936.552	0.0136855
936.630	0.0137213
936.708	0.0136399
936.786	0.0137026
936.864	0.0137972
936.943	0.0135771
937.021	0.0137457
937.099	0.0137656
937.177	0.0137181
937.255	0.0137435
937.333	0.0136772
937.411	0.0137682
937.489	0.0138975
937.568	0.0140627
937.646	0.0140057
937.724	0.0139548
937.802	0.0138705
937.880	0.0138993
937.958	0.0139876
938.036	0.0139806
938.114	0.0138729
938.193	0.0137343
938.271	0.0138522
938.349	0.0139172
938.427	0.0138487
938.505	0.0137846
938.583	0.0137204
938.661	0.0139276
938.739	0.0137323
938.818	0.0137774
938.896	0.0137614
938.974	0.0136573
939.052	0.0136169
939.130	0.0136385
939.208	0.0135604
939.286	0.0135233
939.364	0.0134630
939.443	0.0135173
939.521	0.0135615
939.599	0.0136509
939.677	0.0135056
939.755	0.0134743
939.833	0.0135783
939.911	0.0134272
939.989	0.0135804
940.068	0.0135049
940.146	0.0136277
940.224	0.0136814
940.302	0.0134850
940.380	0.0136636
940.458	0.0137301
940.536	0.0135024
940.614	0.0135405
940.693	0.0135686
940.771	0.0137253
940.849	0.0138050
940.927	0.0137082
941.005	0.0135884
941.083	0.0137038
941.161	0.0137988
941.239	0.0136443
941.318	0.0138081
941.396	0.0137796
941.474	0.0138577
941.552	0.0136964
941.630	0.0138311
941.708	0.0138690
941.786	0.0139597
941.864	0.0139921
941.943	0.0140207
942.021	0.0139718
942.099	0.0140738
942.177	0.0141631
942.255	0.0141898
942.333	0.0139677
942.411	0.0139681
942.489	0.0139648
942.568	0.0139421
942.646	0.0136810
942.724	0.0139143
942.802	0.0138257
942.880	0.0136899
942.958	0.0136489
943.036	0.0135090
943.114	0.0135028
943.193	0.0133504
943.271	0.0133569
943.349	0.0132542
943.427	0.0132528
943.505	0.0132711
943.583	0.0134064
943.661	0.0133458
943.739	0.0133503
943.818	0.0133093
943.896	0.0132490
943.974	0.0133827
944.052	0.0134632
944.130	0.0134758
944.208	0.0135903
944.286	0.0138532
944.364	0.0136870
944.443	0.0137576
944.521	0.0136309
944.599	0.0136028
944.677	0.0139050
944.755	0.0138356
944.833	0.0138931
944.911	0.0139795
944.989	0.0138679
945.068	0.0137810
945.146	0.0138786
945.224	0.0138233
945.302	0.0137523
945.380	0.0136922
945.458	0.0137812
945.536	0.0139132
945.614	0.0137284
945.693	0.0137433
945.771	0.0137025
945.849	0.0137849
945.927	0.0137223
946.005	0.0137489
946.083	0.0136183
946.161	0.0136076
946.239	0.0136935
946.318	0.0136720
946.396	0.0135413
946.474	0.0135853
946.552	0.0136732
946.630	0.0135490
946.708	0.0135255
946.786	0.0134331
946.864	0.0136178
946.943	0.0137035
947.021	0.0136444
947.099	0.0136532
947.177	0.0135355
947.255	0.0136442
947.333	0.0137414
947.411	0.0137029
947.489	0.0136423
947.568	0.0138052
947.646	0.0137905
947.724	0.0136546
947.802	0.0136610
947.880	0.0137695
947.958	0.0137422
948.036	0.0138121
948.114	0.0138754
948.193	0.0138706
948.271	0.0138824
948.349	0.0139371
948.427	0.0139179
948.505	0.0139015
948.583	0.0138876
948.661	0.0138425
948.739	0.0138536
948.818	0.0138737
948.896	0.0137579
948.974	0.0137920
949.052	0.0137180
949.130	0.0137684
949.208	0.0135587
949.286	0.0136327
949.364	0.0134479
949.443	0.0136046
949.521	0.0135854
949.599	0.0135500
949.677	0.0133571
949.755	0.0135720
949.833	0.0135262
949.911	0.0134293
949.989	0.0134816
950.068	0.0135396
950.146	0.0135833
950.224	0.0136027
950.302	0.0135243
950.380	0.0135899
950.458	0.0134850
950.536	0.0134068
950.614	0.0136463
950.693	0.0135017
950.771	0.0135883
950.849	0.0135720
950.927	0.0134837
951.005	0.0136806
951.083	0.0135632
951.161	0.0133974
951.239	0.0134638
951.318	0.0135038
951.396	0.0135265
951.474	0.0135612
951.552	0.0134741
951.630	0.0133250
951.708	0.0135096
951.786	0.0135025
951.864	0.0135272
951.943	0.0135613
952.021	0.0135362
952.099	0.0135211
952.177	0.0136329
952.255	0.0136348
952.333	0.0136007
952.411	0.0135262
952.489	0.0136184
952.568	0.0136847
952.646	0.0137613
952.724	0.0139064
952.802	0.0138471
952.880	0.0138327
952.958	0.0137980
953.036	0.0139350
953.114	0.0138657
953.193	0.0137879
953.271	0.0139198
953.349	0.0138870
953.427	0.0136826
953.505	0.0137672
953.583	0.0137016
953.661	0.0137907
953.739	0.0139354
953.818	0.0137898
953.896	0.0138344
953.974	0.0136343
954.052	0.0137049
954.130	0.0137466
954.208	0.0138071
954.286	0.0137550
954.364	0.0136763
954.443	0.0137698
954.521	0.0137631
954.599	0.0134557
954.677	0.0136072
954.755	0.0136915
954.833	0.0136662
954.911	0.0136357
954.989	0.0135777
955.068	0.0136318
955.146	0.0135810
955.224	0.0136155
955.302	0.0134375
955.380	0.0132411
955.458	0.0134716
955.536	0.0134174
955.614	0.0133340
955.693	0.0134138
955.771	0.0134325
955.849	0.0134663
955.927	0.0133852
956.005	0.0133322
956.083	0.0135200
956.161	0.0134287
956.239	0.0134145
956.318	0.0135851
956.396	0.0136693
956.474	0.0134687
956.552	0.0135985
956.630	0.0138275
956.708	0.0136993
956.786	0.0138283
956.864	0.0137075
956.943	0.0137971
957.021	0.0137686
957.099	0.0138197
957.177	0.0138260
957.255	0.0137377
957.333	0.0138547
957.411	0.0138044
957.489	0.0137920
957.568	0.0138988
957.646	0.0137875
957.724	0.0138518
957.802	0.0137288
957.880	0.0138673
957.958	0.0137774
958.036	0.0138976
958.114	0.0139569
958.193	0.0139247
958.271	0.0140111
958.349	0.0140187
958.427	0.0139632
958.505	0.0138794
958.583	0.0138534
958.661	0.0139721
958.739	0.0139415
958.818	0.0138879
958.896	0.0139098
958.974	0.0138450
959.052	0.0138824
959.130	0.0137598
959.208	0.0140044
959.286	0.0138517
959.364	0.0138412
959.443	0.0137774
959.521	0.0137499
959.599	0.0138792
959.677	0.0139316
959.755	0.0137469
959.833	0.0138159
959.911	0.0137105
