05/14/2022	16:16:55	Ver.	4.1	UNKNOWN
Optical Delay	639.989416	Delta X		0.078125	Sweeps	1	Scan Rate	0/0
Coordinates	Axis 1	NaN	Axis 2	NaN	Axis 3	NaN	Axis 4	NaN	Axis 5	NaN	Axis 6	0.000000
TX Power	0.000000	RX Power	0.000000

639.989	0.0138825
640.068	0.0138425
640.146	0.0139111
640.224	0.0138630
640.302	0.0138321
640.380	0.0139232
640.458	0.0138368
640.536	0.0139370
640.614	0.0139674
640.693	0.0138459
640.771	0.0139458
640.849	0.0138993
640.927	0.0139695
641.005	0.0140108
641.083	0.0137608
641.161	0.0138203
641.239	0.0139783
641.318	0.0138641
641.396	0.0138876
641.474	0.0138632
641.552	0.0139474
641.630	0.0138614
641.708	0.0139455
641.786	0.0138872
641.864	0.0137055
641.943	0.0138220
642.021	0.0139363
642.099	0.0138635
642.177	0.0139391
642.255	0.0139892
642.333	0.0139061
642.411	0.0138815
642.489	0.0138606
642.568	0.0138792
642.646	0.0139358
642.724	0.0140299
642.802	0.0138542
642.880	0.0138141
642.958	0.0140574
643.036	0.0139258
643.114	0.0138084
643.193	0.0139418
643.271	0.0138781
643.349	0.0139188
643.427	0.0139312
643.505	0.0139556
643.583	0.0139036
643.661	0.0139314
643.739	0.0139806
643.818	0.0139381
643.896	0.0138612
643.974	0.0139521
644.052	0.0139449
644.130	0.0140469
644.208	0.0138808
644.286	0.0137983
644.364	0.0138760
644.443	0.0139249
644.521	0.0139816
644.599	0.0138744
644.677	0.0139629
644.755	0.0138667
644.833	0.0138425
644.911	0.0138231
644.989	0.0140434
645.068	0.0138775
645.146	0.0138554
645.224	0.0138406
645.302	0.0138689
645.380	0.0139431
645.458	0.0141273
645.536	0.0139634
645.614	0.0139457
645.693	0.0139459
645.771	0.0139131
645.849	0.0139429
645.927	0.0139079
646.005	0.0139388
646.083	0.0139630
646.161	0.0139925
646.239	0.0138944
646.318	0.0138986
646.396	0.0139331
646.474	0.0139079
646.552	0.0138060
646.630	0.0139904
646.708	0.0139942
646.786	0.0138715
646.864	0.0138702
646.943	0.0137201
647.021	0.0139261
647.099	0.0140458
647.177	0.0138972
647.255	0.0138398
647.333	0.0139402
647.411	0.0139381
647.489	0.0139696
647.568	0.0139075
647.646	0.0137937
647.724	0.0138065
647.802	0.0139206
647.880	0.0138982
647.958	0.0140072
648.036	0.0139635
648.114	0.0138381
648.193	0.0138602
648.271	0.0139607
648.349	0.0138963
648.427	0.0138676
648.505	0.0139641
648.583	0.0139468
648.661	0.0138994
648.739	0.0138682
648.818	0.0138406
648.896	0.0139416
648.974	0.0140079
649.052	0.0140563
649.130	0.0139565
649.208	0.0138219
649.286	0.0139704
649.364	0.0140142
649.443	0.0139172
649.521	0.0139485
649.599	0.0139600
649.677	0.0137824
649.755	0.0138585
649.833	0.0138862
649.911	0.0139411
649.989	0.0138998
650.068	0.0139312
650.146	0.0138946
650.224	0.0139410
650.302	0.0139193
650.380	0.0139101
650.458	0.0139692
650.536	0.0140975
650.614	0.0139750
650.693	0.0138704
650.771	0.0139546
650.849	0.0139504
650.927	0.0137991
651.005	0.0138509
651.083	0.0138204
651.161	0.0137998
651.239	0.0140742
651.318	0.0140083
651.396	0.0139000
651.474	0.0139275
651.552	0.0138921
651.630	0.0139774
651.708	0.0140928
651.786	0.0139476
651.864	0.0139346
651.943	0.0138506
652.021	0.0139425
652.099	0.0140259
652.177	0.0139613
652.255	0.0139398
652.333	0.0138940
652.411	0.0139577
652.489	0.0138979
652.568	0.0139188
652.646	0.0138206
652.724	0.0139362
652.802	0.0139782
652.880	0.0137788
652.958	0.0139062
653.036	0.0138414
653.114	0.0139144
653.193	0.0139966
653.271	0.0138159
653.349	0.0140006
653.427	0.0139944
653.505	0.0138280
653.583	0.0140601
653.661	0.0139191
653.739	0.0138367
653.818	0.0138426
653.896	0.0139086
653.974	0.0140306
654.052	0.0139791
654.130	0.0139576
654.208	0.0138437
654.286	0.0139291
654.364	0.0139614
654.443	0.0138950
654.521	0.0139523
654.599	0.0139037
654.677	0.0139643
654.755	0.0139133
654.833	0.0138842
654.911	0.0137679
654.989	0.0140086
655.068	0.0139799
655.146	0.0137967
655.224	0.0139243
655.302	0.0139398
655.380	0.0139523
655.458	0.0138779
655.536	0.0138299
655.614	0.0137516
655.693	0.0139117
655.771	0.0139129
655.849	0.0138781
655.927	0.0137762
656.005	0.0141149
656.083	0.0139227
656.161	0.0138876
656.239	0.0139409
656.318	0.0139690
656.396	0.0138755
656.474	0.0139642
656.552	0.0137076
656.630	0.0138322
656.708	0.0139443
656.786	0.0139000
656.864	0.0139710
656.943	0.0141080
657.021	0.0138730
657.099	0.0139216
657.177	0.0140027
657.255	0.0140052
657.333	0.0137981
657.411	0.0138579
657.489	0.0139085
657.568	0.0139022
657.646	0.0140176
657.724	0.0137460
657.802	0.0138359
657.880	0.0138974
657.958	0.0140084
658.036	0.0139160
658.114	0.0139059
658.193	0.0137765
658.271	0.0139437
658.349	0.0138565
658.427	0.0138232
658.505	0.0138392
658.583	0.0139146
658.661	0.0140372
658.739	0.0141402
658.818	0.0139397
658.896	0.0138316
658.974	0.0139225
659.052	0.0139243
659.130	0.0139502
659.208	0.0139475
659.286	0.0138493
659.364	0.0140067
659.443	0.0139247
659.521	0.0140495
659.599	0.0138688
659.677	0.0138520
659.755	0.0138845
659.833	0.0139373
659.911	0.0138035
659.989	0.0138363
660.068	0.0138921
660.146	0.0137222
660.224	0.0138877
660.302	0.0139544
660.380	0.0140011
660.458	0.0138478
660.536	0.0140123
660.614	0.0139775
660.693	0.0140540
660.771	0.0139917
660.849	0.0138393
660.927	0.0139246
661.005	0.0139711
661.083	0.0138837
661.161	0.0137637
661.239	0.0138825
661.318	0.0138502
661.396	0.0139073
661.474	0.0138854
661.552	0.0140629
661.630	0.0140440
661.708	0.0139086
661.786	0.0139032
661.864	0.0138874
661.943	0.0139517
662.021	0.0138932
662.099	0.0139361
662.177	0.0139841
662.255	0.0138623
662.333	0.0139900
662.411	0.0138822
662.489	0.0139754
662.568	0.0139149
662.646	0.0139417
662.724	0.0139378
662.802	0.0139301
662.880	0.0139303
662.958	0.0140071
663.036	0.0138265
663.114	0.0138696
663.193	0.0139748
663.271	0.0138589
663.349	0.0137866
663.427	0.0138683
663.505	0.0138857
663.583	0.0140468
663.661	0.0139799
663.739	0.0139860
663.818	0.0138929
663.896	0.0138736
663.974	0.0139302
664.052	0.0138187
664.130	0.0138786
664.208	0.0138850
664.286	0.0139482
664.364	0.0138921
664.443	0.0139469
664.521	0.0139340
664.599	0.0139246
664.677	0.0138597
664.755	0.0137815
664.833	0.0139029
664.911	0.0140118
664.989	0.0140912
665.068	0.0138254
665.146	0.0139490
665.224	0.0139404
665.302	0.0138859
665.380	0.0138652
665.458	0.0139165
665.536	0.0138628
665.614	0.0139230
665.693	0.0139171
665.771	0.0138779
665.849	0.0138918
665.927	0.0139472
666.005	0.0138914
666.083	0.0139758
666.161	0.0139297
666.239	0.0138136
666.318	0.0139630
666.396	0.0139182
666.474	0.0138281
666.552	0.0138508
666.630	0.0138453
666.708	0.0138477
666.786	0.0138496
666.864	0.0140072
666.943	0.0139001
667.021	0.0139222
667.099	0.0138236
667.177	0.0138719
667.255	0.0137247
667.333	0.0138196
667.411	0.0139187
667.489	0.0137953
667.568	0.0140426
667.646	0.0140517
667.724	0.0139272
667.802	0.0138448
667.880	0.0139683
667.958	0.0139362
668.036	0.0139184
668.114	0.0139380
668.193	0.0138270
668.271	0.0138528
668.349	0.0138692
668.427	0.0138232
668.505	0.0139393
668.583	0.0139070
668.661	0.0138902
668.739	0.0138985
668.818	0.0140387
668.896	0.0138777
668.974	0.0138924
669.052	0.0139481
669.130	0.0140315
669.208	0.0138689
669.286	0.0138111
669.364	0.0140033
669.443	0.0139149
669.521	0.0139977
669.599	0.0138236
669.677	0.0137594
669.755	0.0139121
669.833	0.0138683
669.911	0.0139442
669.989	0.0138031
670.068	0.0138655
670.146	0.0140166
670.224	0.0138996
670.302	0.0138966
670.380	0.0139816
670.458	0.0138844
670.536	0.0138479
670.614	0.0139452
670.693	0.0139279
670.771	0.0138555
670.849	0.0138985
670.927	0.0139464
671.005	0.0140109
671.083	0.0140184
671.161	0.0138133
671.239	0.0139711
671.318	0.0139067
671.396	0.0138023
671.474	0.0138393
671.552	0.0138274
671.630	0.0138177
671.708	0.0137749
671.786	0.0138526
671.864	0.0138174
671.943	0.0138509
672.021	0.0139996
672.099	0.0138951
672.177	0.0137943
672.255	0.0138528
672.333	0.0138771
672.411	0.0138550
672.489	0.0139157
672.568	0.0138004
672.646	0.0139226
672.724	0.0138232
672.802	0.0139321
672.880	0.0140031
672.958	0.0139034
673.036	0.0137735
673.114	0.0138463
673.193	0.0138580
673.271	0.0138974
673.349	0.0137754
673.427	0.0139654
673.505	0.0139456
673.583	0.0136666
673.661	0.0138564
673.739	0.0139098
673.818	0.0139137
673.896	0.0139132
673.974	0.0138287
674.052	0.0138634
674.130	0.0137907
674.208	0.0138027
674.286	0.0139431
674.364	0.0139863
674.443	0.0138619
674.521	0.0139899
674.599	0.0138062
674.677	0.0137811
674.755	0.0138220
674.833	0.0138754
674.911	0.0139290
674.989	0.0138068
675.068	0.0139681
675.146	0.0138811
675.224	0.0139323
675.302	0.0139096
675.380	0.0138507
675.458	0.0137901
675.536	0.0139724
675.614	0.0139713
675.693	0.0138325
675.771	0.0139236
675.849	0.0138708
675.927	0.0139052
676.005	0.0138243
676.083	0.0139404
676.161	0.0138888
676.239	0.0139204
676.318	0.0138489
676.396	0.0139328
676.474	0.0138499
676.552	0.0138869
676.630	0.0139388
676.708	0.0139695
676.786	0.0138148
676.864	0.0137644
676.943	0.0139509
677.021	0.0139002
677.099	0.0139964
677.177	0.0136580
677.255	0.0138440
677.333	0.0139738
677.411	0.0138257
677.489	0.0138059
677.568	0.0137974
677.646	0.0138810
677.724	0.0138831
677.802	0.0137566
677.880	0.0138673
677.958	0.0138492
678.036	0.0138844
678.114	0.0137213
678.193	0.0138215
678.271	0.0138348
678.349	0.0138586
678.427	0.0137950
678.505	0.0139022
678.583	0.0138436
678.661	0.0138158
678.739	0.0139411
678.818	0.0138363
678.896	0.0139402
678.974	0.0139101
679.052	0.0139361
679.130	0.0139668
679.208	0.0139192
679.286	0.0138466
679.364	0.0138309
679.443	0.0139549
679.521	0.0139259
679.599	0.0139004
679.677	0.0139844
679.755	0.0140415
679.833	0.0138157
679.911	0.0139910
679.989	0.0139219
680.068	0.0139713
680.146	0.0139725
680.224	0.0140186
680.302	0.0138393
680.380	0.0140612
680.458	0.0139877
680.536	0.0139536
680.614	0.0137735
680.693	0.0139050
680.771	0.0140099
680.849	0.0139813
680.927	0.0138845
681.005	0.0139712
681.083	0.0138705
681.161	0.0139629
681.239	0.0138776
681.318	0.0139615
681.396	0.0139446
681.474	0.0139949
681.552	0.0137820
681.630	0.0138605
681.708	0.0139256
681.786	0.0138317
681.864	0.0139133
681.943	0.0139827
682.021	0.0140373
682.099	0.0140030
682.177	0.0139863
682.255	0.0139986
682.333	0.0140513
682.411	0.0140314
682.489	0.0140253
682.568	0.0138970
682.646	0.0138697
682.724	0.0139228
682.802	0.0138345
682.880	0.0140360
682.958	0.0139275
683.036	0.0138760
683.114	0.0139351
683.193	0.0137639
683.271	0.0140264
683.349	0.0139565
683.427	0.0138507
683.505	0.0140161
683.583	0.0139568
683.661	0.0138315
683.739	0.0138304
683.818	0.0138778
683.896	0.0139618
683.974	0.0140375
684.052	0.0139066
684.130	0.0138631
684.208	0.0138916
684.286	0.0138171
684.364	0.0139156
684.443	0.0139059
684.521	0.0138721
684.599	0.0139235
684.677	0.0137241
684.755	0.0139416
684.833	0.0138407
684.911	0.0138642
684.989	0.0139121
685.068	0.0139003
685.146	0.0139571
685.224	0.0139674
685.302	0.0139270
685.380	0.0137869
685.458	0.0139075
685.536	0.0138824
685.614	0.0139007
685.693	0.0140070
685.771	0.0139316
685.849	0.0138716
685.927	0.0140026
686.005	0.0139426
686.083	0.0138913
686.161	0.0137875
686.239	0.0138596
686.318	0.0138387
686.396	0.0138688
686.474	0.0140285
686.552	0.0138719
686.630	0.0137694
686.708	0.0138209
686.786	0.0140025
686.864	0.0139413
686.943	0.0138504
687.021	0.0137974
687.099	0.0139623
687.177	0.0138647
687.255	0.0137708
687.333	0.0137919
687.411	0.0138439
687.489	0.0138247
687.568	0.0138762
687.646	0.0138667
687.724	0.0139037
687.802	0.0138324
687.880	0.0138651
687.958	0.0139735
688.036	0.0137859
688.114	0.0137898
688.193	0.0139129
688.271	0.0138206
688.349	0.0138692
688.427	0.0138865
688.505	0.0139632
688.583	0.0138339
688.661	0.0138710
688.739	0.0139614
688.818	0.0138223
688.896	0.0139531
688.974	0.0139980
689.052	0.0137154
689.130	0.0138879
689.208	0.0138606
689.286	0.0137781
689.364	0.0139039
689.443	0.0137801
689.521	0.0139832
689.599	0.0139435
689.677	0.0139133
689.755	0.0139280
689.833	0.0139817
689.911	0.0139809
689.989	0.0139350
690.068	0.0139729
690.146	0.0140093
690.224	0.0139548
690.302	0.0138522
690.380	0.0139190
690.458	0.0139518
690.536	0.0138599
690.614	0.0139263
690.693	0.0140115
690.771	0.0139052
690.849	0.0137293
690.927	0.0138418
691.005	0.0139696
691.083	0.0139655
691.161	0.0139745
691.239	0.0138604
691.318	0.0139063
691.396	0.0140054
691.474	0.0140023
691.552	0.0140094
691.630	0.0138469
691.708	0.0138651
691.786	0.0139365
691.864	0.0138753
691.943	0.0137861
692.021	0.0138875
692.099	0.0138456
692.177	0.0137885
692.255	0.0139111
692.333	0.0140203
692.411	0.0138548
692.489	0.0140555
692.568	0.0139829
692.646	0.0139713
692.724	0.0140226
692.802	0.0141303
692.880	0.0141898
692.958	0.0141531
693.036	0.0140653
693.114	0.0141456
693.193	0.0141237
693.271	0.0139462
693.349	0.0138692
693.427	0.0138541
693.505	0.0137465
693.583	0.0137611
693.661	0.0138452
693.739	0.0137673
693.818	0.0136172
693.896	0.0135432
693.974	0.0137553
694.052	0.0137986
694.130	0.0137674
694.208	0.0138491
694.286	0.0138487
694.364	0.0139606
694.443	0.0139734
694.521	0.0140041
694.599	0.0140270
694.677	0.0140062
694.755	0.0140191
694.833	0.0141741
694.911	0.0141393
694.989	0.0140746
695.068	0.0140141
695.146	0.0140533
695.224	0.0140213
695.302	0.0138837
695.380	0.0138556
695.458	0.0139036
695.536	0.0137429
695.614	0.0139490
695.693	0.0138541
695.771	0.0138279
695.849	0.0137488
695.927	0.0138025
696.005	0.0137224
696.083	0.0137634
696.161	0.0137025
696.239	0.0138403
696.318	0.0137739
696.396	0.0138631
696.474	0.0138162
696.552	0.0137976
696.630	0.0139237
696.708	0.0138120
696.786	0.0137015
696.864	0.0137923
696.943	0.0138449
697.021	0.0138473
697.099	0.0138581
697.177	0.0139854
697.255	0.0139130
697.333	0.0138878
697.411	0.0139983
697.489	0.0139228
697.568	0.0139471
697.646	0.0140108
697.724	0.0140565
697.802	0.0140154
697.880	0.0140192
697.958	0.0140243
698.036	0.0140343
698.114	0.0139463
698.193	0.0138829
698.271	0.0141064
698.349	0.0142234
698.427	0.0140422
698.505	0.0140147
698.583	0.0138740
698.661	0.0138571
698.739	0.0139077
698.818	0.0138397
698.896	0.0137327
698.974	0.0137743
699.052	0.0139077
699.130	0.0137974
699.208	0.0136183
699.286	0.0137572
699.364	0.0136548
699.443	0.0136105
699.521	0.0136710
699.599	0.0136836
699.677	0.0137026
699.755	0.0136750
699.833	0.0137013
699.911	0.0137733
699.989	0.0136691
700.068	0.0136197
700.146	0.0136462
700.224	0.0136604
700.302	0.0136971
700.380	0.0137964
700.458	0.0137022
700.536	0.0137460
700.614	0.0139381
700.693	0.0138877
700.771	0.0139354
700.849	0.0140015
700.927	0.0139896
701.005	0.0141438
701.083	0.0142686
701.161	0.0142868
701.239	0.0142586
701.318	0.0145206
701.396	0.0142494
701.474	0.0143690
701.552	0.0144429
701.630	0.0143291
701.708	0.0144181
701.786	0.0143906
701.864	0.0142441
701.943	0.0141257
702.021	0.0139907
702.099	0.0138726
702.177	0.0139983
702.255	0.0138824
702.333	0.0137101
702.411	0.0137194
702.489	0.0136104
702.568	0.0136325
702.646	0.0136005
702.724	0.0135638
702.802	0.0133645
702.880	0.0134467
702.958	0.0134846
703.036	0.0134538
703.114	0.0134048
703.193	0.0134226
703.271	0.0134077
703.349	0.0134227
703.427	0.0134752
703.505	0.0134721
703.583	0.0135622
703.661	0.0136349
703.739	0.0135670
703.818	0.0136723
703.896	0.0136694
703.974	0.0137131
704.052	0.0138466
704.130	0.0138432
704.208	0.0138711
704.286	0.0140603
704.364	0.0139648
704.443	0.0141557
704.521	0.0140527
704.599	0.0141231
704.677	0.0142842
704.755	0.0141859
704.833	0.0140502
704.911	0.0143110
704.989	0.0142575
705.068	0.0142126
705.146	0.0142684
705.224	0.0142062
705.302	0.0141436
705.380	0.0140553
705.458	0.0140588
705.536	0.0140738
705.614	0.0140356
705.693	0.0141080
705.771	0.0140255
705.849	0.0138604
705.927	0.0138446
706.005	0.0139046
706.083	0.0138704
706.161	0.0138592
706.239	0.0138013
706.318	0.0137072
706.396	0.0138776
706.474	0.0138006
706.552	0.0136098
706.630	0.0134006
706.708	0.0135027
706.786	0.0135860
706.864	0.0135899
706.943	0.0134707
707.021	0.0135124
707.099	0.0136244
707.177	0.0135928
707.255	0.0136750
707.333	0.0136252
707.411	0.0134753
707.489	0.0136375
707.568	0.0136478
707.646	0.0138181
707.724	0.0137643
707.802	0.0137791
707.880	0.0137752
707.958	0.0138728
708.036	0.0139001
708.114	0.0139069
708.193	0.0139308
708.271	0.0141119
708.349	0.0138842
708.427	0.0140705
708.505	0.0140719
708.583	0.0140521
708.661	0.0139941
708.739	0.0140230
708.818	0.0141789
708.896	0.0142433
708.974	0.0141436
709.052	0.0141904
709.130	0.0142726
709.208	0.0140508
709.286	0.0142021
709.364	0.0142822
709.443	0.0143056
709.521	0.0141697
709.599	0.0142751
709.677	0.0141612
709.755	0.0141875
709.833	0.0142916
709.911	0.0143231
709.989	0.0142639
710.068	0.0142348
710.146	0.0141369
710.224	0.0141401
710.302	0.0141011
710.380	0.0138943
710.458	0.0138532
710.536	0.0138654
710.614	0.0138863
710.693	0.0136486
710.771	0.0135842
710.849	0.0137005
710.927	0.0134938
711.005	0.0135258
711.083	0.0134041
711.161	0.0133745
711.239	0.0133407
711.318	0.0134136
711.396	0.0133943
711.474	0.0134284
711.552	0.0135813
711.630	0.0135510
711.708	0.0136685
711.786	0.0136893
711.864	0.0136793
711.943	0.0136460
712.021	0.0137904
712.099	0.0139452
712.177	0.0137327
712.255	0.0138248
712.333	0.0138181
712.411	0.0139021
712.489	0.0139704
712.568	0.0139165
712.646	0.0139617
712.724	0.0138505
712.802	0.0137302
712.880	0.0138638
712.958	0.0136894
713.036	0.0138011
713.114	0.0138853
713.193	0.0138775
713.271	0.0139219
713.349	0.0140164
713.427	0.0140341
713.505	0.0140544
713.583	0.0141006
713.661	0.0141415
713.739	0.0142422
713.818	0.0142662
713.896	0.0143523
713.974	0.0144120
714.052	0.0143211
714.130	0.0142455
714.208	0.0143968
714.286	0.0144863
714.364	0.0143933
714.443	0.0143774
714.521	0.0143110
714.599	0.0141779
714.677	0.0142474
714.755	0.0142273
714.833	0.0139884
714.911	0.0138011
714.989	0.0137390
715.068	0.0137973
715.146	0.0136288
715.224	0.0134686
715.302	0.0132979
715.380	0.0133913
715.458	0.0133466
715.536	0.0133402
715.614	0.0132535
715.693	0.0134097
715.771	0.0132635
715.849	0.0134658
715.927	0.0134229
716.005	0.0134373
716.083	0.0135895
716.161	0.0137800
716.239	0.0135910
716.318	0.0137239
716.396	0.0138087
716.474	0.0138300
716.552	0.0138683
716.630	0.0140411
716.708	0.0141123
716.786	0.0140837
716.864	0.0139964
716.943	0.0139211
717.021	0.0137774
717.099	0.0140458
717.177	0.0139812
717.255	0.0138729
717.333	0.0137801
717.411	0.0138373
717.489	0.0137931
717.568	0.0136437
717.646	0.0137600
717.724	0.0139414
717.802	0.0139651
717.880	0.0139532
717.958	0.0138880
718.036	0.0138944
718.114	0.0141199
718.193	0.0140823
718.271	0.0139036
718.349	0.0141599
718.427	0.0142547
718.505	0.0143148
718.583	0.0143080
718.661	0.0143420
718.739	0.0142371
718.818	0.0142690
718.896	0.0142801
718.974	0.0143251
719.052	0.0141805
719.130	0.0140862
719.208	0.0141022
719.286	0.0140955
719.364	0.0140197
719.443	0.0139893
719.521	0.0139008
719.599	0.0137434
719.677	0.0137702
719.755	0.0136121
719.833	0.0136633
719.911	0.0137875
719.989	0.0136938
720.068	0.0135447
720.146	0.0135594
720.224	0.0137468
720.302	0.0137524
720.380	0.0137028
720.458	0.0137020
720.536	0.0137395
720.614	0.0137528
720.693	0.0137576
720.771	0.0136498
720.849	0.0138844
720.927	0.0137493
721.005	0.0137611
721.083	0.0137210
721.161	0.0136691
721.239	0.0136225
721.318	0.0136974
721.396	0.0136101
721.474	0.0136169
721.552	0.0136445
721.630	0.0137701
721.708	0.0138102
721.786	0.0137179
721.864	0.0136043
721.943	0.0136959
722.021	0.0139729
722.099	0.0138110
722.177	0.0137437
722.255	0.0138294
722.333	0.0139291
722.411	0.0138717
722.489	0.0139661
722.568	0.0140245
722.646	0.0140007
722.724	0.0141323
722.802	0.0140779
722.880	0.0141427
722.958	0.0143756
723.036	0.0142819
723.114	0.0141914
723.193	0.0141470
723.271	0.0141159
723.349	0.0141597
723.427	0.0142602
723.505	0.0140910
723.583	0.0141656
723.661	0.0140668
723.739	0.0141254
723.818	0.0141193
723.896	0.0139424
723.974	0.0140305
724.052	0.0139896
724.130	0.0138960
724.208	0.0139376
724.286	0.0139680
724.364	0.0140257
724.443	0.0139365
724.521	0.0138403
724.599	0.0138797
724.677	0.0139011
724.755	0.0138997
724.833	0.0138924
724.911	0.0136952
724.989	0.0137789
725.068	0.0138154
725.146	0.0138243
725.224	0.0138012
725.302	0.0138782
725.380	0.0137649
725.458	0.0137938
725.536	0.0136639
725.614	0.0138242
725.693	0.0138258
725.771	0.0137471
725.849	0.0139011
725.927	0.0137297
726.005	0.0137643
726.083	0.0137187
726.161	0.0137253
726.239	0.0136846
726.318	0.0138149
726.396	0.0137797
726.474	0.0136899
726.552	0.0137592
726.630	0.0136457
726.708	0.0136975
726.786	0.0137966
726.864	0.0136673
726.943	0.0137680
727.021	0.0137646
727.099	0.0138651
727.177	0.0137993
727.255	0.0137757
727.333	0.0137912
727.411	0.0138720
727.489	0.0138947
727.568	0.0139676
727.646	0.0140124
727.724	0.0137974
727.802	0.0139056
727.880	0.0140195
727.958	0.0139567
728.036	0.0139053
728.114	0.0139584
728.193	0.0140903
728.271	0.0139275
728.349	0.0140439
728.427	0.0140742
728.505	0.0140155
728.583	0.0140114
728.661	0.0138867
728.739	0.0140508
728.818	0.0140702
728.896	0.0140656
728.974	0.0140176
729.052	0.0139252
729.130	0.0140189
729.208	0.0138776
729.286	0.0138905
729.364	0.0140192
729.443	0.0139721
729.521	0.0140561
729.599	0.0141084
729.677	0.0140173
729.755	0.0141313
729.833	0.0140044
729.911	0.0140582
729.989	0.0141637
730.068	0.0141078
730.146	0.0139283
730.224	0.0139251
730.302	0.0140129
730.380	0.0137964
730.458	0.0139509
730.536	0.0139277
730.614	0.0140308
730.693	0.0138480
730.771	0.0138419
730.849	0.0138699
730.927	0.0138002
731.005	0.0137456
731.083	0.0138390
731.161	0.0137341
731.239	0.0137944
731.318	0.0138162
731.396	0.0136955
731.474	0.0137289
731.552	0.0138664
731.630	0.0137817
731.708	0.0137632
731.786	0.0138785
731.864	0.0136767
731.943	0.0137807
732.021	0.0137689
732.099	0.0137798
732.177	0.0138012
732.255	0.0139013
732.333	0.0138654
732.411	0.0139026
732.489	0.0139391
732.568	0.0139322
732.646	0.0139223
732.724	0.0139711
732.802	0.0140807
732.880	0.0139268
732.958	0.0138368
733.036	0.0139638
733.114	0.0139135
733.193	0.0138639
733.271	0.0139135
733.349	0.0138651
733.427	0.0138740
733.505	0.0138012
733.583	0.0137185
733.661	0.0139014
733.739	0.0137708
733.818	0.0137215
733.896	0.0138190
733.974	0.0138215
734.052	0.0137737
734.130	0.0138405
734.208	0.0138051
734.286	0.0138526
734.364	0.0138325
734.443	0.0139462
734.521	0.0139121
734.599	0.0139839
734.677	0.0140219
734.755	0.0140068
734.833	0.0140321
734.911	0.0139041
734.989	0.0140230
735.068	0.0140789
735.146	0.0139937
735.224	0.0139272
735.302	0.0139207
735.380	0.0139889
735.458	0.0138869
735.536	0.0140276
735.614	0.0139608
735.693	0.0139506
735.771	0.0139108
735.849	0.0139191
735.927	0.0139736
736.005	0.0138254
736.083	0.0139342
736.161	0.0139780
736.239	0.0139250
736.318	0.0140316
736.396	0.0138467
736.474	0.0137647
736.552	0.0139120
736.630	0.0138477
736.708	0.0139204
736.786	0.0139659
736.864	0.0137781
736.943	0.0138816
737.021	0.0140037
737.099	0.0138525
737.177	0.0139718
737.255	0.0139446
737.333	0.0138414
737.411	0.0140181
737.489	0.0138586
737.568	0.0138898
737.646	0.0139542
737.724	0.0138916
737.802	0.0139313
737.880	0.0139570
737.958	0.0137375
738.036	0.0139213
738.114	0.0138642
738.193	0.0137985
738.271	0.0137656
738.349	0.0137528
738.427	0.0139275
738.505	0.0138210
738.583	0.0137061
738.661	0.0138766
738.739	0.0137353
738.818	0.0137953
738.896	0.0138887
738.974	0.0137006
739.052	0.0138342
739.130	0.0137492
739.208	0.0138478
739.286	0.0137087
739.364	0.0138967
739.443	0.0139048
739.521	0.0138605
739.599	0.0139986
739.677	0.0138515
739.755	0.0138349
739.833	0.0140133
739.911	0.0139240
739.989	0.0139713
740.068	0.0141000
740.146	0.0139299
740.224	0.0139131
740.302	0.0139400
740.380	0.0139219
740.458	0.0138227
740.536	0.0137975
740.614	0.0138311
740.693	0.0138740
740.771	0.0139087
740.849	0.0139304
740.927	0.0138821
741.005	0.0138789
741.083	0.0139649
741.161	0.0138325
741.239	0.0139912
741.318	0.0137769
741.396	0.0138317
741.474	0.0138969
741.552	0.0138990
741.630	0.0139394
741.708	0.0139807
741.786	0.0138456
741.864	0.0137996
741.943	0.0138377
742.021	0.0138538
742.099	0.0139442
742.177	0.0139837
742.255	0.0137676
742.333	0.0138145
742.411	0.0139414
742.489	0.0139500
742.568	0.0140442
742.646	0.0139201
742.724	0.0139156
742.802	0.0140108
742.880	0.0138949
742.958	0.0139891
743.036	0.0139157
743.114	0.0139466
743.193	0.0139824
743.271	0.0138564
743.349	0.0138821
743.427	0.0139024
743.505	0.0139997
743.583	0.0137499
743.661	0.0136581
743.739	0.0137823
743.818	0.0137606
743.896	0.0138368
743.974	0.0138264
744.052	0.0136915
744.130	0.0137972
744.208	0.0136970
744.286	0.0138046
744.364	0.0137981
744.443	0.0137323
744.521	0.0139350
744.599	0.0138187
744.677	0.0136911
744.755	0.0137098
744.833	0.0137602
744.911	0.0138456
744.989	0.0139115
745.068	0.0137741
745.146	0.0138783
745.224	0.0137303
745.302	0.0138567
745.380	0.0138648
745.458	0.0137762
745.536	0.0137855
745.614	0.0138466
745.693	0.0137917
745.771	0.0138190
745.849	0.0138300
745.927	0.0137637
746.005	0.0137900
746.083	0.0136568
746.161	0.0137258
746.239	0.0138628
746.318	0.0138792
746.396	0.0137090
746.474	0.0136538
746.552	0.0138858
746.630	0.0139366
746.708	0.0139502
746.786	0.0139354
746.864	0.0138765
746.943	0.0139395
747.021	0.0140064
747.099	0.0139138
747.177	0.0138915
747.255	0.0139907
747.333	0.0140575
747.411	0.0138773
747.489	0.0139441
747.568	0.0138542
747.646	0.0139864
747.724	0.0139954
747.802	0.0139516
747.880	0.0139281
747.958	0.0140113
748.036	0.0138393
748.114	0.0138811
748.193	0.0138036
748.271	0.0138395
748.349	0.0138516
748.427	0.0138333
748.505	0.0138965
748.583	0.0138869
748.661	0.0138972
748.739	0.0138758
748.818	0.0139761
748.896	0.0139269
748.974	0.0139356
749.052	0.0137635
749.130	0.0139177
749.208	0.0140848
749.286	0.0138799
749.364	0.0139417
749.443	0.0140125
749.521	0.0140140
749.599	0.0139722
749.677	0.0138556
749.755	0.0138976
749.833	0.0139739
749.911	0.0138519
749.989	0.0138641
750.068	0.0139041
750.146	0.0138295
750.224	0.0137714
750.302	0.0138682
750.380	0.0138043
750.458	0.0138486
750.536	0.0138656
750.614	0.0135944
750.693	0.0136568
750.771	0.0138416
750.849	0.0136521
750.927	0.0137807
751.005	0.0137051
751.083	0.0137634
751.161	0.0136866
751.239	0.0137308
751.318	0.0137859
751.396	0.0137775
751.474	0.0138825
751.552	0.0138757
751.630	0.0139452
751.708	0.0138168
751.786	0.0137080
751.864	0.0138829
751.943	0.0138214
752.021	0.0139629
752.099	0.0140370
752.177	0.0139304
752.255	0.0140000
752.333	0.0139488
752.411	0.0139935
752.489	0.0138784
752.568	0.0139908
752.646	0.0139709
752.724	0.0141123
752.802	0.0137885
752.880	0.0139183
752.958	0.0136813
753.036	0.0138758
753.114	0.0137904
753.193	0.0139448
753.271	0.0137960
753.349	0.0137954
753.427	0.0136796
753.505	0.0138878
753.583	0.0137659
753.661	0.0137827
753.739	0.0139189
753.818	0.0138049
753.896	0.0139030
753.974	0.0138401
754.052	0.0139123
754.130	0.0139635
754.208	0.0139336
754.286	0.0140606
754.364	0.0140109
754.443	0.0139532
754.521	0.0140539
754.599	0.0141351
754.677	0.0139625
754.755	0.0140208
754.833	0.0141363
754.911	0.0141119
754.989	0.0140012
755.068	0.0139972
755.146	0.0142493
755.224	0.0141588
755.302	0.0141434
755.380	0.0139957
755.458	0.0139305
755.536	0.0141330
755.614	0.0139578
755.693	0.0138764
755.771	0.0138514
755.849	0.0138538
755.927	0.0138606
756.005	0.0138779
756.083	0.0137151
756.161	0.0138020
756.239	0.0138578
756.318	0.0137424
756.396	0.0136511
756.474	0.0137128
756.552	0.0138274
756.630	0.0136873
756.708	0.0136585
756.786	0.0136990
756.864	0.0135916
756.943	0.0135210
757.021	0.0136315
757.099	0.0136374
757.177	0.0138257
757.255	0.0137289
757.333	0.0137292
757.411	0.0136726
757.489	0.0138029
757.568	0.0137791
757.646	0.0138761
757.724	0.0138940
757.802	0.0139207
757.880	0.0139188
757.958	0.0139622
758.036	0.0140906
758.114	0.0139285
758.193	0.0141020
758.271	0.0141044
758.349	0.0139746
758.427	0.0139552
758.505	0.0141074
758.583	0.0139013
758.661	0.0140209
758.739	0.0141024
758.818	0.0140726
758.896	0.0139280
758.974	0.0140337
759.052	0.0140313
759.130	0.0137780
759.208	0.0139584
759.286	0.0140770
759.364	0.0140100
759.443	0.0138221
759.521	0.0137918
759.599	0.0138303
759.677	0.0138912
759.755	0.0139909
759.833	0.0138440
759.911	0.0137768
759.989	0.0138435
760.068	0.0138637
760.146	0.0138846
760.224	0.0139282
760.302	0.0137846
760.380	0.0138435
760.458	0.0137888
760.536	0.0137766
760.614	0.0139112
760.693	0.0137428
760.771	0.0138637
760.849	0.0138637
760.927	0.0138092
761.005	0.0138589
761.083	0.0136897
761.161	0.0137548
761.239	0.0138917
761.318	0.0138967
761.396	0.0139206
761.474	0.0138937
761.552	0.0138152
761.630	0.0138312
761.708	0.0138909
761.786	0.0138877
761.864	0.0139211
761.943	0.0138924
762.021	0.0139304
762.099	0.0139012
762.177	0.0139684
762.255	0.0140581
762.333	0.0140343
762.411	0.0139040
762.489	0.0139890
762.568	0.0140656
762.646	0.0140894
762.724	0.0139139
762.802	0.0139908
762.880	0.0138667
762.958	0.0137806
763.036	0.0137614
763.114	0.0139033
763.193	0.0138246
763.271	0.0137299
763.349	0.0137109
763.427	0.0136028
763.505	0.0137192
763.583	0.0136281
763.661	0.0138056
763.739	0.0137093
763.818	0.0137476
763.896	0.0137843
763.974	0.0137380
764.052	0.0136201
764.130	0.0138711
764.208	0.0137865
764.286	0.0138097
764.364	0.0138497
764.443	0.0138435
764.521	0.0140143
764.599	0.0139005
764.677	0.0139175
764.755	0.0140724
764.833	0.0140721
764.911	0.0139854
764.989	0.0138682
765.068	0.0137288
765.146	0.0139950
765.224	0.0140739
765.302	0.0139426
765.380	0.0138512
765.458	0.0139171
765.536	0.0139203
765.614	0.0139413
765.693	0.0139159
765.771	0.0140139
765.849	0.0139075
765.927	0.0138920
766.005	0.0137861
766.083	0.0138358
766.161	0.0139790
766.239	0.0139870
766.318	0.0139040
766.396	0.0138961
766.474	0.0140559
766.552	0.0138785
766.630	0.0138956
766.708	0.0136869
766.786	0.0138876
766.864	0.0138826
766.943	0.0139604
767.021	0.0138219
767.099	0.0137804
767.177	0.0140521
767.255	0.0138425
767.333	0.0137927
767.411	0.0139452
767.489	0.0138927
767.568	0.0139528
767.646	0.0141048
767.724	0.0139594
767.802	0.0139207
767.880	0.0139405
767.958	0.0141117
768.036	0.0140974
768.114	0.0141438
768.193	0.0139300
768.271	0.0140942
768.349	0.0140794
768.427	0.0139483
768.505	0.0141180
768.583	0.0140840
768.661	0.0140902
768.739	0.0139597
768.818	0.0139721
768.896	0.0141007
768.974	0.0140314
769.052	0.0138339
769.130	0.0138989
769.208	0.0138808
769.286	0.0138723
769.364	0.0137756
769.443	0.0138608
769.521	0.0138811
769.599	0.0137144
769.677	0.0137765
769.755	0.0136747
769.833	0.0136001
769.911	0.0137555
769.989	0.0137506
770.068	0.0137381
770.146	0.0136862
770.224	0.0136499
770.302	0.0136900
770.380	0.0138435
770.458	0.0137955
770.536	0.0137099
770.614	0.0137935
770.693	0.0137957
770.771	0.0137164
770.849	0.0138869
770.927	0.0138999
771.005	0.0138599
771.083	0.0137727
771.161	0.0138432
771.239	0.0139119
771.318	0.0138804
771.396	0.0137895
771.474	0.0137785
771.552	0.0138899
771.630	0.0138652
771.708	0.0138966
771.786	0.0139568
771.864	0.0141443
771.943	0.0140727
772.021	0.0140199
772.099	0.0138857
772.177	0.0140562
772.255	0.0139975
772.333	0.0139809
772.411	0.0140778
772.489	0.0139411
772.568	0.0141466
772.646	0.0140611
772.724	0.0139994
772.802	0.0141631
772.880	0.0141257
772.958	0.0140787
773.036	0.0139865
773.114	0.0139005
773.193	0.0139101
773.271	0.0139580
773.349	0.0138722
773.427	0.0137825
773.505	0.0138303
773.583	0.0140711
773.661	0.0139646
773.739	0.0136778
773.818	0.0137788
773.896	0.0137940
773.974	0.0139388
774.052	0.0137338
774.130	0.0137518
774.208	0.0138586
774.286	0.0138151
774.364	0.0135964
774.443	0.0138097
774.521	0.0139096
774.599	0.0138677
774.677	0.0137820
774.755	0.0136744
774.833	0.0137641
774.911	0.0139201
774.989	0.0137643
775.068	0.0138776
775.146	0.0138110
775.224	0.0138634
775.302	0.0138591
775.380	0.0137582
775.458	0.0136923
775.536	0.0137870
775.614	0.0138579
775.693	0.0138625
775.771	0.0140311
775.849	0.0137492
775.927	0.0138220
776.005	0.0137886
776.083	0.0137811
776.161	0.0138882
776.239	0.0138454
776.318	0.0138549
776.396	0.0137833
776.474	0.0137569
776.552	0.0139417
776.630	0.0139132
776.708	0.0140347
776.786	0.0140562
776.864	0.0140535
776.943	0.0139952
777.021	0.0139227
777.099	0.0139954
777.177	0.0141781
777.255	0.0141360
777.333	0.0140922
777.411	0.0140177
777.489	0.0141925
777.568	0.0140614
777.646	0.0140060
777.724	0.0139190
777.802	0.0140289
777.880	0.0140116
777.958	0.0140144
778.036	0.0138988
778.114	0.0140086
778.193	0.0139520
778.271	0.0140012
778.349	0.0139194
778.427	0.0140591
778.505	0.0138878
778.583	0.0140130
778.661	0.0139929
778.739	0.0139261
778.818	0.0138659
778.896	0.0138850
778.974	0.0138681
779.052	0.0138578
779.130	0.0139163
779.208	0.0140201
779.286	0.0139169
779.364	0.0138937
779.443	0.0139139
779.521	0.0139040
779.599	0.0138705
779.677	0.0138852
779.755	0.0139328
779.833	0.0137466
779.911	0.0138228
779.989	0.0139814
780.068	0.0139328
780.146	0.0139295
780.224	0.0138422
780.302	0.0136471
780.380	0.0139439
780.458	0.0138783
780.536	0.0138496
780.614	0.0140279
780.693	0.0140517
780.771	0.0139495
780.849	0.0139622
780.927	0.0139880
781.005	0.0139268
781.083	0.0140771
781.161	0.0140750
781.239	0.0139847
781.318	0.0140400
781.396	0.0140711
781.474	0.0141272
781.552	0.0140707
781.630	0.0139793
781.708	0.0139078
781.786	0.0140032
781.864	0.0139157
781.943	0.0139288
782.021	0.0139751
782.099	0.0139021
782.177	0.0139274
782.255	0.0139429
782.333	0.0139478
782.411	0.0138826
782.489	0.0139925
782.568	0.0140133
782.646	0.0140661
782.724	0.0139281
782.802	0.0140385
782.880	0.0140431
782.958	0.0139344
783.036	0.0139894
783.114	0.0140257
783.193	0.0138896
783.271	0.0140424
783.349	0.0139929
783.427	0.0139040
783.505	0.0138871
783.583	0.0139021
783.661	0.0139758
783.739	0.0138960
783.818	0.0137046
783.896	0.0137347
783.974	0.0137777
784.052	0.0138576
784.130	0.0139590
784.208	0.0137921
784.286	0.0137073
784.364	0.0138427
784.443	0.0137804
784.521	0.0135828
784.599	0.0137310
784.677	0.0137815
784.755	0.0137069
784.833	0.0138721
784.911	0.0137534
784.989	0.0137740
785.068	0.0138758
785.146	0.0137514
785.224	0.0138647
785.302	0.0138338
785.380	0.0139451
785.458	0.0138785
785.536	0.0141034
785.614	0.0140350
785.693	0.0141011
785.771	0.0140985
785.849	0.0140490
785.927	0.0139874
786.005	0.0138905
786.083	0.0138488
786.161	0.0139085
786.239	0.0140009
786.318	0.0139588
786.396	0.0141337
786.474	0.0138419
786.552	0.0138699
786.630	0.0139042
786.708	0.0139585
786.786	0.0139577
786.864	0.0139999
786.943	0.0140207
787.021	0.0140253
787.099	0.0139346
787.177	0.0139610
787.255	0.0139182
787.333	0.0140558
787.411	0.0141078
787.489	0.0140767
787.568	0.0141055
787.646	0.0139775
787.724	0.0141157
787.802	0.0140526
787.880	0.0140367
787.958	0.0141360
788.036	0.0139310
788.114	0.0138745
788.193	0.0140394
788.271	0.0139179
788.349	0.0140459
788.427	0.0138976
788.505	0.0137450
788.583	0.0139373
788.661	0.0138232
788.739	0.0138760
788.818	0.0138786
788.896	0.0139436
788.974	0.0139336
789.052	0.0138602
789.130	0.0138503
789.208	0.0138289
789.286	0.0138470
789.364	0.0138476
789.443	0.0138583
789.521	0.0138602
789.599	0.0138017
789.677	0.0138134
789.755	0.0138737
789.833	0.0138354
789.911	0.0137743
789.989	0.0139040
790.068	0.0139085
790.146	0.0137985
790.224	0.0139300
790.302	0.0139076
790.380	0.0139198
790.458	0.0139508
790.536	0.0138865
790.614	0.0139217
790.693	0.0139678
790.771	0.0139478
790.849	0.0139666
790.927	0.0138909
791.005	0.0139700
791.083	0.0140659
791.161	0.0139457
791.239	0.0139318
791.318	0.0139627
791.396	0.0140232
791.474	0.0139683
791.552	0.0140390
791.630	0.0140126
791.708	0.0141325
791.786	0.0140697
791.864	0.0141723
791.943	0.0139500
792.021	0.0139887
792.099	0.0140761
792.177	0.0139352
792.255	0.0139348
792.333	0.0140017
792.411	0.0139389
792.489	0.0138911
792.568	0.0138731
792.646	0.0138030
792.724	0.0138289
792.802	0.0139713
792.880	0.0137788
792.958	0.0137463
793.036	0.0138193
793.114	0.0139101
793.193	0.0138043
793.271	0.0137260
793.349	0.0138427
793.427	0.0138512
793.505	0.0141120
793.583	0.0138517
793.661	0.0137960
793.739	0.0139171
793.818	0.0139721
793.896	0.0140215
793.974	0.0140002
794.052	0.0139436
794.130	0.0140447
794.208	0.0139216
794.286	0.0139870
794.364	0.0140189
794.443	0.0141334
794.521	0.0139565
794.599	0.0138726
794.677	0.0138291
794.755	0.0139243
794.833	0.0139269
794.911	0.0139423
794.989	0.0138531
795.068	0.0138963
795.146	0.0137400
795.224	0.0138523
795.302	0.0138509
795.380	0.0137921
795.458	0.0138094
795.536	0.0139033
795.614	0.0138764
795.693	0.0138374
795.771	0.0139322
795.849	0.0139315
795.927	0.0138033
796.005	0.0136935
796.083	0.0137543
796.161	0.0137564
796.239	0.0138284
796.318	0.0138931
796.396	0.0139517
796.474	0.0138198
796.552	0.0139259
796.630	0.0138668
796.708	0.0138061
796.786	0.0138366
796.864	0.0138634
796.943	0.0138602
797.021	0.0138500
797.099	0.0137215
797.177	0.0138404
797.255	0.0139230
797.333	0.0138869
797.411	0.0138493
797.489	0.0137424
797.568	0.0138163
797.646	0.0138147
797.724	0.0138121
797.802	0.0139662
797.880	0.0140655
797.958	0.0138069
798.036	0.0139643
798.114	0.0139152
798.193	0.0139205
798.271	0.0139279
798.349	0.0139819
798.427	0.0139655
798.505	0.0140435
798.583	0.0139041
798.661	0.0138305
798.739	0.0139024
798.818	0.0139343
798.896	0.0139226
798.974	0.0138895
799.052	0.0138409
799.130	0.0138869
799.208	0.0138517
799.286	0.0139731
799.364	0.0137847
799.443	0.0137982
799.521	0.0138252
799.599	0.0138266
799.677	0.0139684
799.755	0.0138441
799.833	0.0137843
799.911	0.0138003
799.989	0.0138086
800.068	0.0137491
800.146	0.0137275
800.224	0.0139584
800.302	0.0139004
800.380	0.0138821
800.458	0.0138540
800.536	0.0139569
800.614	0.0140137
800.693	0.0138444
800.771	0.0138391
800.849	0.0138457
800.927	0.0139288
801.005	0.0139555
801.083	0.0138961
801.161	0.0138441
801.239	0.0138716
801.318	0.0139565
801.396	0.0138408
801.474	0.0138860
801.552	0.0137513
801.630	0.0137971
801.708	0.0139198
801.786	0.0139671
801.864	0.0138586
801.943	0.0139431
802.021	0.0138670
802.099	0.0138319
802.177	0.0139229
802.255	0.0140142
802.333	0.0139988
802.411	0.0139835
802.489	0.0138486
802.568	0.0139689
802.646	0.0138831
802.724	0.0139539
802.802	0.0139569
802.880	0.0140533
802.958	0.0139095
803.036	0.0139608
803.114	0.0139325
803.193	0.0140582
803.271	0.0140057
803.349	0.0138917
803.427	0.0138177
803.505	0.0137675
803.583	0.0139360
803.661	0.0139114
803.739	0.0139064
803.818	0.0138462
803.896	0.0138793
803.974	0.0138354
804.052	0.0138198
804.130	0.0137450
804.208	0.0137811
804.286	0.0137779
804.364	0.0139258
804.443	0.0139484
804.521	0.0137456
804.599	0.0138204
804.677	0.0140518
804.755	0.0138467
804.833	0.0139955
804.911	0.0139522
804.989	0.0138223
805.068	0.0140858
805.146	0.0139182
805.224	0.0138570
805.302	0.0138316
805.380	0.0138612
805.458	0.0139524
805.536	0.0139098
805.614	0.0138303
805.693	0.0139672
805.771	0.0140049
805.849	0.0138398
805.927	0.0138440
806.005	0.0139610
806.083	0.0138095
806.161	0.0140112
806.239	0.0138770
806.318	0.0138480
806.396	0.0139834
806.474	0.0140062
806.552	0.0138632
806.630	0.0140700
806.708	0.0140290
806.786	0.0138344
806.864	0.0138355
806.943	0.0138435
807.021	0.0138514
807.099	0.0138580
807.177	0.0137771
807.255	0.0138425
807.333	0.0139201
807.411	0.0138251
807.489	0.0137550
807.568	0.0138907
807.646	0.0138000
807.724	0.0138966
807.802	0.0139664
807.880	0.0137950
807.958	0.0138014
808.036	0.0138979
808.114	0.0139081
808.193	0.0138877
808.271	0.0138203
808.349	0.0138131
808.427	0.0139372
808.505	0.0138947
808.583	0.0139558
808.661	0.0138375
808.739	0.0139320
808.818	0.0138960
808.896	0.0139130
808.974	0.0139384
809.052	0.0140750
809.130	0.0139248
809.208	0.0138792
809.286	0.0138592
809.364	0.0139080
809.443	0.0139064
809.521	0.0139122
809.599	0.0138559
809.677	0.0137498
809.755	0.0138584
809.833	0.0138639
809.911	0.0139135
809.989	0.0139322
810.068	0.0140673
810.146	0.0139165
810.224	0.0139374
810.302	0.0139556
810.380	0.0139423
810.458	0.0140739
810.536	0.0139549
810.614	0.0139107
810.693	0.0140285
810.771	0.0141232
810.849	0.0139577
810.927	0.0138657
811.005	0.0138125
811.083	0.0139613
811.161	0.0140844
811.239	0.0139065
811.318	0.0138991
811.396	0.0138485
811.474	0.0138385
811.552	0.0138191
811.630	0.0137959
811.708	0.0140192
811.786	0.0139049
811.864	0.0136193
811.943	0.0138708
812.021	0.0139036
812.099	0.0137554
812.177	0.0137448
812.255	0.0137636
812.333	0.0137509
812.411	0.0138557
812.489	0.0137436
812.568	0.0137785
812.646	0.0137271
812.724	0.0135989
812.802	0.0137412
812.880	0.0138674
812.958	0.0137720
813.036	0.0137814
813.114	0.0137999
813.193	0.0137641
813.271	0.0138309
813.349	0.0137952
813.427	0.0138411
813.505	0.0139704
813.583	0.0139056
813.661	0.0138792
813.739	0.0137720
813.818	0.0139556
813.896	0.0139971
813.974	0.0138383
814.052	0.0140570
814.130	0.0139695
814.208	0.0139988
814.286	0.0139698
814.364	0.0138338
814.443	0.0141256
814.521	0.0139030
814.599	0.0139632
814.677	0.0139513
814.755	0.0139754
814.833	0.0140656
814.911	0.0138906
814.989	0.0139188
815.068	0.0138685
815.146	0.0138353
815.224	0.0138532
815.302	0.0140028
815.380	0.0138754
815.458	0.0139189
815.536	0.0138326
815.614	0.0137759
815.693	0.0138563
815.771	0.0138705
815.849	0.0138381
815.927	0.0137414
816.005	0.0138074
816.083	0.0138454
816.161	0.0139647
816.239	0.0138961
816.318	0.0137209
816.396	0.0136644
816.474	0.0138445
816.552	0.0137567
816.630	0.0137225
816.708	0.0138544
816.786	0.0138016
816.864	0.0138940
816.943	0.0139153
817.021	0.0138689
817.099	0.0139434
817.177	0.0136760
817.255	0.0138158
817.333	0.0139001
817.411	0.0139405
817.489	0.0139845
817.568	0.0139201
817.646	0.0138245
817.724	0.0140468
817.802	0.0139148
817.880	0.0140744
817.958	0.0139770
818.036	0.0140689
818.114	0.0140061
818.193	0.0139108
818.271	0.0140077
818.349	0.0138728
818.427	0.0139532
818.505	0.0140028
818.583	0.0138638
818.661	0.0138754
818.739	0.0136842
818.818	0.0138899
818.896	0.0138724
818.974	0.0139032
819.052	0.0136378
819.130	0.0137170
819.208	0.0138683
819.286	0.0137926
819.364	0.0138757
819.443	0.0137808
819.521	0.0136552
819.599	0.0140173
819.677	0.0137912
819.755	0.0137437
819.833	0.0137570
819.911	0.0136743
819.989	0.0138115
820.068	0.0137701
820.146	0.0139054
820.224	0.0137845
820.302	0.0139329
820.380	0.0137034
820.458	0.0138960
820.536	0.0138440
820.614	0.0139298
820.693	0.0138161
820.771	0.0139091
820.849	0.0140714
820.927	0.0138272
821.005	0.0139294
821.083	0.0139381
821.161	0.0139407
821.239	0.0139208
821.318	0.0141376
821.396	0.0140760
821.474	0.0139750
821.552	0.0140251
821.630	0.0141557
821.708	0.0138871
821.786	0.0140274
821.864	0.0140880
821.943	0.0140290
822.021	0.0140325
822.099	0.0140601
822.177	0.0139487
822.255	0.0139511
822.333	0.0139919
822.411	0.0139520
822.489	0.0138943
822.568	0.0139051
822.646	0.0139389
822.724	0.0138017
822.802	0.0137665
822.880	0.0136999
822.958	0.0139233
823.036	0.0137402
823.114	0.0136623
823.193	0.0137179
823.271	0.0136443
823.349	0.0136587
823.427	0.0137582
823.505	0.0136877
823.583	0.0137735
823.661	0.0136281
823.739	0.0138097
823.818	0.0137131
823.896	0.0137297
823.974	0.0137010
824.052	0.0137135
824.130	0.0137132
824.208	0.0136644
824.286	0.0136358
824.364	0.0138423
824.443	0.0137955
824.521	0.0136890
824.599	0.0138326
824.677	0.0138522
824.755	0.0138978
824.833	0.0139582
824.911	0.0139278
824.989	0.0137447
825.068	0.0138073
825.146	0.0139355
825.224	0.0138542
825.302	0.0138767
825.380	0.0139674
825.458	0.0139137
825.536	0.0139910
825.614	0.0140253
825.693	0.0140800
825.771	0.0140521
825.849	0.0139349
825.927	0.0140959
826.005	0.0139614
826.083	0.0140470
826.161	0.0140968
826.239	0.0140441
826.318	0.0139206
826.396	0.0140490
826.474	0.0140236
826.552	0.0139809
826.630	0.0139716
826.708	0.0139708
826.786	0.0140312
826.864	0.0140693
826.943	0.0139991
827.021	0.0140257
827.099	0.0139619
827.177	0.0139622
827.255	0.0140784
827.333	0.0139214
827.411	0.0136805
827.489	0.0137757
827.568	0.0138644
827.646	0.0138867
827.724	0.0137965
827.802	0.0137328
827.880	0.0136612
827.958	0.0135869
828.036	0.0137833
828.114	0.0137132
828.193	0.0137566
828.271	0.0135186
828.349	0.0135745
828.427	0.0135431
828.505	0.0135598
828.583	0.0134880
828.661	0.0136511
828.739	0.0135156
828.818	0.0135235
828.896	0.0135097
828.974	0.0135049
829.052	0.0135670
829.130	0.0133937
829.208	0.0136729
829.286	0.0135821
829.364	0.0136915
829.443	0.0136578
829.521	0.0137376
829.599	0.0136961
829.677	0.0137034
829.755	0.0137901
829.833	0.0137393
829.911	0.0138830
829.989	0.0140192
830.068	0.0140974
830.146	0.0140179
830.224	0.0139730
830.302	0.0142232
830.380	0.0141750
830.458	0.0141806
830.536	0.0141845
830.614	0.0142220
830.693	0.0142710
830.771	0.0144266
830.849	0.0142918
830.927	0.0143575
831.005	0.0143392
831.083	0.0141953
831.161	0.0142997
831.239	0.0143484
831.318	0.0142768
831.396	0.0142245
831.474	0.0141417
831.552	0.0141027
831.630	0.0142393
831.708	0.0140543
831.786	0.0140047
831.864	0.0139857
831.943	0.0139307
832.021	0.0139001
832.099	0.0139524
832.177	0.0137624
832.255	0.0137145
832.333	0.0136112
832.411	0.0137322
832.489	0.0135984
832.568	0.0135577
832.646	0.0135654
832.724	0.0133955
832.802	0.0133031
832.880	0.0134100
832.958	0.0134687
833.036	0.0133722
833.114	0.0133620
833.193	0.0132268
833.271	0.0132598
833.349	0.0133082
833.427	0.0134233
833.505	0.0133209
833.583	0.0134131
833.661	0.0134348
833.739	0.0132890
833.818	0.0134189
833.896	0.0134432
833.974	0.0134960
834.052	0.0137391
834.130	0.0137225
834.208	0.0138100
834.286	0.0138670
834.364	0.0138876
834.443	0.0140106
834.521	0.0140952
834.599	0.0141548
834.677	0.0139394
834.755	0.0141276
834.833	0.0143864
834.911	0.0143510
834.989	0.0142943
835.068	0.0143764
835.146	0.0143740
835.224	0.0144096
835.302	0.0143080
835.380	0.0144392
835.458	0.0144267
835.536	0.0142977
835.614	0.0142808
835.693	0.0143763
835.771	0.0143969
835.849	0.0143570
835.927	0.0142826
836.005	0.0143423
836.083	0.0142437
836.161	0.0142339
836.239	0.0140022
836.318	0.0141537
836.396	0.0140739
836.474	0.0137569
836.552	0.0138364
836.630	0.0137637
836.708	0.0137301
836.786	0.0136537
836.864	0.0136241
836.943	0.0137332
837.021	0.0137006
837.099	0.0135452
837.177	0.0135854
837.255	0.0134695
837.333	0.0133672
837.411	0.0134261
837.489	0.0133477
837.568	0.0133050
837.646	0.0133578
837.724	0.0132474
837.802	0.0133633
837.880	0.0133867
837.958	0.0132831
838.036	0.0132340
838.114	0.0134531
838.193	0.0133457
838.271	0.0134905
838.349	0.0134929
838.427	0.0134927
838.505	0.0135929
838.583	0.0135400
838.661	0.0137362
838.739	0.0136372
838.818	0.0137054
838.896	0.0137131
838.974	0.0138940
839.052	0.0139777
839.130	0.0140643
839.208	0.0140656
839.286	0.0141233
839.364	0.0139931
839.443	0.0141798
839.521	0.0144581
839.599	0.0142348
839.677	0.0142422
839.755	0.0143909
839.833	0.0144252
839.911	0.0144355
839.989	0.0145202
840.068	0.0145963
840.146	0.0146141
840.224	0.0143766
840.302	0.0143582
840.380	0.0144919
840.458	0.0145679
840.536	0.0144964
840.614	0.0143476
840.693	0.0142873
840.771	0.0142461
840.849	0.0141584
840.927	0.0142490
841.005	0.0140913
841.083	0.0139245
841.161	0.0138798
841.239	0.0139482
841.318	0.0140182
841.396	0.0138557
841.474	0.0138911
841.552	0.0137900
841.630	0.0135585
841.708	0.0136625
841.786	0.0136632
841.864	0.0135889
841.943	0.0134399
842.021	0.0133819
842.099	0.0135780
842.177	0.0134308
842.255	0.0134069
842.333	0.0134308
842.411	0.0133786
842.489	0.0134011
842.568	0.0134280
842.646	0.0133170
842.724	0.0133956
842.802	0.0133527
842.880	0.0134843
842.958	0.0135277
843.036	0.0134852
843.114	0.0136167
843.193	0.0134859
843.271	0.0134732
843.349	0.0136271
843.427	0.0136936
843.505	0.0137930
843.583	0.0138786
843.661	0.0137960
843.739	0.0138464
843.818	0.0138983
843.896	0.0140483
843.974	0.0139790
844.052	0.0140726
844.130	0.0142553
844.208	0.0141958
844.286	0.0142149
844.364	0.0142974
844.443	0.0143085
844.521	0.0143304
844.599	0.0143827
844.677	0.0145920
844.755	0.0144741
844.833	0.0144604
844.911	0.0145436
844.989	0.0144228
845.068	0.0143943
845.146	0.0143446
845.224	0.0142947
845.302	0.0144288
845.380	0.0141289
845.458	0.0143380
845.536	0.0143542
845.614	0.0142606
845.693	0.0141638
845.771	0.0139960
845.849	0.0140706
845.927	0.0140279
846.005	0.0139516
846.083	0.0138389
846.161	0.0137667
846.239	0.0138098
846.318	0.0135697
846.396	0.0135977
846.474	0.0135320
846.552	0.0135233
846.630	0.0134489
846.708	0.0134369
846.786	0.0134392
846.864	0.0133963
846.943	0.0134901
847.021	0.0134938
847.099	0.0133493
847.177	0.0134941
847.255	0.0135603
847.333	0.0133752
847.411	0.0133926
847.489	0.0133958
847.568	0.0136340
847.646	0.0136085
847.724	0.0135482
847.802	0.0136653
847.880	0.0137170
847.958	0.0137092
848.036	0.0136897
848.114	0.0137003
848.193	0.0137033
848.271	0.0140285
848.349	0.0138454
848.427	0.0138156
848.505	0.0139847
848.583	0.0139333
848.661	0.0140256
848.739	0.0140061
848.818	0.0139338
848.896	0.0140967
848.974	0.0139545
849.052	0.0140476
849.130	0.0141734
849.208	0.0142213
849.286	0.0141090
849.364	0.0141064
849.443	0.0141843
849.521	0.0141666
849.599	0.0142223
849.677	0.0141241
849.755	0.0142332
849.833	0.0141865
849.911	0.0141522
849.989	0.0142574
850.068	0.0143605
850.146	0.0140834
850.224	0.0139895
850.302	0.0140444
850.380	0.0141534
850.458	0.0141069
850.536	0.0140166
850.614	0.0140397
850.693	0.0139964
850.771	0.0139454
850.849	0.0140226
850.927	0.0138974
851.005	0.0137675
851.083	0.0138387
851.161	0.0138438
851.239	0.0138184
851.318	0.0136655
851.396	0.0136800
851.474	0.0136308
851.552	0.0135844
851.630	0.0136777
851.708	0.0138378
851.786	0.0136679
851.864	0.0137085
851.943	0.0136585
852.021	0.0136376
852.099	0.0138544
852.177	0.0137711
852.255	0.0137022
852.333	0.0138541
852.411	0.0138162
852.489	0.0136449
852.568	0.0138056
852.646	0.0138503
852.724	0.0138265
852.802	0.0138319
852.880	0.0138751
852.958	0.0138544
853.036	0.0137616
853.114	0.0138226
853.193	0.0138790
853.271	0.0139011
853.349	0.0140218
853.427	0.0139515
853.505	0.0138777
853.583	0.0139553
853.661	0.0138960
853.739	0.0140250
853.818	0.0140649
853.896	0.0140292
853.974	0.0140192
854.052	0.0139006
854.130	0.0139318
854.208	0.0139757
854.286	0.0140418
854.364	0.0140533
854.443	0.0141180
854.521	0.0139265
854.599	0.0138551
854.677	0.0139883
854.755	0.0140003
854.833	0.0138914
854.911	0.0139442
854.989	0.0138710
855.068	0.0138914
855.146	0.0139091
855.224	0.0137720
855.302	0.0138671
855.380	0.0138326
855.458	0.0138444
855.536	0.0138159
855.614	0.0137979
855.693	0.0139524
855.771	0.0137565
855.849	0.0138005
855.927	0.0139018
856.005	0.0138635
856.083	0.0138419
856.161	0.0138317
856.239	0.0140134
856.318	0.0139403
856.396	0.0140223
856.474	0.0138863
856.552	0.0140353
856.630	0.0138227
856.708	0.0138806
856.786	0.0139008
856.864	0.0140290
856.943	0.0139381
857.021	0.0139388
857.099	0.0139720
857.177	0.0138865
857.255	0.0138773
857.333	0.0138454
857.411	0.0139712
857.489	0.0139420
857.568	0.0139656
857.646	0.0139665
857.724	0.0140978
857.802	0.0138993
857.880	0.0139651
857.958	0.0139917
858.036	0.0138401
858.114	0.0140227
858.193	0.0140014
858.271	0.0140033
858.349	0.0140849
858.427	0.0140008
858.505	0.0140435
858.583	0.0139075
858.661	0.0140837
858.739	0.0139698
858.818	0.0139988
858.896	0.0141045
858.974	0.0141157
859.052	0.0141401
859.130	0.0139768
859.208	0.0139473
859.286	0.0140603
859.364	0.0140357
859.443	0.0139220
859.521	0.0139570
859.599	0.0139887
859.677	0.0138612
859.755	0.0140876
859.833	0.0138589
859.911	0.0137508
859.989	0.0138372
860.068	0.0137416
860.146	0.0137782
860.224	0.0137927
860.302	0.0138827
860.380	0.0138451
860.458	0.0138431
860.536	0.0139258
860.614	0.0138433
860.693	0.0139578
860.771	0.0138225
860.849	0.0138644
860.927	0.0139648
861.005	0.0139004
861.083	0.0139479
861.161	0.0139441
861.239	0.0138926
861.318	0.0138024
861.396	0.0138222
861.474	0.0140641
861.552	0.0138846
861.630	0.0137695
861.708	0.0138512
861.786	0.0137585
861.864	0.0138995
861.943	0.0140340
862.021	0.0139242
862.099	0.0139314
862.177	0.0138313
862.255	0.0138495
862.333	0.0140040
862.411	0.0139230
862.489	0.0139394
862.568	0.0138701
862.646	0.0139560
862.724	0.0139609
862.802	0.0138996
862.880	0.0139242
862.958	0.0139687
863.036	0.0138644
863.114	0.0139008
863.193	0.0140068
863.271	0.0140002
863.349	0.0139851
863.427	0.0138831
863.505	0.0140242
863.583	0.0139564
863.661	0.0139094
863.739	0.0139664
863.818	0.0137910
863.896	0.0139505
863.974	0.0138348
864.052	0.0138951
864.130	0.0139194
864.208	0.0140279
864.286	0.0138441
864.364	0.0140372
864.443	0.0138465
864.521	0.0138326
864.599	0.0138816
864.677	0.0139651
864.755	0.0138400
864.833	0.0139084
864.911	0.0139163
864.989	0.0139009
865.068	0.0137509
865.146	0.0137481
865.224	0.0137769
865.302	0.0137778
865.380	0.0136639
865.458	0.0137610
865.536	0.0138445
865.614	0.0136758
865.693	0.0137889
865.771	0.0139149
865.849	0.0136808
865.927	0.0137473
866.005	0.0138396
866.083	0.0138335
866.161	0.0138428
866.239	0.0138618
866.318	0.0139501
866.396	0.0138673
866.474	0.0138234
866.552	0.0138229
866.630	0.0139346
866.708	0.0138139
866.786	0.0138980
866.864	0.0138121
866.943	0.0138521
867.021	0.0139377
867.099	0.0138659
867.177	0.0139407
867.255	0.0139530
867.333	0.0138055
867.411	0.0138790
867.489	0.0138732
867.568	0.0139445
867.646	0.0139344
867.724	0.0139603
867.802	0.0138512
867.880	0.0138788
867.958	0.0137852
868.036	0.0139664
868.114	0.0140286
868.193	0.0137807
868.271	0.0138427
868.349	0.0139577
868.427	0.0140424
868.505	0.0139246
868.583	0.0140271
868.661	0.0139754
868.739	0.0140562
868.818	0.0140712
868.896	0.0139730
868.974	0.0139102
869.052	0.0139458
869.130	0.0140328
869.208	0.0139393
869.286	0.0139194
869.364	0.0138681
869.443	0.0140314
869.521	0.0139947
869.599	0.0140051
869.677	0.0139176
869.755	0.0139263
869.833	0.0138527
869.911	0.0140102
869.989	0.0140729
870.068	0.0139780
870.146	0.0141001
870.224	0.0139694
870.302	0.0139558
870.380	0.0139707
870.458	0.0139824
870.536	0.0141153
870.614	0.0140965
870.693	0.0140075
870.771	0.0140130
870.849	0.0138305
870.927	0.0138905
871.005	0.0138219
871.083	0.0139058
871.161	0.0140065
871.239	0.0138953
871.318	0.0138683
871.396	0.0139724
871.474	0.0138338
871.552	0.0138209
871.630	0.0139168
871.708	0.0139411
871.786	0.0138396
871.864	0.0137625
871.943	0.0138044
872.021	0.0138202
872.099	0.0138206
872.177	0.0138567
872.255	0.0139016
872.333	0.0139313
872.411	0.0138029
872.489	0.0139262
872.568	0.0137477
872.646	0.0137588
872.724	0.0137749
872.802	0.0139145
872.880	0.0139091
872.958	0.0137847
873.036	0.0137935
873.114	0.0139261
873.193	0.0138514
873.271	0.0138456
873.349	0.0138849
873.427	0.0138766
873.505	0.0139294
873.583	0.0139790
873.661	0.0140981
873.739	0.0140305
873.818	0.0138519
873.896	0.0139027
873.974	0.0140118
874.052	0.0140806
874.130	0.0140753
874.208	0.0140775
874.286	0.0141191
874.364	0.0140518
874.443	0.0139835
874.521	0.0139686
874.599	0.0139935
874.677	0.0140333
874.755	0.0141184
874.833	0.0140997
874.911	0.0140203
874.989	0.0139640
875.068	0.0138509
875.146	0.0139745
875.224	0.0139536
875.302	0.0139645
875.380	0.0139400
875.458	0.0137973
875.536	0.0140398
875.614	0.0138472
875.693	0.0138557
875.771	0.0138596
875.849	0.0139203
875.927	0.0139004
876.005	0.0139036
876.083	0.0138461
876.161	0.0139008
876.239	0.0137497
876.318	0.0137505
876.396	0.0139558
876.474	0.0138176
876.552	0.0139752
876.630	0.0139173
876.708	0.0139004
876.786	0.0139462
876.864	0.0137995
876.943	0.0138207
877.021	0.0139885
877.099	0.0139215
877.177	0.0140041
877.255	0.0140937
877.333	0.0140278
877.411	0.0140231
877.489	0.0140318
877.568	0.0140096
877.646	0.0140714
877.724	0.0139856
877.802	0.0140460
877.880	0.0139851
877.958	0.0140757
878.036	0.0140252
878.114	0.0140341
878.193	0.0141975
878.271	0.0141509
878.349	0.0141091
878.427	0.0141253
878.505	0.0140753
878.583	0.0139639
878.661	0.0138597
878.739	0.0139876
878.818	0.0139641
878.896	0.0139753
878.974	0.0139190
879.052	0.0140556
879.130	0.0139595
879.208	0.0139140
879.286	0.0139899
879.364	0.0139635
879.443	0.0139111
879.521	0.0138452
879.599	0.0138814
879.677	0.0138928
879.755	0.0139199
879.833	0.0139220
879.911	0.0138591
879.989	0.0138239
880.068	0.0138745
880.146	0.0139143
880.224	0.0139422
880.302	0.0139443
880.380	0.0138580
880.458	0.0139238
880.536	0.0138679
880.614	0.0138727
880.693	0.0137460
880.771	0.0138835
880.849	0.0139144
880.927	0.0138691
881.005	0.0139159
881.083	0.0138467
881.161	0.0138934
881.239	0.0140870
881.318	0.0137403
881.396	0.0139865
881.474	0.0139939
881.552	0.0139659
881.630	0.0140002
881.708	0.0139407
881.786	0.0138488
881.864	0.0139105
881.943	0.0139957
882.021	0.0138771
882.099	0.0139962
882.177	0.0139471
882.255	0.0139428
882.333	0.0138820
882.411	0.0138287
882.489	0.0138520
882.568	0.0139120
882.646	0.0137746
882.724	0.0138700
882.802	0.0138292
882.880	0.0137885
882.958	0.0139266
883.036	0.0138188
883.114	0.0138082
883.193	0.0138838
883.271	0.0138181
883.349	0.0137264
883.427	0.0138315
883.505	0.0139546
883.583	0.0138026
883.661	0.0138248
883.739	0.0138380
883.818	0.0138268
883.896	0.0138795
883.974	0.0138976
884.052	0.0137876
884.130	0.0138097
884.208	0.0138696
884.286	0.0138666
884.364	0.0138707
884.443	0.0138679
884.521	0.0138238
884.599	0.0140228
884.677	0.0137959
884.755	0.0138186
884.833	0.0139061
884.911	0.0139279
884.989	0.0136940
885.068	0.0138911
885.146	0.0138642
885.224	0.0138010
885.302	0.0137273
885.380	0.0137675
885.458	0.0137871
885.536	0.0138243
885.614	0.0138194
885.693	0.0137232
885.771	0.0137113
885.849	0.0139013
885.927	0.0138763
886.005	0.0137188
886.083	0.0138251
886.161	0.0138389
886.239	0.0138597
886.318	0.0137847
886.396	0.0138268
886.474	0.0138707
886.552	0.0137842
886.630	0.0138670
886.708	0.0138397
886.786	0.0139300
886.864	0.0138821
886.943	0.0139069
887.021	0.0137804
887.099	0.0137244
887.177	0.0137895
887.255	0.0138165
887.333	0.0138576
887.411	0.0139062
887.489	0.0138022
887.568	0.0138654
887.646	0.0138247
887.724	0.0136819
887.802	0.0137966
887.880	0.0138055
887.958	0.0138689
888.036	0.0139070
888.114	0.0138173
888.193	0.0138754
888.271	0.0138775
888.349	0.0139400
888.427	0.0139667
888.505	0.0137806
888.583	0.0137996
888.661	0.0139417
888.739	0.0138103
888.818	0.0138737
888.896	0.0139115
888.974	0.0138290
889.052	0.0140372
889.130	0.0139162
889.208	0.0137566
889.286	0.0138889
889.364	0.0139818
889.443	0.0139359
889.521	0.0138910
889.599	0.0138595
889.677	0.0139333
889.755	0.0140284
889.833	0.0138069
889.911	0.0140491
889.989	0.0140740
890.068	0.0139210
890.146	0.0139320
890.224	0.0139741
890.302	0.0139284
890.380	0.0140214
890.458	0.0138691
890.536	0.0138065
890.614	0.0140202
890.693	0.0138990
890.771	0.0138716
890.849	0.0138345
890.927	0.0138587
891.005	0.0138696
891.083	0.0137676
891.161	0.0138040
891.239	0.0138699
891.318	0.0137579
891.396	0.0137380
891.474	0.0137615
891.552	0.0136822
891.630	0.0137510
891.708	0.0137979
891.786	0.0139719
891.864	0.0138575
891.943	0.0138129
892.021	0.0137477
892.099	0.0136996
892.177	0.0136886
892.255	0.0137768
892.333	0.0136483
892.411	0.0137919
892.489	0.0138389
892.568	0.0138425
892.646	0.0138536
892.724	0.0137907
892.802	0.0137098
892.880	0.0139032
892.958	0.0139306
893.036	0.0137900
893.114	0.0136696
893.193	0.0137980
893.271	0.0139243
893.349	0.0138615
893.427	0.0140080
893.505	0.0137218
893.583	0.0138320
893.661	0.0138633
893.739	0.0138723
893.818	0.0138539
893.896	0.0139264
893.974	0.0139777
894.052	0.0140660
894.130	0.0139244
894.208	0.0139886
894.286	0.0140143
894.364	0.0138805
894.443	0.0139977
894.521	0.0139124
894.599	0.0140636
894.677	0.0142016
894.755	0.0140383
894.833	0.0140322
894.911	0.0140796
894.989	0.0139936
895.068	0.0141146
895.146	0.0139708
895.224	0.0139919
895.302	0.0141573
895.380	0.0138961
895.458	0.0138379
895.536	0.0139288
895.614	0.0139824
895.693	0.0138995
895.771	0.0138464
895.849	0.0138715
895.927	0.0138436
896.005	0.0139164
896.083	0.0139008
896.161	0.0138506
896.239	0.0136965
896.318	0.0137569
896.396	0.0138630
896.474	0.0137611
896.552	0.0137995
896.630	0.0138313
896.708	0.0138483
896.786	0.0138472
896.864	0.0138447
896.943	0.0138344
897.021	0.0140176
897.099	0.0139737
897.177	0.0138740
897.255	0.0139619
897.333	0.0138647
897.411	0.0138427
897.489	0.0138469
897.568	0.0140275
897.646	0.0138661
897.724	0.0139857
897.802	0.0138742
897.880	0.0138300
897.958	0.0138290
898.036	0.0139631
898.114	0.0139773
898.193	0.0139248
898.271	0.0139948
898.349	0.0140068
898.427	0.0138569
898.505	0.0137955
898.583	0.0138378
898.661	0.0140596
898.739	0.0139697
898.818	0.0137800
898.896	0.0138314
898.974	0.0139493
899.052	0.0139752
899.130	0.0138680
899.208	0.0139645
899.286	0.0140138
899.364	0.0138954
899.443	0.0138471
899.521	0.0138869
899.599	0.0140141
899.677	0.0139600
899.755	0.0139690
899.833	0.0138930
899.911	0.0140514
899.989	0.0138044
900.068	0.0139444
900.146	0.0139103
900.224	0.0139169
900.302	0.0139289
900.380	0.0140022
900.458	0.0138129
900.536	0.0138470
900.614	0.0139676
900.693	0.0140501
900.771	0.0139409
900.849	0.0138042
900.927	0.0138890
901.005	0.0139089
901.083	0.0138992
901.161	0.0138321
901.239	0.0139332
901.318	0.0138826
901.396	0.0139432
901.474	0.0140088
901.552	0.0138116
901.630	0.0139651
901.708	0.0138879
901.786	0.0138004
901.864	0.0137726
901.943	0.0138900
902.021	0.0139453
902.099	0.0138025
902.177	0.0139577
902.255	0.0139402
902.333	0.0138538
902.411	0.0139957
902.489	0.0139030
902.568	0.0138826
902.646	0.0138587
902.724	0.0139845
902.802	0.0138303
902.880	0.0139673
902.958	0.0139776
903.036	0.0139977
903.114	0.0139563
903.193	0.0139140
903.271	0.0139268
903.349	0.0138757
903.427	0.0139573
903.505	0.0139771
903.583	0.0139448
903.661	0.0138979
903.739	0.0139382
903.818	0.0138579
903.896	0.0138251
903.974	0.0139051
904.052	0.0139478
904.130	0.0138102
904.208	0.0138184
904.286	0.0139576
904.364	0.0137126
904.443	0.0138995
904.521	0.0139101
904.599	0.0138379
904.677	0.0137868
904.755	0.0138845
904.833	0.0137884
904.911	0.0137975
904.989	0.0137036
905.068	0.0138486
905.146	0.0137648
905.224	0.0137515
905.302	0.0138995
905.380	0.0138589
905.458	0.0138498
905.536	0.0139471
905.614	0.0137807
905.693	0.0138007
905.771	0.0138245
905.849	0.0136996
905.927	0.0138821
906.005	0.0137746
906.083	0.0140303
906.161	0.0138557
906.239	0.0136401
906.318	0.0137411
906.396	0.0137968
906.474	0.0136300
906.552	0.0138290
906.630	0.0138405
906.708	0.0136681
906.786	0.0137154
906.864	0.0137576
906.943	0.0137493
907.021	0.0137792
907.099	0.0138203
907.177	0.0137364
907.255	0.0137186
907.333	0.0138274
907.411	0.0138960
907.489	0.0138261
907.568	0.0139155
907.646	0.0139066
907.724	0.0139331
907.802	0.0140492
907.880	0.0139484
907.958	0.0140868
908.036	0.0141060
908.114	0.0140672
908.193	0.0139818
908.271	0.0139431
908.349	0.0141080
908.427	0.0140739
908.505	0.0139995
908.583	0.0140547
908.661	0.0140428
908.739	0.0139597
908.818	0.0139297
908.896	0.0138808
908.974	0.0138334
909.052	0.0138824
909.130	0.0138988
909.208	0.0136783
909.286	0.0137312
909.364	0.0137899
909.443	0.0137493
909.521	0.0138890
909.599	0.0138263
909.677	0.0137175
909.755	0.0138356
909.833	0.0137454
909.911	0.0137907
909.989	0.0136330
910.068	0.0138332
910.146	0.0137305
910.224	0.0137009
910.302	0.0139894
910.380	0.0139344
910.458	0.0138969
910.536	0.0139642
910.614	0.0138169
910.693	0.0138063
910.771	0.0139210
910.849	0.0140115
910.927	0.0140047
911.005	0.0139330
911.083	0.0139749
911.161	0.0139322
911.239	0.0139156
911.318	0.0138523
911.396	0.0138485
911.474	0.0137460
911.552	0.0137827
911.630	0.0138006
911.708	0.0138067
911.786	0.0137484
911.864	0.0137473
911.943	0.0137766
912.021	0.0138371
912.099	0.0138538
912.177	0.0137627
912.255	0.0138123
912.333	0.0137708
912.411	0.0138807
912.489	0.0139420
912.568	0.0138645
912.646	0.0137687
912.724	0.0140098
912.802	0.0140707
912.880	0.0140115
912.958	0.0141526
913.036	0.0140900
913.114	0.0140988
913.193	0.0141398
913.271	0.0140765
913.349	0.0140511
913.427	0.0140728
913.505	0.0138450
913.583	0.0139681
913.661	0.0140601
913.739	0.0139009
913.818	0.0139178
913.896	0.0138399
913.974	0.0138591
914.052	0.0139689
914.130	0.0139182
914.208	0.0138232
914.286	0.0137898
914.364	0.0136506
914.443	0.0138099
914.521	0.0137306
914.599	0.0137518
914.677	0.0137620
914.755	0.0137048
914.833	0.0139036
914.911	0.0137716
914.989	0.0136800
915.068	0.0138396
915.146	0.0138188
915.224	0.0137611
915.302	0.0138972
915.380	0.0137445
915.458	0.0137314
915.536	0.0138863
915.614	0.0137947
915.693	0.0139796
915.771	0.0138892
915.849	0.0138787
915.927	0.0139032
916.005	0.0139110
916.083	0.0139953
916.161	0.0138937
916.239	0.0139890
916.318	0.0140289
916.396	0.0138943
916.474	0.0139465
916.552	0.0138487
916.630	0.0138811
916.708	0.0139187
916.786	0.0137434
916.864	0.0139558
916.943	0.0139128
917.021	0.0138471
917.099	0.0138570
917.177	0.0137507
917.255	0.0138873
917.333	0.0138622
917.411	0.0138356
917.489	0.0137964
917.568	0.0139233
917.646	0.0137746
917.724	0.0139358
917.802	0.0138560
917.880	0.0137416
917.958	0.0137988
918.036	0.0138624
918.114	0.0138097
918.193	0.0137947
918.271	0.0138354
918.349	0.0140537
918.427	0.0137170
918.505	0.0137545
918.583	0.0139130
918.661	0.0139739
918.739	0.0137994
918.818	0.0139659
918.896	0.0138055
918.974	0.0138231
919.052	0.0138766
919.130	0.0138464
919.208	0.0138155
919.286	0.0140274
919.364	0.0139230
919.443	0.0138223
919.521	0.0138718
919.599	0.0138551
919.677	0.0138638
919.755	0.0139854
919.833	0.0137511
919.911	0.0138853
919.989	0.0138522
920.068	0.0140388
920.146	0.0138129
920.224	0.0138653
920.302	0.0138326
920.380	0.0138277
920.458	0.0138564
920.536	0.0138519
920.614	0.0137967
920.693	0.0137963
920.771	0.0137646
920.849	0.0139087
920.927	0.0138932
921.005	0.0138377
921.083	0.0137979
921.161	0.0139355
921.239	0.0138797
921.318	0.0138615
921.396	0.0140898
921.474	0.0138871
921.552	0.0139503
921.630	0.0139051
921.708	0.0139114
921.786	0.0139674
921.864	0.0136968
921.943	0.0138889
922.021	0.0138807
922.099	0.0140191
922.177	0.0140437
922.255	0.0139075
922.333	0.0139366
922.411	0.0139635
922.489	0.0140726
922.568	0.0139909
922.646	0.0139936
922.724	0.0139394
922.802	0.0139386
922.880	0.0140711
922.958	0.0140692
923.036	0.0138712
923.114	0.0139589
923.193	0.0139565
923.271	0.0138441
923.349	0.0138572
923.427	0.0139253
923.505	0.0139924
923.583	0.0139492
923.661	0.0137893
923.739	0.0139311
923.818	0.0138855
923.896	0.0139164
923.974	0.0138808
924.052	0.0138263
924.130	0.0138863
924.208	0.0138074
924.286	0.0138456
924.364	0.0138015
924.443	0.0137287
924.521	0.0138548
924.599	0.0137417
924.677	0.0138046
924.755	0.0138638
924.833	0.0138728
924.911	0.0137857
924.989	0.0138423
925.068	0.0138250
925.146	0.0137630
925.224	0.0138969
925.302	0.0139529
925.380	0.0138258
925.458	0.0136683
925.536	0.0138837
925.614	0.0139809
925.693	0.0140303
925.771	0.0138973
925.849	0.0139925
925.927	0.0140529
926.005	0.0138792
926.083	0.0138739
926.161	0.0139409
926.239	0.0138675
926.318	0.0139162
926.396	0.0140102
926.474	0.0139573
926.552	0.0140630
926.630	0.0139987
926.708	0.0139243
926.786	0.0141354
926.864	0.0140451
926.943	0.0140247
927.021	0.0139146
927.099	0.0138255
927.177	0.0139217
927.255	0.0138506
927.333	0.0139448
927.411	0.0139671
927.489	0.0140589
927.568	0.0138577
927.646	0.0137046
927.724	0.0138644
927.802	0.0139329
927.880	0.0138444
927.958	0.0138975
928.036	0.0137589
928.114	0.0137436
928.193	0.0138705
928.271	0.0138544
928.349	0.0138431
928.427	0.0138127
928.505	0.0137122
928.583	0.0136216
928.661	0.0138415
928.739	0.0138225
928.818	0.0138500
928.896	0.0137737
928.974	0.0140219
929.052	0.0138336
929.130	0.0136962
929.208	0.0138084
929.286	0.0137003
929.364	0.0138057
929.443	0.0137794
929.521	0.0137817
929.599	0.0138829
929.677	0.0138780
929.755	0.0137575
929.833	0.0139594
929.911	0.0139356
929.989	0.0137829
930.068	0.0138791
930.146	0.0138551
930.224	0.0138192
930.302	0.0137740
930.380	0.0138367
930.458	0.0139170
930.536	0.0138316
930.614	0.0139170
930.693	0.0138805
930.771	0.0139523
930.849	0.0138245
930.927	0.0138736
931.005	0.0139089
931.083	0.0139713
931.161	0.0139993
931.239	0.0138785
931.318	0.0138810
931.396	0.0137881
931.474	0.0137965
931.552	0.0139103
931.630	0.0139162
931.708	0.0139781
931.786	0.0139348
931.864	0.0139371
931.943	0.0138291
932.021	0.0139181
932.099	0.0138528
932.177	0.0139497
932.255	0.0139503
932.333	0.0138689
932.411	0.0138168
932.489	0.0137726
932.568	0.0138628
932.646	0.0139423
932.724	0.0139680
932.802	0.0139448
932.880	0.0139638
932.958	0.0138325
933.036	0.0139565
933.114	0.0139554
933.193	0.0138439
933.271	0.0140237
933.349	0.0139063
933.427	0.0139247
933.505	0.0139227
933.583	0.0140678
933.661	0.0139494
933.739	0.0138386
933.818	0.0139497
933.896	0.0139239
933.974	0.0137770
934.052	0.0137954
934.130	0.0138830
934.208	0.0138533
934.286	0.0137516
934.364	0.0139332
934.443	0.0138309
934.521	0.0138577
934.599	0.0138216
934.677	0.0138924
934.755	0.0138811
934.833	0.0138989
934.911	0.0138120
934.989	0.0138543
935.068	0.0138411
935.146	0.0138978
935.224	0.0138298
935.302	0.0138891
935.380	0.0140121
935.458	0.0139037
935.536	0.0139193
935.614	0.0138114
935.693	0.0138347
935.771	0.0139743
935.849	0.0139980
935.927	0.0139303
936.005	0.0140407
936.083	0.0139291
936.161	0.0137791
936.239	0.0140289
936.318	0.0139043
936.396	0.0139198
936.474	0.0139407
936.552	0.0139291
936.630	0.0139326
936.708	0.0138935
936.786	0.0140263
936.864	0.0140327
936.943	0.0138992
937.021	0.0139629
937.099	0.0138748
937.177	0.0138761
937.255	0.0139597
937.333	0.0139229
937.411	0.0138347
937.489	0.0138516
937.568	0.0139691
937.646	0.0138301
937.724	0.0138346
937.802	0.0138687
937.880	0.0138858
937.958	0.0139163
938.036	0.0138951
938.114	0.0138517
938.193	0.0138255
938.271	0.0138472
938.349	0.0137875
938.427	0.0138168
938.505	0.0139809
938.583	0.0138658
938.661	0.0137881
938.739	0.0138470
938.818	0.0138055
938.896	0.0139709
938.974	0.0140256
939.052	0.0139089
939.130	0.0139514
939.208	0.0138939
939.286	0.0139325
939.364	0.0139973
939.443	0.0138900
939.521	0.0139755
939.599	0.0139211
939.677	0.0137777
939.755	0.0138536
939.833	0.0139507
939.911	0.0139645
939.989	0.0138831
940.068	0.0138519
940.146	0.0139162
940.224	0.0138615
940.302	0.0138047
940.380	0.0138657
940.458	0.0138741
940.536	0.0139360
940.614	0.0139540
940.693	0.0139089
940.771	0.0140187
940.849	0.0139115
940.927	0.0139348
941.005	0.0139236
941.083	0.0140562
941.161	0.0138948
941.239	0.0138951
941.318	0.0140546
941.396	0.0139605
941.474	0.0139518
941.552	0.0140323
941.630	0.0140016
941.708	0.0138332
941.786	0.0138921
941.864	0.0139707
941.943	0.0139046
942.021	0.0140442
942.099	0.0139790
942.177	0.0138974
942.255	0.0138804
942.333	0.0139269
942.411	0.0138560
942.489	0.0139012
942.568	0.0139552
942.646	0.0139436
942.724	0.0138855
942.802	0.0137399
942.880	0.0139011
942.958	0.0139743
943.036	0.0138684
943.114	0.0140357
943.193	0.0140593
943.271	0.0140923
943.349	0.0140231
943.427	0.0140059
943.505	0.0139533
943.583	0.0137897
943.661	0.0138334
943.739	0.0139674
943.818	0.0138697
943.896	0.0140537
943.974	0.0140375
944.052	0.0140156
944.130	0.0138989
944.208	0.0137992
944.286	0.0137805
944.364	0.0138122
944.443	0.0137978
944.521	0.0139352
944.599	0.0137914
944.677	0.0137828
944.755	0.0138773
944.833	0.0137370
944.911	0.0137666
944.989	0.0138110
945.068	0.0138332
945.146	0.0138385
945.224	0.0137428
945.302	0.0138489
945.380	0.0138309
945.458	0.0138573
945.536	0.0139728
945.614	0.0139960
945.693	0.0139782
945.771	0.0139567
945.849	0.0138294
945.927	0.0139814
946.005	0.0138298
946.083	0.0138945
946.161	0.0138457
946.239	0.0138060
946.318	0.0140102
946.396	0.0139678
946.474	0.0139199
946.552	0.0139040
946.630	0.0138853
946.708	0.0139986
946.786	0.0139972
946.864	0.0139518
946.943	0.0139159
947.021	0.0139204
947.099	0.0140525
947.177	0.0139257
947.255	0.0139581
947.333	0.0139136
947.411	0.0139136
947.489	0.0139272
947.568	0.0138965
947.646	0.0138726
947.724	0.0138195
947.802	0.0139621
947.880	0.0138602
947.958	0.0140439
948.036	0.0138763
948.114	0.0139314
948.193	0.0137699
948.271	0.0138541
948.349	0.0139480
948.427	0.0137411
948.505	0.0138829
948.583	0.0139512
948.661	0.0138370
948.739	0.0139722
948.818	0.0139882
948.896	0.0138214
948.974	0.0138113
949.052	0.0139745
949.130	0.0137254
949.208	0.0139120
949.286	0.0138259
949.364	0.0139500
949.443	0.0139010
949.521	0.0139460
949.599	0.0137531
949.677	0.0136954
949.755	0.0138619
949.833	0.0138854
949.911	0.0138943
949.989	0.0140231
950.068	0.0139468
950.146	0.0140691
950.224	0.0138340
950.302	0.0138520
950.380	0.0138874
950.458	0.0138853
950.536	0.0139500
950.614	0.0139008
950.693	0.0139494
950.771	0.0137751
950.849	0.0138931
950.927	0.0138908
951.005	0.0139180
951.083	0.0138542
951.161	0.0139799
951.239	0.0138876
951.318	0.0136901
951.396	0.0137287
951.474	0.0139645
951.552	0.0138457
951.630	0.0139536
951.708	0.0137479
951.786	0.0138923
951.864	0.0140600
951.943	0.0139601
952.021	0.0138631
952.099	0.0138476
952.177	0.0140544
952.255	0.0140397
952.333	0.0138937
952.411	0.0139540
952.489	0.0139756
952.568	0.0140580
952.646	0.0139690
952.724	0.0139215
952.802	0.0139703
952.880	0.0139960
952.958	0.0139706
953.036	0.0139680
953.114	0.0140020
953.193	0.0138557
953.271	0.0140634
953.349	0.0139366
953.427	0.0139735
953.505	0.0139591
953.583	0.0139478
953.661	0.0139030
953.739	0.0139410
953.818	0.0138457
953.896	0.0137340
953.974	0.0140278
954.052	0.0139661
954.130	0.0138671
954.208	0.0138690
954.286	0.0138686
954.364	0.0139751
954.443	0.0138654
954.521	0.0139014
954.599	0.0138544
954.677	0.0139046
954.755	0.0139597
954.833	0.0139146
954.911	0.0139617
954.989	0.0139318
955.068	0.0138096
955.146	0.0139028
955.224	0.0139768
955.302	0.0138786
955.380	0.0137643
955.458	0.0139424
955.536	0.0139909
955.614	0.0139722
955.693	0.0138274
955.771	0.0137257
955.849	0.0139903
955.927	0.0137931
956.005	0.0138069
956.083	0.0139545
956.161	0.0138863
956.239	0.0138701
956.318	0.0138612
956.396	0.0138925
956.474	0.0139203
956.552	0.0139771
956.630	0.0139806
956.708	0.0138846
956.786	0.0140737
956.864	0.0139959
956.943	0.0139075
957.021	0.0139776
957.099	0.0139951
957.177	0.0139697
957.255	0.0139140
957.333	0.0138689
957.411	0.0137959
957.489	0.0139520
957.568	0.0139072
957.646	0.0138779
957.724	0.0140473
957.802	0.0138929
957.880	0.0137762
957.958	0.0139442
958.036	0.0139059
958.114	0.0138636
958.193	0.0139959
958.271	0.0139281
958.349	0.0138857
958.427	0.0138864
958.505	0.0138984
958.583	0.0139008
958.661	0.0139485
958.739	0.0140039
958.818	0.0139190
958.896	0.0139572
958.974	0.0140440
959.052	0.0139172
959.130	0.0138762
959.208	0.0140454
959.286	0.0139077
959.364	0.0138993
959.443	0.0139519
959.521	0.0137849
959.599	0.0138264
959.677	0.0137848
959.755	0.0139317
959.833	0.0139954
959.911	0.0140186
