05/14/2022	16:36:51	Ver.	4.1	UNKNOWN
Optical Delay	639.989416	Delta X		0.078125	Sweeps	1	Scan Rate	0/0
Coordinates	Axis 1	NaN	Axis 2	NaN	Axis 3	NaN	Axis 4	NaN	Axis 5	NaN	Axis 6	0.000000
TX Power	0.000000	RX Power	0.000000

639.989	0.0138412
640.068	0.0139495
640.146	0.0139006
640.224	0.0138308
640.302	0.0139330
640.380	0.0139570
640.458	0.0139635
640.536	0.0139095
640.614	0.0138393
640.693	0.0138560
640.771	0.0140029
640.849	0.0139534
640.927	0.0138432
641.005	0.0138874
641.083	0.0140121
641.161	0.0140329
641.239	0.0139433
641.318	0.0139546
641.396	0.0138439
641.474	0.0138216
641.552	0.0139874
641.630	0.0140334
641.708	0.0140018
641.786	0.0139237
641.864	0.0139482
641.943	0.0138326
642.021	0.0138712
642.099	0.0138837
642.177	0.0138578
642.255	0.0139629
642.333	0.0138206
642.411	0.0138716
642.489	0.0139138
642.568	0.0139770
642.646	0.0139075
642.724	0.0138248
642.802	0.0139889
642.880	0.0139101
642.958	0.0139182
643.036	0.0139061
643.114	0.0138272
643.193	0.0138950
643.271	0.0137349
643.349	0.0137556
643.427	0.0138452
643.505	0.0139574
643.583	0.0138180
643.661	0.0138439
643.739	0.0137986
643.818	0.0138200
643.896	0.0139156
643.974	0.0138055
644.052	0.0137515
644.130	0.0138429
644.208	0.0138629
644.286	0.0137687
644.364	0.0138093
644.443	0.0137795
644.521	0.0138361
644.599	0.0137988
644.677	0.0138346
644.755	0.0138725
644.833	0.0137676
644.911	0.0138109
644.989	0.0137677
645.068	0.0137345
645.146	0.0138782
645.224	0.0138725
645.302	0.0138648
645.380	0.0140194
645.458	0.0138834
645.536	0.0137791
645.614	0.0138645
645.693	0.0138802
645.771	0.0138562
645.849	0.0139418
645.927	0.0138531
646.005	0.0138889
646.083	0.0139951
646.161	0.0138046
646.239	0.0139248
646.318	0.0138037
646.396	0.0138085
646.474	0.0137332
646.552	0.0138599
646.630	0.0138750
646.708	0.0138885
646.786	0.0137907
646.864	0.0138403
646.943	0.0137996
647.021	0.0138472
647.099	0.0139407
647.177	0.0138815
647.255	0.0138276
647.333	0.0138094
647.411	0.0137601
647.489	0.0136851
647.568	0.0139230
647.646	0.0138217
647.724	0.0138549
647.802	0.0138158
647.880	0.0139732
647.958	0.0138928
648.036	0.0137000
648.114	0.0138580
648.193	0.0138788
648.271	0.0137979
648.349	0.0137852
648.427	0.0139491
648.505	0.0139675
648.583	0.0139178
648.661	0.0137462
648.739	0.0137207
648.818	0.0137824
648.896	0.0139175
648.974	0.0136992
649.052	0.0138330
649.130	0.0136600
649.208	0.0138177
649.286	0.0137466
649.364	0.0139199
649.443	0.0138155
649.521	0.0138213
649.599	0.0137842
649.677	0.0137699
649.755	0.0138683
649.833	0.0138074
649.911	0.0136092
649.989	0.0136786
650.068	0.0138302
650.146	0.0138152
650.224	0.0137532
650.302	0.0138458
650.380	0.0138017
650.458	0.0137531
650.536	0.0137858
650.614	0.0136200
650.693	0.0135967
650.771	0.0136977
650.849	0.0136100
650.927	0.0136583
651.005	0.0137328
651.083	0.0137038
651.161	0.0136596
651.239	0.0136969
651.318	0.0137914
651.396	0.0137924
651.474	0.0137918
651.552	0.0137806
651.630	0.0139113
651.708	0.0137640
651.786	0.0138589
651.864	0.0136798
651.943	0.0137745
652.021	0.0138065
652.099	0.0136935
652.177	0.0136436
652.255	0.0138261
652.333	0.0137677
652.411	0.0136378
652.489	0.0137724
652.568	0.0137383
652.646	0.0137317
652.724	0.0137936
652.802	0.0137585
652.880	0.0136310
652.958	0.0138343
653.036	0.0137032
653.114	0.0137931
653.193	0.0138972
653.271	0.0138540
653.349	0.0137830
653.427	0.0137790
653.505	0.0135538
653.583	0.0135441
653.661	0.0138264
653.739	0.0138075
653.818	0.0138403
653.896	0.0138035
653.974	0.0136608
654.052	0.0136431
654.130	0.0137608
654.208	0.0138418
654.286	0.0138911
654.364	0.0138334
654.443	0.0140020
654.521	0.0137735
654.599	0.0137849
654.677	0.0139059
654.755	0.0139558
654.833	0.0139192
654.911	0.0138251
654.989	0.0137323
655.068	0.0139327
655.146	0.0138599
655.224	0.0139138
655.302	0.0138108
655.380	0.0138929
655.458	0.0138277
655.536	0.0138814
655.614	0.0138126
655.693	0.0137537
655.771	0.0138831
655.849	0.0138436
655.927	0.0138687
656.005	0.0138154
656.083	0.0138752
656.161	0.0138239
656.239	0.0138685
656.318	0.0138152
656.396	0.0137192
656.474	0.0140348
656.552	0.0141648
656.630	0.0138388
656.708	0.0138897
656.786	0.0138768
656.864	0.0140111
656.943	0.0139799
657.021	0.0139389
657.099	0.0138848
657.177	0.0139529
657.255	0.0138266
657.333	0.0139255
657.411	0.0139960
657.489	0.0139249
657.568	0.0138402
657.646	0.0137674
657.724	0.0139886
657.802	0.0139558
657.880	0.0140395
657.958	0.0137797
658.036	0.0138604
658.114	0.0139297
658.193	0.0138017
658.271	0.0137917
658.349	0.0139075
658.427	0.0138142
658.505	0.0139130
658.583	0.0138819
658.661	0.0137072
658.739	0.0137799
658.818	0.0138271
658.896	0.0139113
658.974	0.0138461
659.052	0.0137910
659.130	0.0137807
659.208	0.0139108
659.286	0.0140253
659.364	0.0138512
659.443	0.0138931
659.521	0.0139252
659.599	0.0139535
659.677	0.0139347
659.755	0.0138863
659.833	0.0138194
659.911	0.0137790
659.989	0.0137717
660.068	0.0138809
660.146	0.0137421
660.224	0.0137913
660.302	0.0137255
660.380	0.0137154
660.458	0.0138011
660.536	0.0137768
660.614	0.0138126
660.693	0.0139043
660.771	0.0138458
660.849	0.0138085
660.927	0.0138246
661.005	0.0138326
661.083	0.0137729
661.161	0.0139059
661.239	0.0138768
661.318	0.0139598
661.396	0.0138278
661.474	0.0138668
661.552	0.0138154
661.630	0.0138421
661.708	0.0137113
661.786	0.0138139
661.864	0.0139690
661.943	0.0137074
662.021	0.0137569
662.099	0.0137636
662.177	0.0139335
662.255	0.0138165
662.333	0.0138077
662.411	0.0137447
662.489	0.0137637
662.568	0.0138067
662.646	0.0138509
662.724	0.0138093
662.802	0.0138002
662.880	0.0138103
662.958	0.0138390
663.036	0.0138017
663.114	0.0138099
663.193	0.0138519
663.271	0.0138966
663.349	0.0139175
663.427	0.0137637
663.505	0.0137864
663.583	0.0138901
663.661	0.0139194
663.739	0.0138426
663.818	0.0138358
663.896	0.0138413
663.974	0.0138660
664.052	0.0138454
664.130	0.0137594
664.208	0.0138703
664.286	0.0137539
664.364	0.0137611
664.443	0.0136996
664.521	0.0138761
664.599	0.0137300
664.677	0.0137252
664.755	0.0137004
664.833	0.0136372
664.911	0.0137657
664.989	0.0138425
665.068	0.0137206
665.146	0.0138198
665.224	0.0137820
665.302	0.0137214
665.380	0.0138154
665.458	0.0138229
665.536	0.0137009
665.614	0.0136410
665.693	0.0138175
665.771	0.0137370
665.849	0.0138211
665.927	0.0138342
666.005	0.0138309
666.083	0.0137851
666.161	0.0137628
666.239	0.0137771
666.318	0.0137762
666.396	0.0138797
666.474	0.0139307
666.552	0.0139031
666.630	0.0136433
666.708	0.0137399
666.786	0.0138014
666.864	0.0138338
666.943	0.0136706
667.021	0.0136766
667.099	0.0137285
667.177	0.0136914
667.255	0.0137442
667.333	0.0137716
667.411	0.0138482
667.489	0.0138918
667.568	0.0137978
667.646	0.0137665
667.724	0.0138433
667.802	0.0137821
667.880	0.0139906
667.958	0.0138944
668.036	0.0137624
668.114	0.0140262
668.193	0.0139671
668.271	0.0139961
668.349	0.0140308
668.427	0.0138919
668.505	0.0137180
668.583	0.0138620
668.661	0.0139123
668.739	0.0138233
668.818	0.0138161
668.896	0.0137128
668.974	0.0137896
669.052	0.0136565
669.130	0.0138630
669.208	0.0138326
669.286	0.0138114
669.364	0.0137716
669.443	0.0137438
669.521	0.0136807
669.599	0.0138838
669.677	0.0137208
669.755	0.0137721
669.833	0.0138319
669.911	0.0138266
669.989	0.0138069
670.068	0.0137114
670.146	0.0138200
670.224	0.0137605
670.302	0.0138151
670.380	0.0137791
670.458	0.0138503
670.536	0.0136608
670.614	0.0137897
670.693	0.0137906
670.771	0.0138836
670.849	0.0138884
670.927	0.0138628
671.005	0.0140564
671.083	0.0138669
671.161	0.0138496
671.239	0.0139384
671.318	0.0138615
671.396	0.0139166
671.474	0.0139424
671.552	0.0138824
671.630	0.0139227
671.708	0.0138362
671.786	0.0139631
671.864	0.0138065
671.943	0.0138655
672.021	0.0138727
672.099	0.0139092
672.177	0.0138777
672.255	0.0140096
672.333	0.0139304
672.411	0.0138508
672.489	0.0138633
672.568	0.0139780
672.646	0.0138879
672.724	0.0138015
672.802	0.0139410
672.880	0.0139542
672.958	0.0138322
673.036	0.0140122
673.114	0.0138725
673.193	0.0139603
673.271	0.0137930
673.349	0.0138459
673.427	0.0136489
673.505	0.0138279
673.583	0.0138493
673.661	0.0137441
673.739	0.0138466
673.818	0.0137806
673.896	0.0138979
673.974	0.0137993
674.052	0.0136421
674.130	0.0137735
674.208	0.0137387
674.286	0.0140257
674.364	0.0138365
674.443	0.0138418
674.521	0.0137971
674.599	0.0137959
674.677	0.0138194
674.755	0.0139639
674.833	0.0140284
674.911	0.0137433
674.989	0.0139017
675.068	0.0140134
675.146	0.0139690
675.224	0.0140371
675.302	0.0140184
675.380	0.0137752
675.458	0.0137849
675.536	0.0139191
675.614	0.0136137
675.693	0.0136251
675.771	0.0135312
675.849	0.0134806
675.927	0.0135598
676.005	0.0133938
676.083	0.0134085
676.161	0.0133796
676.239	0.0134370
676.318	0.0135628
676.396	0.0135364
676.474	0.0135888
676.552	0.0137397
676.630	0.0137695
676.708	0.0139433
676.786	0.0139709
676.864	0.0140689
676.943	0.0140594
677.021	0.0142686
677.099	0.0144092
677.177	0.0145978
677.255	0.0145672
677.333	0.0145201
677.411	0.0145116
677.489	0.0145234
677.568	0.0145282
677.646	0.0145028
677.724	0.0143048
677.802	0.0143872
677.880	0.0141684
677.958	0.0139471
678.036	0.0137039
678.114	0.0135745
678.193	0.0134842
678.271	0.0131950
678.349	0.0130342
678.427	0.0128801
678.505	0.0128586
678.583	0.0127058
678.661	0.0125672
678.739	0.0125388
678.818	0.0125079
678.896	0.0126380
678.974	0.0127277
679.052	0.0127293
679.130	0.0127940
679.208	0.0132751
679.286	0.0133922
679.364	0.0136223
679.443	0.0139372
679.521	0.0141801
679.599	0.0141860
679.677	0.0146211
679.755	0.0150852
679.833	0.0151598
679.911	0.0152894
679.989	0.0154889
680.068	0.0158752
680.146	0.0159507
680.224	0.0157526
680.302	0.0158855
680.380	0.0157500
680.458	0.0155470
680.536	0.0154852
680.614	0.0152061
680.693	0.0149802
680.771	0.0147024
680.849	0.0143176
680.927	0.0138848
681.005	0.0134621
681.083	0.0132118
681.161	0.0127008
681.239	0.0125292
681.318	0.0121886
681.396	0.0119458
681.474	0.0117657
681.552	0.0114621
681.630	0.0112947
681.708	0.0111543
681.786	0.0111610
681.864	0.0112264
681.943	0.0112524
682.021	0.0114165
682.099	0.0116609
682.177	0.0118810
682.255	0.0120763
682.333	0.0124702
682.411	0.0128661
682.489	0.0133952
682.568	0.0138552
682.646	0.0144208
682.724	0.0150082
682.802	0.0154990
682.880	0.0159982
682.958	0.0164729
683.036	0.0168617
683.114	0.0172464
683.193	0.0175905
683.271	0.0175372
683.349	0.0176318
683.427	0.0176572
683.505	0.0175900
683.583	0.0172984
683.661	0.0170241
683.739	0.0163578
683.818	0.0158640
683.896	0.0152139
683.974	0.0145185
684.052	0.0139230
684.130	0.0132732
684.208	0.0125535
684.286	0.0121399
684.364	0.0114159
684.443	0.0108598
684.521	0.0104906
684.599	0.0101575
684.677	0.00977623
684.755	0.00973808
684.833	0.00967323
684.911	0.00965240
684.989	0.00978615
685.068	0.00995964
685.146	0.0103314
685.224	0.0107288
685.302	0.0110775
685.380	0.0114780
685.458	0.0120834
685.536	0.0126109
685.614	0.0132130
685.693	0.0137977
685.771	0.0142965
685.849	0.0147160
685.927	0.0152611
686.005	0.0156834
686.083	0.0157780
686.161	0.0162611
686.239	0.0162666
686.318	0.0164629
686.396	0.0165363
686.474	0.0165393
686.552	0.0164850
686.630	0.0165662
686.708	0.0164849
686.786	0.0163763
686.864	0.0162505
686.943	0.0159445
687.021	0.0156896
687.099	0.0153973
687.177	0.0152010
687.255	0.0149596
687.333	0.0146086
687.411	0.0142320
687.489	0.0138892
687.568	0.0134998
687.646	0.0131775
687.724	0.0127893
687.802	0.0125423
687.880	0.0123847
687.958	0.0121856
688.036	0.0118777
688.114	0.0117213
688.193	0.0117376
688.271	0.0116190
688.349	0.0116903
688.427	0.0116115
688.505	0.0114671
688.583	0.0116724
688.661	0.0117374
688.739	0.0116913
688.818	0.0120050
688.896	0.0122470
688.974	0.0124569
689.052	0.0128347
689.130	0.0131429
689.208	0.0135034
689.286	0.0138181
689.364	0.0141440
689.443	0.0144118
689.521	0.0145494
689.599	0.0148475
689.677	0.0151092
689.755	0.0151110
689.833	0.0151165
689.911	0.0153635
689.989	0.0153165
690.068	0.0152069
690.146	0.0150246
690.224	0.0149962
690.302	0.0150128
690.380	0.0149485
690.458	0.0148813
690.536	0.0148482
690.614	0.0148266
690.693	0.0146477
690.771	0.0146062
690.849	0.0145672
690.927	0.0145300
691.005	0.0142677
691.083	0.0142422
691.161	0.0138405
691.239	0.0140057
691.318	0.0137791
691.396	0.0136270
691.474	0.0134618
691.552	0.0134446
691.630	0.0133077
691.708	0.0132211
691.786	0.0132671
691.864	0.0131424
691.943	0.0130145
692.021	0.0130789
692.099	0.0131618
692.177	0.0130725
692.255	0.0130775
692.333	0.0129694
692.411	0.0128849
692.489	0.0129530
692.568	0.0128358
692.646	0.0128633
692.724	0.0128335
692.802	0.0127555
692.880	0.0128358
692.958	0.0130237
693.036	0.0130894
693.114	0.0132310
693.193	0.0134216
693.271	0.0136381
693.349	0.0139205
693.427	0.0140457
693.505	0.0145490
693.583	0.0147929
693.661	0.0148671
693.739	0.0152582
693.818	0.0154650
693.896	0.0156820
693.974	0.0158312
694.052	0.0159174
694.130	0.0161233
694.208	0.0157789
694.286	0.0158064
694.364	0.0157545
694.443	0.0155073
694.521	0.0151275
694.599	0.0148509
694.677	0.0144658
694.755	0.0140184
694.833	0.0135728
694.911	0.0132886
694.989	0.0128932
695.068	0.0123803
695.146	0.0122441
695.224	0.0117006
695.302	0.0114286
695.380	0.0112225
695.458	0.0111097
695.536	0.0109157
695.614	0.0107578
695.693	0.0107755
695.771	0.0110719
695.849	0.0111446
695.927	0.0112910
696.005	0.0115530
696.083	0.0120845
696.161	0.0122993
696.239	0.0126057
696.318	0.0131686
696.396	0.0135857
696.474	0.0139172
696.552	0.0143609
696.630	0.0148255
696.708	0.0151934
696.786	0.0155265
696.864	0.0159158
696.943	0.0160365
697.021	0.0166552
697.099	0.0167597
697.177	0.0168803
697.255	0.0170268
697.333	0.0170156
697.411	0.0171558
697.489	0.0171745
697.568	0.0171061
697.646	0.0169872
697.724	0.0168947
697.802	0.0166901
697.880	0.0163120
697.958	0.0160531
698.036	0.0156971
698.114	0.0153313
698.193	0.0149915
698.271	0.0145686
698.349	0.0142290
698.427	0.0139176
698.505	0.0134183
698.583	0.0130042
698.661	0.0126133
698.739	0.0120353
698.818	0.0116573
698.896	0.0113540
698.974	0.0109847
699.052	0.0107475
699.130	0.0104562
699.208	0.0101860
699.286	0.0102869
699.364	0.0101431
699.443	0.00996445
699.521	0.0101937
699.599	0.0101343
699.677	0.0102499
699.755	0.0105936
699.833	0.0109298
699.911	0.0111366
699.989	0.0115924
700.068	0.0120275
700.146	0.0124227
700.224	0.0130567
700.302	0.0135133
700.380	0.0139396
700.458	0.0144094
700.536	0.0149258
700.614	0.0156061
700.693	0.0158657
700.771	0.0163866
700.849	0.0167613
700.927	0.0168353
701.005	0.0171307
701.083	0.0173177
701.161	0.0173093
701.239	0.0173059
701.318	0.0172068
701.396	0.0170365
701.474	0.0168255
701.552	0.0165694
701.630	0.0161319
701.708	0.0158227
701.786	0.0154784
701.864	0.0152500
701.943	0.0148451
702.021	0.0143912
702.099	0.0141509
702.177	0.0139175
702.255	0.0137926
702.333	0.0133608
702.411	0.0132298
702.489	0.0130412
702.568	0.0129295
702.646	0.0129763
702.724	0.0128172
702.802	0.0128791
702.880	0.0128727
702.958	0.0128449
703.036	0.0129704
703.114	0.0128791
703.193	0.0128191
703.271	0.0128146
703.349	0.0129717
703.427	0.0127913
703.505	0.0129090
703.583	0.0130418
703.661	0.0130215
703.739	0.0129029
703.818	0.0129467
703.896	0.0129070
703.974	0.0129993
704.052	0.0128651
704.130	0.0129611
704.208	0.0131998
704.286	0.0129679
704.364	0.0130524
704.443	0.0131339
704.521	0.0130996
704.599	0.0130859
704.677	0.0131220
704.755	0.0130216
704.833	0.0132281
704.911	0.0131996
704.989	0.0132921
705.068	0.0131204
705.146	0.0131075
705.224	0.0132901
705.302	0.0132944
705.380	0.0131867
705.458	0.0132896
705.536	0.0135527
705.614	0.0137049
705.693	0.0137866
705.771	0.0138413
705.849	0.0139378
705.927	0.0141172
706.005	0.0141091
706.083	0.0142463
706.161	0.0142381
706.239	0.0142237
706.318	0.0142088
706.396	0.0141202
706.474	0.0141151
706.552	0.0139609
706.630	0.0141913
706.708	0.0140290
706.786	0.0140986
706.864	0.0140946
706.943	0.0141179
707.021	0.0143600
707.099	0.0144505
707.177	0.0144904
707.255	0.0146322
707.333	0.0148421
707.411	0.0150745
707.489	0.0151296
707.568	0.0153978
707.646	0.0155074
707.724	0.0156358
707.802	0.0157750
707.880	0.0155726
707.958	0.0155668
708.036	0.0154355
708.114	0.0153089
708.193	0.0150591
708.271	0.0149154
708.349	0.0144639
708.427	0.0140253
708.505	0.0136991
708.583	0.0135595
708.661	0.0130488
708.739	0.0127071
708.818	0.0122839
708.896	0.0120411
708.974	0.0116322
709.052	0.0113342
709.130	0.0113784
709.208	0.0113436
709.286	0.0111929
709.364	0.0114008
709.443	0.0116627
709.521	0.0118741
709.599	0.0120930
709.677	0.0124181
709.755	0.0127420
709.833	0.0130134
709.911	0.0132955
709.989	0.0136242
710.068	0.0138189
710.146	0.0138999
710.224	0.0141328
710.302	0.0138441
710.380	0.0139674
710.458	0.0140025
710.536	0.0140137
710.614	0.0138205
710.693	0.0138257
710.771	0.0136676
710.849	0.0135950
710.927	0.0134145
711.005	0.0134037
711.083	0.0132182
711.161	0.0133342
711.239	0.0132572
711.318	0.0133694
711.396	0.0132950
711.474	0.0132805
711.552	0.0135041
711.630	0.0138329
711.708	0.0138094
711.786	0.0139713
711.864	0.0142405
711.943	0.0143947
712.021	0.0145365
712.099	0.0148029
712.177	0.0149744
712.255	0.0151314
712.333	0.0152300
712.411	0.0151917
712.489	0.0154098
712.568	0.0154837
712.646	0.0152486
712.724	0.0152544
712.802	0.0150132
712.880	0.0149072
712.958	0.0147374
713.036	0.0145936
713.114	0.0143042
713.193	0.0140981
713.271	0.0139458
713.349	0.0138759
713.427	0.0136792
713.505	0.0134654
713.583	0.0133977
713.661	0.0134031
713.739	0.0133216
713.818	0.0131541
713.896	0.0132291
713.974	0.0132695
714.052	0.0132204
714.130	0.0132893
714.208	0.0132337
714.286	0.0134615
714.364	0.0134978
714.443	0.0135346
714.521	0.0137511
714.599	0.0138041
714.677	0.0137564
714.755	0.0138873
714.833	0.0140067
714.911	0.0139969
714.989	0.0140462
715.068	0.0140261
715.146	0.0141469
715.224	0.0139291
715.302	0.0139599
715.380	0.0140451
715.458	0.0140516
715.536	0.0138100
715.614	0.0138608
715.693	0.0136617
715.771	0.0135406
715.849	0.0134085
715.927	0.0132426
716.005	0.0131870
716.083	0.0129883
716.161	0.0129569
716.239	0.0128481
716.318	0.0126305
716.396	0.0126609
716.474	0.0125700
716.552	0.0123952
716.630	0.0124132
716.708	0.0124757
716.786	0.0124409
716.864	0.0125007
716.943	0.0126267
717.021	0.0127734
717.099	0.0128143
717.177	0.0128692
717.255	0.0130537
717.333	0.0131467
717.411	0.0134690
717.489	0.0134697
717.568	0.0136024
717.646	0.0137719
717.724	0.0138124
717.802	0.0139597
717.880	0.0140932
717.958	0.0139355
718.036	0.0140924
718.114	0.0144068
718.193	0.0143828
718.271	0.0143897
718.349	0.0144453
718.427	0.0146305
718.505	0.0145955
718.583	0.0146617
718.661	0.0147316
718.739	0.0147015
718.818	0.0147147
718.896	0.0146654
718.974	0.0147133
719.052	0.0146404
719.130	0.0147105
719.208	0.0148466
719.286	0.0149144
719.364	0.0149865
719.443	0.0152103
719.521	0.0153683
719.599	0.0152860
719.677	0.0155430
719.755	0.0157851
719.833	0.0159501
719.911	0.0159651
719.989	0.0159345
720.068	0.0158261
720.146	0.0157487
720.224	0.0155159
720.302	0.0154025
720.380	0.0151690
720.458	0.0149553
720.536	0.0147772
720.614	0.0143228
720.693	0.0141190
720.771	0.0140228
720.849	0.0139278
720.927	0.0137143
721.005	0.0136072
721.083	0.0133216
721.161	0.0131982
721.239	0.0130067
721.318	0.0129694
721.396	0.0127113
721.474	0.0124720
721.552	0.0122617
721.630	0.0120405
721.708	0.0116609
721.786	0.0114584
721.864	0.0111700
721.943	0.0110251
722.021	0.0109085
722.099	0.0109515
722.177	0.0108093
722.255	0.0107434
722.333	0.0107932
722.411	0.0109227
722.489	0.0112826
722.568	0.0114690
722.646	0.0118449
722.724	0.0121731
722.802	0.0125428
722.880	0.0126637
722.958	0.0128893
723.036	0.0132758
723.114	0.0138321
723.193	0.0141302
723.271	0.0142435
723.349	0.0144725
723.427	0.0147523
723.505	0.0149482
723.583	0.0149056
723.661	0.0151713
723.739	0.0152840
723.818	0.0153575
723.896	0.0153822
723.974	0.0154015
724.052	0.0155223
724.130	0.0157111
724.208	0.0155820
724.286	0.0157509
724.364	0.0157059
724.443	0.0158329
724.521	0.0158266
724.599	0.0159211
724.677	0.0159256
724.755	0.0159557
724.833	0.0160105
724.911	0.0160028
724.989	0.0160835
725.068	0.0159872
725.146	0.0159589
725.224	0.0156998
725.302	0.0155847
725.380	0.0154799
725.458	0.0152920
725.536	0.0150922
725.614	0.0150278
725.693	0.0150101
725.771	0.0147276
725.849	0.0143565
725.927	0.0141714
726.005	0.0139494
726.083	0.0137041
726.161	0.0135238
726.239	0.0132775
726.318	0.0129249
726.396	0.0125468
726.474	0.0123212
726.552	0.0119046
726.630	0.0119086
726.708	0.0117070
726.786	0.0115059
726.864	0.0115166
726.943	0.0114542
727.021	0.0113902
727.099	0.0113873
727.177	0.0113857
727.255	0.0113921
727.333	0.0114027
727.411	0.0114613
727.489	0.0113305
727.568	0.0112309
727.646	0.0113309
727.724	0.0115048
727.802	0.0114870
727.880	0.0115235
727.958	0.0116755
728.036	0.0118878
728.114	0.0120201
728.193	0.0123318
728.271	0.0126053
728.349	0.0130965
728.427	0.0133804
728.505	0.0138267
728.583	0.0141759
728.661	0.0144461
728.739	0.0147194
728.818	0.0149790
728.896	0.0152560
728.974	0.0154075
729.052	0.0152813
729.130	0.0152769
729.208	0.0153844
729.286	0.0153192
729.364	0.0152087
729.443	0.0151126
729.521	0.0151514
729.599	0.0150762
729.677	0.0151950
729.755	0.0150851
729.833	0.0147504
729.911	0.0147893
729.989	0.0146494
730.068	0.0148543
730.146	0.0147830
730.224	0.0147428
730.302	0.0148266
730.380	0.0146512
730.458	0.0147088
730.536	0.0147694
730.614	0.0146909
730.693	0.0147341
730.771	0.0147433
730.849	0.0145981
730.927	0.0145670
731.005	0.0146025
731.083	0.0144693
731.161	0.0143363
731.239	0.0142163
731.318	0.0140144
731.396	0.0139915
731.474	0.0137898
731.552	0.0137032
731.630	0.0136053
731.708	0.0134908
731.786	0.0133358
731.864	0.0132106
731.943	0.0132718
732.021	0.0131840
732.099	0.0131927
732.177	0.0131417
732.255	0.0129503
732.333	0.0130253
732.411	0.0129877
732.489	0.0129285
732.568	0.0130431
732.646	0.0130598
732.724	0.0130123
732.802	0.0132323
732.880	0.0131038
732.958	0.0132287
733.036	0.0132758
733.114	0.0134885
733.193	0.0134160
733.271	0.0133909
733.349	0.0136018
733.427	0.0136578
733.505	0.0135347
733.583	0.0135883
733.661	0.0136613
733.739	0.0135789
733.818	0.0134446
733.896	0.0133891
733.974	0.0132053
734.052	0.0131504
734.130	0.0130692
734.208	0.0129668
734.286	0.0130737
734.364	0.0129608
734.443	0.0128830
734.521	0.0129024
734.599	0.0129450
734.677	0.0131916
734.755	0.0132035
734.833	0.0133754
734.911	0.0133064
734.989	0.0135941
735.068	0.0136091
735.146	0.0136650
735.224	0.0139629
735.302	0.0141111
735.380	0.0140620
735.458	0.0140993
735.536	0.0140613
735.614	0.0141949
735.693	0.0143826
735.771	0.0144030
735.849	0.0143461
735.927	0.0142845
736.005	0.0144411
736.083	0.0143546
736.161	0.0146787
736.239	0.0146602
736.318	0.0149010
736.396	0.0148428
736.474	0.0149882
736.552	0.0151707
736.630	0.0151536
736.708	0.0154164
736.786	0.0153502
736.864	0.0156542
736.943	0.0156003
737.021	0.0154863
737.099	0.0154996
737.177	0.0154554
737.255	0.0153791
737.333	0.0152057
737.411	0.0150540
737.489	0.0148045
737.568	0.0146193
737.646	0.0143677
737.724	0.0141491
737.802	0.0139454
737.880	0.0137450
737.958	0.0136256
738.036	0.0135711
738.114	0.0132944
738.193	0.0132079
738.271	0.0131744
738.349	0.0131362
738.427	0.0131202
738.505	0.0132106
738.583	0.0129764
738.661	0.0129507
738.739	0.0128598
738.818	0.0130046
738.896	0.0131010
738.974	0.0129935
739.052	0.0130488
739.130	0.0131075
739.208	0.0130247
739.286	0.0130032
739.364	0.0127912
739.443	0.0128572
739.521	0.0127562
739.599	0.0126401
739.677	0.0124622
739.755	0.0123624
739.833	0.0122945
739.911	0.0121335
739.989	0.0121938
740.068	0.0121416
740.146	0.0122355
740.224	0.0123409
740.302	0.0126174
740.380	0.0126796
740.458	0.0128473
740.536	0.0130787
740.614	0.0134970
740.693	0.0138248
740.771	0.0140333
740.849	0.0143216
740.927	0.0144910
741.005	0.0147714
741.083	0.0150606
741.161	0.0150181
741.239	0.0149902
741.318	0.0153391
741.396	0.0151452
741.474	0.0149767
741.552	0.0149891
741.630	0.0149319
741.708	0.0148383
741.786	0.0148051
741.864	0.0147352
741.943	0.0147261
742.021	0.0145246
742.099	0.0144174
742.177	0.0144952
742.255	0.0144106
742.333	0.0143377
742.411	0.0142177
742.489	0.0143066
742.568	0.0143384
742.646	0.0142966
742.724	0.0143155
742.802	0.0143323
742.880	0.0143175
742.958	0.0142394
743.036	0.0142932
743.114	0.0142715
743.193	0.0141236
743.271	0.0141879
743.349	0.0141231
743.427	0.0140720
743.505	0.0141190
743.583	0.0138583
743.661	0.0139338
743.739	0.0138060
743.818	0.0136653
743.896	0.0136043
743.974	0.0135805
744.052	0.0135017
744.130	0.0135085
744.208	0.0133240
744.286	0.0131647
744.364	0.0131257
744.443	0.0132378
744.521	0.0132240
744.599	0.0132973
744.677	0.0131982
744.755	0.0132648
744.833	0.0132978
744.911	0.0134782
744.989	0.0135774
745.068	0.0136207
745.146	0.0137022
745.224	0.0139487
745.302	0.0139891
745.380	0.0138256
745.458	0.0137798
745.536	0.0139207
745.614	0.0137200
745.693	0.0138706
745.771	0.0138992
745.849	0.0135982
745.927	0.0137083
746.005	0.0134879
746.083	0.0133995
746.161	0.0134572
746.239	0.0133617
746.318	0.0132351
746.396	0.0134358
746.474	0.0133897
746.552	0.0134325
746.630	0.0135847
746.708	0.0136678
746.786	0.0135345
746.864	0.0135847
746.943	0.0137035
747.021	0.0138297
747.099	0.0137533
747.177	0.0138766
747.255	0.0138859
747.333	0.0138350
747.411	0.0137534
747.489	0.0139638
747.568	0.0138218
747.646	0.0138426
747.724	0.0137515
747.802	0.0137153
747.880	0.0137112
747.958	0.0136190
748.036	0.0133866
748.114	0.0135843
748.193	0.0136269
748.271	0.0135268
748.349	0.0135175
748.427	0.0135699
748.505	0.0137726
748.583	0.0137743
748.661	0.0137251
748.739	0.0139320
748.818	0.0140359
748.896	0.0139362
748.974	0.0142343
749.052	0.0142673
749.130	0.0142629
749.208	0.0141253
749.286	0.0142500
749.364	0.0143014
749.443	0.0142626
749.521	0.0143250
749.599	0.0142233
749.677	0.0142571
749.755	0.0140982
749.833	0.0141319
749.911	0.0141581
749.989	0.0140791
750.068	0.0142525
750.146	0.0142480
750.224	0.0140503
750.302	0.0141719
750.380	0.0142107
750.458	0.0142932
750.536	0.0142065
750.614	0.0141014
750.693	0.0140745
750.771	0.0141812
750.849	0.0141416
750.927	0.0141505
751.005	0.0140710
751.083	0.0141393
751.161	0.0142377
751.239	0.0141109
751.318	0.0140422
751.396	0.0138421
751.474	0.0138013
751.552	0.0136137
751.630	0.0134820
751.708	0.0137128
751.786	0.0133689
751.864	0.0131874
751.943	0.0131454
752.021	0.0127900
752.099	0.0127464
752.177	0.0128276
752.255	0.0127435
752.333	0.0128111
752.411	0.0128711
752.489	0.0128068
752.568	0.0128690
752.646	0.0127798
752.724	0.0129188
752.802	0.0130904
752.880	0.0132336
752.958	0.0132935
753.036	0.0133788
753.114	0.0135609
753.193	0.0135879
753.271	0.0137145
753.349	0.0139178
753.427	0.0139571
753.505	0.0138938
753.583	0.0140004
753.661	0.0141932
753.739	0.0141243
753.818	0.0141490
753.896	0.0143510
753.974	0.0144670
754.052	0.0143659
754.130	0.0143767
754.208	0.0144025
754.286	0.0145885
754.364	0.0145812
754.443	0.0146349
754.521	0.0145270
754.599	0.0145811
754.677	0.0145923
754.755	0.0145909
754.833	0.0143646
754.911	0.0144509
754.989	0.0142078
755.068	0.0142448
755.146	0.0142044
755.224	0.0140548
755.302	0.0140350
755.380	0.0139006
755.458	0.0140005
755.536	0.0137412
755.614	0.0138850
755.693	0.0138786
755.771	0.0137492
755.849	0.0136906
755.927	0.0138273
756.005	0.0139182
756.083	0.0139692
756.161	0.0139355
756.239	0.0139999
756.318	0.0140762
756.396	0.0141824
756.474	0.0141731
756.552	0.0142107
756.630	0.0141203
756.708	0.0140048
756.786	0.0140031
756.864	0.0139928
756.943	0.0140031
757.021	0.0139683
757.099	0.0138158
757.177	0.0139700
757.255	0.0137817
757.333	0.0138490
757.411	0.0139007
757.489	0.0137920
757.568	0.0137659
757.646	0.0137472
757.724	0.0139135
757.802	0.0138876
757.880	0.0138838
757.958	0.0138389
758.036	0.0138673
758.114	0.0137589
758.193	0.0138188
758.271	0.0138122
758.349	0.0137162
758.427	0.0135666
758.505	0.0135010
758.583	0.0134650
758.661	0.0134975
758.739	0.0133894
758.818	0.0133800
758.896	0.0132619
758.974	0.0132108
759.052	0.0131895
759.130	0.0133686
759.208	0.0133331
759.286	0.0135049
759.364	0.0135309
759.443	0.0135167
759.521	0.0134933
759.599	0.0135697
759.677	0.0136768
759.755	0.0136004
759.833	0.0138055
759.911	0.0136900
759.989	0.0136949
760.068	0.0137524
760.146	0.0137085
760.224	0.0139372
760.302	0.0140988
760.380	0.0139043
760.458	0.0140163
760.536	0.0140821
760.614	0.0142905
760.693	0.0139958
760.771	0.0141647
760.849	0.0142297
760.927	0.0141609
761.005	0.0142231
761.083	0.0142565
761.161	0.0141608
761.239	0.0142414
761.318	0.0142173
761.396	0.0140694
761.474	0.0140803
761.552	0.0139906
761.630	0.0138817
761.708	0.0138660
761.786	0.0138850
761.864	0.0139232
761.943	0.0138616
762.021	0.0138927
762.099	0.0140807
762.177	0.0138960
762.255	0.0137759
762.333	0.0139546
762.411	0.0139610
762.489	0.0138982
762.568	0.0139686
762.646	0.0139406
762.724	0.0140201
762.802	0.0139628
762.880	0.0137987
762.958	0.0140375
763.036	0.0138586
763.114	0.0137468
763.193	0.0137595
763.271	0.0137080
763.349	0.0136221
763.427	0.0136581
763.505	0.0135706
763.583	0.0136534
763.661	0.0135345
763.739	0.0134576
763.818	0.0134441
763.896	0.0134980
763.974	0.0135276
764.052	0.0135959
764.130	0.0136126
764.208	0.0134843
764.286	0.0134341
764.364	0.0134419
764.443	0.0135741
764.521	0.0135999
764.599	0.0134338
764.677	0.0135309
764.755	0.0135661
764.833	0.0134671
764.911	0.0134256
764.989	0.0134972
765.068	0.0134304
765.146	0.0134294
765.224	0.0133275
765.302	0.0135396
765.380	0.0134667
765.458	0.0134824
765.536	0.0134995
765.614	0.0134681
765.693	0.0135307
765.771	0.0134760
765.849	0.0134447
765.927	0.0136223
766.005	0.0137492
766.083	0.0137292
766.161	0.0137477
766.239	0.0139697
766.318	0.0139316
766.396	0.0140430
766.474	0.0140178
766.552	0.0140520
766.630	0.0141567
766.708	0.0139332
766.786	0.0139597
766.864	0.0140702
766.943	0.0140815
767.021	0.0139555
767.099	0.0139832
767.177	0.0138319
767.255	0.0138926
767.333	0.0136723
767.411	0.0137482
767.489	0.0137875
767.568	0.0136583
767.646	0.0136387
767.724	0.0136464
767.802	0.0138398
767.880	0.0136805
767.958	0.0136997
768.036	0.0138476
768.114	0.0137849
768.193	0.0137464
768.271	0.0139110
768.349	0.0139240
768.427	0.0139632
768.505	0.0139073
768.583	0.0140421
768.661	0.0140135
768.739	0.0140786
768.818	0.0141006
768.896	0.0139700
768.974	0.0140340
769.052	0.0140334
769.130	0.0140166
769.208	0.0138744
769.286	0.0137140
769.364	0.0138518
769.443	0.0139094
769.521	0.0136766
769.599	0.0135854
769.677	0.0136371
769.755	0.0135472
769.833	0.0134042
769.911	0.0136285
769.989	0.0135589
770.068	0.0135894
770.146	0.0135709
770.224	0.0135990
770.302	0.0136679
770.380	0.0135494
770.458	0.0137106
770.536	0.0136678
770.614	0.0136963
770.693	0.0134820
770.771	0.0136722
770.849	0.0134974
770.927	0.0133806
771.005	0.0133971
771.083	0.0134731
771.161	0.0134822
771.239	0.0134560
771.318	0.0134441
771.396	0.0134163
771.474	0.0133527
771.552	0.0133396
771.630	0.0134111
771.708	0.0133796
771.786	0.0135353
771.864	0.0135995
771.943	0.0136130
772.021	0.0136389
772.099	0.0137439
772.177	0.0138997
772.255	0.0140158
772.333	0.0139640
772.411	0.0140791
772.489	0.0141845
772.568	0.0142059
772.646	0.0141312
772.724	0.0141091
772.802	0.0140970
772.880	0.0141243
772.958	0.0140592
773.036	0.0140872
773.114	0.0141376
773.193	0.0140971
773.271	0.0141896
773.349	0.0141247
773.427	0.0141257
773.505	0.0140153
773.583	0.0139877
773.661	0.0139719
773.739	0.0140581
773.818	0.0139981
773.896	0.0140083
773.974	0.0141794
774.052	0.0142176
774.130	0.0141810
774.208	0.0141804
774.286	0.0140970
774.364	0.0140181
774.443	0.0141915
774.521	0.0140186
774.599	0.0140605
774.677	0.0139298
774.755	0.0138832
774.833	0.0136596
774.911	0.0135926
774.989	0.0137514
775.068	0.0137515
775.146	0.0135787
775.224	0.0134840
775.302	0.0133057
775.380	0.0132734
775.458	0.0132259
775.536	0.0133262
775.614	0.0133064
775.693	0.0132773
775.771	0.0131695
775.849	0.0132769
775.927	0.0134357
776.005	0.0133610
776.083	0.0135670
776.161	0.0136374
776.239	0.0137118
776.318	0.0138715
776.396	0.0139944
776.474	0.0140792
776.552	0.0140289
776.630	0.0143120
776.708	0.0144186
776.786	0.0144817
776.864	0.0144266
776.943	0.0144213
777.021	0.0144138
777.099	0.0143557
777.177	0.0144529
777.255	0.0144975
777.333	0.0143333
777.411	0.0142535
777.489	0.0142378
777.568	0.0142393
777.646	0.0141016
777.724	0.0139545
777.802	0.0139082
777.880	0.0139363
777.958	0.0137907
778.036	0.0138174
778.114	0.0138847
778.193	0.0136282
778.271	0.0137042
778.349	0.0137423
778.427	0.0136666
778.505	0.0136210
778.583	0.0137378
778.661	0.0138743
778.739	0.0137601
778.818	0.0136410
778.896	0.0138162
778.974	0.0136816
779.052	0.0136128
779.130	0.0137580
779.208	0.0136372
779.286	0.0136187
779.364	0.0137135
779.443	0.0137405
779.521	0.0138683
779.599	0.0138277
779.677	0.0137711
779.755	0.0137950
779.833	0.0139233
779.911	0.0139368
779.989	0.0140405
780.068	0.0139985
780.146	0.0139233
780.224	0.0141306
780.302	0.0139906
780.380	0.0140098
780.458	0.0142373
780.536	0.0141790
780.614	0.0141189
780.693	0.0139824
780.771	0.0138858
780.849	0.0139844
780.927	0.0139545
781.005	0.0138291
781.083	0.0138200
781.161	0.0137737
781.239	0.0136005
781.318	0.0134673
781.396	0.0134860
781.474	0.0135035
781.552	0.0134685
781.630	0.0133954
781.708	0.0134283
781.786	0.0134375
781.864	0.0133964
781.943	0.0134908
782.021	0.0135005
782.099	0.0134642
782.177	0.0135757
782.255	0.0137173
782.333	0.0139380
782.411	0.0137246
782.489	0.0138039
782.568	0.0140075
782.646	0.0139196
782.724	0.0140145
782.802	0.0141035
782.880	0.0141700
782.958	0.0142287
783.036	0.0143401
783.114	0.0143951
783.193	0.0143252
783.271	0.0142930
783.349	0.0142860
783.427	0.0143578
783.505	0.0142780
783.583	0.0141288
783.661	0.0141154
783.739	0.0142613
783.818	0.0141187
783.896	0.0138849
783.974	0.0139294
784.052	0.0138744
784.130	0.0138940
784.208	0.0138950
784.286	0.0138280
784.364	0.0138139
784.443	0.0138213
784.521	0.0137838
784.599	0.0137686
784.677	0.0139231
784.755	0.0137746
784.833	0.0136399
784.911	0.0136630
784.989	0.0137421
785.068	0.0137953
785.146	0.0137247
785.224	0.0137009
785.302	0.0136771
785.380	0.0135894
785.458	0.0136385
785.536	0.0136330
785.614	0.0136048
785.693	0.0136216
785.771	0.0137611
785.849	0.0136874
785.927	0.0135599
786.005	0.0136777
786.083	0.0137080
786.161	0.0138330
786.239	0.0138229
786.318	0.0136363
786.396	0.0138053
786.474	0.0138224
786.552	0.0138474
786.630	0.0138976
786.708	0.0139510
786.786	0.0140221
786.864	0.0139665
786.943	0.0139340
787.021	0.0139273
787.099	0.0138846
787.177	0.0138490
787.255	0.0138878
787.333	0.0137384
787.411	0.0137003
787.489	0.0135716
787.568	0.0136728
787.646	0.0136356
787.724	0.0134300
787.802	0.0135155
787.880	0.0134394
787.958	0.0136611
788.036	0.0136715
788.114	0.0136301
788.193	0.0134509
788.271	0.0135006
788.349	0.0134084
788.427	0.0136227
788.505	0.0135545
788.583	0.0135586
788.661	0.0135989
788.739	0.0136019
788.818	0.0136499
788.896	0.0136694
788.974	0.0135037
789.052	0.0136801
789.130	0.0137767
789.208	0.0137759
789.286	0.0136828
789.364	0.0135811
789.443	0.0138625
789.521	0.0138341
789.599	0.0137389
789.677	0.0138493
789.755	0.0138422
789.833	0.0137506
789.911	0.0138030
789.989	0.0139544
790.068	0.0139069
790.146	0.0138939
790.224	0.0137469
790.302	0.0139011
790.380	0.0141090
790.458	0.0139981
790.536	0.0140479
790.614	0.0143072
790.693	0.0142378
790.771	0.0143284
790.849	0.0143486
790.927	0.0143768
791.005	0.0144255
791.083	0.0142585
791.161	0.0143795
791.239	0.0144147
791.318	0.0143250
791.396	0.0142413
791.474	0.0143253
791.552	0.0141727
791.630	0.0140530
791.708	0.0139734
791.786	0.0139124
791.864	0.0139955
791.943	0.0139386
792.021	0.0137709
792.099	0.0135367
792.177	0.0135619
792.255	0.0135253
792.333	0.0133643
792.411	0.0135663
792.489	0.0134720
792.568	0.0133726
792.646	0.0133386
792.724	0.0132594
792.802	0.0132693
792.880	0.0133363
792.958	0.0134536
793.036	0.0135719
793.114	0.0134604
793.193	0.0135269
793.271	0.0136591
793.349	0.0136212
793.427	0.0136986
793.505	0.0137859
793.583	0.0137085
793.661	0.0137550
793.739	0.0139322
793.818	0.0141663
793.896	0.0139687
793.974	0.0138676
794.052	0.0140004
794.130	0.0139574
794.208	0.0141051
794.286	0.0139769
794.364	0.0139597
794.443	0.0140511
794.521	0.0139563
794.599	0.0139446
794.677	0.0140446
794.755	0.0140190
794.833	0.0137683
794.911	0.0137231
794.989	0.0139499
795.068	0.0138829
795.146	0.0138353
795.224	0.0137247
795.302	0.0137071
795.380	0.0138748
795.458	0.0135817
795.536	0.0136389
795.614	0.0136156
795.693	0.0134929
795.771	0.0134885
795.849	0.0135007
795.927	0.0133598
796.005	0.0133423
796.083	0.0133127
796.161	0.0133342
796.239	0.0133452
796.318	0.0132655
796.396	0.0132307
796.474	0.0133023
796.552	0.0132048
796.630	0.0132117
796.708	0.0133157
796.786	0.0134672
796.864	0.0134476
796.943	0.0135381
797.021	0.0135149
797.099	0.0135649
797.177	0.0136533
797.255	0.0136633
797.333	0.0137486
797.411	0.0138638
797.489	0.0139922
797.568	0.0140928
797.646	0.0142632
797.724	0.0144389
797.802	0.0144173
797.880	0.0143028
797.958	0.0144522
798.036	0.0144601
798.114	0.0145422
798.193	0.0145164
798.271	0.0145103
798.349	0.0144258
798.427	0.0142493
798.505	0.0143255
798.583	0.0141789
798.661	0.0144483
798.739	0.0141456
798.818	0.0139981
798.896	0.0141199
798.974	0.0141097
799.052	0.0139287
799.130	0.0140784
799.208	0.0139165
799.286	0.0138170
799.364	0.0138138
799.443	0.0136828
799.521	0.0137490
799.599	0.0139035
799.677	0.0137819
799.755	0.0137101
799.833	0.0138206
799.911	0.0137387
799.989	0.0136481
800.068	0.0137315
800.146	0.0136086
800.224	0.0136414
800.302	0.0137383
800.380	0.0136864
800.458	0.0134402
800.536	0.0136559
800.614	0.0136381
800.693	0.0135692
800.771	0.0137466
800.849	0.0135112
800.927	0.0134951
801.005	0.0135842
801.083	0.0135535
801.161	0.0135603
801.239	0.0135612
801.318	0.0134929
801.396	0.0134236
801.474	0.0135276
801.552	0.0134969
801.630	0.0135629
801.708	0.0135477
801.786	0.0136304
801.864	0.0137357
801.943	0.0136601
802.021	0.0137202
802.099	0.0138485
802.177	0.0137531
802.255	0.0137967
802.333	0.0138322
802.411	0.0139058
802.489	0.0137249
802.568	0.0138455
802.646	0.0139313
802.724	0.0139220
802.802	0.0138634
802.880	0.0138415
802.958	0.0137671
803.036	0.0138564
803.114	0.0138232
803.193	0.0138020
803.271	0.0140901
803.349	0.0140476
803.427	0.0138503
803.505	0.0140641
803.583	0.0142110
803.661	0.0141354
803.739	0.0141265
803.818	0.0141729
803.896	0.0141448
803.974	0.0141726
804.052	0.0141101
804.130	0.0143340
804.208	0.0142995
804.286	0.0142140
804.364	0.0140635
804.443	0.0140822
804.521	0.0140742
804.599	0.0139396
804.677	0.0138902
804.755	0.0138480
804.833	0.0138723
804.911	0.0137319
804.989	0.0137601
805.068	0.0136038
805.146	0.0136958
805.224	0.0136790
805.302	0.0136202
805.380	0.0135091
805.458	0.0135709
805.536	0.0134702
805.614	0.0134372
805.693	0.0134290
805.771	0.0135713
805.849	0.0135303
805.927	0.0135773
806.005	0.0133727
806.083	0.0136192
806.161	0.0136191
806.239	0.0136534
806.318	0.0136027
806.396	0.0136168
806.474	0.0136742
806.552	0.0137247
806.630	0.0136064
806.708	0.0138319
806.786	0.0138508
806.864	0.0138551
806.943	0.0137589
807.021	0.0135886
807.099	0.0137569
807.177	0.0137482
807.255	0.0137087
807.333	0.0136523
807.411	0.0136412
807.489	0.0136980
807.568	0.0137125
807.646	0.0134950
807.724	0.0135382
807.802	0.0136293
807.880	0.0136048
807.958	0.0137015
808.036	0.0136364
808.114	0.0136182
808.193	0.0136962
808.271	0.0137190
808.349	0.0137366
808.427	0.0138277
808.505	0.0138707
808.583	0.0138484
808.661	0.0140042
808.739	0.0140034
808.818	0.0142040
808.896	0.0140768
808.974	0.0141029
809.052	0.0141372
809.130	0.0141402
809.208	0.0142743
809.286	0.0140986
809.364	0.0140973
809.443	0.0141839
809.521	0.0140596
809.599	0.0141415
809.677	0.0140118
809.755	0.0141021
809.833	0.0139206
809.911	0.0139745
809.989	0.0139073
810.068	0.0138295
810.146	0.0137893
810.224	0.0138954
810.302	0.0138306
810.380	0.0137960
810.458	0.0137309
810.536	0.0135712
810.614	0.0136182
810.693	0.0136137
810.771	0.0135743
810.849	0.0135538
810.927	0.0135806
811.005	0.0135416
811.083	0.0135904
811.161	0.0135133
811.239	0.0136340
811.318	0.0137694
811.396	0.0137411
811.474	0.0136251
811.552	0.0136887
811.630	0.0136964
811.708	0.0138511
811.786	0.0139631
811.864	0.0138648
811.943	0.0139169
812.021	0.0138892
812.099	0.0140967
812.177	0.0138303
812.255	0.0139237
812.333	0.0138586
812.411	0.0139252
812.489	0.0140791
812.568	0.0139835
812.646	0.0139494
812.724	0.0139236
812.802	0.0138497
812.880	0.0141021
812.958	0.0141404
813.036	0.0140540
813.114	0.0138902
813.193	0.0139227
813.271	0.0140565
813.349	0.0137776
813.427	0.0137663
813.505	0.0138670
813.583	0.0137334
813.661	0.0135815
813.739	0.0134739
813.818	0.0134888
813.896	0.0134093
813.974	0.0135111
814.052	0.0134908
814.130	0.0133581
814.208	0.0134909
814.286	0.0134048
814.364	0.0133292
814.443	0.0134674
814.521	0.0135014
814.599	0.0135777
814.677	0.0135869
814.755	0.0134980
814.833	0.0137460
814.911	0.0138382
814.989	0.0138350
815.068	0.0138066
815.146	0.0139378
815.224	0.0139362
815.302	0.0140425
815.380	0.0141758
815.458	0.0142012
815.536	0.0142323
815.614	0.0140119
815.693	0.0142908
815.771	0.0143924
815.849	0.0143187
815.927	0.0143430
816.005	0.0144279
816.083	0.0143294
816.161	0.0144091
816.239	0.0144151
816.318	0.0143687
816.396	0.0142742
816.474	0.0142158
816.552	0.0142603
816.630	0.0141968
816.708	0.0140946
816.786	0.0141056
816.864	0.0142362
816.943	0.0139313
817.021	0.0138467
817.099	0.0138773
817.177	0.0139159
817.255	0.0138392
817.333	0.0137309
817.411	0.0137714
817.489	0.0137312
817.568	0.0136127
817.646	0.0135229
817.724	0.0135566
817.802	0.0133876
817.880	0.0133082
817.958	0.0133394
818.036	0.0133725
818.114	0.0132735
818.193	0.0133014
818.271	0.0132520
818.349	0.0133016
818.427	0.0133083
818.505	0.0132107
818.583	0.0132717
818.661	0.0132853
818.739	0.0131782
818.818	0.0134189
818.896	0.0134147
818.974	0.0134496
819.052	0.0136063
819.130	0.0135491
819.208	0.0136710
819.286	0.0135625
819.364	0.0137339
819.443	0.0138095
819.521	0.0139066
819.599	0.0137418
819.677	0.0139428
819.755	0.0138630
819.833	0.0138940
819.911	0.0140788
819.989	0.0141197
820.068	0.0142328
820.146	0.0141540
820.224	0.0141418
820.302	0.0141821
820.380	0.0140443
820.458	0.0141202
820.536	0.0141986
820.614	0.0142477
820.693	0.0140388
820.771	0.0141367
820.849	0.0140938
820.927	0.0141470
821.005	0.0142253
821.083	0.0141351
821.161	0.0141335
821.239	0.0140369
821.318	0.0141211
821.396	0.0142308
821.474	0.0141713
821.552	0.0141370
821.630	0.0141114
821.708	0.0141833
821.786	0.0141605
821.864	0.0140434
821.943	0.0140424
822.021	0.0140884
822.099	0.0141837
822.177	0.0141337
822.255	0.0140399
822.333	0.0140018
822.411	0.0138098
822.489	0.0139564
822.568	0.0137825
822.646	0.0138131
822.724	0.0137787
822.802	0.0135963
822.880	0.0134966
822.958	0.0134991
823.036	0.0134497
823.114	0.0134647
823.193	0.0135219
823.271	0.0134383
823.349	0.0133710
823.427	0.0132577
823.505	0.0132737
823.583	0.0134411
823.661	0.0133451
823.739	0.0132771
823.818	0.0133549
823.896	0.0133846
823.974	0.0134373
824.052	0.0134174
824.130	0.0134344
824.208	0.0133411
824.286	0.0136292
824.364	0.0134473
824.443	0.0134752
824.521	0.0135070
824.599	0.0135280
824.677	0.0135085
824.755	0.0136275
824.833	0.0135622
824.911	0.0136191
824.989	0.0137532
825.068	0.0138688
825.146	0.0136848
825.224	0.0136966
825.302	0.0138272
825.380	0.0139364
825.458	0.0139711
825.536	0.0139197
825.614	0.0139333
825.693	0.0139050
825.771	0.0139365
825.849	0.0141949
825.927	0.0142373
826.005	0.0142235
826.083	0.0141476
826.161	0.0140904
826.239	0.0142889
826.318	0.0140858
826.396	0.0140445
826.474	0.0140215
826.552	0.0140237
826.630	0.0140012
826.708	0.0140547
826.786	0.0139363
826.864	0.0139052
826.943	0.0138322
827.021	0.0138135
827.099	0.0138183
827.177	0.0139014
827.255	0.0137023
827.333	0.0137232
827.411	0.0137086
827.489	0.0136508
827.568	0.0136078
827.646	0.0135543
827.724	0.0135463
827.802	0.0135793
827.880	0.0135973
827.958	0.0136057
828.036	0.0135051
828.114	0.0134936
828.193	0.0135683
828.271	0.0135782
828.349	0.0136081
828.427	0.0136366
828.505	0.0134354
828.583	0.0136292
828.661	0.0136480
828.739	0.0135917
828.818	0.0136214
828.896	0.0136980
828.974	0.0137185
829.052	0.0137054
829.130	0.0137014
829.208	0.0137655
829.286	0.0136895
829.364	0.0136476
829.443	0.0136040
829.521	0.0136183
829.599	0.0137036
829.677	0.0136246
829.755	0.0136707
829.833	0.0136211
829.911	0.0136236
829.989	0.0135763
830.068	0.0135935
830.146	0.0134816
830.224	0.0136707
830.302	0.0135748
830.380	0.0134924
830.458	0.0134815
830.536	0.0137354
830.614	0.0136853
830.693	0.0135346
830.771	0.0136286
830.849	0.0135601
830.927	0.0137312
831.005	0.0137469
831.083	0.0137718
831.161	0.0137290
831.239	0.0139308
831.318	0.0139054
831.396	0.0137616
831.474	0.0137828
831.552	0.0138687
831.630	0.0139991
831.708	0.0138943
831.786	0.0140483
831.864	0.0140408
831.943	0.0140008
832.021	0.0139813
832.099	0.0140108
832.177	0.0141604
832.255	0.0139582
832.333	0.0139239
832.411	0.0139086
832.489	0.0140341
832.568	0.0139445
832.646	0.0138105
832.724	0.0138908
832.802	0.0139819
832.880	0.0139390
832.958	0.0139795
833.036	0.0139612
833.114	0.0140948
833.193	0.0140286
833.271	0.0140180
833.349	0.0140111
833.427	0.0140051
833.505	0.0139858
833.583	0.0140692
833.661	0.0140472
833.739	0.0140273
833.818	0.0140012
833.896	0.0141582
833.974	0.0139755
834.052	0.0141290
834.130	0.0140794
834.208	0.0139373
834.286	0.0140162
834.364	0.0140646
834.443	0.0140855
834.521	0.0140043
834.599	0.0140496
834.677	0.0138387
834.755	0.0138878
834.833	0.0139238
834.911	0.0138989
834.989	0.0138162
835.068	0.0138457
835.146	0.0138995
835.224	0.0138337
835.302	0.0138304
835.380	0.0137643
835.458	0.0138435
835.536	0.0137411
835.614	0.0138635
835.693	0.0135983
835.771	0.0136472
835.849	0.0136938
835.927	0.0137695
836.005	0.0136710
836.083	0.0135951
836.161	0.0136065
836.239	0.0135696
836.318	0.0136987
836.396	0.0136595
836.474	0.0135382
836.552	0.0135815
836.630	0.0136887
836.708	0.0136831
836.786	0.0135563
836.864	0.0135839
836.943	0.0136530
837.021	0.0136190
837.099	0.0137183
837.177	0.0138929
837.255	0.0138393
837.333	0.0137718
837.411	0.0136594
837.489	0.0137197
837.568	0.0137868
837.646	0.0138450
837.724	0.0140706
837.802	0.0139151
837.880	0.0139356
837.958	0.0138970
838.036	0.0139271
838.114	0.0139733
838.193	0.0139896
838.271	0.0138838
838.349	0.0140533
838.427	0.0139783
838.505	0.0141708
838.583	0.0140547
838.661	0.0141162
838.739	0.0141509
838.818	0.0140388
838.896	0.0141794
838.974	0.0141718
839.052	0.0140621
839.130	0.0141092
839.208	0.0141531
839.286	0.0140850
839.364	0.0140452
839.443	0.0139594
839.521	0.0139872
839.599	0.0139938
839.677	0.0139073
839.755	0.0138223
839.833	0.0138983
839.911	0.0139657
839.989	0.0138692
840.068	0.0137597
840.146	0.0137674
840.224	0.0137273
840.302	0.0136263
840.380	0.0136350
840.458	0.0135662
840.536	0.0135678
840.614	0.0136005
840.693	0.0136279
840.771	0.0135368
840.849	0.0134974
840.927	0.0136954
841.005	0.0135539
841.083	0.0133203
841.161	0.0134820
841.239	0.0135208
841.318	0.0135597
841.396	0.0136069
841.474	0.0135071
841.552	0.0135235
841.630	0.0137038
841.708	0.0136555
841.786	0.0136286
841.864	0.0136217
841.943	0.0136189
842.021	0.0137524
842.099	0.0137114
842.177	0.0138474
842.255	0.0138326
842.333	0.0136694
842.411	0.0138288
842.489	0.0137489
842.568	0.0137359
842.646	0.0137600
842.724	0.0136988
842.802	0.0138465
842.880	0.0138096
842.958	0.0137173
843.036	0.0137360
843.114	0.0136359
843.193	0.0137212
843.271	0.0137695
843.349	0.0137233
843.427	0.0137503
843.505	0.0138525
843.583	0.0138218
843.661	0.0138474
843.739	0.0136926
843.818	0.0136552
843.896	0.0138412
843.974	0.0139014
844.052	0.0137817
844.130	0.0138421
844.208	0.0138436
844.286	0.0139144
844.364	0.0138483
844.443	0.0137657
844.521	0.0138145
844.599	0.0137798
844.677	0.0137900
844.755	0.0138963
844.833	0.0139592
844.911	0.0138464
844.989	0.0137018
845.068	0.0138071
845.146	0.0137058
845.224	0.0137097
845.302	0.0137053
845.380	0.0138767
845.458	0.0137592
845.536	0.0136080
845.614	0.0137027
845.693	0.0137711
845.771	0.0137587
845.849	0.0138056
845.927	0.0138866
846.005	0.0137251
846.083	0.0137468
846.161	0.0138345
846.239	0.0140137
846.318	0.0139666
846.396	0.0139810
846.474	0.0140021
846.552	0.0138953
846.630	0.0139507
846.708	0.0139719
846.786	0.0138220
846.864	0.0138850
846.943	0.0139607
847.021	0.0139462
847.099	0.0138062
847.177	0.0136194
847.255	0.0138614
847.333	0.0139854
847.411	0.0138958
847.489	0.0137009
847.568	0.0139445
847.646	0.0139323
847.724	0.0139006
847.802	0.0139116
847.880	0.0139332
847.958	0.0138772
848.036	0.0137161
848.114	0.0139259
848.193	0.0138117
848.271	0.0136945
848.349	0.0137465
848.427	0.0136471
848.505	0.0136004
848.583	0.0136136
848.661	0.0135180
848.739	0.0135362
848.818	0.0135543
848.896	0.0136688
848.974	0.0135497
849.052	0.0135351
849.130	0.0135655
849.208	0.0134748
849.286	0.0135314
849.364	0.0135078
849.443	0.0134372
849.521	0.0135208
849.599	0.0134752
849.677	0.0136310
849.755	0.0134096
849.833	0.0136073
849.911	0.0135584
849.989	0.0136041
850.068	0.0137440
850.146	0.0137137
850.224	0.0137040
850.302	0.0139214
850.380	0.0137123
850.458	0.0138074
850.536	0.0137303
850.614	0.0139690
850.693	0.0140053
850.771	0.0139927
850.849	0.0140065
850.927	0.0140561
851.005	0.0139973
851.083	0.0140363
851.161	0.0140694
851.239	0.0141279
851.318	0.0140878
851.396	0.0141248
851.474	0.0139280
851.552	0.0141573
851.630	0.0142254
851.708	0.0141533
851.786	0.0139704
851.864	0.0141365
851.943	0.0139561
852.021	0.0141226
852.099	0.0140620
852.177	0.0139733
852.255	0.0138485
852.333	0.0138919
852.411	0.0139115
852.489	0.0137954
852.568	0.0138224
852.646	0.0136863
852.724	0.0139040
852.802	0.0136895
852.880	0.0138872
852.958	0.0138122
853.036	0.0137276
853.114	0.0137372
853.193	0.0137141
853.271	0.0136960
853.349	0.0137030
853.427	0.0136360
853.505	0.0135887
853.583	0.0136847
853.661	0.0137549
853.739	0.0137817
853.818	0.0136627
853.896	0.0136197
853.974	0.0136520
854.052	0.0137302
854.130	0.0137428
854.208	0.0136622
854.286	0.0136639
854.364	0.0137299
854.443	0.0136942
854.521	0.0137973
854.599	0.0137053
854.677	0.0136391
854.755	0.0135455
854.833	0.0136663
854.911	0.0137576
854.989	0.0138054
855.068	0.0137697
855.146	0.0136099
855.224	0.0135753
855.302	0.0135981
855.380	0.0135828
855.458	0.0135000
855.536	0.0136433
855.614	0.0136580
855.693	0.0136372
855.771	0.0136423
855.849	0.0136797
855.927	0.0135083
856.005	0.0136831
856.083	0.0136977
856.161	0.0135450
856.239	0.0139530
856.318	0.0139059
856.396	0.0139423
856.474	0.0138544
856.552	0.0138638
856.630	0.0137903
856.708	0.0140511
856.786	0.0140118
856.864	0.0139879
856.943	0.0140223
857.021	0.0140979
857.099	0.0141589
857.177	0.0140813
857.255	0.0140544
857.333	0.0139989
857.411	0.0142227
857.489	0.0141385
857.568	0.0140230
857.646	0.0139983
857.724	0.0139790
857.802	0.0139616
857.880	0.0140247
857.958	0.0138635
858.036	0.0138284
858.114	0.0139628
858.193	0.0138405
858.271	0.0138940
858.349	0.0138616
858.427	0.0138589
858.505	0.0137679
858.583	0.0138641
858.661	0.0137480
858.739	0.0138502
858.818	0.0138228
858.896	0.0138531
858.974	0.0139846
859.052	0.0138307
859.130	0.0137440
859.208	0.0138668
859.286	0.0138161
859.364	0.0137251
859.443	0.0137495
859.521	0.0138290
859.599	0.0135949
859.677	0.0137272
859.755	0.0136599
859.833	0.0137180
859.911	0.0137227
859.989	0.0135251
860.068	0.0134508
860.146	0.0135190
860.224	0.0134035
860.302	0.0134174
860.380	0.0135119
860.458	0.0135573
860.536	0.0133844
860.614	0.0134798
860.693	0.0134680
860.771	0.0134591
860.849	0.0134368
860.927	0.0136448
861.005	0.0136094
861.083	0.0136709
861.161	0.0136996
861.239	0.0137528
861.318	0.0136096
861.396	0.0137172
861.474	0.0138501
861.552	0.0138948
861.630	0.0138872
861.708	0.0138815
861.786	0.0139335
861.864	0.0140378
861.943	0.0138879
862.021	0.0140083
862.099	0.0139494
862.177	0.0141400
862.255	0.0140892
862.333	0.0141259
862.411	0.0141479
862.489	0.0140861
862.568	0.0141923
862.646	0.0141570
862.724	0.0140218
862.802	0.0138551
862.880	0.0139917
862.958	0.0138359
863.036	0.0139210
863.114	0.0139098
863.193	0.0138485
863.271	0.0140112
863.349	0.0138734
863.427	0.0138058
863.505	0.0138690
863.583	0.0139195
863.661	0.0137885
863.739	0.0138196
863.818	0.0138474
863.896	0.0137667
863.974	0.0138278
864.052	0.0137494
864.130	0.0137421
864.208	0.0136722
864.286	0.0137376
864.364	0.0137742
864.443	0.0136470
864.521	0.0138058
864.599	0.0136613
864.677	0.0137281
864.755	0.0136967
864.833	0.0137280
864.911	0.0137341
864.989	0.0136500
865.068	0.0135461
865.146	0.0136077
865.224	0.0137907
865.302	0.0136526
865.380	0.0137253
865.458	0.0136411
865.536	0.0136220
865.614	0.0136256
865.693	0.0135211
865.771	0.0136809
865.849	0.0136445
865.927	0.0136185
866.005	0.0135432
866.083	0.0136201
866.161	0.0136759
866.239	0.0137511
866.318	0.0137652
866.396	0.0136899
866.474	0.0135630
866.552	0.0136485
866.630	0.0137125
866.708	0.0136583
866.786	0.0136826
866.864	0.0137408
866.943	0.0137725
867.021	0.0137420
867.099	0.0135840
867.177	0.0138799
867.255	0.0137563
867.333	0.0137405
867.411	0.0139397
867.489	0.0138204
867.568	0.0137430
867.646	0.0137791
867.724	0.0137325
867.802	0.0137851
867.880	0.0138162
867.958	0.0138135
868.036	0.0137822
868.114	0.0137768
868.193	0.0137005
868.271	0.0139073
868.349	0.0139238
868.427	0.0138763
868.505	0.0139944
868.583	0.0139291
868.661	0.0140617
868.739	0.0139123
868.818	0.0139339
868.896	0.0139086
868.974	0.0138811
869.052	0.0139313
869.130	0.0139957
869.208	0.0138927
869.286	0.0137646
869.364	0.0138888
869.443	0.0138155
869.521	0.0137595
869.599	0.0137442
869.677	0.0138194
869.755	0.0137914
869.833	0.0138824
869.911	0.0137313
869.989	0.0138219
870.068	0.0137274
870.146	0.0136218
870.224	0.0136931
870.302	0.0134927
870.380	0.0135235
870.458	0.0136504
870.536	0.0136896
870.614	0.0134696
870.693	0.0134207
870.771	0.0134674
870.849	0.0134692
870.927	0.0135297
871.005	0.0135356
871.083	0.0134054
871.161	0.0135649
871.239	0.0136295
871.318	0.0135683
871.396	0.0136121
871.474	0.0136034
871.552	0.0134743
871.630	0.0136585
871.708	0.0137123
871.786	0.0136414
871.864	0.0135367
871.943	0.0136602
872.021	0.0136287
872.099	0.0135928
872.177	0.0135831
872.255	0.0134969
872.333	0.0135804
872.411	0.0135524
872.489	0.0136066
872.568	0.0136918
872.646	0.0136430
872.724	0.0136537
872.802	0.0136263
872.880	0.0136697
872.958	0.0136485
873.036	0.0136494
873.114	0.0136344
873.193	0.0135560
873.271	0.0136558
873.349	0.0138439
873.427	0.0136725
873.505	0.0136963
873.583	0.0138801
873.661	0.0138726
873.739	0.0138130
873.818	0.0139160
873.896	0.0139613
873.974	0.0140240
874.052	0.0140224
874.130	0.0141326
874.208	0.0140539
874.286	0.0141231
874.364	0.0142224
874.443	0.0140768
874.521	0.0141872
874.599	0.0141431
874.677	0.0141945
874.755	0.0140636
874.833	0.0142128
874.911	0.0143727
874.989	0.0142122
875.068	0.0140908
875.146	0.0141357
875.224	0.0140643
875.302	0.0141193
875.380	0.0139982
875.458	0.0139162
875.536	0.0139651
875.614	0.0139413
875.693	0.0138280
875.771	0.0137411
875.849	0.0135679
875.927	0.0136959
876.005	0.0137657
876.083	0.0134624
876.161	0.0134933
876.239	0.0136378
876.318	0.0134983
876.396	0.0134226
876.474	0.0135331
876.552	0.0134748
876.630	0.0133865
876.708	0.0135854
876.786	0.0136726
876.864	0.0136366
876.943	0.0136630
877.021	0.0135403
877.099	0.0137106
877.177	0.0139035
877.255	0.0139769
877.333	0.0139274
877.411	0.0138422
877.489	0.0140462
877.568	0.0140385
877.646	0.0138172
877.724	0.0139127
877.802	0.0139559
877.880	0.0139898
877.958	0.0138541
878.036	0.0139906
878.114	0.0139201
878.193	0.0138655
878.271	0.0138142
878.349	0.0138985
878.427	0.0138301
878.505	0.0138286
878.583	0.0137548
878.661	0.0136993
878.739	0.0139565
878.818	0.0138025
878.896	0.0138292
878.974	0.0139232
879.052	0.0139532
879.130	0.0140123
879.208	0.0140589
879.286	0.0139670
879.364	0.0140781
879.443	0.0141463
879.521	0.0139964
879.599	0.0140205
879.677	0.0142262
879.755	0.0140832
879.833	0.0139915
879.911	0.0142642
879.989	0.0141573
880.068	0.0141640
880.146	0.0140411
880.224	0.0141162
880.302	0.0141235
880.380	0.0140952
880.458	0.0141521
880.536	0.0141161
880.614	0.0141794
880.693	0.0140776
880.771	0.0142501
880.849	0.0141458
880.927	0.0140384
881.005	0.0140747
881.083	0.0141605
881.161	0.0140428
881.239	0.0139983
881.318	0.0139416
881.396	0.0140416
881.474	0.0139694
881.552	0.0139223
881.630	0.0139051
881.708	0.0136681
881.786	0.0135886
881.864	0.0136074
881.943	0.0137344
882.021	0.0136775
882.099	0.0136767
882.177	0.0135696
882.255	0.0136241
882.333	0.0136694
882.411	0.0136367
882.489	0.0137556
882.568	0.0136977
882.646	0.0136208
882.724	0.0137083
882.802	0.0137773
882.880	0.0136368
882.958	0.0135897
883.036	0.0138351
883.114	0.0137465
883.193	0.0137817
883.271	0.0137330
883.349	0.0137630
883.427	0.0138923
883.505	0.0138440
883.583	0.0137652
883.661	0.0138626
883.739	0.0138091
883.818	0.0138859
883.896	0.0139628
883.974	0.0138973
884.052	0.0138998
884.130	0.0138701
884.208	0.0139513
884.286	0.0139409
884.364	0.0138747
884.443	0.0139206
884.521	0.0138716
884.599	0.0140142
884.677	0.0137865
884.755	0.0139114
884.833	0.0139235
884.911	0.0138866
884.989	0.0137386
885.068	0.0139153
885.146	0.0138624
885.224	0.0138820
885.302	0.0139976
885.380	0.0137006
885.458	0.0139140
885.536	0.0137185
885.614	0.0136998
885.693	0.0138412
885.771	0.0138629
885.849	0.0135910
885.927	0.0137366
886.005	0.0136117
886.083	0.0136266
886.161	0.0137016
886.239	0.0135940
886.318	0.0134696
886.396	0.0134288
886.474	0.0134415
886.552	0.0135645
886.630	0.0135446
886.708	0.0133707
886.786	0.0133759
886.864	0.0135699
886.943	0.0133924
887.021	0.0134464
887.099	0.0136156
887.177	0.0135588
887.255	0.0136298
887.333	0.0136989
887.411	0.0137568
887.489	0.0138378
887.568	0.0136304
887.646	0.0137999
887.724	0.0138967
887.802	0.0139748
887.880	0.0139212
887.958	0.0137656
888.036	0.0138990
888.114	0.0140782
888.193	0.0139393
888.271	0.0140222
888.349	0.0139917
888.427	0.0139973
888.505	0.0139832
888.583	0.0140342
888.661	0.0140173
888.739	0.0139175
888.818	0.0139777
888.896	0.0139656
888.974	0.0138840
889.052	0.0137659
889.130	0.0138656
889.208	0.0137757
889.286	0.0138257
889.364	0.0138221
889.443	0.0139835
889.521	0.0138441
889.599	0.0139258
889.677	0.0137971
889.755	0.0138941
889.833	0.0137576
889.911	0.0137870
889.989	0.0138078
890.068	0.0136897
890.146	0.0136903
890.224	0.0138644
890.302	0.0136696
890.380	0.0135654
890.458	0.0136597
890.536	0.0136266
890.614	0.0137336
890.693	0.0138474
890.771	0.0137411
890.849	0.0136469
890.927	0.0135361
891.005	0.0135847
891.083	0.0136295
891.161	0.0135487
891.239	0.0135748
891.318	0.0136181
891.396	0.0135806
891.474	0.0136337
891.552	0.0136279
891.630	0.0136096
891.708	0.0137041
891.786	0.0137295
891.864	0.0137168
891.943	0.0137796
892.021	0.0138765
892.099	0.0138272
892.177	0.0138761
892.255	0.0138758
892.333	0.0139747
892.411	0.0138680
892.489	0.0140784
892.568	0.0140939
892.646	0.0140852
892.724	0.0141432
892.802	0.0140300
892.880	0.0138108
892.958	0.0141387
893.036	0.0139788
893.114	0.0138762
893.193	0.0138311
893.271	0.0138542
893.349	0.0137940
893.427	0.0137907
893.505	0.0138182
893.583	0.0136323
893.661	0.0136650
893.739	0.0136109
893.818	0.0135879
893.896	0.0135299
893.974	0.0138063
894.052	0.0136544
894.130	0.0135845
894.208	0.0134696
894.286	0.0134588
894.364	0.0136392
894.443	0.0135137
894.521	0.0136433
894.599	0.0135865
894.677	0.0135442
894.755	0.0134734
894.833	0.0134794
894.911	0.0137158
894.989	0.0136766
895.068	0.0133566
895.146	0.0135302
895.224	0.0135127
895.302	0.0134724
895.380	0.0136088
895.458	0.0137235
895.536	0.0137673
895.614	0.0136967
895.693	0.0136852
895.771	0.0136621
895.849	0.0138917
895.927	0.0140192
896.005	0.0139666
896.083	0.0139420
896.161	0.0141619
896.239	0.0140581
896.318	0.0141039
896.396	0.0140096
896.474	0.0139844
896.552	0.0141560
896.630	0.0142679
896.708	0.0140585
896.786	0.0139775
896.864	0.0139911
896.943	0.0139293
897.021	0.0140552
897.099	0.0140124
897.177	0.0140112
897.255	0.0140209
897.333	0.0139252
897.411	0.0137785
897.489	0.0137853
897.568	0.0139229
897.646	0.0137914
897.724	0.0135896
897.802	0.0134660
897.880	0.0135077
897.958	0.0135641
898.036	0.0134904
898.114	0.0135329
898.193	0.0134198
898.271	0.0134263
898.349	0.0134050
898.427	0.0133824
898.505	0.0134023
898.583	0.0134516
898.661	0.0134876
898.739	0.0134123
898.818	0.0135946
898.896	0.0136174
898.974	0.0137217
899.052	0.0135796
899.130	0.0136301
899.208	0.0137830
899.286	0.0139904
899.364	0.0140007
899.443	0.0141096
899.521	0.0140028
899.599	0.0141710
899.677	0.0141032
899.755	0.0141165
899.833	0.0141842
899.911	0.0141035
899.989	0.0141535
900.068	0.0140813
900.146	0.0140412
900.224	0.0141566
900.302	0.0142449
900.380	0.0141506
900.458	0.0139537
900.536	0.0140141
900.614	0.0137894
900.693	0.0140282
900.771	0.0139793
900.849	0.0138245
900.927	0.0137193
901.005	0.0137390
901.083	0.0138910
901.161	0.0138895
901.239	0.0138409
901.318	0.0138966
901.396	0.0138879
901.474	0.0138535
901.552	0.0138995
901.630	0.0138602
901.708	0.0138375
901.786	0.0138523
901.864	0.0139193
901.943	0.0138693
902.021	0.0137213
902.099	0.0136885
902.177	0.0137968
902.255	0.0137435
902.333	0.0136608
902.411	0.0137183
902.489	0.0137330
902.568	0.0136153
902.646	0.0134773
902.724	0.0135046
902.802	0.0135625
902.880	0.0135451
902.958	0.0135504
903.036	0.0135703
903.114	0.0136168
903.193	0.0135600
903.271	0.0135263
903.349	0.0136269
903.427	0.0137251
903.505	0.0137933
903.583	0.0137413
903.661	0.0137116
903.739	0.0139856
903.818	0.0139269
903.896	0.0139675
903.974	0.0140187
904.052	0.0141042
904.130	0.0139822
904.208	0.0139635
904.286	0.0140562
904.364	0.0140381
904.443	0.0139968
904.521	0.0141685
904.599	0.0139620
904.677	0.0140208
904.755	0.0139680
904.833	0.0140714
904.911	0.0140533
904.989	0.0140438
905.068	0.0141209
905.146	0.0139880
905.224	0.0138862
905.302	0.0140765
905.380	0.0141212
905.458	0.0139410
905.536	0.0138824
905.614	0.0138931
905.693	0.0137860
905.771	0.0139003
905.849	0.0137859
905.927	0.0138795
906.005	0.0138309
906.083	0.0136967
906.161	0.0138582
906.239	0.0138156
906.318	0.0138774
906.396	0.0137477
906.474	0.0138139
906.552	0.0138259
906.630	0.0139627
906.708	0.0137805
906.786	0.0137874
906.864	0.0136389
906.943	0.0138297
907.021	0.0139104
907.099	0.0136489
907.177	0.0137810
907.255	0.0137453
907.333	0.0137408
907.411	0.0137107
907.489	0.0137315
907.568	0.0136026
907.646	0.0135732
907.724	0.0135936
907.802	0.0136055
907.880	0.0137099
907.958	0.0137022
908.036	0.0136157
908.114	0.0134389
908.193	0.0135448
908.271	0.0137588
908.349	0.0136211
908.427	0.0137175
908.505	0.0137266
908.583	0.0137062
908.661	0.0136621
908.739	0.0136932
908.818	0.0136543
908.896	0.0138992
908.974	0.0138806
909.052	0.0137297
909.130	0.0136993
909.208	0.0138857
909.286	0.0139196
909.364	0.0139426
909.443	0.0138155
909.521	0.0139316
909.599	0.0139507
909.677	0.0139938
909.755	0.0140492
909.833	0.0138522
909.911	0.0138535
909.989	0.0139397
910.068	0.0139606
910.146	0.0140414
910.224	0.0138480
910.302	0.0139373
910.380	0.0139933
910.458	0.0139121
910.536	0.0138642
910.614	0.0139964
910.693	0.0138708
910.771	0.0139980
910.849	0.0140486
910.927	0.0139193
911.005	0.0139761
911.083	0.0140959
911.161	0.0139950
911.239	0.0140244
911.318	0.0140436
911.396	0.0141878
911.474	0.0139273
911.552	0.0140373
911.630	0.0140037
911.708	0.0139909
911.786	0.0140233
911.864	0.0140599
911.943	0.0139943
912.021	0.0140301
912.099	0.0138950
912.177	0.0138362
912.255	0.0138755
912.333	0.0138383
912.411	0.0137579
912.489	0.0138129
912.568	0.0138622
912.646	0.0138029
912.724	0.0138850
912.802	0.0138441
912.880	0.0138966
912.958	0.0139143
913.036	0.0139294
913.114	0.0140485
913.193	0.0138444
913.271	0.0138407
913.349	0.0137450
913.427	0.0138196
913.505	0.0138950
913.583	0.0137463
913.661	0.0139017
913.739	0.0137460
913.818	0.0138236
913.896	0.0138615
913.974	0.0137457
914.052	0.0139526
914.130	0.0137833
914.208	0.0137585
914.286	0.0138667
914.364	0.0139982
914.443	0.0139173
914.521	0.0138985
914.599	0.0138984
914.677	0.0138500
914.755	0.0139191
914.833	0.0138747
914.911	0.0136877
914.989	0.0138390
915.068	0.0139360
915.146	0.0137794
915.224	0.0138599
915.302	0.0136715
915.380	0.0137447
915.458	0.0136953
915.536	0.0137219
915.614	0.0136475
915.693	0.0136659
915.771	0.0136668
915.849	0.0136279
915.927	0.0138522
916.005	0.0136986
916.083	0.0136003
916.161	0.0138164
916.239	0.0136905
916.318	0.0136201
916.396	0.0137971
916.474	0.0137193
916.552	0.0138832
916.630	0.0138394
916.708	0.0138189
916.786	0.0138394
916.864	0.0138516
916.943	0.0138368
917.021	0.0138824
917.099	0.0139524
917.177	0.0138130
917.255	0.0137227
917.333	0.0138039
917.411	0.0139211
917.489	0.0138114
917.568	0.0137933
917.646	0.0138309
917.724	0.0138885
917.802	0.0138901
917.880	0.0138946
917.958	0.0138075
918.036	0.0137981
918.114	0.0138407
918.193	0.0137970
918.271	0.0138562
918.349	0.0138633
918.427	0.0138795
918.505	0.0137381
918.583	0.0138342
918.661	0.0138573
918.739	0.0138841
918.818	0.0137399
918.896	0.0139243
918.974	0.0139516
919.052	0.0140120
919.130	0.0137885
919.208	0.0139806
919.286	0.0138394
919.364	0.0139782
919.443	0.0138968
919.521	0.0138295
919.599	0.0137687
919.677	0.0139466
919.755	0.0137718
919.833	0.0136733
919.911	0.0138544
919.989	0.0137760
920.068	0.0135881
920.146	0.0136945
920.224	0.0138237
920.302	0.0137405
920.380	0.0139112
920.458	0.0136574
920.536	0.0137016
920.614	0.0138427
920.693	0.0138313
920.771	0.0138236
920.849	0.0137836
920.927	0.0137550
921.005	0.0137692
921.083	0.0137199
921.161	0.0138274
921.239	0.0138076
921.318	0.0137294
921.396	0.0137611
921.474	0.0137473
921.552	0.0136264
921.630	0.0136890
921.708	0.0136296
921.786	0.0137556
921.864	0.0137592
921.943	0.0136051
922.021	0.0136884
922.099	0.0138175
922.177	0.0137500
922.255	0.0137365
922.333	0.0138156
922.411	0.0136189
922.489	0.0138461
922.568	0.0137617
922.646	0.0136444
922.724	0.0137619
922.802	0.0136429
922.880	0.0137517
922.958	0.0136784
923.036	0.0136298
923.114	0.0136985
923.193	0.0136350
923.271	0.0135209
923.349	0.0137518
923.427	0.0137691
923.505	0.0136045
923.583	0.0136395
923.661	0.0136347
923.739	0.0136942
923.818	0.0136953
923.896	0.0136639
923.974	0.0137333
924.052	0.0136842
924.130	0.0137507
924.208	0.0138233
924.286	0.0138667
924.364	0.0140907
924.443	0.0139173
924.521	0.0138758
924.599	0.0139562
924.677	0.0139182
924.755	0.0140157
924.833	0.0140220
924.911	0.0140282
924.989	0.0139285
925.068	0.0138924
925.146	0.0139687
925.224	0.0138457
925.302	0.0138807
925.380	0.0138400
925.458	0.0137586
925.536	0.0139053
925.614	0.0136456
925.693	0.0136600
925.771	0.0135947
925.849	0.0136109
925.927	0.0136864
926.005	0.0135112
926.083	0.0134499
926.161	0.0135073
926.239	0.0135830
926.318	0.0135870
926.396	0.0135763
926.474	0.0136028
926.552	0.0135660
926.630	0.0136987
926.708	0.0135707
926.786	0.0136490
926.864	0.0135061
926.943	0.0135653
927.021	0.0136243
927.099	0.0137138
927.177	0.0136388
927.255	0.0135458
927.333	0.0135969
927.411	0.0135420
927.489	0.0136127
927.568	0.0134598
927.646	0.0136364
927.724	0.0136715
927.802	0.0135204
927.880	0.0136071
927.958	0.0136832
928.036	0.0136450
928.114	0.0137254
928.193	0.0138033
928.271	0.0137349
928.349	0.0137827
928.427	0.0139080
928.505	0.0138007
928.583	0.0138922
928.661	0.0140495
928.739	0.0139054
928.818	0.0139091
928.896	0.0139835
928.974	0.0140390
929.052	0.0140039
929.130	0.0142109
929.208	0.0139031
929.286	0.0140118
929.364	0.0140478
929.443	0.0140229
929.521	0.0139804
929.599	0.0140090
929.677	0.0139681
929.755	0.0141727
929.833	0.0140709
929.911	0.0139577
929.989	0.0139961
930.068	0.0140060
930.146	0.0139126
930.224	0.0140705
930.302	0.0140970
930.380	0.0140286
930.458	0.0138771
930.536	0.0139163
930.614	0.0140473
930.693	0.0140933
930.771	0.0139796
930.849	0.0139414
930.927	0.0137191
931.005	0.0137749
931.083	0.0137439
931.161	0.0136720
931.239	0.0136365
931.318	0.0137332
931.396	0.0135378
931.474	0.0134816
931.552	0.0133430
931.630	0.0134843
931.708	0.0136056
931.786	0.0135703
931.864	0.0134703
931.943	0.0135320
932.021	0.0135172
932.099	0.0135078
932.177	0.0136073
932.255	0.0136285
932.333	0.0135530
932.411	0.0137054
932.489	0.0137315
932.568	0.0139210
932.646	0.0139503
932.724	0.0138747
932.802	0.0139810
932.880	0.0140585
932.958	0.0140020
933.036	0.0141081
933.114	0.0139689
933.193	0.0141563
933.271	0.0139986
933.349	0.0141521
933.427	0.0140156
933.505	0.0139355
933.583	0.0140096
933.661	0.0140699
933.739	0.0140163
933.818	0.0140151
933.896	0.0139571
933.974	0.0140179
934.052	0.0139522
934.130	0.0138301
934.208	0.0137405
934.286	0.0138577
934.364	0.0138518
934.443	0.0137912
934.521	0.0137594
934.599	0.0137515
934.677	0.0137510
934.755	0.0137266
934.833	0.0138543
934.911	0.0137814
934.989	0.0138472
935.068	0.0139983
935.146	0.0138663
935.224	0.0139814
935.302	0.0139478
935.380	0.0139162
935.458	0.0140435
935.536	0.0139597
935.614	0.0139597
935.693	0.0140707
935.771	0.0140263
935.849	0.0140536
935.927	0.0140164
936.005	0.0139465
936.083	0.0140355
936.161	0.0140557
936.239	0.0141109
936.318	0.0139773
936.396	0.0139439
936.474	0.0140163
936.552	0.0139835
936.630	0.0139575
936.708	0.0140525
936.786	0.0140553
936.864	0.0141528
936.943	0.0139889
937.021	0.0139449
937.099	0.0140094
937.177	0.0141667
937.255	0.0139619
937.333	0.0139931
937.411	0.0139685
937.489	0.0137477
937.568	0.0138815
937.646	0.0139098
937.724	0.0140067
937.802	0.0139435
937.880	0.0137927
937.958	0.0138512
938.036	0.0138021
938.114	0.0138029
938.193	0.0138735
938.271	0.0138583
938.349	0.0138621
938.427	0.0137023
938.505	0.0137455
938.583	0.0137430
938.661	0.0138765
938.739	0.0138210
938.818	0.0138642
938.896	0.0137590
938.974	0.0137687
939.052	0.0136893
939.130	0.0136576
939.208	0.0135947
939.286	0.0136678
939.364	0.0136797
939.443	0.0137518
939.521	0.0136260
939.599	0.0136830
939.677	0.0137001
939.755	0.0135920
939.833	0.0137137
939.911	0.0138404
939.989	0.0138277
940.068	0.0137123
940.146	0.0138338
940.224	0.0138408
940.302	0.0138689
940.380	0.0138383
940.458	0.0138549
940.536	0.0139989
940.614	0.0139159
940.693	0.0139057
940.771	0.0139301
940.849	0.0139735
940.927	0.0137255
941.005	0.0139554
941.083	0.0139354
941.161	0.0138197
941.239	0.0138943
941.318	0.0138176
941.396	0.0136880
941.474	0.0137286
941.552	0.0138186
941.630	0.0138198
941.708	0.0139330
941.786	0.0138274
941.864	0.0138514
941.943	0.0137534
942.021	0.0137952
942.099	0.0138438
942.177	0.0137007
942.255	0.0136557
942.333	0.0136860
942.411	0.0137771
942.489	0.0137468
942.568	0.0135690
942.646	0.0137598
942.724	0.0138451
942.802	0.0137808
942.880	0.0138484
942.958	0.0138352
943.036	0.0136958
943.114	0.0136682
943.193	0.0137724
943.271	0.0139139
943.349	0.0137744
943.427	0.0138838
943.505	0.0139071
943.583	0.0138133
943.661	0.0138185
943.739	0.0137782
943.818	0.0138352
943.896	0.0137858
943.974	0.0137882
944.052	0.0138659
944.130	0.0137896
944.208	0.0138988
944.286	0.0138372
944.364	0.0137559
944.443	0.0136958
944.521	0.0137926
944.599	0.0139732
944.677	0.0138864
944.755	0.0138001
944.833	0.0139131
944.911	0.0139569
944.989	0.0137959
945.068	0.0137859
945.146	0.0138692
945.224	0.0137675
945.302	0.0137447
945.380	0.0139243
945.458	0.0137682
945.536	0.0138430
945.614	0.0138210
945.693	0.0138821
945.771	0.0139077
945.849	0.0136720
945.927	0.0138132
946.005	0.0138872
946.083	0.0138309
946.161	0.0138400
946.239	0.0139139
946.318	0.0137514
946.396	0.0137774
946.474	0.0136954
946.552	0.0137357
946.630	0.0138378
946.708	0.0137627
946.786	0.0136028
946.864	0.0136115
946.943	0.0136690
947.021	0.0135838
947.099	0.0137066
947.177	0.0137323
947.255	0.0137182
947.333	0.0136927
947.411	0.0138078
947.489	0.0137501
947.568	0.0136885
947.646	0.0137280
947.724	0.0137118
947.802	0.0136463
947.880	0.0136778
947.958	0.0137045
948.036	0.0137035
948.114	0.0138326
948.193	0.0136878
948.271	0.0136404
948.349	0.0137245
948.427	0.0136436
948.505	0.0137232
948.583	0.0136573
948.661	0.0135587
948.739	0.0135017
948.818	0.0134634
948.896	0.0135206
948.974	0.0135927
949.052	0.0134428
949.130	0.0134557
949.208	0.0134595
949.286	0.0135498
949.364	0.0135121
949.443	0.0135207
949.521	0.0133398
949.599	0.0133624
949.677	0.0134396
949.755	0.0135417
949.833	0.0135674
949.911	0.0134445
949.989	0.0134900
950.068	0.0133156
950.146	0.0135019
950.224	0.0133298
950.302	0.0134389
950.380	0.0134428
950.458	0.0135046
950.536	0.0135485
950.614	0.0134866
950.693	0.0137183
950.771	0.0136382
950.849	0.0135793
950.927	0.0136284
951.005	0.0137793
951.083	0.0137794
951.161	0.0138264
951.239	0.0137838
951.318	0.0138418
951.396	0.0138002
951.474	0.0137665
951.552	0.0138844
951.630	0.0138084
951.708	0.0138126
951.786	0.0138219
951.864	0.0139118
951.943	0.0138675
952.021	0.0138916
952.099	0.0137518
952.177	0.0138637
952.255	0.0138399
952.333	0.0138570
952.411	0.0137779
952.489	0.0136409
952.568	0.0137175
952.646	0.0136758
952.724	0.0136613
952.802	0.0136818
952.880	0.0137579
952.958	0.0137445
953.036	0.0137064
953.114	0.0137540
953.193	0.0138115
953.271	0.0136449
953.349	0.0136290
953.427	0.0136058
953.505	0.0136603
953.583	0.0136736
953.661	0.0137000
953.739	0.0139679
953.818	0.0138017
953.896	0.0138161
953.974	0.0138229
954.052	0.0136861
954.130	0.0136949
954.208	0.0137142
954.286	0.0136875
954.364	0.0134782
954.443	0.0136876
954.521	0.0137716
954.599	0.0135574
954.677	0.0134702
954.755	0.0133900
954.833	0.0136452
954.911	0.0133356
954.989	0.0134788
955.068	0.0134068
955.146	0.0132689
955.224	0.0133944
955.302	0.0135001
955.380	0.0135866
955.458	0.0136004
955.536	0.0134552
955.614	0.0135182
955.693	0.0136436
955.771	0.0135105
955.849	0.0134914
955.927	0.0136305
956.005	0.0137380
956.083	0.0137479
956.161	0.0135466
956.239	0.0138015
956.318	0.0137865
956.396	0.0139574
956.474	0.0139265
956.552	0.0138563
956.630	0.0139828
956.708	0.0140305
956.786	0.0139546
956.864	0.0139974
956.943	0.0139235
957.021	0.0140041
957.099	0.0140956
957.177	0.0139417
957.255	0.0139638
957.333	0.0139639
957.411	0.0140271
957.489	0.0139266
957.568	0.0138632
957.646	0.0139980
957.724	0.0140289
957.802	0.0138610
957.880	0.0138063
957.958	0.0138936
958.036	0.0137963
958.114	0.0139027
958.193	0.0137746
958.271	0.0138074
958.349	0.0138977
958.427	0.0139041
958.505	0.0137765
958.583	0.0137597
958.661	0.0138522
958.739	0.0138598
958.818	0.0137189
958.896	0.0136299
958.974	0.0136262
959.052	0.0136227
959.130	0.0138573
959.208	0.0138031
959.286	0.0138506
959.364	0.0138609
959.443	0.0137411
959.521	0.0138239
959.599	0.0139413
959.677	0.0139619
959.755	0.0140163
959.833	0.0139578
959.911	0.0140656
