05/14/2022	16:37:06	Ver.	4.1	UNKNOWN
Optical Delay	639.989416	Delta X		0.078125	Sweeps	1	Scan Rate	0/0
Coordinates	Axis 1	NaN	Axis 2	NaN	Axis 3	NaN	Axis 4	NaN	Axis 5	NaN	Axis 6	0.000000
TX Power	0.000000	RX Power	0.000000

639.989	0.0136602
640.068	0.0135452
640.146	0.0136706
640.224	0.0136581
640.302	0.0136603
640.380	0.0136454
640.458	0.0136805
640.536	0.0137036
640.614	0.0136257
640.693	0.0136749
640.771	0.0137679
640.849	0.0137917
640.927	0.0136604
641.005	0.0136842
641.083	0.0137283
641.161	0.0137067
641.239	0.0134945
641.318	0.0136482
641.396	0.0137256
641.474	0.0133945
641.552	0.0136854
641.630	0.0136414
641.708	0.0136401
641.786	0.0137901
641.864	0.0136506
641.943	0.0136606
642.021	0.0137009
642.099	0.0137621
642.177	0.0136803
642.255	0.0136485
642.333	0.0136684
642.411	0.0136143
642.489	0.0137058
642.568	0.0136835
642.646	0.0137103
642.724	0.0136413
642.802	0.0137149
642.880	0.0135971
642.958	0.0136185
643.036	0.0136901
643.114	0.0137811
643.193	0.0136710
643.271	0.0136279
643.349	0.0136739
643.427	0.0136055
643.505	0.0137739
643.583	0.0137462
643.661	0.0135968
643.739	0.0136546
643.818	0.0137251
643.896	0.0136510
643.974	0.0136715
644.052	0.0136959
644.130	0.0136252
644.208	0.0134737
644.286	0.0136058
644.364	0.0136657
644.443	0.0136009
644.521	0.0134820
644.599	0.0135094
644.677	0.0136050
644.755	0.0136541
644.833	0.0136004
644.911	0.0135910
644.989	0.0135276
645.068	0.0135783
645.146	0.0135532
645.224	0.0135152
645.302	0.0135431
645.380	0.0134190
645.458	0.0134425
645.536	0.0135870
645.614	0.0134672
645.693	0.0134512
645.771	0.0136378
645.849	0.0134992
645.927	0.0135322
646.005	0.0136593
646.083	0.0134606
646.161	0.0136013
646.239	0.0135732
646.318	0.0134667
646.396	0.0134594
646.474	0.0136081
646.552	0.0134521
646.630	0.0135327
646.708	0.0135819
646.786	0.0135146
646.864	0.0133822
646.943	0.0134211
647.021	0.0133414
647.099	0.0135818
647.177	0.0135759
647.255	0.0134924
647.333	0.0135117
647.411	0.0135957
647.489	0.0134895
647.568	0.0134902
647.646	0.0135831
647.724	0.0135618
647.802	0.0134371
647.880	0.0135731
647.958	0.0135551
648.036	0.0135114
648.114	0.0136942
648.193	0.0137096
648.271	0.0137078
648.349	0.0136772
648.427	0.0136023
648.505	0.0136547
648.583	0.0136463
648.661	0.0136397
648.739	0.0135435
648.818	0.0137250
648.896	0.0135989
648.974	0.0134991
649.052	0.0137305
649.130	0.0135509
649.208	0.0136388
649.286	0.0136738
649.364	0.0136692
649.443	0.0135705
649.521	0.0137064
649.599	0.0136572
649.677	0.0137717
649.755	0.0135866
649.833	0.0137424
649.911	0.0137448
649.989	0.0137449
650.068	0.0135763
650.146	0.0135790
650.224	0.0137726
650.302	0.0137068
650.380	0.0135373
650.458	0.0135950
650.536	0.0136397
650.614	0.0136982
650.693	0.0136555
650.771	0.0136323
650.849	0.0136597
650.927	0.0136970
651.005	0.0137631
651.083	0.0136963
651.161	0.0137275
651.239	0.0136906
651.318	0.0135703
651.396	0.0136101
651.474	0.0137276
651.552	0.0137697
651.630	0.0136436
651.708	0.0137297
651.786	0.0136086
651.864	0.0137483
651.943	0.0137935
652.021	0.0136477
652.099	0.0137154
652.177	0.0136602
652.255	0.0136091
652.333	0.0136764
652.411	0.0136744
652.489	0.0135924
652.568	0.0135838
652.646	0.0136672
652.724	0.0137576
652.802	0.0138536
652.880	0.0137448
652.958	0.0136026
653.036	0.0138166
653.114	0.0136169
653.193	0.0135740
653.271	0.0136309
653.349	0.0135918
653.427	0.0135685
653.505	0.0136568
653.583	0.0136145
653.661	0.0135979
653.739	0.0136681
653.818	0.0137933
653.896	0.0135471
653.974	0.0136247
654.052	0.0136871
654.130	0.0135175
654.208	0.0135567
654.286	0.0136561
654.364	0.0137444
654.443	0.0137418
654.521	0.0137506
654.599	0.0137209
654.677	0.0136839
654.755	0.0136736
654.833	0.0136993
654.911	0.0136576
654.989	0.0136747
655.068	0.0137047
655.146	0.0135977
655.224	0.0136120
655.302	0.0136134
655.380	0.0135303
655.458	0.0136829
655.536	0.0136893
655.614	0.0136941
655.693	0.0135763
655.771	0.0136711
655.849	0.0135074
655.927	0.0135576
656.005	0.0135493
656.083	0.0136214
656.161	0.0136188
656.239	0.0135534
656.318	0.0137616
656.396	0.0137479
656.474	0.0137988
656.552	0.0136796
656.630	0.0135471
656.708	0.0135342
656.786	0.0134939
656.864	0.0136069
656.943	0.0136752
657.021	0.0135489
657.099	0.0136047
657.177	0.0134978
657.255	0.0136654
657.333	0.0136147
657.411	0.0136620
657.489	0.0135464
657.568	0.0136881
657.646	0.0137475
657.724	0.0136930
657.802	0.0137794
657.880	0.0137415
657.958	0.0137653
658.036	0.0136718
658.114	0.0136343
658.193	0.0137186
658.271	0.0136487
658.349	0.0136850
658.427	0.0135566
658.505	0.0135801
658.583	0.0135087
658.661	0.0135428
658.739	0.0135043
658.818	0.0137158
658.896	0.0135117
658.974	0.0134869
659.052	0.0136165
659.130	0.0135455
659.208	0.0134228
659.286	0.0137076
659.364	0.0135042
659.443	0.0135111
659.521	0.0136681
659.599	0.0136688
659.677	0.0136499
659.755	0.0135529
659.833	0.0137618
659.911	0.0137748
659.989	0.0137078
660.068	0.0133774
660.146	0.0134117
660.224	0.0135614
660.302	0.0135648
660.380	0.0135332
660.458	0.0134521
660.536	0.0136058
660.614	0.0135576
660.693	0.0134733
660.771	0.0134267
660.849	0.0135564
660.927	0.0136903
661.005	0.0133908
661.083	0.0135311
661.161	0.0135690
661.239	0.0136671
661.318	0.0137054
661.396	0.0135927
661.474	0.0135517
661.552	0.0135997
661.630	0.0135813
661.708	0.0137959
661.786	0.0136724
661.864	0.0136234
661.943	0.0136363
662.021	0.0137323
662.099	0.0136808
662.177	0.0136262
662.255	0.0136459
662.333	0.0137307
662.411	0.0136410
662.489	0.0137302
662.568	0.0137997
662.646	0.0135918
662.724	0.0137039
662.802	0.0136681
662.880	0.0136058
662.958	0.0136328
663.036	0.0136430
663.114	0.0135467
663.193	0.0135628
663.271	0.0136028
663.349	0.0135715
663.427	0.0136200
663.505	0.0135416
663.583	0.0136342
663.661	0.0135690
663.739	0.0135931
663.818	0.0135638
663.896	0.0137828
663.974	0.0136443
664.052	0.0135988
664.130	0.0136499
664.208	0.0137222
664.286	0.0136515
664.364	0.0137067
664.443	0.0137530
664.521	0.0136169
664.599	0.0137032
664.677	0.0136081
664.755	0.0135488
664.833	0.0135249
664.911	0.0135818
664.989	0.0136711
665.068	0.0136694
665.146	0.0134943
665.224	0.0135671
665.302	0.0137203
665.380	0.0136581
665.458	0.0136278
665.536	0.0136025
665.614	0.0135169
665.693	0.0134465
665.771	0.0135857
665.849	0.0136176
665.927	0.0134510
666.005	0.0135933
666.083	0.0134902
666.161	0.0137050
666.239	0.0136987
666.318	0.0137143
666.396	0.0136609
666.474	0.0137621
666.552	0.0137285
666.630	0.0137133
666.708	0.0138421
666.786	0.0137540
666.864	0.0138339
666.943	0.0137392
667.021	0.0136013
667.099	0.0136464
667.177	0.0137740
667.255	0.0136766
667.333	0.0137405
667.411	0.0138233
667.489	0.0137730
667.568	0.0137228
667.646	0.0136906
667.724	0.0137441
667.802	0.0137246
667.880	0.0135395
667.958	0.0136481
668.036	0.0137548
668.114	0.0137277
668.193	0.0137567
668.271	0.0138300
668.349	0.0136347
668.427	0.0137894
668.505	0.0136488
668.583	0.0136417
668.661	0.0136747
668.739	0.0136621
668.818	0.0136272
668.896	0.0136525
668.974	0.0135509
669.052	0.0137582
669.130	0.0136917
669.208	0.0135744
669.286	0.0135636
669.364	0.0136929
669.443	0.0135209
669.521	0.0135797
669.599	0.0134663
669.677	0.0135289
669.755	0.0136385
669.833	0.0136009
669.911	0.0136727
669.989	0.0135395
670.068	0.0135950
670.146	0.0135538
670.224	0.0137105
670.302	0.0135072
670.380	0.0134774
670.458	0.0134302
670.536	0.0137465
670.614	0.0137268
670.693	0.0136599
670.771	0.0135413
670.849	0.0136510
670.927	0.0135827
671.005	0.0137251
671.083	0.0136344
671.161	0.0136055
671.239	0.0136266
671.318	0.0134900
671.396	0.0134153
671.474	0.0136816
671.552	0.0136136
671.630	0.0137003
671.708	0.0136658
671.786	0.0136692
671.864	0.0136352
671.943	0.0136445
672.021	0.0137061
672.099	0.0135546
672.177	0.0134811
672.255	0.0136150
672.333	0.0137531
672.411	0.0137678
672.489	0.0137055
672.568	0.0137358
672.646	0.0135110
672.724	0.0136345
672.802	0.0135761
672.880	0.0136658
672.958	0.0137251
673.036	0.0135620
673.114	0.0136208
673.193	0.0135806
673.271	0.0135406
673.349	0.0136059
673.427	0.0136386
673.505	0.0137767
673.583	0.0136174
673.661	0.0136498
673.739	0.0137187
673.818	0.0137032
673.896	0.0138103
673.974	0.0136742
674.052	0.0136491
674.130	0.0137084
674.208	0.0136729
674.286	0.0136801
674.364	0.0138918
674.443	0.0138703
674.521	0.0138572
674.599	0.0137674
674.677	0.0136829
674.755	0.0139209
674.833	0.0137884
674.911	0.0137315
674.989	0.0137167
675.068	0.0135894
675.146	0.0136246
675.224	0.0134791
675.302	0.0133733
675.380	0.0134956
675.458	0.0134106
675.536	0.0132574
675.614	0.0133270
675.693	0.0131660
675.771	0.0132081
675.849	0.0132428
675.927	0.0135075
676.005	0.0135188
676.083	0.0135540
676.161	0.0136385
676.239	0.0136983
676.318	0.0137254
676.396	0.0139407
676.474	0.0139950
676.552	0.0142924
676.630	0.0143143
676.708	0.0141737
676.786	0.0142080
676.864	0.0144959
676.943	0.0143960
677.021	0.0142571
677.099	0.0144025
677.177	0.0143348
677.255	0.0141360
677.333	0.0140717
677.411	0.0139724
677.489	0.0140694
677.568	0.0137100
677.646	0.0135291
677.724	0.0132935
677.802	0.0130356
677.880	0.0131699
677.958	0.0127812
678.036	0.0124732
678.114	0.0124540
678.193	0.0123694
678.271	0.0123428
678.349	0.0124167
678.427	0.0122659
678.505	0.0124216
678.583	0.0126002
678.661	0.0126933
678.739	0.0127467
678.818	0.0130716
678.896	0.0132310
678.974	0.0134608
679.052	0.0136588
679.130	0.0139227
679.208	0.0141423
679.286	0.0144067
679.364	0.0147168
679.443	0.0149315
679.521	0.0151170
679.599	0.0151762
679.677	0.0154023
679.755	0.0153564
679.833	0.0154232
679.911	0.0153522
679.989	0.0153151
680.068	0.0150858
680.146	0.0148591
680.224	0.0145802
680.302	0.0144543
680.380	0.0142342
680.458	0.0137070
680.536	0.0133600
680.614	0.0130663
680.693	0.0125333
680.771	0.0122227
680.849	0.0120232
680.927	0.0117655
681.005	0.0113430
681.083	0.0112038
681.161	0.0110076
681.239	0.0110180
681.318	0.0109624
681.396	0.0107653
681.474	0.0109438
681.552	0.0111221
681.630	0.0112733
681.708	0.0114457
681.786	0.0116883
681.864	0.0119893
681.943	0.0125591
682.021	0.0129897
682.099	0.0133266
682.177	0.0136298
682.255	0.0142898
682.333	0.0146689
682.411	0.0150822
682.489	0.0155956
682.568	0.0161358
682.646	0.0165068
682.724	0.0169942
682.802	0.0171761
682.880	0.0174480
682.958	0.0174741
683.036	0.0175081
683.114	0.0172813
683.193	0.0171439
683.271	0.0168670
683.349	0.0164717
683.427	0.0159087
683.505	0.0152293
683.583	0.0147315
683.661	0.0140824
683.739	0.0134630
683.818	0.0127086
683.896	0.0121054
683.974	0.0116373
684.052	0.0110275
684.130	0.0103687
684.208	0.0100898
684.286	0.00950356
684.364	0.00937119
684.443	0.00919250
684.521	0.00934555
684.599	0.00939377
684.677	0.00945412
684.755	0.00981003
684.833	0.0101385
684.911	0.0106869
684.989	0.0112937
685.068	0.0119505
685.146	0.0125130
685.224	0.0130801
685.302	0.0137927
685.380	0.0144586
685.458	0.0150771
685.536	0.0153397
685.614	0.0156689
685.693	0.0161734
685.771	0.0165768
685.849	0.0167090
685.927	0.0170326
686.005	0.0171345
686.083	0.0171783
686.161	0.0170908
686.239	0.0168594
686.318	0.0168031
686.396	0.0165879
686.474	0.0161864
686.552	0.0160878
686.630	0.0156652
686.708	0.0154482
686.786	0.0150784
686.864	0.0146454
686.943	0.0144519
687.021	0.0139673
687.099	0.0135223
687.177	0.0131624
687.255	0.0128255
687.333	0.0125793
687.411	0.0122102
687.489	0.0119687
687.568	0.0117834
687.646	0.0114838
687.724	0.0114169
687.802	0.0113415
687.880	0.0112221
687.958	0.0111597
688.036	0.0113343
688.114	0.0115248
688.193	0.0114864
688.271	0.0116134
688.349	0.0117633
688.427	0.0119125
688.505	0.0121273
688.583	0.0124861
688.661	0.0128073
688.739	0.0130405
688.818	0.0132720
688.896	0.0136374
688.974	0.0138954
689.052	0.0140303
689.130	0.0144844
689.208	0.0146601
689.286	0.0146895
689.364	0.0148303
689.443	0.0149770
689.521	0.0150395
689.599	0.0149568
689.677	0.0150209
689.755	0.0150190
689.833	0.0148235
689.911	0.0147990
689.989	0.0148573
690.068	0.0147320
690.146	0.0147336
690.224	0.0148991
690.302	0.0147308
690.380	0.0146407
690.458	0.0148497
690.536	0.0146352
690.614	0.0144954
690.693	0.0142990
690.771	0.0141359
690.849	0.0138491
690.927	0.0137968
691.005	0.0136642
691.083	0.0135388
691.161	0.0135863
691.239	0.0133874
691.318	0.0132041
691.396	0.0130592
691.474	0.0132761
691.552	0.0131490
691.630	0.0130077
691.708	0.0129167
691.786	0.0130135
691.864	0.0129836
691.943	0.0127728
692.021	0.0127657
692.099	0.0127078
692.177	0.0125169
692.255	0.0125506
692.333	0.0125834
692.411	0.0125095
692.489	0.0124982
692.568	0.0125309
692.646	0.0125565
692.724	0.0126933
692.802	0.0126754
692.880	0.0128269
692.958	0.0130647
693.036	0.0132488
693.114	0.0135889
693.193	0.0138103
693.271	0.0141068
693.349	0.0143485
693.427	0.0147151
693.505	0.0148991
693.583	0.0152216
693.661	0.0153537
693.739	0.0155112
693.818	0.0154446
693.896	0.0156126
693.974	0.0156236
694.052	0.0155090
694.130	0.0153127
694.208	0.0152917
694.286	0.0151020
694.364	0.0148185
694.443	0.0145654
694.521	0.0143501
694.599	0.0139912
694.677	0.0135612
694.755	0.0131709
694.833	0.0131024
694.911	0.0126394
694.989	0.0122772
695.068	0.0119275
695.146	0.0117524
695.224	0.0116242
695.302	0.0114252
695.380	0.0110617
695.458	0.0111642
695.536	0.0112195
695.614	0.0112709
695.693	0.0114165
695.771	0.0117150
695.849	0.0119168
695.927	0.0120995
696.005	0.0125600
696.083	0.0129277
696.161	0.0132089
696.239	0.0135756
696.318	0.0138094
696.396	0.0141498
696.474	0.0143656
696.552	0.0145835
696.630	0.0149197
696.708	0.0151554
696.786	0.0154233
696.864	0.0156632
696.943	0.0156168
697.021	0.0158427
697.099	0.0159554
697.177	0.0160127
697.255	0.0160410
697.333	0.0160893
697.411	0.0159943
697.489	0.0159110
697.568	0.0159248
697.646	0.0157977
697.724	0.0156106
697.802	0.0154269
697.880	0.0152170
697.958	0.0150070
698.036	0.0148018
698.114	0.0145498
698.193	0.0142105
698.271	0.0138034
698.349	0.0135266
698.427	0.0132293
698.505	0.0125417
698.583	0.0121348
698.661	0.0117294
698.739	0.0114465
698.818	0.0111115
698.896	0.0106748
698.974	0.0102214
699.052	0.0100838
699.130	0.00967209
699.208	0.00963432
699.286	0.00948135
699.364	0.00960785
699.443	0.00970360
699.521	0.00962929
699.599	0.0100820
699.677	0.0101505
699.755	0.0106429
699.833	0.0110752
699.911	0.0115612
699.989	0.0121780
700.068	0.0126447
700.146	0.0132342
700.224	0.0139441
700.302	0.0144001
700.380	0.0149697
700.458	0.0155418
700.536	0.0162240
700.614	0.0166035
700.693	0.0168994
700.771	0.0172449
700.849	0.0175497
700.927	0.0176386
701.005	0.0176463
701.083	0.0176333
701.161	0.0176142
701.239	0.0175341
701.318	0.0171821
701.396	0.0169083
701.474	0.0165998
701.552	0.0162402
701.630	0.0158405
701.708	0.0154289
701.786	0.0150858
701.864	0.0146111
701.943	0.0142852
702.021	0.0137789
702.099	0.0132686
702.177	0.0130460
702.255	0.0126407
702.333	0.0123926
702.411	0.0120052
702.489	0.0117789
702.568	0.0114983
702.646	0.0111572
702.724	0.0111660
702.802	0.0111497
702.880	0.0111196
702.958	0.0108812
703.036	0.0109817
703.114	0.0110977
703.193	0.0114006
703.271	0.0114648
703.349	0.0117530
703.427	0.0118051
703.505	0.0121114
703.583	0.0124087
703.661	0.0126474
703.739	0.0127803
703.818	0.0132135
703.896	0.0134813
703.974	0.0134972
704.052	0.0136137
704.130	0.0138774
704.208	0.0138653
704.286	0.0139796
704.364	0.0139779
704.443	0.0139289
704.521	0.0140514
704.599	0.0138683
704.677	0.0136214
704.755	0.0137494
704.833	0.0137344
704.911	0.0135205
704.989	0.0136422
705.068	0.0136079
705.146	0.0137436
705.224	0.0138837
705.302	0.0138156
705.380	0.0139629
705.458	0.0140448
705.536	0.0141248
705.614	0.0141586
705.693	0.0141592
705.771	0.0140675
705.849	0.0140829
705.927	0.0139422
706.005	0.0138004
706.083	0.0136514
706.161	0.0134624
706.239	0.0135098
706.318	0.0132590
706.396	0.0130961
706.474	0.0132708
706.552	0.0132461
706.630	0.0133022
706.708	0.0134710
706.786	0.0133733
706.864	0.0136375
706.943	0.0139803
707.021	0.0140691
707.099	0.0143060
707.177	0.0146288
707.255	0.0149852
707.333	0.0152695
707.411	0.0155250
707.489	0.0155842
707.568	0.0156414
707.646	0.0158206
707.724	0.0158191
707.802	0.0157885
707.880	0.0156415
707.958	0.0154904
708.036	0.0153925
708.114	0.0150756
708.193	0.0148126
708.271	0.0143359
708.349	0.0139947
708.427	0.0135861
708.505	0.0131994
708.583	0.0128284
708.661	0.0123553
708.739	0.0120658
708.818	0.0117345
708.896	0.0114880
708.974	0.0112534
709.052	0.0112687
709.130	0.0111113
709.208	0.0113546
709.286	0.0114487
709.364	0.0114417
709.443	0.0116091
709.521	0.0119100
709.599	0.0121444
709.677	0.0121944
709.755	0.0123901
709.833	0.0126503
709.911	0.0128020
709.989	0.0130612
710.068	0.0130642
710.146	0.0131630
710.224	0.0132600
710.302	0.0133224
710.380	0.0132269
710.458	0.0132903
710.536	0.0134949
710.614	0.0135493
710.693	0.0135955
710.771	0.0135908
710.849	0.0136746
710.927	0.0136899
711.005	0.0139026
711.083	0.0140352
711.161	0.0141278
711.239	0.0141904
711.318	0.0143577
711.396	0.0143433
711.474	0.0144996
711.552	0.0145473
711.630	0.0147541
711.708	0.0146898
711.786	0.0147540
711.864	0.0148267
711.943	0.0149359
712.021	0.0150854
712.099	0.0150836
712.177	0.0150961
712.255	0.0151623
712.333	0.0151664
712.411	0.0151297
712.489	0.0150311
712.568	0.0149693
712.646	0.0149747
712.724	0.0147942
712.802	0.0145957
712.880	0.0146857
712.958	0.0143215
713.036	0.0140819
713.114	0.0139645
713.193	0.0137109
713.271	0.0135127
713.349	0.0134103
713.427	0.0131860
713.505	0.0129818
713.583	0.0127802
713.661	0.0125597
713.739	0.0125076
713.818	0.0126188
713.896	0.0124694
713.974	0.0123901
714.052	0.0124458
714.130	0.0126460
714.208	0.0127527
714.286	0.0128257
714.364	0.0129253
714.443	0.0130881
714.521	0.0133329
714.599	0.0133698
714.677	0.0134628
714.755	0.0135127
714.833	0.0137011
714.911	0.0138153
714.989	0.0136937
715.068	0.0137914
715.146	0.0140318
715.224	0.0138846
715.302	0.0138953
715.380	0.0137730
715.458	0.0137665
715.536	0.0138217
715.614	0.0138592
715.693	0.0136738
715.771	0.0135920
715.849	0.0134203
715.927	0.0135249
716.005	0.0133961
716.083	0.0133525
716.161	0.0133595
716.239	0.0131185
716.318	0.0130385
716.396	0.0130075
716.474	0.0128533
716.552	0.0129766
716.630	0.0130919
716.708	0.0131984
716.786	0.0131847
716.864	0.0133713
716.943	0.0134216
717.021	0.0134856
717.099	0.0135528
717.177	0.0137312
717.255	0.0137326
717.333	0.0138649
717.411	0.0140485
717.489	0.0139622
717.568	0.0140932
717.646	0.0142710
717.724	0.0140730
717.802	0.0142318
717.880	0.0142071
717.958	0.0141592
718.036	0.0143394
718.114	0.0142587
718.193	0.0143649
718.271	0.0145287
718.349	0.0143810
718.427	0.0143480
718.505	0.0143420
718.583	0.0143622
718.661	0.0143558
718.739	0.0143015
718.818	0.0143392
718.896	0.0143810
718.974	0.0143269
719.052	0.0143507
719.130	0.0141756
719.208	0.0140936
719.286	0.0140674
719.364	0.0141949
719.443	0.0140855
719.521	0.0141046
719.599	0.0142189
719.677	0.0141116
719.755	0.0140656
719.833	0.0139634
719.911	0.0140234
719.989	0.0138120
720.068	0.0137965
720.146	0.0136301
720.224	0.0137248
720.302	0.0137150
720.380	0.0136734
720.458	0.0136681
720.536	0.0135297
720.614	0.0136091
720.693	0.0135619
720.771	0.0135404
720.849	0.0135050
720.927	0.0134335
721.005	0.0134817
721.083	0.0134679
721.161	0.0132660
721.239	0.0130596
721.318	0.0130750
721.396	0.0128327
721.474	0.0126783
721.552	0.0124724
721.630	0.0121569
721.708	0.0118353
721.786	0.0115876
721.864	0.0115004
721.943	0.0114375
722.021	0.0113161
722.099	0.0111073
722.177	0.0111514
722.255	0.0112313
722.333	0.0111942
722.411	0.0111933
722.489	0.0115179
722.568	0.0117380
722.646	0.0119199
722.724	0.0122585
722.802	0.0125027
722.880	0.0128716
722.958	0.0130474
723.036	0.0135316
723.114	0.0136200
723.193	0.0138332
723.271	0.0141027
723.349	0.0143687
723.427	0.0147050
723.505	0.0148899
723.583	0.0148769
723.661	0.0151387
723.739	0.0151772
723.818	0.0151602
723.896	0.0152200
723.974	0.0153596
724.052	0.0151799
724.130	0.0152990
724.208	0.0152718
724.286	0.0152103
724.364	0.0152872
724.443	0.0151289
724.521	0.0152145
724.599	0.0152563
724.677	0.0151732
724.755	0.0152481
724.833	0.0150742
724.911	0.0151820
724.989	0.0150423
725.068	0.0150311
725.146	0.0150444
725.224	0.0149416
725.302	0.0147173
725.380	0.0145585
725.458	0.0145246
725.536	0.0143657
725.614	0.0142494
725.693	0.0140493
725.771	0.0138960
725.849	0.0137209
725.927	0.0136221
726.005	0.0134570
726.083	0.0132391
726.161	0.0129398
726.239	0.0128529
726.318	0.0126379
726.396	0.0125169
726.474	0.0122729
726.552	0.0120713
726.630	0.0117503
726.708	0.0117722
726.786	0.0116378
726.864	0.0115607
726.943	0.0113696
727.021	0.0111474
727.099	0.0113004
727.177	0.0112824
727.255	0.0111440
727.333	0.0110575
727.411	0.0112967
727.489	0.0111911
727.568	0.0111732
727.646	0.0111754
727.724	0.0113692
727.802	0.0116125
727.880	0.0118525
727.958	0.0120469
728.036	0.0123685
728.114	0.0126066
728.193	0.0128056
728.271	0.0133251
728.349	0.0136726
728.427	0.0140737
728.505	0.0145419
728.583	0.0147037
728.661	0.0149198
728.739	0.0149723
728.818	0.0152946
728.896	0.0153991
728.974	0.0152421
729.052	0.0153910
729.130	0.0153590
729.208	0.0153465
729.286	0.0153518
729.364	0.0152509
729.443	0.0151581
729.521	0.0150430
729.599	0.0151056
729.677	0.0149593
729.755	0.0148885
729.833	0.0147354
729.911	0.0146294
729.989	0.0146342
730.068	0.0145587
730.146	0.0145907
730.224	0.0144845
730.302	0.0143613
730.380	0.0144101
730.458	0.0144364
730.536	0.0144325
730.614	0.0143876
730.693	0.0142095
730.771	0.0144444
730.849	0.0142653
730.927	0.0142328
731.005	0.0142653
731.083	0.0141440
731.161	0.0140218
731.239	0.0139382
731.318	0.0139644
731.396	0.0137892
731.474	0.0136298
731.552	0.0134281
731.630	0.0133523
731.708	0.0132247
731.786	0.0131731
731.864	0.0131351
731.943	0.0129637
732.021	0.0131016
732.099	0.0128899
732.177	0.0129501
732.255	0.0129041
732.333	0.0128232
732.411	0.0130106
732.489	0.0130417
732.568	0.0129939
732.646	0.0129067
732.724	0.0129730
732.802	0.0129755
732.880	0.0128429
732.958	0.0129301
733.036	0.0129961
733.114	0.0129073
733.193	0.0129300
733.271	0.0129295
733.349	0.0129288
733.427	0.0128781
733.505	0.0129069
733.583	0.0129360
733.661	0.0128957
733.739	0.0130244
733.818	0.0130472
733.896	0.0130051
733.974	0.0130446
734.052	0.0131154
734.130	0.0130886
734.208	0.0131333
734.286	0.0130824
734.364	0.0131512
734.443	0.0131762
734.521	0.0132741
734.599	0.0132942
734.677	0.0133677
734.755	0.0134412
734.833	0.0135445
734.911	0.0134948
734.989	0.0136331
735.068	0.0137575
735.146	0.0138004
735.224	0.0138271
735.302	0.0140724
735.380	0.0142466
735.458	0.0139799
735.536	0.0142163
735.614	0.0142593
735.693	0.0143332
735.771	0.0144106
735.849	0.0144595
735.927	0.0145702
736.005	0.0147003
736.083	0.0145141
736.161	0.0146868
736.239	0.0148349
736.318	0.0148186
736.396	0.0148869
736.474	0.0148624
736.552	0.0149372
736.630	0.0149885
736.708	0.0150009
736.786	0.0150585
736.864	0.0151195
736.943	0.0150312
737.021	0.0150552
737.099	0.0150586
737.177	0.0147952
737.255	0.0147142
737.333	0.0144226
737.411	0.0142487
737.489	0.0142105
737.568	0.0138965
737.646	0.0136663
737.724	0.0135871
737.802	0.0134155
737.880	0.0132878
737.958	0.0129588
738.036	0.0129285
738.114	0.0128098
738.193	0.0126195
738.271	0.0126750
738.349	0.0123694
738.427	0.0124279
738.505	0.0124242
738.583	0.0124147
738.661	0.0124227
738.739	0.0125085
738.818	0.0127519
738.896	0.0126536
738.974	0.0126731
739.052	0.0128312
739.130	0.0128669
739.208	0.0126488
739.286	0.0126482
739.364	0.0127110
739.443	0.0126434
739.521	0.0125420
739.599	0.0125191
739.677	0.0122828
739.755	0.0124392
739.833	0.0123367
739.911	0.0122928
739.989	0.0122923
740.068	0.0122772
740.146	0.0123485
740.224	0.0126817
740.302	0.0128744
740.380	0.0130740
740.458	0.0135422
740.536	0.0136271
740.614	0.0139137
740.693	0.0141880
740.771	0.0144859
740.849	0.0146168
740.927	0.0146609
741.005	0.0148836
741.083	0.0150951
741.161	0.0150433
741.239	0.0150102
741.318	0.0149953
741.396	0.0149262
741.474	0.0149387
741.552	0.0147484
741.630	0.0146651
741.708	0.0144239
741.786	0.0143594
741.864	0.0142282
741.943	0.0141826
742.021	0.0140933
742.099	0.0138583
742.177	0.0137552
742.255	0.0138231
742.333	0.0139999
742.411	0.0139101
742.489	0.0139865
742.568	0.0140108
742.646	0.0140659
742.724	0.0140131
742.802	0.0141334
742.880	0.0140369
742.958	0.0141367
743.036	0.0140353
743.114	0.0139464
743.193	0.0139800
743.271	0.0141035
743.349	0.0138745
743.427	0.0136472
743.505	0.0135209
743.583	0.0133895
743.661	0.0132396
743.739	0.0131037
743.818	0.0129549
743.896	0.0129154
743.974	0.0127859
744.052	0.0127840
744.130	0.0128018
744.208	0.0127905
744.286	0.0126852
744.364	0.0127345
744.443	0.0126953
744.521	0.0127837
744.599	0.0130312
744.677	0.0131239
744.755	0.0131321
744.833	0.0132323
744.911	0.0132124
744.989	0.0134818
745.068	0.0135619
745.146	0.0136535
745.224	0.0135431
745.302	0.0136320
745.380	0.0134945
745.458	0.0135665
745.536	0.0135201
745.614	0.0134507
745.693	0.0132964
745.771	0.0133779
745.849	0.0133625
745.927	0.0132111
746.005	0.0132980
746.083	0.0133055
746.161	0.0134473
746.239	0.0132834
746.318	0.0133981
746.396	0.0134517
746.474	0.0136160
746.552	0.0136237
746.630	0.0137411
746.708	0.0137600
746.786	0.0138371
746.864	0.0139733
746.943	0.0139721
747.021	0.0140206
747.099	0.0139642
747.177	0.0139751
747.255	0.0139793
747.333	0.0138971
747.411	0.0138036
747.489	0.0137592
747.568	0.0134525
747.646	0.0136243
747.724	0.0134500
747.802	0.0133627
747.880	0.0134081
747.958	0.0132851
748.036	0.0132719
748.114	0.0133401
748.193	0.0132926
748.271	0.0132389
748.349	0.0133778
748.427	0.0135158
748.505	0.0135606
748.583	0.0135593
748.661	0.0137502
748.739	0.0138821
748.818	0.0139539
748.896	0.0141109
748.974	0.0140820
749.052	0.0140273
749.130	0.0141637
749.208	0.0144447
749.286	0.0143559
749.364	0.0144131
749.443	0.0144771
749.521	0.0144035
749.599	0.0144418
749.677	0.0141830
749.755	0.0142128
749.833	0.0141795
749.911	0.0141347
749.989	0.0139736
750.068	0.0139714
750.146	0.0140990
750.224	0.0140400
750.302	0.0138741
750.380	0.0138662
750.458	0.0139153
750.536	0.0139408
750.614	0.0140015
750.693	0.0140967
750.771	0.0141222
750.849	0.0141268
750.927	0.0140887
751.005	0.0140350
751.083	0.0140240
751.161	0.0139411
751.239	0.0139766
751.318	0.0139187
751.396	0.0138728
751.474	0.0137061
751.552	0.0134907
751.630	0.0134966
751.708	0.0133628
751.786	0.0130106
751.864	0.0129786
751.943	0.0128211
752.021	0.0126337
752.099	0.0127566
752.177	0.0127419
752.255	0.0124128
752.333	0.0126141
752.411	0.0126340
752.489	0.0125008
752.568	0.0126972
752.646	0.0126908
752.724	0.0127856
752.802	0.0131857
752.880	0.0131259
752.958	0.0133011
753.036	0.0133466
753.114	0.0134907
753.193	0.0136771
753.271	0.0137443
753.349	0.0137411
753.427	0.0137946
753.505	0.0140776
753.583	0.0141592
753.661	0.0140696
753.739	0.0141756
753.818	0.0141748
753.896	0.0142497
753.974	0.0140752
754.052	0.0141248
754.130	0.0142397
754.208	0.0140598
754.286	0.0141273
754.364	0.0141747
754.443	0.0141869
754.521	0.0140517
754.599	0.0139027
754.677	0.0140812
754.755	0.0142169
754.833	0.0139641
754.911	0.0139713
754.989	0.0142888
755.068	0.0141714
755.146	0.0140520
755.224	0.0139683
755.302	0.0140407
755.380	0.0138847
755.458	0.0139475
755.536	0.0140097
755.614	0.0138098
755.693	0.0135880
755.771	0.0137021
755.849	0.0136089
755.927	0.0135885
756.005	0.0135594
756.083	0.0135135
756.161	0.0133012
756.239	0.0134842
756.318	0.0135832
756.396	0.0136105
756.474	0.0136798
756.552	0.0136126
756.630	0.0137219
756.708	0.0137682
756.786	0.0137244
756.864	0.0137444
756.943	0.0136698
757.021	0.0137807
757.099	0.0135213
757.177	0.0135709
757.255	0.0136842
757.333	0.0135109
757.411	0.0134458
757.489	0.0133310
757.568	0.0133352
757.646	0.0134377
757.724	0.0135266
757.802	0.0133244
757.880	0.0133048
757.958	0.0133250
758.036	0.0130874
758.114	0.0131870
758.193	0.0133391
758.271	0.0132600
758.349	0.0132565
758.427	0.0132278
758.505	0.0131581
758.583	0.0130295
758.661	0.0131312
758.739	0.0131458
758.818	0.0131869
758.896	0.0131531
758.974	0.0132217
759.052	0.0132211
759.130	0.0131503
759.208	0.0132554
759.286	0.0132580
759.364	0.0132612
759.443	0.0134541
759.521	0.0135124
759.599	0.0134603
759.677	0.0134818
759.755	0.0137282
759.833	0.0136907
759.911	0.0135900
759.989	0.0135313
760.068	0.0138021
760.146	0.0138354
760.224	0.0136383
760.302	0.0136549
760.380	0.0136479
760.458	0.0136263
760.536	0.0134571
760.614	0.0135040
760.693	0.0135672
760.771	0.0136750
760.849	0.0137012
760.927	0.0137684
761.005	0.0135852
761.083	0.0137594
761.161	0.0138592
761.239	0.0136374
761.318	0.0138922
761.396	0.0138530
761.474	0.0138120
761.552	0.0137716
761.630	0.0137292
761.708	0.0137009
761.786	0.0137620
761.864	0.0137360
761.943	0.0137498
762.021	0.0136517
762.099	0.0137405
762.177	0.0137038
762.255	0.0136346
762.333	0.0137631
762.411	0.0136637
762.489	0.0137942
762.568	0.0137405
762.646	0.0137060
762.724	0.0138358
762.802	0.0137283
762.880	0.0138753
762.958	0.0136111
763.036	0.0136847
763.114	0.0138006
763.193	0.0136636
763.271	0.0135132
763.349	0.0136652
763.427	0.0135841
763.505	0.0135820
763.583	0.0135654
763.661	0.0135766
763.739	0.0134103
763.818	0.0135171
763.896	0.0133283
763.974	0.0134338
764.052	0.0135258
764.130	0.0134920
764.208	0.0132951
764.286	0.0133073
764.364	0.0132303
764.443	0.0133854
764.521	0.0133268
764.599	0.0131976
764.677	0.0131857
764.755	0.0131860
764.833	0.0132384
764.911	0.0131905
764.989	0.0133221
765.068	0.0132449
765.146	0.0132305
765.224	0.0132661
765.302	0.0133241
765.380	0.0134002
765.458	0.0133038
765.536	0.0131155
765.614	0.0133216
765.693	0.0133462
765.771	0.0134090
765.849	0.0135329
765.927	0.0135627
766.005	0.0136853
766.083	0.0135273
766.161	0.0134995
766.239	0.0135996
766.318	0.0136422
766.396	0.0135925
766.474	0.0138702
766.552	0.0138934
766.630	0.0138655
766.708	0.0139498
766.786	0.0139280
766.864	0.0139648
766.943	0.0139497
767.021	0.0139175
767.099	0.0138580
767.177	0.0138316
767.255	0.0139616
767.333	0.0137890
767.411	0.0137865
767.489	0.0136041
767.568	0.0136376
767.646	0.0135492
767.724	0.0135954
767.802	0.0133594
767.880	0.0133842
767.958	0.0135894
768.036	0.0133736
768.114	0.0134589
768.193	0.0135291
768.271	0.0134061
768.349	0.0134200
768.427	0.0134798
768.505	0.0136118
768.583	0.0136833
768.661	0.0137294
768.739	0.0137920
768.818	0.0137241
768.896	0.0138090
768.974	0.0138486
769.052	0.0138474
769.130	0.0138047
769.208	0.0137151
769.286	0.0138205
769.364	0.0136507
769.443	0.0137686
769.521	0.0135847
769.599	0.0136014
769.677	0.0135498
769.755	0.0134407
769.833	0.0135345
769.911	0.0135820
769.989	0.0134135
770.068	0.0133140
770.146	0.0135451
770.224	0.0135501
770.302	0.0136418
770.380	0.0135098
770.458	0.0134813
770.536	0.0134737
770.614	0.0134490
770.693	0.0134702
770.771	0.0136162
770.849	0.0134950
770.927	0.0134685
771.005	0.0135732
771.083	0.0135170
771.161	0.0134159
771.239	0.0135999
771.318	0.0133935
771.396	0.0133675
771.474	0.0133842
771.552	0.0134747
771.630	0.0134869
771.708	0.0134890
771.786	0.0134943
771.864	0.0136195
771.943	0.0136105
772.021	0.0136019
772.099	0.0136269
772.177	0.0136298
772.255	0.0137810
772.333	0.0138947
772.411	0.0138788
772.489	0.0138624
772.568	0.0139468
772.646	0.0139095
772.724	0.0138587
772.802	0.0139114
772.880	0.0140783
772.958	0.0140556
773.036	0.0139367
773.114	0.0137362
773.193	0.0139977
773.271	0.0139085
773.349	0.0138612
773.427	0.0139510
773.505	0.0137930
773.583	0.0139072
773.661	0.0138266
773.739	0.0138113
773.818	0.0137856
773.896	0.0137864
773.974	0.0136700
774.052	0.0137327
774.130	0.0137006
774.208	0.0136174
774.286	0.0135841
774.364	0.0136318
774.443	0.0136480
774.521	0.0134388
774.599	0.0133805
774.677	0.0135413
774.755	0.0134879
774.833	0.0135565
774.911	0.0135097
774.989	0.0134131
775.068	0.0135435
775.146	0.0134094
775.224	0.0133545
775.302	0.0132508
775.380	0.0132085
775.458	0.0134301
775.536	0.0131560
775.614	0.0132022
775.693	0.0129991
775.771	0.0131336
775.849	0.0131601
775.927	0.0132143
776.005	0.0133771
776.083	0.0135900
776.161	0.0135188
776.239	0.0134771
776.318	0.0135925
776.396	0.0136811
776.474	0.0139688
776.552	0.0140143
776.630	0.0140579
776.708	0.0140007
776.786	0.0140691
776.864	0.0140156
776.943	0.0141593
777.021	0.0140522
777.099	0.0140773
777.177	0.0139941
777.255	0.0139133
777.333	0.0138569
777.411	0.0137453
777.489	0.0136320
777.568	0.0136786
777.646	0.0135680
777.724	0.0136449
777.802	0.0135196
777.880	0.0135567
777.958	0.0134070
778.036	0.0132747
778.114	0.0133419
778.193	0.0134521
778.271	0.0133334
778.349	0.0132652
778.427	0.0134334
778.505	0.0133713
778.583	0.0133656
778.661	0.0135450
778.739	0.0134114
778.818	0.0135838
778.896	0.0135418
778.974	0.0135397
779.052	0.0137353
779.130	0.0137028
779.208	0.0137322
779.286	0.0138755
779.364	0.0138036
779.443	0.0138302
779.521	0.0138408
779.599	0.0139021
779.677	0.0139276
779.755	0.0139417
779.833	0.0138352
779.911	0.0137270
779.989	0.0137560
780.068	0.0136484
780.146	0.0137171
780.224	0.0137386
780.302	0.0136434
780.380	0.0135404
780.458	0.0134131
780.536	0.0134351
780.614	0.0133954
780.693	0.0133810
780.771	0.0132671
780.849	0.0133270
780.927	0.0132819
781.005	0.0131567
781.083	0.0131438
781.161	0.0129514
781.239	0.0130650
781.318	0.0132278
781.396	0.0133189
781.474	0.0132860
781.552	0.0132723
781.630	0.0131446
781.708	0.0132893
781.786	0.0134659
781.864	0.0134483
781.943	0.0134489
782.021	0.0134931
782.099	0.0135091
782.177	0.0136658
782.255	0.0136430
782.333	0.0136112
782.411	0.0136730
782.489	0.0137470
782.568	0.0137786
782.646	0.0136184
782.724	0.0138498
782.802	0.0138910
782.880	0.0137892
782.958	0.0137984
783.036	0.0138372
783.114	0.0138996
783.193	0.0137519
783.271	0.0136594
783.349	0.0137959
783.427	0.0137656
783.505	0.0138332
783.583	0.0137675
783.661	0.0136751
783.739	0.0137012
783.818	0.0135143
783.896	0.0134467
783.974	0.0134254
784.052	0.0131828
784.130	0.0131834
784.208	0.0131898
784.286	0.0132973
784.364	0.0132367
784.443	0.0131890
784.521	0.0131128
784.599	0.0131731
784.677	0.0133102
784.755	0.0132346
784.833	0.0134061
784.911	0.0134698
784.989	0.0136288
785.068	0.0136634
785.146	0.0137128
785.224	0.0136855
785.302	0.0137249
785.380	0.0136771
785.458	0.0139156
785.536	0.0139980
785.614	0.0138721
785.693	0.0138949
785.771	0.0138984
785.849	0.0139909
785.927	0.0139697
786.005	0.0138725
786.083	0.0138729
786.161	0.0140379
786.239	0.0140270
786.318	0.0140965
786.396	0.0139553
786.474	0.0140311
786.552	0.0139848
786.630	0.0141233
786.708	0.0139702
786.786	0.0140552
786.864	0.0140436
786.943	0.0139718
787.021	0.0139171
787.099	0.0138392
787.177	0.0137389
787.255	0.0138275
787.333	0.0136287
787.411	0.0134030
787.489	0.0134635
787.568	0.0133366
787.646	0.0132898
787.724	0.0134650
787.802	0.0132275
787.880	0.0130565
787.958	0.0132982
788.036	0.0131955
788.114	0.0130365
788.193	0.0132617
788.271	0.0131605
788.349	0.0131706
788.427	0.0131363
788.505	0.0131690
788.583	0.0130701
788.661	0.0131507
788.739	0.0133556
788.818	0.0131937
788.896	0.0132383
788.974	0.0131502
789.052	0.0133409
789.130	0.0133503
789.208	0.0133376
789.286	0.0134203
789.364	0.0131387
789.443	0.0132506
789.521	0.0134846
789.599	0.0135224
789.677	0.0134124
789.755	0.0132803
789.833	0.0133698
789.911	0.0136416
789.989	0.0137024
790.068	0.0134989
790.146	0.0136337
790.224	0.0136768
790.302	0.0135725
790.380	0.0137072
790.458	0.0137536
790.536	0.0138250
790.614	0.0137422
790.693	0.0139074
790.771	0.0139667
790.849	0.0138321
790.927	0.0137727
791.005	0.0139916
791.083	0.0138984
791.161	0.0139048
791.239	0.0139771
791.318	0.0138647
791.396	0.0137753
791.474	0.0137541
791.552	0.0136608
791.630	0.0136888
791.708	0.0136808
791.786	0.0135909
791.864	0.0135947
791.943	0.0134914
792.021	0.0135371
792.099	0.0134469
792.177	0.0133573
792.255	0.0134116
792.333	0.0134297
792.411	0.0132574
792.489	0.0134375
792.568	0.0134308
792.646	0.0133263
792.724	0.0133403
792.802	0.0132735
792.880	0.0132887
792.958	0.0133497
793.036	0.0134054
793.114	0.0133339
793.193	0.0133766
793.271	0.0134720
793.349	0.0135239
793.427	0.0136278
793.505	0.0134459
793.583	0.0134107
793.661	0.0136519
793.739	0.0138034
793.818	0.0136780
793.896	0.0138653
793.974	0.0138826
794.052	0.0139146
794.130	0.0138582
794.208	0.0138875
794.286	0.0139166
794.364	0.0138677
794.443	0.0138220
794.521	0.0139946
794.599	0.0139898
794.677	0.0139051
794.755	0.0139290
794.833	0.0138905
794.911	0.0137730
794.989	0.0138264
795.068	0.0138741
795.146	0.0138215
795.224	0.0136108
795.302	0.0138215
795.380	0.0138599
795.458	0.0135670
795.536	0.0134875
795.614	0.0134964
795.693	0.0133892
795.771	0.0132304
795.849	0.0132800
795.927	0.0132020
796.005	0.0132166
796.083	0.0130077
796.161	0.0129478
796.239	0.0129238
796.318	0.0128610
796.396	0.0129620
796.474	0.0130152
796.552	0.0129650
796.630	0.0130819
796.708	0.0131909
796.786	0.0131604
796.864	0.0132522
796.943	0.0133703
797.021	0.0134609
797.099	0.0134864
797.177	0.0136398
797.255	0.0136933
797.333	0.0139288
797.411	0.0138393
797.489	0.0140820
797.568	0.0140673
797.646	0.0141091
797.724	0.0140619
797.802	0.0141784
797.880	0.0143359
797.958	0.0143452
798.036	0.0142465
798.114	0.0142955
798.193	0.0142001
798.271	0.0141001
798.349	0.0141012
798.427	0.0140895
798.505	0.0140462
798.583	0.0138319
798.661	0.0136530
798.739	0.0136977
798.818	0.0137802
798.896	0.0136213
798.974	0.0135883
799.052	0.0133849
799.130	0.0134838
799.208	0.0134705
799.286	0.0133607
799.364	0.0133845
799.443	0.0133575
799.521	0.0134225
799.599	0.0133120
799.677	0.0133160
799.755	0.0133448
799.833	0.0132789
799.911	0.0134011
799.989	0.0134653
800.068	0.0132384
800.146	0.0132906
800.224	0.0133490
800.302	0.0133909
800.380	0.0133982
800.458	0.0134896
800.536	0.0132877
800.614	0.0132916
800.693	0.0132906
800.771	0.0134943
800.849	0.0134269
800.927	0.0134660
801.005	0.0133195
801.083	0.0134790
801.161	0.0133199
801.239	0.0134214
801.318	0.0133103
801.396	0.0134643
801.474	0.0135194
801.552	0.0133366
801.630	0.0134335
801.708	0.0135699
801.786	0.0134995
801.864	0.0136050
801.943	0.0134815
802.021	0.0136629
802.099	0.0136433
802.177	0.0135986
802.255	0.0136958
802.333	0.0135499
802.411	0.0136306
802.489	0.0136682
802.568	0.0136767
802.646	0.0138070
802.724	0.0138371
802.802	0.0138173
802.880	0.0138483
802.958	0.0138412
803.036	0.0138647
803.114	0.0138116
803.193	0.0139468
803.271	0.0138275
803.349	0.0139245
803.427	0.0138780
803.505	0.0139172
803.583	0.0138519
803.661	0.0139310
803.739	0.0139658
803.818	0.0140044
803.896	0.0139577
803.974	0.0137283
804.052	0.0139190
804.130	0.0139433
804.208	0.0138755
804.286	0.0138510
804.364	0.0138469
804.443	0.0137838
804.521	0.0138418
804.599	0.0138324
804.677	0.0136350
804.755	0.0136046
804.833	0.0135869
804.911	0.0133852
804.989	0.0134290
805.068	0.0134184
805.146	0.0134618
805.224	0.0133546
805.302	0.0132897
805.380	0.0132080
805.458	0.0132157
805.536	0.0132460
805.614	0.0131557
805.693	0.0132584
805.771	0.0131881
805.849	0.0132401
805.927	0.0134667
806.005	0.0133260
806.083	0.0132970
806.161	0.0133855
806.239	0.0135154
806.318	0.0136144
806.396	0.0135252
806.474	0.0135471
806.552	0.0135297
806.630	0.0136536
806.708	0.0136939
806.786	0.0137373
806.864	0.0137103
806.943	0.0135574
807.021	0.0135815
807.099	0.0136824
807.177	0.0135799
807.255	0.0137025
807.333	0.0135197
807.411	0.0136797
807.489	0.0136289
807.568	0.0135210
807.646	0.0135674
807.724	0.0137341
807.802	0.0136510
807.880	0.0137269
807.958	0.0137635
808.036	0.0137744
808.114	0.0137637
808.193	0.0137679
808.271	0.0139059
808.349	0.0137421
808.427	0.0137900
808.505	0.0138689
808.583	0.0139772
808.661	0.0140221
808.739	0.0141498
808.818	0.0140910
808.896	0.0139802
808.974	0.0141913
809.052	0.0141693
809.130	0.0141928
809.208	0.0141589
809.286	0.0140355
809.364	0.0140652
809.443	0.0139014
809.521	0.0138963
809.599	0.0139094
809.677	0.0138268
809.755	0.0136710
809.833	0.0136388
809.911	0.0134879
809.989	0.0134934
810.068	0.0134457
810.146	0.0133157
810.224	0.0132968
810.302	0.0134278
810.380	0.0133062
810.458	0.0131538
810.536	0.0133274
810.614	0.0131831
810.693	0.0131766
810.771	0.0131184
810.849	0.0131393
810.927	0.0132870
811.005	0.0131300
811.083	0.0131520
811.161	0.0132742
811.239	0.0133031
811.318	0.0131569
811.396	0.0133379
811.474	0.0133756
811.552	0.0135014
811.630	0.0135516
811.708	0.0137213
811.786	0.0136685
811.864	0.0137620
811.943	0.0138795
812.021	0.0138320
812.099	0.0138000
812.177	0.0139835
812.255	0.0140599
812.333	0.0140927
812.411	0.0141469
812.489	0.0141146
812.568	0.0141784
812.646	0.0141063
812.724	0.0139729
812.802	0.0141119
812.880	0.0141629
812.958	0.0140200
813.036	0.0140647
813.114	0.0138510
813.193	0.0138757
813.271	0.0138782
813.349	0.0137724
813.427	0.0137473
813.505	0.0136855
813.583	0.0135710
813.661	0.0134695
813.739	0.0134214
813.818	0.0134134
813.896	0.0133311
813.974	0.0131883
814.052	0.0132943
814.130	0.0132304
814.208	0.0132635
814.286	0.0133529
814.364	0.0131767
814.443	0.0133255
814.521	0.0132829
814.599	0.0132568
814.677	0.0133615
814.755	0.0135062
814.833	0.0136359
814.911	0.0135014
814.989	0.0136779
815.068	0.0136625
815.146	0.0136994
815.224	0.0136832
815.302	0.0136598
815.380	0.0139173
815.458	0.0138969
815.536	0.0138808
815.614	0.0139027
815.693	0.0140357
815.771	0.0139143
815.849	0.0140326
815.927	0.0138992
816.005	0.0139088
816.083	0.0139234
816.161	0.0139925
816.239	0.0141016
816.318	0.0139539
816.396	0.0138026
816.474	0.0138369
816.552	0.0139123
816.630	0.0137524
816.708	0.0136539
816.786	0.0136957
816.864	0.0137477
816.943	0.0136314
817.021	0.0135912
817.099	0.0136276
817.177	0.0135249
817.255	0.0134193
817.333	0.0134743
817.411	0.0132872
817.489	0.0133853
817.568	0.0133891
817.646	0.0133824
817.724	0.0133714
817.802	0.0132641
817.880	0.0132663
817.958	0.0133782
818.036	0.0133293
818.114	0.0131899
818.193	0.0132520
818.271	0.0133097
818.349	0.0133125
818.427	0.0133070
818.505	0.0133666
818.583	0.0132812
818.661	0.0132458
818.739	0.0133939
818.818	0.0132608
818.896	0.0132936
818.974	0.0134631
819.052	0.0133694
819.130	0.0135262
819.208	0.0135217
819.286	0.0135315
819.364	0.0136429
819.443	0.0135333
819.521	0.0135788
819.599	0.0136440
819.677	0.0136311
819.755	0.0138699
819.833	0.0136772
819.911	0.0136534
819.989	0.0136637
820.068	0.0135931
820.146	0.0137592
820.224	0.0137923
820.302	0.0137183
820.380	0.0138052
820.458	0.0136620
820.536	0.0137658
820.614	0.0137048
820.693	0.0137598
820.771	0.0136897
820.849	0.0137071
820.927	0.0137132
821.005	0.0137330
821.083	0.0136326
821.161	0.0136203
821.239	0.0137215
821.318	0.0137191
821.396	0.0137334
821.474	0.0137590
821.552	0.0138177
821.630	0.0137461
821.708	0.0138196
821.786	0.0137911
821.864	0.0138363
821.943	0.0138179
822.021	0.0136789
822.099	0.0137143
822.177	0.0136918
822.255	0.0136813
822.333	0.0136993
822.411	0.0135840
822.489	0.0135400
822.568	0.0133973
822.646	0.0134825
822.724	0.0133757
822.802	0.0132502
822.880	0.0134761
822.958	0.0133331
823.036	0.0131750
823.114	0.0131892
823.193	0.0132239
823.271	0.0132108
823.349	0.0131435
823.427	0.0131882
823.505	0.0132472
823.583	0.0132307
823.661	0.0130643
823.739	0.0130289
823.818	0.0133599
823.896	0.0132117
823.974	0.0131033
824.052	0.0132249
824.130	0.0131760
824.208	0.0132083
824.286	0.0132635
824.364	0.0133002
824.443	0.0134213
824.521	0.0134722
824.599	0.0134622
824.677	0.0135814
824.755	0.0134701
824.833	0.0134254
824.911	0.0134312
824.989	0.0136280
825.068	0.0137500
825.146	0.0137676
825.224	0.0136746
825.302	0.0138369
825.380	0.0138760
825.458	0.0138892
825.536	0.0137475
825.614	0.0139564
825.693	0.0140506
825.771	0.0139859
825.849	0.0139108
825.927	0.0139594
826.005	0.0139288
826.083	0.0138881
826.161	0.0137969
826.239	0.0139769
826.318	0.0139337
826.396	0.0138000
826.474	0.0138767
826.552	0.0138983
826.630	0.0136893
826.708	0.0137231
826.786	0.0136398
826.864	0.0138090
826.943	0.0137009
827.021	0.0136031
827.099	0.0136828
827.177	0.0136502
827.255	0.0135947
827.333	0.0135885
827.411	0.0136997
827.489	0.0135666
827.568	0.0134391
827.646	0.0135307
827.724	0.0135391
827.802	0.0136022
827.880	0.0135917
827.958	0.0136832
828.036	0.0136496
828.114	0.0136041
828.193	0.0134519
828.271	0.0136395
828.349	0.0137733
828.427	0.0137768
828.505	0.0137552
828.583	0.0136697
828.661	0.0138454
828.739	0.0137027
828.818	0.0135871
828.896	0.0136175
828.974	0.0137208
829.052	0.0136308
829.130	0.0137840
829.208	0.0137214
829.286	0.0136297
829.364	0.0138031
829.443	0.0136489
829.521	0.0135157
829.599	0.0135406
829.677	0.0137075
829.755	0.0137073
829.833	0.0136639
829.911	0.0137154
829.989	0.0136143
830.068	0.0136264
830.146	0.0135979
830.224	0.0135150
830.302	0.0136382
830.380	0.0136921
830.458	0.0135120
830.536	0.0135265
830.614	0.0136395
830.693	0.0137413
830.771	0.0137152
830.849	0.0136730
830.927	0.0137020
831.005	0.0138051
831.083	0.0135830
831.161	0.0136928
831.239	0.0137634
831.318	0.0138326
831.396	0.0138374
831.474	0.0136830
831.552	0.0137572
831.630	0.0137624
831.708	0.0138396
831.786	0.0138122
831.864	0.0137495
831.943	0.0138580
832.021	0.0137740
832.099	0.0138509
832.177	0.0137627
832.255	0.0136825
832.333	0.0138228
832.411	0.0137051
832.489	0.0136368
832.568	0.0135988
832.646	0.0135352
832.724	0.0136569
832.802	0.0135004
832.880	0.0135953
832.958	0.0134106
833.036	0.0134506
833.114	0.0134913
833.193	0.0134445
833.271	0.0135840
833.349	0.0136437
833.427	0.0135116
833.505	0.0135864
833.583	0.0135327
833.661	0.0136902
833.739	0.0136706
833.818	0.0135680
833.896	0.0138904
833.974	0.0138728
834.052	0.0137864
834.130	0.0137511
834.208	0.0137395
834.286	0.0136593
834.364	0.0137192
834.443	0.0136348
834.521	0.0136469
834.599	0.0136945
834.677	0.0136953
834.755	0.0135674
834.833	0.0135712
834.911	0.0135310
834.989	0.0134718
835.068	0.0135664
835.146	0.0134481
835.224	0.0135162
835.302	0.0135092
835.380	0.0134985
835.458	0.0134619
835.536	0.0134488
835.614	0.0133692
835.693	0.0134309
835.771	0.0135358
835.849	0.0135297
835.927	0.0134563
836.005	0.0132725
836.083	0.0134473
836.161	0.0134438
836.239	0.0133545
836.318	0.0133742
836.396	0.0133575
836.474	0.0133812
836.552	0.0133646
836.630	0.0135690
836.708	0.0135324
836.786	0.0135300
836.864	0.0134084
836.943	0.0132671
837.021	0.0135023
837.099	0.0135071
837.177	0.0135004
837.255	0.0136558
837.333	0.0134537
837.411	0.0136131
837.489	0.0136918
837.568	0.0136701
837.646	0.0135915
837.724	0.0136097
837.802	0.0137039
837.880	0.0137421
837.958	0.0136251
838.036	0.0137000
838.114	0.0138839
838.193	0.0138614
838.271	0.0137785
838.349	0.0138245
838.427	0.0138332
838.505	0.0137958
838.583	0.0140231
838.661	0.0140042
838.739	0.0140656
838.818	0.0139868
838.896	0.0139678
838.974	0.0140020
839.052	0.0139509
839.130	0.0140543
839.208	0.0139839
839.286	0.0138038
839.364	0.0137917
839.443	0.0138087
839.521	0.0136945
839.599	0.0136803
839.677	0.0136915
839.755	0.0135732
839.833	0.0135257
839.911	0.0134568
839.989	0.0134177
840.068	0.0133817
840.146	0.0134827
840.224	0.0133806
840.302	0.0133797
840.380	0.0132622
840.458	0.0134001
840.536	0.0132375
840.614	0.0133189
840.693	0.0131362
840.771	0.0132966
840.849	0.0132697
840.927	0.0132180
841.005	0.0132800
841.083	0.0132490
841.161	0.0132170
841.239	0.0132582
841.318	0.0135287
841.396	0.0133395
841.474	0.0132310
841.552	0.0135152
841.630	0.0133556
841.708	0.0135384
841.786	0.0135519
841.864	0.0135539
841.943	0.0136577
842.021	0.0135851
842.099	0.0136073
842.177	0.0136978
842.255	0.0135692
842.333	0.0136687
842.411	0.0135831
842.489	0.0136771
842.568	0.0136860
842.646	0.0135644
842.724	0.0137389
842.802	0.0136750
842.880	0.0136968
842.958	0.0135870
843.036	0.0136797
843.114	0.0137317
843.193	0.0135725
843.271	0.0136922
843.349	0.0135368
843.427	0.0135856
843.505	0.0135966
843.583	0.0136532
843.661	0.0136843
843.739	0.0135224
843.818	0.0136899
843.896	0.0136704
843.974	0.0136520
844.052	0.0137950
844.130	0.0136749
844.208	0.0135326
844.286	0.0137189
844.364	0.0136883
844.443	0.0136781
844.521	0.0137042
844.599	0.0136691
844.677	0.0134659
844.755	0.0136317
844.833	0.0136240
844.911	0.0134557
844.989	0.0135283
845.068	0.0135860
845.146	0.0134915
845.224	0.0135680
845.302	0.0136093
845.380	0.0135864
845.458	0.0134658
845.536	0.0135648
845.614	0.0136594
845.693	0.0135846
845.771	0.0134204
845.849	0.0135988
845.927	0.0136253
846.005	0.0135641
846.083	0.0136169
846.161	0.0135884
846.239	0.0136955
846.318	0.0136770
846.396	0.0136966
846.474	0.0135915
846.552	0.0136651
846.630	0.0136402
846.708	0.0136331
846.786	0.0137280
846.864	0.0136108
846.943	0.0135995
847.021	0.0136896
847.099	0.0136810
847.177	0.0136785
847.255	0.0135944
847.333	0.0137524
847.411	0.0138614
847.489	0.0137002
847.568	0.0135753
847.646	0.0137590
847.724	0.0138007
847.802	0.0138162
847.880	0.0136887
847.958	0.0136903
848.036	0.0138078
848.114	0.0136241
848.193	0.0136493
848.271	0.0135790
848.349	0.0136246
848.427	0.0136195
848.505	0.0135464
848.583	0.0135478
848.661	0.0134711
848.739	0.0135210
848.818	0.0135779
848.896	0.0134904
848.974	0.0134756
849.052	0.0134799
849.130	0.0133995
849.208	0.0134845
849.286	0.0132817
849.364	0.0133424
849.443	0.0135156
849.521	0.0133937
849.599	0.0134646
849.677	0.0135880
849.755	0.0136858
849.833	0.0135495
849.911	0.0136775
849.989	0.0137119
850.068	0.0136021
850.146	0.0135689
850.224	0.0137374
850.302	0.0138245
850.380	0.0140028
850.458	0.0138751
850.536	0.0139128
850.614	0.0138499
850.693	0.0138500
850.771	0.0138437
850.849	0.0137845
850.927	0.0138136
851.005	0.0138254
851.083	0.0139454
851.161	0.0138983
851.239	0.0136877
851.318	0.0138863
851.396	0.0138553
851.474	0.0138426
851.552	0.0138087
851.630	0.0136421
851.708	0.0137992
851.786	0.0137386
851.864	0.0137370
851.943	0.0136166
852.021	0.0136243
852.099	0.0136922
852.177	0.0136611
852.255	0.0136224
852.333	0.0135960
852.411	0.0135202
852.489	0.0134162
852.568	0.0134338
852.646	0.0134967
852.724	0.0135359
852.802	0.0134523
852.880	0.0134541
852.958	0.0134254
853.036	0.0133694
853.114	0.0134639
853.193	0.0134544
853.271	0.0135015
853.349	0.0133795
853.427	0.0135806
853.505	0.0136284
853.583	0.0135268
853.661	0.0135667
853.739	0.0135498
853.818	0.0135665
853.896	0.0136107
853.974	0.0136572
854.052	0.0136469
854.130	0.0136270
854.208	0.0136429
854.286	0.0135535
854.364	0.0135493
854.443	0.0135693
854.521	0.0136093
854.599	0.0137157
854.677	0.0135428
854.755	0.0136108
854.833	0.0135365
854.911	0.0135699
854.989	0.0136643
855.068	0.0134167
855.146	0.0135104
855.224	0.0136446
855.302	0.0133906
855.380	0.0135429
855.458	0.0135982
855.536	0.0136236
855.614	0.0135686
855.693	0.0136366
855.771	0.0136620
855.849	0.0138423
855.927	0.0137328
856.005	0.0137066
856.083	0.0137720
856.161	0.0137231
856.239	0.0136781
856.318	0.0137463
856.396	0.0137607
856.474	0.0137588
856.552	0.0137298
856.630	0.0137830
856.708	0.0138110
856.786	0.0138039
856.864	0.0138535
856.943	0.0138461
857.021	0.0137413
857.099	0.0137924
857.177	0.0136713
857.255	0.0138257
857.333	0.0136783
857.411	0.0140045
857.489	0.0138683
857.568	0.0136864
857.646	0.0136974
857.724	0.0137100
857.802	0.0137058
857.880	0.0136860
857.958	0.0137130
858.036	0.0136860
858.114	0.0136337
858.193	0.0135952
858.271	0.0136924
858.349	0.0135644
858.427	0.0135452
858.505	0.0136423
858.583	0.0137360
858.661	0.0137339
858.739	0.0134759
858.818	0.0135036
858.896	0.0135337
858.974	0.0135144
859.052	0.0136387
859.130	0.0135475
859.208	0.0133931
859.286	0.0136143
859.364	0.0134654
859.443	0.0134467
859.521	0.0135041
859.599	0.0132503
859.677	0.0133223
859.755	0.0133372
859.833	0.0133126
859.911	0.0132657
859.989	0.0133126
860.068	0.0131426
860.146	0.0132354
860.224	0.0134636
860.302	0.0133505
860.380	0.0133257
860.458	0.0135392
860.536	0.0133978
860.614	0.0133966
860.693	0.0135479
860.771	0.0134471
860.849	0.0132790
860.927	0.0134941
861.005	0.0135908
861.083	0.0137279
861.161	0.0136866
861.239	0.0136197
861.318	0.0138377
861.396	0.0138667
861.474	0.0137445
861.552	0.0138337
861.630	0.0139295
861.708	0.0138785
861.786	0.0139370
861.864	0.0139410
861.943	0.0139217
862.021	0.0139828
862.099	0.0138801
862.177	0.0138509
862.255	0.0139005
862.333	0.0138280
862.411	0.0137623
862.489	0.0139481
862.568	0.0138999
862.646	0.0138667
862.724	0.0137641
862.802	0.0138198
862.880	0.0137113
862.958	0.0138097
863.036	0.0137959
863.114	0.0136259
863.193	0.0137186
863.271	0.0136392
863.349	0.0137342
863.427	0.0136323
863.505	0.0136140
863.583	0.0135923
863.661	0.0135880
863.739	0.0136083
863.818	0.0135135
863.896	0.0134293
863.974	0.0136457
864.052	0.0134452
864.130	0.0134044
864.208	0.0135381
864.286	0.0136253
864.364	0.0134402
864.443	0.0134648
864.521	0.0134853
864.599	0.0134228
864.677	0.0133716
864.755	0.0135683
864.833	0.0134149
864.911	0.0133150
864.989	0.0132684
865.068	0.0133106
865.146	0.0133353
865.224	0.0132928
865.302	0.0132595
865.380	0.0133568
865.458	0.0134235
865.536	0.0133366
865.614	0.0133886
865.693	0.0131146
865.771	0.0134592
865.849	0.0132645
865.927	0.0132182
866.005	0.0132698
866.083	0.0133519
866.161	0.0132645
866.239	0.0133588
866.318	0.0134436
866.396	0.0132884
866.474	0.0132850
866.552	0.0135577
866.630	0.0134161
866.708	0.0132844
866.786	0.0134921
866.864	0.0134056
866.943	0.0133539
867.021	0.0134428
867.099	0.0135959
867.177	0.0135504
867.255	0.0135213
867.333	0.0134938
867.411	0.0135104
867.489	0.0134657
867.568	0.0134908
867.646	0.0137656
867.724	0.0134790
867.802	0.0135287
867.880	0.0136870
867.958	0.0137067
868.036	0.0137677
868.114	0.0137931
868.193	0.0138773
868.271	0.0136662
868.349	0.0138444
868.427	0.0137582
868.505	0.0138055
868.583	0.0137379
868.661	0.0139825
868.739	0.0138105
868.818	0.0139318
868.896	0.0137922
868.974	0.0138688
869.052	0.0138650
869.130	0.0138939
869.208	0.0138488
869.286	0.0137246
869.364	0.0137508
869.443	0.0138502
869.521	0.0136697
869.599	0.0135757
869.677	0.0137355
869.755	0.0135857
869.833	0.0136173
869.911	0.0135131
869.989	0.0135724
870.068	0.0135314
870.146	0.0135094
870.224	0.0135479
870.302	0.0133515
870.380	0.0135385
870.458	0.0135110
870.536	0.0135313
870.614	0.0136350
870.693	0.0136344
870.771	0.0136058
870.849	0.0136073
870.927	0.0136782
871.005	0.0137135
871.083	0.0136629
871.161	0.0136797
871.239	0.0135826
871.318	0.0135130
871.396	0.0136379
871.474	0.0136954
871.552	0.0136169
871.630	0.0135609
871.708	0.0136986
871.786	0.0135842
871.864	0.0135148
871.943	0.0134460
872.021	0.0134129
872.099	0.0133868
872.177	0.0135063
872.255	0.0134473
872.333	0.0134129
872.411	0.0135177
872.489	0.0134760
872.568	0.0134444
872.646	0.0135217
872.724	0.0135937
872.802	0.0134835
872.880	0.0136143
872.958	0.0136344
873.036	0.0137229
873.114	0.0136430
873.193	0.0137724
873.271	0.0137656
873.349	0.0139907
873.427	0.0138885
873.505	0.0137347
873.583	0.0137878
873.661	0.0137446
873.739	0.0137934
873.818	0.0137728
873.896	0.0139836
873.974	0.0139737
874.052	0.0139692
874.130	0.0139476
874.208	0.0140613
874.286	0.0141183
874.364	0.0140161
874.443	0.0141430
874.521	0.0141040
874.599	0.0139978
874.677	0.0140282
874.755	0.0138828
874.833	0.0137978
874.911	0.0139098
874.989	0.0139710
875.068	0.0138075
875.146	0.0137990
875.224	0.0137267
875.302	0.0136779
875.380	0.0138737
875.458	0.0136104
875.536	0.0134327
875.614	0.0136546
875.693	0.0135383
875.771	0.0135394
875.849	0.0135103
875.927	0.0134711
876.005	0.0135498
876.083	0.0135012
876.161	0.0134808
876.239	0.0135710
876.318	0.0134946
876.396	0.0135143
876.474	0.0135715
876.552	0.0135271
876.630	0.0135940
876.708	0.0136700
876.786	0.0137112
876.864	0.0138448
876.943	0.0138511
877.021	0.0138010
877.099	0.0137987
877.177	0.0138818
877.255	0.0138315
877.333	0.0138468
877.411	0.0139346
877.489	0.0138791
877.568	0.0138043
877.646	0.0136748
877.724	0.0136858
877.802	0.0137464
877.880	0.0136180
877.958	0.0135867
878.036	0.0136023
878.114	0.0135496
878.193	0.0135655
878.271	0.0134608
878.349	0.0133321
878.427	0.0133577
878.505	0.0133524
878.583	0.0134429
878.661	0.0134134
878.739	0.0134449
878.818	0.0134692
878.896	0.0133572
878.974	0.0134119
879.052	0.0133421
879.130	0.0133840
879.208	0.0135041
879.286	0.0136423
879.364	0.0136162
879.443	0.0134922
879.521	0.0135394
879.599	0.0136879
879.677	0.0136263
879.755	0.0135505
879.833	0.0136203
879.911	0.0136944
879.989	0.0136360
880.068	0.0136581
880.146	0.0137284
880.224	0.0136582
880.302	0.0136742
880.380	0.0136385
880.458	0.0135180
880.536	0.0135389
880.614	0.0135500
880.693	0.0137391
880.771	0.0136522
880.849	0.0135587
880.927	0.0136302
881.005	0.0135017
881.083	0.0133849
881.161	0.0133504
881.239	0.0132558
881.318	0.0135117
881.396	0.0133501
881.474	0.0133711
881.552	0.0133935
881.630	0.0133339
881.708	0.0133083
881.786	0.0131078
881.864	0.0132435
881.943	0.0131985
882.021	0.0133064
882.099	0.0131611
882.177	0.0133205
882.255	0.0132913
882.333	0.0134423
882.411	0.0131940
882.489	0.0134985
882.568	0.0134819
882.646	0.0135670
882.724	0.0136238
882.802	0.0135769
882.880	0.0135336
882.958	0.0135514
883.036	0.0137419
883.114	0.0135988
883.193	0.0135826
883.271	0.0136575
883.349	0.0137025
883.427	0.0137476
883.505	0.0137157
883.583	0.0137690
883.661	0.0138432
883.739	0.0138251
883.818	0.0138686
883.896	0.0137586
883.974	0.0136538
884.052	0.0136940
884.130	0.0137656
884.208	0.0137315
884.286	0.0137521
884.364	0.0137290
884.443	0.0136726
884.521	0.0137975
884.599	0.0139171
884.677	0.0138235
884.755	0.0136948
884.833	0.0138058
884.911	0.0137924
884.989	0.0137526
885.068	0.0137187
885.146	0.0136018
885.224	0.0136163
885.302	0.0136855
885.380	0.0137270
885.458	0.0136270
885.536	0.0135015
885.614	0.0135690
885.693	0.0135723
885.771	0.0135863
885.849	0.0135344
885.927	0.0134953
886.005	0.0134475
886.083	0.0134774
886.161	0.0134801
886.239	0.0134563
886.318	0.0133961
886.396	0.0133373
886.474	0.0133718
886.552	0.0133550
886.630	0.0134060
886.708	0.0134512
886.786	0.0134245
886.864	0.0134219
886.943	0.0135574
887.021	0.0135037
887.099	0.0135387
887.177	0.0134943
887.255	0.0136847
887.333	0.0136572
887.411	0.0135484
887.489	0.0136329
887.568	0.0137419
887.646	0.0137727
887.724	0.0137432
887.802	0.0136774
887.880	0.0136800
887.958	0.0137023
888.036	0.0138032
888.114	0.0137795
888.193	0.0137336
888.271	0.0137985
888.349	0.0135294
888.427	0.0135655
888.505	0.0136418
888.583	0.0135085
888.661	0.0135844
888.739	0.0136212
888.818	0.0134850
888.896	0.0135455
888.974	0.0136543
889.052	0.0135677
889.130	0.0136465
889.208	0.0136401
889.286	0.0136959
889.364	0.0135468
889.443	0.0135133
889.521	0.0136380
889.599	0.0135609
889.677	0.0136097
889.755	0.0135190
889.833	0.0136329
889.911	0.0135789
889.989	0.0135403
890.068	0.0134511
890.146	0.0134522
890.224	0.0134013
890.302	0.0133656
890.380	0.0132084
890.458	0.0132896
890.536	0.0132749
890.614	0.0132445
890.693	0.0130890
890.771	0.0131807
890.849	0.0132657
890.927	0.0131761
891.005	0.0131126
891.083	0.0131940
891.161	0.0132349
891.239	0.0133906
891.318	0.0133180
891.396	0.0132622
891.474	0.0134164
891.552	0.0135214
891.630	0.0134335
891.708	0.0136633
891.786	0.0135893
891.864	0.0136917
891.943	0.0136238
892.021	0.0139032
892.099	0.0140428
892.177	0.0138575
892.255	0.0139810
892.333	0.0139034
892.411	0.0140965
892.489	0.0139637
892.568	0.0140153
892.646	0.0140015
892.724	0.0140195
892.802	0.0142122
892.880	0.0139470
892.958	0.0139965
893.036	0.0139019
893.114	0.0137413
893.193	0.0137106
893.271	0.0137072
893.349	0.0136405
893.427	0.0136799
893.505	0.0136720
893.583	0.0136178
893.661	0.0135555
893.739	0.0133520
893.818	0.0134892
893.896	0.0134565
893.974	0.0134599
894.052	0.0133670
894.130	0.0133716
894.208	0.0132996
894.286	0.0134624
894.364	0.0135459
894.443	0.0135718
894.521	0.0133778
894.599	0.0133255
894.677	0.0134204
894.755	0.0134162
894.833	0.0134273
894.911	0.0134927
894.989	0.0133796
895.068	0.0135306
895.146	0.0135053
895.224	0.0135812
895.302	0.0135910
895.380	0.0137450
895.458	0.0138112
895.536	0.0137344
895.614	0.0137969
895.693	0.0138333
895.771	0.0139606
895.849	0.0140099
895.927	0.0139185
896.005	0.0138976
896.083	0.0137691
896.161	0.0139561
896.239	0.0139308
896.318	0.0138292
896.396	0.0137647
896.474	0.0138010
896.552	0.0137458
896.630	0.0138918
896.708	0.0137290
896.786	0.0136703
896.864	0.0137369
896.943	0.0135369
897.021	0.0137949
897.099	0.0136099
897.177	0.0135994
897.255	0.0135069
897.333	0.0134827
897.411	0.0135561
897.489	0.0134904
897.568	0.0135242
897.646	0.0133549
897.724	0.0133678
897.802	0.0132643
897.880	0.0132543
897.958	0.0132595
898.036	0.0132230
898.114	0.0133100
898.193	0.0131665
898.271	0.0132227
898.349	0.0134056
898.427	0.0132494
898.505	0.0133269
898.583	0.0135799
898.661	0.0134177
898.739	0.0135019
898.818	0.0135762
898.896	0.0135258
898.974	0.0136794
899.052	0.0137728
899.130	0.0138593
899.208	0.0139144
899.286	0.0138770
899.364	0.0139548
899.443	0.0140291
899.521	0.0139774
899.599	0.0141175
899.677	0.0141516
899.755	0.0139294
899.833	0.0140175
899.911	0.0141580
899.989	0.0139948
900.068	0.0139984
900.146	0.0139574
900.224	0.0138783
900.302	0.0138277
900.380	0.0136775
900.458	0.0137614
900.536	0.0137342
900.614	0.0134829
900.693	0.0135157
900.771	0.0134969
900.849	0.0134313
900.927	0.0134491
901.005	0.0134923
901.083	0.0133859
901.161	0.0133560
901.239	0.0134116
901.318	0.0135400
901.396	0.0134917
901.474	0.0134165
901.552	0.0135095
901.630	0.0133842
901.708	0.0133523
901.786	0.0133728
901.864	0.0134412
901.943	0.0132632
902.021	0.0133730
902.099	0.0133279
902.177	0.0134177
902.255	0.0134365
902.333	0.0134289
902.411	0.0133610
902.489	0.0133631
902.568	0.0133606
902.646	0.0133035
902.724	0.0133395
902.802	0.0133627
902.880	0.0134122
902.958	0.0134996
903.036	0.0133975
903.114	0.0133826
903.193	0.0135044
903.271	0.0135691
903.349	0.0136221
903.427	0.0136358
903.505	0.0138173
903.583	0.0137783
903.661	0.0137128
903.739	0.0138475
903.818	0.0138364
903.896	0.0138125
903.974	0.0137369
904.052	0.0138469
904.130	0.0139102
904.208	0.0138140
904.286	0.0137938
904.364	0.0138708
904.443	0.0138735
904.521	0.0138858
904.599	0.0136754
904.677	0.0137434
904.755	0.0137459
904.833	0.0136909
904.911	0.0137165
904.989	0.0137545
905.068	0.0136732
905.146	0.0135796
905.224	0.0136529
905.302	0.0137608
905.380	0.0136189
905.458	0.0134837
905.536	0.0135995
905.614	0.0134946
905.693	0.0135822
905.771	0.0137270
905.849	0.0137040
905.927	0.0135969
906.005	0.0136344
906.083	0.0137096
906.161	0.0137183
906.239	0.0136874
906.318	0.0137575
906.396	0.0136497
906.474	0.0138097
906.552	0.0137593
906.630	0.0137635
906.708	0.0137652
906.786	0.0137957
906.864	0.0137636
906.943	0.0136887
907.021	0.0137404
907.099	0.0137838
907.177	0.0137578
907.255	0.0136096
907.333	0.0137026
907.411	0.0137786
907.489	0.0136382
907.568	0.0135500
907.646	0.0136596
907.724	0.0136379
907.802	0.0136260
907.880	0.0136761
907.958	0.0135596
908.036	0.0135662
908.114	0.0135870
908.193	0.0135182
908.271	0.0136438
908.349	0.0137405
908.427	0.0138199
908.505	0.0137018
908.583	0.0137524
908.661	0.0135833
908.739	0.0135746
908.818	0.0137452
908.896	0.0137965
908.974	0.0137682
909.052	0.0136764
909.130	0.0137705
909.208	0.0136451
909.286	0.0135480
909.364	0.0137807
909.443	0.0138579
909.521	0.0137900
909.599	0.0137767
909.677	0.0137677
909.755	0.0137389
909.833	0.0138257
909.911	0.0137697
909.989	0.0137730
910.068	0.0137848
910.146	0.0138548
910.224	0.0137477
910.302	0.0138326
910.380	0.0137720
910.458	0.0137473
910.536	0.0136573
910.614	0.0137112
910.693	0.0137816
910.771	0.0137890
910.849	0.0135786
910.927	0.0138014
911.005	0.0137370
911.083	0.0137662
911.161	0.0136874
911.239	0.0136260
911.318	0.0136136
911.396	0.0135954
911.474	0.0136401
911.552	0.0137656
911.630	0.0135686
911.708	0.0134470
911.786	0.0136665
911.864	0.0134767
911.943	0.0134909
912.021	0.0134629
912.099	0.0135172
912.177	0.0134315
912.255	0.0134790
912.333	0.0134144
912.411	0.0133717
912.489	0.0134688
912.568	0.0135632
912.646	0.0135500
912.724	0.0136126
912.802	0.0135456
912.880	0.0135009
912.958	0.0135393
913.036	0.0136193
913.114	0.0136545
913.193	0.0136720
913.271	0.0136393
913.349	0.0136436
913.427	0.0135761
913.505	0.0136942
913.583	0.0134811
913.661	0.0135349
913.739	0.0135871
913.818	0.0135521
913.896	0.0136429
913.974	0.0135476
914.052	0.0135199
914.130	0.0136174
914.208	0.0136153
914.286	0.0137026
914.364	0.0135652
914.443	0.0135738
914.521	0.0136903
914.599	0.0135909
914.677	0.0135371
914.755	0.0136652
914.833	0.0138142
914.911	0.0136745
914.989	0.0136689
915.068	0.0137328
915.146	0.0137547
915.224	0.0137592
915.302	0.0136648
915.380	0.0137141
915.458	0.0136450
915.536	0.0135596
915.614	0.0135461
915.693	0.0135388
915.771	0.0135437
915.849	0.0135908
915.927	0.0136118
916.005	0.0135279
916.083	0.0136354
916.161	0.0135461
916.239	0.0136378
916.318	0.0136364
916.396	0.0135992
916.474	0.0136633
916.552	0.0136214
916.630	0.0136089
916.708	0.0136584
916.786	0.0135394
916.864	0.0135815
916.943	0.0133385
917.021	0.0134896
917.099	0.0136208
917.177	0.0134351
917.255	0.0133976
917.333	0.0134776
917.411	0.0134669
917.489	0.0134556
917.568	0.0134678
917.646	0.0135560
917.724	0.0133816
917.802	0.0135017
917.880	0.0135723
917.958	0.0136422
918.036	0.0135080
918.114	0.0135663
918.193	0.0134700
918.271	0.0135020
918.349	0.0136208
918.427	0.0135066
918.505	0.0135753
918.583	0.0135939
918.661	0.0135381
918.739	0.0136002
918.818	0.0136108
918.896	0.0134405
918.974	0.0136495
919.052	0.0135017
919.130	0.0135525
919.208	0.0135721
919.286	0.0136832
919.364	0.0134715
919.443	0.0136279
919.521	0.0134092
919.599	0.0134302
919.677	0.0135136
919.755	0.0135139
919.833	0.0134951
919.911	0.0134598
919.989	0.0134447
920.068	0.0135186
920.146	0.0135350
920.224	0.0134876
920.302	0.0135954
920.380	0.0136119
920.458	0.0136230
920.536	0.0136305
920.614	0.0136246
920.693	0.0135926
920.771	0.0135257
920.849	0.0135903
920.927	0.0134344
921.005	0.0135975
921.083	0.0134704
921.161	0.0135418
921.239	0.0134457
921.318	0.0135479
921.396	0.0135368
921.474	0.0136188
921.552	0.0135974
921.630	0.0136129
921.708	0.0135989
921.786	0.0135751
921.864	0.0135815
921.943	0.0134707
922.021	0.0135316
922.099	0.0136087
922.177	0.0136630
922.255	0.0135587
922.333	0.0136026
922.411	0.0135184
922.489	0.0135897
922.568	0.0137992
922.646	0.0134775
922.724	0.0133713
922.802	0.0135526
922.880	0.0134647
922.958	0.0134958
923.036	0.0135478
923.114	0.0135971
923.193	0.0135477
923.271	0.0135381
923.349	0.0135106
923.427	0.0134949
923.505	0.0135312
923.583	0.0134944
923.661	0.0136696
923.739	0.0136507
923.818	0.0135540
923.896	0.0136542
923.974	0.0136612
924.052	0.0137283
924.130	0.0137534
924.208	0.0137823
924.286	0.0137516
924.364	0.0138307
924.443	0.0136793
924.521	0.0137621
924.599	0.0138586
924.677	0.0138607
924.755	0.0138543
924.833	0.0138075
924.911	0.0136713
924.989	0.0137463
925.068	0.0137262
925.146	0.0136955
925.224	0.0137949
925.302	0.0137230
925.380	0.0136494
925.458	0.0137086
925.536	0.0137130
925.614	0.0135916
925.693	0.0135924
925.771	0.0134688
925.849	0.0135495
925.927	0.0135429
926.005	0.0134576
926.083	0.0133119
926.161	0.0134109
926.239	0.0135361
926.318	0.0133992
926.396	0.0133701
926.474	0.0133678
926.552	0.0133443
926.630	0.0134322
926.708	0.0134778
926.786	0.0135792
926.864	0.0135596
926.943	0.0135345
927.021	0.0135279
927.099	0.0136028
927.177	0.0134804
927.255	0.0135675
927.333	0.0134914
927.411	0.0135550
927.489	0.0136208
927.568	0.0137790
927.646	0.0136242
927.724	0.0136623
927.802	0.0136506
927.880	0.0138018
927.958	0.0137189
928.036	0.0136760
928.114	0.0137606
928.193	0.0135996
928.271	0.0138286
928.349	0.0137816
928.427	0.0136952
928.505	0.0137086
928.583	0.0138882
928.661	0.0138376
928.739	0.0138234
928.818	0.0139067
928.896	0.0138355
928.974	0.0139778
929.052	0.0137610
929.130	0.0137163
929.208	0.0138694
929.286	0.0138007
929.364	0.0137585
929.443	0.0137629
929.521	0.0138725
929.599	0.0139025
929.677	0.0138394
929.755	0.0137968
929.833	0.0137831
929.911	0.0138150
929.989	0.0138079
930.068	0.0138054
930.146	0.0137558
930.224	0.0136444
930.302	0.0136999
930.380	0.0137333
930.458	0.0137485
930.536	0.0137051
930.614	0.0137213
930.693	0.0135814
930.771	0.0136343
930.849	0.0135809
930.927	0.0134979
931.005	0.0135251
931.083	0.0136703
931.161	0.0134418
931.239	0.0135678
931.318	0.0134577
931.396	0.0133980
931.474	0.0134899
931.552	0.0134724
931.630	0.0135287
931.708	0.0133877
931.786	0.0135164
931.864	0.0136227
931.943	0.0135985
932.021	0.0135926
932.099	0.0137032
932.177	0.0138216
932.255	0.0136840
932.333	0.0138164
932.411	0.0137819
932.489	0.0138942
932.568	0.0139027
932.646	0.0139150
932.724	0.0140441
932.802	0.0139728
932.880	0.0138428
932.958	0.0138796
933.036	0.0139512
933.114	0.0139267
933.193	0.0138998
933.271	0.0138815
933.349	0.0137788
933.427	0.0137895
933.505	0.0137099
933.583	0.0138565
933.661	0.0136248
933.739	0.0136050
933.818	0.0136820
933.896	0.0136454
933.974	0.0136407
934.052	0.0136400
934.130	0.0134423
934.208	0.0135585
934.286	0.0134702
934.364	0.0134980
934.443	0.0134848
934.521	0.0136485
934.599	0.0136476
934.677	0.0135699
934.755	0.0135639
934.833	0.0136259
934.911	0.0135756
934.989	0.0136480
935.068	0.0135591
935.146	0.0135661
935.224	0.0135184
935.302	0.0136460
935.380	0.0137240
935.458	0.0136290
935.536	0.0137103
935.614	0.0136514
935.693	0.0136633
935.771	0.0136682
935.849	0.0136105
935.927	0.0136681
936.005	0.0137189
936.083	0.0137192
936.161	0.0136320
936.239	0.0135913
936.318	0.0135948
936.396	0.0137421
936.474	0.0138194
936.552	0.0136843
936.630	0.0137698
936.708	0.0137585
936.786	0.0137526
936.864	0.0138200
936.943	0.0138470
937.021	0.0136823
937.099	0.0134859
937.177	0.0135835
937.255	0.0137841
937.333	0.0135696
937.411	0.0136663
937.489	0.0136018
937.568	0.0135300
937.646	0.0135594
937.724	0.0136097
937.802	0.0136606
937.880	0.0136319
937.958	0.0136322
938.036	0.0136057
938.114	0.0136513
938.193	0.0135596
938.271	0.0135256
938.349	0.0134893
938.427	0.0135581
938.505	0.0135921
938.583	0.0137194
938.661	0.0136588
938.739	0.0136443
938.818	0.0136800
938.896	0.0135025
938.974	0.0135673
939.052	0.0137608
939.130	0.0136812
939.208	0.0136341
939.286	0.0137514
939.364	0.0136334
939.443	0.0136813
939.521	0.0136636
939.599	0.0136816
939.677	0.0137992
939.755	0.0136951
939.833	0.0136079
939.911	0.0137336
939.989	0.0138374
940.068	0.0137679
940.146	0.0138033
940.224	0.0137592
940.302	0.0137804
940.380	0.0138055
940.458	0.0138212
940.536	0.0136301
940.614	0.0137688
940.693	0.0137305
940.771	0.0137874
940.849	0.0137425
940.927	0.0136794
941.005	0.0135815
941.083	0.0136887
941.161	0.0136483
941.239	0.0136447
941.318	0.0136224
941.396	0.0136712
941.474	0.0135414
941.552	0.0135451
941.630	0.0136693
941.708	0.0137171
941.786	0.0136774
941.864	0.0134383
941.943	0.0135637
942.021	0.0136769
942.099	0.0135236
942.177	0.0134751
942.255	0.0135901
942.333	0.0133133
942.411	0.0135320
942.489	0.0134814
942.568	0.0134599
942.646	0.0134154
942.724	0.0134493
942.802	0.0133774
942.880	0.0133512
942.958	0.0132378
943.036	0.0133327
943.114	0.0132932
943.193	0.0134959
943.271	0.0133606
943.349	0.0132285
943.427	0.0133680
943.505	0.0133232
943.583	0.0133015
943.661	0.0132773
943.739	0.0132567
943.818	0.0133018
943.896	0.0134289
943.974	0.0133670
944.052	0.0133403
944.130	0.0134526
944.208	0.0132824
944.286	0.0134665
944.364	0.0135276
944.443	0.0135351
944.521	0.0135167
944.599	0.0135705
944.677	0.0135408
944.755	0.0135638
944.833	0.0134810
944.911	0.0135079
944.989	0.0135749
945.068	0.0135235
945.146	0.0135627
945.224	0.0135083
945.302	0.0135106
945.380	0.0134242
945.458	0.0134797
945.536	0.0135410
945.614	0.0134193
945.693	0.0134702
945.771	0.0135519
945.849	0.0135110
945.927	0.0134297
946.005	0.0134342
946.083	0.0135384
946.161	0.0135139
946.239	0.0135363
946.318	0.0135117
946.396	0.0135567
946.474	0.0136330
946.552	0.0135929
946.630	0.0135445
946.708	0.0135802
946.786	0.0137618
946.864	0.0136779
946.943	0.0136627
947.021	0.0137307
947.099	0.0136749
947.177	0.0137140
947.255	0.0137223
947.333	0.0138015
947.411	0.0136594
947.489	0.0137408
947.568	0.0139059
947.646	0.0137782
947.724	0.0136355
947.802	0.0135274
947.880	0.0135863
947.958	0.0136952
948.036	0.0136920
948.114	0.0135725
948.193	0.0136941
948.271	0.0135743
948.349	0.0133920
948.427	0.0136123
948.505	0.0136406
948.583	0.0135204
948.661	0.0134765
948.739	0.0134927
948.818	0.0134393
948.896	0.0134611
948.974	0.0134069
949.052	0.0133843
949.130	0.0133509
949.208	0.0133756
949.286	0.0133539
949.364	0.0132122
949.443	0.0133430
949.521	0.0134138
949.599	0.0133848
949.677	0.0132581
949.755	0.0132887
949.833	0.0133583
949.911	0.0133429
949.989	0.0134653
950.068	0.0133253
950.146	0.0134762
950.224	0.0136439
950.302	0.0134204
950.380	0.0135161
950.458	0.0134875
950.536	0.0134700
950.614	0.0135699
950.693	0.0135789
950.771	0.0136777
950.849	0.0137317
950.927	0.0136275
951.005	0.0137016
951.083	0.0137876
951.161	0.0137135
951.239	0.0136526
951.318	0.0137814
951.396	0.0137508
951.474	0.0137260
951.552	0.0137564
951.630	0.0137208
951.708	0.0138477
951.786	0.0137923
951.864	0.0137172
951.943	0.0137550
952.021	0.0136833
952.099	0.0137336
952.177	0.0137625
952.255	0.0136815
952.333	0.0138637
952.411	0.0137292
952.489	0.0137812
952.568	0.0138150
952.646	0.0138174
952.724	0.0137151
952.802	0.0137228
952.880	0.0137115
952.958	0.0137848
953.036	0.0137751
953.114	0.0137331
953.193	0.0137177
953.271	0.0136405
953.349	0.0137688
953.427	0.0136697
953.505	0.0136940
953.583	0.0135867
953.661	0.0136401
953.739	0.0136652
953.818	0.0137236
953.896	0.0136088
953.974	0.0135789
954.052	0.0137000
954.130	0.0136051
954.208	0.0135210
954.286	0.0136182
954.364	0.0135019
954.443	0.0135691
954.521	0.0134526
954.599	0.0134905
954.677	0.0133109
954.755	0.0134914
954.833	0.0133920
954.911	0.0135104
954.989	0.0133109
955.068	0.0133263
955.146	0.0134718
955.224	0.0132753
955.302	0.0134318
955.380	0.0134092
955.458	0.0134869
955.536	0.0135696
955.614	0.0134826
955.693	0.0135348
955.771	0.0134891
955.849	0.0136429
955.927	0.0136780
956.005	0.0136186
956.083	0.0137347
956.161	0.0136309
956.239	0.0137334
956.318	0.0137325
956.396	0.0137625
956.474	0.0136626
956.552	0.0137533
956.630	0.0137895
956.708	0.0138776
956.786	0.0138694
956.864	0.0138764
956.943	0.0138684
957.021	0.0139059
957.099	0.0137366
957.177	0.0140903
957.255	0.0138153
957.333	0.0139073
957.411	0.0138702
957.489	0.0140176
957.568	0.0138551
957.646	0.0139552
957.724	0.0137565
957.802	0.0138041
957.880	0.0138330
957.958	0.0137735
958.036	0.0137787
958.114	0.0137643
958.193	0.0137347
958.271	0.0136149
958.349	0.0134939
958.427	0.0138036
958.505	0.0136908
958.583	0.0137302
958.661	0.0137127
958.739	0.0136779
958.818	0.0137078
958.896	0.0136989
958.974	0.0136593
959.052	0.0136943
959.130	0.0136599
959.208	0.0137667
959.286	0.0137247
959.364	0.0136255
959.443	0.0138557
959.521	0.0137198
959.599	0.0136629
959.677	0.0137205
959.755	0.0138206
959.833	0.0137045
959.911	0.0137280
