05/14/2022	16:37:47	Ver.	4.1	UNKNOWN
Optical Delay	639.989416	Delta X		0.078125	Sweeps	1	Scan Rate	0/0
Coordinates	Axis 1	NaN	Axis 2	NaN	Axis 3	NaN	Axis 4	NaN	Axis 5	NaN	Axis 6	0.000000
TX Power	0.000000	RX Power	0.000000

639.989	0.0136076
640.068	0.0134629
640.146	0.0135815
640.224	0.0135918
640.302	0.0135929
640.380	0.0136234
640.458	0.0135988
640.536	0.0134962
640.614	0.0135485
640.693	0.0136156
640.771	0.0135570
640.849	0.0136465
640.927	0.0136388
641.005	0.0135785
641.083	0.0134903
641.161	0.0135655
641.239	0.0135563
641.318	0.0135837
641.396	0.0135774
641.474	0.0134789
641.552	0.0135202
641.630	0.0135088
641.708	0.0136542
641.786	0.0134830
641.864	0.0136023
641.943	0.0135893
642.021	0.0135899
642.099	0.0135672
642.177	0.0137312
642.255	0.0136369
642.333	0.0136500
642.411	0.0137082
642.489	0.0136004
642.568	0.0136126
642.646	0.0135899
642.724	0.0137042
642.802	0.0134575
642.880	0.0135129
642.958	0.0135849
643.036	0.0135467
643.114	0.0135239
643.193	0.0134864
643.271	0.0135248
643.349	0.0135600
643.427	0.0134473
643.505	0.0135033
643.583	0.0135936
643.661	0.0136015
643.739	0.0134403
643.818	0.0135767
643.896	0.0135957
643.974	0.0135546
644.052	0.0136815
644.130	0.0135878
644.208	0.0136038
644.286	0.0136868
644.364	0.0135765
644.443	0.0135980
644.521	0.0136201
644.599	0.0135455
644.677	0.0136398
644.755	0.0136269
644.833	0.0135211
644.911	0.0135977
644.989	0.0135275
645.068	0.0134608
645.146	0.0135313
645.224	0.0135094
645.302	0.0136859
645.380	0.0136218
645.458	0.0135066
645.536	0.0134926
645.614	0.0134531
645.693	0.0134528
645.771	0.0135257
645.849	0.0136230
645.927	0.0136037
646.005	0.0134976
646.083	0.0135160
646.161	0.0135587
646.239	0.0135177
646.318	0.0135303
646.396	0.0135844
646.474	0.0135055
646.552	0.0134892
646.630	0.0135545
646.708	0.0135704
646.786	0.0134904
646.864	0.0135366
646.943	0.0135154
647.021	0.0134418
647.099	0.0134210
647.177	0.0134578
647.255	0.0135240
647.333	0.0134339
647.411	0.0134998
647.489	0.0136009
647.568	0.0135058
647.646	0.0136410
647.724	0.0135715
647.802	0.0135968
647.880	0.0136259
647.958	0.0135112
648.036	0.0135481
648.114	0.0135539
648.193	0.0136012
648.271	0.0135493
648.349	0.0135574
648.427	0.0134772
648.505	0.0136066
648.583	0.0135250
648.661	0.0136806
648.739	0.0135960
648.818	0.0134653
648.896	0.0136096
648.974	0.0136025
649.052	0.0135587
649.130	0.0135491
649.208	0.0134814
649.286	0.0135600
649.364	0.0135911
649.443	0.0135785
649.521	0.0136190
649.599	0.0133201
649.677	0.0135052
649.755	0.0135984
649.833	0.0134096
649.911	0.0135574
649.989	0.0135041
650.068	0.0135733
650.146	0.0134719
650.224	0.0135155
650.302	0.0134497
650.380	0.0133436
650.458	0.0134386
650.536	0.0135485
650.614	0.0135590
650.693	0.0135236
650.771	0.0134305
650.849	0.0135053
650.927	0.0136324
651.005	0.0136966
651.083	0.0135062
651.161	0.0136435
651.239	0.0137527
651.318	0.0135933
651.396	0.0134486
651.474	0.0136026
651.552	0.0136359
651.630	0.0135711
651.708	0.0135625
651.786	0.0136291
651.864	0.0135538
651.943	0.0135716
652.021	0.0136111
652.099	0.0135926
652.177	0.0136093
652.255	0.0136074
652.333	0.0136423
652.411	0.0136520
652.489	0.0136574
652.568	0.0135971
652.646	0.0136410
652.724	0.0135349
652.802	0.0135550
652.880	0.0137371
652.958	0.0136014
653.036	0.0136155
653.114	0.0135538
653.193	0.0135988
653.271	0.0135715
653.349	0.0135432
653.427	0.0135661
653.505	0.0135465
653.583	0.0136262
653.661	0.0136185
653.739	0.0136684
653.818	0.0137054
653.896	0.0135234
653.974	0.0136115
654.052	0.0136986
654.130	0.0136763
654.208	0.0136115
654.286	0.0136077
654.364	0.0135880
654.443	0.0135229
654.521	0.0135361
654.599	0.0136031
654.677	0.0135925
654.755	0.0136265
654.833	0.0134820
654.911	0.0135887
654.989	0.0135663
655.068	0.0136000
655.146	0.0136639
655.224	0.0135258
655.302	0.0135429
655.380	0.0135067
655.458	0.0135586
655.536	0.0136569
655.614	0.0136070
655.693	0.0137640
655.771	0.0137630
655.849	0.0137322
655.927	0.0136729
656.005	0.0134798
656.083	0.0136143
656.161	0.0134980
656.239	0.0135311
656.318	0.0137046
656.396	0.0136526
656.474	0.0133442
656.552	0.0134276
656.630	0.0137180
656.708	0.0134969
656.786	0.0133463
656.864	0.0134070
656.943	0.0135352
657.021	0.0135815
657.099	0.0134989
657.177	0.0134844
657.255	0.0134543
657.333	0.0136291
657.411	0.0134807
657.489	0.0134609
657.568	0.0135361
657.646	0.0135954
657.724	0.0135255
657.802	0.0134676
657.880	0.0136295
657.958	0.0136815
658.036	0.0136158
658.114	0.0135974
658.193	0.0134740
658.271	0.0136265
658.349	0.0135556
658.427	0.0135654
658.505	0.0136819
658.583	0.0136006
658.661	0.0134849
658.739	0.0135139
658.818	0.0136101
658.896	0.0135625
658.974	0.0136929
659.052	0.0135539
659.130	0.0136804
659.208	0.0135263
659.286	0.0136023
659.364	0.0134549
659.443	0.0134225
659.521	0.0135965
659.599	0.0136218
659.677	0.0134047
659.755	0.0135372
659.833	0.0135928
659.911	0.0135472
659.989	0.0134590
660.068	0.0135914
660.146	0.0137294
660.224	0.0135469
660.302	0.0135796
660.380	0.0136090
660.458	0.0136093
660.536	0.0136118
660.614	0.0136909
660.693	0.0134726
660.771	0.0134869
660.849	0.0136484
660.927	0.0136929
661.005	0.0135366
661.083	0.0137095
661.161	0.0134563
661.239	0.0133318
661.318	0.0134540
661.396	0.0135992
661.474	0.0135929
661.552	0.0133646
661.630	0.0134782
661.708	0.0135389
661.786	0.0134989
661.864	0.0134853
661.943	0.0134122
662.021	0.0134721
662.099	0.0135439
662.177	0.0135082
662.255	0.0135683
662.333	0.0137952
662.411	0.0137024
662.489	0.0136271
662.568	0.0136124
662.646	0.0136404
662.724	0.0136199
662.802	0.0136494
662.880	0.0135950
662.958	0.0137312
663.036	0.0136984
663.114	0.0136143
663.193	0.0135824
663.271	0.0133630
663.349	0.0136354
663.427	0.0136059
663.505	0.0134872
663.583	0.0134795
663.661	0.0134663
663.739	0.0134124
663.818	0.0135374
663.896	0.0135704
663.974	0.0135229
664.052	0.0134911
664.130	0.0136249
664.208	0.0135751
664.286	0.0135292
664.364	0.0135260
664.443	0.0135581
664.521	0.0134424
664.599	0.0135683
664.677	0.0135927
664.755	0.0135439
664.833	0.0135460
664.911	0.0134186
664.989	0.0133649
665.068	0.0133181
665.146	0.0136275
665.224	0.0133641
665.302	0.0134473
665.380	0.0134375
665.458	0.0134258
665.536	0.0134205
665.614	0.0136055
665.693	0.0134377
665.771	0.0133472
665.849	0.0134122
665.927	0.0135218
666.005	0.0133445
666.083	0.0132774
666.161	0.0132897
666.239	0.0133661
666.318	0.0133413
666.396	0.0135011
666.474	0.0133575
666.552	0.0134499
666.630	0.0134393
666.708	0.0134616
666.786	0.0134362
666.864	0.0133896
666.943	0.0132571
667.021	0.0134421
667.099	0.0135092
667.177	0.0133833
667.255	0.0132999
667.333	0.0132661
667.411	0.0134100
667.489	0.0134362
667.568	0.0132943
667.646	0.0133498
667.724	0.0133690
667.802	0.0132806
667.880	0.0133283
667.958	0.0133985
668.036	0.0134252
668.114	0.0136402
668.193	0.0134966
668.271	0.0132593
668.349	0.0134611
668.427	0.0135553
668.505	0.0134821
668.583	0.0134274
668.661	0.0135320
668.739	0.0135562
668.818	0.0134734
668.896	0.0134899
668.974	0.0134304
669.052	0.0135493
669.130	0.0135322
669.208	0.0135207
669.286	0.0135249
669.364	0.0136298
669.443	0.0137125
669.521	0.0136177
669.599	0.0135584
669.677	0.0134875
669.755	0.0134509
669.833	0.0135502
669.911	0.0137231
669.989	0.0135240
670.068	0.0135127
670.146	0.0138610
670.224	0.0135982
670.302	0.0135937
670.380	0.0135234
670.458	0.0135858
670.536	0.0137136
670.614	0.0134857
670.693	0.0134959
670.771	0.0136333
670.849	0.0135712
670.927	0.0137640
671.005	0.0137170
671.083	0.0136992
671.161	0.0136206
671.239	0.0136482
671.318	0.0136100
671.396	0.0136510
671.474	0.0136422
671.552	0.0135384
671.630	0.0135587
671.708	0.0134820
671.786	0.0135199
671.864	0.0136680
671.943	0.0135943
672.021	0.0135575
672.099	0.0133881
672.177	0.0134294
672.255	0.0134837
672.333	0.0135444
672.411	0.0135420
672.489	0.0136050
672.568	0.0136221
672.646	0.0135342
672.724	0.0136066
672.802	0.0135196
672.880	0.0135684
672.958	0.0137733
673.036	0.0137235
673.114	0.0136333
673.193	0.0136915
673.271	0.0136617
673.349	0.0137267
673.427	0.0136444
673.505	0.0135004
673.583	0.0137354
673.661	0.0136208
673.739	0.0137846
673.818	0.0136752
673.896	0.0136566
673.974	0.0135935
674.052	0.0135201
674.130	0.0134672
674.208	0.0136718
674.286	0.0135101
674.364	0.0134313
674.443	0.0133873
674.521	0.0133328
674.599	0.0132633
674.677	0.0131540
674.755	0.0133669
674.833	0.0132436
674.911	0.0133692
674.989	0.0133231
675.068	0.0133868
675.146	0.0135410
675.224	0.0136279
675.302	0.0135822
675.380	0.0137821
675.458	0.0138039
675.536	0.0138153
675.614	0.0138320
675.693	0.0140599
675.771	0.0141165
675.849	0.0141693
675.927	0.0140965
676.005	0.0140802
676.083	0.0141301
676.161	0.0141460
676.239	0.0140923
676.318	0.0140247
676.396	0.0138741
676.474	0.0138854
676.552	0.0137505
676.630	0.0136170
676.708	0.0133912
676.786	0.0132455
676.864	0.0132448
676.943	0.0132072
677.021	0.0129154
677.099	0.0128893
677.177	0.0126766
677.255	0.0125699
677.333	0.0125685
677.411	0.0125044
677.489	0.0126186
677.568	0.0126252
677.646	0.0125811
677.724	0.0127807
677.802	0.0128554
677.880	0.0128755
677.958	0.0131746
678.036	0.0134208
678.114	0.0135388
678.193	0.0137847
678.271	0.0139702
678.349	0.0142347
678.427	0.0143841
678.505	0.0145763
678.583	0.0148286
678.661	0.0147769
678.739	0.0149786
678.818	0.0150906
678.896	0.0153311
678.974	0.0152128
679.052	0.0152584
679.130	0.0151418
679.208	0.0151580
679.286	0.0148951
679.364	0.0147726
679.443	0.0146545
679.521	0.0143651
679.599	0.0139175
679.677	0.0137296
679.755	0.0134215
679.833	0.0130992
679.911	0.0126090
679.989	0.0123833
680.068	0.0119756
680.146	0.0118011
680.224	0.0115254
680.302	0.0112495
680.380	0.0113543
680.458	0.0110937
680.536	0.0110199
680.614	0.0110036
680.693	0.0109163
680.771	0.0112206
680.849	0.0114584
680.927	0.0116759
681.005	0.0120190
681.083	0.0123900
681.161	0.0126767
681.239	0.0132047
681.318	0.0137225
681.396	0.0140730
681.474	0.0146411
681.552	0.0149883
681.630	0.0156767
681.708	0.0159881
681.786	0.0164191
681.864	0.0165507
681.943	0.0168972
682.021	0.0170757
682.099	0.0172707
682.177	0.0173324
682.255	0.0171871
682.333	0.0168327
682.411	0.0167341
682.489	0.0164135
682.568	0.0159022
682.646	0.0154766
682.724	0.0149753
682.802	0.0144545
682.880	0.0139422
682.958	0.0131915
683.036	0.0125925
683.114	0.0120975
683.193	0.0115288
683.271	0.0109708
683.349	0.0104053
683.427	0.00979622
683.505	0.00951508
683.583	0.00929390
683.661	0.00888596
683.739	0.00894485
683.818	0.00897102
683.896	0.00893524
683.974	0.00905197
684.052	0.00940132
684.130	0.00972824
684.208	0.0103620
684.286	0.0109132
684.364	0.0115829
684.443	0.0122081
684.521	0.0131107
684.599	0.0137718
684.677	0.0145146
684.755	0.0151385
684.833	0.0156522
684.911	0.0162859
684.989	0.0168546
685.068	0.0173512
685.146	0.0176184
685.224	0.0176760
685.302	0.0179513
685.380	0.0181294
685.458	0.0180103
685.536	0.0178870
685.614	0.0176639
685.693	0.0172406
685.771	0.0169772
685.849	0.0166409
685.927	0.0160806
686.005	0.0156314
686.083	0.0150184
686.161	0.0143522
686.239	0.0137915
686.318	0.0132253
686.396	0.0126578
686.474	0.0119984
686.552	0.0115706
686.630	0.0110807
686.708	0.0107830
686.786	0.0103812
686.864	0.0101829
686.943	0.00998024
687.021	0.00989410
687.099	0.00996994
687.177	0.0100346
687.255	0.0101792
687.333	0.0103207
687.411	0.0103345
687.489	0.0107555
687.568	0.0109641
687.646	0.0113509
687.724	0.0116373
687.802	0.0120631
687.880	0.0125520
687.958	0.0128891
688.036	0.0132593
688.114	0.0135435
688.193	0.0139812
688.271	0.0145025
688.349	0.0145498
688.427	0.0149167
688.505	0.0149805
688.583	0.0150148
688.661	0.0151123
688.739	0.0151609
688.818	0.0150446
688.896	0.0150835
688.974	0.0148095
689.052	0.0149268
689.130	0.0149564
689.208	0.0147076
689.286	0.0146384
689.364	0.0145602
689.443	0.0145344
689.521	0.0143520
689.599	0.0143442
689.677	0.0144270
689.755	0.0141815
689.833	0.0142655
689.911	0.0142185
689.989	0.0142747
690.068	0.0141018
690.146	0.0139235
690.224	0.0138491
690.302	0.0137801
690.380	0.0135660
690.458	0.0133114
690.536	0.0133799
690.614	0.0131702
690.693	0.0129888
690.771	0.0129494
690.849	0.0127633
690.927	0.0125291
691.005	0.0125076
691.083	0.0123618
691.161	0.0120332
691.239	0.0120318
691.318	0.0118069
691.396	0.0117006
691.474	0.0116833
691.552	0.0116804
691.630	0.0118497
691.708	0.0119879
691.786	0.0119927
691.864	0.0121162
691.943	0.0125004
692.021	0.0126102
692.099	0.0129889
692.177	0.0131866
692.255	0.0132716
692.333	0.0134576
692.411	0.0137527
692.489	0.0139540
692.568	0.0141280
692.646	0.0142002
692.724	0.0142102
692.802	0.0141685
692.880	0.0144409
692.958	0.0144950
693.036	0.0144865
693.114	0.0145793
693.193	0.0144115
693.271	0.0143821
693.349	0.0143278
693.427	0.0143999
693.505	0.0142393
693.583	0.0140921
693.661	0.0140572
693.739	0.0139861
693.818	0.0139573
693.896	0.0139917
693.974	0.0140099
694.052	0.0140157
694.130	0.0139735
694.208	0.0139896
694.286	0.0138982
694.364	0.0138992
694.443	0.0139595
694.521	0.0139795
694.599	0.0138509
694.677	0.0137805
694.755	0.0136365
694.833	0.0136988
694.911	0.0137022
694.989	0.0135820
695.068	0.0134764
695.146	0.0133537
695.224	0.0132330
695.302	0.0132273
695.380	0.0130894
695.458	0.0128980
695.536	0.0129914
695.614	0.0128379
695.693	0.0127803
695.771	0.0128154
695.849	0.0126143
695.927	0.0125993
696.005	0.0126669
696.083	0.0126414
696.161	0.0125972
696.239	0.0127531
696.318	0.0125545
696.396	0.0127589
696.474	0.0129058
696.552	0.0128616
696.630	0.0130555
696.708	0.0132153
696.786	0.0134584
696.864	0.0136513
696.943	0.0138197
697.021	0.0140842
697.099	0.0143913
697.177	0.0146355
697.255	0.0149068
697.333	0.0151023
697.411	0.0153317
697.489	0.0154117
697.568	0.0154607
697.646	0.0155334
697.724	0.0155223
697.802	0.0156187
697.880	0.0154265
697.958	0.0151583
698.036	0.0148618
698.114	0.0146623
698.193	0.0143366
698.271	0.0141197
698.349	0.0136441
698.427	0.0133362
698.505	0.0129185
698.583	0.0124159
698.661	0.0120639
698.739	0.0117593
698.818	0.0114124
698.896	0.0110223
698.974	0.0107594
699.052	0.0106665
699.130	0.0105555
699.208	0.0105442
699.286	0.0104179
699.364	0.0104849
699.443	0.0107826
699.521	0.0109337
699.599	0.0112280
699.677	0.0115170
699.755	0.0119521
699.833	0.0124572
699.911	0.0130239
699.989	0.0135130
700.068	0.0140855
700.146	0.0144344
700.224	0.0148100
700.302	0.0153378
700.380	0.0156552
700.458	0.0159542
700.536	0.0161570
700.614	0.0163619
700.693	0.0163733
700.771	0.0165836
700.849	0.0168750
700.927	0.0167657
701.005	0.0166606
701.083	0.0165839
701.161	0.0164204
701.239	0.0163226
701.318	0.0161812
701.396	0.0161281
701.474	0.0156704
701.552	0.0154675
701.630	0.0151944
701.708	0.0147737
701.786	0.0145953
701.864	0.0140871
701.943	0.0136961
702.021	0.0134617
702.099	0.0130573
702.177	0.0126789
702.255	0.0124096
702.333	0.0121315
702.411	0.0119054
702.489	0.0115611
702.568	0.0113527
702.646	0.0112517
702.724	0.0111918
702.802	0.0111443
702.880	0.0110897
702.958	0.0111237
703.036	0.0111658
703.114	0.0112058
703.193	0.0112337
703.271	0.0114615
703.349	0.0115733
703.427	0.0118277
703.505	0.0118147
703.583	0.0119458
703.661	0.0122448
703.739	0.0124162
703.818	0.0127714
703.896	0.0128094
703.974	0.0129249
704.052	0.0130880
704.130	0.0134541
704.208	0.0134734
704.286	0.0138191
704.364	0.0140351
704.443	0.0144766
704.521	0.0147021
704.599	0.0150078
704.677	0.0153635
704.755	0.0156245
704.833	0.0159917
704.911	0.0161935
704.989	0.0163268
705.068	0.0163618
705.146	0.0165019
705.224	0.0164828
705.302	0.0163088
705.380	0.0160114
705.458	0.0155680
705.536	0.0153529
705.614	0.0150620
705.693	0.0148014
705.771	0.0143613
705.849	0.0140636
705.927	0.0137022
706.005	0.0133463
706.083	0.0129499
706.161	0.0128558
706.239	0.0127763
706.318	0.0125450
706.396	0.0121898
706.474	0.0122233
706.552	0.0120086
706.630	0.0121114
706.708	0.0119751
706.786	0.0120088
706.864	0.0119926
706.943	0.0120474
707.021	0.0121586
707.099	0.0121655
707.177	0.0123648
707.255	0.0125620
707.333	0.0125881
707.411	0.0126386
707.489	0.0126866
707.568	0.0128623
707.646	0.0133105
707.724	0.0134048
707.802	0.0136029
707.880	0.0138799
707.958	0.0141893
708.036	0.0142780
708.114	0.0146143
708.193	0.0147262
708.271	0.0150421
708.349	0.0151555
708.427	0.0150893
708.505	0.0150938
708.583	0.0150593
708.661	0.0149377
708.739	0.0148072
708.818	0.0145163
708.896	0.0141590
708.974	0.0140327
709.052	0.0136999
709.130	0.0132350
709.208	0.0129955
709.286	0.0126575
709.364	0.0123858
709.443	0.0119338
709.521	0.0117881
709.599	0.0115833
709.677	0.0112229
709.755	0.0111133
709.833	0.0110149
709.911	0.0110788
709.989	0.0110280
710.068	0.0110545
710.146	0.0111683
710.224	0.0113924
710.302	0.0115127
710.380	0.0118182
710.458	0.0120992
710.536	0.0124285
710.614	0.0126432
710.693	0.0130759
710.771	0.0131954
710.849	0.0135361
710.927	0.0138406
711.005	0.0140127
711.083	0.0143015
711.161	0.0145300
711.239	0.0147781
711.318	0.0148134
711.396	0.0151952
711.474	0.0151513
711.552	0.0153848
711.630	0.0156088
711.708	0.0156138
711.786	0.0157231
711.864	0.0158186
711.943	0.0160162
712.021	0.0160692
712.099	0.0161100
712.177	0.0162323
712.255	0.0162241
712.333	0.0160443
712.411	0.0159447
712.489	0.0158871
712.568	0.0156258
712.646	0.0155788
712.724	0.0151537
712.802	0.0147595
712.880	0.0145788
712.958	0.0142042
713.036	0.0135985
713.114	0.0132496
713.193	0.0129547
713.271	0.0125723
713.349	0.0122662
713.427	0.0120068
713.505	0.0118140
713.583	0.0115763
713.661	0.0113907
713.739	0.0112569
713.818	0.0109330
713.896	0.0110617
713.974	0.0108997
714.052	0.0108765
714.130	0.0109787
714.208	0.0109854
714.286	0.0110277
714.364	0.0109978
714.443	0.0109812
714.521	0.0112558
714.599	0.0115155
714.677	0.0115395
714.755	0.0118456
714.833	0.0122082
714.911	0.0124368
714.989	0.0126920
715.068	0.0130451
715.146	0.0132085
715.224	0.0134185
715.302	0.0136857
715.380	0.0138802
715.458	0.0140780
715.536	0.0142912
715.614	0.0143990
715.693	0.0145695
715.771	0.0146058
715.849	0.0147529
715.927	0.0147873
716.005	0.0148228
716.083	0.0150217
716.161	0.0151018
716.239	0.0149696
716.318	0.0152114
716.396	0.0150391
716.474	0.0150485
716.552	0.0151403
716.630	0.0151261
716.708	0.0151338
716.786	0.0152123
716.864	0.0151080
716.943	0.0150600
717.021	0.0150434
717.099	0.0150243
717.177	0.0147883
717.255	0.0148392
717.333	0.0146719
717.411	0.0146280
717.489	0.0144507
717.568	0.0143566
717.646	0.0142468
717.724	0.0140046
717.802	0.0140347
717.880	0.0139593
717.958	0.0137790
718.036	0.0137277
718.114	0.0135430
718.193	0.0134492
718.271	0.0133807
718.349	0.0131152
718.427	0.0133409
718.505	0.0132185
718.583	0.0130797
718.661	0.0130594
718.739	0.0129739
718.818	0.0129964
718.896	0.0128118
718.974	0.0127062
719.052	0.0126273
719.130	0.0123727
719.208	0.0124222
719.286	0.0123294
719.364	0.0122162
719.443	0.0120692
719.521	0.0120649
719.599	0.0120139
719.677	0.0120620
719.755	0.0120403
719.833	0.0121268
719.911	0.0123191
719.989	0.0123854
720.068	0.0124675
720.146	0.0127570
720.224	0.0129559
720.302	0.0130106
720.380	0.0133547
720.458	0.0134490
720.536	0.0135913
720.614	0.0139313
720.693	0.0139311
720.771	0.0142073
720.849	0.0144412
720.927	0.0145691
721.005	0.0146090
721.083	0.0148206
721.161	0.0147939
721.239	0.0148250
721.318	0.0147169
721.396	0.0147023
721.474	0.0146471
721.552	0.0142995
721.630	0.0141486
721.708	0.0139369
721.786	0.0136044
721.864	0.0132944
721.943	0.0131197
722.021	0.0130657
722.099	0.0129522
722.177	0.0127460
722.255	0.0127734
722.333	0.0128702
722.411	0.0128835
722.489	0.0131526
722.568	0.0133323
722.646	0.0134642
722.724	0.0135797
722.802	0.0137879
722.880	0.0140733
722.958	0.0142266
723.036	0.0144175
723.114	0.0143593
723.193	0.0143638
723.271	0.0145406
723.349	0.0144698
723.427	0.0144499
723.505	0.0145011
723.583	0.0142943
723.661	0.0142612
723.739	0.0142141
723.818	0.0140253
723.896	0.0139992
723.974	0.0139996
724.052	0.0138866
724.130	0.0138152
724.208	0.0138815
724.286	0.0138866
724.364	0.0137581
724.443	0.0137862
724.521	0.0137385
724.599	0.0136359
724.677	0.0138170
724.755	0.0136105
724.833	0.0134470
724.911	0.0134369
724.989	0.0133875
725.068	0.0132671
725.146	0.0132639
725.224	0.0130580
725.302	0.0130209
725.380	0.0131475
725.458	0.0130694
725.536	0.0130491
725.614	0.0129530
725.693	0.0132220
725.771	0.0131183
725.849	0.0132423
725.927	0.0133664
726.005	0.0133717
726.083	0.0134180
726.161	0.0134074
726.239	0.0134294
726.318	0.0135472
726.396	0.0134465
726.474	0.0133704
726.552	0.0131742
726.630	0.0130807
726.708	0.0131086
726.786	0.0129826
726.864	0.0128986
726.943	0.0128410
727.021	0.0129197
727.099	0.0128355
727.177	0.0127991
727.255	0.0128119
727.333	0.0127370
727.411	0.0127670
727.489	0.0126056
727.568	0.0126991
727.646	0.0125866
727.724	0.0126015
727.802	0.0126860
727.880	0.0126260
727.958	0.0128273
728.036	0.0129050
728.114	0.0131466
728.193	0.0133404
728.271	0.0135414
728.349	0.0138170
728.427	0.0142899
728.505	0.0145628
728.583	0.0145610
728.661	0.0149997
728.739	0.0151741
728.818	0.0153369
728.896	0.0152507
728.974	0.0153484
729.052	0.0151591
729.130	0.0152825
729.208	0.0151225
729.286	0.0148346
729.364	0.0147000
729.443	0.0144876
729.521	0.0141367
729.599	0.0140185
729.677	0.0137745
729.755	0.0134726
729.833	0.0132002
729.911	0.0131080
729.989	0.0128416
730.068	0.0129138
730.146	0.0128355
730.224	0.0127158
730.302	0.0127137
730.380	0.0127618
730.458	0.0128427
730.536	0.0129326
730.614	0.0132317
730.693	0.0133003
730.771	0.0136371
730.849	0.0135566
730.927	0.0137740
731.005	0.0137756
731.083	0.0138280
731.161	0.0137921
731.239	0.0138797
731.318	0.0139312
731.396	0.0140185
731.474	0.0138750
731.552	0.0138194
731.630	0.0138538
731.708	0.0136970
731.786	0.0137313
731.864	0.0135926
731.943	0.0135591
732.021	0.0134840
732.099	0.0134739
732.177	0.0132875
732.255	0.0132613
732.333	0.0133006
732.411	0.0131924
732.489	0.0130820
732.568	0.0131876
732.646	0.0131418
732.724	0.0131409
732.802	0.0131917
732.880	0.0130386
732.958	0.0130363
733.036	0.0129979
733.114	0.0130171
733.193	0.0130527
733.271	0.0129684
733.349	0.0130260
733.427	0.0129775
733.505	0.0128662
733.583	0.0129496
733.661	0.0128933
733.739	0.0127881
733.818	0.0128185
733.896	0.0129942
733.974	0.0129945
734.052	0.0130621
734.130	0.0129147
734.208	0.0130809
734.286	0.0133569
734.364	0.0133647
734.443	0.0134237
734.521	0.0135538
734.599	0.0137820
734.677	0.0138623
734.755	0.0139902
734.833	0.0139885
734.911	0.0140937
734.989	0.0141003
735.068	0.0141652
735.146	0.0142532
735.224	0.0141747
735.302	0.0141477
735.380	0.0140954
735.458	0.0140430
735.536	0.0139915
735.614	0.0139179
735.693	0.0138257
735.771	0.0137767
735.849	0.0139044
735.927	0.0138676
736.005	0.0140250
736.083	0.0141054
736.161	0.0141014
736.239	0.0142688
736.318	0.0143648
736.396	0.0143901
736.474	0.0144907
736.552	0.0145847
736.630	0.0145533
736.708	0.0146319
736.786	0.0146943
736.864	0.0146975
736.943	0.0146205
737.021	0.0147612
737.099	0.0143486
737.177	0.0144076
737.255	0.0143009
737.333	0.0140591
737.411	0.0139458
737.489	0.0139262
737.568	0.0136848
737.646	0.0136018
737.724	0.0135252
737.802	0.0134193
737.880	0.0134084
737.958	0.0133414
738.036	0.0133128
738.114	0.0131857
738.193	0.0132156
738.271	0.0131669
738.349	0.0130480
738.427	0.0129057
738.505	0.0127853
738.583	0.0128033
738.661	0.0125900
738.739	0.0124499
738.818	0.0124004
738.896	0.0123001
738.974	0.0122550
739.052	0.0122569
739.130	0.0121790
739.208	0.0122401
739.286	0.0121337
739.364	0.0123252
739.443	0.0125132
739.521	0.0124515
739.599	0.0125546
739.677	0.0127413
739.755	0.0127738
739.833	0.0129729
739.911	0.0131448
739.989	0.0133446
740.068	0.0133565
740.146	0.0134119
740.224	0.0136495
740.302	0.0138302
740.380	0.0137455
740.458	0.0138592
740.536	0.0141058
740.614	0.0141908
740.693	0.0140411
740.771	0.0140559
740.849	0.0142577
740.927	0.0144318
741.005	0.0143810
741.083	0.0143142
741.161	0.0144119
741.239	0.0144582
741.318	0.0145481
741.396	0.0144527
741.474	0.0144035
741.552	0.0144354
741.630	0.0145686
741.708	0.0146284
741.786	0.0144879
741.864	0.0144492
741.943	0.0143530
742.021	0.0143145
742.099	0.0143056
742.177	0.0143056
742.255	0.0141636
742.333	0.0140917
742.411	0.0141196
742.489	0.0139004
742.568	0.0138255
742.646	0.0137895
742.724	0.0138544
742.802	0.0137195
742.880	0.0137276
742.958	0.0137347
743.036	0.0137048
743.114	0.0136493
743.193	0.0136539
743.271	0.0136010
743.349	0.0134586
743.427	0.0136119
743.505	0.0132557
743.583	0.0131628
743.661	0.0132932
743.739	0.0131840
743.818	0.0131155
743.896	0.0128970
743.974	0.0127665
744.052	0.0126784
744.130	0.0127287
744.208	0.0125053
744.286	0.0124850
744.364	0.0124735
744.443	0.0124563
744.521	0.0123782
744.599	0.0124455
744.677	0.0123658
744.755	0.0124596
744.833	0.0124951
744.911	0.0125764
744.989	0.0127923
745.068	0.0129989
745.146	0.0129283
745.224	0.0131162
745.302	0.0132462
745.380	0.0135078
745.458	0.0134757
745.536	0.0135941
745.614	0.0136584
745.693	0.0138721
745.771	0.0138919
745.849	0.0138402
745.927	0.0139196
746.005	0.0138876
746.083	0.0137815
746.161	0.0138895
746.239	0.0139291
746.318	0.0138528
746.396	0.0138130
746.474	0.0138235
746.552	0.0139247
746.630	0.0137373
746.708	0.0137290
746.786	0.0137937
746.864	0.0138069
746.943	0.0137088
747.021	0.0137126
747.099	0.0136390
747.177	0.0136511
747.255	0.0136472
747.333	0.0135408
747.411	0.0135331
747.489	0.0136327
747.568	0.0134613
747.646	0.0134269
747.724	0.0134646
747.802	0.0133904
747.880	0.0132478
747.958	0.0132366
748.036	0.0133575
748.114	0.0131875
748.193	0.0132408
748.271	0.0131343
748.349	0.0132098
748.427	0.0131773
748.505	0.0133894
748.583	0.0133935
748.661	0.0134357
748.739	0.0136349
748.818	0.0137231
748.896	0.0137962
748.974	0.0139177
749.052	0.0138189
749.130	0.0140549
749.208	0.0139963
749.286	0.0141314
749.364	0.0139574
749.443	0.0140562
749.521	0.0140292
749.599	0.0141331
749.677	0.0141161
749.755	0.0140080
749.833	0.0140832
749.911	0.0139098
749.989	0.0136906
750.068	0.0137784
750.146	0.0137949
750.224	0.0136572
750.302	0.0136726
750.380	0.0135666
750.458	0.0134851
750.536	0.0135078
750.614	0.0133446
750.693	0.0133035
750.771	0.0133804
750.849	0.0133225
750.927	0.0132751
751.005	0.0132990
751.083	0.0135117
751.161	0.0133949
751.239	0.0134299
751.318	0.0133109
751.396	0.0135323
751.474	0.0134059
751.552	0.0134321
751.630	0.0133164
751.708	0.0133048
751.786	0.0132505
751.864	0.0132398
751.943	0.0130755
752.021	0.0130154
752.099	0.0128902
752.177	0.0127989
752.255	0.0127818
752.333	0.0127988
752.411	0.0127151
752.489	0.0127368
752.568	0.0126952
752.646	0.0125280
752.724	0.0125566
752.802	0.0126304
752.880	0.0125677
752.958	0.0129539
753.036	0.0128635
753.114	0.0128677
753.193	0.0131141
753.271	0.0131405
753.349	0.0132447
753.427	0.0134032
753.505	0.0136477
753.583	0.0136003
753.661	0.0136951
753.739	0.0137936
753.818	0.0138586
753.896	0.0140332
753.974	0.0141695
754.052	0.0143090
754.130	0.0143684
754.208	0.0142515
754.286	0.0143382
754.364	0.0144633
754.443	0.0142794
754.521	0.0144267
754.599	0.0144847
754.677	0.0144997
754.755	0.0141752
754.833	0.0141924
754.911	0.0142592
754.989	0.0140671
755.068	0.0141695
755.146	0.0141183
755.224	0.0141364
755.302	0.0140831
755.380	0.0140027
755.458	0.0139778
755.536	0.0139613
755.614	0.0139315
755.693	0.0138400
755.771	0.0138953
755.849	0.0138254
755.927	0.0137198
756.005	0.0135625
756.083	0.0134978
756.161	0.0135410
756.239	0.0134911
756.318	0.0132745
756.396	0.0132681
756.474	0.0132963
756.552	0.0131598
756.630	0.0130484
756.708	0.0130363
756.786	0.0129667
756.864	0.0129884
756.943	0.0130103
757.021	0.0130274
757.099	0.0131168
757.177	0.0130591
757.255	0.0131487
757.333	0.0133069
757.411	0.0133334
757.489	0.0133055
757.568	0.0133974
757.646	0.0133788
757.724	0.0134073
757.802	0.0134673
757.880	0.0134458
757.958	0.0134431
758.036	0.0134641
758.114	0.0133910
758.193	0.0133890
758.271	0.0133961
758.349	0.0133144
758.427	0.0134578
758.505	0.0134517
758.583	0.0134731
758.661	0.0133865
758.739	0.0134684
758.818	0.0134624
758.896	0.0134973
758.974	0.0136404
759.052	0.0136719
759.130	0.0136799
759.208	0.0136251
759.286	0.0138454
759.364	0.0138612
759.443	0.0138791
759.521	0.0140682
759.599	0.0141281
759.677	0.0139554
759.755	0.0138451
759.833	0.0140331
759.911	0.0141683
759.989	0.0139427
760.068	0.0138315
760.146	0.0139166
760.224	0.0138512
760.302	0.0137645
760.380	0.0138041
760.458	0.0137036
760.536	0.0136408
760.614	0.0135141
760.693	0.0135444
760.771	0.0134017
760.849	0.0131228
760.927	0.0132325
761.005	0.0132335
761.083	0.0131316
761.161	0.0131431
761.239	0.0132021
761.318	0.0131129
761.396	0.0130421
761.474	0.0130532
761.552	0.0133108
761.630	0.0133408
761.708	0.0134007
761.786	0.0133975
761.864	0.0135510
761.943	0.0135847
762.021	0.0136326
762.099	0.0137192
762.177	0.0138672
762.255	0.0138533
762.333	0.0137878
762.411	0.0137222
762.489	0.0139521
762.568	0.0140265
762.646	0.0138485
762.724	0.0140136
762.802	0.0141014
762.880	0.0140500
762.958	0.0139745
763.036	0.0138625
763.114	0.0139348
763.193	0.0141419
763.271	0.0141051
763.349	0.0139030
763.427	0.0139418
763.505	0.0141373
763.583	0.0141192
763.661	0.0139929
763.739	0.0139085
763.818	0.0139507
763.896	0.0138323
763.974	0.0138929
764.052	0.0136794
764.130	0.0137366
764.208	0.0135054
764.286	0.0135384
764.364	0.0134758
764.443	0.0133042
764.521	0.0133622
764.599	0.0133076
764.677	0.0131280
764.755	0.0131316
764.833	0.0131009
764.911	0.0131921
764.989	0.0129568
765.068	0.0130050
765.146	0.0129990
765.224	0.0128649
765.302	0.0130016
765.380	0.0129838
765.458	0.0131763
765.536	0.0130707
765.614	0.0131879
765.693	0.0131959
765.771	0.0131968
765.849	0.0132244
765.927	0.0133083
766.005	0.0133566
766.083	0.0133612
766.161	0.0133783
766.239	0.0133965
766.318	0.0135092
766.396	0.0134637
766.474	0.0135033
766.552	0.0136003
766.630	0.0134695
766.708	0.0135119
766.786	0.0133852
766.864	0.0135907
766.943	0.0136200
767.021	0.0135568
767.099	0.0137025
767.177	0.0136179
767.255	0.0136044
767.333	0.0135944
767.411	0.0136841
767.489	0.0137305
767.568	0.0137073
767.646	0.0138777
767.724	0.0138517
767.802	0.0139106
767.880	0.0138349
767.958	0.0137716
768.036	0.0137848
768.114	0.0137711
768.193	0.0139065
768.271	0.0139241
768.349	0.0138189
768.427	0.0138262
768.505	0.0136833
768.583	0.0138141
768.661	0.0137437
768.739	0.0137306
768.818	0.0137167
768.896	0.0137251
768.974	0.0135107
769.052	0.0133755
769.130	0.0135904
769.208	0.0134988
769.286	0.0133601
769.364	0.0132941
769.443	0.0132484
769.521	0.0131828
769.599	0.0131720
769.677	0.0131485
769.755	0.0131621
769.833	0.0130817
769.911	0.0131748
769.989	0.0132507
770.068	0.0132941
770.146	0.0132081
770.224	0.0131270
770.302	0.0132549
770.380	0.0133465
770.458	0.0133625
770.536	0.0132997
770.614	0.0134278
770.693	0.0134807
770.771	0.0134860
770.849	0.0133417
770.927	0.0134621
771.005	0.0135760
771.083	0.0134397
771.161	0.0135324
771.239	0.0135841
771.318	0.0136279
771.396	0.0136753
771.474	0.0137953
771.552	0.0136885
771.630	0.0137547
771.708	0.0139771
771.786	0.0141484
771.864	0.0140495
771.943	0.0141227
772.021	0.0140326
772.099	0.0140663
772.177	0.0142355
772.255	0.0141882
772.333	0.0143371
772.411	0.0142511
772.489	0.0141664
772.568	0.0141510
772.646	0.0139538
772.724	0.0139227
772.802	0.0139459
772.880	0.0139913
772.958	0.0140158
773.036	0.0137382
773.114	0.0137441
773.193	0.0137356
773.271	0.0136169
773.349	0.0134744
773.427	0.0134361
773.505	0.0133958
773.583	0.0132532
773.661	0.0132796
773.739	0.0134263
773.818	0.0132939
773.896	0.0132653
773.974	0.0133057
774.052	0.0131506
774.130	0.0132572
774.208	0.0131213
774.286	0.0131876
774.364	0.0131991
774.443	0.0131969
774.521	0.0131201
774.599	0.0131715
774.677	0.0131319
774.755	0.0131353
774.833	0.0132388
774.911	0.0132545
774.989	0.0132014
775.068	0.0131644
775.146	0.0131783
775.224	0.0132535
775.302	0.0133741
775.380	0.0133256
775.458	0.0133421
775.536	0.0132597
775.614	0.0132877
775.693	0.0134524
775.771	0.0135137
775.849	0.0135895
775.927	0.0136758
776.005	0.0137466
776.083	0.0137885
776.161	0.0137202
776.239	0.0137992
776.318	0.0137381
776.396	0.0138586
776.474	0.0138791
776.552	0.0138641
776.630	0.0138024
776.708	0.0137551
776.786	0.0137402
776.864	0.0137012
776.943	0.0135821
777.021	0.0135500
777.099	0.0135274
777.177	0.0134262
777.255	0.0135197
777.333	0.0134563
777.411	0.0132869
777.489	0.0132972
777.568	0.0132892
777.646	0.0132441
777.724	0.0131992
777.802	0.0133226
777.880	0.0135445
777.958	0.0134042
778.036	0.0134129
778.114	0.0134789
778.193	0.0135599
778.271	0.0135564
778.349	0.0135584
778.427	0.0135902
778.505	0.0137068
778.583	0.0136275
778.661	0.0136319
778.739	0.0136380
778.818	0.0135403
778.896	0.0137974
778.974	0.0136219
779.052	0.0137880
779.130	0.0136958
779.208	0.0138144
779.286	0.0135043
779.364	0.0135973
779.443	0.0134830
779.521	0.0135455
779.599	0.0133102
779.677	0.0134223
779.755	0.0132709
779.833	0.0134238
779.911	0.0132500
779.989	0.0131058
780.068	0.0131985
780.146	0.0130846
780.224	0.0131270
780.302	0.0131490
780.380	0.0131567
780.458	0.0131081
780.536	0.0132092
780.614	0.0133028
780.693	0.0132548
780.771	0.0133021
780.849	0.0134141
780.927	0.0134016
781.005	0.0134277
781.083	0.0135371
781.161	0.0136495
781.239	0.0138701
781.318	0.0138505
781.396	0.0138192
781.474	0.0138819
781.552	0.0139434
781.630	0.0139120
781.708	0.0139315
781.786	0.0138148
781.864	0.0140125
781.943	0.0140478
782.021	0.0140952
782.099	0.0140543
782.177	0.0139427
782.255	0.0141521
782.333	0.0139397
782.411	0.0139669
782.489	0.0140543
782.568	0.0138256
782.646	0.0137503
782.724	0.0137189
782.802	0.0137620
782.880	0.0135315
782.958	0.0135975
783.036	0.0134244
783.114	0.0134058
783.193	0.0133382
783.271	0.0132861
783.349	0.0131888
783.427	0.0129773
783.505	0.0129198
783.583	0.0129982
783.661	0.0130784
783.739	0.0128378
783.818	0.0128725
783.896	0.0130051
783.974	0.0127988
784.052	0.0129133
784.130	0.0129673
784.208	0.0129453
784.286	0.0129166
784.364	0.0131419
784.443	0.0133908
784.521	0.0133012
784.599	0.0132265
784.677	0.0134148
784.755	0.0135178
784.833	0.0135712
784.911	0.0135402
784.989	0.0135312
785.068	0.0136697
785.146	0.0137749
785.224	0.0138021
785.302	0.0138193
785.380	0.0138091
785.458	0.0137645
785.536	0.0138351
785.614	0.0139362
785.693	0.0137417
785.771	0.0137849
785.849	0.0139597
785.927	0.0139371
786.005	0.0141463
786.083	0.0139150
786.161	0.0138695
786.239	0.0138269
786.318	0.0138873
786.396	0.0139732
786.474	0.0138968
786.552	0.0138748
786.630	0.0138554
786.708	0.0137057
786.786	0.0137946
786.864	0.0136375
786.943	0.0135802
787.021	0.0134493
787.099	0.0135152
787.177	0.0135122
787.255	0.0133211
787.333	0.0134804
787.411	0.0134145
787.489	0.0132549
787.568	0.0131169
787.646	0.0131988
787.724	0.0132163
787.802	0.0131872
787.880	0.0131344
787.958	0.0131149
788.036	0.0130394
788.114	0.0131229
788.193	0.0131052
788.271	0.0129984
788.349	0.0131645
788.427	0.0132069
788.505	0.0133562
788.583	0.0131478
788.661	0.0132872
788.739	0.0132495
788.818	0.0134052
788.896	0.0133719
788.974	0.0134220
789.052	0.0134061
789.130	0.0135242
789.208	0.0134525
789.286	0.0134938
789.364	0.0135471
789.443	0.0135248
789.521	0.0137336
789.599	0.0137241
789.677	0.0137990
789.755	0.0137602
789.833	0.0137880
789.911	0.0137411
789.989	0.0137056
790.068	0.0138261
790.146	0.0139126
790.224	0.0139104
790.302	0.0137891
790.380	0.0137894
790.458	0.0138431
790.536	0.0136658
790.614	0.0136371
790.693	0.0139158
790.771	0.0139050
790.849	0.0138678
790.927	0.0137430
791.005	0.0137920
791.083	0.0137029
791.161	0.0138618
791.239	0.0137168
791.318	0.0137318
791.396	0.0137903
791.474	0.0138019
791.552	0.0135577
791.630	0.0137310
791.708	0.0136504
791.786	0.0136067
791.864	0.0135847
791.943	0.0134344
792.021	0.0134276
792.099	0.0135144
792.177	0.0134581
792.255	0.0132583
792.333	0.0133806
792.411	0.0133718
792.489	0.0131882
792.568	0.0132532
792.646	0.0133302
792.724	0.0133905
792.802	0.0133208
792.880	0.0133138
792.958	0.0133629
793.036	0.0135230
793.114	0.0132697
793.193	0.0133847
793.271	0.0135061
793.349	0.0133780
793.427	0.0133777
793.505	0.0133282
793.583	0.0134099
793.661	0.0134863
793.739	0.0135003
793.818	0.0135984
793.896	0.0136211
793.974	0.0137164
794.052	0.0135839
794.130	0.0135945
794.208	0.0137589
794.286	0.0140623
794.364	0.0137734
794.443	0.0139179
794.521	0.0139722
794.599	0.0140604
794.677	0.0139393
794.755	0.0139693
794.833	0.0139662
794.911	0.0140549
794.989	0.0139765
795.068	0.0137531
795.146	0.0137093
795.224	0.0138374
795.302	0.0137132
795.380	0.0136900
795.458	0.0136042
795.536	0.0135625
795.614	0.0134435
795.693	0.0134454
795.771	0.0131528
795.849	0.0133041
795.927	0.0133046
796.005	0.0133210
796.083	0.0131446
796.161	0.0133320
796.239	0.0132355
796.318	0.0133161
796.396	0.0132613
796.474	0.0132381
796.552	0.0133235
796.630	0.0134484
796.708	0.0135181
796.786	0.0136735
796.864	0.0136495
796.943	0.0138933
797.021	0.0138264
797.099	0.0139692
797.177	0.0140216
797.255	0.0140730
797.333	0.0140205
797.411	0.0141551
797.489	0.0140720
797.568	0.0141323
797.646	0.0141402
797.724	0.0140588
797.802	0.0139908
797.880	0.0140588
797.958	0.0139349
798.036	0.0137556
798.114	0.0137381
798.193	0.0137004
798.271	0.0136722
798.349	0.0135266
798.427	0.0134724
798.505	0.0134382
798.583	0.0135669
798.661	0.0134116
798.739	0.0134902
798.818	0.0133678
798.896	0.0132753
798.974	0.0134334
799.052	0.0135925
799.130	0.0135913
799.208	0.0133614
799.286	0.0134303
799.364	0.0135207
799.443	0.0133839
799.521	0.0134383
799.599	0.0135207
799.677	0.0134783
799.755	0.0134483
799.833	0.0135230
799.911	0.0134135
799.989	0.0134481
800.068	0.0133479
800.146	0.0133559
800.224	0.0134288
800.302	0.0133254
800.380	0.0133270
800.458	0.0134192
800.536	0.0132768
800.614	0.0132860
800.693	0.0133130
800.771	0.0132473
800.849	0.0132758
800.927	0.0134714
801.005	0.0134727
801.083	0.0132199
801.161	0.0133835
801.239	0.0135283
801.318	0.0134516
801.396	0.0135513
801.474	0.0134496
801.552	0.0135492
801.630	0.0136166
801.708	0.0137452
801.786	0.0136885
801.864	0.0138444
801.943	0.0135310
802.021	0.0136362
802.099	0.0138721
802.177	0.0136797
802.255	0.0137115
802.333	0.0136346
802.411	0.0135839
802.489	0.0136150
802.568	0.0134836
802.646	0.0134269
802.724	0.0135878
802.802	0.0135078
802.880	0.0134147
802.958	0.0133875
803.036	0.0134153
803.114	0.0134688
803.193	0.0134888
803.271	0.0135835
803.349	0.0134705
803.427	0.0135425
803.505	0.0137155
803.583	0.0135634
803.661	0.0136147
803.739	0.0138923
803.818	0.0136974
803.896	0.0136916
803.974	0.0136678
804.052	0.0137701
804.130	0.0136555
804.208	0.0136395
804.286	0.0136898
804.364	0.0135232
804.443	0.0135703
804.521	0.0134485
804.599	0.0134629
804.677	0.0134700
804.755	0.0134429
804.833	0.0133756
804.911	0.0132924
804.989	0.0132430
805.068	0.0132623
805.146	0.0132688
805.224	0.0133015
805.302	0.0132098
805.380	0.0133607
805.458	0.0132220
805.536	0.0132684
805.614	0.0133315
805.693	0.0131046
805.771	0.0131895
805.849	0.0132300
805.927	0.0133646
806.005	0.0134037
806.083	0.0134279
806.161	0.0132706
806.239	0.0131684
806.318	0.0133105
806.396	0.0134200
806.474	0.0133097
806.552	0.0132805
806.630	0.0133669
806.708	0.0132182
806.786	0.0132533
806.864	0.0133121
806.943	0.0131686
807.021	0.0133367
807.099	0.0133060
807.177	0.0133051
807.255	0.0133166
807.333	0.0132514
807.411	0.0134155
807.489	0.0135331
807.568	0.0135000
807.646	0.0134937
807.724	0.0135445
807.802	0.0136390
807.880	0.0138943
807.958	0.0138377
808.036	0.0139076
808.114	0.0140188
808.193	0.0140814
808.271	0.0138534
808.349	0.0141303
808.427	0.0141126
808.505	0.0141676
808.583	0.0141235
808.661	0.0140745
808.739	0.0140475
808.818	0.0140041
808.896	0.0140889
808.974	0.0139679
809.052	0.0139428
809.130	0.0137760
809.208	0.0137498
809.286	0.0137332
809.364	0.0137331
809.443	0.0137011
809.521	0.0135638
809.599	0.0134850
809.677	0.0134528
809.755	0.0134184
809.833	0.0133945
809.911	0.0132468
809.989	0.0132026
810.068	0.0131393
810.146	0.0131342
810.224	0.0130501
810.302	0.0129517
810.380	0.0129619
810.458	0.0128859
810.536	0.0129074
810.614	0.0127438
810.693	0.0126572
810.771	0.0126945
810.849	0.0127084
810.927	0.0127180
811.005	0.0128767
811.083	0.0129095
811.161	0.0128659
811.239	0.0127784
811.318	0.0129008
811.396	0.0130233
811.474	0.0130997
811.552	0.0133642
811.630	0.0132333
811.708	0.0133097
811.786	0.0134361
811.864	0.0135218
811.943	0.0136104
812.021	0.0135977
812.099	0.0136722
812.177	0.0137798
812.255	0.0139005
812.333	0.0139526
812.411	0.0140145
812.489	0.0140771
812.568	0.0140598
812.646	0.0141140
812.724	0.0142682
812.802	0.0140866
812.880	0.0141238
812.958	0.0141193
813.036	0.0141124
813.114	0.0142023
813.193	0.0141630
813.271	0.0140665
813.349	0.0140881
813.427	0.0141457
813.505	0.0141502
813.583	0.0141370
813.661	0.0140023
813.739	0.0140793
813.818	0.0139956
813.896	0.0141051
813.974	0.0141544
814.052	0.0140154
814.130	0.0138783
814.208	0.0138583
814.286	0.0139045
814.364	0.0137211
814.443	0.0136596
814.521	0.0137290
814.599	0.0137098
814.677	0.0135909
814.755	0.0135960
814.833	0.0136092
814.911	0.0135954
814.989	0.0135126
815.068	0.0134550
815.146	0.0134668
815.224	0.0134130
815.302	0.0134295
815.380	0.0132674
815.458	0.0133509
815.536	0.0133399
815.614	0.0132821
815.693	0.0133588
815.771	0.0131912
815.849	0.0132674
815.927	0.0132668
816.005	0.0133273
816.083	0.0133589
816.161	0.0134464
816.239	0.0134251
816.318	0.0134609
816.396	0.0134549
816.474	0.0136954
816.552	0.0137401
816.630	0.0136834
816.708	0.0137247
816.786	0.0138168
816.864	0.0138616
816.943	0.0137032
817.021	0.0138726
817.099	0.0139339
817.177	0.0137459
817.255	0.0138335
817.333	0.0135862
817.411	0.0138387
817.489	0.0138413
817.568	0.0136788
817.646	0.0137813
817.724	0.0135651
817.802	0.0136066
817.880	0.0136600
817.958	0.0136571
818.036	0.0135375
818.114	0.0135857
818.193	0.0135222
818.271	0.0135052
818.349	0.0137064
818.427	0.0137350
818.505	0.0136399
818.583	0.0136340
818.661	0.0134892
818.739	0.0135662
818.818	0.0136390
818.896	0.0136783
818.974	0.0136883
819.052	0.0136153
819.130	0.0135569
819.208	0.0136069
819.286	0.0136895
819.364	0.0136912
819.443	0.0135532
819.521	0.0135841
819.599	0.0135567
819.677	0.0134567
819.755	0.0134154
819.833	0.0134133
819.911	0.0134145
819.989	0.0134167
820.068	0.0134408
820.146	0.0133208
820.224	0.0133038
820.302	0.0134426
820.380	0.0133323
820.458	0.0134053
820.536	0.0134669
820.614	0.0133836
820.693	0.0134103
820.771	0.0133787
820.849	0.0134509
820.927	0.0135046
821.005	0.0135624
821.083	0.0133652
821.161	0.0135266
821.239	0.0135591
821.318	0.0136151
821.396	0.0137118
821.474	0.0135493
821.552	0.0134083
821.630	0.0136364
821.708	0.0137395
821.786	0.0134646
821.864	0.0137127
821.943	0.0136679
822.021	0.0135052
822.099	0.0136204
822.177	0.0135831
822.255	0.0136864
822.333	0.0135674
822.411	0.0134980
822.489	0.0134971
822.568	0.0135347
822.646	0.0134016
822.724	0.0133694
822.802	0.0132838
822.880	0.0133798
822.958	0.0133381
823.036	0.0133967
823.114	0.0133468
823.193	0.0132876
823.271	0.0132205
823.349	0.0132411
823.427	0.0133546
823.505	0.0132925
823.583	0.0131657
823.661	0.0132782
823.739	0.0132301
823.818	0.0132513
823.896	0.0131862
823.974	0.0132957
824.052	0.0131332
824.130	0.0132361
824.208	0.0132861
824.286	0.0131849
824.364	0.0133345
824.443	0.0134102
824.521	0.0133472
824.599	0.0136246
824.677	0.0135484
824.755	0.0135898
824.833	0.0137238
824.911	0.0136490
824.989	0.0136046
825.068	0.0136858
825.146	0.0138163
825.224	0.0137914
825.302	0.0138198
825.380	0.0138467
825.458	0.0138481
825.536	0.0139434
825.614	0.0139140
825.693	0.0138748
825.771	0.0137822
825.849	0.0139217
825.927	0.0138883
826.005	0.0138078
826.083	0.0137704
826.161	0.0136881
826.239	0.0137776
826.318	0.0136987
826.396	0.0135866
826.474	0.0137093
826.552	0.0135520
826.630	0.0134938
826.708	0.0136111
826.786	0.0135346
826.864	0.0135088
826.943	0.0134264
827.021	0.0135803
827.099	0.0134933
827.177	0.0135311
827.255	0.0135381
827.333	0.0134306
827.411	0.0133150
827.489	0.0134587
827.568	0.0134608
827.646	0.0135088
827.724	0.0134147
827.802	0.0133539
827.880	0.0134129
827.958	0.0134411
828.036	0.0132887
828.114	0.0131896
828.193	0.0131831
828.271	0.0133506
828.349	0.0133448
828.427	0.0131877
828.505	0.0132904
828.583	0.0132336
828.661	0.0132732
828.739	0.0134576
828.818	0.0133673
828.896	0.0133186
828.974	0.0132775
829.052	0.0133797
829.130	0.0134187
829.208	0.0134389
829.286	0.0135543
829.364	0.0135155
829.443	0.0134865
829.521	0.0134111
829.599	0.0133527
829.677	0.0135394
829.755	0.0134116
829.833	0.0135487
829.911	0.0134740
829.989	0.0135454
830.068	0.0134722
830.146	0.0133894
830.224	0.0132803
830.302	0.0134108
830.380	0.0134612
830.458	0.0135841
830.536	0.0135315
830.614	0.0135066
830.693	0.0135220
830.771	0.0134986
830.849	0.0134887
830.927	0.0136213
831.005	0.0136779
831.083	0.0136108
831.161	0.0135426
831.239	0.0137164
831.318	0.0135904
831.396	0.0137003
831.474	0.0135707
831.552	0.0135432
831.630	0.0136113
831.708	0.0136701
831.786	0.0137109
831.864	0.0136523
831.943	0.0137377
832.021	0.0135725
832.099	0.0136147
832.177	0.0137174
832.255	0.0136841
832.333	0.0136140
832.411	0.0136104
832.489	0.0136345
832.568	0.0135230
832.646	0.0136571
832.724	0.0135847
832.802	0.0135033
832.880	0.0135128
832.958	0.0136060
833.036	0.0134028
833.114	0.0135145
833.193	0.0135692
833.271	0.0136573
833.349	0.0135436
833.427	0.0136112
833.505	0.0135651
833.583	0.0135479
833.661	0.0135890
833.739	0.0135693
833.818	0.0135368
833.896	0.0135989
833.974	0.0137591
834.052	0.0135784
834.130	0.0136326
834.208	0.0136962
834.286	0.0135625
834.364	0.0134964
834.443	0.0136445
834.521	0.0135545
834.599	0.0135822
834.677	0.0135876
834.755	0.0135218
834.833	0.0136909
834.911	0.0136960
834.989	0.0136543
835.068	0.0137047
835.146	0.0136913
835.224	0.0136160
835.302	0.0136834
835.380	0.0137899
835.458	0.0136789
835.536	0.0136076
835.614	0.0136320
835.693	0.0136406
835.771	0.0135777
835.849	0.0135463
835.927	0.0135680
836.005	0.0136573
836.083	0.0136089
836.161	0.0135435
836.239	0.0135014
836.318	0.0133958
836.396	0.0134636
836.474	0.0133759
836.552	0.0133359
836.630	0.0133731
836.708	0.0132745
836.786	0.0132671
836.864	0.0132607
836.943	0.0131429
837.021	0.0132118
837.099	0.0132372
837.177	0.0131054
837.255	0.0131778
837.333	0.0131705
837.411	0.0131032
837.489	0.0132363
837.568	0.0133687
837.646	0.0133346
837.724	0.0134602
837.802	0.0134676
837.880	0.0133788
837.958	0.0135879
838.036	0.0137197
838.114	0.0136311
838.193	0.0135525
838.271	0.0137366
838.349	0.0138278
838.427	0.0140605
838.505	0.0139640
838.583	0.0139148
838.661	0.0139182
838.739	0.0140100
838.818	0.0141309
838.896	0.0141442
838.974	0.0140622
839.052	0.0141216
839.130	0.0140157
839.208	0.0140033
839.286	0.0140645
839.364	0.0140395
839.443	0.0140817
839.521	0.0140907
839.599	0.0140216
839.677	0.0140392
839.755	0.0138388
839.833	0.0137949
839.911	0.0137599
839.989	0.0136771
840.068	0.0135615
840.146	0.0136523
840.224	0.0135825
840.302	0.0134506
840.380	0.0133674
840.458	0.0132966
840.536	0.0132993
840.614	0.0133208
840.693	0.0131988
840.771	0.0131568
840.849	0.0129704
840.927	0.0130566
841.005	0.0131396
841.083	0.0129351
841.161	0.0129983
841.239	0.0128577
841.318	0.0128981
841.396	0.0130501
841.474	0.0131872
841.552	0.0130434
841.630	0.0129086
841.708	0.0131886
841.786	0.0132386
841.864	0.0132027
841.943	0.0131885
842.021	0.0133597
842.099	0.0134608
842.177	0.0134390
842.255	0.0134927
842.333	0.0134458
842.411	0.0134978
842.489	0.0136391
842.568	0.0136813
842.646	0.0137325
842.724	0.0137298
842.802	0.0137141
842.880	0.0136824
842.958	0.0137550
843.036	0.0138442
843.114	0.0137919
843.193	0.0137901
843.271	0.0138209
843.349	0.0136805
843.427	0.0136320
843.505	0.0135814
843.583	0.0137141
843.661	0.0138758
843.739	0.0137338
843.818	0.0136753
843.896	0.0138303
843.974	0.0138626
844.052	0.0137186
844.130	0.0137714
844.208	0.0137161
844.286	0.0137681
844.364	0.0137455
844.443	0.0137067
844.521	0.0136510
844.599	0.0135641
844.677	0.0136250
844.755	0.0136190
844.833	0.0136465
844.911	0.0135896
844.989	0.0134798
845.068	0.0135189
845.146	0.0133430
845.224	0.0134589
845.302	0.0135234
845.380	0.0133556
845.458	0.0134389
845.536	0.0133533
845.614	0.0132967
845.693	0.0131656
845.771	0.0133257
845.849	0.0132780
845.927	0.0132305
846.005	0.0132942
846.083	0.0132825
846.161	0.0132534
846.239	0.0132981
846.318	0.0132804
846.396	0.0134216
846.474	0.0132520
846.552	0.0133872
846.630	0.0132906
846.708	0.0135139
846.786	0.0133602
846.864	0.0134484
846.943	0.0135629
847.021	0.0134483
847.099	0.0136463
847.177	0.0136599
847.255	0.0136600
847.333	0.0136777
847.411	0.0135897
847.489	0.0135505
847.568	0.0136934
847.646	0.0137238
847.724	0.0137619
847.802	0.0136504
847.880	0.0137019
847.958	0.0136059
848.036	0.0135934
848.114	0.0134800
848.193	0.0132675
848.271	0.0135748
848.349	0.0134159
848.427	0.0134580
848.505	0.0133131
848.583	0.0133327
848.661	0.0132812
848.739	0.0132945
848.818	0.0132306
848.896	0.0132769
848.974	0.0134029
849.052	0.0132547
849.130	0.0133354
849.208	0.0133046
849.286	0.0134153
849.364	0.0134101
849.443	0.0134499
849.521	0.0134402
849.599	0.0134964
849.677	0.0133829
849.755	0.0135261
849.833	0.0135363
849.911	0.0136366
849.989	0.0137522
850.068	0.0135861
850.146	0.0134723
850.224	0.0136826
850.302	0.0137182
850.380	0.0136156
850.458	0.0137767
850.536	0.0136751
850.614	0.0137426
850.693	0.0136765
850.771	0.0136654
850.849	0.0136581
850.927	0.0134568
851.005	0.0136142
851.083	0.0136024
851.161	0.0136028
851.239	0.0135784
851.318	0.0133530
851.396	0.0134641
851.474	0.0133314
851.552	0.0134185
851.630	0.0132943
851.708	0.0134171
851.786	0.0132279
851.864	0.0132973
851.943	0.0133107
852.021	0.0131583
852.099	0.0132078
852.177	0.0131824
852.255	0.0132747
852.333	0.0132543
852.411	0.0131622
852.489	0.0132684
852.568	0.0131683
852.646	0.0133038
852.724	0.0131942
852.802	0.0131550
852.880	0.0132821
852.958	0.0135362
853.036	0.0134106
853.114	0.0133923
853.193	0.0134677
853.271	0.0133926
853.349	0.0134535
853.427	0.0134248
853.505	0.0134883
853.583	0.0135026
853.661	0.0136233
853.739	0.0135077
853.818	0.0133115
853.896	0.0134322
853.974	0.0134500
854.052	0.0134147
854.130	0.0136141
854.208	0.0134053
854.286	0.0134287
854.364	0.0134927
854.443	0.0135923
854.521	0.0134266
854.599	0.0135416
854.677	0.0134975
854.755	0.0135233
854.833	0.0134959
854.911	0.0135648
854.989	0.0134619
855.068	0.0136400
855.146	0.0135551
855.224	0.0136278
855.302	0.0136124
855.380	0.0136678
855.458	0.0137066
855.536	0.0137170
855.614	0.0136942
855.693	0.0136409
855.771	0.0137396
855.849	0.0136893
855.927	0.0137447
856.005	0.0135122
856.083	0.0135042
856.161	0.0135348
856.239	0.0135013
856.318	0.0135229
856.396	0.0136364
856.474	0.0135904
856.552	0.0136385
856.630	0.0137654
856.708	0.0135840
856.786	0.0135890
856.864	0.0135777
856.943	0.0136298
857.021	0.0135374
857.099	0.0136572
857.177	0.0136371
857.255	0.0135995
857.333	0.0137356
857.411	0.0136529
857.489	0.0136782
857.568	0.0137224
857.646	0.0138480
857.724	0.0137560
857.802	0.0136841
857.880	0.0137134
857.958	0.0137930
858.036	0.0137330
858.114	0.0137195
858.193	0.0137408
858.271	0.0137013
858.349	0.0137019
858.427	0.0136425
858.505	0.0136253
858.583	0.0135848
858.661	0.0135191
858.739	0.0135667
858.818	0.0134499
858.896	0.0135126
858.974	0.0135329
859.052	0.0133146
859.130	0.0135138
859.208	0.0135618
859.286	0.0136098
859.364	0.0134814
859.443	0.0135228
859.521	0.0134521
859.599	0.0136177
859.677	0.0135686
859.755	0.0135020
859.833	0.0134670
859.911	0.0136162
859.989	0.0136047
860.068	0.0137316
860.146	0.0136662
860.224	0.0138226
860.302	0.0137514
860.380	0.0136540
860.458	0.0138703
860.536	0.0138206
860.614	0.0138555
860.693	0.0138271
860.771	0.0139278
860.849	0.0140166
860.927	0.0140765
861.005	0.0138272
861.083	0.0139133
861.161	0.0140199
861.239	0.0140145
861.318	0.0139415
861.396	0.0138557
861.474	0.0138787
861.552	0.0138218
861.630	0.0137302
861.708	0.0137119
861.786	0.0138514
861.864	0.0138374
861.943	0.0137932
862.021	0.0136588
862.099	0.0136930
862.177	0.0137622
862.255	0.0134982
862.333	0.0135552
862.411	0.0138364
862.489	0.0137760
862.568	0.0136870
862.646	0.0137029
862.724	0.0138620
862.802	0.0137694
862.880	0.0138165
862.958	0.0137421
863.036	0.0136841
863.114	0.0137347
863.193	0.0137751
863.271	0.0137007
863.349	0.0136852
863.427	0.0137660
863.505	0.0136939
863.583	0.0136286
863.661	0.0137012
863.739	0.0135900
863.818	0.0135536
863.896	0.0135021
863.974	0.0135178
864.052	0.0133855
864.130	0.0135249
864.208	0.0134675
864.286	0.0134114
864.364	0.0133843
864.443	0.0133606
864.521	0.0133740
864.599	0.0134122
864.677	0.0132782
864.755	0.0133047
864.833	0.0133597
864.911	0.0132194
864.989	0.0133052
865.068	0.0131990
865.146	0.0133330
865.224	0.0131067
865.302	0.0132304
865.380	0.0132291
865.458	0.0133623
865.536	0.0133178
865.614	0.0132934
865.693	0.0132856
865.771	0.0134923
865.849	0.0132740
865.927	0.0133852
866.005	0.0134300
866.083	0.0134686
866.161	0.0133470
866.239	0.0133339
866.318	0.0135110
866.396	0.0134402
866.474	0.0133991
866.552	0.0133939
866.630	0.0134618
866.708	0.0133359
866.786	0.0134516
866.864	0.0134307
866.943	0.0134924
867.021	0.0134148
867.099	0.0133322
867.177	0.0134382
867.255	0.0132894
867.333	0.0134159
867.411	0.0133890
867.489	0.0134069
867.568	0.0134643
867.646	0.0134203
867.724	0.0134661
867.802	0.0134963
867.880	0.0133142
867.958	0.0135854
868.036	0.0135719
868.114	0.0135651
868.193	0.0135477
868.271	0.0135439
868.349	0.0136047
868.427	0.0136061
868.505	0.0135613
868.583	0.0136776
868.661	0.0136175
868.739	0.0137215
868.818	0.0135422
868.896	0.0136369
868.974	0.0136732
869.052	0.0136211
869.130	0.0135463
869.208	0.0137166
869.286	0.0134653
869.364	0.0137003
869.443	0.0135648
869.521	0.0135308
869.599	0.0135423
869.677	0.0135451
869.755	0.0134917
869.833	0.0134721
869.911	0.0135632
869.989	0.0135047
870.068	0.0136150
870.146	0.0135088
870.224	0.0135074
870.302	0.0135836
870.380	0.0135443
870.458	0.0134773
870.536	0.0135471
870.614	0.0135544
870.693	0.0134563
870.771	0.0135614
870.849	0.0136055
870.927	0.0135306
871.005	0.0134738
871.083	0.0133500
871.161	0.0133350
871.239	0.0133810
871.318	0.0133117
871.396	0.0133540
871.474	0.0131610
871.552	0.0131207
871.630	0.0133152
871.708	0.0134206
871.786	0.0132829
871.864	0.0132401
871.943	0.0131606
872.021	0.0134049
872.099	0.0134160
872.177	0.0132894
872.255	0.0135504
872.333	0.0134225
872.411	0.0135320
872.489	0.0135513
872.568	0.0134406
872.646	0.0136130
872.724	0.0136951
872.802	0.0135961
872.880	0.0137402
872.958	0.0137106
873.036	0.0136786
873.114	0.0137357
873.193	0.0138285
873.271	0.0138554
873.349	0.0136978
873.427	0.0138862
873.505	0.0139171
873.583	0.0138299
873.661	0.0137701
873.739	0.0137658
873.818	0.0139124
873.896	0.0137796
873.974	0.0137954
874.052	0.0136841
874.130	0.0137655
874.208	0.0136015
874.286	0.0133408
874.364	0.0135246
874.443	0.0135413
874.521	0.0134070
874.599	0.0133739
874.677	0.0132965
874.755	0.0133224
874.833	0.0131261
874.911	0.0132278
874.989	0.0132957
875.068	0.0131811
875.146	0.0132822
875.224	0.0131887
875.302	0.0132883
875.380	0.0131214
875.458	0.0132536
875.536	0.0131837
875.614	0.0131796
875.693	0.0131020
875.771	0.0132409
875.849	0.0133875
875.927	0.0132224
876.005	0.0133379
876.083	0.0134922
876.161	0.0133831
876.239	0.0134606
876.318	0.0136037
876.396	0.0136655
876.474	0.0135799
876.552	0.0136690
876.630	0.0137281
876.708	0.0137272
876.786	0.0137872
876.864	0.0137106
876.943	0.0137174
877.021	0.0137539
877.099	0.0135073
877.177	0.0137676
877.255	0.0137862
877.333	0.0135174
877.411	0.0133887
877.489	0.0135092
877.568	0.0135519
877.646	0.0134065
877.724	0.0134137
877.802	0.0134490
877.880	0.0133674
877.958	0.0134467
878.036	0.0134911
878.114	0.0132647
878.193	0.0134756
878.271	0.0133399
878.349	0.0133691
878.427	0.0135512
878.505	0.0134441
878.583	0.0134416
878.661	0.0135076
878.739	0.0135195
878.818	0.0134290
878.896	0.0133871
878.974	0.0135239
879.052	0.0133958
879.130	0.0135540
879.208	0.0135709
879.286	0.0136497
879.364	0.0136108
879.443	0.0136278
879.521	0.0136729
879.599	0.0136450
879.677	0.0136622
879.755	0.0136790
879.833	0.0137288
879.911	0.0136037
879.989	0.0136298
880.068	0.0136485
880.146	0.0138583
880.224	0.0137016
880.302	0.0137527
880.380	0.0136276
880.458	0.0136243
880.536	0.0135912
880.614	0.0135316
880.693	0.0136916
880.771	0.0136933
880.849	0.0135549
880.927	0.0135689
881.005	0.0135998
881.083	0.0135216
881.161	0.0134976
881.239	0.0135812
881.318	0.0136169
881.396	0.0135291
881.474	0.0135952
881.552	0.0136208
881.630	0.0136706
881.708	0.0137024
881.786	0.0135789
881.864	0.0136003
881.943	0.0136040
882.021	0.0138676
882.099	0.0137458
882.177	0.0138081
882.255	0.0137790
882.333	0.0136287
882.411	0.0136520
882.489	0.0137284
882.568	0.0136314
882.646	0.0135753
882.724	0.0136925
882.802	0.0135730
882.880	0.0136207
882.958	0.0135738
883.036	0.0135323
883.114	0.0135729
883.193	0.0135218
883.271	0.0135567
883.349	0.0136095
883.427	0.0136472
883.505	0.0137099
883.583	0.0137725
883.661	0.0137450
883.739	0.0137203
883.818	0.0136889
883.896	0.0137332
883.974	0.0138737
884.052	0.0137741
884.130	0.0137955
884.208	0.0138322
884.286	0.0135694
884.364	0.0137614
884.443	0.0137104
884.521	0.0136151
884.599	0.0136483
884.677	0.0137367
884.755	0.0135855
884.833	0.0134280
884.911	0.0133593
884.989	0.0134869
885.068	0.0134293
885.146	0.0133997
885.224	0.0134392
885.302	0.0134901
885.380	0.0134551
885.458	0.0133698
885.536	0.0133628
885.614	0.0135954
885.693	0.0134624
885.771	0.0135499
885.849	0.0136697
885.927	0.0135775
886.005	0.0135930
886.083	0.0135737
886.161	0.0136690
886.239	0.0137068
886.318	0.0136958
886.396	0.0136489
886.474	0.0135333
886.552	0.0136792
886.630	0.0137343
886.708	0.0135806
886.786	0.0135456
886.864	0.0136209
886.943	0.0136967
887.021	0.0137363
887.099	0.0136112
887.177	0.0134484
887.255	0.0135361
887.333	0.0135976
887.411	0.0135587
887.489	0.0134648
887.568	0.0136020
887.646	0.0135631
887.724	0.0134250
887.802	0.0133363
887.880	0.0133669
887.958	0.0136725
888.036	0.0134873
888.114	0.0136316
888.193	0.0135536
888.271	0.0135345
888.349	0.0135795
888.427	0.0136286
888.505	0.0136633
888.583	0.0136810
888.661	0.0137890
888.739	0.0137588
888.818	0.0137505
888.896	0.0137878
888.974	0.0138168
889.052	0.0137760
889.130	0.0137880
889.208	0.0138447
889.286	0.0137856
889.364	0.0136504
889.443	0.0137556
889.521	0.0135745
889.599	0.0134839
889.677	0.0134946
889.755	0.0134159
889.833	0.0134753
889.911	0.0133363
889.989	0.0133397
890.068	0.0132080
890.146	0.0129921
890.224	0.0131362
890.302	0.0131081
890.380	0.0129182
890.458	0.0130750
890.536	0.0130892
890.614	0.0130446
890.693	0.0131477
890.771	0.0131389
890.849	0.0130692
890.927	0.0131026
891.005	0.0132161
891.083	0.0133406
891.161	0.0134391
891.239	0.0135391
891.318	0.0135536
891.396	0.0136464
891.474	0.0137939
891.552	0.0137313
891.630	0.0138808
891.708	0.0140057
891.786	0.0139999
891.864	0.0141785
891.943	0.0140213
892.021	0.0142767
892.099	0.0143100
892.177	0.0141463
892.255	0.0143452
892.333	0.0142433
892.411	0.0141146
892.489	0.0140564
892.568	0.0139868
892.646	0.0140688
892.724	0.0139089
892.802	0.0139645
892.880	0.0137940
892.958	0.0137784
893.036	0.0136771
893.114	0.0136344
893.193	0.0134570
893.271	0.0136395
893.349	0.0136068
893.427	0.0135626
893.505	0.0133242
893.583	0.0135310
893.661	0.0133323
893.739	0.0132340
893.818	0.0134106
893.896	0.0134318
893.974	0.0132743
894.052	0.0133843
894.130	0.0133843
894.208	0.0133994
894.286	0.0135402
894.364	0.0133363
894.443	0.0134573
894.521	0.0135264
894.599	0.0134907
894.677	0.0135243
894.755	0.0134834
894.833	0.0136758
894.911	0.0134119
894.989	0.0135869
895.068	0.0135615
895.146	0.0137177
895.224	0.0137325
895.302	0.0136237
895.380	0.0136977
895.458	0.0137518
895.536	0.0137560
895.614	0.0138525
895.693	0.0137056
895.771	0.0136765
895.849	0.0138349
895.927	0.0138284
896.005	0.0136851
896.083	0.0137418
896.161	0.0137429
896.239	0.0138284
896.318	0.0138093
896.396	0.0136976
896.474	0.0137601
896.552	0.0138239
896.630	0.0137126
896.708	0.0135763
896.786	0.0136707
896.864	0.0136940
896.943	0.0136046
897.021	0.0134780
897.099	0.0135457
897.177	0.0134222
897.255	0.0133490
897.333	0.0133592
897.411	0.0132975
897.489	0.0133144
897.568	0.0133316
897.646	0.0133145
897.724	0.0132715
897.802	0.0132927
897.880	0.0132584
897.958	0.0132158
898.036	0.0133399
898.114	0.0132667
898.193	0.0132452
898.271	0.0132721
898.349	0.0132890
898.427	0.0134014
898.505	0.0133058
898.583	0.0134978
898.661	0.0134766
898.739	0.0135325
898.818	0.0136239
898.896	0.0137256
898.974	0.0137519
899.052	0.0137253
899.130	0.0138270
899.208	0.0138454
899.286	0.0137321
899.364	0.0139528
899.443	0.0138712
899.521	0.0140508
899.599	0.0140100
899.677	0.0138592
899.755	0.0140584
899.833	0.0139954
899.911	0.0139834
899.989	0.0138651
900.068	0.0139583
900.146	0.0139572
900.224	0.0136898
900.302	0.0137815
900.380	0.0138087
900.458	0.0137498
900.536	0.0136121
900.614	0.0135682
900.693	0.0135494
900.771	0.0134091
900.849	0.0134455
900.927	0.0132584
901.005	0.0131676
901.083	0.0132047
901.161	0.0132827
901.239	0.0130644
901.318	0.0131135
901.396	0.0131676
901.474	0.0129678
901.552	0.0131034
901.630	0.0130686
901.708	0.0129507
901.786	0.0131638
901.864	0.0133320
901.943	0.0133054
902.021	0.0131619
902.099	0.0133251
902.177	0.0133778
902.255	0.0133702
902.333	0.0132569
902.411	0.0135737
902.489	0.0135020
902.568	0.0133820
902.646	0.0135099
902.724	0.0136219
902.802	0.0136518
902.880	0.0136856
902.958	0.0137784
903.036	0.0135670
903.114	0.0136702
903.193	0.0135371
903.271	0.0136242
903.349	0.0136714
903.427	0.0136240
903.505	0.0137318
903.583	0.0136398
903.661	0.0136707
903.739	0.0136633
903.818	0.0137378
903.896	0.0137871
903.974	0.0138223
904.052	0.0137392
904.130	0.0136803
904.208	0.0136362
904.286	0.0136026
904.364	0.0136437
904.443	0.0135333
904.521	0.0135981
904.599	0.0135206
904.677	0.0134922
904.755	0.0134685
904.833	0.0133456
904.911	0.0133382
904.989	0.0133411
905.068	0.0132648
905.146	0.0132944
905.224	0.0131000
905.302	0.0132292
905.380	0.0133056
905.458	0.0132306
905.536	0.0132185
905.614	0.0132016
905.693	0.0133889
905.771	0.0134525
905.849	0.0132403
905.927	0.0132698
906.005	0.0132837
906.083	0.0133972
906.161	0.0135118
906.239	0.0134056
906.318	0.0134454
906.396	0.0135333
906.474	0.0134063
906.552	0.0134927
906.630	0.0135069
906.708	0.0135809
906.786	0.0136109
906.864	0.0136179
906.943	0.0135314
907.021	0.0135786
907.099	0.0135890
907.177	0.0136282
907.255	0.0136323
907.333	0.0136002
907.411	0.0136980
907.489	0.0136726
907.568	0.0134621
907.646	0.0135357
907.724	0.0134796
907.802	0.0134593
907.880	0.0135675
907.958	0.0135283
908.036	0.0134221
908.114	0.0135134
908.193	0.0135281
908.271	0.0134577
908.349	0.0134911
908.427	0.0134804
908.505	0.0135091
908.583	0.0135069
908.661	0.0136268
908.739	0.0136079
908.818	0.0135922
908.896	0.0137054
908.974	0.0139082
909.052	0.0137688
909.130	0.0137524
909.208	0.0138167
909.286	0.0137322
909.364	0.0136034
909.443	0.0137402
909.521	0.0137534
909.599	0.0136503
909.677	0.0137276
909.755	0.0137534
909.833	0.0137190
909.911	0.0136316
909.989	0.0135674
910.068	0.0136618
910.146	0.0136159
910.224	0.0137488
910.302	0.0136728
910.380	0.0135677
910.458	0.0136465
910.536	0.0137224
910.614	0.0135866
910.693	0.0135660
910.771	0.0135928
910.849	0.0136119
910.927	0.0137015
911.005	0.0136434
911.083	0.0135892
911.161	0.0134454
911.239	0.0135538
911.318	0.0135058
911.396	0.0133988
911.474	0.0134843
911.552	0.0134969
911.630	0.0134854
911.708	0.0136823
911.786	0.0136765
911.864	0.0135036
911.943	0.0134949
912.021	0.0134588
912.099	0.0137868
912.177	0.0135652
912.255	0.0135693
912.333	0.0136964
912.411	0.0137780
912.489	0.0137885
912.568	0.0138450
912.646	0.0136671
912.724	0.0136529
912.802	0.0135714
912.880	0.0136852
912.958	0.0137420
913.036	0.0135349
913.114	0.0135754
913.193	0.0135272
913.271	0.0134194
913.349	0.0133787
913.427	0.0134443
913.505	0.0134637
913.583	0.0133475
913.661	0.0134570
913.739	0.0133838
913.818	0.0133433
913.896	0.0134840
913.974	0.0133926
914.052	0.0132475
914.130	0.0134360
914.208	0.0135085
914.286	0.0135397
914.364	0.0133347
914.443	0.0134267
914.521	0.0135621
914.599	0.0136584
914.677	0.0136074
914.755	0.0135249
914.833	0.0136794
914.911	0.0136731
914.989	0.0136812
915.068	0.0138015
915.146	0.0138045
915.224	0.0136540
915.302	0.0137634
915.380	0.0136375
915.458	0.0136790
915.536	0.0137206
915.614	0.0135736
915.693	0.0136744
915.771	0.0134665
915.849	0.0135854
915.927	0.0136853
916.005	0.0136766
916.083	0.0135104
916.161	0.0135241
916.239	0.0136576
916.318	0.0138239
916.396	0.0136684
916.474	0.0136096
916.552	0.0136018
916.630	0.0137197
916.708	0.0135980
916.786	0.0136371
916.864	0.0136482
916.943	0.0137656
917.021	0.0136641
917.099	0.0136372
917.177	0.0137641
917.255	0.0136486
917.333	0.0136534
917.411	0.0137481
917.489	0.0138317
917.568	0.0137658
917.646	0.0137423
917.724	0.0136333
917.802	0.0137357
917.880	0.0138667
917.958	0.0138412
918.036	0.0137344
918.114	0.0137737
918.193	0.0137144
918.271	0.0137243
918.349	0.0137073
918.427	0.0135254
918.505	0.0136485
918.583	0.0135473
918.661	0.0136087
918.739	0.0134849
918.818	0.0137131
918.896	0.0135590
918.974	0.0135594
919.052	0.0135858
919.130	0.0135213
919.208	0.0135276
919.286	0.0135764
919.364	0.0134091
919.443	0.0133651
919.521	0.0134141
919.599	0.0134554
919.677	0.0135043
919.755	0.0135280
919.833	0.0135256
919.911	0.0134848
919.989	0.0135143
920.068	0.0136089
920.146	0.0135193
920.224	0.0136401
920.302	0.0135728
920.380	0.0135423
920.458	0.0135723
920.536	0.0137469
920.614	0.0136908
920.693	0.0135789
920.771	0.0134245
920.849	0.0135143
920.927	0.0133288
921.005	0.0133379
921.083	0.0134519
921.161	0.0134379
921.239	0.0133702
921.318	0.0134988
921.396	0.0134939
921.474	0.0135352
921.552	0.0135265
921.630	0.0134459
921.708	0.0134655
921.786	0.0134853
921.864	0.0137009
921.943	0.0135822
922.021	0.0136126
922.099	0.0136143
922.177	0.0135606
922.255	0.0137100
922.333	0.0136415
922.411	0.0136456
922.489	0.0137436
922.568	0.0138206
922.646	0.0136208
922.724	0.0137247
922.802	0.0137534
922.880	0.0137075
922.958	0.0136733
923.036	0.0136224
923.114	0.0138084
923.193	0.0136916
923.271	0.0136202
923.349	0.0136736
923.427	0.0137953
923.505	0.0136216
923.583	0.0135636
923.661	0.0136421
923.739	0.0136867
923.818	0.0135859
923.896	0.0135255
923.974	0.0134858
924.052	0.0134800
924.130	0.0134698
924.208	0.0135042
924.286	0.0135966
924.364	0.0134653
924.443	0.0134432
924.521	0.0135529
924.599	0.0134328
924.677	0.0134219
924.755	0.0134492
924.833	0.0135587
924.911	0.0135106
924.989	0.0134556
925.068	0.0134153
925.146	0.0134423
925.224	0.0134743
925.302	0.0132672
925.380	0.0132669
925.458	0.0134564
925.536	0.0135913
925.614	0.0134010
925.693	0.0133755
925.771	0.0134872
925.849	0.0133300
925.927	0.0134226
926.005	0.0135167
926.083	0.0135249
926.161	0.0136170
926.239	0.0136160
926.318	0.0134044
926.396	0.0135383
926.474	0.0135453
926.552	0.0136849
926.630	0.0136406
926.708	0.0136684
926.786	0.0135110
926.864	0.0135764
926.943	0.0136890
927.021	0.0135979
927.099	0.0135859
927.177	0.0135043
927.255	0.0134794
927.333	0.0134238
927.411	0.0135228
927.489	0.0135434
927.568	0.0136317
927.646	0.0135999
927.724	0.0135916
927.802	0.0136499
927.880	0.0134651
927.958	0.0135122
928.036	0.0136913
928.114	0.0136833
928.193	0.0137337
928.271	0.0136092
928.349	0.0137010
928.427	0.0135846
928.505	0.0136749
928.583	0.0135827
928.661	0.0135491
928.739	0.0135529
928.818	0.0135964
928.896	0.0136024
928.974	0.0136699
929.052	0.0135442
929.130	0.0135185
929.208	0.0134457
929.286	0.0135159
929.364	0.0134964
929.443	0.0133370
929.521	0.0133488
929.599	0.0132169
929.677	0.0131318
929.755	0.0133341
929.833	0.0132024
929.911	0.0132780
929.989	0.0131860
930.068	0.0131371
930.146	0.0130708
930.224	0.0131496
930.302	0.0130725
930.380	0.0130452
930.458	0.0129825
930.536	0.0130774
930.614	0.0130711
930.693	0.0129822
930.771	0.0130938
930.849	0.0132319
930.927	0.0132104
931.005	0.0132213
931.083	0.0132145
931.161	0.0131657
931.239	0.0132164
931.318	0.0134493
931.396	0.0135381
931.474	0.0133268
931.552	0.0134544
931.630	0.0134720
931.708	0.0135937
931.786	0.0135506
931.864	0.0136153
931.943	0.0136064
932.021	0.0137111
932.099	0.0136897
932.177	0.0137658
932.255	0.0136398
932.333	0.0135243
932.411	0.0138109
932.489	0.0137721
932.568	0.0137613
932.646	0.0137465
932.724	0.0136837
932.802	0.0138171
932.880	0.0136891
932.958	0.0137199
933.036	0.0137132
933.114	0.0137510
933.193	0.0135686
933.271	0.0135767
933.349	0.0136165
933.427	0.0137049
933.505	0.0135667
933.583	0.0134889
933.661	0.0135324
933.739	0.0135022
933.818	0.0134312
933.896	0.0132863
933.974	0.0134274
934.052	0.0133906
934.130	0.0132966
934.208	0.0133525
934.286	0.0133039
934.364	0.0133340
934.443	0.0133942
934.521	0.0132359
934.599	0.0134126
934.677	0.0133761
934.755	0.0134895
934.833	0.0134911
934.911	0.0135738
934.989	0.0135350
935.068	0.0134295
935.146	0.0134174
935.224	0.0136451
935.302	0.0135735
935.380	0.0135694
935.458	0.0136018
935.536	0.0135525
935.614	0.0134962
935.693	0.0136778
935.771	0.0134752
935.849	0.0134893
935.927	0.0135687
936.005	0.0136106
936.083	0.0136555
936.161	0.0135188
936.239	0.0134899
936.318	0.0136636
936.396	0.0134890
936.474	0.0135638
936.552	0.0135497
936.630	0.0135586
936.708	0.0135529
936.786	0.0136686
936.864	0.0135792
936.943	0.0136249
937.021	0.0136126
937.099	0.0136011
937.177	0.0135197
937.255	0.0135629
937.333	0.0134547
937.411	0.0132943
937.489	0.0134131
937.568	0.0134801
937.646	0.0135179
937.724	0.0134177
937.802	0.0134412
937.880	0.0135454
937.958	0.0134044
938.036	0.0135098
938.114	0.0135055
938.193	0.0134743
938.271	0.0136391
938.349	0.0136369
938.427	0.0136292
938.505	0.0136106
938.583	0.0136385
938.661	0.0136886
938.739	0.0136395
938.818	0.0136263
938.896	0.0137164
938.974	0.0137412
939.052	0.0138111
939.130	0.0138150
939.208	0.0136964
939.286	0.0137874
939.364	0.0137399
939.443	0.0136908
939.521	0.0137978
939.599	0.0137559
939.677	0.0137431
939.755	0.0137213
939.833	0.0135526
939.911	0.0135271
939.989	0.0135096
940.068	0.0136421
940.146	0.0136625
940.224	0.0135001
940.302	0.0135552
940.380	0.0137506
940.458	0.0136700
940.536	0.0135853
940.614	0.0136251
940.693	0.0136008
940.771	0.0136309
940.849	0.0137389
940.927	0.0136455
941.005	0.0136320
941.083	0.0137572
941.161	0.0137304
941.239	0.0136258
941.318	0.0136718
941.396	0.0137164
941.474	0.0137759
941.552	0.0135803
941.630	0.0135502
941.708	0.0136882
941.786	0.0136388
941.864	0.0135201
941.943	0.0135794
942.021	0.0135830
942.099	0.0135810
942.177	0.0135621
942.255	0.0136484
942.333	0.0134515
942.411	0.0135466
942.489	0.0134692
942.568	0.0134831
942.646	0.0135140
942.724	0.0133423
942.802	0.0136178
942.880	0.0135246
942.958	0.0134084
943.036	0.0135688
943.114	0.0135075
943.193	0.0134943
943.271	0.0135411
943.349	0.0134600
943.427	0.0133899
943.505	0.0134843
943.583	0.0135123
943.661	0.0137297
943.739	0.0137056
943.818	0.0137188
943.896	0.0136141
943.974	0.0136162
944.052	0.0135695
944.130	0.0136674
944.208	0.0137289
944.286	0.0136140
944.364	0.0136353
944.443	0.0136881
944.521	0.0136669
944.599	0.0137316
944.677	0.0135757
944.755	0.0136932
944.833	0.0136716
944.911	0.0136517
944.989	0.0137531
945.068	0.0138517
945.146	0.0136195
945.224	0.0137149
945.302	0.0137120
945.380	0.0135702
945.458	0.0135674
945.536	0.0136000
945.614	0.0137310
945.693	0.0137933
945.771	0.0136018
945.849	0.0135504
945.927	0.0134105
946.005	0.0135926
946.083	0.0137411
946.161	0.0136524
946.239	0.0134932
946.318	0.0136594
946.396	0.0134531
946.474	0.0135918
946.552	0.0136266
946.630	0.0136202
946.708	0.0136108
946.786	0.0137030
946.864	0.0136443
946.943	0.0135485
947.021	0.0136085
947.099	0.0136533
947.177	0.0136998
947.255	0.0135218
947.333	0.0136465
947.411	0.0137090
947.489	0.0135538
947.568	0.0135677
947.646	0.0135470
947.724	0.0135549
947.802	0.0135094
947.880	0.0135167
947.958	0.0135255
948.036	0.0134460
948.114	0.0133900
948.193	0.0134009
948.271	0.0134063
948.349	0.0132705
948.427	0.0132464
948.505	0.0132644
948.583	0.0132117
948.661	0.0133569
948.739	0.0132905
948.818	0.0132293
948.896	0.0132922
948.974	0.0132355
949.052	0.0132807
949.130	0.0133008
949.208	0.0133315
949.286	0.0133182
949.364	0.0133241
949.443	0.0134277
949.521	0.0133488
949.599	0.0133725
949.677	0.0134128
949.755	0.0134361
949.833	0.0135278
949.911	0.0134032
949.989	0.0133669
950.068	0.0133754
950.146	0.0134149
950.224	0.0133185
950.302	0.0135188
950.380	0.0134573
950.458	0.0135812
950.536	0.0135414
950.614	0.0135431
950.693	0.0135113
950.771	0.0135722
950.849	0.0135297
950.927	0.0134856
951.005	0.0134270
951.083	0.0135713
951.161	0.0135561
951.239	0.0134525
951.318	0.0135786
951.396	0.0136414
951.474	0.0135008
951.552	0.0136002
951.630	0.0136604
951.708	0.0135935
951.786	0.0135650
951.864	0.0135767
951.943	0.0136237
952.021	0.0135542
952.099	0.0135176
952.177	0.0135950
952.255	0.0136278
952.333	0.0135084
952.411	0.0135175
952.489	0.0136375
952.568	0.0134936
952.646	0.0133949
952.724	0.0134988
952.802	0.0135275
952.880	0.0135273
952.958	0.0135977
953.036	0.0134618
953.114	0.0134052
953.193	0.0135691
953.271	0.0134969
953.349	0.0134404
953.427	0.0134482
953.505	0.0133738
953.583	0.0134357
953.661	0.0134814
953.739	0.0135107
953.818	0.0134715
953.896	0.0135789
953.974	0.0134597
954.052	0.0134542
954.130	0.0136816
954.208	0.0134746
954.286	0.0135289
954.364	0.0134696
954.443	0.0135168
954.521	0.0134760
954.599	0.0134966
954.677	0.0135601
954.755	0.0134501
954.833	0.0135713
954.911	0.0135004
954.989	0.0134141
955.068	0.0134954
955.146	0.0135670
955.224	0.0134965
955.302	0.0135529
955.380	0.0134458
955.458	0.0135794
955.536	0.0133944
955.614	0.0134270
955.693	0.0135372
955.771	0.0135432
955.849	0.0134692
955.927	0.0134193
956.005	0.0134761
956.083	0.0134245
956.161	0.0135278
956.239	0.0133947
956.318	0.0134926
956.396	0.0135347
956.474	0.0133851
956.552	0.0133882
956.630	0.0134499
956.708	0.0134733
956.786	0.0134026
956.864	0.0133774
956.943	0.0134402
957.021	0.0134135
957.099	0.0136200
957.177	0.0135211
957.255	0.0134005
957.333	0.0134900
957.411	0.0135446
957.489	0.0134798
957.568	0.0134869
957.646	0.0134815
957.724	0.0135449
957.802	0.0136474
957.880	0.0136282
957.958	0.0135674
958.036	0.0134884
958.114	0.0134460
958.193	0.0135370
958.271	0.0135957
958.349	0.0138271
958.427	0.0136285
958.505	0.0137624
958.583	0.0136453
958.661	0.0136137
958.739	0.0137734
958.818	0.0138133
958.896	0.0137003
958.974	0.0137640
959.052	0.0136125
959.130	0.0136694
959.208	0.0136348
959.286	0.0136687
959.364	0.0136439
959.443	0.0137095
959.521	0.0134830
959.599	0.0135827
959.677	0.0135982
959.755	0.0136191
959.833	0.0135348
959.911	0.0135647
