05/14/2022	16:17:30	Ver.	4.1	UNKNOWN
Optical Delay	639.989416	Delta X		0.078125	Sweeps	1	Scan Rate	0/0
Coordinates	Axis 1	NaN	Axis 2	NaN	Axis 3	NaN	Axis 4	NaN	Axis 5	NaN	Axis 6	0.000000
TX Power	0.000000	RX Power	0.000000

639.989	0.0133440
640.068	0.0135074
640.146	0.0132143
640.224	0.0133291
640.302	0.0133018
640.380	0.0133965
640.458	0.0134189
640.536	0.0132680
640.614	0.0133344
640.693	0.0133740
640.771	0.0133235
640.849	0.0132542
640.927	0.0132276
641.005	0.0132893
641.083	0.0132729
641.161	0.0134241
641.239	0.0134547
641.318	0.0132277
641.396	0.0133107
641.474	0.0133131
641.552	0.0131998
641.630	0.0132591
641.708	0.0134103
641.786	0.0134368
641.864	0.0133102
641.943	0.0132857
642.021	0.0132751
642.099	0.0134280
642.177	0.0133869
642.255	0.0132283
642.333	0.0132284
642.411	0.0132293
642.489	0.0132896
642.568	0.0134085
642.646	0.0133012
642.724	0.0133228
642.802	0.0132867
642.880	0.0132965
642.958	0.0133393
643.036	0.0133772
643.114	0.0133591
643.193	0.0133389
643.271	0.0133299
643.349	0.0133883
643.427	0.0133614
643.505	0.0133662
643.583	0.0134377
643.661	0.0132225
643.739	0.0132676
643.818	0.0133911
643.896	0.0133102
643.974	0.0134152
644.052	0.0133687
644.130	0.0132725
644.208	0.0133510
644.286	0.0133943
644.364	0.0133665
644.443	0.0132394
644.521	0.0132301
644.599	0.0133171
644.677	0.0134555
644.755	0.0132767
644.833	0.0133031
644.911	0.0132384
644.989	0.0131593
645.068	0.0133533
645.146	0.0133611
645.224	0.0132726
645.302	0.0133752
645.380	0.0133632
645.458	0.0132397
645.536	0.0132289
645.614	0.0132922
645.693	0.0134182
645.771	0.0133189
645.849	0.0131580
645.927	0.0132662
646.005	0.0133396
646.083	0.0134559
646.161	0.0134117
646.239	0.0133253
646.318	0.0133787
646.396	0.0133919
646.474	0.0134632
646.552	0.0133257
646.630	0.0132761
646.708	0.0133307
646.786	0.0134473
646.864	0.0132590
646.943	0.0132569
647.021	0.0132463
647.099	0.0133993
647.177	0.0132977
647.255	0.0133714
647.333	0.0133681
647.411	0.0134007
647.489	0.0133012
647.568	0.0130903
647.646	0.0132864
647.724	0.0133523
647.802	0.0132619
647.880	0.0133792
647.958	0.0133418
648.036	0.0132217
648.114	0.0132329
648.193	0.0133803
648.271	0.0132782
648.349	0.0132386
648.427	0.0133823
648.505	0.0133783
648.583	0.0133727
648.661	0.0133385
648.739	0.0132110
648.818	0.0133146
648.896	0.0133214
648.974	0.0133269
649.052	0.0133775
649.130	0.0133138
649.208	0.0132873
649.286	0.0133885
649.364	0.0132572
649.443	0.0132596
649.521	0.0133520
649.599	0.0132632
649.677	0.0133243
649.755	0.0133233
649.833	0.0132368
649.911	0.0133578
649.989	0.0133033
650.068	0.0134586
650.146	0.0133963
650.224	0.0135131
650.302	0.0133942
650.380	0.0133940
650.458	0.0132964
650.536	0.0133332
650.614	0.0133282
650.693	0.0134959
650.771	0.0134683
650.849	0.0132761
650.927	0.0133762
651.005	0.0134140
651.083	0.0133175
651.161	0.0134047
651.239	0.0132900
651.318	0.0134547
651.396	0.0134721
651.474	0.0133743
651.552	0.0132208
651.630	0.0132847
651.708	0.0133714
651.786	0.0131850
651.864	0.0133248
651.943	0.0132414
652.021	0.0132584
652.099	0.0133811
652.177	0.0132462
652.255	0.0132555
652.333	0.0132710
652.411	0.0133849
652.489	0.0133318
652.568	0.0133224
652.646	0.0133853
652.724	0.0133339
652.802	0.0133277
652.880	0.0133115
652.958	0.0132904
653.036	0.0133637
653.114	0.0132000
653.193	0.0133278
653.271	0.0133620
653.349	0.0132891
653.427	0.0134528
653.505	0.0134077
653.583	0.0132716
653.661	0.0133334
653.739	0.0133762
653.818	0.0133647
653.896	0.0133074
653.974	0.0132059
654.052	0.0132368
654.130	0.0132782
654.208	0.0132659
654.286	0.0133468
654.364	0.0132940
654.443	0.0132783
654.521	0.0134380
654.599	0.0132860
654.677	0.0132378
654.755	0.0133198
654.833	0.0132158
654.911	0.0132408
654.989	0.0133997
655.068	0.0133027
655.146	0.0133798
655.224	0.0132793
655.302	0.0134267
655.380	0.0132973
655.458	0.0132800
655.536	0.0133439
655.614	0.0132169
655.693	0.0132492
655.771	0.0133968
655.849	0.0133459
655.927	0.0132480
656.005	0.0133986
656.083	0.0132870
656.161	0.0133266
656.239	0.0134122
656.318	0.0133242
656.396	0.0132170
656.474	0.0133300
656.552	0.0134138
656.630	0.0132507
656.708	0.0133322
656.786	0.0133846
656.864	0.0133691
656.943	0.0132733
657.021	0.0134028
657.099	0.0133910
657.177	0.0132811
657.255	0.0133408
657.333	0.0132889
657.411	0.0133051
657.489	0.0133923
657.568	0.0133437
657.646	0.0132879
657.724	0.0132430
657.802	0.0132110
657.880	0.0134451
657.958	0.0133700
658.036	0.0133523
658.114	0.0133108
658.193	0.0132877
658.271	0.0133360
658.349	0.0133353
658.427	0.0132817
658.505	0.0131940
658.583	0.0132813
658.661	0.0133440
658.739	0.0134202
658.818	0.0133430
658.896	0.0133410
658.974	0.0133616
659.052	0.0134510
659.130	0.0133263
659.208	0.0133194
659.286	0.0133588
659.364	0.0134513
659.443	0.0132477
659.521	0.0133013
659.599	0.0134348
659.677	0.0133036
659.755	0.0131779
659.833	0.0132845
659.911	0.0132167
659.989	0.0134458
660.068	0.0134244
660.146	0.0133697
660.224	0.0133540
660.302	0.0133588
660.380	0.0134605
660.458	0.0132514
660.536	0.0133389
660.614	0.0132972
660.693	0.0132623
660.771	0.0132340
660.849	0.0133558
660.927	0.0134109
661.005	0.0134203
661.083	0.0133976
661.161	0.0134243
661.239	0.0133997
661.318	0.0133555
661.396	0.0133575
661.474	0.0133118
661.552	0.0131690
661.630	0.0133221
661.708	0.0132741
661.786	0.0133443
661.864	0.0133838
661.943	0.0134413
662.021	0.0133274
662.099	0.0131761
662.177	0.0133321
662.255	0.0132451
662.333	0.0132760
662.411	0.0135186
662.489	0.0133479
662.568	0.0134333
662.646	0.0133702
662.724	0.0132932
662.802	0.0133967
662.880	0.0132611
662.958	0.0133374
663.036	0.0134910
663.114	0.0133273
663.193	0.0133669
663.271	0.0133194
663.349	0.0131718
663.427	0.0132623
663.505	0.0133189
663.583	0.0132561
663.661	0.0133970
663.739	0.0133301
663.818	0.0133781
663.896	0.0134442
663.974	0.0133113
664.052	0.0132420
664.130	0.0133052
664.208	0.0133934
664.286	0.0133476
664.364	0.0133042
664.443	0.0133866
664.521	0.0131741
664.599	0.0133173
664.677	0.0132526
664.755	0.0134080
664.833	0.0132741
664.911	0.0133791
664.989	0.0134599
665.068	0.0133370
665.146	0.0133275
665.224	0.0133228
665.302	0.0132954
665.380	0.0133664
665.458	0.0132358
665.536	0.0132876
665.614	0.0134873
665.693	0.0135667
665.771	0.0132861
665.849	0.0133493
665.927	0.0134676
666.005	0.0133340
666.083	0.0132359
666.161	0.0133316
666.239	0.0133304
666.318	0.0132862
666.396	0.0133687
666.474	0.0133788
666.552	0.0132978
666.630	0.0133877
666.708	0.0133029
666.786	0.0133157
666.864	0.0132558
666.943	0.0134499
667.021	0.0134401
667.099	0.0133385
667.177	0.0133433
667.255	0.0133101
667.333	0.0133457
667.411	0.0133693
667.489	0.0133622
667.568	0.0132576
667.646	0.0132998
667.724	0.0133335
667.802	0.0134440
667.880	0.0133011
667.958	0.0133909
668.036	0.0134838
668.114	0.0133013
668.193	0.0134338
668.271	0.0133717
668.349	0.0133247
668.427	0.0134334
668.505	0.0133840
668.583	0.0132999
668.661	0.0133216
668.739	0.0133901
668.818	0.0132099
668.896	0.0132975
668.974	0.0133575
669.052	0.0133831
669.130	0.0133610
669.208	0.0134104
669.286	0.0133881
669.364	0.0133238
669.443	0.0133495
669.521	0.0133598
669.599	0.0133503
669.677	0.0134450
669.755	0.0133849
669.833	0.0136018
669.911	0.0135066
669.989	0.0133141
670.068	0.0134241
670.146	0.0134509
670.224	0.0134599
670.302	0.0133419
670.380	0.0133665
670.458	0.0133275
670.536	0.0134082
670.614	0.0132767
670.693	0.0134171
670.771	0.0134471
670.849	0.0133635
670.927	0.0133603
671.005	0.0134180
671.083	0.0133683
671.161	0.0133525
671.239	0.0133212
671.318	0.0133825
671.396	0.0133394
671.474	0.0134190
671.552	0.0133336
671.630	0.0132674
671.708	0.0132242
671.786	0.0132446
671.864	0.0133504
671.943	0.0132391
672.021	0.0133581
672.099	0.0133266
672.177	0.0132207
672.255	0.0133533
672.333	0.0134351
672.411	0.0131919
672.489	0.0132302
672.568	0.0133704
672.646	0.0132202
672.724	0.0132355
672.802	0.0133633
672.880	0.0133524
672.958	0.0132583
673.036	0.0132267
673.114	0.0132486
673.193	0.0134054
673.271	0.0132514
673.349	0.0133394
673.427	0.0132438
673.505	0.0132230
673.583	0.0132509
673.661	0.0133081
673.739	0.0134256
673.818	0.0132812
673.896	0.0131923
673.974	0.0133352
674.052	0.0131603
674.130	0.0131600
674.208	0.0133680
674.286	0.0133112
674.364	0.0133129
674.443	0.0133032
674.521	0.0133065
674.599	0.0131621
674.677	0.0132578
674.755	0.0131944
674.833	0.0132291
674.911	0.0132630
674.989	0.0134007
675.068	0.0134034
675.146	0.0133881
675.224	0.0132226
675.302	0.0133192
675.380	0.0132396
675.458	0.0131533
675.536	0.0132680
675.614	0.0133801
675.693	0.0132453
675.771	0.0133356
675.849	0.0132795
675.927	0.0131931
676.005	0.0132286
676.083	0.0131615
676.161	0.0131690
676.239	0.0132975
676.318	0.0132482
676.396	0.0132599
676.474	0.0132398
676.552	0.0134149
676.630	0.0132661
676.708	0.0132433
676.786	0.0133122
676.864	0.0133089
676.943	0.0133173
677.021	0.0132507
677.099	0.0132596
677.177	0.0132840
677.255	0.0132153
677.333	0.0133982
677.411	0.0132461
677.489	0.0134168
677.568	0.0133614
677.646	0.0132951
677.724	0.0134544
677.802	0.0133771
677.880	0.0134241
677.958	0.0133447
678.036	0.0132530
678.114	0.0133010
678.193	0.0133150
678.271	0.0134196
678.349	0.0133510
678.427	0.0134293
678.505	0.0134095
678.583	0.0134445
678.661	0.0134162
678.739	0.0133985
678.818	0.0134911
678.896	0.0132961
678.974	0.0133884
679.052	0.0134874
679.130	0.0133927
679.208	0.0133900
679.286	0.0135174
679.364	0.0134110
679.443	0.0135468
679.521	0.0132962
679.599	0.0131979
679.677	0.0133681
679.755	0.0135494
679.833	0.0134785
679.911	0.0132843
679.989	0.0133138
680.068	0.0134196
680.146	0.0133581
680.224	0.0133635
680.302	0.0134765
680.380	0.0135362
680.458	0.0135135
680.536	0.0133820
680.614	0.0133422
680.693	0.0135265
680.771	0.0134264
680.849	0.0133404
680.927	0.0133253
681.005	0.0133646
681.083	0.0134083
681.161	0.0132830
681.239	0.0134755
681.318	0.0134187
681.396	0.0133904
681.474	0.0133889
681.552	0.0133733
681.630	0.0133910
681.708	0.0133379
681.786	0.0135060
681.864	0.0134335
681.943	0.0133918
682.021	0.0132827
682.099	0.0133712
682.177	0.0134614
682.255	0.0131908
682.333	0.0133171
682.411	0.0132792
682.489	0.0134621
682.568	0.0133121
682.646	0.0133395
682.724	0.0133741
682.802	0.0132311
682.880	0.0133675
682.958	0.0135430
683.036	0.0132864
683.114	0.0132593
683.193	0.0134010
683.271	0.0133904
683.349	0.0132898
683.427	0.0132738
683.505	0.0132970
683.583	0.0132864
683.661	0.0132737
683.739	0.0134152
683.818	0.0133566
683.896	0.0133559
683.974	0.0132407
684.052	0.0133132
684.130	0.0133536
684.208	0.0132227
684.286	0.0134045
684.364	0.0133556
684.443	0.0132853
684.521	0.0133194
684.599	0.0133842
684.677	0.0133751
684.755	0.0134743
684.833	0.0133173
684.911	0.0132919
684.989	0.0132494
685.068	0.0134161
685.146	0.0134111
685.224	0.0133806
685.302	0.0132587
685.380	0.0133797
685.458	0.0132676
685.536	0.0132628
685.614	0.0131548
685.693	0.0133163
685.771	0.0133068
685.849	0.0133493
685.927	0.0133325
686.005	0.0133614
686.083	0.0132749
686.161	0.0133289
686.239	0.0132879
686.318	0.0131821
686.396	0.0133352
686.474	0.0133005
686.552	0.0132228
686.630	0.0133157
686.708	0.0133302
686.786	0.0133815
686.864	0.0132410
686.943	0.0131967
687.021	0.0133482
687.099	0.0134341
687.177	0.0134307
687.255	0.0133147
687.333	0.0133108
687.411	0.0132950
687.489	0.0133429
687.568	0.0133474
687.646	0.0134328
687.724	0.0133031
687.802	0.0132698
687.880	0.0134309
687.958	0.0133453
688.036	0.0133806
688.114	0.0132977
688.193	0.0132710
688.271	0.0133004
688.349	0.0132710
688.427	0.0132525
688.505	0.0134148
688.583	0.0134164
688.661	0.0133707
688.739	0.0133664
688.818	0.0133535
688.896	0.0133918
688.974	0.0133524
689.052	0.0134072
689.130	0.0133667
689.208	0.0133649
689.286	0.0133631
689.364	0.0133675
689.443	0.0134167
689.521	0.0134212
689.599	0.0134004
689.677	0.0133537
689.755	0.0132494
689.833	0.0133308
689.911	0.0134588
689.989	0.0133717
690.068	0.0133718
690.146	0.0133749
690.224	0.0132441
690.302	0.0132319
690.380	0.0132212
690.458	0.0132206
690.536	0.0134197
690.614	0.0133112
690.693	0.0133723
690.771	0.0133974
690.849	0.0133564
690.927	0.0134588
691.005	0.0134026
691.083	0.0133811
691.161	0.0132715
691.239	0.0134127
691.318	0.0134287
691.396	0.0133088
691.474	0.0132623
691.552	0.0132333
691.630	0.0131168
691.708	0.0131593
691.786	0.0131375
691.864	0.0132405
691.943	0.0132079
692.021	0.0133424
692.099	0.0132938
692.177	0.0136431
692.255	0.0135858
692.333	0.0136862
692.411	0.0137148
692.489	0.0137391
692.568	0.0137650
692.646	0.0137192
692.724	0.0137067
692.802	0.0135648
692.880	0.0133762
692.958	0.0133633
693.036	0.0132458
693.114	0.0131451
693.193	0.0129108
693.271	0.0128558
693.349	0.0127895
693.427	0.0128786
693.505	0.0128993
693.583	0.0127649
693.661	0.0128058
693.739	0.0130730
693.818	0.0131840
693.896	0.0134236
693.974	0.0134295
694.052	0.0136329
694.130	0.0136498
694.208	0.0138520
694.286	0.0138071
694.364	0.0139218
694.443	0.0138886
694.521	0.0138535
694.599	0.0139091
694.677	0.0137798
694.755	0.0137280
694.833	0.0137263
694.911	0.0135521
694.989	0.0135027
695.068	0.0133259
695.146	0.0132213
695.224	0.0130512
695.302	0.0128925
695.380	0.0128550
695.458	0.0129591
695.536	0.0128443
695.614	0.0128204
695.693	0.0128770
695.771	0.0128778
695.849	0.0129336
695.927	0.0130560
696.005	0.0130231
696.083	0.0131534
696.161	0.0131647
696.239	0.0132234
696.318	0.0133574
696.396	0.0133375
696.474	0.0134077
696.552	0.0134644
696.630	0.0135155
696.708	0.0135211
696.786	0.0135807
696.864	0.0136189
696.943	0.0137251
697.021	0.0136067
697.099	0.0136226
697.177	0.0137457
697.255	0.0138318
697.333	0.0136280
697.411	0.0136985
697.489	0.0135869
697.568	0.0136467
697.646	0.0135046
697.724	0.0134306
697.802	0.0133627
697.880	0.0134290
697.958	0.0132291
698.036	0.0132959
698.114	0.0133276
698.193	0.0132583
698.271	0.0131018
698.349	0.0132168
698.427	0.0131319
698.505	0.0132541
698.583	0.0131355
698.661	0.0131363
698.739	0.0132349
698.818	0.0131699
698.896	0.0131204
698.974	0.0132016
699.052	0.0131155
699.130	0.0130363
699.208	0.0130720
699.286	0.0131200
699.364	0.0130430
699.443	0.0130314
699.521	0.0131104
699.599	0.0129759
699.677	0.0130489
699.755	0.0130424
699.833	0.0131538
699.911	0.0130904
699.989	0.0132026
700.068	0.0131187
700.146	0.0132246
700.224	0.0133174
700.302	0.0134824
700.380	0.0134915
700.458	0.0136930
700.536	0.0137018
700.614	0.0139224
700.693	0.0138872
700.771	0.0139608
700.849	0.0140503
700.927	0.0139481
701.005	0.0140613
701.083	0.0141959
701.161	0.0141858
701.239	0.0140207
701.318	0.0139302
701.396	0.0139116
701.474	0.0139091
701.552	0.0137511
701.630	0.0134891
701.708	0.0132941
701.786	0.0132523
701.864	0.0131163
701.943	0.0130781
702.021	0.0130525
702.099	0.0130421
702.177	0.0128784
702.255	0.0126581
702.333	0.0125484
702.411	0.0126191
702.489	0.0125607
702.568	0.0125318
702.646	0.0126341
702.724	0.0126321
702.802	0.0125770
702.880	0.0125662
702.958	0.0126688
703.036	0.0127260
703.114	0.0126814
703.193	0.0126463
703.271	0.0127792
703.349	0.0128433
703.427	0.0129339
703.505	0.0130575
703.583	0.0131808
703.661	0.0133042
703.739	0.0135789
703.818	0.0135886
703.896	0.0135824
703.974	0.0137897
704.052	0.0139056
704.130	0.0139272
704.208	0.0140320
704.286	0.0141254
704.364	0.0141943
704.443	0.0142619
704.521	0.0143083
704.599	0.0141669
704.677	0.0141479
704.755	0.0142137
704.833	0.0141421
704.911	0.0140530
704.989	0.0139512
705.068	0.0137937
705.146	0.0137498
705.224	0.0136771
705.302	0.0135269
705.380	0.0134315
705.458	0.0133759
705.536	0.0132492
705.614	0.0132296
705.693	0.0131133
705.771	0.0131045
705.849	0.0129793
705.927	0.0129664
706.005	0.0127518
706.083	0.0126900
706.161	0.0126185
706.239	0.0126617
706.318	0.0124127
706.396	0.0125060
706.474	0.0125214
706.552	0.0124506
706.630	0.0124014
706.708	0.0125980
706.786	0.0126811
706.864	0.0127010
706.943	0.0129211
707.021	0.0130338
707.099	0.0130186
707.177	0.0131075
707.255	0.0131736
707.333	0.0132632
707.411	0.0135130
707.489	0.0134940
707.568	0.0135560
707.646	0.0135551
707.724	0.0136493
707.802	0.0137304
707.880	0.0136404
707.958	0.0137000
708.036	0.0136288
708.114	0.0136617
708.193	0.0135760
708.271	0.0137357
708.349	0.0135725
708.427	0.0136182
708.505	0.0137859
708.583	0.0138461
708.661	0.0136781
708.739	0.0136849
708.818	0.0138277
708.896	0.0138899
708.974	0.0138688
709.052	0.0138959
709.130	0.0139375
709.208	0.0139877
709.286	0.0140076
709.364	0.0139418
709.443	0.0139431
709.521	0.0141579
709.599	0.0139767
709.677	0.0138787
709.755	0.0137942
709.833	0.0136244
709.911	0.0134128
709.989	0.0132413
710.068	0.0132012
710.146	0.0129507
710.224	0.0128489
710.302	0.0127563
710.380	0.0126560
710.458	0.0124834
710.536	0.0124780
710.614	0.0123326
710.693	0.0124831
710.771	0.0122768
710.849	0.0123250
710.927	0.0123565
711.005	0.0123666
711.083	0.0126541
711.161	0.0127683
711.239	0.0125538
711.318	0.0128087
711.396	0.0129330
711.474	0.0129899
711.552	0.0131068
711.630	0.0131892
711.708	0.0131803
711.786	0.0134890
711.864	0.0134128
711.943	0.0134121
712.021	0.0133916
712.099	0.0133248
712.177	0.0133858
712.255	0.0133488
712.333	0.0133176
712.411	0.0131567
712.489	0.0133174
712.568	0.0132686
712.646	0.0133637
712.724	0.0132981
712.802	0.0134725
712.880	0.0135062
712.958	0.0136173
713.036	0.0138494
713.114	0.0137360
713.193	0.0140726
713.271	0.0142006
713.349	0.0142014
713.427	0.0142181
713.505	0.0144742
713.583	0.0143020
713.661	0.0143867
713.739	0.0143782
713.818	0.0143166
713.896	0.0141737
713.974	0.0142424
714.052	0.0141413
714.130	0.0138942
714.208	0.0136042
714.286	0.0134919
714.364	0.0133617
714.443	0.0131487
714.521	0.0129401
714.599	0.0128322
714.677	0.0127081
714.755	0.0126256
714.833	0.0124129
714.911	0.0123727
714.989	0.0122964
715.068	0.0123357
715.146	0.0125099
715.224	0.0123229
715.302	0.0124723
715.380	0.0126292
715.458	0.0125979
715.536	0.0126903
715.614	0.0128383
715.693	0.0128065
715.771	0.0129332
715.849	0.0131548
715.927	0.0131763
716.005	0.0132022
716.083	0.0135057
716.161	0.0133813
716.239	0.0134800
716.318	0.0134494
716.396	0.0134977
716.474	0.0135120
716.552	0.0133768
716.630	0.0135287
716.708	0.0134893
716.786	0.0134740
716.864	0.0134793
716.943	0.0134221
717.021	0.0134624
717.099	0.0133044
717.177	0.0133573
717.255	0.0134158
717.333	0.0134586
717.411	0.0134048
717.489	0.0134035
717.568	0.0135346
717.646	0.0134684
717.724	0.0136288
717.802	0.0137151
717.880	0.0136980
717.958	0.0138243
718.036	0.0138425
718.114	0.0139143
718.193	0.0139715
718.271	0.0141343
718.349	0.0138426
718.427	0.0139323
718.505	0.0137607
718.583	0.0138457
718.661	0.0139504
718.739	0.0136877
718.818	0.0135892
718.896	0.0136458
718.974	0.0134743
719.052	0.0133691
719.130	0.0133872
719.208	0.0133473
719.286	0.0132070
719.364	0.0130993
719.443	0.0130389
719.521	0.0130443
719.599	0.0129786
719.677	0.0129683
719.755	0.0129606
719.833	0.0129350
719.911	0.0127576
719.989	0.0127566
720.068	0.0129342
720.146	0.0129485
720.224	0.0129036
720.302	0.0128291
720.380	0.0130759
720.458	0.0129000
720.536	0.0130579
720.614	0.0129633
720.693	0.0129637
720.771	0.0129396
720.849	0.0130872
720.927	0.0130484
721.005	0.0130177
721.083	0.0131070
721.161	0.0131535
721.239	0.0132223
721.318	0.0131348
721.396	0.0131555
721.474	0.0131573
721.552	0.0132298
721.630	0.0132387
721.708	0.0132877
721.786	0.0133215
721.864	0.0133601
721.943	0.0133781
722.021	0.0135543
722.099	0.0135246
722.177	0.0134975
722.255	0.0135382
722.333	0.0136716
722.411	0.0135040
722.489	0.0137724
722.568	0.0137143
722.646	0.0137389
722.724	0.0139626
722.802	0.0138063
722.880	0.0137769
722.958	0.0138725
723.036	0.0139326
723.114	0.0137261
723.193	0.0137043
723.271	0.0136319
723.349	0.0136491
723.427	0.0137312
723.505	0.0137134
723.583	0.0135257
723.661	0.0133930
723.739	0.0133762
723.818	0.0133038
723.896	0.0134749
723.974	0.0132510
724.052	0.0131335
724.130	0.0133347
724.208	0.0131476
724.286	0.0130686
724.364	0.0130648
724.443	0.0132076
724.521	0.0132402
724.599	0.0132716
724.677	0.0131861
724.755	0.0131989
724.833	0.0133014
724.911	0.0133283
724.989	0.0133067
725.068	0.0131922
725.146	0.0131451
725.224	0.0130891
725.302	0.0129830
725.380	0.0130537
725.458	0.0132181
725.536	0.0130254
725.614	0.0130418
725.693	0.0131077
725.771	0.0130577
725.849	0.0128152
725.927	0.0128790
726.005	0.0128951
726.083	0.0129092
726.161	0.0129391
726.239	0.0128281
726.318	0.0128993
726.396	0.0129749
726.474	0.0130396
726.552	0.0129901
726.630	0.0131737
726.708	0.0131535
726.786	0.0132606
726.864	0.0132586
726.943	0.0132998
727.021	0.0132375
727.099	0.0134660
727.177	0.0135220
727.255	0.0135297
727.333	0.0135619
727.411	0.0135471
727.489	0.0135048
727.568	0.0134256
727.646	0.0134260
727.724	0.0134967
727.802	0.0135918
727.880	0.0136269
727.958	0.0136761
728.036	0.0134434
728.114	0.0136082
728.193	0.0136740
728.271	0.0135177
728.349	0.0135616
728.427	0.0135610
728.505	0.0135233
728.583	0.0135410
728.661	0.0134213
728.739	0.0135139
728.818	0.0136235
728.896	0.0135114
728.974	0.0134968
729.052	0.0135323
729.130	0.0135161
729.208	0.0134878
729.286	0.0133572
729.364	0.0134941
729.443	0.0133439
729.521	0.0134731
729.599	0.0133983
729.677	0.0134578
729.755	0.0133002
729.833	0.0134976
729.911	0.0134821
729.989	0.0135220
730.068	0.0134029
730.146	0.0134029
730.224	0.0132943
730.302	0.0132587
730.380	0.0133679
730.458	0.0132253
730.536	0.0131476
730.614	0.0133141
730.693	0.0132587
730.771	0.0130363
730.849	0.0130331
730.927	0.0130970
731.005	0.0131025
731.083	0.0130280
731.161	0.0129661
731.239	0.0131376
731.318	0.0130641
731.396	0.0131727
731.474	0.0132666
731.552	0.0131730
731.630	0.0131532
731.708	0.0131329
731.786	0.0132222
731.864	0.0132953
731.943	0.0134770
732.021	0.0133772
732.099	0.0134978
732.177	0.0134588
732.255	0.0135162
732.333	0.0135718
732.411	0.0136950
732.489	0.0135336
732.568	0.0134927
732.646	0.0133073
732.724	0.0134396
732.802	0.0133693
732.880	0.0132600
732.958	0.0133948
733.036	0.0134618
733.114	0.0131133
733.193	0.0131091
733.271	0.0130524
733.349	0.0131589
733.427	0.0132507
733.505	0.0131219
733.583	0.0131914
733.661	0.0131059
733.739	0.0132299
733.818	0.0132607
733.896	0.0133423
733.974	0.0134463
734.052	0.0134159
734.130	0.0132735
734.208	0.0135184
734.286	0.0135800
734.364	0.0135823
734.443	0.0136141
734.521	0.0137501
734.599	0.0137537
734.677	0.0135637
734.755	0.0135351
734.833	0.0134326
734.911	0.0134973
734.989	0.0135004
735.068	0.0133599
735.146	0.0135760
735.224	0.0134772
735.302	0.0131792
735.380	0.0132147
735.458	0.0131570
735.536	0.0132810
735.614	0.0131675
735.693	0.0130831
735.771	0.0131433
735.849	0.0131344
735.927	0.0132864
736.005	0.0132941
736.083	0.0132857
736.161	0.0131598
736.239	0.0132373
736.318	0.0131853
736.396	0.0133325
736.474	0.0134283
736.552	0.0134547
736.630	0.0133846
736.708	0.0133154
736.786	0.0131498
736.864	0.0133876
736.943	0.0133918
737.021	0.0133471
737.099	0.0133051
737.177	0.0133080
737.255	0.0132366
737.333	0.0133341
737.411	0.0133997
737.489	0.0131600
737.568	0.0131750
737.646	0.0131315
737.724	0.0130801
737.802	0.0132556
737.880	0.0131774
737.958	0.0130069
738.036	0.0130451
738.114	0.0130135
738.193	0.0130441
738.271	0.0129115
738.349	0.0129555
738.427	0.0130383
738.505	0.0131076
738.583	0.0131153
738.661	0.0131449
738.739	0.0132083
738.818	0.0132555
738.896	0.0131841
738.974	0.0134001
739.052	0.0132840
739.130	0.0131864
739.208	0.0133440
739.286	0.0133210
739.364	0.0133118
739.443	0.0134449
739.521	0.0133999
739.599	0.0133218
739.677	0.0133175
739.755	0.0133268
739.833	0.0134383
739.911	0.0134447
739.989	0.0132709
740.068	0.0134278
740.146	0.0133124
740.224	0.0133755
740.302	0.0133496
740.380	0.0134151
740.458	0.0133808
740.536	0.0133308
740.614	0.0134464
740.693	0.0132489
740.771	0.0133715
740.849	0.0132491
740.927	0.0132956
741.005	0.0133676
741.083	0.0132990
741.161	0.0132858
741.239	0.0132703
741.318	0.0132304
741.396	0.0133670
741.474	0.0133601
741.552	0.0132195
741.630	0.0132072
741.708	0.0133253
741.786	0.0132867
741.864	0.0134321
741.943	0.0133424
742.021	0.0132990
742.099	0.0133154
742.177	0.0134811
742.255	0.0134247
742.333	0.0133314
742.411	0.0134715
742.489	0.0134491
742.568	0.0133459
742.646	0.0133299
742.724	0.0133749
742.802	0.0134100
742.880	0.0133086
742.958	0.0132082
743.036	0.0131361
743.114	0.0132214
743.193	0.0133064
743.271	0.0132222
743.349	0.0132837
743.427	0.0132205
743.505	0.0131879
743.583	0.0131091
743.661	0.0132335
743.739	0.0132170
743.818	0.0132225
743.896	0.0133229
743.974	0.0132688
744.052	0.0132527
744.130	0.0132180
744.208	0.0131388
744.286	0.0133624
744.364	0.0132749
744.443	0.0132265
744.521	0.0132674
744.599	0.0131503
744.677	0.0132378
744.755	0.0133059
744.833	0.0131728
744.911	0.0131360
744.989	0.0132989
745.068	0.0131802
745.146	0.0130959
745.224	0.0133649
745.302	0.0131532
745.380	0.0133015
745.458	0.0132122
745.536	0.0133920
745.614	0.0132047
745.693	0.0130720
745.771	0.0132436
745.849	0.0132742
745.927	0.0132175
746.005	0.0132587
746.083	0.0132365
746.161	0.0132526
746.239	0.0132435
746.318	0.0133234
746.396	0.0133291
746.474	0.0132345
746.552	0.0134227
746.630	0.0134061
746.708	0.0134335
746.786	0.0134013
746.864	0.0134397
746.943	0.0135246
747.021	0.0135362
747.099	0.0135373
747.177	0.0135645
747.255	0.0136015
747.333	0.0134995
747.411	0.0134340
747.489	0.0133263
747.568	0.0134053
747.646	0.0133551
747.724	0.0132421
747.802	0.0131838
747.880	0.0133202
747.958	0.0132648
748.036	0.0133112
748.114	0.0133733
748.193	0.0132829
748.271	0.0132045
748.349	0.0131863
748.427	0.0133048
748.505	0.0134878
748.583	0.0132997
748.661	0.0132850
748.739	0.0134553
748.818	0.0134316
748.896	0.0134262
748.974	0.0133928
749.052	0.0136104
749.130	0.0134401
749.208	0.0133993
749.286	0.0134438
749.364	0.0133881
749.443	0.0133318
749.521	0.0132977
749.599	0.0132051
749.677	0.0131353
749.755	0.0131456
749.833	0.0129945
749.911	0.0130276
749.989	0.0130499
750.068	0.0129198
750.146	0.0130540
750.224	0.0130398
750.302	0.0129588
750.380	0.0129023
750.458	0.0131144
750.536	0.0131263
750.614	0.0132005
750.693	0.0130488
750.771	0.0131673
750.849	0.0132010
750.927	0.0133018
751.005	0.0132593
751.083	0.0133752
751.161	0.0134695
751.239	0.0134248
751.318	0.0133682
751.396	0.0134892
751.474	0.0135125
751.552	0.0135295
751.630	0.0135213
751.708	0.0133775
751.786	0.0134218
751.864	0.0134128
751.943	0.0135277
752.021	0.0134775
752.099	0.0132789
752.177	0.0134182
752.255	0.0131979
752.333	0.0132485
752.411	0.0132358
752.489	0.0131302
752.568	0.0131499
752.646	0.0132642
752.724	0.0131608
752.802	0.0131879
752.880	0.0132190
752.958	0.0133062
753.036	0.0133128
753.114	0.0132270
753.193	0.0132893
753.271	0.0131853
753.349	0.0133247
753.427	0.0133570
753.505	0.0134566
753.583	0.0133265
753.661	0.0134234
753.739	0.0134881
753.818	0.0133477
753.896	0.0134676
753.974	0.0134300
754.052	0.0135210
754.130	0.0133891
754.208	0.0135435
754.286	0.0134849
754.364	0.0135606
754.443	0.0135117
754.521	0.0134874
754.599	0.0136200
754.677	0.0135381
754.755	0.0134972
754.833	0.0134475
754.911	0.0135398
754.989	0.0134743
755.068	0.0135073
755.146	0.0135611
755.224	0.0134138
755.302	0.0134336
755.380	0.0133629
755.458	0.0132611
755.536	0.0132880
755.614	0.0131805
755.693	0.0132413
755.771	0.0131092
755.849	0.0130447
755.927	0.0130301
756.005	0.0130566
756.083	0.0130798
756.161	0.0128982
756.239	0.0129533
756.318	0.0128856
756.396	0.0128394
756.474	0.0129895
756.552	0.0129826
756.630	0.0130421
756.708	0.0130687
756.786	0.0130513
756.864	0.0130270
756.943	0.0131196
757.021	0.0132457
757.099	0.0131805
757.177	0.0132557
757.255	0.0133470
757.333	0.0133440
757.411	0.0134631
757.489	0.0134321
757.568	0.0135233
757.646	0.0135390
757.724	0.0136110
757.802	0.0135597
757.880	0.0136366
757.958	0.0137145
758.036	0.0136568
758.114	0.0136069
758.193	0.0136072
758.271	0.0135835
758.349	0.0135728
758.427	0.0133833
758.505	0.0136289
758.583	0.0133987
758.661	0.0134402
758.739	0.0134738
758.818	0.0132202
758.896	0.0132986
758.974	0.0133526
759.052	0.0133434
759.130	0.0132442
759.208	0.0133823
759.286	0.0132293
759.364	0.0131808
759.443	0.0132453
759.521	0.0134440
759.599	0.0133996
759.677	0.0131641
759.755	0.0132339
759.833	0.0133238
759.911	0.0133040
759.989	0.0132461
760.068	0.0133235
760.146	0.0131738
760.224	0.0132178
760.302	0.0132165
760.380	0.0132220
760.458	0.0130924
760.536	0.0131416
760.614	0.0130827
760.693	0.0131139
760.771	0.0131985
760.849	0.0132385
760.927	0.0132428
761.005	0.0132663
761.083	0.0132637
761.161	0.0133980
761.239	0.0132832
761.318	0.0133489
761.396	0.0135178
761.474	0.0135499
761.552	0.0134062
761.630	0.0135514
761.708	0.0134369
761.786	0.0135099
761.864	0.0135086
761.943	0.0135621
762.021	0.0135876
762.099	0.0136002
762.177	0.0134062
762.255	0.0134584
762.333	0.0133340
762.411	0.0132986
762.489	0.0132581
762.568	0.0131657
762.646	0.0129606
762.724	0.0130714
762.802	0.0130993
762.880	0.0130286
762.958	0.0131071
763.036	0.0130499
763.114	0.0130753
763.193	0.0130875
763.271	0.0130293
763.349	0.0130957
763.427	0.0130717
763.505	0.0130879
763.583	0.0132861
763.661	0.0132292
763.739	0.0133189
763.818	0.0132150
763.896	0.0132458
763.974	0.0134294
764.052	0.0133558
764.130	0.0133971
764.208	0.0135178
764.286	0.0133835
764.364	0.0134859
764.443	0.0133791
764.521	0.0134746
764.599	0.0133806
764.677	0.0135457
764.755	0.0135553
764.833	0.0133303
764.911	0.0134339
764.989	0.0134157
765.068	0.0133849
765.146	0.0132954
765.224	0.0133307
765.302	0.0132481
765.380	0.0132199
765.458	0.0131824
765.536	0.0132698
765.614	0.0132352
765.693	0.0133411
765.771	0.0133340
765.849	0.0132970
765.927	0.0131718
766.005	0.0132769
766.083	0.0133125
766.161	0.0133296
766.239	0.0131487
766.318	0.0131772
766.396	0.0132518
766.474	0.0133170
766.552	0.0132475
766.630	0.0133015
766.708	0.0133169
766.786	0.0131606
766.864	0.0133610
766.943	0.0134703
767.021	0.0132831
767.099	0.0132354
767.177	0.0134766
767.255	0.0135188
767.333	0.0134885
767.411	0.0135890
767.489	0.0135289
767.568	0.0134821
767.646	0.0134731
767.724	0.0135855
767.802	0.0136480
767.880	0.0135300
767.958	0.0135671
768.036	0.0135912
768.114	0.0134841
768.193	0.0134168
768.271	0.0135876
768.349	0.0135635
768.427	0.0134985
768.505	0.0133059
768.583	0.0133241
768.661	0.0132073
768.739	0.0133414
768.818	0.0131260
768.896	0.0130544
768.974	0.0130503
769.052	0.0129839
769.130	0.0129303
769.208	0.0128955
769.286	0.0129428
769.364	0.0128278
769.443	0.0128770
769.521	0.0129298
769.599	0.0128226
769.677	0.0130085
769.755	0.0130957
769.833	0.0129666
769.911	0.0130279
769.989	0.0130034
770.068	0.0131125
770.146	0.0131377
770.224	0.0132072
770.302	0.0131261
770.380	0.0131849
770.458	0.0132511
770.536	0.0132564
770.614	0.0134026
770.693	0.0132179
770.771	0.0133609
770.849	0.0133489
770.927	0.0133908
771.005	0.0133266
771.083	0.0134476
771.161	0.0134045
771.239	0.0136068
771.318	0.0136243
771.396	0.0136621
771.474	0.0133671
771.552	0.0134296
771.630	0.0134264
771.708	0.0135887
771.786	0.0135861
771.864	0.0135317
771.943	0.0137508
772.021	0.0136583
772.099	0.0135863
772.177	0.0135500
772.255	0.0136031
772.333	0.0134650
772.411	0.0135384
772.489	0.0134975
772.568	0.0135023
772.646	0.0134644
772.724	0.0135619
772.802	0.0133985
772.880	0.0132600
772.958	0.0133400
773.036	0.0133048
773.114	0.0132426
773.193	0.0132716
773.271	0.0131182
773.349	0.0130548
773.427	0.0130567
773.505	0.0132060
773.583	0.0131081
773.661	0.0129542
773.739	0.0130640
773.818	0.0131125
773.896	0.0132019
773.974	0.0132258
774.052	0.0129594
774.130	0.0131420
774.208	0.0131068
774.286	0.0130805
774.364	0.0131173
774.443	0.0130740
774.521	0.0131723
774.599	0.0131472
774.677	0.0131227
774.755	0.0131981
774.833	0.0134245
774.911	0.0131193
774.989	0.0132075
775.068	0.0131320
775.146	0.0131776
775.224	0.0133217
775.302	0.0132278
775.380	0.0132446
775.458	0.0131364
775.536	0.0133323
775.614	0.0133760
775.693	0.0133225
775.771	0.0132746
775.849	0.0132500
775.927	0.0133821
776.005	0.0134850
776.083	0.0134661
776.161	0.0133461
776.239	0.0136180
776.318	0.0134920
776.396	0.0135297
776.474	0.0134428
776.552	0.0136060
776.630	0.0136869
776.708	0.0136105
776.786	0.0135378
776.864	0.0135448
776.943	0.0135434
777.021	0.0134969
777.099	0.0135296
777.177	0.0136051
777.255	0.0135027
777.333	0.0133958
777.411	0.0134364
777.489	0.0134776
777.568	0.0133112
777.646	0.0133763
777.724	0.0133946
777.802	0.0132890
777.880	0.0132281
777.958	0.0133159
778.036	0.0134824
778.114	0.0133228
778.193	0.0133260
778.271	0.0133033
778.349	0.0131886
778.427	0.0132118
778.505	0.0131686
778.583	0.0131820
778.661	0.0132796
778.739	0.0133974
778.818	0.0132959
778.896	0.0131756
778.974	0.0132999
779.052	0.0133369
779.130	0.0132438
779.208	0.0133287
779.286	0.0131782
779.364	0.0131634
779.443	0.0132281
779.521	0.0132034
779.599	0.0132184
779.677	0.0132062
779.755	0.0132558
779.833	0.0132889
779.911	0.0133357
779.989	0.0130978
780.068	0.0133450
780.146	0.0133453
780.224	0.0133552
780.302	0.0132642
780.380	0.0131864
780.458	0.0132435
780.536	0.0133890
780.614	0.0133717
780.693	0.0133401
780.771	0.0133764
780.849	0.0133679
780.927	0.0133764
781.005	0.0134153
781.083	0.0134151
781.161	0.0134639
781.239	0.0134277
781.318	0.0133495
781.396	0.0134737
781.474	0.0135101
781.552	0.0134081
781.630	0.0134737
781.708	0.0135606
781.786	0.0133318
781.864	0.0132664
781.943	0.0134282
782.021	0.0135118
782.099	0.0133884
782.177	0.0134381
782.255	0.0135379
782.333	0.0133684
782.411	0.0132982
782.489	0.0134106
782.568	0.0135265
782.646	0.0134447
782.724	0.0134351
782.802	0.0133841
782.880	0.0135410
782.958	0.0133469
783.036	0.0133134
783.114	0.0133452
783.193	0.0133490
783.271	0.0132619
783.349	0.0131625
783.427	0.0131566
783.505	0.0131549
783.583	0.0131187
783.661	0.0129475
783.739	0.0129752
783.818	0.0130271
783.896	0.0131299
783.974	0.0130712
784.052	0.0131010
784.130	0.0130918
784.208	0.0131873
784.286	0.0132153
784.364	0.0131958
784.443	0.0131131
784.521	0.0130171
784.599	0.0132539
784.677	0.0133376
784.755	0.0133745
784.833	0.0132866
784.911	0.0132563
784.989	0.0134062
785.068	0.0134850
785.146	0.0134486
785.224	0.0133092
785.302	0.0134785
785.380	0.0133916
785.458	0.0133121
785.536	0.0134290
785.614	0.0133013
785.693	0.0134349
785.771	0.0134960
785.849	0.0133190
785.927	0.0134551
786.005	0.0135556
786.083	0.0135006
786.161	0.0132867
786.239	0.0133927
786.318	0.0133959
786.396	0.0133839
786.474	0.0134241
786.552	0.0133849
786.630	0.0134982
786.708	0.0135521
786.786	0.0134847
786.864	0.0134534
786.943	0.0135705
787.021	0.0135815
787.099	0.0134827
787.177	0.0134635
787.255	0.0135401
787.333	0.0134792
787.411	0.0135247
787.489	0.0134638
787.568	0.0135513
787.646	0.0135276
787.724	0.0134096
787.802	0.0132692
787.880	0.0134104
787.958	0.0133330
788.036	0.0131972
788.114	0.0133185
788.193	0.0132422
788.271	0.0132262
788.349	0.0131854
788.427	0.0131453
788.505	0.0130749
788.583	0.0131702
788.661	0.0131986
788.739	0.0131878
788.818	0.0131911
788.896	0.0131785
788.974	0.0131652
789.052	0.0131339
789.130	0.0132940
789.208	0.0132642
789.286	0.0133504
789.364	0.0132263
789.443	0.0131853
789.521	0.0133091
789.599	0.0133174
789.677	0.0132710
789.755	0.0134161
789.833	0.0133219
789.911	0.0132368
789.989	0.0132828
790.068	0.0132321
790.146	0.0134242
790.224	0.0133683
790.302	0.0133097
790.380	0.0133349
790.458	0.0133194
790.536	0.0132621
790.614	0.0133799
790.693	0.0133515
790.771	0.0134304
790.849	0.0133560
790.927	0.0133229
791.005	0.0132867
791.083	0.0132915
791.161	0.0134748
791.239	0.0134498
791.318	0.0133335
791.396	0.0132112
791.474	0.0134132
791.552	0.0133593
791.630	0.0133685
791.708	0.0133784
791.786	0.0133511
791.864	0.0132509
791.943	0.0132920
792.021	0.0133043
792.099	0.0132528
792.177	0.0132136
792.255	0.0131742
792.333	0.0132152
792.411	0.0132162
792.489	0.0130884
792.568	0.0131542
792.646	0.0132533
792.724	0.0130715
792.802	0.0132115
792.880	0.0131718
792.958	0.0132765
793.036	0.0132522
793.114	0.0132925
793.193	0.0134359
793.271	0.0134180
793.349	0.0134388
793.427	0.0135201
793.505	0.0133484
793.583	0.0134409
793.661	0.0134119
793.739	0.0134209
793.818	0.0135649
793.896	0.0133729
793.974	0.0133421
794.052	0.0134217
794.130	0.0133189
794.208	0.0133067
794.286	0.0132095
794.364	0.0133335
794.443	0.0132617
794.521	0.0131998
794.599	0.0133235
794.677	0.0133389
794.755	0.0132592
794.833	0.0132591
794.911	0.0131440
794.989	0.0131042
795.068	0.0130084
795.146	0.0131792
795.224	0.0131863
795.302	0.0131502
795.380	0.0131013
795.458	0.0131287
795.536	0.0131621
795.614	0.0133566
795.693	0.0132523
795.771	0.0131332
795.849	0.0132397
795.927	0.0133271
796.005	0.0134062
796.083	0.0132619
796.161	0.0132971
796.239	0.0132116
796.318	0.0132330
796.396	0.0134119
796.474	0.0133498
796.552	0.0132765
796.630	0.0132822
796.708	0.0132364
796.786	0.0132268
796.864	0.0131404
796.943	0.0132121
797.021	0.0133253
797.099	0.0132982
797.177	0.0132790
797.255	0.0133096
797.333	0.0134023
797.411	0.0133016
797.489	0.0133498
797.568	0.0133810
797.646	0.0134255
797.724	0.0133896
797.802	0.0134493
797.880	0.0135179
797.958	0.0132959
798.036	0.0134090
798.114	0.0133318
798.193	0.0132952
798.271	0.0134785
798.349	0.0134744
798.427	0.0133182
798.505	0.0132812
798.583	0.0133051
798.661	0.0134015
798.739	0.0132401
798.818	0.0132553
798.896	0.0131918
798.974	0.0131749
799.052	0.0132431
799.130	0.0131432
799.208	0.0132146
799.286	0.0131882
799.364	0.0132181
799.443	0.0131631
799.521	0.0131583
799.599	0.0131927
799.677	0.0131585
799.755	0.0133032
799.833	0.0132883
799.911	0.0133457
799.989	0.0133110
800.068	0.0131991
800.146	0.0134299
800.224	0.0134649
800.302	0.0132484
800.380	0.0132890
800.458	0.0133015
800.536	0.0133837
800.614	0.0133633
800.693	0.0131763
800.771	0.0133402
800.849	0.0132462
800.927	0.0132974
801.005	0.0132277
801.083	0.0132129
801.161	0.0132851
801.239	0.0133617
801.318	0.0134458
801.396	0.0132864
801.474	0.0132990
801.552	0.0133730
801.630	0.0134787
801.708	0.0134516
801.786	0.0134136
801.864	0.0133308
801.943	0.0134755
802.021	0.0134007
802.099	0.0134307
802.177	0.0133272
802.255	0.0134177
802.333	0.0133739
802.411	0.0133719
802.489	0.0133956
802.568	0.0131418
802.646	0.0133647
802.724	0.0133492
802.802	0.0131853
802.880	0.0133107
802.958	0.0133163
803.036	0.0132134
803.114	0.0132172
803.193	0.0133540
803.271	0.0133151
803.349	0.0132366
803.427	0.0131360
803.505	0.0131976
803.583	0.0130711
803.661	0.0132214
803.739	0.0132518
803.818	0.0131770
803.896	0.0132641
803.974	0.0132803
804.052	0.0133810
804.130	0.0134275
804.208	0.0133142
804.286	0.0134248
804.364	0.0134159
804.443	0.0133341
804.521	0.0132149
804.599	0.0133044
804.677	0.0134023
804.755	0.0132948
804.833	0.0133782
804.911	0.0131960
804.989	0.0131322
805.068	0.0132757
805.146	0.0133163
805.224	0.0131814
805.302	0.0134122
805.380	0.0132912
805.458	0.0134215
805.536	0.0133505
805.614	0.0133871
805.693	0.0133971
805.771	0.0132767
805.849	0.0133376
805.927	0.0135104
806.005	0.0134869
806.083	0.0134968
806.161	0.0135184
806.239	0.0134206
806.318	0.0134472
806.396	0.0134052
806.474	0.0133575
806.552	0.0132905
806.630	0.0134017
806.708	0.0132235
806.786	0.0133218
806.864	0.0131916
806.943	0.0132024
807.021	0.0131094
807.099	0.0131581
807.177	0.0132624
807.255	0.0131776
807.333	0.0132423
807.411	0.0131670
807.489	0.0130714
807.568	0.0132275
807.646	0.0131923
807.724	0.0133182
807.802	0.0132063
807.880	0.0132699
807.958	0.0132172
808.036	0.0133767
808.114	0.0133500
808.193	0.0132753
808.271	0.0134149
808.349	0.0134303
808.427	0.0133542
808.505	0.0132797
808.583	0.0132334
808.661	0.0134623
808.739	0.0132497
808.818	0.0132820
808.896	0.0132155
808.974	0.0133185
809.052	0.0133157
809.130	0.0132579
809.208	0.0131485
809.286	0.0132116
809.364	0.0133225
809.443	0.0132617
809.521	0.0132372
809.599	0.0133320
809.677	0.0132006
809.755	0.0132642
809.833	0.0134336
809.911	0.0134547
809.989	0.0132378
810.068	0.0132741
810.146	0.0133434
810.224	0.0134179
810.302	0.0133198
810.380	0.0133035
810.458	0.0134991
810.536	0.0133491
810.614	0.0133376
810.693	0.0133627
810.771	0.0134326
810.849	0.0133092
810.927	0.0132881
811.005	0.0133363
811.083	0.0134480
811.161	0.0132649
811.239	0.0132373
811.318	0.0132879
811.396	0.0132777
811.474	0.0133379
811.552	0.0132002
811.630	0.0130365
811.708	0.0131542
811.786	0.0131857
811.864	0.0132288
811.943	0.0131853
812.021	0.0132114
812.099	0.0131656
812.177	0.0131127
812.255	0.0130331
812.333	0.0132044
812.411	0.0132160
812.489	0.0132794
812.568	0.0131761
812.646	0.0132819
812.724	0.0132491
812.802	0.0132771
812.880	0.0133459
812.958	0.0133785
813.036	0.0134183
813.114	0.0134042
813.193	0.0134163
813.271	0.0133434
813.349	0.0134328
813.427	0.0135085
813.505	0.0135906
813.583	0.0134886
813.661	0.0133537
813.739	0.0134128
813.818	0.0132837
813.896	0.0132366
813.974	0.0134404
814.052	0.0133475
814.130	0.0134418
814.208	0.0132581
814.286	0.0131662
814.364	0.0132438
814.443	0.0133672
814.521	0.0133287
814.599	0.0132114
814.677	0.0131857
814.755	0.0131785
814.833	0.0132769
814.911	0.0132619
814.989	0.0131808
815.068	0.0133287
815.146	0.0132783
815.224	0.0133838
815.302	0.0131880
815.380	0.0132189
815.458	0.0133981
815.536	0.0133593
815.614	0.0133441
815.693	0.0132780
815.771	0.0133518
815.849	0.0133880
815.927	0.0134490
816.005	0.0134814
816.083	0.0133218
816.161	0.0135093
816.239	0.0134219
816.318	0.0133885
816.396	0.0135179
816.474	0.0134579
816.552	0.0134374
816.630	0.0135046
816.708	0.0134847
816.786	0.0134795
816.864	0.0132957
816.943	0.0133206
817.021	0.0135173
817.099	0.0132813
817.177	0.0132614
817.255	0.0132353
817.333	0.0132372
817.411	0.0132329
817.489	0.0131719
817.568	0.0129881
817.646	0.0130078
817.724	0.0130840
817.802	0.0129676
817.880	0.0128896
817.958	0.0130628
818.036	0.0131040
818.114	0.0130123
818.193	0.0128314
818.271	0.0129427
818.349	0.0130068
818.427	0.0128300
818.505	0.0129877
818.583	0.0130414
818.661	0.0129677
818.739	0.0131499
818.818	0.0131354
818.896	0.0131107
818.974	0.0133813
819.052	0.0133238
819.130	0.0133324
819.208	0.0132043
819.286	0.0133580
819.364	0.0135336
819.443	0.0134073
819.521	0.0135557
819.599	0.0137498
819.677	0.0137776
819.755	0.0136567
819.833	0.0137917
819.911	0.0136452
819.989	0.0137469
820.068	0.0135883
820.146	0.0137158
820.224	0.0136757
820.302	0.0136044
820.380	0.0134829
820.458	0.0134650
820.536	0.0133615
820.614	0.0134921
820.693	0.0133995
820.771	0.0133607
820.849	0.0131842
820.927	0.0131905
821.005	0.0131610
821.083	0.0131339
821.161	0.0130154
821.239	0.0132018
821.318	0.0131382
821.396	0.0130476
821.474	0.0130543
821.552	0.0130849
821.630	0.0131123
821.708	0.0131297
821.786	0.0129329
821.864	0.0129026
821.943	0.0129121
822.021	0.0129548
822.099	0.0130608
822.177	0.0130086
822.255	0.0129971
822.333	0.0129131
822.411	0.0130344
822.489	0.0129854
822.568	0.0131079
822.646	0.0130850
822.724	0.0131374
822.802	0.0130350
822.880	0.0130662
822.958	0.0130472
823.036	0.0131142
823.114	0.0131482
823.193	0.0131940
823.271	0.0133256
823.349	0.0132342
823.427	0.0133246
823.505	0.0132036
823.583	0.0132974
823.661	0.0134195
823.739	0.0133137
823.818	0.0134486
823.896	0.0133323
823.974	0.0133352
824.052	0.0134267
824.130	0.0133393
824.208	0.0135924
824.286	0.0134269
824.364	0.0134112
824.443	0.0133200
824.521	0.0133701
824.599	0.0134288
824.677	0.0133988
824.755	0.0134496
824.833	0.0132473
824.911	0.0133975
824.989	0.0133247
825.068	0.0135303
825.146	0.0135640
825.224	0.0135502
825.302	0.0133646
825.380	0.0133843
825.458	0.0134978
825.536	0.0135493
825.614	0.0134960
825.693	0.0134969
825.771	0.0136329
825.849	0.0134154
825.927	0.0133635
826.005	0.0133383
826.083	0.0132700
826.161	0.0131666
826.239	0.0132523
826.318	0.0132571
826.396	0.0132876
826.474	0.0131226
826.552	0.0131822
826.630	0.0129669
826.708	0.0130440
826.786	0.0129764
826.864	0.0129165
826.943	0.0129353
827.021	0.0128790
827.099	0.0128809
827.177	0.0128219
827.255	0.0129574
827.333	0.0128998
827.411	0.0129303
827.489	0.0129582
827.568	0.0130090
827.646	0.0129488
827.724	0.0128792
827.802	0.0130680
827.880	0.0131828
827.958	0.0131998
828.036	0.0131921
828.114	0.0133069
828.193	0.0132131
828.271	0.0133189
828.349	0.0133688
828.427	0.0134108
828.505	0.0134411
828.583	0.0137114
828.661	0.0136662
828.739	0.0136047
828.818	0.0136205
828.896	0.0138365
828.974	0.0137128
829.052	0.0138502
829.130	0.0137883
829.208	0.0138915
829.286	0.0138482
829.364	0.0137286
829.443	0.0137654
829.521	0.0137069
829.599	0.0136606
829.677	0.0137176
829.755	0.0136293
829.833	0.0136379
829.911	0.0135995
829.989	0.0134672
830.068	0.0133599
830.146	0.0132935
830.224	0.0133762
830.302	0.0133158
830.380	0.0131882
830.458	0.0130810
830.536	0.0129341
830.614	0.0130193
830.693	0.0130185
830.771	0.0129858
830.849	0.0128222
830.927	0.0128848
831.005	0.0129825
831.083	0.0129102
831.161	0.0127383
831.239	0.0127058
831.318	0.0128741
831.396	0.0128294
831.474	0.0128359
831.552	0.0129919
831.630	0.0129429
831.708	0.0127790
831.786	0.0129542
831.864	0.0131127
831.943	0.0130518
832.021	0.0129095
832.099	0.0130298
832.177	0.0131761
832.255	0.0132284
832.333	0.0133578
832.411	0.0131877
832.489	0.0131339
832.568	0.0133446
832.646	0.0133852
832.724	0.0133846
832.802	0.0135152
832.880	0.0135204
832.958	0.0135204
833.036	0.0135154
833.114	0.0136240
833.193	0.0136363
833.271	0.0138061
833.349	0.0136095
833.427	0.0138088
833.505	0.0136377
833.583	0.0136488
833.661	0.0135738
833.739	0.0136166
833.818	0.0136702
833.896	0.0136642
833.974	0.0136440
834.052	0.0137325
834.130	0.0136878
834.208	0.0136031
834.286	0.0135707
834.364	0.0135137
834.443	0.0133717
834.521	0.0134922
834.599	0.0133643
834.677	0.0133118
834.755	0.0133890
834.833	0.0132660
834.911	0.0132869
834.989	0.0132518
835.068	0.0130374
835.146	0.0130206
835.224	0.0130195
835.302	0.0130476
835.380	0.0129199
835.458	0.0129009
835.536	0.0128735
835.614	0.0129126
835.693	0.0128651
835.771	0.0129555
835.849	0.0128780
835.927	0.0127866
836.005	0.0128503
836.083	0.0129981
836.161	0.0130435
836.239	0.0128471
836.318	0.0128362
836.396	0.0130901
836.474	0.0130016
836.552	0.0130870
836.630	0.0129931
836.708	0.0130675
836.786	0.0130293
836.864	0.0133003
836.943	0.0132681
837.021	0.0132144
837.099	0.0132645
837.177	0.0132941
837.255	0.0132966
837.333	0.0133194
837.411	0.0134387
837.489	0.0134801
837.568	0.0135625
837.646	0.0134852
837.724	0.0133686
837.802	0.0135532
837.880	0.0134013
837.958	0.0135526
838.036	0.0135809
838.114	0.0136024
838.193	0.0136069
838.271	0.0136238
838.349	0.0135455
838.427	0.0135612
838.505	0.0135296
838.583	0.0135515
838.661	0.0136485
838.739	0.0135395
838.818	0.0135822
838.896	0.0135046
838.974	0.0136021
839.052	0.0134535
839.130	0.0134319
839.208	0.0134631
839.286	0.0135966
839.364	0.0134979
839.443	0.0133620
839.521	0.0133432
839.599	0.0134936
839.677	0.0132967
839.755	0.0133062
839.833	0.0132364
839.911	0.0132587
839.989	0.0132662
840.068	0.0131646
840.146	0.0132591
840.224	0.0132154
840.302	0.0130602
840.380	0.0131170
840.458	0.0129955
840.536	0.0129145
840.614	0.0129197
840.693	0.0130359
840.771	0.0130006
840.849	0.0128971
840.927	0.0129808
841.005	0.0127902
841.083	0.0128572
841.161	0.0128678
841.239	0.0127744
841.318	0.0128703
841.396	0.0129559
841.474	0.0129173
841.552	0.0128738
841.630	0.0128625
841.708	0.0130985
841.786	0.0131313
841.864	0.0130676
841.943	0.0130296
842.021	0.0132179
842.099	0.0132191
842.177	0.0132117
842.255	0.0132678
842.333	0.0133988
842.411	0.0133572
842.489	0.0134855
842.568	0.0134222
842.646	0.0134776
842.724	0.0135416
842.802	0.0134084
842.880	0.0136665
842.958	0.0136316
843.036	0.0136133
843.114	0.0136084
843.193	0.0136194
843.271	0.0137203
843.349	0.0136636
843.427	0.0136367
843.505	0.0136749
843.583	0.0137850
843.661	0.0136718
843.739	0.0138187
843.818	0.0138190
843.896	0.0137244
843.974	0.0136407
844.052	0.0137636
844.130	0.0136477
844.208	0.0135800
844.286	0.0136134
844.364	0.0134501
844.443	0.0134982
844.521	0.0134971
844.599	0.0134599
844.677	0.0133527
844.755	0.0133093
844.833	0.0132957
844.911	0.0131335
844.989	0.0131987
845.068	0.0130527
845.146	0.0130456
845.224	0.0130703
845.302	0.0130959
845.380	0.0129709
845.458	0.0129918
845.536	0.0128828
845.614	0.0128706
845.693	0.0129375
845.771	0.0127254
845.849	0.0127493
845.927	0.0128721
846.005	0.0127746
846.083	0.0127683
846.161	0.0127135
846.239	0.0128391
846.318	0.0128311
846.396	0.0129202
846.474	0.0128753
846.552	0.0129218
846.630	0.0129399
846.708	0.0130337
846.786	0.0132450
846.864	0.0132117
846.943	0.0132215
847.021	0.0133252
847.099	0.0132954
847.177	0.0134749
847.255	0.0135545
847.333	0.0134175
847.411	0.0135555
847.489	0.0135275
847.568	0.0137489
847.646	0.0137231
847.724	0.0136038
847.802	0.0135680
847.880	0.0136663
847.958	0.0138183
848.036	0.0138175
848.114	0.0138395
848.193	0.0136102
848.271	0.0138640
848.349	0.0137771
848.427	0.0137291
848.505	0.0135914
848.583	0.0136600
848.661	0.0135465
848.739	0.0135947
848.818	0.0136366
848.896	0.0135912
848.974	0.0135913
849.052	0.0134460
849.130	0.0134912
849.208	0.0135658
849.286	0.0134773
849.364	0.0135078
849.443	0.0134468
849.521	0.0134061
849.599	0.0133927
849.677	0.0132856
849.755	0.0132551
849.833	0.0133733
849.911	0.0132356
849.989	0.0131392
850.068	0.0131526
850.146	0.0131846
850.224	0.0130470
850.302	0.0130126
850.380	0.0130788
850.458	0.0130728
850.536	0.0130481
850.614	0.0130142
850.693	0.0129355
850.771	0.0131225
850.849	0.0131066
850.927	0.0131077
851.005	0.0128812
851.083	0.0131355
851.161	0.0130127
851.239	0.0130723
851.318	0.0131991
851.396	0.0130400
851.474	0.0132301
851.552	0.0133010
851.630	0.0132667
851.708	0.0133121
851.786	0.0132828
851.864	0.0135075
851.943	0.0134186
852.021	0.0134858
852.099	0.0135540
852.177	0.0133800
852.255	0.0136399
852.333	0.0135278
852.411	0.0133822
852.489	0.0134721
852.568	0.0135670
852.646	0.0133854
852.724	0.0134383
852.802	0.0133517
852.880	0.0134720
852.958	0.0132871
853.036	0.0134014
853.114	0.0134528
853.193	0.0135403
853.271	0.0134740
853.349	0.0133073
853.427	0.0133722
853.505	0.0134971
853.583	0.0133176
853.661	0.0133914
853.739	0.0133450
853.818	0.0134080
853.896	0.0132504
853.974	0.0133542
854.052	0.0135365
854.130	0.0134971
854.208	0.0133180
854.286	0.0132160
854.364	0.0134076
854.443	0.0134850
854.521	0.0133099
854.599	0.0132398
854.677	0.0132433
854.755	0.0134328
854.833	0.0134312
854.911	0.0133865
854.989	0.0132807
855.068	0.0134035
855.146	0.0133547
855.224	0.0132211
855.302	0.0133977
855.380	0.0133688
855.458	0.0134278
855.536	0.0133609
855.614	0.0133023
855.693	0.0134116
855.771	0.0134483
855.849	0.0133865
855.927	0.0133421
856.005	0.0133392
856.083	0.0133692
856.161	0.0133315
856.239	0.0133521
856.318	0.0133520
856.396	0.0134582
856.474	0.0133018
856.552	0.0132901
856.630	0.0133421
856.708	0.0133836
856.786	0.0132018
856.864	0.0133669
856.943	0.0132861
857.021	0.0133347
857.099	0.0133942
857.177	0.0131671
857.255	0.0131413
857.333	0.0134311
857.411	0.0133212
857.489	0.0132053
857.568	0.0132706
857.646	0.0133244
857.724	0.0134304
857.802	0.0134175
857.880	0.0132895
857.958	0.0133265
858.036	0.0133057
858.114	0.0133747
858.193	0.0133642
858.271	0.0134421
858.349	0.0134784
858.427	0.0134769
858.505	0.0133981
858.583	0.0134670
858.661	0.0133611
858.739	0.0132977
858.818	0.0132831
858.896	0.0133041
858.974	0.0133095
859.052	0.0133506
859.130	0.0132736
859.208	0.0132182
859.286	0.0132037
859.364	0.0131735
859.443	0.0132704
859.521	0.0132940
859.599	0.0131400
859.677	0.0133048
859.755	0.0133317
859.833	0.0132849
859.911	0.0131889
859.989	0.0133089
860.068	0.0133377
860.146	0.0134303
860.224	0.0133957
860.302	0.0135588
860.380	0.0134284
860.458	0.0134469
860.536	0.0134394
860.614	0.0135747
860.693	0.0136037
860.771	0.0135780
860.849	0.0136851
860.927	0.0135345
861.005	0.0134100
861.083	0.0135752
861.161	0.0135271
861.239	0.0133550
861.318	0.0134121
861.396	0.0134181
861.474	0.0133869
861.552	0.0134264
861.630	0.0133543
861.708	0.0133984
861.786	0.0132993
861.864	0.0132130
861.943	0.0131905
862.021	0.0132362
862.099	0.0133498
862.177	0.0133888
862.255	0.0133521
862.333	0.0132487
862.411	0.0131472
862.489	0.0132503
862.568	0.0132545
862.646	0.0131661
862.724	0.0131229
862.802	0.0132581
862.880	0.0133116
862.958	0.0133178
863.036	0.0131959
863.114	0.0131766
863.193	0.0131434
863.271	0.0132171
863.349	0.0132288
863.427	0.0131492
863.505	0.0131718
863.583	0.0132278
863.661	0.0132787
863.739	0.0134597
863.818	0.0133348
863.896	0.0132820
863.974	0.0133892
864.052	0.0133376
864.130	0.0134478
864.208	0.0133449
864.286	0.0133115
864.364	0.0134771
864.443	0.0134550
864.521	0.0134542
864.599	0.0134697
864.677	0.0134882
864.755	0.0134301
864.833	0.0135325
864.911	0.0135381
864.989	0.0134766
865.068	0.0135079
865.146	0.0134762
865.224	0.0134441
865.302	0.0133897
865.380	0.0134068
865.458	0.0134480
865.536	0.0133443
865.614	0.0134103
865.693	0.0134063
865.771	0.0134029
865.849	0.0134237
865.927	0.0132714
866.005	0.0133395
866.083	0.0133151
866.161	0.0132711
866.239	0.0132537
866.318	0.0132367
866.396	0.0131966
866.474	0.0132560
866.552	0.0133077
866.630	0.0131903
866.708	0.0133099
866.786	0.0132060
866.864	0.0132373
866.943	0.0133839
867.021	0.0133962
867.099	0.0133733
867.177	0.0133496
867.255	0.0133804
867.333	0.0131154
867.411	0.0133997
867.489	0.0134764
867.568	0.0132741
867.646	0.0134336
867.724	0.0134646
867.802	0.0133667
867.880	0.0133447
867.958	0.0132461
868.036	0.0132951
868.114	0.0133754
868.193	0.0133973
868.271	0.0133266
868.349	0.0133340
868.427	0.0134490
868.505	0.0133112
868.583	0.0134360
868.661	0.0134246
868.739	0.0134520
868.818	0.0133897
868.896	0.0135069
868.974	0.0135118
869.052	0.0132539
869.130	0.0132918
869.208	0.0132436
869.286	0.0133983
869.364	0.0134186
869.443	0.0132636
869.521	0.0133179
869.599	0.0132994
869.677	0.0132137
869.755	0.0134255
869.833	0.0134863
869.911	0.0131475
869.989	0.0133747
870.068	0.0132451
870.146	0.0132811
870.224	0.0132504
870.302	0.0131023
870.380	0.0132684
870.458	0.0132109
870.536	0.0131438
870.614	0.0132411
870.693	0.0131351
870.771	0.0132304
870.849	0.0133376
870.927	0.0131659
871.005	0.0131173
871.083	0.0131388
871.161	0.0132947
871.239	0.0129647
871.318	0.0130144
871.396	0.0131153
871.474	0.0131639
871.552	0.0131828
871.630	0.0133103
871.708	0.0131773
871.786	0.0132327
871.864	0.0133234
871.943	0.0132854
872.021	0.0130436
872.099	0.0133111
872.177	0.0134092
872.255	0.0133569
872.333	0.0134303
872.411	0.0135551
872.489	0.0133406
872.568	0.0134579
872.646	0.0135008
872.724	0.0134713
872.802	0.0136158
872.880	0.0136057
872.958	0.0135394
873.036	0.0134972
873.114	0.0135164
873.193	0.0135973
873.271	0.0136292
873.349	0.0136765
873.427	0.0136477
873.505	0.0136557
873.583	0.0136510
873.661	0.0136211
873.739	0.0134969
873.818	0.0135552
873.896	0.0134436
873.974	0.0134929
874.052	0.0133835
874.130	0.0134189
874.208	0.0133653
874.286	0.0132845
874.364	0.0132446
874.443	0.0132467
874.521	0.0132611
874.599	0.0130878
874.677	0.0131756
874.755	0.0132875
874.833	0.0131035
874.911	0.0131572
874.989	0.0131856
875.068	0.0132011
875.146	0.0132176
875.224	0.0132960
875.302	0.0131857
875.380	0.0131842
875.458	0.0132130
875.536	0.0132777
875.614	0.0133698
875.693	0.0132995
875.771	0.0133724
875.849	0.0133481
875.927	0.0133439
876.005	0.0133034
876.083	0.0133965
876.161	0.0134997
876.239	0.0133627
876.318	0.0133063
876.396	0.0133915
876.474	0.0133965
876.552	0.0134254
876.630	0.0135699
876.708	0.0136082
876.786	0.0133631
876.864	0.0132990
876.943	0.0134545
877.021	0.0135099
877.099	0.0134394
877.177	0.0133905
877.255	0.0134959
877.333	0.0135195
877.411	0.0134981
877.489	0.0133255
877.568	0.0134560
877.646	0.0134293
877.724	0.0135302
877.802	0.0134580
877.880	0.0134595
877.958	0.0133150
878.036	0.0133790
878.114	0.0133968
878.193	0.0132400
878.271	0.0133186
878.349	0.0133358
878.427	0.0133395
878.505	0.0132913
878.583	0.0133492
878.661	0.0132579
878.739	0.0134163
878.818	0.0133051
878.896	0.0132840
878.974	0.0133113
879.052	0.0133295
879.130	0.0131641
879.208	0.0132971
879.286	0.0132708
879.364	0.0132755
879.443	0.0132825
879.521	0.0134318
879.599	0.0133572
879.677	0.0132449
879.755	0.0134155
879.833	0.0133801
879.911	0.0133170
879.989	0.0133285
880.068	0.0133634
880.146	0.0133553
880.224	0.0131529
880.302	0.0133836
880.380	0.0133718
880.458	0.0135429
880.536	0.0132753
880.614	0.0134565
880.693	0.0136303
880.771	0.0136275
880.849	0.0134631
880.927	0.0135894
881.005	0.0134830
881.083	0.0135177
881.161	0.0135492
881.239	0.0134810
881.318	0.0133463
881.396	0.0133343
881.474	0.0133501
881.552	0.0133120
881.630	0.0134619
881.708	0.0133188
881.786	0.0134332
881.864	0.0133831
881.943	0.0131196
882.021	0.0133463
882.099	0.0132581
882.177	0.0132762
882.255	0.0132672
882.333	0.0132615
882.411	0.0131744
882.489	0.0130876
882.568	0.0132432
882.646	0.0131133
882.724	0.0132439
882.802	0.0133239
882.880	0.0131989
882.958	0.0131961
883.036	0.0131880
883.114	0.0133141
883.193	0.0131672
883.271	0.0132147
883.349	0.0132043
883.427	0.0132195
883.505	0.0133144
883.583	0.0133202
883.661	0.0134053
883.739	0.0133904
883.818	0.0134242
883.896	0.0135176
883.974	0.0135488
884.052	0.0133876
884.130	0.0135283
884.208	0.0134007
884.286	0.0136050
884.364	0.0135336
884.443	0.0132790
884.521	0.0135182
884.599	0.0133764
884.677	0.0133712
884.755	0.0133465
884.833	0.0133431
884.911	0.0133093
884.989	0.0132842
885.068	0.0132713
885.146	0.0132708
885.224	0.0131796
885.302	0.0132771
885.380	0.0133684
885.458	0.0134042
885.536	0.0133066
885.614	0.0133420
885.693	0.0134290
885.771	0.0133132
885.849	0.0134783
885.927	0.0133228
886.005	0.0133395
886.083	0.0133759
886.161	0.0133162
886.239	0.0134054
886.318	0.0134473
886.396	0.0133373
886.474	0.0133848
886.552	0.0133602
886.630	0.0134534
886.708	0.0133213
886.786	0.0133651
886.864	0.0133619
886.943	0.0132819
887.021	0.0132974
887.099	0.0133063
887.177	0.0132812
887.255	0.0131767
887.333	0.0133263
887.411	0.0134459
887.489	0.0132435
887.568	0.0132944
887.646	0.0134225
887.724	0.0133855
887.802	0.0133663
887.880	0.0133676
887.958	0.0134356
888.036	0.0135155
888.114	0.0133774
888.193	0.0133797
888.271	0.0132489
888.349	0.0133138
888.427	0.0133909
888.505	0.0133481
888.583	0.0133344
888.661	0.0132291
888.739	0.0133759
888.818	0.0134103
888.896	0.0132288
888.974	0.0131898
889.052	0.0133060
889.130	0.0133205
889.208	0.0132021
889.286	0.0132065
889.364	0.0131541
889.443	0.0131107
889.521	0.0131493
889.599	0.0132198
889.677	0.0131927
889.755	0.0132155
889.833	0.0132410
889.911	0.0133102
889.989	0.0131534
890.068	0.0132729
890.146	0.0132605
890.224	0.0131956
890.302	0.0132248
890.380	0.0132465
890.458	0.0131741
890.536	0.0133279
890.614	0.0131711
890.693	0.0130258
890.771	0.0131641
890.849	0.0131592
890.927	0.0130917
891.005	0.0131698
891.083	0.0130250
891.161	0.0131329
891.239	0.0132876
891.318	0.0131457
891.396	0.0132259
891.474	0.0132127
891.552	0.0131884
891.630	0.0132309
891.708	0.0133952
891.786	0.0133237
891.864	0.0133559
891.943	0.0133817
892.021	0.0134120
892.099	0.0133884
892.177	0.0134708
892.255	0.0135698
892.333	0.0135202
892.411	0.0135402
892.489	0.0135809
892.568	0.0135968
892.646	0.0136504
892.724	0.0135089
892.802	0.0135281
892.880	0.0134872
892.958	0.0134148
893.036	0.0133852
893.114	0.0132339
893.193	0.0131887
893.271	0.0131897
893.349	0.0134517
893.427	0.0131807
893.505	0.0131932
893.583	0.0131040
893.661	0.0132485
893.739	0.0131916
893.818	0.0132847
893.896	0.0131408
893.974	0.0132592
894.052	0.0132661
894.130	0.0132391
894.208	0.0132387
894.286	0.0133074
894.364	0.0132764
894.443	0.0133089
894.521	0.0133175
894.599	0.0131313
894.677	0.0132907
894.755	0.0133113
894.833	0.0131356
894.911	0.0132724
894.989	0.0132289
895.068	0.0133611
895.146	0.0133446
895.224	0.0132541
895.302	0.0132533
895.380	0.0132749
895.458	0.0132423
895.536	0.0131747
895.614	0.0132754
895.693	0.0130907
895.771	0.0132113
895.849	0.0132167
895.927	0.0132039
896.005	0.0133238
896.083	0.0132654
896.161	0.0130581
896.239	0.0132107
896.318	0.0133614
896.396	0.0131685
896.474	0.0131624
896.552	0.0133558
896.630	0.0132465
896.708	0.0133272
896.786	0.0133275
896.864	0.0134761
896.943	0.0133267
897.021	0.0132991
897.099	0.0133412
897.177	0.0131848
897.255	0.0132705
897.333	0.0133059
897.411	0.0133000
897.489	0.0132940
897.568	0.0132133
897.646	0.0133230
897.724	0.0133620
897.802	0.0133650
897.880	0.0133437
897.958	0.0132584
898.036	0.0132164
898.114	0.0133044
898.193	0.0133825
898.271	0.0132677
898.349	0.0133934
898.427	0.0133808
898.505	0.0133101
898.583	0.0132604
898.661	0.0133200
898.739	0.0134553
898.818	0.0134093
898.896	0.0133558
898.974	0.0133837
899.052	0.0132979
899.130	0.0133471
899.208	0.0133933
899.286	0.0134210
899.364	0.0132800
899.443	0.0133380
899.521	0.0133621
899.599	0.0135109
899.677	0.0134408
899.755	0.0133028
899.833	0.0133422
899.911	0.0134449
899.989	0.0134058
900.068	0.0133683
900.146	0.0135159
900.224	0.0135448
900.302	0.0135643
900.380	0.0133691
900.458	0.0133763
900.536	0.0132532
900.614	0.0134187
900.693	0.0135304
900.771	0.0133303
900.849	0.0133972
900.927	0.0134274
901.005	0.0133420
901.083	0.0133722
901.161	0.0133083
901.239	0.0134753
901.318	0.0133909
901.396	0.0134316
901.474	0.0131758
901.552	0.0132700
901.630	0.0134381
901.708	0.0131734
901.786	0.0133572
901.864	0.0132851
901.943	0.0132539
902.021	0.0132319
902.099	0.0132853
902.177	0.0131674
902.255	0.0132777
902.333	0.0133337
902.411	0.0132990
902.489	0.0133231
902.568	0.0133778
902.646	0.0132782
902.724	0.0132523
902.802	0.0134409
902.880	0.0134701
902.958	0.0134148
903.036	0.0133970
903.114	0.0133273
903.193	0.0133413
903.271	0.0133082
903.349	0.0133348
903.427	0.0133247
903.505	0.0133736
903.583	0.0133625
903.661	0.0134010
903.739	0.0133755
903.818	0.0134129
903.896	0.0134129
903.974	0.0133014
904.052	0.0133199
904.130	0.0133528
904.208	0.0133549
904.286	0.0133430
904.364	0.0134401
904.443	0.0133756
904.521	0.0134174
904.599	0.0134050
904.677	0.0134402
904.755	0.0132447
904.833	0.0133411
904.911	0.0136520
904.989	0.0133543
905.068	0.0134193
905.146	0.0134418
905.224	0.0135448
905.302	0.0133603
905.380	0.0134623
905.458	0.0135796
905.536	0.0135207
905.614	0.0134843
905.693	0.0134053
905.771	0.0134889
905.849	0.0134800
905.927	0.0134688
906.005	0.0133385
906.083	0.0133790
906.161	0.0132980
906.239	0.0133631
906.318	0.0133146
906.396	0.0132538
906.474	0.0131108
906.552	0.0131408
906.630	0.0131840
906.708	0.0133364
906.786	0.0130836
906.864	0.0131458
906.943	0.0132771
907.021	0.0132278
907.099	0.0131590
907.177	0.0132735
907.255	0.0134148
907.333	0.0134192
907.411	0.0134361
907.489	0.0133498
907.568	0.0133807
907.646	0.0134525
907.724	0.0134651
907.802	0.0134033
907.880	0.0134679
907.958	0.0134539
908.036	0.0134401
908.114	0.0133594
908.193	0.0133456
908.271	0.0132515
908.349	0.0132779
908.427	0.0131793
908.505	0.0132502
908.583	0.0132958
908.661	0.0131966
908.739	0.0131586
908.818	0.0131287
908.896	0.0130866
908.974	0.0129720
909.052	0.0129817
909.130	0.0130047
909.208	0.0131002
909.286	0.0131016
909.364	0.0130994
909.443	0.0131384
909.521	0.0133470
909.599	0.0133248
909.677	0.0132043
909.755	0.0134085
909.833	0.0133325
909.911	0.0133459
909.989	0.0134528
910.068	0.0134978
910.146	0.0136556
910.224	0.0136174
910.302	0.0134930
910.380	0.0135989
910.458	0.0136755
910.536	0.0135018
910.614	0.0135923
910.693	0.0135096
910.771	0.0135201
910.849	0.0133987
910.927	0.0134420
911.005	0.0134092
911.083	0.0133695
911.161	0.0133316
911.239	0.0132380
911.318	0.0131960
911.396	0.0132967
911.474	0.0132043
911.552	0.0131287
911.630	0.0132307
911.708	0.0131356
911.786	0.0130931
911.864	0.0130924
911.943	0.0132780
912.021	0.0130453
912.099	0.0131694
912.177	0.0132564
912.255	0.0133501
912.333	0.0132983
912.411	0.0134430
912.489	0.0133965
912.568	0.0133748
912.646	0.0135721
912.724	0.0135644
912.802	0.0134853
912.880	0.0136750
912.958	0.0135574
913.036	0.0134978
913.114	0.0135389
913.193	0.0134448
913.271	0.0134801
913.349	0.0134137
913.427	0.0132167
913.505	0.0131761
913.583	0.0131748
913.661	0.0130762
913.739	0.0130683
913.818	0.0131783
913.896	0.0131450
913.974	0.0130383
914.052	0.0130913
914.130	0.0129485
914.208	0.0130120
914.286	0.0128895
914.364	0.0129826
914.443	0.0130563
914.521	0.0132533
914.599	0.0131065
914.677	0.0131325
914.755	0.0132751
914.833	0.0132615
914.911	0.0132516
914.989	0.0133174
915.068	0.0133658
915.146	0.0132195
915.224	0.0133710
915.302	0.0134496
915.380	0.0133422
915.458	0.0133430
915.536	0.0134773
915.614	0.0134814
915.693	0.0133407
915.771	0.0135046
915.849	0.0134315
915.927	0.0133773
916.005	0.0133647
916.083	0.0134855
916.161	0.0133918
916.239	0.0133470
916.318	0.0133360
916.396	0.0133634
916.474	0.0132516
916.552	0.0132626
916.630	0.0131816
916.708	0.0132700
916.786	0.0133871
916.864	0.0132269
916.943	0.0132437
917.021	0.0131879
917.099	0.0131793
917.177	0.0131738
917.255	0.0132539
917.333	0.0131758
917.411	0.0132433
917.489	0.0133675
917.568	0.0131729
917.646	0.0132008
917.724	0.0132367
917.802	0.0133070
917.880	0.0131812
917.958	0.0132302
918.036	0.0131509
918.114	0.0132803
918.193	0.0132869
918.271	0.0133697
918.349	0.0133076
918.427	0.0134193
918.505	0.0132988
918.583	0.0132318
918.661	0.0132253
918.739	0.0131605
918.818	0.0132939
918.896	0.0133295
918.974	0.0132693
919.052	0.0134514
919.130	0.0133212
919.208	0.0133188
919.286	0.0133850
919.364	0.0133273
919.443	0.0134148
919.521	0.0134945
919.599	0.0132719
919.677	0.0133106
919.755	0.0133155
919.833	0.0135725
919.911	0.0134322
919.989	0.0132939
920.068	0.0132961
920.146	0.0132303
920.224	0.0134592
920.302	0.0132449
920.380	0.0132287
920.458	0.0134423
920.536	0.0134533
920.614	0.0134560
920.693	0.0131915
920.771	0.0133688
920.849	0.0132992
920.927	0.0133199
921.005	0.0133670
921.083	0.0133211
921.161	0.0133873
921.239	0.0133553
921.318	0.0133807
921.396	0.0133401
921.474	0.0133390
921.552	0.0132973
921.630	0.0133160
921.708	0.0132274
921.786	0.0132925
921.864	0.0133186
921.943	0.0132845
922.021	0.0134170
922.099	0.0133392
922.177	0.0133847
922.255	0.0132719
922.333	0.0132140
922.411	0.0134679
922.489	0.0132764
922.568	0.0131696
922.646	0.0132071
922.724	0.0133456
922.802	0.0134087
922.880	0.0134302
922.958	0.0132986
923.036	0.0132868
923.114	0.0133270
923.193	0.0133106
923.271	0.0133306
923.349	0.0131816
923.427	0.0132880
923.505	0.0132722
923.583	0.0132034
923.661	0.0132374
923.739	0.0132738
923.818	0.0132731
923.896	0.0132051
923.974	0.0132243
924.052	0.0132162
924.130	0.0131048
924.208	0.0132121
924.286	0.0133101
924.364	0.0133317
924.443	0.0133414
924.521	0.0132549
924.599	0.0133123
924.677	0.0133566
924.755	0.0132632
924.833	0.0134142
924.911	0.0132470
924.989	0.0132504
925.068	0.0134196
925.146	0.0134419
925.224	0.0134305
925.302	0.0132538
925.380	0.0133821
925.458	0.0133078
925.536	0.0133589
925.614	0.0134742
925.693	0.0134829
925.771	0.0134710
925.849	0.0133475
925.927	0.0134772
926.005	0.0134616
926.083	0.0133977
926.161	0.0135824
926.239	0.0133902
926.318	0.0133553
926.396	0.0134135
926.474	0.0135383
926.552	0.0134101
926.630	0.0132796
926.708	0.0134328
926.786	0.0133562
926.864	0.0131352
926.943	0.0131870
927.021	0.0133177
927.099	0.0132716
927.177	0.0133083
927.255	0.0132114
927.333	0.0131222
927.411	0.0131029
927.489	0.0133111
927.568	0.0133119
927.646	0.0131057
927.724	0.0132862
927.802	0.0132466
927.880	0.0132168
927.958	0.0131540
928.036	0.0133968
928.114	0.0133607
928.193	0.0133514
928.271	0.0131664
928.349	0.0134439
928.427	0.0133392
928.505	0.0132237
928.583	0.0133822
928.661	0.0133921
928.739	0.0134998
928.818	0.0134681
928.896	0.0134937
928.974	0.0132990
929.052	0.0134601
929.130	0.0133045
929.208	0.0133403
929.286	0.0134646
929.364	0.0133808
929.443	0.0133524
929.521	0.0135106
929.599	0.0132967
929.677	0.0135045
929.755	0.0134551
929.833	0.0133730
929.911	0.0132236
929.989	0.0133568
930.068	0.0135027
930.146	0.0133894
930.224	0.0132573
930.302	0.0134013
930.380	0.0134303
930.458	0.0133926
930.536	0.0132520
930.614	0.0134610
930.693	0.0133753
930.771	0.0133776
930.849	0.0133167
930.927	0.0131606
931.005	0.0132944
931.083	0.0133620
931.161	0.0133382
931.239	0.0134008
931.318	0.0132851
931.396	0.0132253
931.474	0.0131393
931.552	0.0132464
931.630	0.0132098
931.708	0.0133385
931.786	0.0132283
931.864	0.0132110
931.943	0.0131850
932.021	0.0132925
932.099	0.0132733
932.177	0.0131818
932.255	0.0130389
932.333	0.0133229
932.411	0.0133641
932.489	0.0132452
932.568	0.0132554
932.646	0.0132959
932.724	0.0133238
932.802	0.0133746
932.880	0.0133556
932.958	0.0132648
933.036	0.0133421
933.114	0.0132312
933.193	0.0134054
933.271	0.0133128
933.349	0.0134413
933.427	0.0133199
933.505	0.0133557
933.583	0.0130836
933.661	0.0132336
933.739	0.0134861
933.818	0.0134190
933.896	0.0134688
933.974	0.0134139
934.052	0.0133633
934.130	0.0133566
934.208	0.0133453
934.286	0.0133744
934.364	0.0132697
934.443	0.0133127
934.521	0.0132258
934.599	0.0134215
934.677	0.0134565
934.755	0.0132285
934.833	0.0133181
934.911	0.0133383
934.989	0.0133506
935.068	0.0133068
935.146	0.0132941
935.224	0.0133177
935.302	0.0134234
935.380	0.0134121
935.458	0.0134520
935.536	0.0132724
935.614	0.0133841
935.693	0.0132720
935.771	0.0133730
935.849	0.0131800
935.927	0.0133160
936.005	0.0133699
936.083	0.0133432
936.161	0.0133840
936.239	0.0134864
936.318	0.0133791
936.396	0.0134260
936.474	0.0134196
936.552	0.0134442
936.630	0.0133493
936.708	0.0132065
936.786	0.0133440
936.864	0.0132928
936.943	0.0133107
937.021	0.0133367
937.099	0.0132148
937.177	0.0133574
937.255	0.0132500
937.333	0.0133098
937.411	0.0131853
937.489	0.0130859
937.568	0.0133349
937.646	0.0131509
937.724	0.0132170
937.802	0.0132614
937.880	0.0133249
937.958	0.0132576
938.036	0.0133067
938.114	0.0132153
938.193	0.0133659
938.271	0.0133697
938.349	0.0134187
938.427	0.0133081
938.505	0.0134695
938.583	0.0135303
938.661	0.0133447
938.739	0.0133044
938.818	0.0133877
938.896	0.0133615
938.974	0.0134058
939.052	0.0132252
939.130	0.0133589
939.208	0.0133659
939.286	0.0132513
939.364	0.0131621
939.443	0.0133855
939.521	0.0133752
939.599	0.0131238
939.677	0.0130939
939.755	0.0131676
939.833	0.0132568
939.911	0.0132909
939.989	0.0133234
940.068	0.0132915
940.146	0.0132351
940.224	0.0134499
940.302	0.0133400
940.380	0.0134846
940.458	0.0133599
940.536	0.0133315
940.614	0.0134285
940.693	0.0133392
940.771	0.0133672
940.849	0.0134600
940.927	0.0133674
941.005	0.0132800
941.083	0.0134009
941.161	0.0135347
941.239	0.0132321
941.318	0.0132964
941.396	0.0132179
941.474	0.0132835
941.552	0.0132187
941.630	0.0132248
941.708	0.0131635
941.786	0.0133742
941.864	0.0133163
941.943	0.0131684
942.021	0.0131232
942.099	0.0132539
942.177	0.0132265
942.255	0.0133163
942.333	0.0132664
942.411	0.0133673
942.489	0.0132662
942.568	0.0132989
942.646	0.0132793
942.724	0.0133549
942.802	0.0132685
942.880	0.0133295
942.958	0.0134561
943.036	0.0134105
943.114	0.0133479
943.193	0.0133080
943.271	0.0133096
943.349	0.0133648
943.427	0.0133448
943.505	0.0133099
943.583	0.0134320
943.661	0.0135132
943.739	0.0133129
943.818	0.0132504
943.896	0.0133479
943.974	0.0134053
944.052	0.0134789
944.130	0.0132853
944.208	0.0132234
944.286	0.0132173
944.364	0.0133340
944.443	0.0133089
944.521	0.0132668
944.599	0.0133586
944.677	0.0133624
944.755	0.0133868
944.833	0.0134198
944.911	0.0134176
944.989	0.0134766
945.068	0.0134837
945.146	0.0134832
945.224	0.0134386
945.302	0.0134659
945.380	0.0134246
945.458	0.0134740
945.536	0.0135068
945.614	0.0133965
945.693	0.0133787
945.771	0.0133223
945.849	0.0135183
945.927	0.0134412
946.005	0.0133509
946.083	0.0132941
946.161	0.0133150
946.239	0.0134185
946.318	0.0133680
946.396	0.0131962
946.474	0.0133181
946.552	0.0133886
946.630	0.0134366
946.708	0.0133345
946.786	0.0132687
946.864	0.0133413
946.943	0.0133329
947.021	0.0133180
947.099	0.0132845
947.177	0.0132797
947.255	0.0132623
947.333	0.0132593
947.411	0.0131712
947.489	0.0131985
947.568	0.0133507
947.646	0.0133199
947.724	0.0133144
947.802	0.0133115
947.880	0.0132688
947.958	0.0133987
948.036	0.0133052
948.114	0.0134325
948.193	0.0133098
948.271	0.0132087
948.349	0.0133728
948.427	0.0134209
948.505	0.0134136
948.583	0.0133245
948.661	0.0133777
948.739	0.0132674
948.818	0.0134865
948.896	0.0133829
948.974	0.0132350
949.052	0.0133482
949.130	0.0135754
949.208	0.0134076
949.286	0.0133057
949.364	0.0133350
949.443	0.0133355
949.521	0.0133648
949.599	0.0134033
949.677	0.0133891
949.755	0.0134731
949.833	0.0133122
949.911	0.0134576
949.989	0.0133065
950.068	0.0133012
950.146	0.0133920
950.224	0.0133223
950.302	0.0133605
950.380	0.0134502
950.458	0.0134513
950.536	0.0132693
950.614	0.0133743
950.693	0.0132962
950.771	0.0133798
950.849	0.0132912
950.927	0.0134011
951.005	0.0134449
951.083	0.0133940
951.161	0.0133713
951.239	0.0133646
951.318	0.0132983
951.396	0.0133906
951.474	0.0132767
951.552	0.0135251
951.630	0.0134859
951.708	0.0133374
951.786	0.0135363
951.864	0.0134818
951.943	0.0133829
952.021	0.0132980
952.099	0.0133297
952.177	0.0134041
952.255	0.0134816
952.333	0.0133696
952.411	0.0133416
952.489	0.0133189
952.568	0.0133622
952.646	0.0132907
952.724	0.0132382
952.802	0.0132888
952.880	0.0133102
952.958	0.0133401
953.036	0.0133391
953.114	0.0132605
953.193	0.0131943
953.271	0.0133279
953.349	0.0132928
953.427	0.0133478
953.505	0.0133774
953.583	0.0132680
953.661	0.0133199
953.739	0.0133273
953.818	0.0132497
953.896	0.0133835
953.974	0.0133108
954.052	0.0134210
954.130	0.0132338
954.208	0.0133665
954.286	0.0133129
954.364	0.0133247
954.443	0.0133555
954.521	0.0132922
954.599	0.0131887
954.677	0.0133790
954.755	0.0133953
954.833	0.0133397
954.911	0.0132847
954.989	0.0132687
955.068	0.0133619
955.146	0.0133459
955.224	0.0132867
955.302	0.0134538
955.380	0.0133750
955.458	0.0134631
955.536	0.0133098
955.614	0.0134264
955.693	0.0133207
955.771	0.0133559
955.849	0.0134918
955.927	0.0133959
956.005	0.0133980
956.083	0.0134364
956.161	0.0134086
956.239	0.0134032
956.318	0.0134069
956.396	0.0133173
956.474	0.0133052
956.552	0.0134144
956.630	0.0132788
956.708	0.0133279
956.786	0.0133212
956.864	0.0134911
956.943	0.0133638
957.021	0.0132743
957.099	0.0134050
957.177	0.0133234
957.255	0.0134595
957.333	0.0134749
957.411	0.0132993
957.489	0.0134938
957.568	0.0134338
957.646	0.0133481
957.724	0.0134629
957.802	0.0133056
957.880	0.0133529
957.958	0.0134622
958.036	0.0134155
958.114	0.0134415
958.193	0.0133389
958.271	0.0134028
958.349	0.0133144
958.427	0.0132538
958.505	0.0134248
958.583	0.0133207
958.661	0.0135140
958.739	0.0134099
958.818	0.0133390
958.896	0.0133079
958.974	0.0134167
959.052	0.0135035
959.130	0.0135254
959.208	0.0133326
959.286	0.0133784
959.364	0.0133025
959.443	0.0132256
959.521	0.0134541
959.599	0.0132832
959.677	0.0133686
959.755	0.0135248
959.833	0.0134517
959.911	0.0133516
