05/14/2022	16:38:02	Ver.	4.1	UNKNOWN
Optical Delay	639.989416	Delta X		0.078125	Sweeps	1	Scan Rate	0/0
Coordinates	Axis 1	NaN	Axis 2	NaN	Axis 3	NaN	Axis 4	NaN	Axis 5	NaN	Axis 6	0.000000
TX Power	0.000000	RX Power	0.000000

639.989	0.0139593
640.068	0.0139782
640.146	0.0139822
640.224	0.0140182
640.302	0.0139981
640.380	0.0140481
640.458	0.0139037
640.536	0.0140503
640.614	0.0139722
640.693	0.0139821
640.771	0.0138992
640.849	0.0140247
640.927	0.0140227
641.005	0.0138824
641.083	0.0139147
641.161	0.0139237
641.239	0.0139671
641.318	0.0139547
641.396	0.0139366
641.474	0.0138310
641.552	0.0140180
641.630	0.0139079
641.708	0.0139481
641.786	0.0139562
641.864	0.0139657
641.943	0.0138600
642.021	0.0139261
642.099	0.0138893
642.177	0.0140393
642.255	0.0138765
642.333	0.0139827
642.411	0.0139751
642.489	0.0138839
642.568	0.0138670
642.646	0.0139249
642.724	0.0139404
642.802	0.0138206
642.880	0.0138641
642.958	0.0139272
643.036	0.0140188
643.114	0.0138729
643.193	0.0139846
643.271	0.0138983
643.349	0.0138690
643.427	0.0139690
643.505	0.0139140
643.583	0.0140062
643.661	0.0139597
643.739	0.0138467
643.818	0.0139178
643.896	0.0138182
643.974	0.0139808
644.052	0.0139932
644.130	0.0139492
644.208	0.0138513
644.286	0.0139939
644.364	0.0140016
644.443	0.0139046
644.521	0.0140162
644.599	0.0139953
644.677	0.0140155
644.755	0.0140325
644.833	0.0139719
644.911	0.0140875
644.989	0.0140247
645.068	0.0139935
645.146	0.0139891
645.224	0.0141177
645.302	0.0140575
645.380	0.0139301
645.458	0.0139745
645.536	0.0138972
645.614	0.0138969
645.693	0.0138720
645.771	0.0138784
645.849	0.0138628
645.927	0.0138821
646.005	0.0139417
646.083	0.0137189
646.161	0.0138933
646.239	0.0138487
646.318	0.0138056
646.396	0.0138811
646.474	0.0139524
646.552	0.0139350
646.630	0.0138152
646.708	0.0139117
646.786	0.0139642
646.864	0.0140553
646.943	0.0139117
647.021	0.0139696
647.099	0.0140240
647.177	0.0140317
647.255	0.0139311
647.333	0.0139924
647.411	0.0139334
647.489	0.0139629
647.568	0.0141063
647.646	0.0138709
647.724	0.0140966
647.802	0.0139829
647.880	0.0138934
647.958	0.0139500
648.036	0.0141128
648.114	0.0140514
648.193	0.0140607
648.271	0.0139606
648.349	0.0138586
648.427	0.0140681
648.505	0.0139966
648.583	0.0139924
648.661	0.0139260
648.739	0.0139607
648.818	0.0140085
648.896	0.0139822
648.974	0.0140134
649.052	0.0139456
649.130	0.0138894
649.208	0.0140285
649.286	0.0139586
649.364	0.0140800
649.443	0.0140685
649.521	0.0140851
649.599	0.0139391
649.677	0.0140533
649.755	0.0139693
649.833	0.0140602
649.911	0.0139895
649.989	0.0140966
650.068	0.0141360
650.146	0.0141219
650.224	0.0140724
650.302	0.0141092
650.380	0.0140903
650.458	0.0141026
650.536	0.0141177
650.614	0.0141759
650.693	0.0139816
650.771	0.0140327
650.849	0.0140008
650.927	0.0140778
651.005	0.0140057
651.083	0.0140158
651.161	0.0140019
651.239	0.0141186
651.318	0.0140126
651.396	0.0141106
651.474	0.0141269
651.552	0.0139854
651.630	0.0139147
651.708	0.0141621
651.786	0.0140496
651.864	0.0138485
651.943	0.0139085
652.021	0.0138982
652.099	0.0140430
652.177	0.0140902
652.255	0.0140376
652.333	0.0140859
652.411	0.0139215
652.489	0.0139751
652.568	0.0139080
652.646	0.0139565
652.724	0.0138968
652.802	0.0140922
652.880	0.0141498
652.958	0.0140882
653.036	0.0139629
653.114	0.0140020
653.193	0.0140605
653.271	0.0141338
653.349	0.0139564
653.427	0.0139666
653.505	0.0140560
653.583	0.0139865
653.661	0.0139568
653.739	0.0140468
653.818	0.0139413
653.896	0.0138618
653.974	0.0139342
654.052	0.0141502
654.130	0.0141894
654.208	0.0139601
654.286	0.0140182
654.364	0.0140186
654.443	0.0141035
654.521	0.0141746
654.599	0.0141654
654.677	0.0141298
654.755	0.0140527
654.833	0.0141210
654.911	0.0140723
654.989	0.0139996
655.068	0.0141056
655.146	0.0139197
655.224	0.0139706
655.302	0.0140012
655.380	0.0140989
655.458	0.0139708
655.536	0.0138885
655.614	0.0140034
655.693	0.0140051
655.771	0.0140165
655.849	0.0139577
655.927	0.0138456
656.005	0.0140024
656.083	0.0140681
656.161	0.0140739
656.239	0.0141364
656.318	0.0139542
656.396	0.0139156
656.474	0.0140293
656.552	0.0140062
656.630	0.0140254
656.708	0.0140499
656.786	0.0139781
656.864	0.0139793
656.943	0.0139796
657.021	0.0138648
657.099	0.0139557
657.177	0.0139626
657.255	0.0140746
657.333	0.0140043
657.411	0.0139339
657.489	0.0141412
657.568	0.0140504
657.646	0.0140307
657.724	0.0139152
657.802	0.0140992
657.880	0.0140768
657.958	0.0139487
658.036	0.0142618
658.114	0.0139912
658.193	0.0139764
658.271	0.0139537
658.349	0.0140919
658.427	0.0140300
658.505	0.0140598
658.583	0.0139257
658.661	0.0139705
658.739	0.0140189
658.818	0.0139234
658.896	0.0140229
658.974	0.0140564
659.052	0.0140797
659.130	0.0139502
659.208	0.0140661
659.286	0.0140723
659.364	0.0140462
659.443	0.0139787
659.521	0.0141357
659.599	0.0139948
659.677	0.0139946
659.755	0.0140425
659.833	0.0139290
659.911	0.0139881
659.989	0.0139928
660.068	0.0139714
660.146	0.0139610
660.224	0.0139880
660.302	0.0139159
660.380	0.0139429
660.458	0.0137764
660.536	0.0138540
660.614	0.0138188
660.693	0.0136749
660.771	0.0137087
660.849	0.0137938
660.927	0.0137584
661.005	0.0138732
661.083	0.0138844
661.161	0.0137724
661.239	0.0136700
661.318	0.0138606
661.396	0.0140714
661.474	0.0138288
661.552	0.0137753
661.630	0.0139242
661.708	0.0138668
661.786	0.0138972
661.864	0.0137686
661.943	0.0138369
662.021	0.0136855
662.099	0.0138627
662.177	0.0137411
662.255	0.0136583
662.333	0.0137686
662.411	0.0138498
662.489	0.0136731
662.568	0.0138232
662.646	0.0137177
662.724	0.0138155
662.802	0.0138135
662.880	0.0138154
662.958	0.0137653
663.036	0.0136691
663.114	0.0137965
663.193	0.0138174
663.271	0.0138651
663.349	0.0137874
663.427	0.0137575
663.505	0.0138645
663.583	0.0137829
663.661	0.0138116
663.739	0.0138285
663.818	0.0138928
663.896	0.0137839
663.974	0.0138729
664.052	0.0138692
664.130	0.0138405
664.208	0.0138313
664.286	0.0138869
664.364	0.0138375
664.443	0.0139855
664.521	0.0138176
664.599	0.0139150
664.677	0.0139919
664.755	0.0139390
664.833	0.0137858
664.911	0.0139065
664.989	0.0138581
665.068	0.0138914
665.146	0.0137906
665.224	0.0137935
665.302	0.0139174
665.380	0.0139958
665.458	0.0138702
665.536	0.0139263
665.614	0.0138985
665.693	0.0140020
665.771	0.0140755
665.849	0.0139671
665.927	0.0138892
666.005	0.0139516
666.083	0.0139182
666.161	0.0138249
666.239	0.0140597
666.318	0.0140878
666.396	0.0139616
666.474	0.0139130
666.552	0.0139312
666.630	0.0140376
666.708	0.0137972
666.786	0.0138550
666.864	0.0138666
666.943	0.0139414
667.021	0.0138069
667.099	0.0139240
667.177	0.0139191
667.255	0.0139106
667.333	0.0139835
667.411	0.0139548
667.489	0.0139240
667.568	0.0139581
667.646	0.0140201
667.724	0.0138739
667.802	0.0140254
667.880	0.0141499
667.958	0.0140504
668.036	0.0139871
668.114	0.0140561
668.193	0.0139709
668.271	0.0138970
668.349	0.0140141
668.427	0.0140054
668.505	0.0140456
668.583	0.0139204
668.661	0.0139104
668.739	0.0139333
668.818	0.0140153
668.896	0.0139626
668.974	0.0139597
669.052	0.0139866
669.130	0.0139458
669.208	0.0139370
669.286	0.0139805
669.364	0.0138650
669.443	0.0140133
669.521	0.0139510
669.599	0.0139510
669.677	0.0139580
669.755	0.0140843
669.833	0.0140961
669.911	0.0140200
669.989	0.0140046
670.068	0.0139190
670.146	0.0140670
670.224	0.0140015
670.302	0.0140894
670.380	0.0140723
670.458	0.0140925
670.536	0.0139894
670.614	0.0140054
670.693	0.0141021
670.771	0.0140365
670.849	0.0139733
670.927	0.0140880
671.005	0.0140493
671.083	0.0140456
671.161	0.0140833
671.239	0.0140992
671.318	0.0140356
671.396	0.0141035
671.474	0.0140163
671.552	0.0138754
671.630	0.0139817
671.708	0.0139655
671.786	0.0140640
671.864	0.0140623
671.943	0.0139951
672.021	0.0139680
672.099	0.0139703
672.177	0.0140426
672.255	0.0140795
672.333	0.0142279
672.411	0.0139974
672.489	0.0139205
672.568	0.0141225
672.646	0.0140820
672.724	0.0139697
672.802	0.0141605
672.880	0.0140910
672.958	0.0140202
673.036	0.0139873
673.114	0.0140697
673.193	0.0140241
673.271	0.0140720
673.349	0.0140298
673.427	0.0140602
673.505	0.0140324
673.583	0.0140874
673.661	0.0140154
673.739	0.0139493
673.818	0.0140354
673.896	0.0140337
673.974	0.0138722
674.052	0.0139175
674.130	0.0138847
674.208	0.0138064
674.286	0.0137967
674.364	0.0138125
674.443	0.0137388
674.521	0.0137489
674.599	0.0137553
674.677	0.0138244
674.755	0.0139165
674.833	0.0140116
674.911	0.0140587
674.989	0.0141455
675.068	0.0139935
675.146	0.0141170
675.224	0.0142888
675.302	0.0142309
675.380	0.0144498
675.458	0.0144468
675.536	0.0145454
675.614	0.0145570
675.693	0.0145523
675.771	0.0144975
675.849	0.0145248
675.927	0.0145203
676.005	0.0144404
676.083	0.0143713
676.161	0.0142749
676.239	0.0142264
676.318	0.0141216
676.396	0.0140701
676.474	0.0139898
676.552	0.0137787
676.630	0.0136906
676.708	0.0134905
676.786	0.0133253
676.864	0.0132852
676.943	0.0132464
677.021	0.0131285
677.099	0.0131195
677.177	0.0130782
677.255	0.0131568
677.333	0.0130910
677.411	0.0131311
677.489	0.0132082
677.568	0.0133322
677.646	0.0134806
677.724	0.0135652
677.802	0.0138072
677.880	0.0140712
677.958	0.0142824
678.036	0.0143951
678.114	0.0145175
678.193	0.0148628
678.271	0.0149422
678.349	0.0151640
678.427	0.0152377
678.505	0.0154088
678.583	0.0153448
678.661	0.0155170
678.739	0.0155179
678.818	0.0155862
678.896	0.0154168
678.974	0.0152270
679.052	0.0150538
679.130	0.0149557
679.208	0.0146127
679.286	0.0144462
679.364	0.0140858
679.443	0.0137649
679.521	0.0135370
679.599	0.0131388
679.677	0.0126940
679.755	0.0125916
679.833	0.0121786
679.911	0.0117841
679.989	0.0116524
680.068	0.0116664
680.146	0.0115395
680.224	0.0114451
680.302	0.0115365
680.380	0.0115462
680.458	0.0115829
680.536	0.0119296
680.614	0.0120207
680.693	0.0122858
680.771	0.0128337
680.849	0.0130693
680.927	0.0134666
681.005	0.0141021
681.083	0.0144057
681.161	0.0149854
681.239	0.0155764
681.318	0.0159223
681.396	0.0163388
681.474	0.0167401
681.552	0.0170737
681.630	0.0173877
681.708	0.0174728
681.786	0.0176223
681.864	0.0175300
681.943	0.0174172
682.021	0.0173342
682.099	0.0170513
682.177	0.0167899
682.255	0.0164597
682.333	0.0159756
682.411	0.0154742
682.489	0.0149397
682.568	0.0142645
682.646	0.0139926
682.724	0.0133130
682.802	0.0126913
682.880	0.0121989
682.958	0.0115686
683.036	0.0110217
683.114	0.0106215
683.193	0.0101982
683.271	0.00970421
683.349	0.00966904
683.427	0.00950050
683.505	0.00945572
683.583	0.00935356
683.661	0.00934807
683.739	0.00969345
683.818	0.0101607
683.896	0.0104653
683.974	0.0109548
684.052	0.0114904
684.130	0.0122434
684.208	0.0128461
684.286	0.0134712
684.364	0.0143007
684.443	0.0150900
684.521	0.0157184
684.599	0.0163020
684.677	0.0168729
684.755	0.0174049
684.833	0.0177764
684.911	0.0181838
684.989	0.0184312
685.068	0.0186417
685.146	0.0186832
685.224	0.0185241
685.302	0.0183892
685.380	0.0179450
685.458	0.0176501
685.536	0.0174080
685.614	0.0169637
685.693	0.0163960
685.771	0.0157678
685.849	0.0152182
685.927	0.0145946
686.005	0.0138326
686.083	0.0132476
686.161	0.0126192
686.239	0.0120914
686.318	0.0115649
686.396	0.0111677
686.474	0.0106752
686.552	0.0105189
686.630	0.0101839
686.708	0.0100642
686.786	0.0100194
686.864	0.00987343
686.943	0.0102557
687.021	0.0102355
687.099	0.0104267
687.177	0.0106625
687.255	0.0110822
687.333	0.0114837
687.411	0.0117812
687.489	0.0122155
687.568	0.0126908
687.646	0.0130901
687.724	0.0135928
687.802	0.0141927
687.880	0.0146503
687.958	0.0148930
688.036	0.0151976
688.114	0.0154842
688.193	0.0157049
688.271	0.0159358
688.349	0.0159686
688.427	0.0159367
688.505	0.0160250
688.583	0.0160431
688.661	0.0158324
688.739	0.0158130
688.818	0.0157769
688.896	0.0156110
688.974	0.0156841
689.052	0.0154820
689.130	0.0154128
689.208	0.0153246
689.286	0.0153010
689.364	0.0151283
689.443	0.0149500
689.521	0.0148673
689.599	0.0147220
689.677	0.0147236
689.755	0.0145113
689.833	0.0143533
689.911	0.0143707
689.989	0.0141396
690.068	0.0142384
690.146	0.0137759
690.224	0.0137144
690.302	0.0136994
690.380	0.0134720
690.458	0.0133354
690.536	0.0133057
690.614	0.0131260
690.693	0.0129631
690.771	0.0125928
690.849	0.0124934
690.927	0.0125143
691.005	0.0122173
691.083	0.0121867
691.161	0.0122208
691.239	0.0119466
691.318	0.0120995
691.396	0.0121654
691.474	0.0122267
691.552	0.0122342
691.630	0.0126675
691.708	0.0128599
691.786	0.0131006
691.864	0.0135961
691.943	0.0137564
692.021	0.0139205
692.099	0.0141623
692.177	0.0146535
692.255	0.0148196
692.333	0.0149198
692.411	0.0151180
692.489	0.0151642
692.568	0.0152391
692.646	0.0153134
692.724	0.0151704
692.802	0.0152423
692.880	0.0151202
692.958	0.0150629
693.036	0.0149307
693.114	0.0146815
693.193	0.0146651
693.271	0.0144991
693.349	0.0145141
693.427	0.0142350
693.505	0.0143031
693.583	0.0141423
693.661	0.0140465
693.739	0.0139524
693.818	0.0139281
693.896	0.0141221
693.974	0.0141319
694.052	0.0139441
694.130	0.0139379
694.208	0.0140176
694.286	0.0140328
694.364	0.0142871
694.443	0.0141599
694.521	0.0143166
694.599	0.0142517
694.677	0.0141956
694.755	0.0144004
694.833	0.0143780
694.911	0.0144642
694.989	0.0143383
695.068	0.0141168
695.146	0.0140685
695.224	0.0140968
695.302	0.0140726
695.380	0.0138710
695.458	0.0136200
695.536	0.0134934
695.614	0.0132420
695.693	0.0129925
695.771	0.0130034
695.849	0.0128898
695.927	0.0128368
696.005	0.0126942
696.083	0.0125856
696.161	0.0127176
696.239	0.0126732
696.318	0.0127454
696.396	0.0129090
696.474	0.0129303
696.552	0.0130257
696.630	0.0133614
696.708	0.0135988
696.786	0.0137550
696.864	0.0141122
696.943	0.0144379
697.021	0.0147725
697.099	0.0150172
697.177	0.0152065
697.255	0.0155726
697.333	0.0157678
697.411	0.0161283
697.489	0.0160399
697.568	0.0161732
697.646	0.0163007
697.724	0.0161108
697.802	0.0160913
697.880	0.0159009
697.958	0.0153729
698.036	0.0152592
698.114	0.0150370
698.193	0.0146900
698.271	0.0144830
698.349	0.0141124
698.427	0.0138804
698.505	0.0135918
698.583	0.0131641
698.661	0.0128303
698.739	0.0126479
698.818	0.0123241
698.896	0.0119150
698.974	0.0117046
699.052	0.0115503
699.130	0.0115865
699.208	0.0115958
699.286	0.0115979
699.364	0.0116470
699.443	0.0118181
699.521	0.0121058
699.599	0.0124647
699.677	0.0127700
699.755	0.0130792
699.833	0.0135416
699.911	0.0141337
699.989	0.0146681
700.068	0.0149686
700.146	0.0154137
700.224	0.0156886
700.302	0.0158738
700.380	0.0162777
700.458	0.0163080
700.536	0.0165149
700.614	0.0164221
700.693	0.0163297
700.771	0.0164789
700.849	0.0163204
700.927	0.0160927
701.005	0.0160143
701.083	0.0160101
701.161	0.0158112
701.239	0.0156339
701.318	0.0153870
701.396	0.0152968
701.474	0.0150137
701.552	0.0148211
701.630	0.0146901
701.708	0.0142799
701.786	0.0140381
701.864	0.0137952
701.943	0.0134751
702.021	0.0132542
702.099	0.0133105
702.177	0.0130432
702.255	0.0128295
702.333	0.0127429
702.411	0.0127039
702.489	0.0127688
702.568	0.0126404
702.646	0.0123933
702.724	0.0123423
702.802	0.0122749
702.880	0.0120347
702.958	0.0119849
703.036	0.0119801
703.114	0.0119952
703.193	0.0118661
703.271	0.0118153
703.349	0.0118597
703.427	0.0119348
703.505	0.0117667
703.583	0.0119129
703.661	0.0121362
703.739	0.0122445
703.818	0.0122908
703.896	0.0125331
703.974	0.0128177
704.052	0.0130698
704.130	0.0132544
704.208	0.0137346
704.286	0.0140620
704.364	0.0144761
704.443	0.0148895
704.521	0.0151714
704.599	0.0154511
704.677	0.0158868
704.755	0.0162572
704.833	0.0166342
704.911	0.0169452
704.989	0.0168886
705.068	0.0169208
705.146	0.0170686
705.224	0.0169803
705.302	0.0168948
705.380	0.0164883
705.458	0.0162798
705.536	0.0158658
705.614	0.0156062
705.693	0.0153408
705.771	0.0148100
705.849	0.0145974
705.927	0.0141597
706.005	0.0138333
706.083	0.0134958
706.161	0.0131300
706.239	0.0130251
706.318	0.0129257
706.396	0.0125753
706.474	0.0124625
706.552	0.0121814
706.630	0.0120992
706.708	0.0121279
706.786	0.0120463
706.864	0.0121673
706.943	0.0119549
707.021	0.0119517
707.099	0.0119563
707.177	0.0120238
707.255	0.0122446
707.333	0.0124591
707.411	0.0124467
707.489	0.0126649
707.568	0.0130264
707.646	0.0134216
707.724	0.0134998
707.802	0.0139449
707.880	0.0144272
707.958	0.0147799
708.036	0.0150821
708.114	0.0154660
708.193	0.0156929
708.271	0.0157195
708.349	0.0158066
708.427	0.0160216
708.505	0.0159419
708.583	0.0158613
708.661	0.0157654
708.739	0.0156311
708.818	0.0152081
708.896	0.0148400
708.974	0.0145416
709.052	0.0140314
709.130	0.0137800
709.208	0.0133778
709.286	0.0130190
709.364	0.0126575
709.443	0.0124475
709.521	0.0123390
709.599	0.0120074
709.677	0.0119276
709.755	0.0118678
709.833	0.0118423
709.911	0.0120269
709.989	0.0119621
710.068	0.0121067
710.146	0.0122650
710.224	0.0121828
710.302	0.0124754
710.380	0.0127941
710.458	0.0129282
710.536	0.0131445
710.614	0.0134222
710.693	0.0136288
710.771	0.0137131
710.849	0.0140912
710.927	0.0142730
711.005	0.0143068
711.083	0.0145737
711.161	0.0145885
711.239	0.0148590
711.318	0.0150255
711.396	0.0153156
711.474	0.0155029
711.552	0.0155477
711.630	0.0157590
711.708	0.0158447
711.786	0.0161433
711.864	0.0162126
711.943	0.0164162
712.021	0.0165815
712.099	0.0166203
712.177	0.0167834
712.255	0.0166229
712.333	0.0166339
712.411	0.0165508
712.489	0.0165192
712.568	0.0161990
712.646	0.0159653
712.724	0.0157288
712.802	0.0154037
712.880	0.0151073
712.958	0.0146645
713.036	0.0142189
713.114	0.0139214
713.193	0.0135383
713.271	0.0130967
713.349	0.0128062
713.427	0.0124664
713.505	0.0122228
713.583	0.0117883
713.661	0.0117387
713.739	0.0116448
713.818	0.0115396
713.896	0.0113966
713.974	0.0113411
714.052	0.0112218
714.130	0.0111867
714.208	0.0110027
714.286	0.0111239
714.364	0.0111058
714.443	0.0112369
714.521	0.0112576
714.599	0.0112997
714.677	0.0114353
714.755	0.0116904
714.833	0.0119338
714.911	0.0121838
714.989	0.0124088
715.068	0.0128416
715.146	0.0132781
715.224	0.0136232
715.302	0.0140264
715.380	0.0144384
715.458	0.0147738
715.536	0.0150129
715.614	0.0153404
715.693	0.0156025
715.771	0.0157471
715.849	0.0160713
715.927	0.0161178
716.005	0.0159690
716.083	0.0161449
716.161	0.0163100
716.239	0.0163265
716.318	0.0161480
716.396	0.0161166
716.474	0.0162126
716.552	0.0161234
716.630	0.0161087
716.708	0.0160017
716.786	0.0159516
716.864	0.0158212
716.943	0.0156235
717.021	0.0153492
717.099	0.0153297
717.177	0.0151238
717.255	0.0149589
717.333	0.0147987
717.411	0.0146320
717.489	0.0145227
717.568	0.0143731
717.646	0.0141240
717.724	0.0141746
717.802	0.0141444
717.880	0.0138022
717.958	0.0138448
718.036	0.0137637
718.114	0.0135287
718.193	0.0134392
718.271	0.0134104
718.349	0.0133012
718.427	0.0131308
718.505	0.0129600
718.583	0.0129144
718.661	0.0126694
718.739	0.0126395
718.818	0.0124966
718.896	0.0124908
718.974	0.0123742
719.052	0.0122540
719.130	0.0122641
719.208	0.0121645
719.286	0.0121009
719.364	0.0122779
719.443	0.0121757
719.521	0.0122166
719.599	0.0123535
719.677	0.0123821
719.755	0.0125393
719.833	0.0128288
719.911	0.0130484
719.989	0.0131689
720.068	0.0132875
720.146	0.0135404
720.224	0.0139001
720.302	0.0141920
720.380	0.0143958
720.458	0.0145177
720.536	0.0147963
720.614	0.0150909
720.693	0.0150927
720.771	0.0151357
720.849	0.0153329
720.927	0.0153101
721.005	0.0153014
721.083	0.0154090
721.161	0.0153654
721.239	0.0152158
721.318	0.0151087
721.396	0.0149445
721.474	0.0147669
721.552	0.0145438
721.630	0.0143505
721.708	0.0141282
721.786	0.0140842
721.864	0.0137689
721.943	0.0135423
722.021	0.0136114
722.099	0.0135452
722.177	0.0135869
722.255	0.0135085
722.333	0.0134711
722.411	0.0137800
722.489	0.0138654
722.568	0.0140186
722.646	0.0141402
722.724	0.0142305
722.802	0.0142540
722.880	0.0146056
722.958	0.0145570
723.036	0.0146410
723.114	0.0146788
723.193	0.0147385
723.271	0.0147567
723.349	0.0145232
723.427	0.0145585
723.505	0.0144917
723.583	0.0144654
723.661	0.0144704
723.739	0.0144290
723.818	0.0142892
723.896	0.0140919
723.974	0.0140742
724.052	0.0141190
724.130	0.0139623
724.208	0.0138969
724.286	0.0137420
724.364	0.0137357
724.443	0.0137087
724.521	0.0136287
724.599	0.0136319
724.677	0.0135947
724.755	0.0134647
724.833	0.0134068
724.911	0.0133824
724.989	0.0133720
725.068	0.0133092
725.146	0.0132201
725.224	0.0133701
725.302	0.0133094
725.380	0.0131953
725.458	0.0130798
725.536	0.0132346
725.614	0.0131449
725.693	0.0134057
725.771	0.0135200
725.849	0.0134582
725.927	0.0136886
726.005	0.0138159
726.083	0.0137863
726.161	0.0138108
726.239	0.0139346
726.318	0.0139911
726.396	0.0140155
726.474	0.0140202
726.552	0.0138684
726.630	0.0139137
726.708	0.0138924
726.786	0.0137173
726.864	0.0138920
726.943	0.0136832
727.021	0.0138969
727.099	0.0137802
727.177	0.0139698
727.255	0.0138683
727.333	0.0138033
727.411	0.0138334
727.489	0.0136917
727.568	0.0136983
727.646	0.0137975
727.724	0.0138979
727.802	0.0136865
727.880	0.0137849
727.958	0.0139584
728.036	0.0140883
728.114	0.0141079
728.193	0.0145023
728.271	0.0145716
728.349	0.0149121
728.427	0.0151433
728.505	0.0151727
728.583	0.0154076
728.661	0.0155371
728.739	0.0155019
728.818	0.0155286
728.896	0.0155978
728.974	0.0153294
729.052	0.0151886
729.130	0.0150427
729.208	0.0149033
729.286	0.0145637
729.364	0.0143656
729.443	0.0141157
729.521	0.0138712
729.599	0.0137148
729.677	0.0135048
729.755	0.0134566
729.833	0.0131544
729.911	0.0131139
729.989	0.0129337
730.068	0.0129707
730.146	0.0129663
730.224	0.0129283
730.302	0.0129374
730.380	0.0131680
730.458	0.0133690
730.536	0.0134351
730.614	0.0135906
730.693	0.0137292
730.771	0.0139623
730.849	0.0140307
730.927	0.0141383
731.005	0.0141623
731.083	0.0144051
731.161	0.0143284
731.239	0.0145489
731.318	0.0146242
731.396	0.0143032
731.474	0.0143912
731.552	0.0145387
731.630	0.0143928
731.708	0.0143597
731.786	0.0141819
731.864	0.0141994
731.943	0.0143270
732.021	0.0140415
732.099	0.0142043
732.177	0.0139858
732.255	0.0139491
732.333	0.0138831
732.411	0.0139109
732.489	0.0140244
732.568	0.0139320
732.646	0.0138985
732.724	0.0139178
732.802	0.0138234
732.880	0.0139401
732.958	0.0139387
733.036	0.0138662
733.114	0.0138605
733.193	0.0137209
733.271	0.0139051
733.349	0.0137504
733.427	0.0138941
733.505	0.0137643
733.583	0.0135401
733.661	0.0136806
733.739	0.0134189
733.818	0.0134447
733.896	0.0135001
733.974	0.0134576
734.052	0.0135106
734.130	0.0137011
734.208	0.0136141
734.286	0.0137746
734.364	0.0138163
734.443	0.0138714
734.521	0.0137645
734.599	0.0141576
734.677	0.0143122
734.755	0.0141233
734.833	0.0142171
734.911	0.0141801
734.989	0.0142661
735.068	0.0143389
735.146	0.0143883
735.224	0.0143032
735.302	0.0142738
735.380	0.0144965
735.458	0.0142624
735.536	0.0143851
735.614	0.0142707
735.693	0.0142243
735.771	0.0142123
735.849	0.0143649
735.927	0.0143211
736.005	0.0142153
736.083	0.0143163
736.161	0.0142934
736.239	0.0144517
736.318	0.0143848
736.396	0.0144630
736.474	0.0146507
736.552	0.0146790
736.630	0.0147131
736.708	0.0147780
736.786	0.0148201
736.864	0.0148206
736.943	0.0147547
737.021	0.0146665
737.099	0.0146593
737.177	0.0145097
737.255	0.0145264
737.333	0.0145508
737.411	0.0144065
737.489	0.0142866
737.568	0.0143082
737.646	0.0141874
737.724	0.0142420
737.802	0.0140672
737.880	0.0140348
737.958	0.0141441
738.036	0.0139090
738.114	0.0139204
738.193	0.0136887
738.271	0.0136674
738.349	0.0136562
738.427	0.0133688
738.505	0.0132567
738.583	0.0132637
738.661	0.0131417
738.739	0.0130298
738.818	0.0131288
738.896	0.0128982
738.974	0.0128703
739.052	0.0128685
739.130	0.0128666
739.208	0.0128389
739.286	0.0127722
739.364	0.0128185
739.443	0.0128937
739.521	0.0127846
739.599	0.0129169
739.677	0.0130023
739.755	0.0132669
739.833	0.0132098
739.911	0.0132671
739.989	0.0134245
740.068	0.0135068
740.146	0.0136684
740.224	0.0137391
740.302	0.0138432
740.380	0.0140710
740.458	0.0141699
740.536	0.0143341
740.614	0.0143424
740.693	0.0143859
740.771	0.0143813
740.849	0.0144534
740.927	0.0145244
741.005	0.0145374
741.083	0.0145367
741.161	0.0145219
741.239	0.0144475
741.318	0.0146066
741.396	0.0145817
741.474	0.0145338
741.552	0.0146368
741.630	0.0145246
741.708	0.0144424
741.786	0.0145370
741.864	0.0145325
741.943	0.0145239
742.021	0.0145076
742.099	0.0145349
742.177	0.0143813
742.255	0.0143359
742.333	0.0143292
742.411	0.0142376
742.489	0.0142130
742.568	0.0142445
742.646	0.0141673
742.724	0.0142438
742.802	0.0141820
742.880	0.0141760
742.958	0.0141669
743.036	0.0141659
743.114	0.0141044
743.193	0.0140044
743.271	0.0140049
743.349	0.0139434
743.427	0.0137997
743.505	0.0138963
743.583	0.0138234
743.661	0.0137936
743.739	0.0135746
743.818	0.0135729
743.896	0.0134465
743.974	0.0134432
744.052	0.0133285
744.130	0.0131002
744.208	0.0130972
744.286	0.0130624
744.364	0.0129687
744.443	0.0128378
744.521	0.0129056
744.599	0.0129044
744.677	0.0128684
744.755	0.0129261
744.833	0.0129596
744.911	0.0131667
744.989	0.0131987
745.068	0.0131899
745.146	0.0135651
745.224	0.0137747
745.302	0.0138541
745.380	0.0139053
745.458	0.0141767
745.536	0.0140867
745.614	0.0141196
745.693	0.0141352
745.771	0.0142836
745.849	0.0143450
745.927	0.0144205
746.005	0.0143444
746.083	0.0142367
746.161	0.0141988
746.239	0.0143191
746.318	0.0142495
746.396	0.0143547
746.474	0.0142722
746.552	0.0141216
746.630	0.0140952
746.708	0.0141510
746.786	0.0141195
746.864	0.0140324
746.943	0.0141145
747.021	0.0139883
747.099	0.0139790
747.177	0.0139513
747.255	0.0140268
747.333	0.0138519
747.411	0.0138950
747.489	0.0137967
747.568	0.0138058
747.646	0.0137039
747.724	0.0137801
747.802	0.0139289
747.880	0.0137207
747.958	0.0138950
748.036	0.0138845
748.114	0.0138216
748.193	0.0137585
748.271	0.0139537
748.349	0.0139369
748.427	0.0139851
748.505	0.0141016
748.583	0.0142045
748.661	0.0142353
748.739	0.0141579
748.818	0.0142416
748.896	0.0144751
748.974	0.0143870
749.052	0.0143478
749.130	0.0142851
749.208	0.0143324
749.286	0.0142598
749.364	0.0141788
749.443	0.0141262
749.521	0.0141347
749.599	0.0143294
749.677	0.0142794
749.755	0.0142472
749.833	0.0143465
749.911	0.0141225
749.989	0.0141361
750.068	0.0141550
750.146	0.0141826
750.224	0.0140820
750.302	0.0141742
750.380	0.0140320
750.458	0.0139537
750.536	0.0138294
750.614	0.0138866
750.693	0.0137582
750.771	0.0138619
750.849	0.0139518
750.927	0.0137645
751.005	0.0138525
751.083	0.0137296
751.161	0.0137841
751.239	0.0139284
751.318	0.0139051
751.396	0.0137410
751.474	0.0138726
751.552	0.0139108
751.630	0.0138755
751.708	0.0139193
751.786	0.0137450
751.864	0.0137736
751.943	0.0138543
752.021	0.0136469
752.099	0.0137106
752.177	0.0135316
752.255	0.0135197
752.333	0.0132661
752.411	0.0134184
752.489	0.0133236
752.568	0.0132017
752.646	0.0133719
752.724	0.0132473
752.802	0.0132022
752.880	0.0132973
752.958	0.0133807
753.036	0.0134157
753.114	0.0132549
753.193	0.0135017
753.271	0.0135872
753.349	0.0135928
753.427	0.0138075
753.505	0.0139100
753.583	0.0142300
753.661	0.0142130
753.739	0.0143253
753.818	0.0144904
753.896	0.0146540
753.974	0.0148338
754.052	0.0149164
754.130	0.0148464
754.208	0.0149757
754.286	0.0149610
754.364	0.0150358
754.443	0.0150874
754.521	0.0150169
754.599	0.0150033
754.677	0.0148676
754.755	0.0148222
754.833	0.0149888
754.911	0.0148393
754.989	0.0145949
755.068	0.0144772
755.146	0.0147400
755.224	0.0144903
755.302	0.0144575
755.380	0.0143855
755.458	0.0142749
755.536	0.0141364
755.614	0.0141734
755.693	0.0141479
755.771	0.0142559
755.849	0.0139752
755.927	0.0140164
756.005	0.0140575
756.083	0.0140408
756.161	0.0138870
756.239	0.0137779
756.318	0.0137003
756.396	0.0136937
756.474	0.0135459
756.552	0.0136185
756.630	0.0134281
756.708	0.0132998
756.786	0.0132870
756.864	0.0132870
756.943	0.0131219
757.021	0.0131650
757.099	0.0132405
757.177	0.0132084
757.255	0.0133002
757.333	0.0133767
757.411	0.0133993
757.489	0.0136309
757.568	0.0136506
757.646	0.0136655
757.724	0.0137307
757.802	0.0136195
757.880	0.0139305
757.958	0.0139260
758.036	0.0140543
758.114	0.0139645
758.193	0.0141082
758.271	0.0139684
758.349	0.0139834
758.427	0.0140388
758.505	0.0139162
758.583	0.0141168
758.661	0.0141640
758.739	0.0140283
758.818	0.0140854
758.896	0.0142455
758.974	0.0142456
759.052	0.0142162
759.130	0.0142963
759.208	0.0145200
759.286	0.0144538
759.364	0.0145319
759.443	0.0145518
759.521	0.0145134
759.599	0.0144844
759.677	0.0145617
759.755	0.0145507
759.833	0.0145615
759.911	0.0146138
759.989	0.0145252
760.068	0.0143764
760.146	0.0144360
760.224	0.0144332
760.302	0.0142245
760.380	0.0141080
760.458	0.0139394
760.536	0.0139287
760.614	0.0139480
760.693	0.0138871
760.771	0.0138684
760.849	0.0136939
760.927	0.0135937
761.005	0.0136312
761.083	0.0134824
761.161	0.0134841
761.239	0.0135622
761.318	0.0136106
761.396	0.0135820
761.474	0.0134903
761.552	0.0135168
761.630	0.0138054
761.708	0.0137325
761.786	0.0136259
761.864	0.0137361
761.943	0.0138192
762.021	0.0139327
762.099	0.0138699
762.177	0.0137999
762.255	0.0140813
762.333	0.0139425
762.411	0.0139701
762.489	0.0139524
762.568	0.0140299
762.646	0.0141079
762.724	0.0142267
762.802	0.0141544
762.880	0.0140661
762.958	0.0142670
763.036	0.0141812
763.114	0.0142605
763.193	0.0142537
763.271	0.0142478
763.349	0.0141982
763.427	0.0142524
763.505	0.0142821
763.583	0.0142497
763.661	0.0141981
763.739	0.0142669
763.818	0.0141582
763.896	0.0139960
763.974	0.0140565
764.052	0.0140502
764.130	0.0138988
764.208	0.0138632
764.286	0.0136433
764.364	0.0136518
764.443	0.0136877
764.521	0.0136217
764.599	0.0135135
764.677	0.0135358
764.755	0.0134742
764.833	0.0133781
764.911	0.0133624
764.989	0.0134037
765.068	0.0134571
765.146	0.0133949
765.224	0.0132714
765.302	0.0135188
765.380	0.0134285
765.458	0.0135488
765.536	0.0135278
765.614	0.0135455
765.693	0.0137206
765.771	0.0136320
765.849	0.0136431
765.927	0.0138792
766.005	0.0138136
766.083	0.0137703
766.161	0.0137138
766.239	0.0138799
766.318	0.0138529
766.396	0.0138282
766.474	0.0138732
766.552	0.0139069
766.630	0.0140864
766.708	0.0138952
766.786	0.0140488
766.864	0.0141113
766.943	0.0140478
767.021	0.0144038
767.099	0.0144737
767.177	0.0144185
767.255	0.0145442
767.333	0.0145232
767.411	0.0146117
767.489	0.0145516
767.568	0.0145394
767.646	0.0144324
767.724	0.0144623
767.802	0.0145214
767.880	0.0146179
767.958	0.0144721
768.036	0.0146480
768.114	0.0146005
768.193	0.0145081
768.271	0.0145868
768.349	0.0146222
768.427	0.0144837
768.505	0.0144164
768.583	0.0144237
768.661	0.0144078
768.739	0.0144667
768.818	0.0143517
768.896	0.0141439
768.974	0.0141505
769.052	0.0140022
769.130	0.0140380
769.208	0.0140767
769.286	0.0138839
769.364	0.0138194
769.443	0.0138214
769.521	0.0136129
769.599	0.0136845
769.677	0.0135947
769.755	0.0135330
769.833	0.0134534
769.911	0.0134296
769.989	0.0132954
770.068	0.0134428
770.146	0.0135175
770.224	0.0134038
770.302	0.0134212
770.380	0.0133060
770.458	0.0134522
770.536	0.0135686
770.614	0.0134219
770.693	0.0134598
770.771	0.0134356
770.849	0.0134176
770.927	0.0134449
771.005	0.0136006
771.083	0.0135792
771.161	0.0135738
771.239	0.0137743
771.318	0.0137906
771.396	0.0138134
771.474	0.0139303
771.552	0.0140345
771.630	0.0141009
771.708	0.0142092
771.786	0.0142452
771.864	0.0142990
771.943	0.0143764
772.021	0.0144726
772.099	0.0143699
772.177	0.0144857
772.255	0.0146448
772.333	0.0146269
772.411	0.0143188
772.489	0.0144177
772.568	0.0143819
772.646	0.0144424
772.724	0.0142048
772.802	0.0141393
772.880	0.0140266
772.958	0.0139462
773.036	0.0137576
773.114	0.0139209
773.193	0.0139072
773.271	0.0136998
773.349	0.0137317
773.427	0.0136779
773.505	0.0137957
773.583	0.0136470
773.661	0.0138055
773.739	0.0136764
773.818	0.0136658
773.896	0.0137900
773.974	0.0137673
774.052	0.0137720
774.130	0.0136380
774.208	0.0137732
774.286	0.0137329
774.364	0.0138419
774.443	0.0138482
774.521	0.0137592
774.599	0.0137392
774.677	0.0137280
774.755	0.0137604
774.833	0.0138039
774.911	0.0136784
774.989	0.0138917
775.068	0.0138471
775.146	0.0138118
775.224	0.0139129
775.302	0.0138797
775.380	0.0140354
775.458	0.0139368
775.536	0.0141256
775.614	0.0139995
775.693	0.0141382
775.771	0.0140976
775.849	0.0140354
775.927	0.0142941
776.005	0.0142397
776.083	0.0142512
776.161	0.0143501
776.239	0.0142893
776.318	0.0142733
776.396	0.0142425
776.474	0.0143739
776.552	0.0140929
776.630	0.0141449
776.708	0.0142011
776.786	0.0142650
776.864	0.0141706
776.943	0.0141014
777.021	0.0140418
777.099	0.0139859
777.177	0.0139698
777.255	0.0139727
777.333	0.0139248
777.411	0.0139393
777.489	0.0139331
777.568	0.0140647
777.646	0.0139358
777.724	0.0138542
777.802	0.0141516
777.880	0.0138546
777.958	0.0138715
778.036	0.0141058
778.114	0.0138530
778.193	0.0139881
778.271	0.0140007
778.349	0.0140730
778.427	0.0139446
778.505	0.0139165
778.583	0.0139919
778.661	0.0140644
778.739	0.0141021
778.818	0.0139162
778.896	0.0138899
778.974	0.0138140
779.052	0.0137890
779.130	0.0136768
779.208	0.0136263
779.286	0.0134032
779.364	0.0136341
779.443	0.0134843
779.521	0.0133440
779.599	0.0133541
779.677	0.0134086
779.755	0.0132849
779.833	0.0133342
779.911	0.0134052
779.989	0.0133421
780.068	0.0133829
780.146	0.0134140
780.224	0.0134480
780.302	0.0134999
780.380	0.0135308
780.458	0.0136129
780.536	0.0138287
780.614	0.0138943
780.693	0.0139310
780.771	0.0138736
780.849	0.0139626
780.927	0.0140255
781.005	0.0141642
781.083	0.0142523
781.161	0.0143752
781.239	0.0143430
781.318	0.0143763
781.396	0.0144583
781.474	0.0145151
781.552	0.0146066
781.630	0.0144875
781.708	0.0145090
781.786	0.0146971
781.864	0.0146819
781.943	0.0145152
782.021	0.0145252
782.099	0.0144518
782.177	0.0144418
782.255	0.0144141
782.333	0.0144516
782.411	0.0144023
782.489	0.0141273
782.568	0.0141434
782.646	0.0141431
782.724	0.0139874
782.802	0.0138837
782.880	0.0138213
782.958	0.0137929
783.036	0.0135998
783.114	0.0133730
783.193	0.0134636
783.271	0.0134972
783.349	0.0132705
783.427	0.0132858
783.505	0.0132513
783.583	0.0131435
783.661	0.0134023
783.739	0.0133356
783.818	0.0132494
783.896	0.0133484
783.974	0.0134612
784.052	0.0136119
784.130	0.0136732
784.208	0.0135939
784.286	0.0136359
784.364	0.0136885
784.443	0.0138476
784.521	0.0139938
784.599	0.0140023
784.677	0.0139970
784.755	0.0140390
784.833	0.0140712
784.911	0.0141354
784.989	0.0141578
785.068	0.0142410
785.146	0.0143704
785.224	0.0142903
785.302	0.0142025
785.380	0.0142349
785.458	0.0144327
785.536	0.0144316
785.614	0.0144185
785.693	0.0144942
785.771	0.0143829
785.849	0.0143589
785.927	0.0145443
786.005	0.0142719
786.083	0.0142479
786.161	0.0142983
786.239	0.0141855
786.318	0.0141420
786.396	0.0141988
786.474	0.0142130
786.552	0.0140501
786.630	0.0138779
786.708	0.0141016
786.786	0.0139224
786.864	0.0138371
786.943	0.0139633
787.021	0.0137186
787.099	0.0136978
787.177	0.0137666
787.255	0.0136712
787.333	0.0136534
787.411	0.0136621
787.489	0.0136995
787.568	0.0134886
787.646	0.0135795
787.724	0.0136376
787.802	0.0135381
787.880	0.0136748
787.958	0.0137254
788.036	0.0136823
788.114	0.0136775
788.193	0.0136845
788.271	0.0137170
788.349	0.0136661
788.427	0.0138405
788.505	0.0138206
788.583	0.0138228
788.661	0.0138696
788.739	0.0139545
788.818	0.0139615
788.896	0.0140842
788.974	0.0140334
789.052	0.0139954
789.130	0.0142974
789.208	0.0142058
789.286	0.0141778
789.364	0.0143721
789.443	0.0143494
789.521	0.0143536
789.599	0.0143765
789.677	0.0145767
789.755	0.0144569
789.833	0.0143958
789.911	0.0144248
789.989	0.0144759
790.068	0.0143960
790.146	0.0143729
790.224	0.0143253
790.302	0.0142833
790.380	0.0145301
790.458	0.0143920
790.536	0.0143844
790.614	0.0142619
790.693	0.0142791
790.771	0.0142904
790.849	0.0142204
790.927	0.0142677
791.005	0.0142123
791.083	0.0142035
791.161	0.0141722
791.239	0.0141093
791.318	0.0141164
791.396	0.0141025
791.474	0.0141191
791.552	0.0141250
791.630	0.0140266
791.708	0.0139178
791.786	0.0138958
791.864	0.0138888
791.943	0.0138376
792.021	0.0138329
792.099	0.0136227
792.177	0.0135945
792.255	0.0136494
792.333	0.0135428
792.411	0.0134265
792.489	0.0135233
792.568	0.0133851
792.646	0.0134563
792.724	0.0135043
792.802	0.0136078
792.880	0.0135934
792.958	0.0136573
793.036	0.0136713
793.114	0.0137180
793.193	0.0137730
793.271	0.0138279
793.349	0.0138718
793.427	0.0139397
793.505	0.0140414
793.583	0.0139931
793.661	0.0139784
793.739	0.0140316
793.818	0.0141833
793.896	0.0141419
793.974	0.0140716
794.052	0.0141679
794.130	0.0142320
794.208	0.0141397
794.286	0.0142008
794.364	0.0143464
794.443	0.0142683
794.521	0.0143902
794.599	0.0142696
794.677	0.0142771
794.755	0.0142827
794.833	0.0143472
794.911	0.0143639
794.989	0.0142101
795.068	0.0141529
795.146	0.0140153
795.224	0.0140017
795.302	0.0141177
795.380	0.0140230
795.458	0.0139307
795.536	0.0139283
795.614	0.0137318
795.693	0.0138177
795.771	0.0138030
795.849	0.0137442
795.927	0.0135627
796.005	0.0138120
796.083	0.0138036
796.161	0.0138232
796.239	0.0137862
796.318	0.0137884
796.396	0.0138413
796.474	0.0139535
796.552	0.0137791
796.630	0.0138649
796.708	0.0139301
796.786	0.0141571
796.864	0.0142278
796.943	0.0141081
797.021	0.0141639
797.099	0.0142342
797.177	0.0142995
797.255	0.0142831
797.333	0.0142307
797.411	0.0142688
797.489	0.0141286
797.568	0.0142480
797.646	0.0142111
797.724	0.0141646
797.802	0.0141057
797.880	0.0141270
797.958	0.0138043
798.036	0.0140271
798.114	0.0139277
798.193	0.0138239
798.271	0.0138016
798.349	0.0137778
798.427	0.0137805
798.505	0.0138040
798.583	0.0136370
798.661	0.0135881
798.739	0.0136643
798.818	0.0136906
798.896	0.0136360
798.974	0.0136204
799.052	0.0136749
799.130	0.0136133
799.208	0.0137042
799.286	0.0137584
799.364	0.0137494
799.443	0.0138142
799.521	0.0138153
799.599	0.0138148
799.677	0.0140208
799.755	0.0138619
799.833	0.0138826
799.911	0.0140131
799.989	0.0140173
800.068	0.0140067
800.146	0.0139210
800.224	0.0139907
800.302	0.0138000
800.380	0.0137836
800.458	0.0138779
800.536	0.0138046
800.614	0.0137276
800.693	0.0136861
800.771	0.0136781
800.849	0.0138614
800.927	0.0138955
801.005	0.0139238
801.083	0.0140009
801.161	0.0140729
801.239	0.0140543
801.318	0.0142056
801.396	0.0140703
801.474	0.0141314
801.552	0.0142048
801.630	0.0143194
801.708	0.0143289
801.786	0.0143792
801.864	0.0144315
801.943	0.0142593
802.021	0.0143549
802.099	0.0143196
802.177	0.0142442
802.255	0.0140796
802.333	0.0140776
802.411	0.0142424
802.489	0.0139885
802.568	0.0140456
802.646	0.0139198
802.724	0.0140424
802.802	0.0138839
802.880	0.0138534
802.958	0.0137810
803.036	0.0138950
803.114	0.0137985
803.193	0.0139630
803.271	0.0139191
803.349	0.0138087
803.427	0.0140240
803.505	0.0138551
803.583	0.0138209
803.661	0.0139868
803.739	0.0140277
803.818	0.0140583
803.896	0.0139944
803.974	0.0140059
804.052	0.0138853
804.130	0.0139622
804.208	0.0140824
804.286	0.0139099
804.364	0.0140413
804.443	0.0140028
804.521	0.0140060
804.599	0.0140190
804.677	0.0139109
804.755	0.0137965
804.833	0.0138604
804.911	0.0138114
804.989	0.0137460
805.068	0.0137524
805.146	0.0137920
805.224	0.0136751
805.302	0.0136962
805.380	0.0137090
805.458	0.0136505
805.536	0.0135361
805.614	0.0136492
805.693	0.0136656
805.771	0.0136720
805.849	0.0135309
805.927	0.0136591
806.005	0.0137148
806.083	0.0136909
806.161	0.0136208
806.239	0.0136580
806.318	0.0136673
806.396	0.0136697
806.474	0.0138670
806.552	0.0137389
806.630	0.0137625
806.708	0.0138494
806.786	0.0137746
806.864	0.0137239
806.943	0.0138214
807.021	0.0137943
807.099	0.0137791
807.177	0.0137619
807.255	0.0139801
807.333	0.0139087
807.411	0.0138595
807.489	0.0139721
807.568	0.0139883
807.646	0.0141975
807.724	0.0141679
807.802	0.0141355
807.880	0.0141801
807.958	0.0143996
808.036	0.0142319
808.114	0.0143865
808.193	0.0145161
808.271	0.0144154
808.349	0.0145602
808.427	0.0146731
808.505	0.0145571
808.583	0.0145497
808.661	0.0145493
808.739	0.0145778
808.818	0.0146070
808.896	0.0146355
808.974	0.0145071
809.052	0.0143372
809.130	0.0144443
809.208	0.0143038
809.286	0.0143682
809.364	0.0142496
809.443	0.0141340
809.521	0.0141183
809.599	0.0140567
809.677	0.0141375
809.755	0.0140414
809.833	0.0138921
809.911	0.0138221
809.989	0.0138239
810.068	0.0137075
810.146	0.0136161
810.224	0.0136291
810.302	0.0134493
810.380	0.0137617
810.458	0.0135299
810.536	0.0134959
810.614	0.0134860
810.693	0.0135456
810.771	0.0134808
810.849	0.0133525
810.927	0.0135429
811.005	0.0135704
811.083	0.0136304
811.161	0.0135299
811.239	0.0136284
811.318	0.0135979
811.396	0.0136637
811.474	0.0137487
811.552	0.0137700
811.630	0.0138969
811.708	0.0140967
811.786	0.0139454
811.864	0.0139346
811.943	0.0141301
812.021	0.0141325
812.099	0.0142690
812.177	0.0142528
812.255	0.0142310
812.333	0.0144417
812.411	0.0144015
812.489	0.0145762
812.568	0.0144973
812.646	0.0145955
812.724	0.0145412
812.802	0.0145072
812.880	0.0145911
812.958	0.0146268
813.036	0.0146587
813.114	0.0147184
813.193	0.0145882
813.271	0.0147914
813.349	0.0146458
813.427	0.0145750
813.505	0.0146891
813.583	0.0145615
813.661	0.0144698
813.739	0.0144857
813.818	0.0143604
813.896	0.0141589
813.974	0.0142138
814.052	0.0143067
814.130	0.0142425
814.208	0.0141890
814.286	0.0140993
814.364	0.0140501
814.443	0.0139410
814.521	0.0138461
814.599	0.0138587
814.677	0.0137359
814.755	0.0137821
814.833	0.0136325
814.911	0.0135876
814.989	0.0136984
815.068	0.0134061
815.146	0.0136135
815.224	0.0134428
815.302	0.0134213
815.380	0.0134585
815.458	0.0132932
815.536	0.0133775
815.614	0.0134128
815.693	0.0134560
815.771	0.0134048
815.849	0.0133076
815.927	0.0133485
816.005	0.0132571
816.083	0.0133932
816.161	0.0135165
816.239	0.0135242
816.318	0.0135748
816.396	0.0136161
816.474	0.0136900
816.552	0.0139108
816.630	0.0138818
816.708	0.0139411
816.786	0.0141367
816.864	0.0139451
816.943	0.0139767
817.021	0.0141060
817.099	0.0141464
817.177	0.0141594
817.255	0.0141662
817.333	0.0141233
817.411	0.0142262
817.489	0.0141000
817.568	0.0141802
817.646	0.0142799
817.724	0.0142213
817.802	0.0141158
817.880	0.0141972
817.958	0.0140209
818.036	0.0139656
818.114	0.0141110
818.193	0.0139751
818.271	0.0140936
818.349	0.0140961
818.427	0.0140446
818.505	0.0141207
818.583	0.0141300
818.661	0.0140553
818.739	0.0139847
818.818	0.0140781
818.896	0.0142442
818.974	0.0141992
819.052	0.0141768
819.130	0.0140807
819.208	0.0140400
819.286	0.0139998
819.364	0.0139342
819.443	0.0141049
819.521	0.0139954
819.599	0.0139551
819.677	0.0139877
819.755	0.0138042
819.833	0.0139928
819.911	0.0137350
819.989	0.0135892
820.068	0.0136952
820.146	0.0137421
820.224	0.0137105
820.302	0.0137478
820.380	0.0136339
820.458	0.0136787
820.536	0.0136658
820.614	0.0137686
820.693	0.0138564
820.771	0.0136300
820.849	0.0137843
820.927	0.0138171
821.005	0.0138496
821.083	0.0138764
821.161	0.0139214
821.239	0.0138265
821.318	0.0140778
821.396	0.0139697
821.474	0.0140659
821.552	0.0141132
821.630	0.0141978
821.708	0.0139721
821.786	0.0142100
821.864	0.0141589
821.943	0.0140423
822.021	0.0141650
822.099	0.0140678
822.177	0.0141212
822.255	0.0140211
822.333	0.0140665
822.411	0.0140173
822.489	0.0140101
822.568	0.0140069
822.646	0.0137318
822.724	0.0138203
822.802	0.0138477
822.880	0.0138371
822.958	0.0138267
823.036	0.0136730
823.114	0.0137436
823.193	0.0137905
823.271	0.0137155
823.349	0.0137852
823.427	0.0140408
823.505	0.0138480
823.583	0.0138868
823.661	0.0136862
823.739	0.0137824
823.818	0.0140563
823.896	0.0138567
823.974	0.0136626
824.052	0.0139011
824.130	0.0139037
824.208	0.0138662
824.286	0.0140255
824.364	0.0138897
824.443	0.0139807
824.521	0.0139608
824.599	0.0141212
824.677	0.0141151
824.755	0.0140512
824.833	0.0141499
824.911	0.0142710
824.989	0.0141508
825.068	0.0141657
825.146	0.0142783
825.224	0.0143185
825.302	0.0142862
825.380	0.0143239
825.458	0.0142827
825.536	0.0141494
825.614	0.0143120
825.693	0.0142892
825.771	0.0142521
825.849	0.0142175
825.927	0.0141114
826.005	0.0140209
826.083	0.0139848
826.161	0.0140761
826.239	0.0139289
826.318	0.0139063
826.396	0.0138004
826.474	0.0138886
826.552	0.0138320
826.630	0.0137988
826.708	0.0137430
826.786	0.0137165
826.864	0.0138259
826.943	0.0137004
827.021	0.0136722
827.099	0.0136529
827.177	0.0136990
827.255	0.0137155
827.333	0.0137396
827.411	0.0137199
827.489	0.0137030
827.568	0.0138200
827.646	0.0137602
827.724	0.0137385
827.802	0.0137827
827.880	0.0137316
827.958	0.0136469
828.036	0.0138207
828.114	0.0138628
828.193	0.0137239
828.271	0.0137788
828.349	0.0138940
828.427	0.0137698
828.505	0.0137644
828.583	0.0138403
828.661	0.0137592
828.739	0.0138969
828.818	0.0139170
828.896	0.0138358
828.974	0.0139497
829.052	0.0139060
829.130	0.0139046
829.208	0.0140137
829.286	0.0139678
829.364	0.0141060
829.443	0.0142279
829.521	0.0141531
829.599	0.0141164
829.677	0.0141203
829.755	0.0141698
829.833	0.0141564
829.911	0.0142905
829.989	0.0140842
830.068	0.0142680
830.146	0.0141136
830.224	0.0139812
830.302	0.0141142
830.380	0.0140774
830.458	0.0139734
830.536	0.0141467
830.614	0.0140648
830.693	0.0141097
830.771	0.0142868
830.849	0.0139874
830.927	0.0140592
831.005	0.0141239
831.083	0.0140227
831.161	0.0142424
831.239	0.0141134
831.318	0.0140147
831.396	0.0140634
831.474	0.0140276
831.552	0.0141401
831.630	0.0141366
831.708	0.0141114
831.786	0.0140517
831.864	0.0139473
831.943	0.0140108
832.021	0.0142142
832.099	0.0141666
832.177	0.0140663
832.255	0.0141190
832.333	0.0140271
832.411	0.0139251
832.489	0.0141329
832.568	0.0140908
832.646	0.0140270
832.724	0.0139214
832.802	0.0139426
832.880	0.0140501
832.958	0.0140227
833.036	0.0139375
833.114	0.0139156
833.193	0.0139665
833.271	0.0137741
833.349	0.0138618
833.427	0.0138973
833.505	0.0139523
833.583	0.0139121
833.661	0.0139567
833.739	0.0139862
833.818	0.0136628
833.896	0.0137272
833.974	0.0139124
834.052	0.0139335
834.130	0.0138412
834.208	0.0139852
834.286	0.0138826
834.364	0.0139364
834.443	0.0140161
834.521	0.0140424
834.599	0.0141347
834.677	0.0140848
834.755	0.0141090
834.833	0.0142188
834.911	0.0141754
834.989	0.0140244
835.068	0.0141027
835.146	0.0142278
835.224	0.0140919
835.302	0.0141278
835.380	0.0141328
835.458	0.0141317
835.536	0.0140566
835.614	0.0140156
835.693	0.0140803
835.771	0.0140968
835.849	0.0139793
835.927	0.0139066
836.005	0.0141076
836.083	0.0139185
836.161	0.0138046
836.239	0.0139449
836.318	0.0138377
836.396	0.0139090
836.474	0.0138897
836.552	0.0138318
836.630	0.0137575
836.708	0.0136531
836.786	0.0138203
836.864	0.0137254
836.943	0.0137434
837.021	0.0136640
837.099	0.0136916
837.177	0.0137358
837.255	0.0137670
837.333	0.0136879
837.411	0.0137563
837.489	0.0138514
837.568	0.0137042
837.646	0.0137934
837.724	0.0137623
837.802	0.0139163
837.880	0.0141190
837.958	0.0140112
838.036	0.0139276
838.114	0.0140600
838.193	0.0141030
838.271	0.0140488
838.349	0.0140172
838.427	0.0142255
838.505	0.0141101
838.583	0.0143800
838.661	0.0142609
838.739	0.0142948
838.818	0.0141517
838.896	0.0141574
838.974	0.0143217
839.052	0.0143299
839.130	0.0142911
839.208	0.0142312
839.286	0.0141365
839.364	0.0143346
839.443	0.0142387
839.521	0.0141924
839.599	0.0141333
839.677	0.0141232
839.755	0.0141697
839.833	0.0138951
839.911	0.0139137
839.989	0.0139326
840.068	0.0138571
840.146	0.0138608
840.224	0.0139165
840.302	0.0137174
840.380	0.0135757
840.458	0.0136790
840.536	0.0136176
840.614	0.0136486
840.693	0.0136098
840.771	0.0135206
840.849	0.0135849
840.927	0.0134784
841.005	0.0134476
841.083	0.0133550
841.161	0.0134062
841.239	0.0134765
841.318	0.0134528
841.396	0.0136045
841.474	0.0133775
841.552	0.0136774
841.630	0.0136596
841.708	0.0136821
841.786	0.0136847
841.864	0.0137357
841.943	0.0137054
842.021	0.0137167
842.099	0.0138157
842.177	0.0137803
842.255	0.0138070
842.333	0.0139756
842.411	0.0140582
842.489	0.0141008
842.568	0.0139046
842.646	0.0139893
842.724	0.0140138
842.802	0.0141319
842.880	0.0140989
842.958	0.0141214
843.036	0.0141116
843.114	0.0141036
843.193	0.0142757
843.271	0.0142251
843.349	0.0141982
843.427	0.0142916
843.505	0.0141226
843.583	0.0141693
843.661	0.0142406
843.739	0.0142616
843.818	0.0141874
843.896	0.0141998
843.974	0.0141820
844.052	0.0140774
844.130	0.0140189
844.208	0.0141753
844.286	0.0142069
844.364	0.0140942
844.443	0.0143272
844.521	0.0142149
844.599	0.0141470
844.677	0.0140453
844.755	0.0139751
844.833	0.0138497
844.911	0.0139271
844.989	0.0138802
845.068	0.0138758
845.146	0.0138918
845.224	0.0138689
845.302	0.0136379
845.380	0.0136585
845.458	0.0135674
845.536	0.0136517
845.614	0.0136904
845.693	0.0137537
845.771	0.0135884
845.849	0.0135189
845.927	0.0136222
846.005	0.0137453
846.083	0.0137789
846.161	0.0137167
846.239	0.0136726
846.318	0.0136723
846.396	0.0136997
846.474	0.0138606
846.552	0.0138979
846.630	0.0138331
846.708	0.0138857
846.786	0.0139074
846.864	0.0139618
846.943	0.0139993
847.021	0.0139076
847.099	0.0139554
847.177	0.0139759
847.255	0.0140258
847.333	0.0140396
847.411	0.0139208
847.489	0.0140697
847.568	0.0139783
847.646	0.0138165
847.724	0.0139380
847.802	0.0139265
847.880	0.0139548
847.958	0.0139745
848.036	0.0140110
848.114	0.0137977
848.193	0.0137079
848.271	0.0137650
848.349	0.0137141
848.427	0.0137325
848.505	0.0136263
848.583	0.0136322
848.661	0.0136894
848.739	0.0136709
848.818	0.0135789
848.896	0.0135985
848.974	0.0136204
849.052	0.0136954
849.130	0.0136655
849.208	0.0135952
849.286	0.0136282
849.364	0.0137373
849.443	0.0136358
849.521	0.0138429
849.599	0.0137733
849.677	0.0139346
849.755	0.0140056
849.833	0.0140155
849.911	0.0141020
849.989	0.0139895
850.068	0.0141736
850.146	0.0140877
850.224	0.0141029
850.302	0.0141936
850.380	0.0141569
850.458	0.0140107
850.536	0.0140815
850.614	0.0140833
850.693	0.0141826
850.771	0.0141888
850.849	0.0142463
850.927	0.0139816
851.005	0.0140513
851.083	0.0141296
851.161	0.0140363
851.239	0.0140813
851.318	0.0137755
851.396	0.0138288
851.474	0.0140307
851.552	0.0138800
851.630	0.0138654
851.708	0.0138178
851.786	0.0136613
851.864	0.0137453
851.943	0.0138310
852.021	0.0139589
852.099	0.0139495
852.177	0.0138880
852.255	0.0138736
852.333	0.0140037
852.411	0.0138020
852.489	0.0138389
852.568	0.0139773
852.646	0.0139742
852.724	0.0140613
852.802	0.0140599
852.880	0.0140187
852.958	0.0139922
853.036	0.0140230
853.114	0.0140554
853.193	0.0140684
853.271	0.0140293
853.349	0.0141434
853.427	0.0141549
853.505	0.0141028
853.583	0.0139974
853.661	0.0139324
853.739	0.0141097
853.818	0.0139624
853.896	0.0139242
853.974	0.0140781
854.052	0.0140017
854.130	0.0138941
854.208	0.0139972
854.286	0.0139507
854.364	0.0140192
854.443	0.0140173
854.521	0.0139936
854.599	0.0140995
854.677	0.0140981
854.755	0.0140067
854.833	0.0141254
854.911	0.0141418
854.989	0.0140618
855.068	0.0143041
855.146	0.0142674
855.224	0.0143014
855.302	0.0142417
855.380	0.0141953
855.458	0.0142815
855.536	0.0143114
855.614	0.0142173
855.693	0.0143228
855.771	0.0140674
855.849	0.0140948
855.927	0.0142631
856.005	0.0141425
856.083	0.0141788
856.161	0.0141697
856.239	0.0141331
856.318	0.0140920
856.396	0.0140524
856.474	0.0141452
856.552	0.0140730
856.630	0.0140420
856.708	0.0141196
856.786	0.0140960
856.864	0.0140304
856.943	0.0140919
857.021	0.0140054
857.099	0.0141258
857.177	0.0142019
857.255	0.0141163
857.333	0.0142294
857.411	0.0140640
857.489	0.0141613
857.568	0.0142049
857.646	0.0142617
857.724	0.0142233
857.802	0.0142775
857.880	0.0142090
857.958	0.0141069
858.036	0.0142268
858.114	0.0143130
858.193	0.0142789
858.271	0.0141238
858.349	0.0141477
858.427	0.0143538
858.505	0.0142550
858.583	0.0142033
858.661	0.0140736
858.739	0.0140223
858.818	0.0139672
858.896	0.0139491
858.974	0.0138988
859.052	0.0139554
859.130	0.0139462
859.208	0.0138003
859.286	0.0137084
859.364	0.0138715
859.443	0.0138313
859.521	0.0138715
859.599	0.0138625
859.677	0.0138719
859.755	0.0138742
859.833	0.0138909
859.911	0.0138972
859.989	0.0139473
860.068	0.0139500
860.146	0.0139953
860.224	0.0141042
860.302	0.0140370
860.380	0.0140144
860.458	0.0140089
860.536	0.0140607
860.614	0.0140809
860.693	0.0141650
860.771	0.0139844
860.849	0.0140002
860.927	0.0141609
861.005	0.0141926
861.083	0.0140391
861.161	0.0140112
861.239	0.0139849
861.318	0.0140438
861.396	0.0139021
861.474	0.0137929
861.552	0.0138283
861.630	0.0137598
861.708	0.0138410
861.786	0.0137521
861.864	0.0137344
861.943	0.0137185
862.021	0.0135866
862.099	0.0135335
862.177	0.0136413
862.255	0.0135620
862.333	0.0136858
862.411	0.0135370
862.489	0.0136120
862.568	0.0138473
862.646	0.0136807
862.724	0.0136992
862.802	0.0137148
862.880	0.0137190
862.958	0.0138745
863.036	0.0138126
863.114	0.0138115
863.193	0.0137948
863.271	0.0139828
863.349	0.0139076
863.427	0.0139746
863.505	0.0139693
863.583	0.0139636
863.661	0.0140022
863.739	0.0139000
863.818	0.0139133
863.896	0.0138606
863.974	0.0138384
864.052	0.0139472
864.130	0.0139273
864.208	0.0140574
864.286	0.0138918
864.364	0.0137780
864.443	0.0138815
864.521	0.0137189
864.599	0.0136902
864.677	0.0137304
864.755	0.0137701
864.833	0.0138304
864.911	0.0138343
864.989	0.0137769
865.068	0.0138064
865.146	0.0140211
865.224	0.0138953
865.302	0.0138559
865.380	0.0139918
865.458	0.0139590
865.536	0.0140983
865.614	0.0139927
865.693	0.0139546
865.771	0.0140857
865.849	0.0140657
865.927	0.0139797
866.005	0.0140413
866.083	0.0139782
866.161	0.0140084
866.239	0.0140446
866.318	0.0140063
866.396	0.0139586
866.474	0.0140522
866.552	0.0138832
866.630	0.0139838
866.708	0.0139050
866.786	0.0139526
866.864	0.0139542
866.943	0.0139328
867.021	0.0139668
867.099	0.0138970
867.177	0.0140583
867.255	0.0138444
867.333	0.0139285
867.411	0.0140066
867.489	0.0139953
867.568	0.0140840
867.646	0.0139851
867.724	0.0138992
867.802	0.0140365
867.880	0.0138385
867.958	0.0139516
868.036	0.0139967
868.114	0.0139384
868.193	0.0138898
868.271	0.0139692
868.349	0.0138130
868.427	0.0139454
868.505	0.0139655
868.583	0.0140356
868.661	0.0139532
868.739	0.0139242
868.818	0.0138757
868.896	0.0139587
868.974	0.0139230
869.052	0.0139448
869.130	0.0140712
869.208	0.0140101
869.286	0.0139288
869.364	0.0139201
869.443	0.0139575
869.521	0.0141170
869.599	0.0140335
869.677	0.0139433
869.755	0.0140392
869.833	0.0139955
869.911	0.0140539
869.989	0.0140840
870.068	0.0140023
870.146	0.0140786
870.224	0.0139323
870.302	0.0139996
870.380	0.0141368
870.458	0.0139674
870.536	0.0139426
870.614	0.0139291
870.693	0.0139102
870.771	0.0138452
870.849	0.0136297
870.927	0.0137537
871.005	0.0138404
871.083	0.0136227
871.161	0.0137893
871.239	0.0136935
871.318	0.0136084
871.396	0.0137442
871.474	0.0137278
871.552	0.0137234
871.630	0.0136765
871.708	0.0134679
871.786	0.0135537
871.864	0.0136783
871.943	0.0135207
872.021	0.0136643
872.099	0.0137180
872.177	0.0136928
872.255	0.0137643
872.333	0.0138808
872.411	0.0137765
872.489	0.0139787
872.568	0.0140666
872.646	0.0139877
872.724	0.0140365
872.802	0.0140990
872.880	0.0141785
872.958	0.0141883
873.036	0.0140271
873.114	0.0141859
873.193	0.0142731
873.271	0.0142693
873.349	0.0142486
873.427	0.0142307
873.505	0.0142979
873.583	0.0141021
873.661	0.0140829
873.739	0.0141215
873.818	0.0140983
873.896	0.0141446
873.974	0.0139651
874.052	0.0141202
874.130	0.0140783
874.208	0.0138538
874.286	0.0138767
874.364	0.0137579
874.443	0.0137595
874.521	0.0139848
874.599	0.0137996
874.677	0.0136069
874.755	0.0137342
874.833	0.0138339
874.911	0.0137848
874.989	0.0136248
875.068	0.0137269
875.146	0.0137046
875.224	0.0137311
875.302	0.0136537
875.380	0.0136380
875.458	0.0136947
875.536	0.0138612
875.614	0.0137573
875.693	0.0138235
875.771	0.0139374
875.849	0.0140446
875.927	0.0139819
876.005	0.0140115
876.083	0.0140874
876.161	0.0141296
876.239	0.0141832
876.318	0.0141235
876.396	0.0141837
876.474	0.0141734
876.552	0.0141684
876.630	0.0141215
876.708	0.0141573
876.786	0.0142159
876.864	0.0142380
876.943	0.0142458
877.021	0.0141763
877.099	0.0141808
877.177	0.0142247
877.255	0.0140461
877.333	0.0140597
877.411	0.0140881
877.489	0.0139021
877.568	0.0140903
877.646	0.0140794
877.724	0.0139331
877.802	0.0139976
877.880	0.0138914
877.958	0.0138094
878.036	0.0138804
878.114	0.0139359
878.193	0.0138577
878.271	0.0138548
878.349	0.0141063
878.427	0.0139104
878.505	0.0139280
878.583	0.0139331
878.661	0.0139705
878.739	0.0139841
878.818	0.0141268
878.896	0.0142212
878.974	0.0139955
879.052	0.0139642
879.130	0.0142198
879.208	0.0141587
879.286	0.0140388
879.364	0.0141712
879.443	0.0140995
879.521	0.0141495
879.599	0.0141482
879.677	0.0141224
879.755	0.0141953
879.833	0.0140139
879.911	0.0140005
879.989	0.0140691
880.068	0.0140272
880.146	0.0140446
880.224	0.0139969
880.302	0.0139938
880.380	0.0139955
880.458	0.0138654
880.536	0.0139478
880.614	0.0138787
880.693	0.0140515
880.771	0.0139898
880.849	0.0138849
880.927	0.0139072
881.005	0.0140978
881.083	0.0140160
881.161	0.0140334
881.239	0.0140884
881.318	0.0140443
881.396	0.0141458
881.474	0.0139678
881.552	0.0139515
881.630	0.0140829
881.708	0.0140084
881.786	0.0140453
881.864	0.0140028
881.943	0.0141063
882.021	0.0140324
882.099	0.0140331
882.177	0.0140600
882.255	0.0140723
882.333	0.0141776
882.411	0.0139606
882.489	0.0139763
882.568	0.0140925
882.646	0.0138346
882.724	0.0139681
882.802	0.0139425
882.880	0.0140312
882.958	0.0139336
883.036	0.0139111
883.114	0.0139809
883.193	0.0139024
883.271	0.0140081
883.349	0.0140903
883.427	0.0140257
883.505	0.0141254
883.583	0.0142211
883.661	0.0140967
883.739	0.0140524
883.818	0.0141646
883.896	0.0140433
883.974	0.0139618
884.052	0.0140965
884.130	0.0141633
884.208	0.0140826
884.286	0.0140309
884.364	0.0140004
884.443	0.0138596
884.521	0.0139887
884.599	0.0139320
884.677	0.0138634
884.755	0.0137228
884.833	0.0140285
884.911	0.0137607
884.989	0.0137970
885.068	0.0137283
885.146	0.0136455
885.224	0.0137449
885.302	0.0137286
885.380	0.0137341
885.458	0.0137117
885.536	0.0137457
885.614	0.0138616
885.693	0.0138276
885.771	0.0138800
885.849	0.0140055
885.927	0.0138920
886.005	0.0139906
886.083	0.0141127
886.161	0.0138941
886.239	0.0141766
886.318	0.0140881
886.396	0.0139559
886.474	0.0141660
886.552	0.0141972
886.630	0.0141146
886.708	0.0140546
886.786	0.0141354
886.864	0.0140164
886.943	0.0141325
887.021	0.0140497
887.099	0.0139376
887.177	0.0140649
887.255	0.0141938
887.333	0.0139130
887.411	0.0140097
887.489	0.0141223
887.568	0.0139229
887.646	0.0140386
887.724	0.0139385
887.802	0.0139958
887.880	0.0141016
887.958	0.0140770
888.036	0.0140193
888.114	0.0140766
888.193	0.0141367
888.271	0.0143529
888.349	0.0141399
888.427	0.0142741
888.505	0.0142639
888.583	0.0144438
888.661	0.0143906
888.739	0.0142706
888.818	0.0144363
888.896	0.0144518
888.974	0.0143604
889.052	0.0144386
889.130	0.0143595
889.208	0.0143151
889.286	0.0142886
889.364	0.0141611
889.443	0.0142194
889.521	0.0141454
889.599	0.0140058
889.677	0.0138568
889.755	0.0137501
889.833	0.0136738
889.911	0.0137301
889.989	0.0136567
890.068	0.0136675
890.146	0.0134927
890.224	0.0137291
890.302	0.0136103
890.380	0.0136338
890.458	0.0136574
890.536	0.0135870
890.614	0.0136122
890.693	0.0136038
890.771	0.0136472
890.849	0.0137334
890.927	0.0138079
891.005	0.0138688
891.083	0.0140043
891.161	0.0140631
891.239	0.0141237
891.318	0.0141285
891.396	0.0142121
891.474	0.0143366
891.552	0.0143163
891.630	0.0144179
891.708	0.0145635
891.786	0.0146139
891.864	0.0145131
891.943	0.0145644
892.021	0.0144851
892.099	0.0144472
892.177	0.0143716
892.255	0.0145172
892.333	0.0143665
892.411	0.0141970
892.489	0.0142321
892.568	0.0142610
892.646	0.0140932
892.724	0.0140866
892.802	0.0140999
892.880	0.0139682
892.958	0.0139440
893.036	0.0139577
893.114	0.0137939
893.193	0.0138129
893.271	0.0137724
893.349	0.0136208
893.427	0.0136645
893.505	0.0136227
893.583	0.0136240
893.661	0.0136728
893.739	0.0136650
893.818	0.0136555
893.896	0.0137252
893.974	0.0136914
894.052	0.0136903
894.130	0.0136281
894.208	0.0137492
894.286	0.0137530
894.364	0.0138550
894.443	0.0138838
894.521	0.0139573
894.599	0.0139489
894.677	0.0139336
894.755	0.0137270
894.833	0.0139612
894.911	0.0139967
894.989	0.0137236
895.068	0.0139504
895.146	0.0139019
895.224	0.0137821
895.302	0.0137536
895.380	0.0138931
895.458	0.0139545
895.536	0.0139828
895.614	0.0140817
895.693	0.0139777
895.771	0.0140309
895.849	0.0141857
895.927	0.0141026
896.005	0.0141700
896.083	0.0141307
896.161	0.0140903
896.239	0.0142220
896.318	0.0140847
896.396	0.0142106
896.474	0.0142738
896.552	0.0141908
896.630	0.0142992
896.708	0.0142907
896.786	0.0141669
896.864	0.0141748
896.943	0.0139992
897.021	0.0141993
897.099	0.0140824
897.177	0.0139712
897.255	0.0139442
897.333	0.0138570
897.411	0.0138440
897.489	0.0136986
897.568	0.0136182
897.646	0.0135159
897.724	0.0135057
897.802	0.0135826
897.880	0.0135354
897.958	0.0136734
898.036	0.0136523
898.114	0.0136016
898.193	0.0135802
898.271	0.0135641
898.349	0.0137627
898.427	0.0135970
898.505	0.0136884
898.583	0.0137949
898.661	0.0137574
898.739	0.0138532
898.818	0.0140186
898.896	0.0138931
898.974	0.0139165
899.052	0.0137995
899.130	0.0139812
899.208	0.0139620
899.286	0.0140329
899.364	0.0139548
899.443	0.0138496
899.521	0.0139565
899.599	0.0141292
899.677	0.0140626
899.755	0.0139929
899.833	0.0139686
899.911	0.0139574
899.989	0.0140135
900.068	0.0140216
900.146	0.0140169
900.224	0.0139680
900.302	0.0139207
900.380	0.0139500
900.458	0.0138422
900.536	0.0138693
900.614	0.0137827
900.693	0.0137243
900.771	0.0137879
900.849	0.0136493
900.927	0.0136649
901.005	0.0135716
901.083	0.0135987
901.161	0.0136214
901.239	0.0135391
901.318	0.0136391
901.396	0.0135717
901.474	0.0136562
901.552	0.0137523
901.630	0.0138324
901.708	0.0137679
901.786	0.0137720
901.864	0.0138222
901.943	0.0139368
902.021	0.0139326
902.099	0.0139014
902.177	0.0139995
902.255	0.0139736
902.333	0.0139086
902.411	0.0140402
902.489	0.0141152
902.568	0.0139651
902.646	0.0139814
902.724	0.0141068
902.802	0.0140265
902.880	0.0142226
902.958	0.0140858
903.036	0.0139468
903.114	0.0141182
903.193	0.0141798
903.271	0.0141447
903.349	0.0142381
903.427	0.0142434
903.505	0.0141668
903.583	0.0140936
903.661	0.0142173
903.739	0.0142727
903.818	0.0142925
903.896	0.0141868
903.974	0.0141167
904.052	0.0141380
904.130	0.0141438
904.208	0.0142165
904.286	0.0140117
904.364	0.0141140
904.443	0.0140604
904.521	0.0139684
904.599	0.0138793
904.677	0.0137518
904.755	0.0138770
904.833	0.0139034
904.911	0.0136909
904.989	0.0137137
905.068	0.0137722
905.146	0.0137698
905.224	0.0136522
905.302	0.0137521
905.380	0.0137579
905.458	0.0136216
905.536	0.0138013
905.614	0.0138673
905.693	0.0138370
905.771	0.0138380
905.849	0.0137923
905.927	0.0138791
906.005	0.0139227
906.083	0.0139712
906.161	0.0139555
906.239	0.0138187
906.318	0.0139156
906.396	0.0139346
906.474	0.0139928
906.552	0.0140766
906.630	0.0142014
906.708	0.0140472
906.786	0.0140112
906.864	0.0141586
906.943	0.0140207
907.021	0.0141530
907.099	0.0142223
907.177	0.0141110
907.255	0.0141420
907.333	0.0141557
907.411	0.0142042
907.489	0.0142738
907.568	0.0141513
907.646	0.0141134
907.724	0.0140903
907.802	0.0140033
907.880	0.0140439
907.958	0.0139672
908.036	0.0139626
908.114	0.0141174
908.193	0.0140732
908.271	0.0139948
908.349	0.0140836
908.427	0.0140769
908.505	0.0140917
908.583	0.0139610
908.661	0.0140545
908.739	0.0140823
908.818	0.0140910
908.896	0.0141067
908.974	0.0141668
909.052	0.0141302
909.130	0.0140702
909.208	0.0141125
909.286	0.0141226
909.364	0.0140893
909.443	0.0140810
909.521	0.0142175
909.599	0.0140997
909.677	0.0139726
909.755	0.0141016
909.833	0.0139977
909.911	0.0139566
909.989	0.0140398
910.068	0.0139913
910.146	0.0139073
910.224	0.0140126
910.302	0.0140016
910.380	0.0138198
910.458	0.0137055
910.536	0.0139256
910.614	0.0139381
910.693	0.0140276
910.771	0.0139980
910.849	0.0138445
910.927	0.0138106
911.005	0.0139325
911.083	0.0140104
911.161	0.0137567
911.239	0.0140048
911.318	0.0140348
911.396	0.0140744
911.474	0.0141543
911.552	0.0141521
911.630	0.0140058
911.708	0.0140305
911.786	0.0140856
911.864	0.0141871
911.943	0.0142530
912.021	0.0142394
912.099	0.0141064
912.177	0.0142611
912.255	0.0142438
912.333	0.0142246
912.411	0.0142535
912.489	0.0142922
912.568	0.0143440
912.646	0.0140263
912.724	0.0141788
912.802	0.0142580
912.880	0.0141927
912.958	0.0140911
913.036	0.0141067
913.114	0.0139528
913.193	0.0139619
913.271	0.0139499
913.349	0.0139445
913.427	0.0138918
913.505	0.0138713
913.583	0.0137938
913.661	0.0138492
913.739	0.0138869
913.818	0.0138560
913.896	0.0140095
913.974	0.0138566
914.052	0.0139594
914.130	0.0141103
914.208	0.0140217
914.286	0.0140971
914.364	0.0141007
914.443	0.0140475
914.521	0.0142051
914.599	0.0140975
914.677	0.0140195
914.755	0.0141114
914.833	0.0142666
914.911	0.0141508
914.989	0.0140187
915.068	0.0142117
915.146	0.0141418
915.224	0.0142313
915.302	0.0142508
915.380	0.0141724
915.458	0.0141624
915.536	0.0140458
915.614	0.0141322
915.693	0.0141938
915.771	0.0141387
915.849	0.0141330
915.927	0.0139713
916.005	0.0139981
916.083	0.0140964
916.161	0.0140458
916.239	0.0140273
916.318	0.0138666
916.396	0.0140278
916.474	0.0140070
916.552	0.0139645
916.630	0.0140698
916.708	0.0140115
916.786	0.0141167
916.864	0.0140043
916.943	0.0139993
917.021	0.0140079
917.099	0.0140047
917.177	0.0139984
917.255	0.0139451
917.333	0.0141095
917.411	0.0140279
917.489	0.0140761
917.568	0.0139823
917.646	0.0140186
917.724	0.0140911
917.802	0.0141078
917.880	0.0141700
917.958	0.0140124
918.036	0.0140343
918.114	0.0139961
918.193	0.0140056
918.271	0.0140466
918.349	0.0139266
918.427	0.0137794
918.505	0.0139338
918.583	0.0138208
918.661	0.0138875
918.739	0.0138383
918.818	0.0138586
918.896	0.0137107
918.974	0.0136568
919.052	0.0138532
919.130	0.0137705
919.208	0.0137105
919.286	0.0137128
919.364	0.0138840
919.443	0.0138766
919.521	0.0138013
919.599	0.0137650
919.677	0.0138789
919.755	0.0137577
919.833	0.0138629
919.911	0.0137550
919.989	0.0138915
920.068	0.0140328
920.146	0.0139056
920.224	0.0141184
920.302	0.0141631
920.380	0.0139938
920.458	0.0140854
920.536	0.0139426
920.614	0.0139771
920.693	0.0140112
920.771	0.0139802
920.849	0.0138529
920.927	0.0139812
921.005	0.0138720
921.083	0.0137961
921.161	0.0138625
921.239	0.0138717
921.318	0.0138040
921.396	0.0137847
921.474	0.0139025
921.552	0.0138646
921.630	0.0139097
921.708	0.0139129
921.786	0.0139246
921.864	0.0141153
921.943	0.0139036
922.021	0.0139106
922.099	0.0140536
922.177	0.0138575
922.255	0.0140147
922.333	0.0140429
922.411	0.0140717
922.489	0.0140614
922.568	0.0139918
922.646	0.0140404
922.724	0.0140769
922.802	0.0139539
922.880	0.0141057
922.958	0.0140864
923.036	0.0141033
923.114	0.0141454
923.193	0.0139716
923.271	0.0138959
923.349	0.0139795
923.427	0.0140703
923.505	0.0139422
923.583	0.0137817
923.661	0.0138876
923.739	0.0139973
923.818	0.0138871
923.896	0.0138322
923.974	0.0137472
924.052	0.0136651
924.130	0.0137137
924.208	0.0136517
924.286	0.0136544
924.364	0.0136557
924.443	0.0136233
924.521	0.0136327
924.599	0.0136143
924.677	0.0136622
924.755	0.0137211
924.833	0.0135165
924.911	0.0135753
924.989	0.0135789
925.068	0.0136146
925.146	0.0135148
925.224	0.0135501
925.302	0.0136117
925.380	0.0136518
925.458	0.0137701
925.536	0.0137234
925.614	0.0136691
925.693	0.0137392
925.771	0.0138411
925.849	0.0137997
925.927	0.0138062
926.005	0.0138071
926.083	0.0137617
926.161	0.0139561
926.239	0.0138094
926.318	0.0138812
926.396	0.0138369
926.474	0.0138712
926.552	0.0139346
926.630	0.0138923
926.708	0.0138795
926.786	0.0139194
926.864	0.0139423
926.943	0.0137495
927.021	0.0138791
927.099	0.0139923
927.177	0.0139715
927.255	0.0139014
927.333	0.0139397
927.411	0.0139942
927.489	0.0139899
927.568	0.0139471
927.646	0.0139429
927.724	0.0139812
927.802	0.0140665
927.880	0.0139743
927.958	0.0139502
928.036	0.0139371
928.114	0.0140247
928.193	0.0140700
928.271	0.0138972
928.349	0.0141231
928.427	0.0141454
928.505	0.0141869
928.583	0.0139749
928.661	0.0141068
928.739	0.0139871
928.818	0.0140292
928.896	0.0138853
928.974	0.0139429
929.052	0.0139877
929.130	0.0139303
929.208	0.0138373
929.286	0.0138291
929.364	0.0138364
929.443	0.0137213
929.521	0.0138186
929.599	0.0137365
929.677	0.0136649
929.755	0.0137312
929.833	0.0136779
929.911	0.0137455
929.989	0.0135313
930.068	0.0136507
930.146	0.0136562
930.224	0.0135535
930.302	0.0135873
930.380	0.0134928
930.458	0.0134249
930.536	0.0134879
930.614	0.0136045
930.693	0.0135323
930.771	0.0135602
930.849	0.0136586
930.927	0.0136442
931.005	0.0137629
931.083	0.0138255
931.161	0.0138457
931.239	0.0139310
931.318	0.0140661
931.396	0.0140485
931.474	0.0140670
931.552	0.0140700
931.630	0.0142481
931.708	0.0141309
931.786	0.0141440
931.864	0.0142354
931.943	0.0142300
932.021	0.0143285
932.099	0.0142336
932.177	0.0142144
932.255	0.0142394
932.333	0.0143451
932.411	0.0143897
932.489	0.0143109
932.568	0.0143116
932.646	0.0142532
932.724	0.0141409
932.802	0.0141334
932.880	0.0141322
932.958	0.0141535
933.036	0.0140893
933.114	0.0141420
933.193	0.0141206
933.271	0.0141412
933.349	0.0139982
933.427	0.0140811
933.505	0.0138631
933.583	0.0139516
933.661	0.0139116
933.739	0.0138800
933.818	0.0139307
933.896	0.0137562
933.974	0.0137363
934.052	0.0138969
934.130	0.0139162
934.208	0.0137782
934.286	0.0137141
934.364	0.0137700
934.443	0.0140073
934.521	0.0140258
934.599	0.0139563
934.677	0.0138806
934.755	0.0140410
934.833	0.0139777
934.911	0.0140341
934.989	0.0139684
935.068	0.0140492
935.146	0.0140325
935.224	0.0138821
935.302	0.0140170
935.380	0.0140846
935.458	0.0142160
935.536	0.0140387
935.614	0.0140223
935.693	0.0140269
935.771	0.0141005
935.849	0.0140416
935.927	0.0139672
936.005	0.0140636
936.083	0.0139610
936.161	0.0139414
936.239	0.0139849
936.318	0.0140050
936.396	0.0139017
936.474	0.0140185
936.552	0.0140678
936.630	0.0140034
936.708	0.0139945
936.786	0.0140055
936.864	0.0139551
936.943	0.0139883
937.021	0.0140356
937.099	0.0141151
937.177	0.0140710
937.255	0.0139380
937.333	0.0139896
937.411	0.0140009
937.489	0.0139352
937.568	0.0139225
937.646	0.0139439
937.724	0.0139542
937.802	0.0139240
937.880	0.0140147
937.958	0.0138933
938.036	0.0139662
938.114	0.0139117
938.193	0.0139330
938.271	0.0140556
938.349	0.0140195
938.427	0.0138962
938.505	0.0139384
938.583	0.0140055
938.661	0.0141454
938.739	0.0139894
938.818	0.0140831
938.896	0.0141582
938.974	0.0141478
939.052	0.0140717
939.130	0.0141776
939.208	0.0142043
939.286	0.0141676
939.364	0.0141026
939.443	0.0140553
939.521	0.0143661
939.599	0.0142252
939.677	0.0141962
939.755	0.0140025
939.833	0.0140430
939.911	0.0140063
939.989	0.0140021
940.068	0.0140097
940.146	0.0140804
940.224	0.0140582
940.302	0.0137885
940.380	0.0140639
940.458	0.0139568
940.536	0.0141195
940.614	0.0140299
940.693	0.0140323
940.771	0.0140199
940.849	0.0138710
940.927	0.0139984
941.005	0.0140251
941.083	0.0141662
941.161	0.0141616
941.239	0.0141145
941.318	0.0139484
941.396	0.0139287
941.474	0.0139604
941.552	0.0140476
941.630	0.0140037
941.708	0.0139996
941.786	0.0139999
941.864	0.0139065
941.943	0.0138525
942.021	0.0138558
942.099	0.0137936
942.177	0.0137300
942.255	0.0138454
942.333	0.0138249
942.411	0.0137468
942.489	0.0137589
942.568	0.0137499
942.646	0.0137009
942.724	0.0137840
942.802	0.0137733
942.880	0.0138752
942.958	0.0139662
943.036	0.0139186
943.114	0.0135448
943.193	0.0137924
943.271	0.0138930
943.349	0.0138088
943.427	0.0136813
943.505	0.0137763
943.583	0.0139248
943.661	0.0138918
943.739	0.0138818
943.818	0.0139027
943.896	0.0138773
943.974	0.0139839
944.052	0.0138775
944.130	0.0139821
944.208	0.0140591
944.286	0.0139734
944.364	0.0139513
944.443	0.0139278
944.521	0.0139455
944.599	0.0139685
944.677	0.0141909
944.755	0.0140403
944.833	0.0139576
944.911	0.0138734
944.989	0.0141051
945.068	0.0141898
945.146	0.0139922
945.224	0.0138930
945.302	0.0139330
945.380	0.0139845
945.458	0.0142062
945.536	0.0139463
945.614	0.0138657
945.693	0.0139735
945.771	0.0139823
945.849	0.0139275
945.927	0.0139365
946.005	0.0139725
946.083	0.0139086
946.161	0.0138845
946.239	0.0137485
946.318	0.0138359
946.396	0.0138847
946.474	0.0140300
946.552	0.0139400
946.630	0.0138152
946.708	0.0139235
946.786	0.0140141
946.864	0.0140289
946.943	0.0139219
947.021	0.0138663
947.099	0.0138362
947.177	0.0138327
947.255	0.0139537
947.333	0.0139400
947.411	0.0139771
947.489	0.0138702
947.568	0.0138200
947.646	0.0137615
947.724	0.0137475
947.802	0.0138757
947.880	0.0138673
947.958	0.0137380
948.036	0.0137711
948.114	0.0137737
948.193	0.0136832
948.271	0.0137755
948.349	0.0138317
948.427	0.0137725
948.505	0.0138575
948.583	0.0137091
948.661	0.0136734
948.739	0.0139472
948.818	0.0138156
948.896	0.0136967
948.974	0.0138954
949.052	0.0139845
949.130	0.0139122
949.208	0.0138866
949.286	0.0140027
949.364	0.0139448
949.443	0.0138678
949.521	0.0137904
949.599	0.0139174
949.677	0.0139072
949.755	0.0138344
949.833	0.0136797
949.911	0.0139426
949.989	0.0139748
950.068	0.0139412
950.146	0.0138549
950.224	0.0139098
950.302	0.0139743
950.380	0.0138346
950.458	0.0139112
950.536	0.0140804
950.614	0.0139486
950.693	0.0138864
950.771	0.0138667
950.849	0.0140174
950.927	0.0139875
951.005	0.0140057
951.083	0.0139713
951.161	0.0140512
951.239	0.0140606
951.318	0.0139008
951.396	0.0141284
951.474	0.0140712
951.552	0.0140242
951.630	0.0140870
951.708	0.0142210
951.786	0.0139201
951.864	0.0138661
951.943	0.0139225
952.021	0.0139131
952.099	0.0138992
952.177	0.0141157
952.255	0.0140896
952.333	0.0139551
952.411	0.0139404
952.489	0.0139296
952.568	0.0139481
952.646	0.0139600
952.724	0.0138980
952.802	0.0139535
952.880	0.0139497
952.958	0.0139336
953.036	0.0139530
953.114	0.0139082
953.193	0.0139899
953.271	0.0139970
953.349	0.0138525
953.427	0.0140404
953.505	0.0139336
953.583	0.0139015
953.661	0.0139412
953.739	0.0139620
953.818	0.0139690
953.896	0.0138763
953.974	0.0139113
954.052	0.0139021
954.130	0.0138560
954.208	0.0138783
954.286	0.0139027
954.364	0.0139323
954.443	0.0139017
954.521	0.0139096
954.599	0.0139394
954.677	0.0139199
954.755	0.0140987
954.833	0.0140155
954.911	0.0140319
954.989	0.0140620
955.068	0.0141776
955.146	0.0139820
955.224	0.0140459
955.302	0.0140218
955.380	0.0140598
955.458	0.0141753
955.536	0.0142028
955.614	0.0140200
955.693	0.0140683
955.771	0.0140566
955.849	0.0139852
955.927	0.0139648
956.005	0.0140147
956.083	0.0139972
956.161	0.0139729
956.239	0.0138623
956.318	0.0138982
956.396	0.0138132
956.474	0.0138682
956.552	0.0138449
956.630	0.0136923
956.708	0.0138707
956.786	0.0138666
956.864	0.0138672
956.943	0.0138498
957.021	0.0137533
957.099	0.0138673
957.177	0.0138234
957.255	0.0139484
957.333	0.0139047
957.411	0.0139249
957.489	0.0139535
957.568	0.0140559
957.646	0.0139545
957.724	0.0138785
957.802	0.0140600
957.880	0.0140155
957.958	0.0140620
958.036	0.0138781
958.114	0.0140377
958.193	0.0140246
958.271	0.0140405
958.349	0.0138519
958.427	0.0139088
958.505	0.0139085
958.583	0.0138409
958.661	0.0140742
958.739	0.0139295
958.818	0.0140229
958.896	0.0139690
958.974	0.0140290
959.052	0.0139925
959.130	0.0140628
959.208	0.0139777
959.286	0.0140611
959.364	0.0140132
959.443	0.0140890
959.521	0.0139545
959.599	0.0140582
959.677	0.0139561
959.755	0.0141288
959.833	0.0140188
959.911	0.0140222
