05/14/2022	16:38:32	Ver.	4.1	UNKNOWN
Optical Delay	639.989416	Delta X		0.078125	Sweeps	1	Scan Rate	0/0
Coordinates	Axis 1	NaN	Axis 2	NaN	Axis 3	NaN	Axis 4	NaN	Axis 5	NaN	Axis 6	0.000000
TX Power	0.000000	RX Power	0.000000

639.989	0.0138126
640.068	0.0137257
640.146	0.0137636
640.224	0.0138297
640.302	0.0137415
640.380	0.0137596
640.458	0.0138215
640.536	0.0138209
640.614	0.0138432
640.693	0.0138237
640.771	0.0138911
640.849	0.0138761
640.927	0.0138924
641.005	0.0138428
641.083	0.0137936
641.161	0.0138724
641.239	0.0138731
641.318	0.0137851
641.396	0.0137083
641.474	0.0137761
641.552	0.0137910
641.630	0.0136826
641.708	0.0139439
641.786	0.0139246
641.864	0.0137758
641.943	0.0138190
642.021	0.0138381
642.099	0.0138358
642.177	0.0138018
642.255	0.0137309
642.333	0.0139038
642.411	0.0140083
642.489	0.0139111
642.568	0.0137811
642.646	0.0137398
642.724	0.0139783
642.802	0.0139288
642.880	0.0137912
642.958	0.0138529
643.036	0.0137619
643.114	0.0138412
643.193	0.0138541
643.271	0.0138906
643.349	0.0137412
643.427	0.0137586
643.505	0.0139108
643.583	0.0140752
643.661	0.0138762
643.739	0.0139942
643.818	0.0137963
643.896	0.0138189
643.974	0.0139663
644.052	0.0139546
644.130	0.0137450
644.208	0.0138101
644.286	0.0137450
644.364	0.0138982
644.443	0.0137408
644.521	0.0138390
644.599	0.0138682
644.677	0.0136449
644.755	0.0137497
644.833	0.0136704
644.911	0.0139059
644.989	0.0137825
645.068	0.0137971
645.146	0.0139082
645.224	0.0137903
645.302	0.0138847
645.380	0.0137856
645.458	0.0139305
645.536	0.0139531
645.614	0.0138675
645.693	0.0139245
645.771	0.0138303
645.849	0.0139478
645.927	0.0137830
646.005	0.0137758
646.083	0.0137410
646.161	0.0137379
646.239	0.0138866
646.318	0.0138562
646.396	0.0138526
646.474	0.0138873
646.552	0.0138363
646.630	0.0137363
646.708	0.0138245
646.786	0.0137529
646.864	0.0139253
646.943	0.0139115
647.021	0.0138554
647.099	0.0137572
647.177	0.0139668
647.255	0.0138409
647.333	0.0138550
647.411	0.0138367
647.489	0.0139358
647.568	0.0138432
647.646	0.0137518
647.724	0.0137809
647.802	0.0137437
647.880	0.0138005
647.958	0.0138000
648.036	0.0138401
648.114	0.0139597
648.193	0.0139275
648.271	0.0138028
648.349	0.0138516
648.427	0.0138109
648.505	0.0137478
648.583	0.0138419
648.661	0.0137991
648.739	0.0138880
648.818	0.0138868
648.896	0.0139980
648.974	0.0137507
649.052	0.0138329
649.130	0.0139910
649.208	0.0139167
649.286	0.0138136
649.364	0.0137083
649.443	0.0137505
649.521	0.0136974
649.599	0.0139274
649.677	0.0137970
649.755	0.0138956
649.833	0.0138251
649.911	0.0138231
649.989	0.0138476
650.068	0.0137526
650.146	0.0138503
650.224	0.0138950
650.302	0.0137649
650.380	0.0138734
650.458	0.0138943
650.536	0.0138605
650.614	0.0137598
650.693	0.0136725
650.771	0.0136378
650.849	0.0138348
650.927	0.0137854
651.005	0.0137621
651.083	0.0136673
651.161	0.0137698
651.239	0.0136613
651.318	0.0136670
651.396	0.0137405
651.474	0.0137106
651.552	0.0137457
651.630	0.0137346
651.708	0.0136628
651.786	0.0136504
651.864	0.0137310
651.943	0.0138193
652.021	0.0136756
652.099	0.0137672
652.177	0.0137532
652.255	0.0135748
652.333	0.0136977
652.411	0.0136376
652.489	0.0137305
652.568	0.0136794
652.646	0.0136713
652.724	0.0135577
652.802	0.0136546
652.880	0.0136372
652.958	0.0137421
653.036	0.0137062
653.114	0.0136726
653.193	0.0135596
653.271	0.0135541
653.349	0.0135592
653.427	0.0136432
653.505	0.0135416
653.583	0.0136510
653.661	0.0136260
653.739	0.0136922
653.818	0.0136508
653.896	0.0135933
653.974	0.0137046
654.052	0.0136778
654.130	0.0135931
654.208	0.0136382
654.286	0.0137440
654.364	0.0136552
654.443	0.0137253
654.521	0.0136192
654.599	0.0135538
654.677	0.0135580
654.755	0.0137054
654.833	0.0135489
654.911	0.0136078
654.989	0.0136221
655.068	0.0136855
655.146	0.0136237
655.224	0.0137505
655.302	0.0137426
655.380	0.0135991
655.458	0.0136835
655.536	0.0136417
655.614	0.0136086
655.693	0.0136430
655.771	0.0137082
655.849	0.0136810
655.927	0.0134875
656.005	0.0137017
656.083	0.0137324
656.161	0.0137518
656.239	0.0136896
656.318	0.0137682
656.396	0.0138071
656.474	0.0138589
656.552	0.0136979
656.630	0.0137262
656.708	0.0137500
656.786	0.0137109
656.864	0.0137057
656.943	0.0138676
657.021	0.0137711
657.099	0.0137463
657.177	0.0137797
657.255	0.0137264
657.333	0.0136661
657.411	0.0137299
657.489	0.0137992
657.568	0.0136256
657.646	0.0136225
657.724	0.0137653
657.802	0.0137119
657.880	0.0136249
657.958	0.0135989
658.036	0.0137219
658.114	0.0136677
658.193	0.0137474
658.271	0.0136855
658.349	0.0136887
658.427	0.0138249
658.505	0.0137697
658.583	0.0138493
658.661	0.0138690
658.739	0.0137308
658.818	0.0138361
658.896	0.0138596
658.974	0.0137868
659.052	0.0139292
659.130	0.0137842
659.208	0.0137122
659.286	0.0137256
659.364	0.0137650
659.443	0.0137305
659.521	0.0137447
659.599	0.0137265
659.677	0.0138911
659.755	0.0137984
659.833	0.0138325
659.911	0.0136903
659.989	0.0137498
660.068	0.0137627
660.146	0.0138268
660.224	0.0137583
660.302	0.0137478
660.380	0.0138660
660.458	0.0138506
660.536	0.0136823
660.614	0.0138007
660.693	0.0138948
660.771	0.0138573
660.849	0.0137387
660.927	0.0137508
661.005	0.0137371
661.083	0.0138128
661.161	0.0137136
661.239	0.0138241
661.318	0.0137852
661.396	0.0137971
661.474	0.0138290
661.552	0.0138719
661.630	0.0138635
661.708	0.0138725
661.786	0.0137685
661.864	0.0137444
661.943	0.0137447
662.021	0.0137150
662.099	0.0137204
662.177	0.0137578
662.255	0.0137453
662.333	0.0138398
662.411	0.0137419
662.489	0.0138091
662.568	0.0137514
662.646	0.0137615
662.724	0.0137463
662.802	0.0137912
662.880	0.0137112
662.958	0.0138271
663.036	0.0138269
663.114	0.0137337
663.193	0.0137865
663.271	0.0137635
663.349	0.0138506
663.427	0.0138888
663.505	0.0138262
663.583	0.0137462
663.661	0.0138280
663.739	0.0137509
663.818	0.0137630
663.896	0.0137551
663.974	0.0137911
664.052	0.0138470
664.130	0.0139024
664.208	0.0136983
664.286	0.0137485
664.364	0.0136986
664.443	0.0138786
664.521	0.0138397
664.599	0.0137138
664.677	0.0137558
664.755	0.0138095
664.833	0.0138371
664.911	0.0138038
664.989	0.0138563
665.068	0.0137470
665.146	0.0137948
665.224	0.0138831
665.302	0.0139029
665.380	0.0137898
665.458	0.0138046
665.536	0.0137620
665.614	0.0137664
665.693	0.0138824
665.771	0.0138698
665.849	0.0138346
665.927	0.0138401
666.005	0.0138815
666.083	0.0139242
666.161	0.0137910
666.239	0.0138465
666.318	0.0137962
666.396	0.0139068
666.474	0.0138365
666.552	0.0137894
666.630	0.0138424
666.708	0.0137945
666.786	0.0138764
666.864	0.0137371
666.943	0.0136797
667.021	0.0138091
667.099	0.0138480
667.177	0.0138204
667.255	0.0139352
667.333	0.0139595
667.411	0.0137621
667.489	0.0137037
667.568	0.0139009
667.646	0.0138601
667.724	0.0137643
667.802	0.0138045
667.880	0.0138447
667.958	0.0138037
668.036	0.0137328
668.114	0.0137682
668.193	0.0137086
668.271	0.0138529
668.349	0.0137649
668.427	0.0138372
668.505	0.0137323
668.583	0.0137861
668.661	0.0136965
668.739	0.0136961
668.818	0.0136652
668.896	0.0136652
668.974	0.0136534
669.052	0.0136560
669.130	0.0136953
669.208	0.0136832
669.286	0.0136724
669.364	0.0137623
669.443	0.0137357
669.521	0.0136636
669.599	0.0137106
669.677	0.0137561
669.755	0.0136935
669.833	0.0137994
669.911	0.0138629
669.989	0.0137559
670.068	0.0137550
670.146	0.0137910
670.224	0.0138433
670.302	0.0137401
670.380	0.0139005
670.458	0.0137650
670.536	0.0137656
670.614	0.0137176
670.693	0.0137348
670.771	0.0137650
670.849	0.0137186
670.927	0.0136419
671.005	0.0137237
671.083	0.0136626
671.161	0.0135329
671.239	0.0136883
671.318	0.0138699
671.396	0.0138310
671.474	0.0139250
671.552	0.0138748
671.630	0.0138262
671.708	0.0138160
671.786	0.0138575
671.864	0.0139894
671.943	0.0137883
672.021	0.0137775
672.099	0.0138725
672.177	0.0138621
672.255	0.0138181
672.333	0.0138711
672.411	0.0137206
672.489	0.0139278
672.568	0.0138112
672.646	0.0136188
672.724	0.0137910
672.802	0.0139535
672.880	0.0138020
672.958	0.0137961
673.036	0.0135956
673.114	0.0135673
673.193	0.0137563
673.271	0.0135544
673.349	0.0136159
673.427	0.0137203
673.505	0.0136395
673.583	0.0135713
673.661	0.0135061
673.739	0.0134695
673.818	0.0134052
673.896	0.0136472
673.974	0.0136434
674.052	0.0135909
674.130	0.0136485
674.208	0.0137157
674.286	0.0135760
674.364	0.0137151
674.443	0.0137901
674.521	0.0138053
674.599	0.0138381
674.677	0.0138984
674.755	0.0139369
674.833	0.0140897
674.911	0.0140760
674.989	0.0139853
675.068	0.0141534
675.146	0.0140054
675.224	0.0139018
675.302	0.0139675
675.380	0.0139330
675.458	0.0139127
675.536	0.0136717
675.614	0.0136241
675.693	0.0135711
675.771	0.0135025
675.849	0.0133009
675.927	0.0132889
676.005	0.0133569
676.083	0.0131111
676.161	0.0132130
676.239	0.0128867
676.318	0.0129031
676.396	0.0130206
676.474	0.0129611
676.552	0.0128830
676.630	0.0128307
676.708	0.0130037
676.786	0.0130859
676.864	0.0131898
676.943	0.0133350
677.021	0.0134635
677.099	0.0134599
677.177	0.0137195
677.255	0.0139919
677.333	0.0141222
677.411	0.0142038
677.489	0.0144790
677.568	0.0146962
677.646	0.0148670
677.724	0.0149655
677.802	0.0149883
677.880	0.0151809
677.958	0.0151511
678.036	0.0152533
678.114	0.0152493
678.193	0.0150465
678.271	0.0149801
678.349	0.0149690
678.427	0.0147861
678.505	0.0145764
678.583	0.0144691
678.661	0.0140794
678.739	0.0136730
678.818	0.0134554
678.896	0.0131079
678.974	0.0127666
679.052	0.0125807
679.130	0.0122529
679.208	0.0121236
679.286	0.0118401
679.364	0.0115423
679.443	0.0114537
679.521	0.0114062
679.599	0.0113561
679.677	0.0114494
679.755	0.0114753
679.833	0.0117040
679.911	0.0118370
679.989	0.0120770
680.068	0.0125056
680.146	0.0126507
680.224	0.0130206
680.302	0.0134479
680.380	0.0139000
680.458	0.0141879
680.536	0.0147855
680.614	0.0152957
680.693	0.0154955
680.771	0.0161861
680.849	0.0163392
680.927	0.0166512
681.005	0.0168957
681.083	0.0171407
681.161	0.0169582
681.239	0.0170667
681.318	0.0170976
681.396	0.0171154
681.474	0.0167043
681.552	0.0165078
681.630	0.0159850
681.708	0.0155547
681.786	0.0151352
681.864	0.0146101
681.943	0.0139547
682.021	0.0134964
682.099	0.0130785
682.177	0.0124757
682.255	0.0119537
682.333	0.0114505
682.411	0.0109718
682.489	0.0107850
682.568	0.0103890
682.646	0.00992584
682.724	0.00973236
682.802	0.00970932
682.880	0.00962257
682.958	0.00957161
683.036	0.00972878
683.114	0.00993126
683.193	0.0104495
683.271	0.0106506
683.349	0.0111192
683.427	0.0115674
683.505	0.0121282
683.583	0.0126572
683.661	0.0132607
683.739	0.0138977
683.818	0.0144839
683.896	0.0152427
683.974	0.0158355
684.052	0.0166061
684.130	0.0170039
684.208	0.0173415
684.286	0.0178595
684.364	0.0181666
684.443	0.0183586
684.521	0.0185485
684.599	0.0186430
684.677	0.0186370
684.755	0.0185004
684.833	0.0181642
684.911	0.0178381
684.989	0.0174703
685.068	0.0169013
685.146	0.0163023
685.224	0.0156364
685.302	0.0150772
685.380	0.0142979
685.458	0.0135945
685.536	0.0130640
685.614	0.0122206
685.693	0.0115787
685.771	0.0109210
685.849	0.0104403
685.927	0.0100596
686.005	0.00980270
686.083	0.00951714
686.161	0.00937958
686.239	0.00914917
686.318	0.00917213
686.396	0.00936317
686.474	0.00949463
686.552	0.00977501
686.630	0.0100850
686.708	0.0103745
686.786	0.0107955
686.864	0.0113319
686.943	0.0118538
687.021	0.0123643
687.099	0.0128465
687.177	0.0135696
687.255	0.0139753
687.333	0.0145762
687.411	0.0150694
687.489	0.0155241
687.568	0.0158155
687.646	0.0161511
687.724	0.0165440
687.802	0.0165771
687.880	0.0167477
687.958	0.0167844
688.036	0.0167220
688.114	0.0167672
688.193	0.0166785
688.271	0.0164555
688.349	0.0163953
688.427	0.0160348
688.505	0.0160332
688.583	0.0158282
688.661	0.0154517
688.739	0.0153661
688.818	0.0151673
688.896	0.0148735
688.974	0.0146735
689.052	0.0144592
689.130	0.0143285
689.208	0.0142030
689.286	0.0139083
689.364	0.0137159
689.443	0.0134934
689.521	0.0133299
689.599	0.0132959
689.677	0.0130067
689.755	0.0128529
689.833	0.0129685
689.911	0.0126434
689.989	0.0123781
690.068	0.0123863
690.146	0.0123388
690.224	0.0123543
690.302	0.0124020
690.380	0.0122610
690.458	0.0121596
690.536	0.0121459
690.614	0.0121409
690.693	0.0121310
690.771	0.0121960
690.849	0.0121951
690.927	0.0123655
691.005	0.0125688
691.083	0.0126328
691.161	0.0127714
691.239	0.0131568
691.318	0.0133094
691.396	0.0135152
691.474	0.0138989
691.552	0.0143395
691.630	0.0144732
691.708	0.0147151
691.786	0.0148653
691.864	0.0152702
691.943	0.0154532
692.021	0.0153960
692.099	0.0155355
692.177	0.0156139
692.255	0.0155628
692.333	0.0152815
692.411	0.0151639
692.489	0.0152058
692.568	0.0148983
692.646	0.0145574
692.724	0.0145805
692.802	0.0141296
692.880	0.0138210
692.958	0.0138341
693.036	0.0136039
693.114	0.0136536
693.193	0.0134782
693.271	0.0131841
693.349	0.0130852
693.427	0.0131710
693.505	0.0131053
693.583	0.0130350
693.661	0.0130989
693.739	0.0129803
693.818	0.0130761
693.896	0.0132849
693.974	0.0133471
694.052	0.0134238
694.130	0.0137617
694.208	0.0141396
694.286	0.0140358
694.364	0.0144933
694.443	0.0145769
694.521	0.0147488
694.599	0.0147511
694.677	0.0147477
694.755	0.0147644
694.833	0.0147597
694.911	0.0145932
694.989	0.0144775
695.068	0.0142814
695.146	0.0140884
695.224	0.0136704
695.302	0.0135564
695.380	0.0131594
695.458	0.0128284
695.536	0.0126201
695.614	0.0124927
695.693	0.0124294
695.771	0.0121529
695.849	0.0120961
695.927	0.0117914
696.005	0.0118955
696.083	0.0119885
696.161	0.0120433
696.239	0.0120535
696.318	0.0122219
696.396	0.0124744
696.474	0.0126003
696.552	0.0129160
696.630	0.0130862
696.708	0.0133589
696.786	0.0137329
696.864	0.0140379
696.943	0.0144199
697.021	0.0146089
697.099	0.0147977
697.177	0.0149373
697.255	0.0150963
697.333	0.0153211
697.411	0.0153658
697.489	0.0157001
697.568	0.0154533
697.646	0.0153754
697.724	0.0152843
697.802	0.0153806
697.880	0.0153486
697.958	0.0151662
698.036	0.0149173
698.114	0.0148766
698.193	0.0146429
698.271	0.0143704
698.349	0.0140742
698.427	0.0138759
698.505	0.0135982
698.583	0.0134026
698.661	0.0130696
698.739	0.0129631
698.818	0.0127386
698.896	0.0126717
698.974	0.0124753
699.052	0.0123001
699.130	0.0122334
699.208	0.0124208
699.286	0.0124461
699.364	0.0124866
699.443	0.0125667
699.521	0.0127652
699.599	0.0128761
699.677	0.0131474
699.755	0.0133997
699.833	0.0134460
699.911	0.0138702
699.989	0.0139468
700.068	0.0140486
700.146	0.0142760
700.224	0.0143645
700.302	0.0143537
700.380	0.0145551
700.458	0.0145164
700.536	0.0146224
700.614	0.0145300
700.693	0.0144724
700.771	0.0143440
700.849	0.0144444
700.927	0.0142792
701.005	0.0143078
701.083	0.0142041
701.161	0.0141437
701.239	0.0140466
701.318	0.0138836
701.396	0.0138535
701.474	0.0139556
701.552	0.0140099
701.630	0.0140842
701.708	0.0140099
701.786	0.0142634
701.864	0.0141651
701.943	0.0143365
702.021	0.0144196
702.099	0.0144777
702.177	0.0144169
702.255	0.0145960
702.333	0.0146206
702.411	0.0144997
702.489	0.0142451
702.568	0.0140260
702.646	0.0137055
702.724	0.0136817
702.802	0.0135218
702.880	0.0129356
702.958	0.0125465
703.036	0.0125569
703.114	0.0122907
703.193	0.0119057
703.271	0.0116554
703.349	0.0116562
703.427	0.0115287
703.505	0.0114645
703.583	0.0115641
703.661	0.0117764
703.739	0.0118240
703.818	0.0121104
703.896	0.0123292
703.974	0.0128276
704.052	0.0131075
704.130	0.0136423
704.208	0.0138546
704.286	0.0142396
704.364	0.0145110
704.443	0.0150298
704.521	0.0152842
704.599	0.0155373
704.677	0.0159149
704.755	0.0161120
704.833	0.0163461
704.911	0.0164977
704.989	0.0165445
705.068	0.0167199
705.146	0.0166429
705.224	0.0166425
705.302	0.0165689
705.380	0.0163366
705.458	0.0159983
705.536	0.0158469
705.614	0.0155443
705.693	0.0152773
705.771	0.0149680
705.849	0.0144676
705.927	0.0140836
706.005	0.0137636
706.083	0.0133457
706.161	0.0128178
706.239	0.0124959
706.318	0.0122935
706.396	0.0118996
706.474	0.0117355
706.552	0.0114226
706.630	0.0112823
706.708	0.0114477
706.786	0.0112907
706.864	0.0114185
706.943	0.0113625
707.021	0.0115871
707.099	0.0119250
707.177	0.0119698
707.255	0.0120988
707.333	0.0124448
707.411	0.0126955
707.489	0.0131938
707.568	0.0134188
707.646	0.0136557
707.724	0.0140234
707.802	0.0143586
707.880	0.0145404
707.958	0.0148827
708.036	0.0150010
708.114	0.0150653
708.193	0.0151476
708.271	0.0149552
708.349	0.0149667
708.427	0.0150182
708.505	0.0146772
708.583	0.0146339
708.661	0.0143614
708.739	0.0139211
708.818	0.0137361
708.896	0.0138437
708.974	0.0136353
709.052	0.0134930
709.130	0.0133622
709.208	0.0134157
709.286	0.0132812
709.364	0.0135515
709.443	0.0135194
709.521	0.0136873
709.599	0.0136546
709.677	0.0136631
709.755	0.0136723
709.833	0.0135866
709.911	0.0135519
709.989	0.0135295
710.068	0.0135042
710.146	0.0134316
710.224	0.0133488
710.302	0.0133381
710.380	0.0135246
710.458	0.0133584
710.536	0.0134574
710.614	0.0133476
710.693	0.0133120
710.771	0.0133453
710.849	0.0134799
710.927	0.0135303
711.005	0.0135267
711.083	0.0136948
711.161	0.0139148
711.239	0.0139970
711.318	0.0142245
711.396	0.0141382
711.474	0.0143972
711.552	0.0145438
711.630	0.0147681
711.708	0.0147224
711.786	0.0149268
711.864	0.0152639
711.943	0.0150871
712.021	0.0151363
712.099	0.0152296
712.177	0.0152888
712.255	0.0153242
712.333	0.0152199
712.411	0.0151693
712.489	0.0151746
712.568	0.0149805
712.646	0.0150794
712.724	0.0149149
712.802	0.0149923
712.880	0.0146461
712.958	0.0144895
713.036	0.0143254
713.114	0.0142616
713.193	0.0139894
713.271	0.0135844
713.349	0.0133674
713.427	0.0130695
713.505	0.0128130
713.583	0.0124355
713.661	0.0120689
713.739	0.0118189
713.818	0.0114941
713.896	0.0111967
713.974	0.0110217
714.052	0.0106653
714.130	0.0104674
714.208	0.0106425
714.286	0.0104562
714.364	0.0103249
714.443	0.0104932
714.521	0.0106161
714.599	0.0107125
714.677	0.0108955
714.755	0.0113680
714.833	0.0117813
714.911	0.0120958
714.989	0.0125412
715.068	0.0130126
715.146	0.0134451
715.224	0.0137637
715.302	0.0141824
715.380	0.0145007
715.458	0.0149565
715.536	0.0154291
715.614	0.0158147
715.693	0.0159875
715.771	0.0161005
715.849	0.0162952
715.927	0.0165009
716.005	0.0166998
716.083	0.0168199
716.161	0.0166557
716.239	0.0168656
716.318	0.0166888
716.396	0.0167052
716.474	0.0166630
716.552	0.0164495
716.630	0.0165064
716.708	0.0162324
716.786	0.0161568
716.864	0.0159798
716.943	0.0159446
717.021	0.0157985
717.099	0.0153871
717.177	0.0151637
717.255	0.0150026
717.333	0.0146779
717.411	0.0143819
717.489	0.0143195
717.568	0.0139107
717.646	0.0136452
717.724	0.0133859
717.802	0.0132048
717.880	0.0129456
717.958	0.0126308
718.036	0.0123519
718.114	0.0120300
718.193	0.0118459
718.271	0.0117958
718.349	0.0114629
718.427	0.0112778
718.505	0.0112173
718.583	0.0111150
718.661	0.0109637
718.739	0.0109592
718.818	0.0109814
718.896	0.0109620
718.974	0.0109533
719.052	0.0111553
719.130	0.0112350
719.208	0.0115189
719.286	0.0117167
719.364	0.0116776
719.443	0.0120318
719.521	0.0123471
719.599	0.0126041
719.677	0.0129046
719.755	0.0131424
719.833	0.0134320
719.911	0.0137353
719.989	0.0142097
720.068	0.0144060
720.146	0.0148806
720.224	0.0150803
720.302	0.0154290
720.380	0.0156161
720.458	0.0157005
720.536	0.0157751
720.614	0.0158328
720.693	0.0160280
720.771	0.0159725
720.849	0.0160062
720.927	0.0157773
721.005	0.0157600
721.083	0.0156622
721.161	0.0156335
721.239	0.0154137
721.318	0.0152726
721.396	0.0151403
721.474	0.0149203
721.552	0.0147299
721.630	0.0145399
721.708	0.0141879
721.786	0.0141676
721.864	0.0138335
721.943	0.0138983
722.021	0.0137431
722.099	0.0136755
722.177	0.0134946
722.255	0.0135567
722.333	0.0134334
722.411	0.0136758
722.489	0.0135088
722.568	0.0137077
722.646	0.0135742
722.724	0.0136150
722.802	0.0137620
722.880	0.0138409
722.958	0.0139910
723.036	0.0139094
723.114	0.0139986
723.193	0.0141826
723.271	0.0140100
723.349	0.0141258
723.427	0.0141898
723.505	0.0140334
723.583	0.0139761
723.661	0.0138006
723.739	0.0137132
723.818	0.0136916
723.896	0.0137935
723.974	0.0133858
724.052	0.0134071
724.130	0.0134191
724.208	0.0131785
724.286	0.0130370
724.364	0.0131201
724.443	0.0130031
724.521	0.0130283
724.599	0.0129806
724.677	0.0129317
724.755	0.0129952
724.833	0.0129765
724.911	0.0130367
724.989	0.0131230
725.068	0.0131757
725.146	0.0131358
725.224	0.0131879
725.302	0.0131732
725.380	0.0132872
725.458	0.0133232
725.536	0.0134553
725.614	0.0135529
725.693	0.0134716
725.771	0.0136007
725.849	0.0135590
725.927	0.0138251
726.005	0.0138154
726.083	0.0138291
726.161	0.0139079
726.239	0.0140189
726.318	0.0140601
726.396	0.0140549
726.474	0.0139768
726.552	0.0141359
726.630	0.0141699
726.708	0.0140824
726.786	0.0140743
726.864	0.0141163
726.943	0.0141917
727.021	0.0141494
727.099	0.0141290
727.177	0.0142516
727.255	0.0141937
727.333	0.0144051
727.411	0.0145090
727.489	0.0144867
727.568	0.0147154
727.646	0.0148314
727.724	0.0148129
727.802	0.0150875
727.880	0.0152061
727.958	0.0152486
728.036	0.0153329
728.114	0.0152288
728.193	0.0153379
728.271	0.0154041
728.349	0.0152220
728.427	0.0152711
728.505	0.0149937
728.583	0.0147811
728.661	0.0146725
728.739	0.0142806
728.818	0.0141242
728.896	0.0139826
728.974	0.0135448
729.052	0.0133061
729.130	0.0130264
729.208	0.0129022
729.286	0.0127736
729.364	0.0125648
729.443	0.0124646
729.521	0.0123110
729.599	0.0123814
729.677	0.0120894
729.755	0.0121931
729.833	0.0124159
729.911	0.0123969
729.989	0.0124655
730.068	0.0124382
730.146	0.0125677
730.224	0.0125718
730.302	0.0125995
730.380	0.0128214
730.458	0.0128588
730.536	0.0129375
730.614	0.0130684
730.693	0.0130962
730.771	0.0131494
730.849	0.0133516
730.927	0.0134155
731.005	0.0134766
731.083	0.0135143
731.161	0.0136900
731.239	0.0136484
731.318	0.0137366
731.396	0.0138752
731.474	0.0138914
731.552	0.0140118
731.630	0.0140456
731.708	0.0140493
731.786	0.0144099
731.864	0.0144961
731.943	0.0144375
732.021	0.0145300
732.099	0.0147224
732.177	0.0145240
732.255	0.0146140
732.333	0.0146468
732.411	0.0146785
732.489	0.0147487
732.568	0.0145834
732.646	0.0144126
732.724	0.0144989
732.802	0.0141998
732.880	0.0141483
732.958	0.0139883
733.036	0.0138069
733.114	0.0137969
733.193	0.0136359
733.271	0.0135674
733.349	0.0135603
733.427	0.0134617
733.505	0.0134834
733.583	0.0133294
733.661	0.0133888
733.739	0.0133025
733.818	0.0133068
733.896	0.0133987
733.974	0.0134172
734.052	0.0133578
734.130	0.0133430
734.208	0.0132113
734.286	0.0133619
734.364	0.0132318
734.443	0.0132932
734.521	0.0133733
734.599	0.0133910
734.677	0.0134167
734.755	0.0134662
734.833	0.0133326
734.911	0.0133517
734.989	0.0132803
735.068	0.0132574
735.146	0.0131389
735.224	0.0133374
735.302	0.0133607
735.380	0.0132614
735.458	0.0133105
735.536	0.0133565
735.614	0.0135243
735.693	0.0134252
735.771	0.0135801
735.849	0.0137601
735.927	0.0137801
736.005	0.0138367
736.083	0.0140307
736.161	0.0141094
736.239	0.0143279
736.318	0.0142034
736.396	0.0142191
736.474	0.0142164
736.552	0.0143311
736.630	0.0143200
736.708	0.0142231
736.786	0.0141261
736.864	0.0141917
736.943	0.0142593
737.021	0.0143366
737.099	0.0141461
737.177	0.0141642
737.255	0.0141518
737.333	0.0141858
737.411	0.0141526
737.489	0.0142622
737.568	0.0142866
737.646	0.0140028
737.724	0.0141000
737.802	0.0139092
737.880	0.0139484
737.958	0.0138895
738.036	0.0139699
738.114	0.0137758
738.193	0.0137252
738.271	0.0138616
738.349	0.0137827
738.427	0.0137407
738.505	0.0136854
738.583	0.0136280
738.661	0.0135567
738.739	0.0134236
738.818	0.0134313
738.896	0.0133240
738.974	0.0133274
739.052	0.0131671
739.130	0.0130471
739.208	0.0130293
739.286	0.0131298
739.364	0.0128342
739.443	0.0126949
739.521	0.0128563
739.599	0.0128111
739.677	0.0127895
739.755	0.0126254
739.833	0.0126646
739.911	0.0127048
739.989	0.0127312
740.068	0.0127064
740.146	0.0128725
740.224	0.0131281
740.302	0.0133384
740.380	0.0136066
740.458	0.0137225
740.536	0.0138980
740.614	0.0139875
740.693	0.0141161
740.771	0.0143303
740.849	0.0144686
740.927	0.0146572
741.005	0.0147510
741.083	0.0147659
741.161	0.0147665
741.239	0.0147116
741.318	0.0145404
741.396	0.0145116
741.474	0.0145816
741.552	0.0143317
741.630	0.0141558
741.708	0.0140461
741.786	0.0139330
741.864	0.0138450
741.943	0.0138979
742.021	0.0138469
742.099	0.0138348
742.177	0.0138836
742.255	0.0138667
742.333	0.0138057
742.411	0.0139220
742.489	0.0140573
742.568	0.0141537
742.646	0.0142233
742.724	0.0144286
742.802	0.0145666
742.880	0.0145189
742.958	0.0146124
743.036	0.0144823
743.114	0.0145454
743.193	0.0145589
743.271	0.0143011
743.349	0.0142413
743.427	0.0142078
743.505	0.0140233
743.583	0.0138902
743.661	0.0138181
743.739	0.0136292
743.818	0.0135750
743.896	0.0134365
743.974	0.0133573
744.052	0.0131931
744.130	0.0131971
744.208	0.0131924
744.286	0.0130376
744.364	0.0130787
744.443	0.0131432
744.521	0.0131336
744.599	0.0132560
744.677	0.0131105
744.755	0.0131791
744.833	0.0132927
744.911	0.0134985
744.989	0.0132777
745.068	0.0134069
745.146	0.0133997
745.224	0.0134645
745.302	0.0134250
745.380	0.0134902
745.458	0.0135634
745.536	0.0135551
745.614	0.0136729
745.693	0.0138303
745.771	0.0137018
745.849	0.0137581
745.927	0.0136732
746.005	0.0137478
746.083	0.0136189
746.161	0.0137872
746.239	0.0137799
746.318	0.0137465
746.396	0.0138212
746.474	0.0137997
746.552	0.0137566
746.630	0.0139720
746.708	0.0137823
746.786	0.0137788
746.864	0.0138781
746.943	0.0138776
747.021	0.0138523
747.099	0.0138792
747.177	0.0137323
747.255	0.0138553
747.333	0.0139800
747.411	0.0140724
747.489	0.0139498
747.568	0.0140083
747.646	0.0140323
747.724	0.0141982
747.802	0.0141174
747.880	0.0140166
747.958	0.0141296
748.036	0.0141733
748.114	0.0142564
748.193	0.0142594
748.271	0.0142355
748.349	0.0143823
748.427	0.0142348
748.505	0.0141845
748.583	0.0144785
748.661	0.0143979
748.739	0.0143177
748.818	0.0143578
748.896	0.0143410
748.974	0.0143055
749.052	0.0143024
749.130	0.0142655
749.208	0.0142233
749.286	0.0142811
749.364	0.0140562
749.443	0.0139764
749.521	0.0139637
749.599	0.0138477
749.677	0.0137743
749.755	0.0137185
749.833	0.0137502
749.911	0.0136381
749.989	0.0135640
750.068	0.0135867
750.146	0.0135832
750.224	0.0137016
750.302	0.0136330
750.380	0.0135647
750.458	0.0134988
750.536	0.0136348
750.614	0.0135891
750.693	0.0135631
750.771	0.0135610
750.849	0.0135725
750.927	0.0135752
751.005	0.0138432
751.083	0.0137697
751.161	0.0137487
751.239	0.0137227
751.318	0.0137344
751.396	0.0138090
751.474	0.0137555
751.552	0.0135901
751.630	0.0136454
751.708	0.0134152
751.786	0.0134321
751.864	0.0135403
751.943	0.0132511
752.021	0.0132996
752.099	0.0132433
752.177	0.0130136
752.255	0.0130871
752.333	0.0130896
752.411	0.0129865
752.489	0.0130048
752.568	0.0129897
752.646	0.0130159
752.724	0.0131267
752.802	0.0129386
752.880	0.0128677
752.958	0.0130016
753.036	0.0130306
753.114	0.0131850
753.193	0.0132784
753.271	0.0132822
753.349	0.0135766
753.427	0.0136663
753.505	0.0137515
753.583	0.0140282
753.661	0.0141138
753.739	0.0141708
753.818	0.0143008
753.896	0.0144899
753.974	0.0144493
754.052	0.0144743
754.130	0.0146576
754.208	0.0146356
754.286	0.0145430
754.364	0.0145823
754.443	0.0145906
754.521	0.0146752
754.599	0.0145721
754.677	0.0145694
754.755	0.0144003
754.833	0.0143763
754.911	0.0143435
754.989	0.0143488
755.068	0.0143050
755.146	0.0142161
755.224	0.0141247
755.302	0.0139979
755.380	0.0140260
755.458	0.0138657
755.536	0.0137702
755.614	0.0138046
755.693	0.0136706
755.771	0.0136302
755.849	0.0136671
755.927	0.0134356
756.005	0.0133715
756.083	0.0135027
756.161	0.0134859
756.239	0.0132854
756.318	0.0133830
756.396	0.0133356
756.474	0.0133564
756.552	0.0134453
756.630	0.0133914
756.708	0.0133219
756.786	0.0132959
756.864	0.0132224
756.943	0.0131906
757.021	0.0132124
757.099	0.0133147
757.177	0.0132427
757.255	0.0131336
757.333	0.0131318
757.411	0.0131006
757.489	0.0130826
757.568	0.0131618
757.646	0.0130559
757.724	0.0130997
757.802	0.0133051
757.880	0.0133446
757.958	0.0132594
758.036	0.0133175
758.114	0.0135928
758.193	0.0136763
758.271	0.0137712
758.349	0.0138490
758.427	0.0138655
758.505	0.0140054
758.583	0.0140464
758.661	0.0142947
758.739	0.0141597
758.818	0.0141866
758.896	0.0144448
758.974	0.0143520
759.052	0.0144361
759.130	0.0144546
759.208	0.0142924
759.286	0.0143984
759.364	0.0145253
759.443	0.0143288
759.521	0.0144136
759.599	0.0143992
759.677	0.0144647
759.755	0.0143481
759.833	0.0143792
759.911	0.0142596
759.989	0.0143570
760.068	0.0142783
760.146	0.0142728
760.224	0.0141229
760.302	0.0142127
760.380	0.0142139
760.458	0.0140049
760.536	0.0138851
760.614	0.0140347
760.693	0.0138773
760.771	0.0137907
760.849	0.0136810
760.927	0.0135015
761.005	0.0133833
761.083	0.0132996
761.161	0.0132093
761.239	0.0132111
761.318	0.0131461
761.396	0.0131961
761.474	0.0130832
761.552	0.0131831
761.630	0.0131473
761.708	0.0132140
761.786	0.0130345
761.864	0.0132926
761.943	0.0132732
762.021	0.0132684
762.099	0.0134090
762.177	0.0135279
762.255	0.0136565
762.333	0.0135831
762.411	0.0136388
762.489	0.0137688
762.568	0.0138199
762.646	0.0137527
762.724	0.0138334
762.802	0.0139630
762.880	0.0139371
762.958	0.0141295
763.036	0.0140151
763.114	0.0140948
763.193	0.0140186
763.271	0.0139009
763.349	0.0141322
763.427	0.0140156
763.505	0.0138807
763.583	0.0138739
763.661	0.0138447
763.739	0.0140823
763.818	0.0140911
763.896	0.0140031
763.974	0.0138882
764.052	0.0138275
764.130	0.0137793
764.208	0.0139263
764.286	0.0139143
764.364	0.0138145
764.443	0.0138200
764.521	0.0137598
764.599	0.0136835
764.677	0.0137021
764.755	0.0135447
764.833	0.0134698
764.911	0.0136703
764.989	0.0136980
765.068	0.0134709
765.146	0.0135482
765.224	0.0135593
765.302	0.0134826
765.380	0.0133025
765.458	0.0132893
765.536	0.0134227
765.614	0.0133884
765.693	0.0133484
765.771	0.0133810
765.849	0.0133880
765.927	0.0133922
766.005	0.0133180
766.083	0.0133790
766.161	0.0134947
766.239	0.0134651
766.318	0.0135711
766.396	0.0136644
766.474	0.0136657
766.552	0.0138329
766.630	0.0139108
766.708	0.0138546
766.786	0.0138860
766.864	0.0139812
766.943	0.0140257
767.021	0.0138856
767.099	0.0140122
767.177	0.0140788
767.255	0.0139003
767.333	0.0140008
767.411	0.0138836
767.489	0.0140392
767.568	0.0139735
767.646	0.0140793
767.724	0.0141929
767.802	0.0142617
767.880	0.0141666
767.958	0.0141181
768.036	0.0143415
768.114	0.0144386
768.193	0.0142049
768.271	0.0142652
768.349	0.0142883
768.427	0.0141422
768.505	0.0141729
768.583	0.0141751
768.661	0.0140902
768.739	0.0140862
768.818	0.0140773
768.896	0.0140294
768.974	0.0137543
769.052	0.0138107
769.130	0.0137206
769.208	0.0136077
769.286	0.0135546
769.364	0.0135045
769.443	0.0134149
769.521	0.0133328
769.599	0.0133428
769.677	0.0131483
769.755	0.0131631
769.833	0.0130362
769.911	0.0130865
769.989	0.0130421
770.068	0.0132230
770.146	0.0130933
770.224	0.0129690
770.302	0.0129573
770.380	0.0131345
770.458	0.0131362
770.536	0.0131252
770.614	0.0131903
770.693	0.0132774
770.771	0.0132577
770.849	0.0133929
770.927	0.0135008
771.005	0.0135812
771.083	0.0136502
771.161	0.0137569
771.239	0.0139822
771.318	0.0139362
771.396	0.0140498
771.474	0.0140805
771.552	0.0141774
771.630	0.0142906
771.708	0.0141085
771.786	0.0141702
771.864	0.0142881
771.943	0.0142573
772.021	0.0143401
772.099	0.0143340
772.177	0.0142412
772.255	0.0140852
772.333	0.0142314
772.411	0.0141473
772.489	0.0140859
772.568	0.0140938
772.646	0.0139851
772.724	0.0140209
772.802	0.0139159
772.880	0.0137321
772.958	0.0138565
773.036	0.0137524
773.114	0.0137105
773.193	0.0135928
773.271	0.0136897
773.349	0.0135686
773.427	0.0135601
773.505	0.0136095
773.583	0.0135641
773.661	0.0136076
773.739	0.0135116
773.818	0.0136587
773.896	0.0136375
773.974	0.0135727
774.052	0.0135254
774.130	0.0136243
774.208	0.0134391
774.286	0.0133927
774.364	0.0135738
774.443	0.0134776
774.521	0.0134008
774.599	0.0133499
774.677	0.0134113
774.755	0.0134737
774.833	0.0133997
774.911	0.0134172
774.989	0.0135532
775.068	0.0135770
775.146	0.0135445
775.224	0.0136452
775.302	0.0135371
775.380	0.0136418
775.458	0.0135873
775.536	0.0136030
775.614	0.0136771
775.693	0.0137203
775.771	0.0136591
775.849	0.0137178
775.927	0.0137923
776.005	0.0138734
776.083	0.0139536
776.161	0.0139456
776.239	0.0139755
776.318	0.0139226
776.396	0.0139484
776.474	0.0140842
776.552	0.0141100
776.630	0.0141833
776.708	0.0141835
776.786	0.0140701
776.864	0.0141559
776.943	0.0142613
777.021	0.0142047
777.099	0.0141556
777.177	0.0143304
777.255	0.0141376
777.333	0.0142906
777.411	0.0142381
777.489	0.0141190
777.568	0.0142264
777.646	0.0142403
777.724	0.0142335
777.802	0.0141679
777.880	0.0140273
777.958	0.0140101
778.036	0.0139115
778.114	0.0141369
778.193	0.0140452
778.271	0.0138854
778.349	0.0137708
778.427	0.0138032
778.505	0.0136329
778.583	0.0135875
778.661	0.0134091
778.739	0.0133125
778.818	0.0133392
778.896	0.0132162
778.974	0.0131644
779.052	0.0130192
779.130	0.0129385
779.208	0.0130556
779.286	0.0130250
779.364	0.0129436
779.443	0.0129405
779.521	0.0128467
779.599	0.0128587
779.677	0.0130755
779.755	0.0133178
779.833	0.0133276
779.911	0.0134306
779.989	0.0135276
780.068	0.0134964
780.146	0.0136934
780.224	0.0140044
780.302	0.0140031
780.380	0.0140033
780.458	0.0142803
780.536	0.0142903
780.614	0.0144414
780.693	0.0146624
780.771	0.0146380
780.849	0.0147496
780.927	0.0146194
781.005	0.0149092
781.083	0.0148151
781.161	0.0146844
781.239	0.0147166
781.318	0.0146786
781.396	0.0145528
781.474	0.0145892
781.552	0.0146492
781.630	0.0144202
781.708	0.0143900
781.786	0.0142999
781.864	0.0142350
781.943	0.0141817
782.021	0.0140417
782.099	0.0139156
782.177	0.0139433
782.255	0.0139353
782.333	0.0138502
782.411	0.0136494
782.489	0.0136594
782.568	0.0134996
782.646	0.0134087
782.724	0.0131942
782.802	0.0132015
782.880	0.0132256
782.958	0.0131965
783.036	0.0131427
783.114	0.0131345
783.193	0.0131120
783.271	0.0129772
783.349	0.0130064
783.427	0.0130866
783.505	0.0130386
783.583	0.0131751
783.661	0.0132157
783.739	0.0132303
783.818	0.0133801
783.896	0.0134221
783.974	0.0135181
784.052	0.0137471
784.130	0.0138787
784.208	0.0139203
784.286	0.0140913
784.364	0.0142155
784.443	0.0142022
784.521	0.0143981
784.599	0.0145435
784.677	0.0143733
784.755	0.0144357
784.833	0.0145800
784.911	0.0143770
784.989	0.0146305
785.068	0.0146076
785.146	0.0144470
785.224	0.0145856
785.302	0.0144103
785.380	0.0145276
785.458	0.0143893
785.536	0.0142477
785.614	0.0141586
785.693	0.0140419
785.771	0.0140232
785.849	0.0138379
785.927	0.0138458
786.005	0.0135516
786.083	0.0135979
786.161	0.0136826
786.239	0.0136231
786.318	0.0134708
786.396	0.0135471
786.474	0.0134352
786.552	0.0133928
786.630	0.0133415
786.708	0.0133556
786.786	0.0133037
786.864	0.0134592
786.943	0.0133474
787.021	0.0132434
787.099	0.0134388
787.177	0.0134831
787.255	0.0132960
787.333	0.0134162
787.411	0.0134098
787.489	0.0133539
787.568	0.0132874
787.646	0.0132548
787.724	0.0133193
787.802	0.0133392
787.880	0.0134422
787.958	0.0133710
788.036	0.0133870
788.114	0.0135024
788.193	0.0133945
788.271	0.0136015
788.349	0.0135983
788.427	0.0136735
788.505	0.0136732
788.583	0.0137910
788.661	0.0139287
788.739	0.0139274
788.818	0.0138689
788.896	0.0139492
788.974	0.0141097
789.052	0.0140416
789.130	0.0140592
789.208	0.0140377
789.286	0.0141101
789.364	0.0140339
789.443	0.0140382
789.521	0.0140189
789.599	0.0140213
789.677	0.0138847
789.755	0.0138622
789.833	0.0137495
789.911	0.0139080
789.989	0.0138564
790.068	0.0138603
790.146	0.0137337
790.224	0.0137486
790.302	0.0137341
790.380	0.0138238
790.458	0.0137403
790.536	0.0137345
790.614	0.0138242
790.693	0.0138973
790.771	0.0139783
790.849	0.0140273
790.927	0.0139306
791.005	0.0138977
791.083	0.0140948
791.161	0.0138804
791.239	0.0138295
791.318	0.0138053
791.396	0.0138864
791.474	0.0138406
791.552	0.0137658
791.630	0.0137585
791.708	0.0136353
791.786	0.0136649
791.864	0.0135155
791.943	0.0134147
792.021	0.0134187
792.099	0.0133640
792.177	0.0134731
792.255	0.0132028
792.333	0.0132220
792.411	0.0132436
792.489	0.0133402
792.568	0.0132747
792.646	0.0132699
792.724	0.0133345
792.802	0.0134318
792.880	0.0134080
792.958	0.0133315
793.036	0.0135122
793.114	0.0136100
793.193	0.0137010
793.271	0.0137811
793.349	0.0138893
793.427	0.0138351
793.505	0.0139321
793.583	0.0139659
793.661	0.0140137
793.739	0.0141349
793.818	0.0140577
793.896	0.0139091
793.974	0.0140700
794.052	0.0140957
794.130	0.0141061
794.208	0.0140150
794.286	0.0140636
794.364	0.0138882
794.443	0.0139581
794.521	0.0138259
794.599	0.0139341
794.677	0.0137939
794.755	0.0138206
794.833	0.0136721
794.911	0.0138200
794.989	0.0138609
795.068	0.0137703
795.146	0.0136905
795.224	0.0135545
795.302	0.0136981
795.380	0.0137270
795.458	0.0134956
795.536	0.0134681
795.614	0.0134970
795.693	0.0136198
795.771	0.0136425
795.849	0.0135932
795.927	0.0135454
796.005	0.0135104
796.083	0.0135377
796.161	0.0136862
796.239	0.0137820
796.318	0.0137816
796.396	0.0137451
796.474	0.0135604
796.552	0.0137961
796.630	0.0138881
796.708	0.0137801
796.786	0.0137341
796.864	0.0138577
796.943	0.0138786
797.021	0.0138049
797.099	0.0139033
797.177	0.0139224
797.255	0.0137796
797.333	0.0139067
797.411	0.0138189
797.489	0.0138494
797.568	0.0139223
797.646	0.0138393
797.724	0.0137705
797.802	0.0138390
797.880	0.0136948
797.958	0.0137209
798.036	0.0138892
798.114	0.0138254
798.193	0.0137373
798.271	0.0138558
798.349	0.0138142
798.427	0.0138650
798.505	0.0136626
798.583	0.0136002
798.661	0.0137949
798.739	0.0138534
798.818	0.0137460
798.896	0.0137212
798.974	0.0136797
799.052	0.0136269
799.130	0.0138161
799.208	0.0138300
799.286	0.0136715
799.364	0.0136679
799.443	0.0138470
799.521	0.0137672
799.599	0.0135889
799.677	0.0137012
799.755	0.0136885
799.833	0.0136612
799.911	0.0137412
799.989	0.0137050
800.068	0.0137223
800.146	0.0135038
800.224	0.0134842
800.302	0.0136530
800.380	0.0137305
800.458	0.0136588
800.536	0.0137323
800.614	0.0136191
800.693	0.0137771
800.771	0.0137500
800.849	0.0137274
800.927	0.0138349
801.005	0.0138174
801.083	0.0138459
801.161	0.0140130
801.239	0.0139815
801.318	0.0140730
801.396	0.0142142
801.474	0.0142148
801.552	0.0141834
801.630	0.0144189
801.708	0.0143797
801.786	0.0143942
801.864	0.0141830
801.943	0.0141772
802.021	0.0142490
802.099	0.0142361
802.177	0.0141427
802.255	0.0139020
802.333	0.0139419
802.411	0.0137859
802.489	0.0138277
802.568	0.0137617
802.646	0.0137892
802.724	0.0136510
802.802	0.0135795
802.880	0.0135224
802.958	0.0137531
803.036	0.0137477
803.114	0.0134827
803.193	0.0134286
803.271	0.0136745
803.349	0.0136713
803.427	0.0136965
803.505	0.0137440
803.583	0.0137130
803.661	0.0137572
803.739	0.0136747
803.818	0.0136871
803.896	0.0138258
803.974	0.0138468
804.052	0.0138911
804.130	0.0138734
804.208	0.0140253
804.286	0.0140449
804.364	0.0139175
804.443	0.0139374
804.521	0.0140271
804.599	0.0139223
804.677	0.0139282
804.755	0.0139140
804.833	0.0138081
804.911	0.0137875
804.989	0.0138274
805.068	0.0136454
805.146	0.0137331
805.224	0.0137312
805.302	0.0136889
805.380	0.0135988
805.458	0.0136263
805.536	0.0135641
805.614	0.0134558
805.693	0.0135167
805.771	0.0136086
805.849	0.0134864
805.927	0.0135907
806.005	0.0134264
806.083	0.0135410
806.161	0.0136750
806.239	0.0136356
806.318	0.0135401
806.396	0.0136876
806.474	0.0136588
806.552	0.0137969
806.630	0.0138046
806.708	0.0137534
806.786	0.0139335
806.864	0.0137649
806.943	0.0138497
807.021	0.0138900
807.099	0.0138097
807.177	0.0138344
807.255	0.0138089
807.333	0.0136924
807.411	0.0138173
807.489	0.0137972
807.568	0.0137476
807.646	0.0137905
807.724	0.0139350
807.802	0.0138961
807.880	0.0137357
807.958	0.0137550
808.036	0.0137728
808.114	0.0138599
808.193	0.0138823
808.271	0.0141003
808.349	0.0139051
808.427	0.0138064
808.505	0.0140021
808.583	0.0139666
808.661	0.0139867
808.739	0.0139911
808.818	0.0140106
808.896	0.0139572
808.974	0.0138768
809.052	0.0138042
809.130	0.0136560
809.208	0.0137133
809.286	0.0137273
809.364	0.0136433
809.443	0.0136717
809.521	0.0136701
809.599	0.0137151
809.677	0.0134205
809.755	0.0134812
809.833	0.0134360
809.911	0.0134654
809.989	0.0134506
810.068	0.0134941
810.146	0.0135625
810.224	0.0133954
810.302	0.0134890
810.380	0.0134790
810.458	0.0133560
810.536	0.0134566
810.614	0.0133724
810.693	0.0133910
810.771	0.0134431
810.849	0.0133653
810.927	0.0133939
811.005	0.0133500
811.083	0.0133966
811.161	0.0133385
811.239	0.0134728
811.318	0.0132671
811.396	0.0133403
811.474	0.0134264
811.552	0.0135671
811.630	0.0134660
811.708	0.0135218
811.786	0.0136578
811.864	0.0134631
811.943	0.0134840
812.021	0.0135785
812.099	0.0138211
812.177	0.0138271
812.255	0.0138561
812.333	0.0138829
812.411	0.0138927
812.489	0.0138853
812.568	0.0139516
812.646	0.0140784
812.724	0.0142271
812.802	0.0141355
812.880	0.0143047
812.958	0.0144088
813.036	0.0145296
813.114	0.0144437
813.193	0.0144452
813.271	0.0143483
813.349	0.0143889
813.427	0.0143994
813.505	0.0143801
813.583	0.0143005
813.661	0.0142418
813.739	0.0141597
813.818	0.0140788
813.896	0.0140498
813.974	0.0139112
814.052	0.0138284
814.130	0.0138385
814.208	0.0137348
814.286	0.0136156
814.364	0.0136325
814.443	0.0135789
814.521	0.0133157
814.599	0.0134396
814.677	0.0133195
814.755	0.0133226
814.833	0.0131804
814.911	0.0132742
814.989	0.0131660
815.068	0.0133018
815.146	0.0132570
815.224	0.0132114
815.302	0.0132620
815.380	0.0132145
815.458	0.0131940
815.536	0.0133070
815.614	0.0134204
815.693	0.0132460
815.771	0.0133173
815.849	0.0135030
815.927	0.0133613
816.005	0.0134741
816.083	0.0135296
816.161	0.0135789
816.239	0.0136007
816.318	0.0136665
816.396	0.0137140
816.474	0.0137949
816.552	0.0137724
816.630	0.0138445
816.708	0.0138483
816.786	0.0139996
816.864	0.0139465
816.943	0.0138556
817.021	0.0139586
817.099	0.0139723
817.177	0.0140108
817.255	0.0141523
817.333	0.0141640
817.411	0.0138835
817.489	0.0140257
817.568	0.0140565
817.646	0.0140668
817.724	0.0140906
817.802	0.0139786
817.880	0.0139948
817.958	0.0137733
818.036	0.0138335
818.114	0.0138650
818.193	0.0138398
818.271	0.0138435
818.349	0.0137255
818.427	0.0137878
818.505	0.0137826
818.583	0.0138696
818.661	0.0138617
818.739	0.0138375
818.818	0.0138328
818.896	0.0138567
818.974	0.0139533
819.052	0.0138339
819.130	0.0138648
819.208	0.0138809
819.286	0.0139421
819.364	0.0139024
819.443	0.0137473
819.521	0.0138098
819.599	0.0137705
819.677	0.0138252
819.755	0.0137581
819.833	0.0136725
819.911	0.0137348
819.989	0.0136524
820.068	0.0136638
820.146	0.0135194
820.224	0.0135142
820.302	0.0134102
820.380	0.0135085
820.458	0.0134057
820.536	0.0133956
820.614	0.0134077
820.693	0.0134518
820.771	0.0135023
820.849	0.0134111
820.927	0.0135828
821.005	0.0136406
821.083	0.0135521
821.161	0.0137063
821.239	0.0136942
821.318	0.0136859
821.396	0.0138490
821.474	0.0138852
821.552	0.0140249
821.630	0.0141036
821.708	0.0139219
821.786	0.0140201
821.864	0.0140001
821.943	0.0140070
822.021	0.0140858
822.099	0.0139175
822.177	0.0138791
822.255	0.0139165
822.333	0.0139101
822.411	0.0139565
822.489	0.0139583
822.568	0.0138557
822.646	0.0137913
822.724	0.0137852
822.802	0.0136864
822.880	0.0137894
822.958	0.0137423
823.036	0.0136316
823.114	0.0137708
823.193	0.0137890
823.271	0.0136906
823.349	0.0137830
823.427	0.0137191
823.505	0.0136964
823.583	0.0137432
823.661	0.0138282
823.739	0.0138162
823.818	0.0138726
823.896	0.0138428
823.974	0.0138884
824.052	0.0138891
824.130	0.0140157
824.208	0.0139954
824.286	0.0140091
824.364	0.0140125
824.443	0.0139690
824.521	0.0140284
824.599	0.0139927
824.677	0.0139412
824.755	0.0139185
824.833	0.0141143
824.911	0.0138934
824.989	0.0140353
825.068	0.0140457
825.146	0.0140276
825.224	0.0140064
825.302	0.0138769
825.380	0.0138653
825.458	0.0140434
825.536	0.0138764
825.614	0.0139539
825.693	0.0138647
825.771	0.0139349
825.849	0.0138577
825.927	0.0138802
826.005	0.0138154
826.083	0.0138867
826.161	0.0138073
826.239	0.0136925
826.318	0.0135068
826.396	0.0134789
826.474	0.0135486
826.552	0.0134770
826.630	0.0137428
826.708	0.0135845
826.786	0.0135432
826.864	0.0133374
826.943	0.0136159
827.021	0.0133958
827.099	0.0134370
827.177	0.0134364
827.255	0.0134656
827.333	0.0134447
827.411	0.0134496
827.489	0.0134721
827.568	0.0135612
827.646	0.0135054
827.724	0.0136322
827.802	0.0134764
827.880	0.0135931
827.958	0.0135796
828.036	0.0136623
828.114	0.0137137
828.193	0.0138655
828.271	0.0138646
828.349	0.0137911
828.427	0.0138127
828.505	0.0138552
828.583	0.0139091
828.661	0.0138048
828.739	0.0138786
828.818	0.0139342
828.896	0.0138931
828.974	0.0137114
829.052	0.0137587
829.130	0.0138353
829.208	0.0140009
829.286	0.0137491
829.364	0.0137671
829.443	0.0135834
829.521	0.0137280
829.599	0.0137442
829.677	0.0138128
829.755	0.0136430
829.833	0.0137331
829.911	0.0137289
829.989	0.0137523
830.068	0.0137926
830.146	0.0137088
830.224	0.0137986
830.302	0.0137908
830.380	0.0137086
830.458	0.0138649
830.536	0.0137154
830.614	0.0139479
830.693	0.0137083
830.771	0.0137790
830.849	0.0137732
830.927	0.0137179
831.005	0.0136711
831.083	0.0136423
831.161	0.0136746
831.239	0.0135255
831.318	0.0136444
831.396	0.0135187
831.474	0.0134521
831.552	0.0135588
831.630	0.0136325
831.708	0.0135882
831.786	0.0134797
831.864	0.0135532
831.943	0.0136304
832.021	0.0136869
832.099	0.0136795
832.177	0.0137463
832.255	0.0137115
832.333	0.0136098
832.411	0.0138435
832.489	0.0137446
832.568	0.0136753
832.646	0.0137038
832.724	0.0137009
832.802	0.0137125
832.880	0.0137742
832.958	0.0136889
833.036	0.0137196
833.114	0.0136506
833.193	0.0136430
833.271	0.0135525
833.349	0.0136504
833.427	0.0134518
833.505	0.0136957
833.583	0.0134384
833.661	0.0137222
833.739	0.0134808
833.818	0.0136171
833.896	0.0136449
833.974	0.0136531
834.052	0.0136923
834.130	0.0136962
834.208	0.0136784
834.286	0.0138510
834.364	0.0139079
834.443	0.0138585
834.521	0.0138471
834.599	0.0140295
834.677	0.0139409
834.755	0.0139687
834.833	0.0140343
834.911	0.0139191
834.989	0.0138784
835.068	0.0139104
835.146	0.0139068
835.224	0.0139915
835.302	0.0138830
835.380	0.0138444
835.458	0.0137125
835.536	0.0137057
835.614	0.0135247
835.693	0.0136355
835.771	0.0135996
835.849	0.0134608
835.927	0.0135148
836.005	0.0134000
836.083	0.0133790
836.161	0.0133033
836.239	0.0132971
836.318	0.0133154
836.396	0.0133051
836.474	0.0132243
836.552	0.0131509
836.630	0.0133295
836.708	0.0133278
836.786	0.0134948
836.864	0.0135670
836.943	0.0134585
837.021	0.0135643
837.099	0.0136050
837.177	0.0136988
837.255	0.0136714
837.333	0.0139462
837.411	0.0137022
837.489	0.0138499
837.568	0.0138869
837.646	0.0138840
837.724	0.0139288
837.802	0.0139068
837.880	0.0140995
837.958	0.0138604
838.036	0.0138650
838.114	0.0139441
838.193	0.0138678
838.271	0.0140111
838.349	0.0139436
838.427	0.0139208
838.505	0.0139020
838.583	0.0138450
838.661	0.0138312
838.739	0.0138689
838.818	0.0138841
838.896	0.0137670
838.974	0.0137180
839.052	0.0137263
839.130	0.0138055
839.208	0.0138704
839.286	0.0137428
839.364	0.0139140
839.443	0.0138000
839.521	0.0137730
839.599	0.0137558
839.677	0.0138306
839.755	0.0137318
839.833	0.0137656
839.911	0.0138825
839.989	0.0138921
840.068	0.0138944
840.146	0.0139186
840.224	0.0139122
840.302	0.0138585
840.380	0.0136881
840.458	0.0136613
840.536	0.0136468
840.614	0.0137000
840.693	0.0136317
840.771	0.0135691
840.849	0.0135210
840.927	0.0135506
841.005	0.0134263
841.083	0.0134153
841.161	0.0135042
841.239	0.0135581
841.318	0.0134650
841.396	0.0133190
841.474	0.0134380
841.552	0.0133815
841.630	0.0135699
841.708	0.0135520
841.786	0.0135126
841.864	0.0135910
841.943	0.0136379
842.021	0.0136279
842.099	0.0136993
842.177	0.0136721
842.255	0.0136123
842.333	0.0137757
842.411	0.0138573
842.489	0.0135755
842.568	0.0136871
842.646	0.0137866
842.724	0.0137828
842.802	0.0138168
842.880	0.0138457
842.958	0.0136607
843.036	0.0138998
843.114	0.0139950
843.193	0.0141119
843.271	0.0139568
843.349	0.0139091
843.427	0.0140526
843.505	0.0141573
843.583	0.0142605
843.661	0.0141534
843.739	0.0141644
843.818	0.0141297
843.896	0.0141056
843.974	0.0141983
844.052	0.0141345
844.130	0.0141550
844.208	0.0141418
844.286	0.0141396
844.364	0.0141390
844.443	0.0140787
844.521	0.0138911
844.599	0.0140693
844.677	0.0139287
844.755	0.0138920
844.833	0.0138716
844.911	0.0137858
844.989	0.0137595
845.068	0.0137440
845.146	0.0137984
845.224	0.0139201
845.302	0.0138280
845.380	0.0137185
845.458	0.0137830
845.536	0.0137802
845.614	0.0138273
845.693	0.0138351
845.771	0.0139140
845.849	0.0139978
845.927	0.0138271
846.005	0.0136832
846.083	0.0138486
846.161	0.0138582
846.239	0.0138490
846.318	0.0138277
846.396	0.0137537
846.474	0.0139290
846.552	0.0136558
846.630	0.0137959
846.708	0.0137942
846.786	0.0138469
846.864	0.0137473
846.943	0.0138731
847.021	0.0139420
847.099	0.0137778
847.177	0.0136237
847.255	0.0138458
847.333	0.0138973
847.411	0.0139310
847.489	0.0137811
847.568	0.0138282
847.646	0.0139484
847.724	0.0138378
847.802	0.0138870
847.880	0.0138908
847.958	0.0137736
848.036	0.0139714
848.114	0.0137962
848.193	0.0138922
848.271	0.0139806
848.349	0.0139588
848.427	0.0138139
848.505	0.0138846
848.583	0.0138950
848.661	0.0140170
848.739	0.0140623
848.818	0.0139460
848.896	0.0139753
848.974	0.0139007
849.052	0.0141862
849.130	0.0140269
849.208	0.0141432
849.286	0.0139855
849.364	0.0139227
849.443	0.0140129
849.521	0.0140559
849.599	0.0141302
849.677	0.0140467
849.755	0.0139881
849.833	0.0139481
849.911	0.0139317
849.989	0.0138390
850.068	0.0138582
850.146	0.0139143
850.224	0.0138253
850.302	0.0137947
850.380	0.0137653
850.458	0.0138033
850.536	0.0139317
850.614	0.0137899
850.693	0.0138862
850.771	0.0137755
850.849	0.0137936
850.927	0.0136695
851.005	0.0137533
851.083	0.0136763
851.161	0.0135606
851.239	0.0135970
851.318	0.0136227
851.396	0.0135852
851.474	0.0134598
851.552	0.0136539
851.630	0.0135737
851.708	0.0136252
851.786	0.0135999
851.864	0.0135382
851.943	0.0133919
852.021	0.0135754
852.099	0.0135852
852.177	0.0135447
852.255	0.0134538
852.333	0.0137657
852.411	0.0135980
852.489	0.0134909
852.568	0.0136582
852.646	0.0135915
852.724	0.0136594
852.802	0.0135275
852.880	0.0135779
852.958	0.0136671
853.036	0.0136411
853.114	0.0135226
853.193	0.0136306
853.271	0.0135161
853.349	0.0134772
853.427	0.0136819
853.505	0.0135611
853.583	0.0134367
853.661	0.0135826
853.739	0.0134734
853.818	0.0136395
853.896	0.0136958
853.974	0.0134827
854.052	0.0134806
854.130	0.0133932
854.208	0.0135602
854.286	0.0135343
854.364	0.0134712
854.443	0.0135400
854.521	0.0135706
854.599	0.0135691
854.677	0.0136992
854.755	0.0136604
854.833	0.0137047
854.911	0.0138259
854.989	0.0137368
855.068	0.0138786
855.146	0.0137886
855.224	0.0137903
855.302	0.0139647
855.380	0.0140247
855.458	0.0138047
855.536	0.0139214
855.614	0.0139760
855.693	0.0138210
855.771	0.0138669
855.849	0.0140586
855.927	0.0138853
856.005	0.0139916
856.083	0.0139225
856.161	0.0138962
856.239	0.0138923
856.318	0.0138366
856.396	0.0137093
856.474	0.0136983
856.552	0.0137397
856.630	0.0137738
856.708	0.0135756
856.786	0.0136629
856.864	0.0136709
856.943	0.0134910
857.021	0.0134286
857.099	0.0134550
857.177	0.0134260
857.255	0.0134495
857.333	0.0133707
857.411	0.0134231
857.489	0.0135506
857.568	0.0134605
857.646	0.0134306
857.724	0.0134180
857.802	0.0134979
857.880	0.0136242
857.958	0.0136219
858.036	0.0135761
858.114	0.0136330
858.193	0.0137057
858.271	0.0136684
858.349	0.0137273
858.427	0.0137408
858.505	0.0139330
858.583	0.0136684
858.661	0.0137852
858.739	0.0136743
858.818	0.0136380
858.896	0.0137579
858.974	0.0137122
859.052	0.0137913
859.130	0.0138421
859.208	0.0137105
859.286	0.0137651
859.364	0.0137574
859.443	0.0137239
859.521	0.0137475
859.599	0.0136905
859.677	0.0137363
859.755	0.0138354
859.833	0.0139198
859.911	0.0139207
859.989	0.0138487
860.068	0.0137129
860.146	0.0139486
860.224	0.0138853
860.302	0.0140134
860.380	0.0138702
860.458	0.0138824
860.536	0.0139019
860.614	0.0139451
860.693	0.0139950
860.771	0.0139014
860.849	0.0138558
860.927	0.0139116
861.005	0.0138528
861.083	0.0139309
861.161	0.0137966
861.239	0.0136253
861.318	0.0136892
861.396	0.0135481
861.474	0.0136309
861.552	0.0135565
861.630	0.0136651
861.708	0.0134821
861.786	0.0135372
861.864	0.0134840
861.943	0.0135186
862.021	0.0135362
862.099	0.0135799
862.177	0.0134990
862.255	0.0135763
862.333	0.0134708
862.411	0.0135696
862.489	0.0136145
862.568	0.0135714
862.646	0.0135747
862.724	0.0136012
862.802	0.0135979
862.880	0.0136538
862.958	0.0137796
863.036	0.0137178
863.114	0.0136737
863.193	0.0136366
863.271	0.0135783
863.349	0.0136684
863.427	0.0137415
863.505	0.0137572
863.583	0.0136719
863.661	0.0136739
863.739	0.0137840
863.818	0.0137682
863.896	0.0137738
863.974	0.0137630
864.052	0.0137888
864.130	0.0136537
864.208	0.0139388
864.286	0.0138488
864.364	0.0137706
864.443	0.0136854
864.521	0.0138669
864.599	0.0137390
864.677	0.0138061
864.755	0.0138350
864.833	0.0138878
864.911	0.0138692
864.989	0.0139159
865.068	0.0138424
865.146	0.0139339
865.224	0.0138702
865.302	0.0137361
865.380	0.0137332
865.458	0.0137131
865.536	0.0138556
865.614	0.0138877
865.693	0.0136902
865.771	0.0139058
865.849	0.0137856
865.927	0.0137168
866.005	0.0137837
866.083	0.0138268
866.161	0.0139529
866.239	0.0137091
866.318	0.0136763
866.396	0.0136826
866.474	0.0137046
866.552	0.0137460
866.630	0.0136901
866.708	0.0136146
866.786	0.0136869
866.864	0.0136805
866.943	0.0137442
867.021	0.0137522
867.099	0.0135775
867.177	0.0137242
867.255	0.0136459
867.333	0.0138078
867.411	0.0136498
867.489	0.0135635
867.568	0.0136536
867.646	0.0137176
867.724	0.0136700
867.802	0.0136510
867.880	0.0136064
867.958	0.0137970
868.036	0.0137498
868.114	0.0138444
868.193	0.0137307
868.271	0.0139204
868.349	0.0137086
868.427	0.0137650
868.505	0.0138660
868.583	0.0139430
868.661	0.0140012
868.739	0.0139716
868.818	0.0140597
868.896	0.0138618
868.974	0.0138754
869.052	0.0139366
869.130	0.0140222
869.208	0.0141471
869.286	0.0140910
869.364	0.0140878
869.443	0.0140636
869.521	0.0141221
869.599	0.0138670
869.677	0.0139742
869.755	0.0139732
869.833	0.0138028
869.911	0.0138937
869.989	0.0138356
870.068	0.0137276
870.146	0.0139145
870.224	0.0137223
870.302	0.0137897
870.380	0.0136407
870.458	0.0135804
870.536	0.0136821
870.614	0.0135989
870.693	0.0135497
870.771	0.0134999
870.849	0.0136291
870.927	0.0135608
871.005	0.0135189
871.083	0.0135001
871.161	0.0135326
871.239	0.0135522
871.318	0.0135835
871.396	0.0136382
871.474	0.0138228
871.552	0.0137128
871.630	0.0137376
871.708	0.0138147
871.786	0.0137484
871.864	0.0138040
871.943	0.0139005
872.021	0.0139877
872.099	0.0140733
872.177	0.0139318
872.255	0.0139617
872.333	0.0140227
872.411	0.0140580
872.489	0.0139950
872.568	0.0140161
872.646	0.0142841
872.724	0.0140981
872.802	0.0141076
872.880	0.0139576
872.958	0.0141212
873.036	0.0141241
873.114	0.0140453
873.193	0.0140259
873.271	0.0137928
873.349	0.0138629
873.427	0.0139873
873.505	0.0138763
873.583	0.0137111
873.661	0.0139233
873.739	0.0137813
873.818	0.0136821
873.896	0.0135374
873.974	0.0135629
874.052	0.0135975
874.130	0.0137304
874.208	0.0136131
874.286	0.0135019
874.364	0.0134538
874.443	0.0135626
874.521	0.0135169
874.599	0.0134603
874.677	0.0135328
874.755	0.0136365
874.833	0.0136926
874.911	0.0135879
874.989	0.0136272
875.068	0.0137854
875.146	0.0138286
875.224	0.0136417
875.302	0.0138608
875.380	0.0138723
875.458	0.0140387
875.536	0.0138984
875.614	0.0139912
875.693	0.0140387
875.771	0.0139799
875.849	0.0139805
875.927	0.0138671
876.005	0.0139750
876.083	0.0140620
876.161	0.0141352
876.239	0.0141296
876.318	0.0140250
876.396	0.0140432
876.474	0.0139458
876.552	0.0137870
876.630	0.0139836
876.708	0.0140234
876.786	0.0138112
876.864	0.0137606
876.943	0.0136762
877.021	0.0135954
877.099	0.0136763
877.177	0.0135162
877.255	0.0135526
877.333	0.0136267
877.411	0.0135612
877.489	0.0136385
877.568	0.0135854
877.646	0.0134982
877.724	0.0136030
877.802	0.0135655
877.880	0.0136378
877.958	0.0138470
878.036	0.0136053
878.114	0.0137098
878.193	0.0138704
878.271	0.0139602
878.349	0.0138206
878.427	0.0137376
878.505	0.0139641
878.583	0.0141319
878.661	0.0139700
878.739	0.0140004
878.818	0.0141103
878.896	0.0141342
878.974	0.0141074
879.052	0.0140583
879.130	0.0140570
879.208	0.0141102
879.286	0.0141611
879.364	0.0142437
879.443	0.0141672
879.521	0.0140349
879.599	0.0140467
879.677	0.0140402
879.755	0.0139609
879.833	0.0138513
879.911	0.0138448
879.989	0.0138419
880.068	0.0139684
880.146	0.0138923
880.224	0.0138463
880.302	0.0136956
880.380	0.0136954
880.458	0.0137365
880.536	0.0137607
880.614	0.0138879
880.693	0.0136627
880.771	0.0137659
880.849	0.0138609
880.927	0.0139140
881.005	0.0138058
881.083	0.0137136
881.161	0.0138014
881.239	0.0138048
881.318	0.0138338
881.396	0.0140184
881.474	0.0137394
881.552	0.0138702
881.630	0.0139479
881.708	0.0139355
881.786	0.0139561
881.864	0.0139729
881.943	0.0138785
882.021	0.0138542
882.099	0.0139326
882.177	0.0139351
882.255	0.0139104
882.333	0.0139526
882.411	0.0138295
882.489	0.0137791
882.568	0.0138864
882.646	0.0137601
882.724	0.0137209
882.802	0.0138727
882.880	0.0139092
882.958	0.0139148
883.036	0.0138273
883.114	0.0138519
883.193	0.0137082
883.271	0.0138088
883.349	0.0138805
883.427	0.0138313
883.505	0.0138326
883.583	0.0138674
883.661	0.0139643
883.739	0.0139177
883.818	0.0139523
883.896	0.0138866
883.974	0.0138837
884.052	0.0137769
884.130	0.0137744
884.208	0.0137047
884.286	0.0136633
884.364	0.0136345
884.443	0.0135490
884.521	0.0134648
884.599	0.0135422
884.677	0.0136108
884.755	0.0135587
884.833	0.0135008
884.911	0.0134152
884.989	0.0136018
885.068	0.0136416
885.146	0.0135543
885.224	0.0136951
885.302	0.0137494
885.380	0.0137372
885.458	0.0137704
885.536	0.0137403
885.614	0.0138303
885.693	0.0139456
885.771	0.0138818
885.849	0.0138177
885.927	0.0139305
886.005	0.0140089
886.083	0.0139645
886.161	0.0140881
886.239	0.0140509
886.318	0.0140445
886.396	0.0140732
886.474	0.0139957
886.552	0.0140614
886.630	0.0139881
886.708	0.0138889
886.786	0.0138541
886.864	0.0138319
886.943	0.0137080
887.021	0.0138242
887.099	0.0136955
887.177	0.0137191
887.255	0.0137415
887.333	0.0136813
887.411	0.0137936
887.489	0.0137492
887.568	0.0136468
887.646	0.0135958
887.724	0.0136990
887.802	0.0136411
887.880	0.0137815
887.958	0.0138222
888.036	0.0138643
888.114	0.0138416
888.193	0.0137499
888.271	0.0139259
888.349	0.0139286
888.427	0.0139222
888.505	0.0138665
888.583	0.0138293
888.661	0.0139108
888.739	0.0137968
888.818	0.0136797
888.896	0.0137350
888.974	0.0137496
889.052	0.0136912
889.130	0.0137404
889.208	0.0135102
889.286	0.0135408
889.364	0.0136145
889.443	0.0133971
889.521	0.0135014
889.599	0.0134495
889.677	0.0133302
889.755	0.0133909
889.833	0.0132746
889.911	0.0133121
889.989	0.0135344
890.068	0.0133170
890.146	0.0133203
890.224	0.0133551
890.302	0.0134472
890.380	0.0134645
890.458	0.0133492
890.536	0.0133317
890.614	0.0133562
890.693	0.0134193
890.771	0.0136341
890.849	0.0136235
890.927	0.0136371
891.005	0.0137284
891.083	0.0137756
891.161	0.0137764
891.239	0.0140707
891.318	0.0139404
891.396	0.0138851
891.474	0.0140540
891.552	0.0140647
891.630	0.0140273
891.708	0.0139779
891.786	0.0139382
891.864	0.0139523
891.943	0.0140721
892.021	0.0139249
892.099	0.0139145
892.177	0.0139491
892.255	0.0138630
892.333	0.0139165
892.411	0.0137583
892.489	0.0137506
892.568	0.0136821
892.646	0.0137177
892.724	0.0136576
892.802	0.0137216
892.880	0.0135969
892.958	0.0135013
893.036	0.0136369
893.114	0.0137189
893.193	0.0135462
893.271	0.0136723
893.349	0.0136803
893.427	0.0136642
893.505	0.0137216
893.583	0.0138276
893.661	0.0137316
893.739	0.0140027
893.818	0.0137354
893.896	0.0137363
893.974	0.0140405
894.052	0.0138426
894.130	0.0137964
894.208	0.0138124
894.286	0.0138657
894.364	0.0138454
894.443	0.0137968
894.521	0.0138240
894.599	0.0137228
894.677	0.0136440
894.755	0.0136829
894.833	0.0137743
894.911	0.0136708
894.989	0.0136397
895.068	0.0137739
895.146	0.0136607
895.224	0.0135082
895.302	0.0138203
895.380	0.0136324
895.458	0.0137415
895.536	0.0137540
895.614	0.0136948
895.693	0.0137283
895.771	0.0138485
895.849	0.0140441
895.927	0.0140098
896.005	0.0139946
896.083	0.0139124
896.161	0.0140344
896.239	0.0141138
896.318	0.0140564
896.396	0.0140603
896.474	0.0142463
896.552	0.0141096
896.630	0.0141760
896.708	0.0140359
896.786	0.0141242
896.864	0.0141544
896.943	0.0140495
897.021	0.0139169
897.099	0.0140295
897.177	0.0139276
897.255	0.0139602
897.333	0.0137933
897.411	0.0138716
897.489	0.0139247
897.568	0.0137006
897.646	0.0136900
897.724	0.0137939
897.802	0.0136256
897.880	0.0137701
897.958	0.0136935
898.036	0.0135806
898.114	0.0137515
898.193	0.0137730
898.271	0.0137263
898.349	0.0136966
898.427	0.0136839
898.505	0.0136707
898.583	0.0137300
898.661	0.0138126
898.739	0.0138141
898.818	0.0139575
898.896	0.0137527
898.974	0.0138554
899.052	0.0138336
899.130	0.0139899
899.208	0.0139613
899.286	0.0139294
899.364	0.0138141
899.443	0.0138679
899.521	0.0139268
899.599	0.0138560
899.677	0.0137655
899.755	0.0138772
899.833	0.0138376
899.911	0.0138004
899.989	0.0138187
900.068	0.0137108
900.146	0.0137137
900.224	0.0137048
900.302	0.0137409
900.380	0.0136076
900.458	0.0136501
900.536	0.0135575
900.614	0.0135581
900.693	0.0137296
900.771	0.0135764
900.849	0.0136392
900.927	0.0135702
901.005	0.0137231
901.083	0.0137055
901.161	0.0138780
901.239	0.0139082
901.318	0.0138958
901.396	0.0141230
901.474	0.0141175
901.552	0.0141994
901.630	0.0140753
901.708	0.0141755
901.786	0.0140551
901.864	0.0140941
901.943	0.0140678
902.021	0.0139972
902.099	0.0139965
902.177	0.0140702
902.255	0.0140881
902.333	0.0139530
902.411	0.0140040
902.489	0.0141398
902.568	0.0139999
902.646	0.0138730
902.724	0.0140626
902.802	0.0139462
902.880	0.0138310
902.958	0.0140163
903.036	0.0138822
903.114	0.0138325
903.193	0.0138039
903.271	0.0138859
903.349	0.0139066
903.427	0.0137490
903.505	0.0138792
903.583	0.0139738
903.661	0.0139492
903.739	0.0139333
903.818	0.0138336
903.896	0.0137654
903.974	0.0139369
904.052	0.0138753
904.130	0.0138726
904.208	0.0139091
904.286	0.0139130
904.364	0.0137607
904.443	0.0137799
904.521	0.0138514
904.599	0.0138218
904.677	0.0136964
904.755	0.0138064
904.833	0.0138998
904.911	0.0136462
904.989	0.0137391
905.068	0.0136763
905.146	0.0137450
905.224	0.0136926
905.302	0.0138287
905.380	0.0138391
905.458	0.0136969
905.536	0.0137101
905.614	0.0135661
905.693	0.0136650
905.771	0.0136638
905.849	0.0137157
905.927	0.0137467
906.005	0.0137066
906.083	0.0137852
906.161	0.0136120
906.239	0.0136576
906.318	0.0138236
906.396	0.0137010
906.474	0.0138921
906.552	0.0137642
906.630	0.0138288
906.708	0.0139807
906.786	0.0140002
906.864	0.0137978
906.943	0.0139900
907.021	0.0141383
907.099	0.0139771
907.177	0.0139584
907.255	0.0140410
907.333	0.0140002
907.411	0.0139581
907.489	0.0139572
907.568	0.0139857
907.646	0.0140566
907.724	0.0139576
907.802	0.0140479
907.880	0.0139502
907.958	0.0138639
908.036	0.0139708
908.114	0.0140620
908.193	0.0140093
908.271	0.0141470
908.349	0.0139899
908.427	0.0141239
908.505	0.0139558
908.583	0.0139961
908.661	0.0139763
908.739	0.0139293
908.818	0.0140041
908.896	0.0139187
908.974	0.0138376
909.052	0.0138197
909.130	0.0137607
909.208	0.0138307
909.286	0.0138008
909.364	0.0138914
909.443	0.0137572
909.521	0.0136889
909.599	0.0136934
909.677	0.0136349
909.755	0.0137824
909.833	0.0135939
909.911	0.0137419
909.989	0.0135700
910.068	0.0135278
910.146	0.0135666
910.224	0.0136556
910.302	0.0136729
910.380	0.0136189
910.458	0.0137148
910.536	0.0135493
910.614	0.0136896
910.693	0.0135995
910.771	0.0135882
910.849	0.0135607
910.927	0.0135631
911.005	0.0136263
911.083	0.0137878
911.161	0.0136604
911.239	0.0135694
911.318	0.0136703
911.396	0.0137238
911.474	0.0137513
911.552	0.0138015
911.630	0.0138721
911.708	0.0137482
911.786	0.0138351
911.864	0.0139761
911.943	0.0139573
912.021	0.0138985
912.099	0.0139806
912.177	0.0140543
912.255	0.0140562
912.333	0.0138634
912.411	0.0138243
912.489	0.0139867
912.568	0.0138940
912.646	0.0136404
912.724	0.0136485
912.802	0.0136465
912.880	0.0136520
912.958	0.0136043
913.036	0.0135709
913.114	0.0136035
913.193	0.0135979
913.271	0.0134177
913.349	0.0135971
913.427	0.0135326
913.505	0.0133877
913.583	0.0133983
913.661	0.0133212
913.739	0.0133195
913.818	0.0133245
913.896	0.0134700
913.974	0.0134687
914.052	0.0133591
914.130	0.0134159
914.208	0.0135593
914.286	0.0134784
914.364	0.0135249
914.443	0.0135643
914.521	0.0134576
914.599	0.0137371
914.677	0.0136861
914.755	0.0137410
914.833	0.0135937
914.911	0.0137013
914.989	0.0138157
915.068	0.0136916
915.146	0.0136887
915.224	0.0138852
915.302	0.0137890
915.380	0.0137775
915.458	0.0137705
915.536	0.0137361
915.614	0.0136891
915.693	0.0137129
915.771	0.0136098
915.849	0.0137780
915.927	0.0136878
916.005	0.0136360
916.083	0.0137612
916.161	0.0137690
916.239	0.0137386
916.318	0.0136487
916.396	0.0137323
916.474	0.0137012
916.552	0.0136122
916.630	0.0136391
916.708	0.0135819
916.786	0.0137180
916.864	0.0136044
916.943	0.0135950
917.021	0.0135699
917.099	0.0136335
917.177	0.0134494
917.255	0.0136253
917.333	0.0136439
917.411	0.0135984
917.489	0.0136916
917.568	0.0135533
917.646	0.0135699
917.724	0.0136884
917.802	0.0135652
917.880	0.0137981
917.958	0.0136681
918.036	0.0135583
918.114	0.0135872
918.193	0.0137325
918.271	0.0134297
918.349	0.0134641
918.427	0.0134743
918.505	0.0136060
918.583	0.0135739
918.661	0.0136862
918.739	0.0135592
918.818	0.0134185
918.896	0.0136906
918.974	0.0136567
919.052	0.0136525
919.130	0.0136092
919.208	0.0135525
919.286	0.0135880
919.364	0.0137662
919.443	0.0137691
919.521	0.0136747
919.599	0.0138168
919.677	0.0136959
919.755	0.0136652
919.833	0.0137506
919.911	0.0138187
919.989	0.0138335
920.068	0.0136964
920.146	0.0136509
920.224	0.0137277
920.302	0.0136573
920.380	0.0137375
920.458	0.0138138
920.536	0.0137281
920.614	0.0136845
920.693	0.0137101
920.771	0.0136342
920.849	0.0137354
920.927	0.0136568
921.005	0.0135395
921.083	0.0136187
921.161	0.0135185
921.239	0.0137602
921.318	0.0137193
921.396	0.0135809
921.474	0.0135999
921.552	0.0136755
921.630	0.0135847
921.708	0.0138143
921.786	0.0137112
921.864	0.0137640
921.943	0.0138165
922.021	0.0137728
922.099	0.0137388
922.177	0.0139270
922.255	0.0139257
922.333	0.0138763
922.411	0.0139005
922.489	0.0138128
922.568	0.0138825
922.646	0.0139436
922.724	0.0139614
922.802	0.0138984
922.880	0.0138660
922.958	0.0140267
923.036	0.0136835
923.114	0.0138890
923.193	0.0138880
923.271	0.0138683
923.349	0.0139466
923.427	0.0139014
923.505	0.0139417
923.583	0.0138899
923.661	0.0138506
923.739	0.0137682
923.818	0.0138744
923.896	0.0140187
923.974	0.0139602
924.052	0.0138308
924.130	0.0137174
924.208	0.0137122
924.286	0.0137989
924.364	0.0138299
924.443	0.0138092
924.521	0.0137649
924.599	0.0137643
924.677	0.0137554
924.755	0.0136414
924.833	0.0136852
924.911	0.0135723
924.989	0.0135131
925.068	0.0135083
925.146	0.0137215
925.224	0.0135936
925.302	0.0136313
925.380	0.0134918
925.458	0.0138101
925.536	0.0136865
925.614	0.0137436
925.693	0.0137123
925.771	0.0137794
925.849	0.0138949
925.927	0.0138437
926.005	0.0137637
926.083	0.0137323
926.161	0.0138646
926.239	0.0141149
926.318	0.0141986
926.396	0.0139547
926.474	0.0140180
926.552	0.0140209
926.630	0.0140319
926.708	0.0140098
926.786	0.0140586
926.864	0.0139135
926.943	0.0139497
927.021	0.0140080
927.099	0.0139823
927.177	0.0139061
927.255	0.0140263
927.333	0.0138838
927.411	0.0140776
927.489	0.0140942
927.568	0.0139428
927.646	0.0140175
927.724	0.0139561
927.802	0.0140971
927.880	0.0139196
927.958	0.0140009
928.036	0.0139658
928.114	0.0138474
928.193	0.0139106
928.271	0.0139848
928.349	0.0139633
928.427	0.0139155
928.505	0.0139777
928.583	0.0138974
928.661	0.0138013
928.739	0.0138416
928.818	0.0139066
928.896	0.0137067
928.974	0.0137286
929.052	0.0137173
929.130	0.0137191
929.208	0.0137052
929.286	0.0135882
929.364	0.0137006
929.443	0.0135339
929.521	0.0134584
929.599	0.0135953
929.677	0.0134795
929.755	0.0136638
929.833	0.0136576
929.911	0.0136137
929.989	0.0136124
930.068	0.0137108
930.146	0.0136597
930.224	0.0136513
930.302	0.0136371
930.380	0.0136514
930.458	0.0136372
930.536	0.0137423
930.614	0.0138309
930.693	0.0138662
930.771	0.0139687
930.849	0.0139433
930.927	0.0140137
931.005	0.0139795
931.083	0.0140292
931.161	0.0139938
931.239	0.0140644
931.318	0.0140392
931.396	0.0140141
931.474	0.0140266
931.552	0.0141724
931.630	0.0141299
931.708	0.0140145
931.786	0.0141335
931.864	0.0140737
931.943	0.0141129
932.021	0.0139807
932.099	0.0139796
932.177	0.0139090
932.255	0.0139996
932.333	0.0139166
932.411	0.0137425
932.489	0.0138232
932.568	0.0137851
932.646	0.0137203
932.724	0.0137602
932.802	0.0135960
932.880	0.0135069
932.958	0.0136214
933.036	0.0135442
933.114	0.0134401
933.193	0.0135880
933.271	0.0135412
933.349	0.0134912
933.427	0.0134647
933.505	0.0135543
933.583	0.0135284
933.661	0.0136015
933.739	0.0134971
933.818	0.0136008
933.896	0.0135249
933.974	0.0136391
934.052	0.0135328
934.130	0.0136982
934.208	0.0137733
934.286	0.0137624
934.364	0.0139198
934.443	0.0138719
934.521	0.0138441
934.599	0.0138755
934.677	0.0137872
934.755	0.0138725
934.833	0.0140499
934.911	0.0139948
934.989	0.0139378
935.068	0.0137690
935.146	0.0138425
935.224	0.0138400
935.302	0.0136415
935.380	0.0136050
935.458	0.0139464
935.536	0.0137780
935.614	0.0136496
935.693	0.0136500
935.771	0.0137036
935.849	0.0136449
935.927	0.0134261
936.005	0.0134200
936.083	0.0136319
936.161	0.0135100
936.239	0.0136207
936.318	0.0135561
936.396	0.0135096
936.474	0.0135787
936.552	0.0137536
936.630	0.0135828
936.708	0.0134341
936.786	0.0134920
936.864	0.0134403
936.943	0.0136372
937.021	0.0134999
937.099	0.0133758
937.177	0.0135441
937.255	0.0134983
937.333	0.0137078
937.411	0.0135760
937.489	0.0136100
937.568	0.0137711
937.646	0.0135842
937.724	0.0136675
937.802	0.0136610
937.880	0.0137984
937.958	0.0136608
938.036	0.0134731
938.114	0.0137872
938.193	0.0138230
938.271	0.0137638
938.349	0.0136414
938.427	0.0137160
938.505	0.0137041
938.583	0.0138145
938.661	0.0137023
938.739	0.0136800
938.818	0.0137511
938.896	0.0136466
938.974	0.0137858
939.052	0.0139077
939.130	0.0138833
939.208	0.0139719
939.286	0.0138453
939.364	0.0139688
939.443	0.0138842
939.521	0.0139474
939.599	0.0137297
939.677	0.0137486
939.755	0.0138417
939.833	0.0138283
939.911	0.0137229
939.989	0.0138812
940.068	0.0137190
940.146	0.0137219
940.224	0.0137487
940.302	0.0139084
940.380	0.0136781
940.458	0.0137068
940.536	0.0136053
940.614	0.0138757
940.693	0.0137752
940.771	0.0135951
940.849	0.0137688
940.927	0.0136741
941.005	0.0136591
941.083	0.0136280
941.161	0.0135110
941.239	0.0136230
941.318	0.0135828
941.396	0.0134594
941.474	0.0135336
941.552	0.0137112
941.630	0.0134679
941.708	0.0135900
941.786	0.0134218
941.864	0.0134574
941.943	0.0136208
942.021	0.0134134
942.099	0.0135898
942.177	0.0136569
942.255	0.0134538
942.333	0.0135056
942.411	0.0135913
942.489	0.0135481
942.568	0.0136269
942.646	0.0136026
942.724	0.0136742
942.802	0.0138129
942.880	0.0137278
942.958	0.0137160
943.036	0.0137459
943.114	0.0138251
943.193	0.0137193
943.271	0.0138808
943.349	0.0137105
943.427	0.0138305
943.505	0.0138650
943.583	0.0137361
943.661	0.0137453
943.739	0.0138580
943.818	0.0137846
943.896	0.0138026
943.974	0.0138354
944.052	0.0138361
944.130	0.0138843
944.208	0.0139800
944.286	0.0139252
944.364	0.0139680
944.443	0.0139766
944.521	0.0140298
944.599	0.0140251
944.677	0.0140417
944.755	0.0139389
944.833	0.0140285
944.911	0.0138217
944.989	0.0138458
945.068	0.0138516
945.146	0.0137653
945.224	0.0137816
945.302	0.0137409
945.380	0.0137938
945.458	0.0138571
945.536	0.0136887
945.614	0.0136602
945.693	0.0137948
945.771	0.0137979
945.849	0.0137922
945.927	0.0137289
946.005	0.0136455
946.083	0.0137267
946.161	0.0137322
946.239	0.0136708
946.318	0.0136677
946.396	0.0136507
946.474	0.0136732
946.552	0.0136475
946.630	0.0136099
946.708	0.0137038
946.786	0.0137946
946.864	0.0136308
946.943	0.0136885
947.021	0.0136852
947.099	0.0138226
947.177	0.0137016
947.255	0.0135340
947.333	0.0136931
947.411	0.0136776
947.489	0.0137748
947.568	0.0137888
947.646	0.0136732
947.724	0.0138029
947.802	0.0137675
947.880	0.0136626
947.958	0.0137383
948.036	0.0136640
948.114	0.0136774
948.193	0.0137146
948.271	0.0136700
948.349	0.0138683
948.427	0.0137685
948.505	0.0137877
948.583	0.0138158
948.661	0.0137817
948.739	0.0137554
948.818	0.0137417
948.896	0.0137582
948.974	0.0138272
949.052	0.0137002
949.130	0.0136503
949.208	0.0139227
949.286	0.0136617
949.364	0.0135438
949.443	0.0137025
949.521	0.0137115
949.599	0.0138272
949.677	0.0137794
949.755	0.0135980
949.833	0.0137935
949.911	0.0137038
949.989	0.0137667
950.068	0.0137247
950.146	0.0138686
950.224	0.0137770
950.302	0.0137857
950.380	0.0138619
950.458	0.0138181
950.536	0.0139352
950.614	0.0138573
950.693	0.0138863
950.771	0.0138441
950.849	0.0138620
950.927	0.0137951
951.005	0.0140411
951.083	0.0138990
951.161	0.0138519
951.239	0.0139906
951.318	0.0140015
951.396	0.0138225
951.474	0.0138614
951.552	0.0139247
951.630	0.0139111
951.708	0.0138251
951.786	0.0137849
951.864	0.0138091
951.943	0.0137423
952.021	0.0138824
952.099	0.0137937
952.177	0.0137597
952.255	0.0137281
952.333	0.0138237
952.411	0.0137253
952.489	0.0136005
952.568	0.0137701
952.646	0.0136288
952.724	0.0137014
952.802	0.0136218
952.880	0.0136271
952.958	0.0136271
953.036	0.0137418
953.114	0.0136916
953.193	0.0138152
953.271	0.0136388
953.349	0.0137939
953.427	0.0139070
953.505	0.0138884
953.583	0.0137844
953.661	0.0139062
953.739	0.0138459
953.818	0.0138667
953.896	0.0139311
953.974	0.0140231
954.052	0.0139822
954.130	0.0140282
954.208	0.0139001
954.286	0.0139603
954.364	0.0139494
954.443	0.0140136
954.521	0.0139119
954.599	0.0140745
954.677	0.0141142
954.755	0.0140794
954.833	0.0140858
954.911	0.0139678
954.989	0.0140086
955.068	0.0141700
955.146	0.0139928
955.224	0.0139291
955.302	0.0139553
955.380	0.0140688
955.458	0.0138752
955.536	0.0140807
955.614	0.0140269
955.693	0.0138669
955.771	0.0138544
955.849	0.0138583
955.927	0.0139533
956.005	0.0138339
956.083	0.0137946
956.161	0.0137617
956.239	0.0139935
956.318	0.0137664
956.396	0.0136227
956.474	0.0137592
956.552	0.0136886
956.630	0.0138107
956.708	0.0136378
956.786	0.0136918
956.864	0.0137266
956.943	0.0135590
957.021	0.0137407
957.099	0.0136292
957.177	0.0136264
957.255	0.0137660
957.333	0.0137397
957.411	0.0136342
957.489	0.0136443
957.568	0.0135629
957.646	0.0136394
957.724	0.0136843
957.802	0.0138252
957.880	0.0138515
957.958	0.0137664
958.036	0.0136484
958.114	0.0137518
958.193	0.0137215
958.271	0.0136729
958.349	0.0139146
958.427	0.0137362
958.505	0.0137917
958.583	0.0137557
958.661	0.0137577
958.739	0.0137530
958.818	0.0136797
958.896	0.0136964
958.974	0.0135989
959.052	0.0136174
959.130	0.0135930
959.208	0.0138176
959.286	0.0136790
959.364	0.0137175
959.443	0.0135453
959.521	0.0137293
959.599	0.0137600
959.677	0.0136556
959.755	0.0136123
959.833	0.0137991
959.911	0.0137026
