05/14/2022	16:39:37	Ver.	4.1	UNKNOWN
Optical Delay	639.989416	Delta X		0.078125	Sweeps	1	Scan Rate	0/0
Coordinates	Axis 1	NaN	Axis 2	NaN	Axis 3	NaN	Axis 4	NaN	Axis 5	NaN	Axis 6	0.000000
TX Power	0.000000	RX Power	0.000000

639.989	0.0135141
640.068	0.0134776
640.146	0.0135317
640.224	0.0135532
640.302	0.0136250
640.380	0.0134821
640.458	0.0134512
640.536	0.0134729
640.614	0.0134902
640.693	0.0135175
640.771	0.0135651
640.849	0.0135161
640.927	0.0134914
641.005	0.0135862
641.083	0.0135265
641.161	0.0134341
641.239	0.0134239
641.318	0.0135049
641.396	0.0136299
641.474	0.0136260
641.552	0.0136682
641.630	0.0134907
641.708	0.0135071
641.786	0.0135072
641.864	0.0136243
641.943	0.0136201
642.021	0.0136810
642.099	0.0136266
642.177	0.0135281
642.255	0.0135918
642.333	0.0136263
642.411	0.0135288
642.489	0.0135567
642.568	0.0135036
642.646	0.0135229
642.724	0.0135103
642.802	0.0134510
642.880	0.0135853
642.958	0.0136160
643.036	0.0135775
643.114	0.0134492
643.193	0.0133962
643.271	0.0134770
643.349	0.0135949
643.427	0.0135358
643.505	0.0135032
643.583	0.0134376
643.661	0.0135334
643.739	0.0135809
643.818	0.0136170
643.896	0.0134858
643.974	0.0135427
644.052	0.0134890
644.130	0.0134587
644.208	0.0134625
644.286	0.0134806
644.364	0.0135305
644.443	0.0135484
644.521	0.0135006
644.599	0.0134638
644.677	0.0135374
644.755	0.0135258
644.833	0.0134901
644.911	0.0134426
644.989	0.0134812
645.068	0.0134348
645.146	0.0136666
645.224	0.0135693
645.302	0.0135696
645.380	0.0135890
645.458	0.0134783
645.536	0.0134401
645.614	0.0135081
645.693	0.0135246
645.771	0.0136115
645.849	0.0135275
645.927	0.0135330
646.005	0.0135574
646.083	0.0135527
646.161	0.0136484
646.239	0.0135434
646.318	0.0135970
646.396	0.0137063
646.474	0.0136266
646.552	0.0134983
646.630	0.0135744
646.708	0.0133696
646.786	0.0134569
646.864	0.0134362
646.943	0.0136468
647.021	0.0136971
647.099	0.0134251
647.177	0.0134433
647.255	0.0135298
647.333	0.0136015
647.411	0.0136375
647.489	0.0134393
647.568	0.0135352
647.646	0.0133578
647.724	0.0135160
647.802	0.0134155
647.880	0.0133708
647.958	0.0134790
648.036	0.0134361
648.114	0.0135218
648.193	0.0134517
648.271	0.0134792
648.349	0.0134203
648.427	0.0134276
648.505	0.0135714
648.583	0.0135941
648.661	0.0135182
648.739	0.0134777
648.818	0.0134520
648.896	0.0134715
648.974	0.0136561
649.052	0.0134993
649.130	0.0134821
649.208	0.0134319
649.286	0.0135268
649.364	0.0135748
649.443	0.0134184
649.521	0.0134948
649.599	0.0134522
649.677	0.0135705
649.755	0.0135412
649.833	0.0134646
649.911	0.0136683
649.989	0.0135836
650.068	0.0135744
650.146	0.0135725
650.224	0.0135356
650.302	0.0135198
650.380	0.0134550
650.458	0.0134085
650.536	0.0135514
650.614	0.0135126
650.693	0.0134171
650.771	0.0135313
650.849	0.0135402
650.927	0.0135514
651.005	0.0135091
651.083	0.0135195
651.161	0.0134449
651.239	0.0134554
651.318	0.0134243
651.396	0.0135773
651.474	0.0134797
651.552	0.0133312
651.630	0.0135521
651.708	0.0135533
651.786	0.0135770
651.864	0.0134848
651.943	0.0135309
652.021	0.0134513
652.099	0.0135128
652.177	0.0135821
652.255	0.0134689
652.333	0.0134686
652.411	0.0136376
652.489	0.0134231
652.568	0.0133472
652.646	0.0133770
652.724	0.0134415
652.802	0.0135256
652.880	0.0133357
652.958	0.0135454
653.036	0.0135482
653.114	0.0134390
653.193	0.0134537
653.271	0.0135252
653.349	0.0134409
653.427	0.0133282
653.505	0.0135750
653.583	0.0134838
653.661	0.0134567
653.739	0.0135948
653.818	0.0134968
653.896	0.0134657
653.974	0.0136278
654.052	0.0135563
654.130	0.0134408
654.208	0.0136274
654.286	0.0135218
654.364	0.0135356
654.443	0.0135031
654.521	0.0135637
654.599	0.0134420
654.677	0.0134798
654.755	0.0134620
654.833	0.0134767
654.911	0.0134529
654.989	0.0134109
655.068	0.0133097
655.146	0.0135123
655.224	0.0134514
655.302	0.0135191
655.380	0.0135208
655.458	0.0135598
655.536	0.0135412
655.614	0.0133902
655.693	0.0133804
655.771	0.0133697
655.849	0.0133528
655.927	0.0133860
656.005	0.0134040
656.083	0.0134536
656.161	0.0133615
656.239	0.0132630
656.318	0.0134824
656.396	0.0135403
656.474	0.0133967
656.552	0.0133983
656.630	0.0134228
656.708	0.0133995
656.786	0.0133569
656.864	0.0133775
656.943	0.0134390
657.021	0.0135746
657.099	0.0134956
657.177	0.0133968
657.255	0.0134961
657.333	0.0135104
657.411	0.0133824
657.489	0.0134161
657.568	0.0133998
657.646	0.0134470
657.724	0.0133973
657.802	0.0135150
657.880	0.0135598
657.958	0.0133797
658.036	0.0135072
658.114	0.0134892
658.193	0.0134448
658.271	0.0134299
658.349	0.0134254
658.427	0.0134129
658.505	0.0133115
658.583	0.0134645
658.661	0.0133385
658.739	0.0134066
658.818	0.0134308
658.896	0.0133488
658.974	0.0132896
659.052	0.0134756
659.130	0.0133082
659.208	0.0133742
659.286	0.0132660
659.364	0.0134136
659.443	0.0134827
659.521	0.0135047
659.599	0.0134734
659.677	0.0134750
659.755	0.0134946
659.833	0.0134774
659.911	0.0135102
659.989	0.0134441
660.068	0.0135251
660.146	0.0135970
660.224	0.0134341
660.302	0.0136278
660.380	0.0137342
660.458	0.0136776
660.536	0.0135196
660.614	0.0136249
660.693	0.0136010
660.771	0.0134547
660.849	0.0135353
660.927	0.0135043
661.005	0.0135644
661.083	0.0134391
661.161	0.0136369
661.239	0.0134689
661.318	0.0135702
661.396	0.0136160
661.474	0.0134625
661.552	0.0135616
661.630	0.0134571
661.708	0.0134177
661.786	0.0135143
661.864	0.0135436
661.943	0.0133858
662.021	0.0134690
662.099	0.0136198
662.177	0.0134294
662.255	0.0134982
662.333	0.0133814
662.411	0.0135332
662.489	0.0135305
662.568	0.0133788
662.646	0.0133207
662.724	0.0133869
662.802	0.0135581
662.880	0.0135070
662.958	0.0133041
663.036	0.0135446
663.114	0.0133420
663.193	0.0134561
663.271	0.0135665
663.349	0.0135483
663.427	0.0135395
663.505	0.0135221
663.583	0.0134486
663.661	0.0135161
663.739	0.0135787
663.818	0.0134789
663.896	0.0135612
663.974	0.0135051
664.052	0.0134351
664.130	0.0135448
664.208	0.0135986
664.286	0.0135182
664.364	0.0134583
664.443	0.0135758
664.521	0.0134898
664.599	0.0134824
664.677	0.0135550
664.755	0.0135840
664.833	0.0135396
664.911	0.0137067
664.989	0.0136987
665.068	0.0134780
665.146	0.0134918
665.224	0.0136958
665.302	0.0136342
665.380	0.0135138
665.458	0.0136707
665.536	0.0135696
665.614	0.0135802
665.693	0.0134361
665.771	0.0134428
665.849	0.0134663
665.927	0.0134644
666.005	0.0134943
666.083	0.0134871
666.161	0.0134288
666.239	0.0135842
666.318	0.0135509
666.396	0.0135126
666.474	0.0133780
666.552	0.0133645
666.630	0.0134555
666.708	0.0134618
666.786	0.0135417
666.864	0.0136032
666.943	0.0134035
667.021	0.0133581
667.099	0.0134473
667.177	0.0134229
667.255	0.0135121
667.333	0.0133916
667.411	0.0134046
667.489	0.0136745
667.568	0.0134986
667.646	0.0135715
667.724	0.0135421
667.802	0.0134883
667.880	0.0135125
667.958	0.0134508
668.036	0.0135277
668.114	0.0136526
668.193	0.0134921
668.271	0.0135418
668.349	0.0136507
668.427	0.0136728
668.505	0.0135999
668.583	0.0135838
668.661	0.0135526
668.739	0.0135536
668.818	0.0135380
668.896	0.0135847
668.974	0.0135885
669.052	0.0135143
669.130	0.0135132
669.208	0.0135532
669.286	0.0134723
669.364	0.0135184
669.443	0.0134196
669.521	0.0135506
669.599	0.0135085
669.677	0.0135052
669.755	0.0134520
669.833	0.0135652
669.911	0.0135275
669.989	0.0135553
670.068	0.0135284
670.146	0.0135310
670.224	0.0135703
670.302	0.0134687
670.380	0.0136434
670.458	0.0134933
670.536	0.0136720
670.614	0.0136492
670.693	0.0136126
670.771	0.0134106
670.849	0.0135556
670.927	0.0135925
671.005	0.0135248
671.083	0.0135331
671.161	0.0134226
671.239	0.0134550
671.318	0.0133695
671.396	0.0135122
671.474	0.0134552
671.552	0.0134250
671.630	0.0135336
671.708	0.0135625
671.786	0.0134814
671.864	0.0134015
671.943	0.0134001
672.021	0.0134167
672.099	0.0133279
672.177	0.0134221
672.255	0.0134421
672.333	0.0134053
672.411	0.0134560
672.489	0.0133080
672.568	0.0133621
672.646	0.0134734
672.724	0.0134450
672.802	0.0133611
672.880	0.0134535
672.958	0.0135801
673.036	0.0133688
673.114	0.0135085
673.193	0.0135325
673.271	0.0136290
673.349	0.0135799
673.427	0.0135085
673.505	0.0135737
673.583	0.0137715
673.661	0.0137724
673.739	0.0136423
673.818	0.0136986
673.896	0.0137255
673.974	0.0137974
674.052	0.0138506
674.130	0.0136633
674.208	0.0136639
674.286	0.0136783
674.364	0.0136633
674.443	0.0135406
674.521	0.0133862
674.599	0.0134548
674.677	0.0134253
674.755	0.0133628
674.833	0.0132051
674.911	0.0131423
674.989	0.0131154
675.068	0.0130530
675.146	0.0128024
675.224	0.0128737
675.302	0.0129105
675.380	0.0129705
675.458	0.0128541
675.536	0.0129469
675.614	0.0130038
675.693	0.0129985
675.771	0.0131215
675.849	0.0131889
675.927	0.0132639
676.005	0.0133190
676.083	0.0134695
676.161	0.0137112
676.239	0.0138776
676.318	0.0139588
676.396	0.0140771
676.474	0.0142730
676.552	0.0144319
676.630	0.0145294
676.708	0.0145382
676.786	0.0145769
676.864	0.0144424
676.943	0.0145710
677.021	0.0145340
677.099	0.0144247
677.177	0.0142824
677.255	0.0142119
677.333	0.0140234
677.411	0.0138474
677.489	0.0136617
677.568	0.0136073
677.646	0.0134016
677.724	0.0130267
677.802	0.0127730
677.880	0.0126311
677.958	0.0122936
678.036	0.0122750
678.114	0.0121178
678.193	0.0117747
678.271	0.0117345
678.349	0.0115855
678.427	0.0117403
678.505	0.0116201
678.583	0.0115917
678.661	0.0115881
678.739	0.0117908
678.818	0.0120177
678.896	0.0121839
678.974	0.0124578
679.052	0.0126358
679.130	0.0131607
679.208	0.0135133
679.286	0.0136578
679.364	0.0140472
679.443	0.0144679
679.521	0.0147692
679.599	0.0150170
679.677	0.0155894
679.755	0.0157635
679.833	0.0159272
679.911	0.0162081
679.989	0.0163280
680.068	0.0164078
680.146	0.0163841
680.224	0.0162970
680.302	0.0162617
680.380	0.0160014
680.458	0.0157206
680.536	0.0154485
680.614	0.0151243
680.693	0.0148205
680.771	0.0144170
680.849	0.0138473
680.927	0.0134026
681.005	0.0130048
681.083	0.0125507
681.161	0.0120251
681.239	0.0116293
681.318	0.0112605
681.396	0.0109061
681.474	0.0106159
681.552	0.0102643
681.630	0.00995514
681.708	0.00981041
681.786	0.00980385
681.864	0.00982094
681.943	0.0100169
682.021	0.0101090
682.099	0.0104501
682.177	0.0105802
682.255	0.0109947
682.333	0.0113740
682.411	0.0117970
682.489	0.0123088
682.568	0.0128450
682.646	0.0134517
682.724	0.0138777
682.802	0.0143953
682.880	0.0150479
682.958	0.0155883
683.036	0.0160613
683.114	0.0163400
683.193	0.0168482
683.271	0.0173167
683.349	0.0176160
683.427	0.0176453
683.505	0.0178337
683.583	0.0180241
683.661	0.0180028
683.739	0.0177719
683.818	0.0176941
683.896	0.0174078
683.974	0.0170407
684.052	0.0167841
684.130	0.0162459
684.208	0.0158099
684.286	0.0153196
684.364	0.0147200
684.443	0.0141530
684.521	0.0134445
684.599	0.0128922
684.677	0.0123671
684.755	0.0117102
684.833	0.0112773
684.911	0.0106638
684.989	0.0101411
685.068	0.00986534
685.146	0.00933136
685.224	0.00915245
685.302	0.00899071
685.380	0.00874451
685.458	0.00868202
685.536	0.00891823
685.614	0.00893967
685.693	0.00927238
685.771	0.00958939
685.849	0.00979080
685.927	0.0103925
686.005	0.0110336
686.083	0.0114014
686.161	0.0122207
686.239	0.0128220
686.318	0.0133186
686.396	0.0140131
686.474	0.0146058
686.552	0.0152280
686.630	0.0159426
686.708	0.0160863
686.786	0.0166526
686.864	0.0171240
686.943	0.0173120
687.021	0.0175772
687.099	0.0178249
687.177	0.0179776
687.255	0.0180219
687.333	0.0180152
687.411	0.0179141
687.489	0.0176437
687.568	0.0174153
687.646	0.0172823
687.724	0.0171589
687.802	0.0167177
687.880	0.0163499
687.958	0.0158049
688.036	0.0153138
688.114	0.0147120
688.193	0.0142601
688.271	0.0137347
688.349	0.0132354
688.427	0.0126365
688.505	0.0120380
688.583	0.0115101
688.661	0.0110949
688.739	0.0108229
688.818	0.0104633
688.896	0.0101218
688.974	0.00998741
689.052	0.00989250
689.130	0.00964767
689.208	0.00959167
689.286	0.00979950
689.364	0.00988579
689.443	0.0101974
689.521	0.0104470
689.599	0.0106439
689.677	0.0109549
689.755	0.0112444
689.833	0.0116708
689.911	0.0119038
689.989	0.0122572
690.068	0.0126295
690.146	0.0130511
690.224	0.0134218
690.302	0.0137041
690.380	0.0140456
690.458	0.0145603
690.536	0.0147514
690.614	0.0151220
690.693	0.0153291
690.771	0.0156119
690.849	0.0158398
690.927	0.0158800
691.005	0.0159644
691.083	0.0160619
691.161	0.0159824
691.239	0.0158982
691.318	0.0157706
691.396	0.0156966
691.474	0.0154733
691.552	0.0153693
691.630	0.0150935
691.708	0.0148383
691.786	0.0145239
691.864	0.0143076
691.943	0.0141339
692.021	0.0138191
692.099	0.0136677
692.177	0.0133028
692.255	0.0130875
692.333	0.0127720
692.411	0.0128318
692.489	0.0126292
692.568	0.0124706
692.646	0.0123767
692.724	0.0123946
692.802	0.0124007
692.880	0.0123714
692.958	0.0125925
693.036	0.0125674
693.114	0.0126706
693.193	0.0126465
693.271	0.0129179
693.349	0.0130347
693.427	0.0130286
693.505	0.0131587
693.583	0.0132873
693.661	0.0133249
693.739	0.0135320
693.818	0.0136874
693.896	0.0139298
693.974	0.0137972
694.052	0.0139360
694.130	0.0141730
694.208	0.0139594
694.286	0.0140170
694.364	0.0140139
694.443	0.0140080
694.521	0.0139976
694.599	0.0139091
694.677	0.0139500
694.755	0.0138424
694.833	0.0136604
694.911	0.0135453
694.989	0.0134386
695.068	0.0133389
695.146	0.0132803
695.224	0.0132133
695.302	0.0131419
695.380	0.0129790
695.458	0.0128790
695.536	0.0127917
695.614	0.0127855
695.693	0.0127149
695.771	0.0126736
695.849	0.0126840
695.927	0.0125941
696.005	0.0125706
696.083	0.0127240
696.161	0.0125372
696.239	0.0124688
696.318	0.0126522
696.396	0.0125507
696.474	0.0125455
696.552	0.0126744
696.630	0.0126887
696.708	0.0128677
696.786	0.0133350
696.864	0.0132179
696.943	0.0134480
697.021	0.0138535
697.099	0.0140308
697.177	0.0142922
697.255	0.0144904
697.333	0.0148269
697.411	0.0149343
697.489	0.0151513
697.568	0.0153444
697.646	0.0154812
697.724	0.0156274
697.802	0.0155521
697.880	0.0158791
697.958	0.0158643
698.036	0.0159074
698.114	0.0158907
698.193	0.0158181
698.271	0.0156492
698.349	0.0156960
698.427	0.0155510
698.505	0.0152976
698.583	0.0150699
698.661	0.0149509
698.739	0.0145531
698.818	0.0143367
698.896	0.0138972
698.974	0.0134249
699.052	0.0130116
699.130	0.0127312
699.208	0.0122726
699.286	0.0118192
699.364	0.0116124
699.443	0.0113149
699.521	0.0110268
699.599	0.0107026
699.677	0.0104827
699.755	0.0102963
699.833	0.0101762
699.911	0.0101508
699.989	0.0103067
700.068	0.0103651
700.146	0.0102406
700.224	0.0105104
700.302	0.0107468
700.380	0.0110337
700.458	0.0115345
700.536	0.0116564
700.614	0.0120367
700.693	0.0125853
700.771	0.0131625
700.849	0.0135908
700.927	0.0140647
701.005	0.0146344
701.083	0.0149261
701.161	0.0155046
701.239	0.0158199
701.318	0.0160855
701.396	0.0163799
701.474	0.0166447
701.552	0.0168303
701.630	0.0168689
701.708	0.0169118
701.786	0.0168621
701.864	0.0166479
701.943	0.0164198
702.021	0.0162189
702.099	0.0160983
702.177	0.0157104
702.255	0.0154406
702.333	0.0150816
702.411	0.0146582
702.489	0.0144193
702.568	0.0139712
702.646	0.0137264
702.724	0.0135057
702.802	0.0129347
702.880	0.0127702
702.958	0.0126262
703.036	0.0124344
703.114	0.0122077
703.193	0.0119284
703.271	0.0118810
703.349	0.0117877
703.427	0.0115773
703.505	0.0116262
703.583	0.0115368
703.661	0.0114696
703.739	0.0116299
703.818	0.0116327
703.896	0.0115721
703.974	0.0117467
704.052	0.0120774
704.130	0.0122494
704.208	0.0124080
704.286	0.0126992
704.364	0.0128973
704.443	0.0129964
704.521	0.0132684
704.599	0.0135410
704.677	0.0136369
704.755	0.0138030
704.833	0.0138396
704.911	0.0138613
704.989	0.0140150
705.068	0.0140211
705.146	0.0139568
705.224	0.0139597
705.302	0.0139822
705.380	0.0138978
705.458	0.0139571
705.536	0.0138988
705.614	0.0140146
705.693	0.0140987
705.771	0.0142666
705.849	0.0144437
705.927	0.0144764
706.005	0.0144487
706.083	0.0145908
706.161	0.0147424
706.239	0.0146934
706.318	0.0147971
706.396	0.0148516
706.474	0.0148367
706.552	0.0149772
706.630	0.0148037
706.708	0.0147622
706.786	0.0148925
706.864	0.0148769
706.943	0.0146767
707.021	0.0146737
707.099	0.0144684
707.177	0.0143011
707.255	0.0141863
707.333	0.0137492
707.411	0.0133254
707.489	0.0132298
707.568	0.0129551
707.646	0.0126212
707.724	0.0122626
707.802	0.0121154
707.880	0.0117778
707.958	0.0117238
708.036	0.0116257
708.114	0.0115913
708.193	0.0114561
708.271	0.0114941
708.349	0.0116826
708.427	0.0116977
708.505	0.0119040
708.583	0.0120786
708.661	0.0122194
708.739	0.0125559
708.818	0.0127061
708.896	0.0129951
708.974	0.0132716
709.052	0.0134390
709.130	0.0136415
709.208	0.0138256
709.286	0.0142083
709.364	0.0142883
709.443	0.0145778
709.521	0.0147588
709.599	0.0150667
709.677	0.0151894
709.755	0.0154164
709.833	0.0154000
709.911	0.0153905
709.989	0.0152411
710.068	0.0153855
710.146	0.0151903
710.224	0.0150960
710.302	0.0149643
710.380	0.0147317
710.458	0.0146861
710.536	0.0144714
710.614	0.0142191
710.693	0.0140971
710.771	0.0138097
710.849	0.0137577
710.927	0.0135012
711.005	0.0132313
711.083	0.0132764
711.161	0.0129412
711.239	0.0129372
711.318	0.0129068
711.396	0.0128284
711.474	0.0127801
711.552	0.0127403
711.630	0.0127210
711.708	0.0128322
711.786	0.0127685
711.864	0.0128871
711.943	0.0129479
712.021	0.0130569
712.099	0.0129439
712.177	0.0129787
712.255	0.0129725
712.333	0.0131075
712.411	0.0131306
712.489	0.0129702
712.568	0.0130091
712.646	0.0130175
712.724	0.0129211
712.802	0.0128875
712.880	0.0127707
712.958	0.0126548
713.036	0.0127011
713.114	0.0126270
713.193	0.0124161
713.271	0.0124065
713.349	0.0123788
713.427	0.0125091
713.505	0.0125979
713.583	0.0126401
713.661	0.0127117
713.739	0.0128526
713.818	0.0131513
713.896	0.0131487
713.974	0.0132671
714.052	0.0135489
714.130	0.0135950
714.208	0.0139314
714.286	0.0140813
714.364	0.0142280
714.443	0.0141832
714.521	0.0143665
714.599	0.0144387
714.677	0.0145885
714.755	0.0144782
714.833	0.0145058
714.911	0.0145754
714.989	0.0144578
715.068	0.0144080
715.146	0.0143182
715.224	0.0143413
715.302	0.0141825
715.380	0.0141917
715.458	0.0139718
715.536	0.0138140
715.614	0.0137331
715.693	0.0137172
715.771	0.0136029
715.849	0.0135779
715.927	0.0135796
716.005	0.0135945
716.083	0.0134184
716.161	0.0135941
716.239	0.0136470
716.318	0.0134873
716.396	0.0135562
716.474	0.0136465
716.552	0.0136009
716.630	0.0136382
716.708	0.0137935
716.786	0.0137034
716.864	0.0136766
716.943	0.0137975
717.021	0.0137392
717.099	0.0138757
717.177	0.0137242
717.255	0.0136662
717.333	0.0136286
717.411	0.0136396
717.489	0.0136084
717.568	0.0136300
717.646	0.0134515
717.724	0.0134946
717.802	0.0133852
717.880	0.0134234
717.958	0.0133586
718.036	0.0132024
718.114	0.0132924
718.193	0.0132025
718.271	0.0131897
718.349	0.0130788
718.427	0.0129636
718.505	0.0129637
718.583	0.0126877
718.661	0.0124817
718.739	0.0124953
718.818	0.0121441
718.896	0.0121126
718.974	0.0119734
719.052	0.0116993
719.130	0.0116733
719.208	0.0115858
719.286	0.0115884
719.364	0.0114397
719.443	0.0115476
719.521	0.0116467
719.599	0.0118642
719.677	0.0118832
719.755	0.0120170
719.833	0.0122862
719.911	0.0126212
719.989	0.0129192
720.068	0.0131606
720.146	0.0135680
720.224	0.0138731
720.302	0.0142082
720.380	0.0144764
720.458	0.0147673
720.536	0.0150126
720.614	0.0153555
720.693	0.0156503
720.771	0.0157276
720.849	0.0158900
720.927	0.0160407
721.005	0.0161025
721.083	0.0161145
721.161	0.0159943
721.239	0.0160208
721.318	0.0159473
721.396	0.0157328
721.474	0.0156973
721.552	0.0154448
721.630	0.0151103
721.708	0.0149824
721.786	0.0145724
721.864	0.0143940
721.943	0.0144980
722.021	0.0142169
722.099	0.0138401
722.177	0.0134766
722.255	0.0134560
722.333	0.0132730
722.411	0.0133149
722.489	0.0130982
722.568	0.0131210
722.646	0.0129129
722.724	0.0128640
722.802	0.0127218
722.880	0.0127050
722.958	0.0126097
723.036	0.0123821
723.114	0.0124237
723.193	0.0124131
723.271	0.0123622
723.349	0.0122211
723.427	0.0121165
723.505	0.0120166
723.583	0.0121046
723.661	0.0119082
723.739	0.0118910
723.818	0.0118873
723.896	0.0117426
723.974	0.0118886
724.052	0.0119926
724.130	0.0120988
724.208	0.0120260
724.286	0.0120669
724.364	0.0122717
724.443	0.0123903
724.521	0.0124295
724.599	0.0125629
724.677	0.0127189
724.755	0.0127894
724.833	0.0130395
724.911	0.0131696
724.989	0.0134348
725.068	0.0134686
725.146	0.0136108
725.224	0.0137387
725.302	0.0138445
725.380	0.0140292
725.458	0.0140159
725.536	0.0139392
725.614	0.0141578
725.693	0.0143481
725.771	0.0143536
725.849	0.0143442
725.927	0.0146463
726.005	0.0147619
726.083	0.0147202
726.161	0.0149247
726.239	0.0150912
726.318	0.0150731
726.396	0.0151317
726.474	0.0151902
726.552	0.0150971
726.630	0.0153590
726.708	0.0151480
726.786	0.0149142
726.864	0.0148824
726.943	0.0148290
727.021	0.0146004
727.099	0.0142741
727.177	0.0141718
727.255	0.0138815
727.333	0.0137634
727.411	0.0135941
727.489	0.0133530
727.568	0.0131507
727.646	0.0131608
727.724	0.0130665
727.802	0.0129449
727.880	0.0128584
727.958	0.0129071
728.036	0.0129305
728.114	0.0128957
728.193	0.0129010
728.271	0.0130703
728.349	0.0132258
728.427	0.0131023
728.505	0.0130662
728.583	0.0133001
728.661	0.0132726
728.739	0.0132579
728.818	0.0133686
728.896	0.0133936
728.974	0.0133717
729.052	0.0132384
729.130	0.0132967
729.208	0.0133105
729.286	0.0131760
729.364	0.0130887
729.443	0.0131454
729.521	0.0130608
729.599	0.0130598
729.677	0.0131663
729.755	0.0130902
729.833	0.0132574
729.911	0.0132691
729.989	0.0132239
730.068	0.0132805
730.146	0.0133538
730.224	0.0133192
730.302	0.0133492
730.380	0.0133537
730.458	0.0133704
730.536	0.0133107
730.614	0.0133768
730.693	0.0133509
730.771	0.0132477
730.849	0.0132329
730.927	0.0131805
731.005	0.0130895
731.083	0.0131364
731.161	0.0133566
731.239	0.0132082
731.318	0.0131467
731.396	0.0131808
731.474	0.0133335
731.552	0.0133902
731.630	0.0134991
731.708	0.0135532
731.786	0.0135723
731.864	0.0137097
731.943	0.0138014
732.021	0.0138117
732.099	0.0141696
732.177	0.0140650
732.255	0.0141890
732.333	0.0143334
732.411	0.0145087
732.489	0.0144936
732.568	0.0143983
732.646	0.0144480
732.724	0.0143499
732.802	0.0142535
732.880	0.0142969
732.958	0.0142193
733.036	0.0141016
733.114	0.0139404
733.193	0.0137411
733.271	0.0137207
733.349	0.0136390
733.427	0.0135764
733.505	0.0137301
733.583	0.0137213
733.661	0.0137235
733.739	0.0136037
733.818	0.0138818
733.896	0.0136832
733.974	0.0136079
734.052	0.0137767
734.130	0.0138612
734.208	0.0138676
734.286	0.0139404
734.364	0.0138465
734.443	0.0136507
734.521	0.0138256
734.599	0.0136877
734.677	0.0135110
734.755	0.0134286
734.833	0.0133377
734.911	0.0131748
734.989	0.0129824
735.068	0.0128764
735.146	0.0125935
735.224	0.0124527
735.302	0.0124564
735.380	0.0122857
735.458	0.0122540
735.536	0.0123532
735.614	0.0121532
735.693	0.0120929
735.771	0.0123018
735.849	0.0123309
735.927	0.0124577
736.005	0.0125118
736.083	0.0125891
736.161	0.0127706
736.239	0.0127680
736.318	0.0128465
736.396	0.0130922
736.474	0.0131798
736.552	0.0132504
736.630	0.0133091
736.708	0.0136049
736.786	0.0136343
736.864	0.0137621
736.943	0.0138618
737.021	0.0138097
737.099	0.0138670
737.177	0.0139980
737.255	0.0141373
737.333	0.0141290
737.411	0.0142087
737.489	0.0142175
737.568	0.0143040
737.646	0.0142752
737.724	0.0143802
737.802	0.0143749
737.880	0.0143462
737.958	0.0145878
738.036	0.0144891
738.114	0.0144616
738.193	0.0144639
738.271	0.0143879
738.349	0.0143084
738.427	0.0142807
738.505	0.0142268
738.583	0.0140910
738.661	0.0140861
738.739	0.0139878
738.818	0.0137116
738.896	0.0137199
738.974	0.0136727
739.052	0.0134934
739.130	0.0134809
739.208	0.0135291
739.286	0.0133548
739.364	0.0133398
739.443	0.0134372
739.521	0.0133353
739.599	0.0132587
739.677	0.0133938
739.755	0.0134660
739.833	0.0133524
739.911	0.0135213
739.989	0.0134180
740.068	0.0135329
740.146	0.0134710
740.224	0.0133869
740.302	0.0134843
740.380	0.0132860
740.458	0.0132180
740.536	0.0131000
740.614	0.0131429
740.693	0.0130595
740.771	0.0129683
740.849	0.0128973
740.927	0.0127769
741.005	0.0126730
741.083	0.0126682
741.161	0.0126591
741.239	0.0126016
741.318	0.0126448
741.396	0.0126553
741.474	0.0128263
741.552	0.0125728
741.630	0.0128555
741.708	0.0129996
741.786	0.0130779
741.864	0.0132993
741.943	0.0133640
742.021	0.0135320
742.099	0.0136145
742.177	0.0137497
742.255	0.0139126
742.333	0.0136593
742.411	0.0138963
742.489	0.0136723
742.568	0.0136446
742.646	0.0137370
742.724	0.0136614
742.802	0.0136100
742.880	0.0137244
742.958	0.0136993
743.036	0.0136974
743.114	0.0137219
743.193	0.0136679
743.271	0.0137046
743.349	0.0136881
743.427	0.0137502
743.505	0.0139146
743.583	0.0138277
743.661	0.0138759
743.739	0.0138327
743.818	0.0137088
743.896	0.0138258
743.974	0.0139342
744.052	0.0139005
744.130	0.0139482
744.208	0.0139433
744.286	0.0139993
744.364	0.0139670
744.443	0.0138099
744.521	0.0137550
744.599	0.0136768
744.677	0.0135725
744.755	0.0135248
744.833	0.0134924
744.911	0.0132822
744.989	0.0132964
745.068	0.0132152
745.146	0.0131513
745.224	0.0131467
745.302	0.0131432
745.380	0.0131110
745.458	0.0130612
745.536	0.0130833
745.614	0.0130434
745.693	0.0131329
745.771	0.0132564
745.849	0.0131789
745.927	0.0132804
746.005	0.0132037
746.083	0.0132644
746.161	0.0133259
746.239	0.0132231
746.318	0.0131256
746.396	0.0132722
746.474	0.0134179
746.552	0.0131836
746.630	0.0133065
746.708	0.0132522
746.786	0.0131911
746.864	0.0131797
746.943	0.0131804
747.021	0.0131887
747.099	0.0131406
747.177	0.0131789
747.255	0.0131890
747.333	0.0131974
747.411	0.0130910
747.489	0.0132024
747.568	0.0132320
747.646	0.0132001
747.724	0.0133691
747.802	0.0134516
747.880	0.0134506
747.958	0.0133721
748.036	0.0136423
748.114	0.0136581
748.193	0.0135455
748.271	0.0137058
748.349	0.0136558
748.427	0.0137762
748.505	0.0137875
748.583	0.0137447
748.661	0.0136251
748.739	0.0138240
748.818	0.0139001
748.896	0.0136747
748.974	0.0137448
749.052	0.0137749
749.130	0.0137196
749.208	0.0139060
749.286	0.0139465
749.364	0.0137872
749.443	0.0139787
749.521	0.0139283
749.599	0.0138912
749.677	0.0137693
749.755	0.0138490
749.833	0.0138074
749.911	0.0137611
749.989	0.0136764
750.068	0.0136996
750.146	0.0135861
750.224	0.0135359
750.302	0.0136239
750.380	0.0136687
750.458	0.0135848
750.536	0.0136271
750.614	0.0134500
750.693	0.0134753
750.771	0.0133416
750.849	0.0134151
750.927	0.0133931
751.005	0.0132793
751.083	0.0132935
751.161	0.0133122
751.239	0.0131227
751.318	0.0132536
751.396	0.0132092
751.474	0.0131894
751.552	0.0132037
751.630	0.0131093
751.708	0.0131217
751.786	0.0131334
751.864	0.0131079
751.943	0.0130683
752.021	0.0131187
752.099	0.0131782
752.177	0.0132735
752.255	0.0131565
752.333	0.0131275
752.411	0.0131506
752.489	0.0132521
752.568	0.0131152
752.646	0.0130839
752.724	0.0131731
752.802	0.0131713
752.880	0.0132100
752.958	0.0134032
753.036	0.0131480
753.114	0.0133692
753.193	0.0134763
753.271	0.0133813
753.349	0.0133521
753.427	0.0135316
753.505	0.0136440
753.583	0.0137141
753.661	0.0135889
753.739	0.0136485
753.818	0.0137550
753.896	0.0137038
753.974	0.0137666
754.052	0.0137148
754.130	0.0136378
754.208	0.0137232
754.286	0.0138339
754.364	0.0136996
754.443	0.0137234
754.521	0.0138504
754.599	0.0138282
754.677	0.0138134
754.755	0.0138250
754.833	0.0138224
754.911	0.0138809
754.989	0.0139113
755.068	0.0139179
755.146	0.0140190
755.224	0.0139726
755.302	0.0140427
755.380	0.0139868
755.458	0.0140367
755.536	0.0140315
755.614	0.0137373
755.693	0.0138718
755.771	0.0138109
755.849	0.0137547
755.927	0.0136827
756.005	0.0136913
756.083	0.0134712
756.161	0.0137527
756.239	0.0136810
756.318	0.0136580
756.396	0.0134791
756.474	0.0136827
756.552	0.0135645
756.630	0.0135989
756.708	0.0136375
756.786	0.0134866
756.864	0.0134042
756.943	0.0133288
757.021	0.0136333
757.099	0.0133561
757.177	0.0132402
757.255	0.0133823
757.333	0.0133303
757.411	0.0130490
757.489	0.0132895
757.568	0.0132295
757.646	0.0131796
757.724	0.0131563
757.802	0.0131853
757.880	0.0131033
757.958	0.0130837
758.036	0.0130920
758.114	0.0130276
758.193	0.0130952
758.271	0.0131657
758.349	0.0131145
758.427	0.0131899
758.505	0.0130930
758.583	0.0132317
758.661	0.0132244
758.739	0.0133231
758.818	0.0132314
758.896	0.0134372
758.974	0.0134570
759.052	0.0135333
759.130	0.0135699
759.208	0.0134337
759.286	0.0136818
759.364	0.0138268
759.443	0.0138154
759.521	0.0139619
759.599	0.0138910
759.677	0.0139072
759.755	0.0140153
759.833	0.0139481
759.911	0.0140574
759.989	0.0140135
760.068	0.0139047
760.146	0.0138480
760.224	0.0140662
760.302	0.0139426
760.380	0.0139088
760.458	0.0137834
760.536	0.0138161
760.614	0.0139719
760.693	0.0137499
760.771	0.0138237
760.849	0.0137476
760.927	0.0137937
761.005	0.0138277
761.083	0.0138036
761.161	0.0138455
761.239	0.0137670
761.318	0.0137894
761.396	0.0138310
761.474	0.0136539
761.552	0.0136954
761.630	0.0137127
761.708	0.0137147
761.786	0.0136623
761.864	0.0135555
761.943	0.0136249
762.021	0.0136491
762.099	0.0136694
762.177	0.0136531
762.255	0.0132890
762.333	0.0134589
762.411	0.0135011
762.489	0.0134011
762.568	0.0135355
762.646	0.0135662
762.724	0.0137186
762.802	0.0136372
762.880	0.0136604
762.958	0.0136700
763.036	0.0135947
763.114	0.0136844
763.193	0.0136581
763.271	0.0136000
763.349	0.0136788
763.427	0.0137191
763.505	0.0137210
763.583	0.0138268
763.661	0.0136271
763.739	0.0136855
763.818	0.0136507
763.896	0.0135542
763.974	0.0137186
764.052	0.0136002
764.130	0.0136365
764.208	0.0136746
764.286	0.0135422
764.364	0.0135568
764.443	0.0136649
764.521	0.0135603
764.599	0.0135054
764.677	0.0135845
764.755	0.0135679
764.833	0.0133860
764.911	0.0134253
764.989	0.0135022
765.068	0.0133250
765.146	0.0132726
765.224	0.0133746
765.302	0.0132896
765.380	0.0133580
765.458	0.0133376
765.536	0.0132793
765.614	0.0133280
765.693	0.0133195
765.771	0.0131741
765.849	0.0133105
765.927	0.0132649
766.005	0.0131683
766.083	0.0131934
766.161	0.0133755
766.239	0.0133023
766.318	0.0132357
766.396	0.0132983
766.474	0.0133405
766.552	0.0133867
766.630	0.0133009
766.708	0.0134018
766.786	0.0133518
766.864	0.0135399
766.943	0.0135133
767.021	0.0135263
767.099	0.0134444
767.177	0.0134225
767.255	0.0134811
767.333	0.0136291
767.411	0.0135342
767.489	0.0134094
767.568	0.0135973
767.646	0.0135453
767.724	0.0136450
767.802	0.0136152
767.880	0.0136292
767.958	0.0137657
768.036	0.0137013
768.114	0.0136487
768.193	0.0136681
768.271	0.0137623
768.349	0.0136771
768.427	0.0137737
768.505	0.0134735
768.583	0.0134860
768.661	0.0136154
768.739	0.0137405
768.818	0.0136085
768.896	0.0136024
768.974	0.0135667
769.052	0.0136401
769.130	0.0136263
769.208	0.0137220
769.286	0.0135606
769.364	0.0136758
769.443	0.0135440
769.521	0.0136447
769.599	0.0137234
769.677	0.0136465
769.755	0.0134510
769.833	0.0134911
769.911	0.0133950
769.989	0.0133632
770.068	0.0133398
770.146	0.0132231
770.224	0.0135011
770.302	0.0133662
770.380	0.0133892
770.458	0.0134183
770.536	0.0131586
770.614	0.0132210
770.693	0.0133886
770.771	0.0132279
770.849	0.0131525
770.927	0.0132398
771.005	0.0132283
771.083	0.0131616
771.161	0.0131590
771.239	0.0131104
771.318	0.0131300
771.396	0.0131050
771.474	0.0130517
771.552	0.0131564
771.630	0.0132425
771.708	0.0132401
771.786	0.0132625
771.864	0.0133132
771.943	0.0134083
772.021	0.0133489
772.099	0.0133468
772.177	0.0135970
772.255	0.0135917
772.333	0.0136546
772.411	0.0136715
772.489	0.0137688
772.568	0.0137582
772.646	0.0138127
772.724	0.0139785
772.802	0.0138593
772.880	0.0139783
772.958	0.0139134
773.036	0.0139433
773.114	0.0137966
773.193	0.0136805
773.271	0.0137145
773.349	0.0138243
773.427	0.0137264
773.505	0.0136871
773.583	0.0135049
773.661	0.0136213
773.739	0.0136852
773.818	0.0136501
773.896	0.0135756
773.974	0.0134604
774.052	0.0135237
774.130	0.0135185
774.208	0.0134062
774.286	0.0133764
774.364	0.0133113
774.443	0.0134512
774.521	0.0131340
774.599	0.0131815
774.677	0.0132413
774.755	0.0132286
774.833	0.0133022
774.911	0.0131111
774.989	0.0132160
775.068	0.0130369
775.146	0.0131189
775.224	0.0131399
775.302	0.0130491
775.380	0.0131552
775.458	0.0130715
775.536	0.0132600
775.614	0.0133962
775.693	0.0134395
775.771	0.0133688
775.849	0.0135725
775.927	0.0135850
776.005	0.0135535
776.083	0.0136245
776.161	0.0138139
776.239	0.0137491
776.318	0.0137991
776.396	0.0138655
776.474	0.0138227
776.552	0.0138146
776.630	0.0138116
776.708	0.0139795
776.786	0.0140084
776.864	0.0139671
776.943	0.0140760
777.021	0.0139871
777.099	0.0140567
777.177	0.0141866
777.255	0.0140939
777.333	0.0139526
777.411	0.0140272
777.489	0.0138053
777.568	0.0138361
777.646	0.0136098
777.724	0.0136517
777.802	0.0135511
777.880	0.0134856
777.958	0.0132761
778.036	0.0132787
778.114	0.0131598
778.193	0.0130386
778.271	0.0130343
778.349	0.0131024
778.427	0.0131406
778.505	0.0129712
778.583	0.0128648
778.661	0.0129585
778.739	0.0129614
778.818	0.0129906
778.896	0.0129422
778.974	0.0129678
779.052	0.0129463
779.130	0.0131709
779.208	0.0131725
779.286	0.0132652
779.364	0.0134698
779.443	0.0134773
779.521	0.0134650
779.599	0.0135561
779.677	0.0137118
779.755	0.0136817
779.833	0.0138776
779.911	0.0139983
779.989	0.0139403
780.068	0.0139059
780.146	0.0140533
780.224	0.0141505
780.302	0.0141196
780.380	0.0142300
780.458	0.0142464
780.536	0.0141140
780.614	0.0142255
780.693	0.0142130
780.771	0.0142319
780.849	0.0141108
780.927	0.0141484
781.005	0.0140692
781.083	0.0140887
781.161	0.0140716
781.239	0.0140548
781.318	0.0139707
781.396	0.0139799
781.474	0.0137586
781.552	0.0137251
781.630	0.0137082
781.708	0.0136012
781.786	0.0135757
781.864	0.0136578
781.943	0.0134570
782.021	0.0133647
782.099	0.0131700
782.177	0.0131539
782.255	0.0131190
782.333	0.0129992
782.411	0.0132661
782.489	0.0130579
782.568	0.0130020
782.646	0.0131364
782.724	0.0132484
782.802	0.0132143
782.880	0.0133190
782.958	0.0133038
783.036	0.0132909
783.114	0.0136868
783.193	0.0137839
783.271	0.0137579
783.349	0.0136827
783.427	0.0137788
783.505	0.0138844
783.583	0.0139767
783.661	0.0139176
783.739	0.0139675
783.818	0.0139194
783.896	0.0139304
783.974	0.0138427
784.052	0.0139388
784.130	0.0138845
784.208	0.0138251
784.286	0.0137688
784.364	0.0138593
784.443	0.0138284
784.521	0.0138862
784.599	0.0137827
784.677	0.0136712
784.755	0.0137967
784.833	0.0135484
784.911	0.0136283
784.989	0.0135489
785.068	0.0136207
785.146	0.0134445
785.224	0.0135246
785.302	0.0136446
785.380	0.0135236
785.458	0.0135607
785.536	0.0133957
785.614	0.0133658
785.693	0.0135674
785.771	0.0134560
785.849	0.0134372
785.927	0.0134620
786.005	0.0134926
786.083	0.0134056
786.161	0.0134447
786.239	0.0133778
786.318	0.0134513
786.396	0.0133806
786.474	0.0135218
786.552	0.0133990
786.630	0.0134679
786.708	0.0133768
786.786	0.0133532
786.864	0.0133252
786.943	0.0132997
787.021	0.0134207
787.099	0.0132117
787.177	0.0133497
787.255	0.0134188
787.333	0.0134500
787.411	0.0134492
787.489	0.0135540
787.568	0.0134942
787.646	0.0135856
787.724	0.0134750
787.802	0.0135648
787.880	0.0137296
787.958	0.0136771
788.036	0.0135895
788.114	0.0134844
788.193	0.0135799
788.271	0.0135828
788.349	0.0136152
788.427	0.0135291
788.505	0.0135747
788.583	0.0137923
788.661	0.0135403
788.739	0.0134392
788.818	0.0136104
788.896	0.0135485
788.974	0.0134312
789.052	0.0136793
789.130	0.0134077
789.208	0.0135786
789.286	0.0135130
789.364	0.0135670
789.443	0.0136261
789.521	0.0135458
789.599	0.0134150
789.677	0.0134538
789.755	0.0136424
789.833	0.0134920
789.911	0.0134040
789.989	0.0135261
790.068	0.0135395
790.146	0.0135369
790.224	0.0133544
790.302	0.0135614
790.380	0.0135638
790.458	0.0135101
790.536	0.0134737
790.614	0.0135306
790.693	0.0136980
790.771	0.0134810
790.849	0.0135190
790.927	0.0134260
791.005	0.0134563
791.083	0.0133376
791.161	0.0132374
791.239	0.0132590
791.318	0.0133346
791.396	0.0132276
791.474	0.0132334
791.552	0.0132030
791.630	0.0132034
791.708	0.0132847
791.786	0.0130852
791.864	0.0130645
791.943	0.0130789
792.021	0.0131142
792.099	0.0132629
792.177	0.0131578
792.255	0.0131381
792.333	0.0131262
792.411	0.0130000
792.489	0.0131802
792.568	0.0131322
792.646	0.0131693
792.724	0.0132091
792.802	0.0131692
792.880	0.0132367
792.958	0.0133610
793.036	0.0133390
793.114	0.0132240
793.193	0.0132170
793.271	0.0134314
793.349	0.0133759
793.427	0.0134916
793.505	0.0135145
793.583	0.0135453
793.661	0.0135176
793.739	0.0137051
793.818	0.0138007
793.896	0.0136406
793.974	0.0135935
794.052	0.0137526
794.130	0.0139174
794.208	0.0138608
794.286	0.0138914
794.364	0.0138574
794.443	0.0139004
794.521	0.0139936
794.599	0.0140075
794.677	0.0140816
794.755	0.0141201
794.833	0.0140946
794.911	0.0141362
794.989	0.0140939
795.068	0.0139532
795.146	0.0138939
795.224	0.0139172
795.302	0.0139379
795.380	0.0138060
795.458	0.0136539
795.536	0.0136668
795.614	0.0135773
795.693	0.0135048
795.771	0.0134779
795.849	0.0132984
795.927	0.0131425
796.005	0.0131507
796.083	0.0131754
796.161	0.0130483
796.239	0.0129716
796.318	0.0129123
796.396	0.0129557
796.474	0.0128896
796.552	0.0129398
796.630	0.0130155
796.708	0.0130553
796.786	0.0130732
796.864	0.0130486
796.943	0.0131224
797.021	0.0130850
797.099	0.0132647
797.177	0.0133759
797.255	0.0133815
797.333	0.0135614
797.411	0.0136104
797.489	0.0135422
797.568	0.0136631
797.646	0.0137114
797.724	0.0137394
797.802	0.0137894
797.880	0.0137297
797.958	0.0137722
798.036	0.0139385
798.114	0.0137206
798.193	0.0137930
798.271	0.0138469
798.349	0.0137812
798.427	0.0139676
798.505	0.0138359
798.583	0.0138306
798.661	0.0137446
798.739	0.0137206
798.818	0.0138528
798.896	0.0138188
798.974	0.0136096
799.052	0.0137077
799.130	0.0135461
799.208	0.0136937
799.286	0.0137040
799.364	0.0136284
799.443	0.0135750
799.521	0.0136765
799.599	0.0136315
799.677	0.0137211
799.755	0.0135453
799.833	0.0134306
799.911	0.0133996
799.989	0.0133694
800.068	0.0134165
800.146	0.0134653
800.224	0.0133980
800.302	0.0133669
800.380	0.0131590
800.458	0.0132596
800.536	0.0132848
800.614	0.0132735
800.693	0.0131650
800.771	0.0132513
800.849	0.0133003
800.927	0.0131901
801.005	0.0131260
801.083	0.0132868
801.161	0.0133238
801.239	0.0133936
801.318	0.0135696
801.396	0.0135780
801.474	0.0135370
801.552	0.0135994
801.630	0.0136311
801.708	0.0136614
801.786	0.0136877
801.864	0.0137273
801.943	0.0138525
802.021	0.0138068
802.099	0.0139234
802.177	0.0138496
802.255	0.0138070
802.333	0.0138734
802.411	0.0139234
802.489	0.0138802
802.568	0.0139565
802.646	0.0136953
802.724	0.0138677
802.802	0.0139754
802.880	0.0138094
802.958	0.0137270
803.036	0.0138611
803.114	0.0137588
803.193	0.0139016
803.271	0.0138106
803.349	0.0137974
803.427	0.0137443
803.505	0.0136433
803.583	0.0138320
803.661	0.0138136
803.739	0.0136932
803.818	0.0136674
803.896	0.0136340
803.974	0.0136697
804.052	0.0136559
804.130	0.0136469
804.208	0.0134760
804.286	0.0135247
804.364	0.0135635
804.443	0.0134715
804.521	0.0135622
804.599	0.0135445
804.677	0.0134283
804.755	0.0133670
804.833	0.0135502
804.911	0.0135640
804.989	0.0134000
805.068	0.0133086
805.146	0.0134133
805.224	0.0132449
805.302	0.0132426
805.380	0.0133453
805.458	0.0132439
805.536	0.0132981
805.614	0.0133608
805.693	0.0135408
805.771	0.0134256
805.849	0.0133725
805.927	0.0134551
806.005	0.0135364
806.083	0.0135021
806.161	0.0137000
806.239	0.0135114
806.318	0.0135795
806.396	0.0137770
806.474	0.0137940
806.552	0.0136850
806.630	0.0137347
806.708	0.0137491
806.786	0.0137157
806.864	0.0137421
806.943	0.0138696
807.021	0.0138501
807.099	0.0137810
807.177	0.0135793
807.255	0.0136330
807.333	0.0137311
807.411	0.0137006
807.489	0.0136409
807.568	0.0135521
807.646	0.0136885
807.724	0.0133868
807.802	0.0134399
807.880	0.0135542
807.958	0.0134708
808.036	0.0133681
808.114	0.0132397
808.193	0.0134338
808.271	0.0135142
808.349	0.0134255
808.427	0.0133614
808.505	0.0133334
808.583	0.0134389
808.661	0.0133906
808.739	0.0133586
808.818	0.0132679
808.896	0.0132888
808.974	0.0134359
809.052	0.0133480
809.130	0.0132702
809.208	0.0133775
809.286	0.0134023
809.364	0.0132925
809.443	0.0132555
809.521	0.0133340
809.599	0.0133246
809.677	0.0133659
809.755	0.0133867
809.833	0.0132499
809.911	0.0133939
809.989	0.0134157
810.068	0.0134187
810.146	0.0133637
810.224	0.0134476
810.302	0.0135292
810.380	0.0133288
810.458	0.0134530
810.536	0.0135348
810.614	0.0134583
810.693	0.0134529
810.771	0.0135320
810.849	0.0133245
810.927	0.0135149
811.005	0.0133484
811.083	0.0135082
811.161	0.0136340
811.239	0.0134654
811.318	0.0136160
811.396	0.0136551
811.474	0.0135125
811.552	0.0135035
811.630	0.0134357
811.708	0.0136597
811.786	0.0135823
811.864	0.0134789
811.943	0.0134760
812.021	0.0135787
812.099	0.0135394
812.177	0.0134672
812.255	0.0136130
812.333	0.0135293
812.411	0.0136016
812.489	0.0136544
812.568	0.0135914
812.646	0.0135909
812.724	0.0135674
812.802	0.0134692
812.880	0.0135383
812.958	0.0135917
813.036	0.0135563
813.114	0.0135709
813.193	0.0134518
813.271	0.0138634
813.349	0.0136298
813.427	0.0136861
813.505	0.0136053
813.583	0.0135727
813.661	0.0136195
813.739	0.0136960
813.818	0.0136828
813.896	0.0135157
813.974	0.0134723
814.052	0.0135154
814.130	0.0132861
814.208	0.0133540
814.286	0.0133088
814.364	0.0132368
814.443	0.0130975
814.521	0.0131239
814.599	0.0131229
814.677	0.0130141
814.755	0.0129031
814.833	0.0128769
814.911	0.0129592
814.989	0.0128363
815.068	0.0128235
815.146	0.0128929
815.224	0.0129284
815.302	0.0130145
815.380	0.0129289
815.458	0.0128748
815.536	0.0129783
815.614	0.0130663
815.693	0.0130459
815.771	0.0132023
815.849	0.0133017
815.927	0.0133279
816.005	0.0133308
816.083	0.0134148
816.161	0.0134946
816.239	0.0135044
816.318	0.0134925
816.396	0.0137057
816.474	0.0135365
816.552	0.0136266
816.630	0.0137164
816.708	0.0135718
816.786	0.0136910
816.864	0.0136719
816.943	0.0136743
817.021	0.0136488
817.099	0.0136487
817.177	0.0136897
817.255	0.0137682
817.333	0.0136354
817.411	0.0137167
817.489	0.0136527
817.568	0.0139349
817.646	0.0136050
817.724	0.0137132
817.802	0.0136626
817.880	0.0135725
817.958	0.0136507
818.036	0.0136765
818.114	0.0137357
818.193	0.0136251
818.271	0.0136591
818.349	0.0137888
818.427	0.0135658
818.505	0.0136226
818.583	0.0136439
818.661	0.0135622
818.739	0.0135799
818.818	0.0137850
818.896	0.0135719
818.974	0.0136524
819.052	0.0136736
819.130	0.0135851
819.208	0.0136025
819.286	0.0135027
819.364	0.0134460
819.443	0.0133952
819.521	0.0134530
819.599	0.0135429
819.677	0.0134924
819.755	0.0133848
819.833	0.0133075
819.911	0.0132963
819.989	0.0132658
820.068	0.0134168
820.146	0.0133324
820.224	0.0132959
820.302	0.0133630
820.380	0.0133865
820.458	0.0132497
820.536	0.0132887
820.614	0.0131136
820.693	0.0130891
820.771	0.0131898
820.849	0.0132365
820.927	0.0131540
821.005	0.0132079
821.083	0.0132175
821.161	0.0133306
821.239	0.0131677
821.318	0.0133378
821.396	0.0132655
821.474	0.0133545
821.552	0.0133382
821.630	0.0135687
821.708	0.0134665
821.786	0.0135271
821.864	0.0135781
821.943	0.0136326
822.021	0.0136217
822.099	0.0136559
822.177	0.0136462
822.255	0.0138155
822.333	0.0138000
822.411	0.0135504
822.489	0.0137011
822.568	0.0137290
822.646	0.0136148
822.724	0.0136514
822.802	0.0137228
822.880	0.0136632
822.958	0.0135797
823.036	0.0136344
823.114	0.0136332
823.193	0.0134531
823.271	0.0137562
823.349	0.0136613
823.427	0.0135679
823.505	0.0134315
823.583	0.0137779
823.661	0.0135772
823.739	0.0136285
823.818	0.0135497
823.896	0.0135649
823.974	0.0137775
824.052	0.0137531
824.130	0.0137678
824.208	0.0137440
824.286	0.0138064
824.364	0.0137107
824.443	0.0139470
824.521	0.0138406
824.599	0.0138814
824.677	0.0137996
824.755	0.0137283
824.833	0.0138148
824.911	0.0138775
824.989	0.0140828
825.068	0.0138148
825.146	0.0138742
825.224	0.0140230
825.302	0.0139384
825.380	0.0139104
825.458	0.0138123
825.536	0.0137308
825.614	0.0137029
825.693	0.0136219
825.771	0.0137534
825.849	0.0135682
825.927	0.0133809
826.005	0.0132554
826.083	0.0132953
826.161	0.0132498
826.239	0.0132389
826.318	0.0132595
826.396	0.0131617
826.474	0.0130316
826.552	0.0130110
826.630	0.0130264
826.708	0.0131652
826.786	0.0131557
826.864	0.0131724
826.943	0.0131387
827.021	0.0131441
827.099	0.0133354
827.177	0.0132372
827.255	0.0132862
827.333	0.0134132
827.411	0.0134469
827.489	0.0135763
827.568	0.0136300
827.646	0.0136384
827.724	0.0138280
827.802	0.0138161
827.880	0.0138152
827.958	0.0138081
828.036	0.0138461
828.114	0.0138633
828.193	0.0138911
828.271	0.0138881
828.349	0.0139761
828.427	0.0139457
828.505	0.0140478
828.583	0.0140404
828.661	0.0139594
828.739	0.0139729
828.818	0.0140697
828.896	0.0139737
828.974	0.0140544
829.052	0.0141272
829.130	0.0141002
829.208	0.0139688
829.286	0.0139967
829.364	0.0140117
829.443	0.0139930
829.521	0.0138432
829.599	0.0139779
829.677	0.0137476
829.755	0.0137805
829.833	0.0139650
829.911	0.0137192
829.989	0.0137561
830.068	0.0136443
830.146	0.0136537
830.224	0.0135502
830.302	0.0135270
830.380	0.0133459
830.458	0.0134312
830.536	0.0134951
830.614	0.0132110
830.693	0.0132618
830.771	0.0132581
830.849	0.0133218
830.927	0.0132355
831.005	0.0132373
831.083	0.0133492
831.161	0.0132354
831.239	0.0130709
831.318	0.0130476
831.396	0.0131855
831.474	0.0130057
831.552	0.0130478
831.630	0.0129842
831.708	0.0129646
831.786	0.0131229
831.864	0.0131737
831.943	0.0129415
832.021	0.0130775
832.099	0.0130043
832.177	0.0130068
832.255	0.0131415
832.333	0.0130509
832.411	0.0131786
832.489	0.0131403
832.568	0.0131256
832.646	0.0131696
832.724	0.0132402
832.802	0.0133497
832.880	0.0133666
832.958	0.0134277
833.036	0.0133969
833.114	0.0134470
833.193	0.0135960
833.271	0.0135664
833.349	0.0133344
833.427	0.0136690
833.505	0.0135098
833.583	0.0136076
833.661	0.0134810
833.739	0.0136237
833.818	0.0137178
833.896	0.0135828
833.974	0.0137776
834.052	0.0136001
834.130	0.0136617
834.208	0.0136146
834.286	0.0136069
834.364	0.0135114
834.443	0.0135503
834.521	0.0134499
834.599	0.0135060
834.677	0.0134041
834.755	0.0134695
834.833	0.0134004
834.911	0.0134144
834.989	0.0134327
835.068	0.0133810
835.146	0.0133345
835.224	0.0135115
835.302	0.0133407
835.380	0.0132766
835.458	0.0134340
835.536	0.0134770
835.614	0.0133702
835.693	0.0133244
835.771	0.0133981
835.849	0.0134677
835.927	0.0133846
836.005	0.0134178
836.083	0.0134286
836.161	0.0134364
836.239	0.0132677
836.318	0.0133344
836.396	0.0133630
836.474	0.0133380
836.552	0.0134133
836.630	0.0132986
836.708	0.0132381
836.786	0.0132935
836.864	0.0133729
836.943	0.0133665
837.021	0.0133092
837.099	0.0133348
837.177	0.0132923
837.255	0.0132362
837.333	0.0132870
837.411	0.0133720
837.489	0.0131457
837.568	0.0132636
837.646	0.0131902
837.724	0.0132425
837.802	0.0133298
837.880	0.0133620
837.958	0.0132427
838.036	0.0133243
838.114	0.0134678
838.193	0.0134441
838.271	0.0134225
838.349	0.0133847
838.427	0.0135806
838.505	0.0134917
838.583	0.0133508
838.661	0.0136021
838.739	0.0136297
838.818	0.0135778
838.896	0.0136621
838.974	0.0137848
839.052	0.0136782
839.130	0.0135219
839.208	0.0135788
839.286	0.0136852
839.364	0.0135749
839.443	0.0135558
839.521	0.0136532
839.599	0.0133479
839.677	0.0136362
839.755	0.0136890
839.833	0.0135667
839.911	0.0133964
839.989	0.0135491
840.068	0.0134807
840.146	0.0134484
840.224	0.0134117
840.302	0.0135274
840.380	0.0134968
840.458	0.0134126
840.536	0.0133335
840.614	0.0134972
840.693	0.0134595
840.771	0.0134134
840.849	0.0134220
840.927	0.0134864
841.005	0.0133908
841.083	0.0134492
841.161	0.0133836
841.239	0.0134119
841.318	0.0133062
841.396	0.0134391
841.474	0.0134671
841.552	0.0134477
841.630	0.0135587
841.708	0.0133823
841.786	0.0134211
841.864	0.0134750
841.943	0.0134026
842.021	0.0135385
842.099	0.0135484
842.177	0.0135055
842.255	0.0136671
842.333	0.0136605
842.411	0.0134811
842.489	0.0136042
842.568	0.0135870
842.646	0.0136381
842.724	0.0136304
842.802	0.0136610
842.880	0.0135364
842.958	0.0136239
843.036	0.0134837
843.114	0.0135065
843.193	0.0134633
843.271	0.0134328
843.349	0.0134863
843.427	0.0134554
843.505	0.0134714
843.583	0.0134901
843.661	0.0133916
843.739	0.0134839
843.818	0.0134351
843.896	0.0134313
843.974	0.0132894
844.052	0.0133772
844.130	0.0134505
844.208	0.0134966
844.286	0.0135137
844.364	0.0135899
844.443	0.0135471
844.521	0.0136497
844.599	0.0135682
844.677	0.0136042
844.755	0.0135658
844.833	0.0135706
844.911	0.0135008
844.989	0.0135699
845.068	0.0135493
845.146	0.0135316
845.224	0.0136257
845.302	0.0136279
845.380	0.0135851
845.458	0.0134952
845.536	0.0135020
845.614	0.0133869
845.693	0.0134853
845.771	0.0135873
845.849	0.0135269
845.927	0.0134179
846.005	0.0133006
846.083	0.0133982
846.161	0.0134315
846.239	0.0133536
846.318	0.0134137
846.396	0.0132867
846.474	0.0132713
846.552	0.0134421
846.630	0.0133944
846.708	0.0133407
846.786	0.0134852
846.864	0.0134845
846.943	0.0135339
847.021	0.0134755
847.099	0.0135545
847.177	0.0135947
847.255	0.0135455
847.333	0.0135532
847.411	0.0137066
847.489	0.0136411
847.568	0.0136854
847.646	0.0136208
847.724	0.0135508
847.802	0.0137315
847.880	0.0136577
847.958	0.0137123
848.036	0.0137207
848.114	0.0136326
848.193	0.0136791
848.271	0.0135527
848.349	0.0134136
848.427	0.0136408
848.505	0.0135890
848.583	0.0135561
848.661	0.0135107
848.739	0.0135978
848.818	0.0134705
848.896	0.0136311
848.974	0.0134445
849.052	0.0134284
849.130	0.0135942
849.208	0.0135909
849.286	0.0134225
849.364	0.0134917
849.443	0.0133740
849.521	0.0133492
849.599	0.0134787
849.677	0.0134593
849.755	0.0134470
849.833	0.0134140
849.911	0.0135585
849.989	0.0135754
850.068	0.0136243
850.146	0.0134892
850.224	0.0135387
850.302	0.0134890
850.380	0.0134783
850.458	0.0136616
850.536	0.0137617
850.614	0.0136532
850.693	0.0138086
850.771	0.0137241
850.849	0.0137932
850.927	0.0137769
851.005	0.0138124
851.083	0.0137690
851.161	0.0137225
851.239	0.0137720
851.318	0.0137174
851.396	0.0136793
851.474	0.0136662
851.552	0.0138042
851.630	0.0137687
851.708	0.0137144
851.786	0.0135379
851.864	0.0133615
851.943	0.0137309
852.021	0.0136539
852.099	0.0135284
852.177	0.0134413
852.255	0.0135457
852.333	0.0134721
852.411	0.0134107
852.489	0.0134750
852.568	0.0135876
852.646	0.0135628
852.724	0.0136880
852.802	0.0134167
852.880	0.0136121
852.958	0.0135627
853.036	0.0136874
853.114	0.0135945
853.193	0.0135021
853.271	0.0136052
853.349	0.0136372
853.427	0.0135571
853.505	0.0135435
853.583	0.0136897
853.661	0.0135001
853.739	0.0136589
853.818	0.0136537
853.896	0.0136894
853.974	0.0135104
854.052	0.0135003
854.130	0.0136474
854.208	0.0134592
854.286	0.0133361
854.364	0.0135366
854.443	0.0135587
854.521	0.0134624
854.599	0.0134640
854.677	0.0135392
854.755	0.0135092
854.833	0.0135503
854.911	0.0136367
854.989	0.0136246
855.068	0.0135699
855.146	0.0136612
855.224	0.0137302
855.302	0.0137340
855.380	0.0137555
855.458	0.0137897
855.536	0.0137828
855.614	0.0138496
855.693	0.0137471
855.771	0.0137726
855.849	0.0138117
855.927	0.0137442
856.005	0.0137762
856.083	0.0137406
856.161	0.0137692
856.239	0.0137333
856.318	0.0136285
856.396	0.0135608
856.474	0.0136716
856.552	0.0135143
856.630	0.0135444
856.708	0.0135726
856.786	0.0134808
856.864	0.0134666
856.943	0.0135172
857.021	0.0134955
857.099	0.0136362
857.177	0.0135332
857.255	0.0133968
857.333	0.0135203
857.411	0.0135340
857.489	0.0133238
857.568	0.0134090
857.646	0.0134258
857.724	0.0134335
857.802	0.0134896
857.880	0.0134669
857.958	0.0134367
858.036	0.0135176
858.114	0.0134935
858.193	0.0134396
858.271	0.0135643
858.349	0.0135228
858.427	0.0135629
858.505	0.0135382
858.583	0.0134866
858.661	0.0133501
858.739	0.0135710
858.818	0.0135069
858.896	0.0136851
858.974	0.0137606
859.052	0.0137165
859.130	0.0135986
859.208	0.0137027
859.286	0.0136692
859.364	0.0137605
859.443	0.0137315
859.521	0.0137504
859.599	0.0137798
859.677	0.0136884
859.755	0.0135889
859.833	0.0136053
859.911	0.0136262
859.989	0.0135402
860.068	0.0135014
860.146	0.0135146
860.224	0.0135828
860.302	0.0136822
860.380	0.0135661
860.458	0.0135612
860.536	0.0135897
860.614	0.0136532
860.693	0.0136236
860.771	0.0135362
860.849	0.0136810
860.927	0.0136530
861.005	0.0136945
861.083	0.0137096
861.161	0.0135918
861.239	0.0136015
861.318	0.0136707
861.396	0.0135516
861.474	0.0135577
861.552	0.0136477
861.630	0.0136018
861.708	0.0135336
861.786	0.0134990
861.864	0.0135069
861.943	0.0133228
862.021	0.0134742
862.099	0.0135088
862.177	0.0133850
862.255	0.0133239
862.333	0.0132573
862.411	0.0133289
862.489	0.0133669
862.568	0.0132904
862.646	0.0132401
862.724	0.0134186
862.802	0.0134301
862.880	0.0133318
862.958	0.0131541
863.036	0.0131424
863.114	0.0132239
863.193	0.0132346
863.271	0.0133716
863.349	0.0133466
863.427	0.0134721
863.505	0.0135446
863.583	0.0135223
863.661	0.0134942
863.739	0.0136192
863.818	0.0136300
863.896	0.0135896
863.974	0.0136324
864.052	0.0138078
864.130	0.0137878
864.208	0.0136934
864.286	0.0138155
864.364	0.0138081
864.443	0.0136856
864.521	0.0136468
864.599	0.0137139
864.677	0.0138150
864.755	0.0137094
864.833	0.0135110
864.911	0.0135989
864.989	0.0137865
865.068	0.0135658
865.146	0.0136669
865.224	0.0135671
865.302	0.0135314
865.380	0.0136867
865.458	0.0135161
865.536	0.0136151
865.614	0.0135751
865.693	0.0135107
865.771	0.0134820
865.849	0.0135673
865.927	0.0135923
866.005	0.0136127
866.083	0.0135095
866.161	0.0135627
866.239	0.0137260
866.318	0.0135332
866.396	0.0135285
866.474	0.0134614
866.552	0.0134950
866.630	0.0133977
866.708	0.0133238
866.786	0.0134022
866.864	0.0133326
866.943	0.0133050
867.021	0.0133502
867.099	0.0132598
867.177	0.0132238
867.255	0.0132342
867.333	0.0132269
867.411	0.0132067
867.489	0.0131424
867.568	0.0132086
867.646	0.0131299
867.724	0.0132110
867.802	0.0131675
867.880	0.0131711
867.958	0.0131909
868.036	0.0131623
868.114	0.0132188
868.193	0.0132668
868.271	0.0132808
868.349	0.0133256
868.427	0.0133745
868.505	0.0133991
868.583	0.0134073
868.661	0.0133650
868.739	0.0133940
868.818	0.0134607
868.896	0.0135133
868.974	0.0135260
869.052	0.0134631
869.130	0.0133386
869.208	0.0133517
869.286	0.0133656
869.364	0.0134585
869.443	0.0134561
869.521	0.0134201
869.599	0.0134358
869.677	0.0134382
869.755	0.0134222
869.833	0.0134278
869.911	0.0134228
869.989	0.0134058
870.068	0.0134599
870.146	0.0134393
870.224	0.0134212
870.302	0.0134192
870.380	0.0134611
870.458	0.0135515
870.536	0.0134637
870.614	0.0135886
870.693	0.0135420
870.771	0.0134847
870.849	0.0135819
870.927	0.0137393
871.005	0.0135565
871.083	0.0135936
871.161	0.0135911
871.239	0.0136797
871.318	0.0135864
871.396	0.0136603
871.474	0.0135116
871.552	0.0135592
871.630	0.0136320
871.708	0.0135636
871.786	0.0136020
871.864	0.0135345
871.943	0.0135553
872.021	0.0135877
872.099	0.0136735
872.177	0.0133989
872.255	0.0132527
872.333	0.0134409
872.411	0.0135085
872.489	0.0133454
872.568	0.0131789
872.646	0.0132869
872.724	0.0133028
872.802	0.0132402
872.880	0.0133330
872.958	0.0132178
873.036	0.0132879
873.114	0.0131879
873.193	0.0131397
873.271	0.0132203
873.349	0.0132842
873.427	0.0133089
873.505	0.0133339
873.583	0.0133276
873.661	0.0134113
873.739	0.0133698
873.818	0.0135645
873.896	0.0134919
873.974	0.0136239
874.052	0.0137272
874.130	0.0136950
874.208	0.0136627
874.286	0.0137161
874.364	0.0136032
874.443	0.0138226
874.521	0.0138903
874.599	0.0138358
874.677	0.0138775
874.755	0.0137878
874.833	0.0138102
874.911	0.0138183
874.989	0.0139821
875.068	0.0138105
875.146	0.0139294
875.224	0.0139013
875.302	0.0138113
875.380	0.0137296
875.458	0.0137399
875.536	0.0136211
875.614	0.0137370
875.693	0.0137559
875.771	0.0136358
875.849	0.0136754
875.927	0.0137852
876.005	0.0137299
876.083	0.0136584
876.161	0.0135428
876.239	0.0136385
876.318	0.0136118
876.396	0.0136426
876.474	0.0135298
876.552	0.0134923
876.630	0.0137339
876.708	0.0134077
876.786	0.0134811
876.864	0.0134986
876.943	0.0134613
877.021	0.0134957
877.099	0.0134924
877.177	0.0136037
877.255	0.0133169
877.333	0.0136477
877.411	0.0136069
877.489	0.0136429
877.568	0.0136627
877.646	0.0135990
877.724	0.0136539
877.802	0.0136919
877.880	0.0136671
877.958	0.0137444
878.036	0.0138223
878.114	0.0137543
878.193	0.0137221
878.271	0.0139009
878.349	0.0137698
878.427	0.0137400
878.505	0.0137978
878.583	0.0138968
878.661	0.0137748
878.739	0.0136856
878.818	0.0136830
878.896	0.0137598
878.974	0.0136325
879.052	0.0135783
879.130	0.0136046
879.208	0.0135611
879.286	0.0134236
879.364	0.0134669
879.443	0.0135074
879.521	0.0133818
879.599	0.0133549
879.677	0.0133511
879.755	0.0132666
879.833	0.0132716
879.911	0.0133921
879.989	0.0131966
880.068	0.0131699
880.146	0.0133039
880.224	0.0131453
880.302	0.0132797
880.380	0.0132730
880.458	0.0132507
880.536	0.0133281
880.614	0.0132777
880.693	0.0133440
880.771	0.0133764
880.849	0.0134563
880.927	0.0135632
881.005	0.0136943
881.083	0.0137780
881.161	0.0136742
881.239	0.0137761
881.318	0.0137167
881.396	0.0138028
881.474	0.0137968
881.552	0.0138347
881.630	0.0139081
881.708	0.0138453
881.786	0.0137864
881.864	0.0138917
881.943	0.0138436
882.021	0.0138879
882.099	0.0138521
882.177	0.0139767
882.255	0.0139156
882.333	0.0138271
882.411	0.0138928
882.489	0.0136543
882.568	0.0135834
882.646	0.0138326
882.724	0.0137558
882.802	0.0137351
882.880	0.0136741
882.958	0.0135976
883.036	0.0136414
883.114	0.0136034
883.193	0.0135755
883.271	0.0135614
883.349	0.0134956
883.427	0.0135511
883.505	0.0134872
883.583	0.0133919
883.661	0.0136270
883.739	0.0134927
883.818	0.0135088
883.896	0.0134473
883.974	0.0133385
884.052	0.0136551
884.130	0.0136540
884.208	0.0133829
884.286	0.0135733
884.364	0.0136543
884.443	0.0136464
884.521	0.0138785
884.599	0.0137228
884.677	0.0136032
884.755	0.0136703
884.833	0.0136974
884.911	0.0136014
884.989	0.0137325
885.068	0.0135242
885.146	0.0134185
885.224	0.0137004
885.302	0.0134458
885.380	0.0136311
885.458	0.0135166
885.536	0.0134657
885.614	0.0136063
885.693	0.0135181
885.771	0.0134460
885.849	0.0135369
885.927	0.0136196
886.005	0.0133555
886.083	0.0133376
886.161	0.0135046
886.239	0.0136181
886.318	0.0134930
886.396	0.0135415
886.474	0.0135155
886.552	0.0134897
886.630	0.0135426
886.708	0.0135389
886.786	0.0136121
886.864	0.0134562
886.943	0.0135168
887.021	0.0135160
887.099	0.0135832
887.177	0.0135143
887.255	0.0132909
887.333	0.0136485
887.411	0.0137518
887.489	0.0136153
887.568	0.0136098
887.646	0.0136414
887.724	0.0136143
887.802	0.0135236
887.880	0.0134741
887.958	0.0136527
888.036	0.0134547
888.114	0.0134555
888.193	0.0134680
888.271	0.0133777
888.349	0.0134283
888.427	0.0134451
888.505	0.0133739
888.583	0.0135497
888.661	0.0135420
888.739	0.0136029
888.818	0.0137466
888.896	0.0136554
888.974	0.0136399
889.052	0.0136044
889.130	0.0136761
889.208	0.0136018
889.286	0.0136544
889.364	0.0137534
889.443	0.0135615
889.521	0.0137377
889.599	0.0136838
889.677	0.0135547
889.755	0.0136216
889.833	0.0135900
889.911	0.0136461
889.989	0.0136600
890.068	0.0136812
890.146	0.0136863
890.224	0.0136463
890.302	0.0137116
890.380	0.0135278
890.458	0.0136322
890.536	0.0134805
890.614	0.0134851
890.693	0.0134575
890.771	0.0133656
890.849	0.0134010
890.927	0.0133892
891.005	0.0133191
891.083	0.0132230
891.161	0.0133447
891.239	0.0132063
891.318	0.0132422
891.396	0.0132867
891.474	0.0132595
891.552	0.0133054
891.630	0.0132691
891.708	0.0134338
891.786	0.0132724
891.864	0.0131871
891.943	0.0133375
892.021	0.0132401
892.099	0.0133280
892.177	0.0133533
892.255	0.0133600
892.333	0.0134661
892.411	0.0133038
892.489	0.0135052
892.568	0.0136091
892.646	0.0135921
892.724	0.0135322
892.802	0.0135526
892.880	0.0136359
892.958	0.0135685
893.036	0.0136066
893.114	0.0137474
893.193	0.0136085
893.271	0.0135663
893.349	0.0136323
893.427	0.0136533
893.505	0.0135871
893.583	0.0136584
893.661	0.0135603
893.739	0.0135426
893.818	0.0136155
893.896	0.0134451
893.974	0.0135032
894.052	0.0135004
894.130	0.0134827
894.208	0.0135788
894.286	0.0134465
894.364	0.0134176
894.443	0.0132877
894.521	0.0132510
894.599	0.0133604
894.677	0.0134317
894.755	0.0134596
894.833	0.0133550
894.911	0.0133086
894.989	0.0132731
895.068	0.0134148
895.146	0.0132926
895.224	0.0133207
895.302	0.0133076
895.380	0.0132544
895.458	0.0132216
895.536	0.0132338
895.614	0.0132697
895.693	0.0133790
895.771	0.0133495
895.849	0.0133032
895.927	0.0133745
896.005	0.0132856
896.083	0.0133348
896.161	0.0133633
896.239	0.0133150
896.318	0.0134216
896.396	0.0133537
896.474	0.0134095
896.552	0.0134488
896.630	0.0134264
896.708	0.0135238
896.786	0.0135052
896.864	0.0135354
896.943	0.0134613
897.021	0.0134268
897.099	0.0135664
897.177	0.0135065
897.255	0.0134700
897.333	0.0135761
897.411	0.0136183
897.489	0.0135035
897.568	0.0136990
897.646	0.0136732
897.724	0.0135929
897.802	0.0135789
897.880	0.0138184
897.958	0.0136971
898.036	0.0136539
898.114	0.0136273
898.193	0.0136691
898.271	0.0136211
898.349	0.0135542
898.427	0.0135924
898.505	0.0136878
898.583	0.0135243
898.661	0.0134933
898.739	0.0135229
898.818	0.0133856
898.896	0.0134792
898.974	0.0133728
899.052	0.0132745
899.130	0.0132668
899.208	0.0132107
899.286	0.0132729
899.364	0.0133329
899.443	0.0130297
899.521	0.0131247
899.599	0.0132090
899.677	0.0132795
899.755	0.0132211
899.833	0.0131464
899.911	0.0131011
899.989	0.0131805
900.068	0.0133575
900.146	0.0133804
900.224	0.0133328
900.302	0.0133939
900.380	0.0133904
900.458	0.0133658
900.536	0.0135397
900.614	0.0135455
900.693	0.0135414
900.771	0.0135217
900.849	0.0135805
900.927	0.0136070
901.005	0.0135973
901.083	0.0136593
901.161	0.0137318
901.239	0.0138363
901.318	0.0137041
901.396	0.0137409
901.474	0.0136565
901.552	0.0137271
901.630	0.0137172
901.708	0.0137206
901.786	0.0135947
901.864	0.0135918
901.943	0.0135293
902.021	0.0135947
902.099	0.0134928
902.177	0.0135410
902.255	0.0133449
902.333	0.0134145
902.411	0.0135122
902.489	0.0133713
902.568	0.0133971
902.646	0.0135254
902.724	0.0134286
902.802	0.0133904
902.880	0.0135080
902.958	0.0135805
903.036	0.0135014
903.114	0.0135442
903.193	0.0136397
903.271	0.0136571
903.349	0.0134733
903.427	0.0134956
903.505	0.0138130
903.583	0.0136227
903.661	0.0136478
903.739	0.0137093
903.818	0.0137591
903.896	0.0137516
903.974	0.0138234
904.052	0.0137800
904.130	0.0137222
904.208	0.0137074
904.286	0.0138015
904.364	0.0137260
904.443	0.0137507
904.521	0.0137070
904.599	0.0136125
904.677	0.0136430
904.755	0.0136659
904.833	0.0136590
904.911	0.0135593
904.989	0.0134738
905.068	0.0135099
905.146	0.0134942
905.224	0.0136197
905.302	0.0135629
905.380	0.0135264
905.458	0.0135408
905.536	0.0133392
905.614	0.0133533
905.693	0.0135005
905.771	0.0133942
905.849	0.0134430
905.927	0.0133534
906.005	0.0134440
906.083	0.0134437
906.161	0.0134872
906.239	0.0135526
906.318	0.0134752
906.396	0.0134193
906.474	0.0135658
906.552	0.0135139
906.630	0.0135033
906.708	0.0134451
906.786	0.0135751
906.864	0.0135039
906.943	0.0135065
907.021	0.0134364
907.099	0.0135155
907.177	0.0135351
907.255	0.0136131
907.333	0.0135462
907.411	0.0135610
907.489	0.0135092
907.568	0.0135946
907.646	0.0135517
907.724	0.0135314
907.802	0.0134444
907.880	0.0135342
907.958	0.0136005
908.036	0.0135646
908.114	0.0136553
908.193	0.0135355
908.271	0.0135868
908.349	0.0135085
908.427	0.0134753
908.505	0.0135275
908.583	0.0135883
908.661	0.0136030
908.739	0.0135546
908.818	0.0135052
908.896	0.0134488
908.974	0.0135470
909.052	0.0136446
909.130	0.0136725
909.208	0.0135255
909.286	0.0135222
909.364	0.0134509
909.443	0.0135669
909.521	0.0134628
909.599	0.0136080
909.677	0.0135534
909.755	0.0133844
909.833	0.0134998
909.911	0.0133019
909.989	0.0134737
910.068	0.0133250
910.146	0.0134993
910.224	0.0135160
910.302	0.0134707
910.380	0.0134538
910.458	0.0133232
910.536	0.0132752
910.614	0.0135309
910.693	0.0134715
910.771	0.0132583
910.849	0.0132803
910.927	0.0132799
911.005	0.0133430
911.083	0.0133099
911.161	0.0134520
911.239	0.0133929
911.318	0.0133186
911.396	0.0132503
911.474	0.0133047
911.552	0.0133147
911.630	0.0134164
911.708	0.0133279
911.786	0.0133856
911.864	0.0135622
911.943	0.0134125
912.021	0.0134937
912.099	0.0135526
912.177	0.0134037
912.255	0.0134645
912.333	0.0134868
912.411	0.0136341
912.489	0.0135888
912.568	0.0134700
912.646	0.0134963
912.724	0.0135407
912.802	0.0136802
912.880	0.0135784
912.958	0.0134477
913.036	0.0133182
913.114	0.0133715
913.193	0.0133064
913.271	0.0134884
913.349	0.0134547
913.427	0.0132877
913.505	0.0131972
913.583	0.0131271
913.661	0.0132973
913.739	0.0132493
913.818	0.0132175
913.896	0.0132667
913.974	0.0131788
914.052	0.0133827
914.130	0.0134900
914.208	0.0133878
914.286	0.0133221
914.364	0.0133630
914.443	0.0134212
914.521	0.0135599
914.599	0.0134486
914.677	0.0134709
914.755	0.0135149
914.833	0.0135323
914.911	0.0135066
914.989	0.0135580
915.068	0.0134050
915.146	0.0135842
915.224	0.0135867
915.302	0.0134740
915.380	0.0135637
915.458	0.0134989
915.536	0.0134816
915.614	0.0133742
915.693	0.0134998
915.771	0.0136138
915.849	0.0134360
915.927	0.0134373
916.005	0.0135335
916.083	0.0134559
916.161	0.0135972
916.239	0.0135512
916.318	0.0135014
916.396	0.0134054
916.474	0.0133943
916.552	0.0135767
916.630	0.0136250
916.708	0.0135654
916.786	0.0135768
916.864	0.0133850
916.943	0.0135757
917.021	0.0134440
917.099	0.0136077
917.177	0.0135229
917.255	0.0134885
917.333	0.0134950
917.411	0.0134486
917.489	0.0135445
917.568	0.0135566
917.646	0.0134861
917.724	0.0134884
917.802	0.0136674
917.880	0.0136375
917.958	0.0136096
918.036	0.0135223
918.114	0.0137043
918.193	0.0136554
918.271	0.0136610
918.349	0.0137827
918.427	0.0136314
918.505	0.0137569
918.583	0.0137155
918.661	0.0137336
918.739	0.0137445
918.818	0.0136173
918.896	0.0135303
918.974	0.0135457
919.052	0.0136150
919.130	0.0136303
919.208	0.0134883
919.286	0.0134750
919.364	0.0134386
919.443	0.0133313
919.521	0.0133237
919.599	0.0133816
919.677	0.0133862
919.755	0.0133048
919.833	0.0132330
919.911	0.0134229
919.989	0.0133854
920.068	0.0130915
920.146	0.0131445
920.224	0.0132983
920.302	0.0132822
920.380	0.0133050
920.458	0.0131989
920.536	0.0133788
920.614	0.0131716
920.693	0.0131141
920.771	0.0132419
920.849	0.0132323
920.927	0.0133459
921.005	0.0133084
921.083	0.0133851
921.161	0.0132648
921.239	0.0133733
921.318	0.0134454
921.396	0.0134273
921.474	0.0133420
921.552	0.0133027
921.630	0.0135013
921.708	0.0136169
921.786	0.0135423
921.864	0.0135324
921.943	0.0137386
922.021	0.0137703
922.099	0.0137035
922.177	0.0138710
922.255	0.0137935
922.333	0.0138052
922.411	0.0138672
922.489	0.0138440
922.568	0.0138027
922.646	0.0139381
922.724	0.0138541
922.802	0.0137944
922.880	0.0137976
922.958	0.0137918
923.036	0.0136717
923.114	0.0137114
923.193	0.0137256
923.271	0.0137183
923.349	0.0135782
923.427	0.0136389
923.505	0.0135706
923.583	0.0135117
923.661	0.0135147
923.739	0.0135014
923.818	0.0135581
923.896	0.0136221
923.974	0.0136881
924.052	0.0135472
924.130	0.0135453
924.208	0.0133743
924.286	0.0135665
924.364	0.0135450
924.443	0.0134237
924.521	0.0134403
924.599	0.0134663
924.677	0.0134930
924.755	0.0134144
924.833	0.0133556
924.911	0.0134145
924.989	0.0134932
925.068	0.0135425
925.146	0.0133968
925.224	0.0132779
925.302	0.0134421
925.380	0.0134370
925.458	0.0135181
925.536	0.0135976
925.614	0.0133890
925.693	0.0135431
925.771	0.0135844
925.849	0.0136933
925.927	0.0134706
926.005	0.0135865
926.083	0.0135800
926.161	0.0135275
926.239	0.0135154
926.318	0.0135452
926.396	0.0137653
926.474	0.0136147
926.552	0.0136072
926.630	0.0137055
926.708	0.0136027
926.786	0.0136948
926.864	0.0135597
926.943	0.0135505
927.021	0.0136148
927.099	0.0136832
927.177	0.0136144
927.255	0.0135562
927.333	0.0135336
927.411	0.0136291
927.489	0.0136166
927.568	0.0134476
927.646	0.0135772
927.724	0.0136536
927.802	0.0136128
927.880	0.0135706
927.958	0.0136921
928.036	0.0136228
928.114	0.0135073
928.193	0.0136444
928.271	0.0135645
928.349	0.0135236
928.427	0.0135288
928.505	0.0136045
928.583	0.0134713
928.661	0.0134660
928.739	0.0133768
928.818	0.0135384
928.896	0.0134100
928.974	0.0132727
929.052	0.0135513
929.130	0.0134177
929.208	0.0133645
929.286	0.0134100
929.364	0.0135059
929.443	0.0134485
929.521	0.0135575
929.599	0.0135272
929.677	0.0135761
929.755	0.0135990
929.833	0.0136089
929.911	0.0136481
929.989	0.0135667
930.068	0.0136390
930.146	0.0136948
930.224	0.0137643
930.302	0.0135349
930.380	0.0136938
930.458	0.0136704
930.536	0.0136968
930.614	0.0136600
930.693	0.0136116
930.771	0.0136023
930.849	0.0135470
930.927	0.0134715
931.005	0.0135772
931.083	0.0137149
931.161	0.0136367
931.239	0.0135384
931.318	0.0135352
931.396	0.0135338
931.474	0.0133286
931.552	0.0132554
931.630	0.0133251
931.708	0.0134599
931.786	0.0133219
931.864	0.0133481
931.943	0.0134510
932.021	0.0132604
932.099	0.0133567
932.177	0.0133195
932.255	0.0132408
932.333	0.0133875
932.411	0.0134637
932.489	0.0134481
932.568	0.0133746
932.646	0.0132537
932.724	0.0132841
932.802	0.0134018
932.880	0.0134318
932.958	0.0134090
933.036	0.0134306
933.114	0.0134797
933.193	0.0135937
933.271	0.0134798
933.349	0.0136697
933.427	0.0135694
933.505	0.0135497
933.583	0.0136073
933.661	0.0136606
933.739	0.0137786
933.818	0.0137172
933.896	0.0137141
933.974	0.0137396
934.052	0.0137224
934.130	0.0136841
934.208	0.0137127
934.286	0.0136263
934.364	0.0135923
934.443	0.0136648
934.521	0.0137838
934.599	0.0136549
934.677	0.0136550
934.755	0.0136433
934.833	0.0135813
934.911	0.0136184
934.989	0.0135487
935.068	0.0135559
935.146	0.0135532
935.224	0.0133836
935.302	0.0134770
935.380	0.0134850
935.458	0.0133561
935.536	0.0133669
935.614	0.0135011
935.693	0.0133515
935.771	0.0132344
935.849	0.0132554
935.927	0.0133691
936.005	0.0133303
936.083	0.0133499
936.161	0.0134071
936.239	0.0133932
936.318	0.0135736
936.396	0.0135095
936.474	0.0135824
936.552	0.0135844
936.630	0.0136573
936.708	0.0136844
936.786	0.0137106
936.864	0.0135946
936.943	0.0135582
937.021	0.0136770
937.099	0.0137561
937.177	0.0137739
937.255	0.0137690
937.333	0.0138528
937.411	0.0138273
937.489	0.0137423
937.568	0.0137711
937.646	0.0139096
937.724	0.0137867
937.802	0.0136739
937.880	0.0137875
937.958	0.0137606
938.036	0.0137820
938.114	0.0136498
938.193	0.0136337
938.271	0.0136546
938.349	0.0135004
938.427	0.0135299
938.505	0.0135171
938.583	0.0134046
938.661	0.0134737
938.739	0.0133147
938.818	0.0134370
938.896	0.0134042
938.974	0.0133694
939.052	0.0133473
939.130	0.0132443
939.208	0.0135175
939.286	0.0133266
939.364	0.0132883
939.443	0.0133486
939.521	0.0132877
939.599	0.0133193
939.677	0.0132761
939.755	0.0132751
939.833	0.0132064
939.911	0.0133309
939.989	0.0132841
940.068	0.0133392
940.146	0.0134100
940.224	0.0133199
940.302	0.0134009
940.380	0.0133562
940.458	0.0134596
940.536	0.0134081
940.614	0.0134779
940.693	0.0135072
940.771	0.0134624
940.849	0.0134282
940.927	0.0133884
941.005	0.0135104
941.083	0.0133611
941.161	0.0134663
941.239	0.0135023
941.318	0.0134892
941.396	0.0135284
941.474	0.0134782
941.552	0.0135901
941.630	0.0134535
941.708	0.0135584
941.786	0.0134800
941.864	0.0135712
941.943	0.0135966
942.021	0.0135153
942.099	0.0135001
942.177	0.0134448
942.255	0.0135564
942.333	0.0136137
942.411	0.0135279
942.489	0.0135075
942.568	0.0133801
942.646	0.0135735
942.724	0.0134879
942.802	0.0135626
942.880	0.0137432
942.958	0.0136672
943.036	0.0135799
943.114	0.0135625
943.193	0.0136098
943.271	0.0135006
943.349	0.0136034
943.427	0.0135414
943.505	0.0135871
943.583	0.0136308
943.661	0.0134554
943.739	0.0135938
943.818	0.0135333
943.896	0.0135244
943.974	0.0133888
944.052	0.0133240
944.130	0.0134119
944.208	0.0135368
944.286	0.0133937
944.364	0.0133272
944.443	0.0134503
944.521	0.0133161
944.599	0.0133012
944.677	0.0134274
944.755	0.0132558
944.833	0.0132796
944.911	0.0134557
944.989	0.0133954
945.068	0.0133400
945.146	0.0134436
945.224	0.0134974
945.302	0.0135144
945.380	0.0134454
945.458	0.0136758
945.536	0.0134109
945.614	0.0136246
945.693	0.0136890
945.771	0.0136716
945.849	0.0135706
945.927	0.0135791
946.005	0.0135699
946.083	0.0136346
946.161	0.0134793
946.239	0.0133742
946.318	0.0134316
946.396	0.0135894
946.474	0.0133776
946.552	0.0134406
946.630	0.0135174
946.708	0.0134742
946.786	0.0135970
946.864	0.0135079
946.943	0.0134908
947.021	0.0135450
947.099	0.0135101
947.177	0.0136279
947.255	0.0135932
947.333	0.0133842
947.411	0.0134353
947.489	0.0134439
947.568	0.0134322
947.646	0.0133154
947.724	0.0134454
947.802	0.0133559
947.880	0.0133778
947.958	0.0135043
948.036	0.0135148
948.114	0.0136115
948.193	0.0135800
948.271	0.0134078
948.349	0.0135385
948.427	0.0134082
948.505	0.0134806
948.583	0.0135289
948.661	0.0135027
948.739	0.0134962
948.818	0.0134956
948.896	0.0132826
948.974	0.0135344
949.052	0.0134709
949.130	0.0133888
949.208	0.0136505
949.286	0.0135901
949.364	0.0134475
949.443	0.0135572
949.521	0.0135284
949.599	0.0135336
949.677	0.0136221
949.755	0.0135338
949.833	0.0136716
949.911	0.0137405
949.989	0.0136205
950.068	0.0137132
950.146	0.0135828
950.224	0.0137144
950.302	0.0137663
950.380	0.0137267
950.458	0.0136859
950.536	0.0138313
950.614	0.0137039
950.693	0.0136858
950.771	0.0137055
950.849	0.0137388
950.927	0.0137338
951.005	0.0138767
951.083	0.0138637
951.161	0.0136224
951.239	0.0136452
951.318	0.0136932
951.396	0.0137568
951.474	0.0136895
951.552	0.0136746
951.630	0.0136878
951.708	0.0137239
951.786	0.0136730
951.864	0.0136366
951.943	0.0136021
952.021	0.0135473
952.099	0.0134113
952.177	0.0134850
952.255	0.0135210
952.333	0.0133633
952.411	0.0134860
952.489	0.0133349
952.568	0.0135740
952.646	0.0134420
952.724	0.0133868
952.802	0.0134367
952.880	0.0134861
952.958	0.0136107
953.036	0.0134962
953.114	0.0135545
953.193	0.0135892
953.271	0.0136671
953.349	0.0136572
953.427	0.0135806
953.505	0.0136617
953.583	0.0135968
953.661	0.0136185
953.739	0.0135309
953.818	0.0136800
953.896	0.0136353
953.974	0.0136214
954.052	0.0136340
954.130	0.0136283
954.208	0.0135262
954.286	0.0135928
954.364	0.0136893
954.443	0.0135189
954.521	0.0134164
954.599	0.0134658
954.677	0.0135350
954.755	0.0133680
954.833	0.0134220
954.911	0.0133354
954.989	0.0133765
955.068	0.0136034
955.146	0.0134637
955.224	0.0133685
955.302	0.0133797
955.380	0.0134334
955.458	0.0134583
955.536	0.0133947
955.614	0.0133057
955.693	0.0134495
955.771	0.0135022
955.849	0.0132256
955.927	0.0133032
956.005	0.0133600
956.083	0.0133969
956.161	0.0134821
956.239	0.0134044
956.318	0.0134528
956.396	0.0135356
956.474	0.0135980
956.552	0.0135632
956.630	0.0135596
956.708	0.0136665
956.786	0.0135944
956.864	0.0135959
956.943	0.0137241
957.021	0.0136377
957.099	0.0136286
957.177	0.0136880
957.255	0.0137099
957.333	0.0137321
957.411	0.0136893
957.489	0.0136150
957.568	0.0137574
957.646	0.0135944
957.724	0.0136230
957.802	0.0134789
957.880	0.0135107
957.958	0.0135246
958.036	0.0135043
958.114	0.0135687
958.193	0.0134470
958.271	0.0135449
958.349	0.0134883
958.427	0.0134415
958.505	0.0134371
958.583	0.0135063
958.661	0.0135445
958.739	0.0133233
958.818	0.0134448
958.896	0.0134595
958.974	0.0134052
959.052	0.0133921
959.130	0.0134486
959.208	0.0134480
959.286	0.0134599
959.364	0.0135056
959.443	0.0134984
959.521	0.0134923
959.599	0.0135645
959.677	0.0134741
959.755	0.0136246
959.833	0.0136361
959.911	0.0135646
