05/14/2022	16:39:52	Ver.	4.1	UNKNOWN
Optical Delay	639.989416	Delta X		0.078125	Sweeps	1	Scan Rate	0/0
Coordinates	Axis 1	NaN	Axis 2	NaN	Axis 3	NaN	Axis 4	NaN	Axis 5	NaN	Axis 6	0.000000
TX Power	0.000000	RX Power	0.000000

639.989	0.0136622
640.068	0.0136144
640.146	0.0136135
640.224	0.0137679
640.302	0.0135147
640.380	0.0135885
640.458	0.0137980
640.536	0.0136890
640.614	0.0136967
640.693	0.0137850
640.771	0.0137421
640.849	0.0137109
640.927	0.0136359
641.005	0.0135885
641.083	0.0135349
641.161	0.0136765
641.239	0.0137457
641.318	0.0136038
641.396	0.0136533
641.474	0.0136947
641.552	0.0136288
641.630	0.0137141
641.708	0.0136689
641.786	0.0135288
641.864	0.0136723
641.943	0.0136004
642.021	0.0137015
642.099	0.0137347
642.177	0.0136006
642.255	0.0136564
642.333	0.0135916
642.411	0.0137704
642.489	0.0136918
642.568	0.0135811
642.646	0.0135349
642.724	0.0135950
642.802	0.0135427
642.880	0.0135688
642.958	0.0136403
643.036	0.0136218
643.114	0.0137104
643.193	0.0137818
643.271	0.0135868
643.349	0.0135516
643.427	0.0136858
643.505	0.0136526
643.583	0.0137955
643.661	0.0135719
643.739	0.0135869
643.818	0.0135860
643.896	0.0136897
643.974	0.0135937
644.052	0.0136050
644.130	0.0136593
644.208	0.0136754
644.286	0.0135793
644.364	0.0136458
644.443	0.0135905
644.521	0.0134806
644.599	0.0136604
644.677	0.0136446
644.755	0.0136020
644.833	0.0136406
644.911	0.0136940
644.989	0.0136965
645.068	0.0137760
645.146	0.0136356
645.224	0.0137049
645.302	0.0136911
645.380	0.0136110
645.458	0.0136265
645.536	0.0136988
645.614	0.0136428
645.693	0.0135665
645.771	0.0137099
645.849	0.0136404
645.927	0.0135431
646.005	0.0134776
646.083	0.0135720
646.161	0.0136854
646.239	0.0136105
646.318	0.0136008
646.396	0.0137362
646.474	0.0136753
646.552	0.0136266
646.630	0.0136849
646.708	0.0137582
646.786	0.0136352
646.864	0.0135752
646.943	0.0136201
647.021	0.0135951
647.099	0.0137773
647.177	0.0137089
647.255	0.0136054
647.333	0.0135567
647.411	0.0135351
647.489	0.0136417
647.568	0.0137086
647.646	0.0136082
647.724	0.0135133
647.802	0.0137454
647.880	0.0136588
647.958	0.0136847
648.036	0.0135956
648.114	0.0136430
648.193	0.0135896
648.271	0.0137628
648.349	0.0136780
648.427	0.0136618
648.505	0.0136414
648.583	0.0136503
648.661	0.0136032
648.739	0.0136001
648.818	0.0135801
648.896	0.0136260
648.974	0.0135526
649.052	0.0135958
649.130	0.0137379
649.208	0.0137078
649.286	0.0136074
649.364	0.0135519
649.443	0.0136375
649.521	0.0135724
649.599	0.0136210
649.677	0.0136636
649.755	0.0134255
649.833	0.0134985
649.911	0.0136863
649.989	0.0136141
650.068	0.0135646
650.146	0.0136682
650.224	0.0135527
650.302	0.0134604
650.380	0.0136202
650.458	0.0135393
650.536	0.0134035
650.614	0.0135575
650.693	0.0135577
650.771	0.0135383
650.849	0.0135143
650.927	0.0135686
651.005	0.0135396
651.083	0.0134997
651.161	0.0135896
651.239	0.0135361
651.318	0.0136490
651.396	0.0135400
651.474	0.0134841
651.552	0.0134655
651.630	0.0135571
651.708	0.0136639
651.786	0.0136375
651.864	0.0135515
651.943	0.0135654
652.021	0.0135660
652.099	0.0136308
652.177	0.0136662
652.255	0.0135493
652.333	0.0136243
652.411	0.0135275
652.489	0.0136523
652.568	0.0136681
652.646	0.0136351
652.724	0.0136195
652.802	0.0136197
652.880	0.0136676
652.958	0.0135963
653.036	0.0134809
653.114	0.0135760
653.193	0.0135865
653.271	0.0135703
653.349	0.0135587
653.427	0.0135763
653.505	0.0135005
653.583	0.0133168
653.661	0.0136279
653.739	0.0136478
653.818	0.0134361
653.896	0.0135902
653.974	0.0136816
654.052	0.0135046
654.130	0.0136791
654.208	0.0134808
654.286	0.0134822
654.364	0.0135494
654.443	0.0137654
654.521	0.0135787
654.599	0.0137595
654.677	0.0137135
654.755	0.0135689
654.833	0.0135875
654.911	0.0136864
654.989	0.0137751
655.068	0.0136927
655.146	0.0136573
655.224	0.0136465
655.302	0.0136916
655.380	0.0137780
655.458	0.0136868
655.536	0.0136845
655.614	0.0136650
655.693	0.0137578
655.771	0.0137710
655.849	0.0136815
655.927	0.0136507
656.005	0.0135648
656.083	0.0137959
656.161	0.0136451
656.239	0.0136359
656.318	0.0137240
656.396	0.0136068
656.474	0.0135977
656.552	0.0137225
656.630	0.0136867
656.708	0.0135516
656.786	0.0135989
656.864	0.0135971
656.943	0.0137868
657.021	0.0137006
657.099	0.0135330
657.177	0.0135379
657.255	0.0135863
657.333	0.0137783
657.411	0.0136620
657.489	0.0136066
657.568	0.0136852
657.646	0.0136371
657.724	0.0136408
657.802	0.0135017
657.880	0.0136153
657.958	0.0135735
658.036	0.0136390
658.114	0.0137724
658.193	0.0137309
658.271	0.0136302
658.349	0.0135037
658.427	0.0137488
658.505	0.0137629
658.583	0.0137436
658.661	0.0137037
658.739	0.0138163
658.818	0.0137377
658.896	0.0138452
658.974	0.0138074
659.052	0.0136781
659.130	0.0136168
659.208	0.0136376
659.286	0.0138182
659.364	0.0137655
659.443	0.0136974
659.521	0.0138158
659.599	0.0135722
659.677	0.0137266
659.755	0.0137253
659.833	0.0136687
659.911	0.0136192
659.989	0.0136813
660.068	0.0136311
660.146	0.0137263
660.224	0.0136058
660.302	0.0139021
660.380	0.0138265
660.458	0.0138584
660.536	0.0137025
660.614	0.0137756
660.693	0.0137342
660.771	0.0136031
660.849	0.0137215
660.927	0.0137569
661.005	0.0135861
661.083	0.0136636
661.161	0.0136259
661.239	0.0136297
661.318	0.0136063
661.396	0.0135790
661.474	0.0136331
661.552	0.0135177
661.630	0.0134937
661.708	0.0137271
661.786	0.0137660
661.864	0.0135853
661.943	0.0136996
662.021	0.0135979
662.099	0.0137366
662.177	0.0136632
662.255	0.0136249
662.333	0.0137442
662.411	0.0135191
662.489	0.0138080
662.568	0.0136270
662.646	0.0135522
662.724	0.0137046
662.802	0.0136848
662.880	0.0135316
662.958	0.0136269
663.036	0.0136586
663.114	0.0136316
663.193	0.0135907
663.271	0.0137138
663.349	0.0136925
663.427	0.0138839
663.505	0.0138843
663.583	0.0135571
663.661	0.0136224
663.739	0.0136997
663.818	0.0137611
663.896	0.0137753
663.974	0.0136442
664.052	0.0136119
664.130	0.0137254
664.208	0.0136908
664.286	0.0137447
664.364	0.0137343
664.443	0.0135851
664.521	0.0136898
664.599	0.0137798
664.677	0.0137780
664.755	0.0136524
664.833	0.0138118
664.911	0.0136884
664.989	0.0137176
665.068	0.0137073
665.146	0.0136993
665.224	0.0135045
665.302	0.0137575
665.380	0.0136465
665.458	0.0135825
665.536	0.0137086
665.614	0.0135918
665.693	0.0136311
665.771	0.0136375
665.849	0.0136739
665.927	0.0135805
666.005	0.0137035
666.083	0.0137024
666.161	0.0137019
666.239	0.0136852
666.318	0.0136125
666.396	0.0136452
666.474	0.0135645
666.552	0.0136205
666.630	0.0136279
666.708	0.0137613
666.786	0.0135778
666.864	0.0135926
666.943	0.0137431
667.021	0.0135763
667.099	0.0135734
667.177	0.0135385
667.255	0.0136300
667.333	0.0137148
667.411	0.0134318
667.489	0.0135687
667.568	0.0134612
667.646	0.0135564
667.724	0.0135842
667.802	0.0136327
667.880	0.0136099
667.958	0.0135898
668.036	0.0136765
668.114	0.0135870
668.193	0.0137444
668.271	0.0136419
668.349	0.0136326
668.427	0.0137244
668.505	0.0137170
668.583	0.0136835
668.661	0.0137399
668.739	0.0135578
668.818	0.0135118
668.896	0.0137002
668.974	0.0136164
669.052	0.0135490
669.130	0.0137256
669.208	0.0135896
669.286	0.0136397
669.364	0.0136205
669.443	0.0135764
669.521	0.0135665
669.599	0.0137341
669.677	0.0136866
669.755	0.0135319
669.833	0.0136095
669.911	0.0137114
669.989	0.0137304
670.068	0.0138412
670.146	0.0137677
670.224	0.0136810
670.302	0.0136643
670.380	0.0137971
670.458	0.0135950
670.536	0.0136801
670.614	0.0137012
670.693	0.0135959
670.771	0.0136452
670.849	0.0136429
670.927	0.0135693
671.005	0.0136710
671.083	0.0135715
671.161	0.0135704
671.239	0.0135783
671.318	0.0136010
671.396	0.0136078
671.474	0.0136047
671.552	0.0135833
671.630	0.0136755
671.708	0.0136891
671.786	0.0135033
671.864	0.0136269
671.943	0.0135838
672.021	0.0136092
672.099	0.0137584
672.177	0.0136965
672.255	0.0135090
672.333	0.0137159
672.411	0.0135909
672.489	0.0136035
672.568	0.0138491
672.646	0.0137909
672.724	0.0137695
672.802	0.0136886
672.880	0.0138058
672.958	0.0139739
673.036	0.0138750
673.114	0.0137471
673.193	0.0138875
673.271	0.0137578
673.349	0.0137837
673.427	0.0139167
673.505	0.0138194
673.583	0.0138293
673.661	0.0139243
673.739	0.0140656
673.818	0.0138419
673.896	0.0137959
673.974	0.0138803
674.052	0.0137894
674.130	0.0137197
674.208	0.0136838
674.286	0.0135838
674.364	0.0135001
674.443	0.0134731
674.521	0.0133030
674.599	0.0133089
674.677	0.0132207
674.755	0.0131400
674.833	0.0131103
674.911	0.0130863
674.989	0.0131281
675.068	0.0131914
675.146	0.0130785
675.224	0.0130758
675.302	0.0132299
675.380	0.0132812
675.458	0.0132107
675.536	0.0135001
675.614	0.0136162
675.693	0.0135343
675.771	0.0137152
675.849	0.0139391
675.927	0.0139791
676.005	0.0142815
676.083	0.0143768
676.161	0.0143660
676.239	0.0146150
676.318	0.0147538
676.396	0.0147621
676.474	0.0148202
676.552	0.0147173
676.630	0.0147974
676.708	0.0146831
676.786	0.0146391
676.864	0.0145322
676.943	0.0144798
677.021	0.0144164
677.099	0.0139919
677.177	0.0139863
677.255	0.0137866
677.333	0.0136035
677.411	0.0134721
677.489	0.0132516
677.568	0.0129338
677.646	0.0127273
677.724	0.0125072
677.802	0.0123331
677.880	0.0121923
677.958	0.0120354
678.036	0.0120039
678.114	0.0120466
678.193	0.0120128
678.271	0.0119200
678.349	0.0119523
678.427	0.0120976
678.505	0.0122382
678.583	0.0124219
678.661	0.0126324
678.739	0.0129280
678.818	0.0133652
678.896	0.0135689
678.974	0.0138769
679.052	0.0143317
679.130	0.0146166
679.208	0.0148217
679.286	0.0153476
679.364	0.0156191
679.443	0.0158171
679.521	0.0160075
679.599	0.0162953
679.677	0.0162675
679.755	0.0164167
679.833	0.0164304
679.911	0.0164169
679.989	0.0163162
680.068	0.0161228
680.146	0.0160374
680.224	0.0156608
680.302	0.0154200
680.380	0.0150913
680.458	0.0146304
680.536	0.0142249
680.614	0.0137310
680.693	0.0134178
680.771	0.0129026
680.849	0.0124255
680.927	0.0121317
681.005	0.0117390
681.083	0.0112476
681.161	0.0110249
681.239	0.0106100
681.318	0.0105159
681.396	0.0103098
681.474	0.0101503
681.552	0.0101434
681.630	0.0102531
681.708	0.0104634
681.786	0.0104746
681.864	0.0107052
681.943	0.0111111
682.021	0.0114649
682.099	0.0119304
682.177	0.0120840
682.255	0.0126360
682.333	0.0132420
682.411	0.0136850
682.489	0.0141724
682.568	0.0147308
682.646	0.0153236
682.724	0.0158279
682.802	0.0161018
682.880	0.0165278
682.958	0.0170709
683.036	0.0173940
683.114	0.0175955
683.193	0.0178280
683.271	0.0177854
683.349	0.0178236
683.427	0.0177551
683.505	0.0176043
683.583	0.0174685
683.661	0.0171779
683.739	0.0167323
683.818	0.0163104
683.896	0.0157764
683.974	0.0154042
684.052	0.0148173
684.130	0.0141773
684.208	0.0136305
684.286	0.0131493
684.364	0.0126790
684.443	0.0122102
684.521	0.0115652
684.599	0.0110352
684.677	0.0104732
684.755	0.0101244
684.833	0.00978592
684.911	0.00938309
684.989	0.00911919
685.068	0.00914001
685.146	0.00898262
685.224	0.00889671
685.302	0.00905975
685.380	0.00918312
685.458	0.00934395
685.536	0.00970955
685.614	0.0100833
685.693	0.0105980
685.771	0.0110965
685.849	0.0117422
685.927	0.0123492
686.005	0.0128559
686.083	0.0134342
686.161	0.0141830
686.239	0.0146220
686.318	0.0151587
686.396	0.0157624
686.474	0.0163728
686.552	0.0166570
686.630	0.0169598
686.708	0.0175341
686.786	0.0178189
686.864	0.0179382
686.943	0.0179896
687.021	0.0182886
687.099	0.0181371
687.177	0.0180608
687.255	0.0178826
687.333	0.0177020
687.411	0.0176672
687.489	0.0171706
687.568	0.0168480
687.646	0.0165661
687.724	0.0161446
687.802	0.0155524
687.880	0.0152183
687.958	0.0146058
688.036	0.0139820
688.114	0.0134113
688.193	0.0127725
688.271	0.0121618
688.349	0.0117332
688.427	0.0111864
688.505	0.0105407
688.583	0.0102676
688.661	0.0100505
688.739	0.00961166
688.818	0.00962631
688.896	0.00943687
688.974	0.00946793
689.052	0.00944435
689.130	0.00974579
689.208	0.00983536
689.286	0.0101190
689.364	0.0104489
689.443	0.0108416
689.521	0.0111743
689.599	0.0116415
689.677	0.0119859
689.755	0.0123376
689.833	0.0128238
689.911	0.0132340
689.989	0.0137193
690.068	0.0141014
690.146	0.0145841
690.224	0.0150440
690.302	0.0152466
690.380	0.0156976
690.458	0.0159726
690.536	0.0161268
690.614	0.0163430
690.693	0.0165844
690.771	0.0163838
690.849	0.0165218
690.927	0.0164428
691.005	0.0164056
691.083	0.0164063
691.161	0.0161218
691.239	0.0159615
691.318	0.0157757
691.396	0.0154001
691.474	0.0152351
691.552	0.0149982
691.630	0.0146464
691.708	0.0144007
691.786	0.0140980
691.864	0.0137035
691.943	0.0135767
692.021	0.0131652
692.099	0.0130002
692.177	0.0128204
692.255	0.0126958
692.333	0.0123933
692.411	0.0124488
692.489	0.0123983
692.568	0.0122031
692.646	0.0123900
692.724	0.0123690
692.802	0.0125813
692.880	0.0126682
692.958	0.0126344
693.036	0.0128626
693.114	0.0130067
693.193	0.0131783
693.271	0.0133512
693.349	0.0135175
693.427	0.0136439
693.505	0.0137077
693.583	0.0139845
693.661	0.0138939
693.739	0.0139363
693.818	0.0142066
693.896	0.0142954
693.974	0.0140933
694.052	0.0142596
694.130	0.0142585
694.208	0.0142904
694.286	0.0143063
694.364	0.0140726
694.443	0.0140256
694.521	0.0139112
694.599	0.0137437
694.677	0.0137843
694.755	0.0137693
694.833	0.0134643
694.911	0.0135185
694.989	0.0135172
695.068	0.0133884
695.146	0.0133862
695.224	0.0133807
695.302	0.0131541
695.380	0.0133312
695.458	0.0133411
695.536	0.0132521
695.614	0.0132392
695.693	0.0131631
695.771	0.0132036
695.849	0.0131433
695.927	0.0130069
696.005	0.0130116
696.083	0.0129388
696.161	0.0128610
696.239	0.0128593
696.318	0.0130097
696.396	0.0129017
696.474	0.0130739
696.552	0.0130595
696.630	0.0133118
696.708	0.0134061
696.786	0.0135190
696.864	0.0135602
696.943	0.0139412
697.021	0.0141402
697.099	0.0140286
697.177	0.0144798
697.255	0.0147207
697.333	0.0146858
697.411	0.0150176
697.489	0.0151954
697.568	0.0154555
697.646	0.0153410
697.724	0.0156083
697.802	0.0156879
697.880	0.0157400
697.958	0.0157336
698.036	0.0158376
698.114	0.0160080
698.193	0.0158951
698.271	0.0156666
698.349	0.0155871
698.427	0.0153396
698.505	0.0151816
698.583	0.0146966
698.661	0.0143719
698.739	0.0140321
698.818	0.0136682
698.896	0.0133179
698.974	0.0128780
699.052	0.0124790
699.130	0.0121492
699.208	0.0116924
699.286	0.0114706
699.364	0.0110097
699.443	0.0109826
699.521	0.0108759
699.599	0.0105402
699.677	0.0104701
699.755	0.0103458
699.833	0.0102911
699.911	0.0105711
699.989	0.0105852
700.068	0.0106686
700.146	0.0106705
700.224	0.0108393
700.302	0.0112159
700.380	0.0114922
700.458	0.0118886
700.536	0.0122850
700.614	0.0128181
700.693	0.0133208
700.771	0.0135841
700.849	0.0141162
700.927	0.0145971
701.005	0.0149847
701.083	0.0154710
701.161	0.0158144
701.239	0.0161605
701.318	0.0165694
701.396	0.0166399
701.474	0.0169154
701.552	0.0170800
701.630	0.0171069
701.708	0.0170910
701.786	0.0170254
701.864	0.0169441
701.943	0.0168424
702.021	0.0165468
702.099	0.0163395
702.177	0.0162409
702.255	0.0159347
702.333	0.0155402
702.411	0.0153156
702.489	0.0147602
702.568	0.0144003
702.646	0.0140633
702.724	0.0138999
702.802	0.0135126
702.880	0.0131541
702.958	0.0128544
703.036	0.0125820
703.114	0.0124045
703.193	0.0121554
703.271	0.0120633
703.349	0.0118932
703.427	0.0115705
703.505	0.0114989
703.583	0.0114414
703.661	0.0115340
703.739	0.0113787
703.818	0.0113829
703.896	0.0113714
703.974	0.0114473
704.052	0.0118025
704.130	0.0119907
704.208	0.0119859
704.286	0.0121606
704.364	0.0123453
704.443	0.0128358
704.521	0.0127978
704.599	0.0130859
704.677	0.0131790
704.755	0.0131712
704.833	0.0134921
704.911	0.0134639
704.989	0.0135085
705.068	0.0135542
705.146	0.0137675
705.224	0.0136665
705.302	0.0139197
705.380	0.0139328
705.458	0.0141581
705.536	0.0143285
705.614	0.0143871
705.693	0.0147257
705.771	0.0147836
705.849	0.0149644
705.927	0.0150824
706.005	0.0152859
706.083	0.0154156
706.161	0.0152662
706.239	0.0155511
706.318	0.0154728
706.396	0.0154373
706.474	0.0155199
706.552	0.0152604
706.630	0.0152372
706.708	0.0153329
706.786	0.0151736
706.864	0.0149483
706.943	0.0147070
707.021	0.0145281
707.099	0.0142889
707.177	0.0141241
707.255	0.0137249
707.333	0.0134496
707.411	0.0131621
707.489	0.0126957
707.568	0.0126229
707.646	0.0122590
707.724	0.0121278
707.802	0.0119064
707.880	0.0118713
707.958	0.0115160
708.036	0.0114904
708.114	0.0114423
708.193	0.0113755
708.271	0.0113298
708.349	0.0114154
708.427	0.0116045
708.505	0.0115800
708.583	0.0118935
708.661	0.0119045
708.739	0.0120570
708.818	0.0123757
708.896	0.0125393
708.974	0.0128967
709.052	0.0132791
709.130	0.0134816
709.208	0.0137373
709.286	0.0140874
709.364	0.0143819
709.443	0.0146580
709.521	0.0147952
709.599	0.0150183
709.677	0.0150526
709.755	0.0153059
709.833	0.0155428
709.911	0.0154214
709.989	0.0155162
710.068	0.0154737
710.146	0.0155505
710.224	0.0154539
710.302	0.0154146
710.380	0.0151690
710.458	0.0149229
710.536	0.0147565
710.614	0.0146445
710.693	0.0142108
710.771	0.0141808
710.849	0.0139539
710.927	0.0137222
711.005	0.0136510
711.083	0.0134104
711.161	0.0132850
711.239	0.0133010
711.318	0.0133447
711.396	0.0132269
711.474	0.0133180
711.552	0.0132887
711.630	0.0132960
711.708	0.0133645
711.786	0.0134515
711.864	0.0133839
711.943	0.0135069
712.021	0.0134402
712.099	0.0134889
712.177	0.0134824
712.255	0.0132684
712.333	0.0131689
712.411	0.0131023
712.489	0.0132062
712.568	0.0128521
712.646	0.0124760
712.724	0.0126122
712.802	0.0124988
712.880	0.0122309
712.958	0.0121516
713.036	0.0120681
713.114	0.0119578
713.193	0.0120747
713.271	0.0118975
713.349	0.0121803
713.427	0.0125040
713.505	0.0124431
713.583	0.0125925
713.661	0.0129634
713.739	0.0133961
713.818	0.0134515
713.896	0.0136650
713.974	0.0139996
714.052	0.0140788
714.130	0.0143678
714.208	0.0146305
714.286	0.0147801
714.364	0.0149182
714.443	0.0150055
714.521	0.0152079
714.599	0.0152988
714.677	0.0152562
714.755	0.0153323
714.833	0.0153442
714.911	0.0151963
714.989	0.0152557
715.068	0.0151539
715.146	0.0150409
715.224	0.0148778
715.302	0.0146662
715.380	0.0145300
715.458	0.0144105
715.536	0.0140032
715.614	0.0138444
715.693	0.0137529
715.771	0.0135274
715.849	0.0134161
715.927	0.0132539
716.005	0.0132701
716.083	0.0132385
716.161	0.0129138
716.239	0.0129498
716.318	0.0130695
716.396	0.0130262
716.474	0.0129609
716.552	0.0129189
716.630	0.0129435
716.708	0.0129900
716.786	0.0129404
716.864	0.0128887
716.943	0.0130222
717.021	0.0132197
717.099	0.0131800
717.177	0.0134534
717.255	0.0133846
717.333	0.0135332
717.411	0.0137326
717.489	0.0137666
717.568	0.0137225
717.646	0.0137802
717.724	0.0139532
717.802	0.0140573
717.880	0.0139777
717.958	0.0138202
718.036	0.0138779
718.114	0.0138651
718.193	0.0137798
718.271	0.0137633
718.349	0.0136704
718.427	0.0135325
718.505	0.0135078
718.583	0.0133711
718.661	0.0132349
718.739	0.0132079
718.818	0.0129832
718.896	0.0127722
718.974	0.0128076
719.052	0.0127679
719.130	0.0123612
719.208	0.0126111
719.286	0.0124358
719.364	0.0123058
719.443	0.0123950
719.521	0.0124317
719.599	0.0124828
719.677	0.0126962
719.755	0.0126861
719.833	0.0128730
719.911	0.0131705
719.989	0.0133080
720.068	0.0136127
720.146	0.0138186
720.224	0.0140968
720.302	0.0143292
720.380	0.0145243
720.458	0.0148700
720.536	0.0149045
720.614	0.0148818
720.693	0.0150946
720.771	0.0152034
720.849	0.0152339
720.927	0.0153687
721.005	0.0154320
721.083	0.0153872
721.161	0.0155061
721.239	0.0153763
721.318	0.0155060
721.396	0.0153542
721.474	0.0150649
721.552	0.0151276
721.630	0.0150118
721.708	0.0149523
721.786	0.0147468
721.864	0.0145959
721.943	0.0144039
722.021	0.0143650
722.099	0.0141666
722.177	0.0141452
722.255	0.0138998
722.333	0.0136901
722.411	0.0136169
722.489	0.0136398
722.568	0.0134656
722.646	0.0133163
722.724	0.0132553
722.802	0.0131538
722.880	0.0132132
722.958	0.0130002
723.036	0.0127942
723.114	0.0127133
723.193	0.0126259
723.271	0.0126553
723.349	0.0126372
723.427	0.0125110
723.505	0.0124580
723.583	0.0123959
723.661	0.0124386
723.739	0.0123569
723.818	0.0123424
723.896	0.0123948
723.974	0.0124751
724.052	0.0125444
724.130	0.0123439
724.208	0.0125003
724.286	0.0125121
724.364	0.0125189
724.443	0.0125492
724.521	0.0126927
724.599	0.0128062
724.677	0.0128622
724.755	0.0130103
724.833	0.0130893
724.911	0.0133961
724.989	0.0134706
725.068	0.0135330
725.146	0.0136236
725.224	0.0137226
725.302	0.0141377
725.380	0.0140572
725.458	0.0141339
725.536	0.0143694
725.614	0.0146172
725.693	0.0146439
725.771	0.0147176
725.849	0.0148780
725.927	0.0150780
726.005	0.0151463
726.083	0.0152717
726.161	0.0152773
726.239	0.0154411
726.318	0.0154980
726.396	0.0155553
726.474	0.0153685
726.552	0.0153770
726.630	0.0154780
726.708	0.0153944
726.786	0.0152126
726.864	0.0149645
726.943	0.0148582
727.021	0.0146957
727.099	0.0144386
727.177	0.0141229
727.255	0.0140331
727.333	0.0138434
727.411	0.0137021
727.489	0.0135310
727.568	0.0132782
727.646	0.0130007
727.724	0.0129556
727.802	0.0128639
727.880	0.0127621
727.958	0.0127435
728.036	0.0127850
728.114	0.0127241
728.193	0.0126746
728.271	0.0127301
728.349	0.0127563
728.427	0.0126897
728.505	0.0128547
728.583	0.0127444
728.661	0.0126673
728.739	0.0128664
728.818	0.0129970
728.896	0.0131941
728.974	0.0129954
729.052	0.0131617
729.130	0.0130898
729.208	0.0129829
729.286	0.0129346
729.364	0.0130480
729.443	0.0129688
729.521	0.0130229
729.599	0.0130074
729.677	0.0130938
729.755	0.0130968
729.833	0.0130954
729.911	0.0132784
729.989	0.0134641
730.068	0.0135873
730.146	0.0137160
730.224	0.0136848
730.302	0.0135859
730.380	0.0137426
730.458	0.0138072
730.536	0.0138556
730.614	0.0139507
730.693	0.0138543
730.771	0.0136946
730.849	0.0137502
730.927	0.0137846
731.005	0.0138224
731.083	0.0138004
731.161	0.0137006
731.239	0.0139257
731.318	0.0138665
731.396	0.0137858
731.474	0.0137914
731.552	0.0137925
731.630	0.0137476
731.708	0.0138422
731.786	0.0139331
731.864	0.0140144
731.943	0.0140218
732.021	0.0139565
732.099	0.0141921
732.177	0.0143433
732.255	0.0143248
732.333	0.0143114
732.411	0.0143423
732.489	0.0142971
732.568	0.0143469
732.646	0.0144851
732.724	0.0142886
732.802	0.0142832
732.880	0.0139771
732.958	0.0140680
733.036	0.0140338
733.114	0.0139766
733.193	0.0138165
733.271	0.0138668
733.349	0.0137669
733.427	0.0136932
733.505	0.0136784
733.583	0.0135844
733.661	0.0136298
733.739	0.0137401
733.818	0.0137011
733.896	0.0136625
733.974	0.0136312
734.052	0.0137650
734.130	0.0139405
734.208	0.0139434
734.286	0.0138259
734.364	0.0139893
734.443	0.0139910
734.521	0.0137791
734.599	0.0138520
734.677	0.0137805
734.755	0.0137548
734.833	0.0136463
734.911	0.0135252
734.989	0.0133641
735.068	0.0132697
735.146	0.0130787
735.224	0.0128932
735.302	0.0129427
735.380	0.0128432
735.458	0.0126102
735.536	0.0125938
735.614	0.0123401
735.693	0.0124290
735.771	0.0125806
735.849	0.0125108
735.927	0.0125464
736.005	0.0126949
736.083	0.0127966
736.161	0.0128059
736.239	0.0129174
736.318	0.0131216
736.396	0.0132410
736.474	0.0131860
736.552	0.0133931
736.630	0.0134960
736.708	0.0136455
736.786	0.0136111
736.864	0.0137334
736.943	0.0137656
737.021	0.0137605
737.099	0.0138160
737.177	0.0139568
737.255	0.0138963
737.333	0.0139597
737.411	0.0140540
737.489	0.0141632
737.568	0.0141817
737.646	0.0142348
737.724	0.0142756
737.802	0.0143003
737.880	0.0143433
737.958	0.0143909
738.036	0.0143565
738.114	0.0143516
738.193	0.0142800
738.271	0.0142033
738.349	0.0141875
738.427	0.0142645
738.505	0.0142157
738.583	0.0139669
738.661	0.0138828
738.739	0.0139357
738.818	0.0138771
738.896	0.0137833
738.974	0.0137962
739.052	0.0137482
739.130	0.0136865
739.208	0.0135401
739.286	0.0138486
739.364	0.0137117
739.443	0.0137700
739.521	0.0138782
739.599	0.0137582
739.677	0.0138833
739.755	0.0139166
739.833	0.0137961
739.911	0.0138697
739.989	0.0137470
740.068	0.0139660
740.146	0.0138467
740.224	0.0136798
740.302	0.0135204
740.380	0.0134901
740.458	0.0134050
740.536	0.0132104
740.614	0.0131730
740.693	0.0132169
740.771	0.0130052
740.849	0.0128963
740.927	0.0128193
741.005	0.0127921
741.083	0.0127525
741.161	0.0126240
741.239	0.0125909
741.318	0.0126453
741.396	0.0123744
741.474	0.0124536
741.552	0.0125359
741.630	0.0126215
741.708	0.0126675
741.786	0.0127506
741.864	0.0129128
741.943	0.0130376
742.021	0.0130914
742.099	0.0133057
742.177	0.0134778
742.255	0.0137131
742.333	0.0138775
742.411	0.0140005
742.489	0.0139925
742.568	0.0141929
742.646	0.0142740
742.724	0.0142130
742.802	0.0142261
742.880	0.0142477
742.958	0.0140823
743.036	0.0141180
743.114	0.0140054
743.193	0.0139928
743.271	0.0140485
743.349	0.0138711
743.427	0.0139906
743.505	0.0140079
743.583	0.0138394
743.661	0.0138190
743.739	0.0138863
743.818	0.0141693
743.896	0.0139394
743.974	0.0139081
744.052	0.0138770
744.130	0.0139843
744.208	0.0140520
744.286	0.0140199
744.364	0.0140282
744.443	0.0140272
744.521	0.0139766
744.599	0.0140152
744.677	0.0138933
744.755	0.0140160
744.833	0.0139297
744.911	0.0137327
744.989	0.0137865
745.068	0.0137663
745.146	0.0135534
745.224	0.0135267
745.302	0.0134546
745.380	0.0134814
745.458	0.0134286
745.536	0.0132712
745.614	0.0133453
745.693	0.0134258
745.771	0.0132940
745.849	0.0135232
745.927	0.0133258
746.005	0.0133615
746.083	0.0133772
746.161	0.0134708
746.239	0.0135351
746.318	0.0134557
746.396	0.0134525
746.474	0.0134101
746.552	0.0134056
746.630	0.0132904
746.708	0.0132318
746.786	0.0132111
746.864	0.0132195
746.943	0.0131633
747.021	0.0131094
747.099	0.0129466
747.177	0.0128780
747.255	0.0131451
747.333	0.0130429
747.411	0.0131759
747.489	0.0131422
747.568	0.0131040
747.646	0.0131714
747.724	0.0132632
747.802	0.0133107
747.880	0.0133753
747.958	0.0134505
748.036	0.0134096
748.114	0.0136221
748.193	0.0137232
748.271	0.0137127
748.349	0.0138438
748.427	0.0138157
748.505	0.0138934
748.583	0.0138699
748.661	0.0140671
748.739	0.0140273
748.818	0.0139870
748.896	0.0141193
748.974	0.0139675
749.052	0.0140289
749.130	0.0139610
749.208	0.0139932
749.286	0.0139781
749.364	0.0139536
749.443	0.0139027
749.521	0.0141041
749.599	0.0138371
749.677	0.0140013
749.755	0.0140344
749.833	0.0140086
749.911	0.0138419
749.989	0.0139843
750.068	0.0140012
750.146	0.0138927
750.224	0.0138629
750.302	0.0140285
750.380	0.0140200
750.458	0.0140536
750.536	0.0138968
750.614	0.0140316
750.693	0.0141135
750.771	0.0140214
750.849	0.0138148
750.927	0.0139425
751.005	0.0137981
751.083	0.0138956
751.161	0.0138347
751.239	0.0138469
751.318	0.0137019
751.396	0.0136481
751.474	0.0137604
751.552	0.0136270
751.630	0.0136365
751.708	0.0136311
751.786	0.0134544
751.864	0.0133521
751.943	0.0135918
752.021	0.0136002
752.099	0.0134892
752.177	0.0134577
752.255	0.0133585
752.333	0.0133289
752.411	0.0133643
752.489	0.0133330
752.568	0.0133279
752.646	0.0133872
752.724	0.0133401
752.802	0.0133277
752.880	0.0134181
752.958	0.0132260
753.036	0.0134667
753.114	0.0133347
753.193	0.0133868
753.271	0.0134333
753.349	0.0135344
753.427	0.0134684
753.505	0.0133980
753.583	0.0133955
753.661	0.0133531
753.739	0.0135071
753.818	0.0136196
753.896	0.0134562
753.974	0.0136678
754.052	0.0135743
754.130	0.0136432
754.208	0.0137064
754.286	0.0137964
754.364	0.0138653
754.443	0.0138553
754.521	0.0138357
754.599	0.0139235
754.677	0.0138490
754.755	0.0139632
754.833	0.0139747
754.911	0.0140491
754.989	0.0140886
755.068	0.0141960
755.146	0.0141582
755.224	0.0141666
755.302	0.0141690
755.380	0.0140651
755.458	0.0142937
755.536	0.0142308
755.614	0.0140522
755.693	0.0142783
755.771	0.0140308
755.849	0.0140364
755.927	0.0140846
756.005	0.0141224
756.083	0.0139481
756.161	0.0138448
756.239	0.0138330
756.318	0.0136706
756.396	0.0136620
756.474	0.0136757
756.552	0.0134621
756.630	0.0134494
756.708	0.0136887
756.786	0.0136201
756.864	0.0136732
756.943	0.0136399
757.021	0.0136340
757.099	0.0135750
757.177	0.0136066
757.255	0.0135598
757.333	0.0136810
757.411	0.0136653
757.489	0.0135564
757.568	0.0136195
757.646	0.0137621
757.724	0.0137617
757.802	0.0136240
757.880	0.0135853
757.958	0.0137730
758.036	0.0137212
758.114	0.0135537
758.193	0.0135118
758.271	0.0134860
758.349	0.0134568
758.427	0.0135146
758.505	0.0134636
758.583	0.0133340
758.661	0.0135704
758.739	0.0135083
758.818	0.0133383
758.896	0.0135122
758.974	0.0136499
759.052	0.0134573
759.130	0.0136344
759.208	0.0136691
759.286	0.0136277
759.364	0.0136897
759.443	0.0136996
759.521	0.0136233
759.599	0.0137698
759.677	0.0137201
759.755	0.0137829
759.833	0.0138869
759.911	0.0138002
759.989	0.0136753
760.068	0.0137208
760.146	0.0136940
760.224	0.0137157
760.302	0.0137364
760.380	0.0137166
760.458	0.0137170
760.536	0.0136068
760.614	0.0137079
760.693	0.0135798
760.771	0.0136657
760.849	0.0136552
760.927	0.0136999
761.005	0.0136583
761.083	0.0136070
761.161	0.0136116
761.239	0.0137194
761.318	0.0134808
761.396	0.0135484
761.474	0.0135009
761.552	0.0135621
761.630	0.0137149
761.708	0.0136831
761.786	0.0137192
761.864	0.0138541
761.943	0.0137508
762.021	0.0136779
762.099	0.0137126
762.177	0.0137041
762.255	0.0135630
762.333	0.0136404
762.411	0.0136897
762.489	0.0137872
762.568	0.0136040
762.646	0.0136117
762.724	0.0136539
762.802	0.0136796
762.880	0.0135323
762.958	0.0135796
763.036	0.0135899
763.114	0.0137096
763.193	0.0137391
763.271	0.0137000
763.349	0.0134662
763.427	0.0136765
763.505	0.0137445
763.583	0.0137185
763.661	0.0135878
763.739	0.0136360
763.818	0.0136628
763.896	0.0136251
763.974	0.0135098
764.052	0.0135037
764.130	0.0134274
764.208	0.0133691
764.286	0.0133240
764.364	0.0132637
764.443	0.0132957
764.521	0.0131822
764.599	0.0132909
764.677	0.0131160
764.755	0.0131875
764.833	0.0133450
764.911	0.0133786
764.989	0.0133312
765.068	0.0134680
765.146	0.0134164
765.224	0.0134950
765.302	0.0136029
765.380	0.0136076
765.458	0.0136630
765.536	0.0135586
765.614	0.0137103
765.693	0.0138605
765.771	0.0135999
765.849	0.0136935
765.927	0.0136671
766.005	0.0136987
766.083	0.0136420
766.161	0.0137825
766.239	0.0136696
766.318	0.0138279
766.396	0.0137015
766.474	0.0137907
766.552	0.0137707
766.630	0.0137248
766.708	0.0137447
766.786	0.0136610
766.864	0.0137915
766.943	0.0137068
767.021	0.0136757
767.099	0.0137393
767.177	0.0138043
767.255	0.0137184
767.333	0.0136271
767.411	0.0136653
767.489	0.0136133
767.568	0.0136309
767.646	0.0136979
767.724	0.0137971
767.802	0.0137017
767.880	0.0137488
767.958	0.0138175
768.036	0.0137939
768.114	0.0136933
768.193	0.0136250
768.271	0.0137164
768.349	0.0138101
768.427	0.0138447
768.505	0.0138296
768.583	0.0137257
768.661	0.0136637
768.739	0.0136406
768.818	0.0137134
768.896	0.0136628
768.974	0.0137333
769.052	0.0137219
769.130	0.0135619
769.208	0.0137209
769.286	0.0138908
769.364	0.0137517
769.443	0.0137659
769.521	0.0138120
769.599	0.0137939
769.677	0.0139014
769.755	0.0139645
769.833	0.0138037
769.911	0.0138353
769.989	0.0137485
770.068	0.0137710
770.146	0.0136298
770.224	0.0135468
770.302	0.0136372
770.380	0.0135002
770.458	0.0133155
770.536	0.0132848
770.614	0.0133395
770.693	0.0133818
770.771	0.0132387
770.849	0.0132212
770.927	0.0134679
771.005	0.0132134
771.083	0.0131998
771.161	0.0132143
771.239	0.0133810
771.318	0.0133495
771.396	0.0133212
771.474	0.0134652
771.552	0.0134090
771.630	0.0134122
771.708	0.0134460
771.786	0.0135581
771.864	0.0136645
771.943	0.0137382
772.021	0.0136191
772.099	0.0138232
772.177	0.0138476
772.255	0.0138167
772.333	0.0138536
772.411	0.0138398
772.489	0.0139329
772.568	0.0139526
772.646	0.0139354
772.724	0.0139578
772.802	0.0140137
772.880	0.0140455
772.958	0.0140036
773.036	0.0139910
773.114	0.0140616
773.193	0.0139007
773.271	0.0139811
773.349	0.0140105
773.427	0.0139285
773.505	0.0139519
773.583	0.0139551
773.661	0.0137694
773.739	0.0138992
773.818	0.0138453
773.896	0.0138235
773.974	0.0138420
774.052	0.0140508
774.130	0.0138194
774.208	0.0137650
774.286	0.0137888
774.364	0.0136664
774.443	0.0139220
774.521	0.0137209
774.599	0.0137164
774.677	0.0136256
774.755	0.0134901
774.833	0.0135355
774.911	0.0135642
774.989	0.0133729
775.068	0.0134447
775.146	0.0134588
775.224	0.0133511
775.302	0.0134670
775.380	0.0135381
775.458	0.0136795
775.536	0.0136621
775.614	0.0136684
775.693	0.0136549
775.771	0.0137951
775.849	0.0139150
775.927	0.0139108
776.005	0.0140607
776.083	0.0139947
776.161	0.0140327
776.239	0.0141727
776.318	0.0140900
776.396	0.0142889
776.474	0.0140411
776.552	0.0140361
776.630	0.0138877
776.708	0.0137316
776.786	0.0138871
776.864	0.0140272
776.943	0.0139233
777.021	0.0138165
777.099	0.0137291
777.177	0.0137978
777.255	0.0138161
777.333	0.0136797
777.411	0.0136541
777.489	0.0136655
777.568	0.0136058
777.646	0.0134769
777.724	0.0133630
777.802	0.0135836
777.880	0.0135384
777.958	0.0134278
778.036	0.0131691
778.114	0.0133358
778.193	0.0133305
778.271	0.0132561
778.349	0.0132892
778.427	0.0133444
778.505	0.0132961
778.583	0.0133414
778.661	0.0135422
778.739	0.0134402
778.818	0.0134502
778.896	0.0136819
778.974	0.0136829
779.052	0.0136914
779.130	0.0136952
779.208	0.0138219
779.286	0.0138058
779.364	0.0139454
779.443	0.0139787
779.521	0.0140591
779.599	0.0140015
779.677	0.0140746
779.755	0.0142177
779.833	0.0141587
779.911	0.0140205
779.989	0.0141085
780.068	0.0141471
780.146	0.0141097
780.224	0.0142731
780.302	0.0142130
780.380	0.0139660
780.458	0.0140616
780.536	0.0141794
780.614	0.0139594
780.693	0.0140314
780.771	0.0139091
780.849	0.0140004
780.927	0.0137821
781.005	0.0138729
781.083	0.0138742
781.161	0.0136713
781.239	0.0136192
781.318	0.0135943
781.396	0.0136864
781.474	0.0135711
781.552	0.0134886
781.630	0.0133922
781.708	0.0133704
781.786	0.0133720
781.864	0.0133409
781.943	0.0133884
782.021	0.0132950
782.099	0.0132748
782.177	0.0133857
782.255	0.0134023
782.333	0.0134509
782.411	0.0133041
782.489	0.0134075
782.568	0.0134438
782.646	0.0134746
782.724	0.0135929
782.802	0.0137057
782.880	0.0136472
782.958	0.0135942
783.036	0.0136959
783.114	0.0138236
783.193	0.0138115
783.271	0.0138877
783.349	0.0138749
783.427	0.0140215
783.505	0.0140080
783.583	0.0141371
783.661	0.0140085
783.739	0.0139639
783.818	0.0141135
783.896	0.0139243
783.974	0.0139636
784.052	0.0138349
784.130	0.0139418
784.208	0.0138802
784.286	0.0138662
784.364	0.0135574
784.443	0.0136234
784.521	0.0134216
784.599	0.0132456
784.677	0.0134226
784.755	0.0133245
784.833	0.0132687
784.911	0.0132561
784.989	0.0131309
785.068	0.0130999
785.146	0.0132153
785.224	0.0131161
785.302	0.0131322
785.380	0.0131794
785.458	0.0131413
785.536	0.0133981
785.614	0.0134029
785.693	0.0133322
785.771	0.0132776
785.849	0.0134134
785.927	0.0135133
786.005	0.0135544
786.083	0.0135200
786.161	0.0136622
786.239	0.0136050
786.318	0.0137081
786.396	0.0138491
786.474	0.0136700
786.552	0.0137456
786.630	0.0136575
786.708	0.0136541
786.786	0.0137095
786.864	0.0137511
786.943	0.0137106
787.021	0.0137418
787.099	0.0137402
787.177	0.0136522
787.255	0.0137070
787.333	0.0135971
787.411	0.0138042
787.489	0.0137352
787.568	0.0137597
787.646	0.0137844
787.724	0.0138655
787.802	0.0137949
787.880	0.0136316
787.958	0.0136711
788.036	0.0136227
788.114	0.0137436
788.193	0.0136135
788.271	0.0135809
788.349	0.0135500
788.427	0.0135940
788.505	0.0136846
788.583	0.0137048
788.661	0.0135853
788.739	0.0136854
788.818	0.0134949
788.896	0.0133784
788.974	0.0135983
789.052	0.0136993
789.130	0.0136607
789.208	0.0136383
789.286	0.0135397
789.364	0.0135645
789.443	0.0135431
789.521	0.0136369
789.599	0.0136820
789.677	0.0136029
789.755	0.0136121
789.833	0.0136957
789.911	0.0136301
789.989	0.0137687
790.068	0.0137479
790.146	0.0137663
790.224	0.0139054
790.302	0.0139803
790.380	0.0138363
790.458	0.0138882
790.536	0.0139541
790.614	0.0138381
790.693	0.0140293
790.771	0.0138094
790.849	0.0137604
790.927	0.0138300
791.005	0.0137469
791.083	0.0137511
791.161	0.0137241
791.239	0.0136064
791.318	0.0136510
791.396	0.0136179
791.474	0.0135376
791.552	0.0135700
791.630	0.0135554
791.708	0.0135951
791.786	0.0134621
791.864	0.0134952
791.943	0.0135291
792.021	0.0133929
792.099	0.0134571
792.177	0.0135235
792.255	0.0133744
792.333	0.0134821
792.411	0.0137518
792.489	0.0136075
792.568	0.0134229
792.646	0.0136594
792.724	0.0136334
792.802	0.0134951
792.880	0.0136289
792.958	0.0134746
793.036	0.0135462
793.114	0.0135699
793.193	0.0135918
793.271	0.0136237
793.349	0.0135853
793.427	0.0137573
793.505	0.0137158
793.583	0.0136482
793.661	0.0136021
793.739	0.0136980
793.818	0.0137232
793.896	0.0136245
793.974	0.0138663
794.052	0.0139581
794.130	0.0138737
794.208	0.0140109
794.286	0.0140772
794.364	0.0140462
794.443	0.0141705
794.521	0.0141515
794.599	0.0139927
794.677	0.0141930
794.755	0.0143941
794.833	0.0141146
794.911	0.0141631
794.989	0.0140877
795.068	0.0141282
795.146	0.0140347
795.224	0.0139689
795.302	0.0140477
795.380	0.0138106
795.458	0.0137917
795.536	0.0136951
795.614	0.0134953
795.693	0.0135799
795.771	0.0135861
795.849	0.0132704
795.927	0.0132734
796.005	0.0131879
796.083	0.0130952
796.161	0.0130930
796.239	0.0131266
796.318	0.0131655
796.396	0.0132487
796.474	0.0130946
796.552	0.0131785
796.630	0.0132084
796.708	0.0132039
796.786	0.0132521
796.864	0.0132117
796.943	0.0134645
797.021	0.0135461
797.099	0.0134617
797.177	0.0135497
797.255	0.0137035
797.333	0.0137964
797.411	0.0138002
797.489	0.0138618
797.568	0.0138733
797.646	0.0139881
797.724	0.0140910
797.802	0.0141100
797.880	0.0141220
797.958	0.0142238
798.036	0.0142045
798.114	0.0141551
798.193	0.0142426
798.271	0.0141656
798.349	0.0141862
798.427	0.0141511
798.505	0.0141387
798.583	0.0141705
798.661	0.0141203
798.739	0.0140815
798.818	0.0140388
798.896	0.0139996
798.974	0.0140089
799.052	0.0137177
799.130	0.0138820
799.208	0.0138771
799.286	0.0140171
799.364	0.0136838
799.443	0.0139542
799.521	0.0139203
799.599	0.0138042
799.677	0.0139137
799.755	0.0137900
799.833	0.0137825
799.911	0.0137870
799.989	0.0136549
800.068	0.0137953
800.146	0.0137741
800.224	0.0137043
800.302	0.0136850
800.380	0.0136098
800.458	0.0135343
800.536	0.0136409
800.614	0.0134879
800.693	0.0133461
800.771	0.0133411
800.849	0.0134460
800.927	0.0134113
801.005	0.0133374
801.083	0.0131927
801.161	0.0132231
801.239	0.0132931
801.318	0.0132018
801.396	0.0134405
801.474	0.0134236
801.552	0.0133870
801.630	0.0134444
801.708	0.0136131
801.786	0.0135815
801.864	0.0136064
801.943	0.0136096
802.021	0.0137659
802.099	0.0136511
802.177	0.0135689
802.255	0.0137691
802.333	0.0138532
802.411	0.0138490
802.489	0.0138837
802.568	0.0137505
802.646	0.0138643
802.724	0.0139101
802.802	0.0139709
802.880	0.0137328
802.958	0.0138120
803.036	0.0140221
803.114	0.0138988
803.193	0.0139774
803.271	0.0139405
803.349	0.0139484
803.427	0.0139171
803.505	0.0139100
803.583	0.0139022
803.661	0.0139068
803.739	0.0138434
803.818	0.0136996
803.896	0.0136243
803.974	0.0137773
804.052	0.0134973
804.130	0.0135471
804.208	0.0136331
804.286	0.0135876
804.364	0.0133595
804.443	0.0135874
804.521	0.0135851
804.599	0.0135450
804.677	0.0133286
804.755	0.0132666
804.833	0.0133485
804.911	0.0134580
804.989	0.0132710
805.068	0.0133271
805.146	0.0132980
805.224	0.0133283
805.302	0.0133408
805.380	0.0135268
805.458	0.0135115
805.536	0.0133360
805.614	0.0133117
805.693	0.0133695
805.771	0.0133808
805.849	0.0134351
805.927	0.0135020
806.005	0.0134956
806.083	0.0135867
806.161	0.0134858
806.239	0.0136848
806.318	0.0134744
806.396	0.0135896
806.474	0.0137286
806.552	0.0137292
806.630	0.0137134
806.708	0.0136000
806.786	0.0137815
806.864	0.0138390
806.943	0.0137857
807.021	0.0138142
807.099	0.0139729
807.177	0.0138030
807.255	0.0138944
807.333	0.0137273
807.411	0.0137804
807.489	0.0137209
807.568	0.0136598
807.646	0.0136940
807.724	0.0137305
807.802	0.0135619
807.880	0.0135957
807.958	0.0135405
808.036	0.0135126
808.114	0.0135939
808.193	0.0135553
808.271	0.0136366
808.349	0.0135329
808.427	0.0135815
808.505	0.0135513
808.583	0.0134616
808.661	0.0134412
808.739	0.0135083
808.818	0.0135352
808.896	0.0134950
808.974	0.0134758
809.052	0.0133495
809.130	0.0134248
809.208	0.0133114
809.286	0.0132507
809.364	0.0134311
809.443	0.0134077
809.521	0.0132403
809.599	0.0133144
809.677	0.0133401
809.755	0.0131311
809.833	0.0132645
809.911	0.0133954
809.989	0.0132146
810.068	0.0132899
810.146	0.0133588
810.224	0.0133325
810.302	0.0134708
810.380	0.0134529
810.458	0.0134769
810.536	0.0135172
810.614	0.0135284
810.693	0.0134794
810.771	0.0136230
810.849	0.0135236
810.927	0.0136353
811.005	0.0137626
811.083	0.0137066
811.161	0.0136223
811.239	0.0138359
811.318	0.0138017
811.396	0.0138990
811.474	0.0138187
811.552	0.0138040
811.630	0.0136511
811.708	0.0137849
811.786	0.0137794
811.864	0.0136653
811.943	0.0137589
812.021	0.0136446
812.099	0.0137395
812.177	0.0136620
812.255	0.0136053
812.333	0.0136271
812.411	0.0135776
812.489	0.0135073
812.568	0.0136003
812.646	0.0136144
812.724	0.0136253
812.802	0.0135641
812.880	0.0136937
812.958	0.0137054
813.036	0.0137889
813.114	0.0137794
813.193	0.0137479
813.271	0.0138686
813.349	0.0139637
813.427	0.0138149
813.505	0.0138865
813.583	0.0139853
813.661	0.0138679
813.739	0.0138918
813.818	0.0138831
813.896	0.0139299
813.974	0.0137823
814.052	0.0139163
814.130	0.0139127
814.208	0.0137672
814.286	0.0135768
814.364	0.0135812
814.443	0.0135157
814.521	0.0135432
814.599	0.0133482
814.677	0.0133097
814.755	0.0133537
814.833	0.0133435
814.911	0.0132754
814.989	0.0132063
815.068	0.0132941
815.146	0.0131020
815.224	0.0131895
815.302	0.0131776
815.380	0.0132321
815.458	0.0132121
815.536	0.0131416
815.614	0.0132614
815.693	0.0133558
815.771	0.0134614
815.849	0.0135352
815.927	0.0135826
816.005	0.0135450
816.083	0.0136854
816.161	0.0137518
816.239	0.0136666
816.318	0.0137450
816.396	0.0137401
816.474	0.0138880
816.552	0.0139593
816.630	0.0140034
816.708	0.0138967
816.786	0.0139524
816.864	0.0139673
816.943	0.0138365
817.021	0.0138998
817.099	0.0141125
817.177	0.0141720
817.255	0.0140221
817.333	0.0140025
817.411	0.0139749
817.489	0.0139504
817.568	0.0139642
817.646	0.0138811
817.724	0.0138925
817.802	0.0138403
817.880	0.0139523
817.958	0.0139018
818.036	0.0137091
818.114	0.0137557
818.193	0.0137932
818.271	0.0140053
818.349	0.0137775
818.427	0.0137433
818.505	0.0136692
818.583	0.0138190
818.661	0.0138410
818.739	0.0137299
818.818	0.0138007
818.896	0.0137177
818.974	0.0138566
819.052	0.0138524
819.130	0.0137456
819.208	0.0136295
819.286	0.0136556
819.364	0.0137256
819.443	0.0135466
819.521	0.0136524
819.599	0.0137048
819.677	0.0138229
819.755	0.0136530
819.833	0.0134975
819.911	0.0135080
819.989	0.0135818
820.068	0.0135115
820.146	0.0134162
820.224	0.0133973
820.302	0.0135709
820.380	0.0136547
820.458	0.0135133
820.536	0.0134142
820.614	0.0135530
820.693	0.0135419
820.771	0.0137014
820.849	0.0135899
820.927	0.0135785
821.005	0.0135875
821.083	0.0136298
821.161	0.0137167
821.239	0.0135968
821.318	0.0136716
821.396	0.0137317
821.474	0.0139864
821.552	0.0138517
821.630	0.0138837
821.708	0.0139349
821.786	0.0140401
821.864	0.0139486
821.943	0.0140105
822.021	0.0141689
822.099	0.0141708
822.177	0.0141035
822.255	0.0141444
822.333	0.0142144
822.411	0.0140961
822.489	0.0141722
822.568	0.0141077
822.646	0.0140951
822.724	0.0141053
822.802	0.0139847
822.880	0.0139744
822.958	0.0140362
823.036	0.0139424
823.114	0.0140952
823.193	0.0137815
823.271	0.0137553
823.349	0.0138300
823.427	0.0137901
823.505	0.0138731
823.583	0.0137521
823.661	0.0138542
823.739	0.0137138
823.818	0.0136815
823.896	0.0139236
823.974	0.0139380
824.052	0.0137954
824.130	0.0137873
824.208	0.0138681
824.286	0.0137984
824.364	0.0139291
824.443	0.0141723
824.521	0.0139425
824.599	0.0138841
824.677	0.0138385
824.755	0.0138495
824.833	0.0139375
824.911	0.0139194
824.989	0.0138400
825.068	0.0138116
825.146	0.0138080
825.224	0.0139882
825.302	0.0138252
825.380	0.0138036
825.458	0.0137270
825.536	0.0136193
825.614	0.0136034
825.693	0.0136787
825.771	0.0134248
825.849	0.0134631
825.927	0.0133458
826.005	0.0132498
826.083	0.0132790
826.161	0.0132458
826.239	0.0131734
826.318	0.0131178
826.396	0.0130028
826.474	0.0130447
826.552	0.0131350
826.630	0.0128487
826.708	0.0129014
826.786	0.0129347
826.864	0.0129321
826.943	0.0131284
827.021	0.0129809
827.099	0.0131596
827.177	0.0132745
827.255	0.0132800
827.333	0.0131967
827.411	0.0133192
827.489	0.0134234
827.568	0.0134428
827.646	0.0135651
827.724	0.0135615
827.802	0.0136200
827.880	0.0136520
827.958	0.0136985
828.036	0.0135370
828.114	0.0137447
828.193	0.0138936
828.271	0.0138454
828.349	0.0139590
828.427	0.0138778
828.505	0.0138609
828.583	0.0139093
828.661	0.0139658
828.739	0.0139273
828.818	0.0139652
828.896	0.0137740
828.974	0.0138381
829.052	0.0138396
829.130	0.0139479
829.208	0.0139247
829.286	0.0138584
829.364	0.0138757
829.443	0.0138216
829.521	0.0138510
829.599	0.0139034
829.677	0.0137735
829.755	0.0137595
829.833	0.0136330
829.911	0.0138722
829.989	0.0137894
830.068	0.0137002
830.146	0.0137872
830.224	0.0137138
830.302	0.0135899
830.380	0.0135516
830.458	0.0135163
830.536	0.0134469
830.614	0.0134306
830.693	0.0133410
830.771	0.0135033
830.849	0.0134530
830.927	0.0133656
831.005	0.0135112
831.083	0.0133642
831.161	0.0132312
831.239	0.0131963
831.318	0.0133460
831.396	0.0132825
831.474	0.0133035
831.552	0.0132607
831.630	0.0132403
831.708	0.0132145
831.786	0.0132349
831.864	0.0132681
831.943	0.0131688
832.021	0.0133150
832.099	0.0132459
832.177	0.0132637
832.255	0.0132233
832.333	0.0134078
832.411	0.0133542
832.489	0.0133871
832.568	0.0134098
832.646	0.0134513
832.724	0.0135564
832.802	0.0136208
832.880	0.0136912
832.958	0.0136829
833.036	0.0137615
833.114	0.0137152
833.193	0.0137601
833.271	0.0138080
833.349	0.0138678
833.427	0.0138237
833.505	0.0137860
833.583	0.0137321
833.661	0.0137514
833.739	0.0138308
833.818	0.0138329
833.896	0.0138042
833.974	0.0137814
834.052	0.0137553
834.130	0.0136521
834.208	0.0136944
834.286	0.0136569
834.364	0.0136505
834.443	0.0135732
834.521	0.0136451
834.599	0.0137247
834.677	0.0135843
834.755	0.0135323
834.833	0.0136868
834.911	0.0136276
834.989	0.0136897
835.068	0.0135181
835.146	0.0136822
835.224	0.0135892
835.302	0.0135919
835.380	0.0136614
835.458	0.0136983
835.536	0.0136162
835.614	0.0136588
835.693	0.0135881
835.771	0.0138177
835.849	0.0138838
835.927	0.0137997
836.005	0.0137741
836.083	0.0137706
836.161	0.0137764
836.239	0.0136532
836.318	0.0136742
836.396	0.0138451
836.474	0.0136987
836.552	0.0136789
836.630	0.0133939
836.708	0.0137132
836.786	0.0135409
836.864	0.0134306
836.943	0.0136503
837.021	0.0135168
837.099	0.0134468
837.177	0.0134312
837.255	0.0135236
837.333	0.0135127
837.411	0.0134158
837.489	0.0133849
837.568	0.0133385
837.646	0.0133932
837.724	0.0135181
837.802	0.0134265
837.880	0.0135011
837.958	0.0135491
838.036	0.0133929
838.114	0.0135974
838.193	0.0136707
838.271	0.0136172
838.349	0.0137147
838.427	0.0137988
838.505	0.0137344
838.583	0.0138120
838.661	0.0138947
838.739	0.0139921
838.818	0.0140009
838.896	0.0139681
838.974	0.0138826
839.052	0.0139198
839.130	0.0138674
839.208	0.0138940
839.286	0.0140167
839.364	0.0139789
839.443	0.0139688
839.521	0.0138115
839.599	0.0137830
839.677	0.0138062
839.755	0.0137181
839.833	0.0137208
839.911	0.0137945
839.989	0.0136982
840.068	0.0135893
840.146	0.0136194
840.224	0.0134325
840.302	0.0136000
840.380	0.0135143
840.458	0.0135960
840.536	0.0135573
840.614	0.0133399
840.693	0.0134624
840.771	0.0134109
840.849	0.0134387
840.927	0.0134540
841.005	0.0133968
841.083	0.0135032
841.161	0.0133868
841.239	0.0135501
841.318	0.0135078
841.396	0.0134750
841.474	0.0136128
841.552	0.0135939
841.630	0.0136172
841.708	0.0136597
841.786	0.0136993
841.864	0.0136311
841.943	0.0138562
842.021	0.0137494
842.099	0.0137736
842.177	0.0136582
842.255	0.0137960
842.333	0.0136745
842.411	0.0135798
842.489	0.0136865
842.568	0.0136800
842.646	0.0137851
842.724	0.0136892
842.802	0.0134425
842.880	0.0136241
842.958	0.0135572
843.036	0.0137886
843.114	0.0136757
843.193	0.0137093
843.271	0.0137286
843.349	0.0135162
843.427	0.0134374
843.505	0.0135341
843.583	0.0136833
843.661	0.0136609
843.739	0.0137045
843.818	0.0137267
843.896	0.0137878
843.974	0.0136355
844.052	0.0138193
844.130	0.0136962
844.208	0.0138699
844.286	0.0139241
844.364	0.0138869
844.443	0.0137430
844.521	0.0139024
844.599	0.0139413
844.677	0.0138877
844.755	0.0138597
844.833	0.0138208
844.911	0.0139668
844.989	0.0140880
845.068	0.0138105
845.146	0.0137817
845.224	0.0137326
845.302	0.0137641
845.380	0.0137437
845.458	0.0137377
845.536	0.0137400
845.614	0.0137896
845.693	0.0136642
845.771	0.0135592
845.849	0.0136289
845.927	0.0136259
846.005	0.0136507
846.083	0.0136430
846.161	0.0136707
846.239	0.0136446
846.318	0.0137124
846.396	0.0135432
846.474	0.0135604
846.552	0.0134550
846.630	0.0136073
846.708	0.0136574
846.786	0.0135300
846.864	0.0137129
846.943	0.0137964
847.021	0.0137483
847.099	0.0137795
847.177	0.0136985
847.255	0.0137400
847.333	0.0139705
847.411	0.0140295
847.489	0.0139385
847.568	0.0139425
847.646	0.0139620
847.724	0.0139169
847.802	0.0138189
847.880	0.0138641
847.958	0.0138956
848.036	0.0139024
848.114	0.0137749
848.193	0.0138103
848.271	0.0137856
848.349	0.0139645
848.427	0.0138150
848.505	0.0137144
848.583	0.0136399
848.661	0.0135787
848.739	0.0136913
848.818	0.0134875
848.896	0.0136266
848.974	0.0135390
849.052	0.0135532
849.130	0.0137090
849.208	0.0135719
849.286	0.0134183
849.364	0.0135377
849.443	0.0136717
849.521	0.0136088
849.599	0.0135653
849.677	0.0136440
849.755	0.0135057
849.833	0.0136145
849.911	0.0135454
849.989	0.0135962
850.068	0.0136202
850.146	0.0137865
850.224	0.0137088
850.302	0.0137275
850.380	0.0136589
850.458	0.0135870
850.536	0.0137482
850.614	0.0138573
850.693	0.0136844
850.771	0.0138194
850.849	0.0138878
850.927	0.0138948
851.005	0.0137473
851.083	0.0139379
851.161	0.0139404
851.239	0.0138068
851.318	0.0138225
851.396	0.0137605
851.474	0.0138361
851.552	0.0138381
851.630	0.0137720
851.708	0.0137993
851.786	0.0138600
851.864	0.0138428
851.943	0.0137099
852.021	0.0137523
852.099	0.0137307
852.177	0.0138343
852.255	0.0138328
852.333	0.0138283
852.411	0.0137013
852.489	0.0138194
852.568	0.0138429
852.646	0.0136289
852.724	0.0137082
852.802	0.0136171
852.880	0.0136807
852.958	0.0136979
853.036	0.0136987
853.114	0.0137467
853.193	0.0136908
853.271	0.0137975
853.349	0.0137524
853.427	0.0137018
853.505	0.0139021
853.583	0.0137526
853.661	0.0136452
853.739	0.0137667
853.818	0.0138026
853.896	0.0137320
853.974	0.0137290
854.052	0.0137678
854.130	0.0137202
854.208	0.0136954
854.286	0.0135730
854.364	0.0136942
854.443	0.0137502
854.521	0.0136952
854.599	0.0135857
854.677	0.0136649
854.755	0.0138030
854.833	0.0137714
854.911	0.0135868
854.989	0.0138502
855.068	0.0138086
855.146	0.0137743
855.224	0.0137372
855.302	0.0137465
855.380	0.0137526
855.458	0.0138302
855.536	0.0139450
855.614	0.0137793
855.693	0.0138341
855.771	0.0136898
855.849	0.0137215
855.927	0.0139277
856.005	0.0136262
856.083	0.0135713
856.161	0.0136017
856.239	0.0136009
856.318	0.0137180
856.396	0.0135948
856.474	0.0134904
856.552	0.0135697
856.630	0.0136385
856.708	0.0136314
856.786	0.0135249
856.864	0.0135656
856.943	0.0136407
857.021	0.0136075
857.099	0.0135723
857.177	0.0135142
857.255	0.0135237
857.333	0.0134611
857.411	0.0135156
857.489	0.0135273
857.568	0.0136645
857.646	0.0134662
857.724	0.0137483
857.802	0.0136082
857.880	0.0136292
857.958	0.0137859
858.036	0.0136773
858.114	0.0138879
858.193	0.0139561
858.271	0.0138252
858.349	0.0138440
858.427	0.0137913
858.505	0.0137758
858.583	0.0137263
858.661	0.0138410
858.739	0.0138847
858.818	0.0137738
858.896	0.0136177
858.974	0.0137603
859.052	0.0137630
859.130	0.0135732
859.208	0.0137167
859.286	0.0137321
859.364	0.0135898
859.443	0.0137177
859.521	0.0135987
859.599	0.0136118
859.677	0.0136440
859.755	0.0136679
859.833	0.0136186
859.911	0.0135288
859.989	0.0135896
860.068	0.0135323
860.146	0.0135946
860.224	0.0136813
860.302	0.0136562
860.380	0.0136282
860.458	0.0135884
860.536	0.0136851
860.614	0.0137717
860.693	0.0137616
860.771	0.0136492
860.849	0.0136726
860.927	0.0137195
861.005	0.0137336
861.083	0.0137298
861.161	0.0137919
861.239	0.0136768
861.318	0.0136271
861.396	0.0136256
861.474	0.0136881
861.552	0.0135914
861.630	0.0136416
861.708	0.0135575
861.786	0.0137231
861.864	0.0136304
861.943	0.0135988
862.021	0.0137054
862.099	0.0135587
862.177	0.0135353
862.255	0.0137489
862.333	0.0135609
862.411	0.0135033
862.489	0.0134209
862.568	0.0135228
862.646	0.0135525
862.724	0.0133248
862.802	0.0134198
862.880	0.0135030
862.958	0.0135130
863.036	0.0134793
863.114	0.0135381
863.193	0.0136094
863.271	0.0136144
863.349	0.0136459
863.427	0.0135501
863.505	0.0135789
863.583	0.0135909
863.661	0.0135146
863.739	0.0135873
863.818	0.0135594
863.896	0.0135140
863.974	0.0136089
864.052	0.0136301
864.130	0.0136861
864.208	0.0135909
864.286	0.0135738
864.364	0.0135145
864.443	0.0135732
864.521	0.0135532
864.599	0.0134750
864.677	0.0135371
864.755	0.0134975
864.833	0.0135936
864.911	0.0135135
864.989	0.0135117
865.068	0.0137947
865.146	0.0135915
865.224	0.0134483
865.302	0.0136280
865.380	0.0135962
865.458	0.0135358
865.536	0.0136960
865.614	0.0136786
865.693	0.0138033
865.771	0.0136268
865.849	0.0137930
865.927	0.0137405
866.005	0.0137064
866.083	0.0136835
866.161	0.0138301
866.239	0.0137083
866.318	0.0137238
866.396	0.0137064
866.474	0.0135629
866.552	0.0137663
866.630	0.0137827
866.708	0.0135965
866.786	0.0135883
866.864	0.0137169
866.943	0.0134155
867.021	0.0135809
867.099	0.0136201
867.177	0.0136218
867.255	0.0135834
867.333	0.0134860
867.411	0.0135828
867.489	0.0134679
867.568	0.0134996
867.646	0.0133987
867.724	0.0135944
867.802	0.0135193
867.880	0.0134574
867.958	0.0133882
868.036	0.0133686
868.114	0.0134964
868.193	0.0135191
868.271	0.0136310
868.349	0.0135581
868.427	0.0136066
868.505	0.0135661
868.583	0.0136069
868.661	0.0136617
868.739	0.0136940
868.818	0.0136181
868.896	0.0137115
868.974	0.0137272
869.052	0.0138019
869.130	0.0138206
869.208	0.0136693
869.286	0.0138970
869.364	0.0139025
869.443	0.0137599
869.521	0.0138954
869.599	0.0139957
869.677	0.0139774
869.755	0.0139072
869.833	0.0138478
869.911	0.0139201
869.989	0.0139309
870.068	0.0139639
870.146	0.0140523
870.224	0.0138919
870.302	0.0138898
870.380	0.0140755
870.458	0.0139352
870.536	0.0139622
870.614	0.0139958
870.693	0.0141678
870.771	0.0139731
870.849	0.0140284
870.927	0.0140598
871.005	0.0140087
871.083	0.0141106
871.161	0.0141030
871.239	0.0140229
871.318	0.0139120
871.396	0.0138746
871.474	0.0139075
871.552	0.0138524
871.630	0.0138716
871.708	0.0137440
871.786	0.0137564
871.864	0.0137791
871.943	0.0137253
872.021	0.0135474
872.099	0.0135406
872.177	0.0135387
872.255	0.0133737
872.333	0.0133195
872.411	0.0134333
872.489	0.0134050
872.568	0.0133080
872.646	0.0133994
872.724	0.0134409
872.802	0.0133976
872.880	0.0133352
872.958	0.0132153
873.036	0.0134448
873.114	0.0133772
873.193	0.0133564
873.271	0.0135509
873.349	0.0135300
873.427	0.0137146
873.505	0.0136745
873.583	0.0137276
873.661	0.0137270
873.739	0.0138113
873.818	0.0138647
873.896	0.0138233
873.974	0.0138363
874.052	0.0139030
874.130	0.0137853
874.208	0.0138654
874.286	0.0139809
874.364	0.0138860
874.443	0.0139201
874.521	0.0139162
874.599	0.0139261
874.677	0.0138343
874.755	0.0139610
874.833	0.0140001
874.911	0.0140196
874.989	0.0139854
875.068	0.0138890
875.146	0.0139993
875.224	0.0138220
875.302	0.0139033
875.380	0.0137703
875.458	0.0136391
875.536	0.0137867
875.614	0.0138295
875.693	0.0136993
875.771	0.0136839
875.849	0.0135816
875.927	0.0135321
876.005	0.0136620
876.083	0.0134498
876.161	0.0135963
876.239	0.0135362
876.318	0.0134842
876.396	0.0134142
876.474	0.0135329
876.552	0.0136190
876.630	0.0135801
876.708	0.0134912
876.786	0.0135863
876.864	0.0136010
876.943	0.0136057
877.021	0.0135717
877.099	0.0137234
877.177	0.0138150
877.255	0.0137063
877.333	0.0136323
877.411	0.0136462
877.489	0.0138010
877.568	0.0140651
877.646	0.0138637
877.724	0.0139120
877.802	0.0139610
877.880	0.0140215
877.958	0.0141221
878.036	0.0142211
878.114	0.0141035
878.193	0.0141531
878.271	0.0140775
878.349	0.0140544
878.427	0.0140786
878.505	0.0138931
878.583	0.0141870
878.661	0.0139101
878.739	0.0140269
878.818	0.0139489
878.896	0.0138268
878.974	0.0138167
879.052	0.0135963
879.130	0.0136558
879.208	0.0137350
879.286	0.0135576
879.364	0.0135449
879.443	0.0134877
879.521	0.0135318
879.599	0.0135245
879.677	0.0132937
879.755	0.0133685
879.833	0.0133443
879.911	0.0131919
879.989	0.0132993
880.068	0.0134982
880.146	0.0133031
880.224	0.0133823
880.302	0.0134087
880.380	0.0134518
880.458	0.0133533
880.536	0.0134727
880.614	0.0135133
880.693	0.0135629
880.771	0.0135773
880.849	0.0137438
880.927	0.0136935
881.005	0.0137855
881.083	0.0137352
881.161	0.0137798
881.239	0.0139034
881.318	0.0138554
881.396	0.0138948
881.474	0.0139509
881.552	0.0139920
881.630	0.0139552
881.708	0.0139669
881.786	0.0139161
881.864	0.0141094
881.943	0.0141724
882.021	0.0139734
882.099	0.0138947
882.177	0.0140699
882.255	0.0140470
882.333	0.0138522
882.411	0.0137996
882.489	0.0138723
882.568	0.0138625
882.646	0.0137595
882.724	0.0136425
882.802	0.0137129
882.880	0.0135591
882.958	0.0135967
883.036	0.0134602
883.114	0.0135287
883.193	0.0136486
883.271	0.0135451
883.349	0.0136072
883.427	0.0134955
883.505	0.0134287
883.583	0.0133138
883.661	0.0134372
883.739	0.0134119
883.818	0.0134127
883.896	0.0135451
883.974	0.0135886
884.052	0.0135228
884.130	0.0135333
884.208	0.0136338
884.286	0.0136214
884.364	0.0136453
884.443	0.0135326
884.521	0.0135493
884.599	0.0136466
884.677	0.0137923
884.755	0.0136667
884.833	0.0136905
884.911	0.0136853
884.989	0.0138782
885.068	0.0135787
885.146	0.0137486
885.224	0.0138342
885.302	0.0136626
885.380	0.0135651
885.458	0.0135265
885.536	0.0135351
885.614	0.0134653
885.693	0.0135093
885.771	0.0134967
885.849	0.0134605
885.927	0.0134236
886.005	0.0134522
886.083	0.0134913
886.161	0.0134970
886.239	0.0135204
886.318	0.0135413
886.396	0.0136328
886.474	0.0136022
886.552	0.0134190
886.630	0.0136265
886.708	0.0137097
886.786	0.0135133
886.864	0.0135748
886.943	0.0136903
887.021	0.0135975
887.099	0.0136560
887.177	0.0136058
887.255	0.0135701
887.333	0.0135970
887.411	0.0135822
887.489	0.0136501
887.568	0.0137051
887.646	0.0135934
887.724	0.0135519
887.802	0.0134657
887.880	0.0134256
887.958	0.0134916
888.036	0.0133831
888.114	0.0132627
888.193	0.0134723
888.271	0.0134122
888.349	0.0135048
888.427	0.0134128
888.505	0.0133946
888.583	0.0134135
888.661	0.0135648
888.739	0.0134541
888.818	0.0135651
888.896	0.0135893
888.974	0.0135283
889.052	0.0135374
889.130	0.0137543
889.208	0.0136827
889.286	0.0135696
889.364	0.0136751
889.443	0.0138245
889.521	0.0137982
889.599	0.0138899
889.677	0.0136702
889.755	0.0137194
889.833	0.0138138
889.911	0.0137767
889.989	0.0136932
890.068	0.0137674
890.146	0.0137006
890.224	0.0137842
890.302	0.0136871
890.380	0.0136366
890.458	0.0136034
890.536	0.0135212
890.614	0.0134978
890.693	0.0134613
890.771	0.0133350
890.849	0.0133587
890.927	0.0133445
891.005	0.0133086
891.083	0.0134588
891.161	0.0132729
891.239	0.0133325
891.318	0.0132478
891.396	0.0133244
891.474	0.0133552
891.552	0.0133877
891.630	0.0132030
891.708	0.0132269
891.786	0.0132953
891.864	0.0134156
891.943	0.0134047
892.021	0.0134326
892.099	0.0134727
892.177	0.0136263
892.255	0.0136139
892.333	0.0135043
892.411	0.0137395
892.489	0.0135838
892.568	0.0135107
892.646	0.0136670
892.724	0.0137512
892.802	0.0137495
892.880	0.0138310
892.958	0.0138324
893.036	0.0139162
893.114	0.0139729
893.193	0.0138948
893.271	0.0138613
893.349	0.0138727
893.427	0.0139297
893.505	0.0139581
893.583	0.0138318
893.661	0.0140211
893.739	0.0138660
893.818	0.0138926
893.896	0.0138491
893.974	0.0138324
894.052	0.0138493
894.130	0.0138229
894.208	0.0135023
894.286	0.0136804
894.364	0.0135392
894.443	0.0136397
894.521	0.0136719
894.599	0.0135502
894.677	0.0135607
894.755	0.0133562
894.833	0.0136058
894.911	0.0136214
894.989	0.0134333
895.068	0.0135523
895.146	0.0135287
895.224	0.0133633
895.302	0.0134320
895.380	0.0135315
895.458	0.0133229
895.536	0.0133511
895.614	0.0134602
895.693	0.0133370
895.771	0.0133276
895.849	0.0133125
895.927	0.0133762
896.005	0.0136421
896.083	0.0135201
896.161	0.0134853
896.239	0.0134036
896.318	0.0135256
896.396	0.0135718
896.474	0.0135372
896.552	0.0136364
896.630	0.0138155
896.708	0.0138361
896.786	0.0136053
896.864	0.0136501
896.943	0.0137048
897.021	0.0136928
897.099	0.0138181
897.177	0.0139646
897.255	0.0139726
897.333	0.0139700
897.411	0.0139539
897.489	0.0140495
897.568	0.0140707
897.646	0.0140627
897.724	0.0139339
897.802	0.0139210
897.880	0.0140854
897.958	0.0140041
898.036	0.0139945
898.114	0.0139549
898.193	0.0141085
898.271	0.0141072
898.349	0.0140046
898.427	0.0139003
898.505	0.0139238
898.583	0.0138711
898.661	0.0137977
898.739	0.0138197
898.818	0.0137821
898.896	0.0136990
898.974	0.0136310
899.052	0.0136645
899.130	0.0134947
899.208	0.0135532
899.286	0.0135181
899.364	0.0134626
899.443	0.0134666
899.521	0.0135262
899.599	0.0135326
899.677	0.0134381
899.755	0.0133739
899.833	0.0134962
899.911	0.0135246
899.989	0.0133881
900.068	0.0135417
900.146	0.0136481
900.224	0.0134371
900.302	0.0138087
900.380	0.0137295
900.458	0.0137757
900.536	0.0136852
900.614	0.0136906
900.693	0.0136253
900.771	0.0138647
900.849	0.0139243
900.927	0.0138162
901.005	0.0136926
901.083	0.0137574
901.161	0.0137914
901.239	0.0139700
901.318	0.0138686
901.396	0.0139426
901.474	0.0139060
901.552	0.0137916
901.630	0.0138511
901.708	0.0139090
901.786	0.0138605
901.864	0.0137924
901.943	0.0137353
902.021	0.0137847
902.099	0.0136877
902.177	0.0136707
902.255	0.0136599
902.333	0.0135578
902.411	0.0135709
902.489	0.0135236
902.568	0.0135673
902.646	0.0135490
902.724	0.0135599
902.802	0.0135300
902.880	0.0134439
902.958	0.0136401
903.036	0.0135358
903.114	0.0136640
903.193	0.0138219
903.271	0.0138309
903.349	0.0137144
903.427	0.0138443
903.505	0.0139204
903.583	0.0137404
903.661	0.0136075
903.739	0.0135966
903.818	0.0137644
903.896	0.0137488
903.974	0.0137016
904.052	0.0136514
904.130	0.0136785
904.208	0.0137165
904.286	0.0136577
904.364	0.0137489
904.443	0.0136661
904.521	0.0137473
904.599	0.0136586
904.677	0.0136262
904.755	0.0136956
904.833	0.0135878
904.911	0.0135294
904.989	0.0135966
905.068	0.0135170
905.146	0.0134796
905.224	0.0135559
905.302	0.0136430
905.380	0.0136241
905.458	0.0135515
905.536	0.0135425
905.614	0.0134361
905.693	0.0135425
905.771	0.0134856
905.849	0.0135722
905.927	0.0136903
906.005	0.0135715
906.083	0.0133944
906.161	0.0134635
906.239	0.0135141
906.318	0.0135030
906.396	0.0133595
906.474	0.0134208
906.552	0.0134554
906.630	0.0134799
906.708	0.0135481
906.786	0.0134934
906.864	0.0135303
906.943	0.0134743
907.021	0.0134377
907.099	0.0134524
907.177	0.0135647
907.255	0.0134521
907.333	0.0135359
907.411	0.0135764
907.489	0.0134532
907.568	0.0135640
907.646	0.0135749
907.724	0.0137488
907.802	0.0136144
907.880	0.0136190
907.958	0.0137833
908.036	0.0137010
908.114	0.0138180
908.193	0.0137029
908.271	0.0137296
908.349	0.0138799
908.427	0.0138239
908.505	0.0136117
908.583	0.0137291
908.661	0.0137372
908.739	0.0136784
908.818	0.0137041
908.896	0.0137172
908.974	0.0137325
909.052	0.0136720
909.130	0.0134528
909.208	0.0134994
909.286	0.0137249
909.364	0.0136625
909.443	0.0136893
909.521	0.0133924
909.599	0.0135027
909.677	0.0135818
909.755	0.0135479
909.833	0.0135046
909.911	0.0135868
909.989	0.0134731
910.068	0.0134931
910.146	0.0134316
910.224	0.0135557
910.302	0.0134059
910.380	0.0135530
910.458	0.0136346
910.536	0.0134596
910.614	0.0134091
910.693	0.0134005
910.771	0.0135400
910.849	0.0134183
910.927	0.0135041
911.005	0.0134514
911.083	0.0133287
911.161	0.0134202
911.239	0.0134602
911.318	0.0134888
911.396	0.0133966
911.474	0.0135548
911.552	0.0136266
911.630	0.0136168
911.708	0.0136036
911.786	0.0135776
911.864	0.0135902
911.943	0.0136560
912.021	0.0135838
912.099	0.0136510
912.177	0.0136352
912.255	0.0135295
912.333	0.0138348
912.411	0.0135352
912.489	0.0136238
912.568	0.0136945
912.646	0.0135994
912.724	0.0136842
912.802	0.0137522
912.880	0.0135522
912.958	0.0136491
913.036	0.0135225
913.114	0.0134826
913.193	0.0135226
913.271	0.0136629
913.349	0.0135666
913.427	0.0134360
913.505	0.0135464
913.583	0.0135206
913.661	0.0134390
913.739	0.0134045
913.818	0.0136378
913.896	0.0135823
913.974	0.0135904
914.052	0.0136290
914.130	0.0136520
914.208	0.0136337
914.286	0.0136319
914.364	0.0137396
914.443	0.0137263
914.521	0.0135954
914.599	0.0137446
914.677	0.0138084
914.755	0.0137279
914.833	0.0136579
914.911	0.0135995
914.989	0.0136495
915.068	0.0137678
915.146	0.0136287
915.224	0.0135162
915.302	0.0136583
915.380	0.0135691
915.458	0.0136337
915.536	0.0136124
915.614	0.0136819
915.693	0.0135837
915.771	0.0134686
915.849	0.0134789
915.927	0.0135341
916.005	0.0136600
916.083	0.0136129
916.161	0.0136199
916.239	0.0136723
916.318	0.0136749
916.396	0.0135989
916.474	0.0136304
916.552	0.0136255
916.630	0.0133901
916.708	0.0137997
916.786	0.0136658
916.864	0.0136075
916.943	0.0136383
917.021	0.0135790
917.099	0.0136431
917.177	0.0136430
917.255	0.0137416
917.333	0.0137948
917.411	0.0137516
917.489	0.0136987
917.568	0.0137318
917.646	0.0138155
917.724	0.0138000
917.802	0.0137985
917.880	0.0138520
917.958	0.0138663
918.036	0.0138513
918.114	0.0138395
918.193	0.0138628
918.271	0.0139431
918.349	0.0139045
918.427	0.0139666
918.505	0.0139816
918.583	0.0139088
918.661	0.0139606
918.739	0.0138586
918.818	0.0138029
918.896	0.0137600
918.974	0.0138367
919.052	0.0135941
919.130	0.0137071
919.208	0.0137408
919.286	0.0136010
919.364	0.0135503
919.443	0.0135008
919.521	0.0135754
919.599	0.0136037
919.677	0.0134252
919.755	0.0134684
919.833	0.0135545
919.911	0.0134926
919.989	0.0133543
920.068	0.0135748
920.146	0.0133253
920.224	0.0135294
920.302	0.0135281
920.380	0.0133762
920.458	0.0133973
920.536	0.0135221
920.614	0.0135526
920.693	0.0134129
920.771	0.0134897
920.849	0.0135400
920.927	0.0134228
921.005	0.0134576
921.083	0.0135905
921.161	0.0136041
921.239	0.0136417
921.318	0.0135693
921.396	0.0136616
921.474	0.0136469
921.552	0.0138380
921.630	0.0138306
921.708	0.0137305
921.786	0.0136395
921.864	0.0138897
921.943	0.0140091
922.021	0.0140532
922.099	0.0139114
922.177	0.0139690
922.255	0.0138982
922.333	0.0139645
922.411	0.0141261
922.489	0.0139705
922.568	0.0139772
922.646	0.0138595
922.724	0.0139180
922.802	0.0140194
922.880	0.0139766
922.958	0.0137940
923.036	0.0138618
923.114	0.0137775
923.193	0.0138418
923.271	0.0136106
923.349	0.0137312
923.427	0.0136431
923.505	0.0136638
923.583	0.0135315
923.661	0.0136704
923.739	0.0135501
923.818	0.0135916
923.896	0.0135066
923.974	0.0134444
924.052	0.0136289
924.130	0.0135460
924.208	0.0136127
924.286	0.0134397
924.364	0.0134874
924.443	0.0135327
924.521	0.0134586
924.599	0.0134759
924.677	0.0134595
924.755	0.0134556
924.833	0.0134135
924.911	0.0133062
924.989	0.0135425
925.068	0.0135181
925.146	0.0134356
925.224	0.0135206
925.302	0.0136118
925.380	0.0137228
925.458	0.0138302
925.536	0.0136176
925.614	0.0137277
925.693	0.0136070
925.771	0.0136357
925.849	0.0136140
925.927	0.0138438
926.005	0.0138052
926.083	0.0137093
926.161	0.0138242
926.239	0.0137245
926.318	0.0137248
926.396	0.0137804
926.474	0.0138805
926.552	0.0137735
926.630	0.0137860
926.708	0.0138217
926.786	0.0137572
926.864	0.0138438
926.943	0.0137022
927.021	0.0136855
927.099	0.0136655
927.177	0.0137047
927.255	0.0137605
927.333	0.0135735
927.411	0.0136552
927.489	0.0135765
927.568	0.0136013
927.646	0.0137373
927.724	0.0134944
927.802	0.0135770
927.880	0.0137000
927.958	0.0136201
928.036	0.0135284
928.114	0.0134564
928.193	0.0135229
928.271	0.0135278
928.349	0.0135694
928.427	0.0135162
928.505	0.0135200
928.583	0.0135437
928.661	0.0136108
928.739	0.0136499
928.818	0.0135422
928.896	0.0133649
928.974	0.0135885
929.052	0.0136192
929.130	0.0134965
929.208	0.0135636
929.286	0.0136675
929.364	0.0135929
929.443	0.0137383
929.521	0.0137293
929.599	0.0137312
929.677	0.0138396
929.755	0.0135715
929.833	0.0136721
929.911	0.0137742
929.989	0.0138385
930.068	0.0138802
930.146	0.0138890
930.224	0.0139543
930.302	0.0139569
930.380	0.0138467
930.458	0.0138745
930.536	0.0139281
930.614	0.0138384
930.693	0.0139339
930.771	0.0138084
930.849	0.0138456
930.927	0.0138106
931.005	0.0137003
931.083	0.0136852
931.161	0.0136219
931.239	0.0137260
931.318	0.0137476
931.396	0.0135201
931.474	0.0134877
931.552	0.0135889
931.630	0.0134371
931.708	0.0135867
931.786	0.0135730
931.864	0.0135621
931.943	0.0134810
932.021	0.0136385
932.099	0.0136899
932.177	0.0136440
932.255	0.0134466
932.333	0.0136464
932.411	0.0134718
932.489	0.0135786
932.568	0.0136269
932.646	0.0135931
932.724	0.0135729
932.802	0.0133399
932.880	0.0136249
932.958	0.0135719
933.036	0.0135444
933.114	0.0135636
933.193	0.0134942
933.271	0.0134433
933.349	0.0137222
933.427	0.0135808
933.505	0.0136411
933.583	0.0138683
933.661	0.0137447
933.739	0.0137190
933.818	0.0138608
933.896	0.0136890
933.974	0.0136829
934.052	0.0138020
934.130	0.0137108
934.208	0.0137383
934.286	0.0137336
934.364	0.0136914
934.443	0.0136926
934.521	0.0137024
934.599	0.0136850
934.677	0.0137202
934.755	0.0134377
934.833	0.0134602
934.911	0.0134940
934.989	0.0134821
935.068	0.0134959
935.146	0.0135854
935.224	0.0134760
935.302	0.0135104
935.380	0.0134547
935.458	0.0134740
935.536	0.0133671
935.614	0.0133178
935.693	0.0134253
935.771	0.0134882
935.849	0.0134543
935.927	0.0134510
936.005	0.0134806
936.083	0.0136145
936.161	0.0137570
936.239	0.0136097
936.318	0.0137279
936.396	0.0136057
936.474	0.0136958
936.552	0.0136601
936.630	0.0138558
936.708	0.0138764
936.786	0.0137794
936.864	0.0138844
936.943	0.0138825
937.021	0.0136436
937.099	0.0138661
937.177	0.0137868
937.255	0.0138608
937.333	0.0139480
937.411	0.0138028
937.489	0.0139278
937.568	0.0138657
937.646	0.0138055
937.724	0.0138374
937.802	0.0138262
937.880	0.0136051
937.958	0.0137531
938.036	0.0137494
938.114	0.0136728
938.193	0.0137397
938.271	0.0135849
938.349	0.0136017
938.427	0.0135935
938.505	0.0135130
938.583	0.0135941
938.661	0.0135608
938.739	0.0134309
938.818	0.0135102
938.896	0.0135323
938.974	0.0134052
939.052	0.0135640
939.130	0.0135436
939.208	0.0134504
939.286	0.0135098
939.364	0.0135320
939.443	0.0135953
939.521	0.0135741
939.599	0.0135984
939.677	0.0136316
939.755	0.0136211
939.833	0.0134800
939.911	0.0136423
939.989	0.0135054
940.068	0.0135499
940.146	0.0135329
940.224	0.0135882
940.302	0.0135651
940.380	0.0136929
940.458	0.0136120
940.536	0.0136819
940.614	0.0137303
940.693	0.0136959
940.771	0.0137045
940.849	0.0137891
940.927	0.0136640
941.005	0.0135495
941.083	0.0136277
941.161	0.0137526
941.239	0.0135724
941.318	0.0138053
941.396	0.0136498
941.474	0.0136068
941.552	0.0136693
941.630	0.0137468
941.708	0.0136603
941.786	0.0135603
941.864	0.0136326
941.943	0.0136995
942.021	0.0136311
942.099	0.0136423
942.177	0.0135565
942.255	0.0135871
942.333	0.0135693
942.411	0.0137658
942.489	0.0136903
942.568	0.0136471
942.646	0.0134879
942.724	0.0137292
942.802	0.0137538
942.880	0.0135760
942.958	0.0136455
943.036	0.0135195
943.114	0.0135932
943.193	0.0134859
943.271	0.0135893
943.349	0.0137125
943.427	0.0135627
943.505	0.0134446
943.583	0.0135464
943.661	0.0137022
943.739	0.0136838
943.818	0.0135934
943.896	0.0136247
943.974	0.0136369
944.052	0.0135777
944.130	0.0136272
944.208	0.0136774
944.286	0.0137377
944.364	0.0137711
944.443	0.0136883
944.521	0.0138871
944.599	0.0138140
944.677	0.0137315
944.755	0.0137318
944.833	0.0137277
944.911	0.0138546
944.989	0.0137748
945.068	0.0136243
945.146	0.0137014
945.224	0.0137169
945.302	0.0137587
945.380	0.0136961
945.458	0.0137289
945.536	0.0137328
945.614	0.0136923
945.693	0.0136899
945.771	0.0137937
945.849	0.0137299
945.927	0.0138115
946.005	0.0138442
946.083	0.0135275
946.161	0.0134863
946.239	0.0137875
946.318	0.0138657
946.396	0.0136927
946.474	0.0137167
946.552	0.0137581
946.630	0.0137244
946.708	0.0136516
946.786	0.0136745
946.864	0.0136553
946.943	0.0137052
947.021	0.0137414
947.099	0.0136880
947.177	0.0138074
947.255	0.0137534
947.333	0.0137674
947.411	0.0136352
947.489	0.0136421
947.568	0.0138109
947.646	0.0136168
947.724	0.0136442
947.802	0.0137200
947.880	0.0137235
947.958	0.0135569
948.036	0.0135780
948.114	0.0135332
948.193	0.0136672
948.271	0.0136545
948.349	0.0135073
948.427	0.0136279
948.505	0.0136375
948.583	0.0135995
948.661	0.0135381
948.739	0.0135314
948.818	0.0135722
948.896	0.0137202
948.974	0.0136442
949.052	0.0136607
949.130	0.0135738
949.208	0.0136811
949.286	0.0136651
949.364	0.0136172
949.443	0.0136927
949.521	0.0135511
949.599	0.0136175
949.677	0.0137595
949.755	0.0137745
949.833	0.0137292
949.911	0.0136341
949.989	0.0136488
950.068	0.0135926
950.146	0.0137783
950.224	0.0136633
950.302	0.0136558
950.380	0.0136390
950.458	0.0136834
950.536	0.0136447
950.614	0.0136768
950.693	0.0137282
950.771	0.0137150
950.849	0.0136724
950.927	0.0137984
951.005	0.0135827
951.083	0.0137161
951.161	0.0136881
951.239	0.0137543
951.318	0.0136437
951.396	0.0137290
951.474	0.0136743
951.552	0.0136946
951.630	0.0136700
951.708	0.0136833
951.786	0.0135978
951.864	0.0135825
951.943	0.0135986
952.021	0.0136381
952.099	0.0137059
952.177	0.0136896
952.255	0.0136638
952.333	0.0135251
952.411	0.0134638
952.489	0.0136739
952.568	0.0137476
952.646	0.0137549
952.724	0.0133826
952.802	0.0135703
952.880	0.0136327
952.958	0.0136597
953.036	0.0137083
953.114	0.0136485
953.193	0.0137135
953.271	0.0138335
953.349	0.0137847
953.427	0.0136652
953.505	0.0137092
953.583	0.0139113
953.661	0.0138010
953.739	0.0138228
953.818	0.0138709
953.896	0.0138419
953.974	0.0138416
954.052	0.0137949
954.130	0.0137191
954.208	0.0138206
954.286	0.0137505
954.364	0.0136833
954.443	0.0137347
954.521	0.0137396
954.599	0.0136586
954.677	0.0137299
954.755	0.0136433
954.833	0.0137048
954.911	0.0137893
954.989	0.0135933
955.068	0.0137067
955.146	0.0136660
955.224	0.0137261
955.302	0.0135516
955.380	0.0137065
955.458	0.0137331
955.536	0.0135942
955.614	0.0136366
955.693	0.0137637
955.771	0.0137036
955.849	0.0137875
955.927	0.0136645
956.005	0.0136698
956.083	0.0136693
956.161	0.0137492
956.239	0.0136092
956.318	0.0136288
956.396	0.0138043
956.474	0.0137061
956.552	0.0137424
956.630	0.0136401
956.708	0.0137574
956.786	0.0137293
956.864	0.0136625
956.943	0.0137868
957.021	0.0137109
957.099	0.0137330
957.177	0.0137314
957.255	0.0137677
957.333	0.0138553
957.411	0.0136703
957.489	0.0137270
957.568	0.0137003
957.646	0.0136597
957.724	0.0136910
957.802	0.0137250
957.880	0.0135921
957.958	0.0136095
958.036	0.0136321
958.114	0.0136404
958.193	0.0136304
958.271	0.0134148
958.349	0.0135345
958.427	0.0137096
958.505	0.0136490
958.583	0.0134411
958.661	0.0135760
958.739	0.0135154
958.818	0.0134039
958.896	0.0135159
958.974	0.0135215
959.052	0.0134533
959.130	0.0133945
959.208	0.0134156
959.286	0.0133855
959.364	0.0133271
959.443	0.0134766
959.521	0.0135587
959.599	0.0134021
959.677	0.0135429
959.755	0.0136950
959.833	0.0136269
959.911	0.0136514
