05/14/2022	16:17:50	Ver.	4.1	UNKNOWN
Optical Delay	639.989416	Delta X		0.078125	Sweeps	1	Scan Rate	0/0
Coordinates	Axis 1	NaN	Axis 2	NaN	Axis 3	NaN	Axis 4	NaN	Axis 5	NaN	Axis 6	0.000000
TX Power	0.000000	RX Power	0.000000

639.989	0.0134567
640.068	0.0134117
640.146	0.0133680
640.224	0.0134129
640.302	0.0132964
640.380	0.0133627
640.458	0.0135386
640.536	0.0134341
640.614	0.0135426
640.693	0.0134846
640.771	0.0133874
640.849	0.0133882
640.927	0.0135021
641.005	0.0134069
641.083	0.0135078
641.161	0.0133410
641.239	0.0134837
641.318	0.0134079
641.396	0.0135028
641.474	0.0134753
641.552	0.0134298
641.630	0.0134892
641.708	0.0135455
641.786	0.0134326
641.864	0.0134119
641.943	0.0134151
642.021	0.0134837
642.099	0.0134643
642.177	0.0135118
642.255	0.0133952
642.333	0.0132816
642.411	0.0133691
642.489	0.0134780
642.568	0.0133585
642.646	0.0135538
642.724	0.0134701
642.802	0.0132269
642.880	0.0136016
642.958	0.0134177
643.036	0.0135194
643.114	0.0135088
643.193	0.0135424
643.271	0.0135032
643.349	0.0133566
643.427	0.0133453
643.505	0.0133090
643.583	0.0133957
643.661	0.0134818
643.739	0.0134341
643.818	0.0135165
643.896	0.0134472
643.974	0.0133950
644.052	0.0133484
644.130	0.0134157
644.208	0.0134895
644.286	0.0133751
644.364	0.0135310
644.443	0.0134647
644.521	0.0133214
644.599	0.0133916
644.677	0.0134135
644.755	0.0132868
644.833	0.0135139
644.911	0.0134404
644.989	0.0134751
645.068	0.0136043
645.146	0.0133629
645.224	0.0133506
645.302	0.0134525
645.380	0.0135043
645.458	0.0134799
645.536	0.0133590
645.614	0.0135435
645.693	0.0134203
645.771	0.0136213
645.849	0.0134279
645.927	0.0134544
646.005	0.0134042
646.083	0.0133973
646.161	0.0132832
646.239	0.0134210
646.318	0.0133384
646.396	0.0133868
646.474	0.0134372
646.552	0.0134035
646.630	0.0134341
646.708	0.0133904
646.786	0.0133860
646.864	0.0133426
646.943	0.0134655
647.021	0.0135345
647.099	0.0132586
647.177	0.0134573
647.255	0.0134500
647.333	0.0133630
647.411	0.0135123
647.489	0.0133165
647.568	0.0133293
647.646	0.0135175
647.724	0.0134713
647.802	0.0134724
647.880	0.0133556
647.958	0.0132220
648.036	0.0134009
648.114	0.0133527
648.193	0.0134326
648.271	0.0133604
648.349	0.0134036
648.427	0.0133720
648.505	0.0134817
648.583	0.0134238
648.661	0.0134062
648.739	0.0132689
648.818	0.0134604
648.896	0.0134106
648.974	0.0134100
649.052	0.0134120
649.130	0.0134476
649.208	0.0133846
649.286	0.0134663
649.364	0.0134314
649.443	0.0133634
649.521	0.0134003
649.599	0.0134525
649.677	0.0134812
649.755	0.0134509
649.833	0.0133940
649.911	0.0134664
649.989	0.0134354
650.068	0.0134312
650.146	0.0134529
650.224	0.0133459
650.302	0.0134110
650.380	0.0134074
650.458	0.0134337
650.536	0.0133884
650.614	0.0134837
650.693	0.0133753
650.771	0.0134032
650.849	0.0134341
650.927	0.0134589
651.005	0.0133590
651.083	0.0134428
651.161	0.0134747
651.239	0.0133875
651.318	0.0132465
651.396	0.0135860
651.474	0.0135168
651.552	0.0133989
651.630	0.0134522
651.708	0.0134673
651.786	0.0135151
651.864	0.0134129
651.943	0.0134206
652.021	0.0133881
652.099	0.0134904
652.177	0.0134538
652.255	0.0133434
652.333	0.0134936
652.411	0.0134940
652.489	0.0133833
652.568	0.0134370
652.646	0.0134615
652.724	0.0134082
652.802	0.0132999
652.880	0.0132803
652.958	0.0134397
653.036	0.0134904
653.114	0.0135146
653.193	0.0135021
653.271	0.0133667
653.349	0.0134449
653.427	0.0134347
653.505	0.0134849
653.583	0.0134251
653.661	0.0134209
653.739	0.0134571
653.818	0.0134154
653.896	0.0134647
653.974	0.0134425
654.052	0.0133741
654.130	0.0135169
654.208	0.0134490
654.286	0.0132816
654.364	0.0133272
654.443	0.0133562
654.521	0.0132875
654.599	0.0133103
654.677	0.0133826
654.755	0.0134799
654.833	0.0135068
654.911	0.0134825
654.989	0.0134096
655.068	0.0133157
655.146	0.0135168
655.224	0.0134518
655.302	0.0134673
655.380	0.0134626
655.458	0.0133946
655.536	0.0135377
655.614	0.0134265
655.693	0.0134466
655.771	0.0134812
655.849	0.0134905
655.927	0.0134547
656.005	0.0134315
656.083	0.0134142
656.161	0.0134948
656.239	0.0133681
656.318	0.0133735
656.396	0.0135514
656.474	0.0134771
656.552	0.0134778
656.630	0.0134185
656.708	0.0133636
656.786	0.0134573
656.864	0.0134134
656.943	0.0134473
657.021	0.0132658
657.099	0.0133839
657.177	0.0133469
657.255	0.0134740
657.333	0.0135422
657.411	0.0135130
657.489	0.0133439
657.568	0.0134278
657.646	0.0134568
657.724	0.0134730
657.802	0.0133836
657.880	0.0133710
657.958	0.0135536
658.036	0.0135026
658.114	0.0134307
658.193	0.0135460
658.271	0.0133476
658.349	0.0133234
658.427	0.0134818
658.505	0.0135767
658.583	0.0133469
658.661	0.0134274
658.739	0.0133694
658.818	0.0133698
658.896	0.0135121
658.974	0.0133411
659.052	0.0133840
659.130	0.0133720
659.208	0.0134079
659.286	0.0134573
659.364	0.0133903
659.443	0.0133694
659.521	0.0132577
659.599	0.0133702
659.677	0.0132994
659.755	0.0134489
659.833	0.0134866
659.911	0.0134098
659.989	0.0135087
660.068	0.0134297
660.146	0.0134441
660.224	0.0133574
660.302	0.0133791
660.380	0.0134925
660.458	0.0134689
660.536	0.0134310
660.614	0.0133403
660.693	0.0133724
660.771	0.0134887
660.849	0.0134895
660.927	0.0133061
661.005	0.0134226
661.083	0.0134798
661.161	0.0134103
661.239	0.0134827
661.318	0.0135670
661.396	0.0133714
661.474	0.0134580
661.552	0.0134592
661.630	0.0134843
661.708	0.0134941
661.786	0.0133553
661.864	0.0134302
661.943	0.0134430
662.021	0.0134467
662.099	0.0134171
662.177	0.0134015
662.255	0.0133524
662.333	0.0133961
662.411	0.0134219
662.489	0.0135144
662.568	0.0133820
662.646	0.0134754
662.724	0.0134760
662.802	0.0134713
662.880	0.0134192
662.958	0.0135587
663.036	0.0134708
663.114	0.0134383
663.193	0.0134424
663.271	0.0134994
663.349	0.0136087
663.427	0.0132874
663.505	0.0134120
663.583	0.0132859
663.661	0.0134928
663.739	0.0134332
663.818	0.0134391
663.896	0.0134500
663.974	0.0135290
664.052	0.0134863
664.130	0.0134509
664.208	0.0134481
664.286	0.0134266
664.364	0.0134953
664.443	0.0133453
664.521	0.0134514
664.599	0.0133956
664.677	0.0133899
664.755	0.0134766
664.833	0.0134618
664.911	0.0134138
664.989	0.0133939
665.068	0.0134216
665.146	0.0135539
665.224	0.0133961
665.302	0.0133710
665.380	0.0133797
665.458	0.0133151
665.536	0.0134653
665.614	0.0134766
665.693	0.0134418
665.771	0.0134650
665.849	0.0133994
665.927	0.0133802
666.005	0.0133685
666.083	0.0134365
666.161	0.0133891
666.239	0.0135468
666.318	0.0134780
666.396	0.0134451
666.474	0.0134499
666.552	0.0133023
666.630	0.0136040
666.708	0.0134156
666.786	0.0133813
666.864	0.0133945
666.943	0.0135047
667.021	0.0134710
667.099	0.0133418
667.177	0.0135275
667.255	0.0136362
667.333	0.0135725
667.411	0.0135400
667.489	0.0134675
667.568	0.0133913
667.646	0.0132910
667.724	0.0134623
667.802	0.0134437
667.880	0.0134388
667.958	0.0134576
668.036	0.0134673
668.114	0.0135055
668.193	0.0135784
668.271	0.0134120
668.349	0.0132784
668.427	0.0134725
668.505	0.0135432
668.583	0.0134879
668.661	0.0135767
668.739	0.0136400
668.818	0.0134413
668.896	0.0133903
668.974	0.0134064
669.052	0.0134686
669.130	0.0133656
669.208	0.0136090
669.286	0.0135506
669.364	0.0134444
669.443	0.0134000
669.521	0.0135024
669.599	0.0133125
669.677	0.0133891
669.755	0.0133865
669.833	0.0134047
669.911	0.0134095
669.989	0.0134676
670.068	0.0134706
670.146	0.0134025
670.224	0.0134344
670.302	0.0134315
670.380	0.0135687
670.458	0.0133673
670.536	0.0134733
670.614	0.0134380
670.693	0.0135513
670.771	0.0134833
670.849	0.0132989
670.927	0.0135349
671.005	0.0134750
671.083	0.0134644
671.161	0.0134058
671.239	0.0135005
671.318	0.0134293
671.396	0.0135107
671.474	0.0133717
671.552	0.0133021
671.630	0.0134833
671.708	0.0133207
671.786	0.0134419
671.864	0.0134645
671.943	0.0132494
672.021	0.0134650
672.099	0.0134516
672.177	0.0134060
672.255	0.0134046
672.333	0.0131838
672.411	0.0135545
672.489	0.0133977
672.568	0.0133816
672.646	0.0135183
672.724	0.0134732
672.802	0.0133692
672.880	0.0133929
672.958	0.0135273
673.036	0.0133855
673.114	0.0134342
673.193	0.0133505
673.271	0.0134602
673.349	0.0134029
673.427	0.0135163
673.505	0.0133873
673.583	0.0134905
673.661	0.0133717
673.739	0.0133918
673.818	0.0134222
673.896	0.0134479
673.974	0.0132144
674.052	0.0133715
674.130	0.0133606
674.208	0.0133624
674.286	0.0133718
674.364	0.0135616
674.443	0.0135009
674.521	0.0133351
674.599	0.0133818
674.677	0.0132334
674.755	0.0133309
674.833	0.0132531
674.911	0.0134140
674.989	0.0133253
675.068	0.0133003
675.146	0.0133198
675.224	0.0133342
675.302	0.0135031
675.380	0.0132764
675.458	0.0133450
675.536	0.0135533
675.614	0.0133374
675.693	0.0133543
675.771	0.0134315
675.849	0.0133888
675.927	0.0133704
676.005	0.0135674
676.083	0.0134845
676.161	0.0133194
676.239	0.0134003
676.318	0.0133466
676.396	0.0134373
676.474	0.0133798
676.552	0.0133358
676.630	0.0133337
676.708	0.0134618
676.786	0.0135107
676.864	0.0133610
676.943	0.0133337
677.021	0.0133936
677.099	0.0134190
677.177	0.0135897
677.255	0.0134604
677.333	0.0133794
677.411	0.0133485
677.489	0.0134393
677.568	0.0135080
677.646	0.0134615
677.724	0.0133698
677.802	0.0134876
677.880	0.0135454
677.958	0.0137020
678.036	0.0134656
678.114	0.0133922
678.193	0.0136261
678.271	0.0134681
678.349	0.0135334
678.427	0.0134791
678.505	0.0135143
678.583	0.0135525
678.661	0.0134772
678.739	0.0134772
678.818	0.0135358
678.896	0.0134301
678.974	0.0135490
679.052	0.0135317
679.130	0.0134912
679.208	0.0135098
679.286	0.0134594
679.364	0.0136371
679.443	0.0135405
679.521	0.0134625
679.599	0.0136723
679.677	0.0135716
679.755	0.0136374
679.833	0.0135477
679.911	0.0134651
679.989	0.0135452
680.068	0.0136536
680.146	0.0133960
680.224	0.0134932
680.302	0.0134592
680.380	0.0134970
680.458	0.0135797
680.536	0.0135189
680.614	0.0136945
680.693	0.0136207
680.771	0.0135124
680.849	0.0134598
680.927	0.0135143
681.005	0.0136633
681.083	0.0135565
681.161	0.0134654
681.239	0.0135164
681.318	0.0134707
681.396	0.0134466
681.474	0.0136268
681.552	0.0135236
681.630	0.0135150
681.708	0.0134812
681.786	0.0134863
681.864	0.0135851
681.943	0.0134693
682.021	0.0136182
682.099	0.0136532
682.177	0.0135334
682.255	0.0135168
682.333	0.0135674
682.411	0.0133117
682.489	0.0135423
682.568	0.0136304
682.646	0.0136073
682.724	0.0135605
682.802	0.0136137
682.880	0.0135018
682.958	0.0135930
683.036	0.0135039
683.114	0.0134895
683.193	0.0134939
683.271	0.0134746
683.349	0.0134147
683.427	0.0134267
683.505	0.0134129
683.583	0.0134436
683.661	0.0135207
683.739	0.0135505
683.818	0.0133681
683.896	0.0135407
683.974	0.0134587
684.052	0.0135732
684.130	0.0134929
684.208	0.0133582
684.286	0.0134806
684.364	0.0135599
684.443	0.0133971
684.521	0.0132990
684.599	0.0135447
684.677	0.0134675
684.755	0.0134298
684.833	0.0134916
684.911	0.0135196
684.989	0.0133987
685.068	0.0133030
685.146	0.0133593
685.224	0.0133437
685.302	0.0133881
685.380	0.0134104
685.458	0.0134004
685.536	0.0134698
685.614	0.0134645
685.693	0.0134328
685.771	0.0134735
685.849	0.0134361
685.927	0.0135365
686.005	0.0135234
686.083	0.0132807
686.161	0.0134137
686.239	0.0134933
686.318	0.0135099
686.396	0.0134956
686.474	0.0133832
686.552	0.0133901
686.630	0.0134298
686.708	0.0134407
686.786	0.0133651
686.864	0.0135752
686.943	0.0135169
687.021	0.0136116
687.099	0.0134930
687.177	0.0133989
687.255	0.0135069
687.333	0.0135025
687.411	0.0134155
687.489	0.0134129
687.568	0.0134267
687.646	0.0134612
687.724	0.0133810
687.802	0.0134211
687.880	0.0134174
687.958	0.0134689
688.036	0.0134277
688.114	0.0134224
688.193	0.0133959
688.271	0.0134563
688.349	0.0133699
688.427	0.0134397
688.505	0.0133561
688.583	0.0135105
688.661	0.0134682
688.739	0.0134660
688.818	0.0134593
688.896	0.0135497
688.974	0.0134183
689.052	0.0135127
689.130	0.0134283
689.208	0.0133353
689.286	0.0134860
689.364	0.0134484
689.443	0.0134523
689.521	0.0135365
689.599	0.0134408
689.677	0.0133569
689.755	0.0134410
689.833	0.0134563
689.911	0.0136266
689.989	0.0133681
690.068	0.0134196
690.146	0.0135643
690.224	0.0133895
690.302	0.0134402
690.380	0.0135001
690.458	0.0134568
690.536	0.0135986
690.614	0.0136304
690.693	0.0135577
690.771	0.0136557
690.849	0.0136303
690.927	0.0136903
691.005	0.0135484
691.083	0.0134823
691.161	0.0135533
691.239	0.0134939
691.318	0.0133393
691.396	0.0131689
691.474	0.0132027
691.552	0.0133882
691.630	0.0132707
691.708	0.0133480
691.786	0.0135300
691.864	0.0134215
691.943	0.0135075
692.021	0.0136626
692.099	0.0138570
692.177	0.0138453
692.255	0.0140809
692.333	0.0139657
692.411	0.0140092
692.489	0.0141116
692.568	0.0138892
692.646	0.0136990
692.724	0.0136551
692.802	0.0134888
692.880	0.0131884
692.958	0.0130350
693.036	0.0130113
693.114	0.0128580
693.193	0.0128095
693.271	0.0126711
693.349	0.0127740
693.427	0.0128226
693.505	0.0128432
693.583	0.0130127
693.661	0.0132662
693.739	0.0134232
693.818	0.0135746
693.896	0.0137288
693.974	0.0138902
694.052	0.0139053
694.130	0.0140208
694.208	0.0140898
694.286	0.0142713
694.364	0.0143695
694.443	0.0141087
694.521	0.0141065
694.599	0.0140302
694.677	0.0137672
694.755	0.0137032
694.833	0.0135784
694.911	0.0134063
694.989	0.0130879
695.068	0.0129541
695.146	0.0129694
695.224	0.0127785
695.302	0.0126616
695.380	0.0126542
695.458	0.0125235
695.536	0.0125612
695.614	0.0126839
695.693	0.0128506
695.771	0.0129942
695.849	0.0131381
695.927	0.0132223
696.005	0.0132854
696.083	0.0134252
696.161	0.0134799
696.239	0.0136857
696.318	0.0136266
696.396	0.0136426
696.474	0.0137016
696.552	0.0139482
696.630	0.0139400
696.708	0.0139367
696.786	0.0138468
696.864	0.0139786
696.943	0.0140373
697.021	0.0139584
697.099	0.0140247
697.177	0.0139375
697.255	0.0138002
697.333	0.0137277
697.411	0.0137335
697.489	0.0135873
697.568	0.0135136
697.646	0.0132368
697.724	0.0133335
697.802	0.0132278
697.880	0.0131899
697.958	0.0132163
698.036	0.0130587
698.114	0.0129851
698.193	0.0129550
698.271	0.0131259
698.349	0.0130505
698.427	0.0130550
698.505	0.0131514
698.583	0.0132331
698.661	0.0133606
698.739	0.0133893
698.818	0.0132849
698.896	0.0132973
698.974	0.0133480
699.052	0.0132035
699.130	0.0132861
699.208	0.0131145
699.286	0.0131963
699.364	0.0131287
699.443	0.0131595
699.521	0.0131902
699.599	0.0131894
699.677	0.0130582
699.755	0.0132106
699.833	0.0132724
699.911	0.0133599
699.989	0.0132565
700.068	0.0133624
700.146	0.0135269
700.224	0.0136020
700.302	0.0136996
700.380	0.0139675
700.458	0.0140550
700.536	0.0141566
700.614	0.0141617
700.693	0.0142386
700.771	0.0142603
700.849	0.0140530
700.927	0.0142289
701.005	0.0143024
701.083	0.0143793
701.161	0.0141975
701.239	0.0138643
701.318	0.0137852
701.396	0.0137513
701.474	0.0135832
701.552	0.0132681
701.630	0.0132478
701.708	0.0131438
701.786	0.0131303
701.864	0.0130400
701.943	0.0129403
702.021	0.0129044
702.099	0.0126027
702.177	0.0126181
702.255	0.0126642
702.333	0.0127074
702.411	0.0126865
702.489	0.0126181
702.568	0.0126897
702.646	0.0125594
702.724	0.0128165
702.802	0.0126811
702.880	0.0127328
702.958	0.0125717
703.036	0.0127386
703.114	0.0127805
703.193	0.0129862
703.271	0.0129774
703.349	0.0131159
703.427	0.0131852
703.505	0.0132921
703.583	0.0134685
703.661	0.0135529
703.739	0.0138352
703.818	0.0141151
703.896	0.0141425
703.974	0.0142953
704.052	0.0143263
704.130	0.0143769
704.208	0.0146269
704.286	0.0147388
704.364	0.0147278
704.443	0.0147050
704.521	0.0147118
704.599	0.0145581
704.677	0.0145154
704.755	0.0144118
704.833	0.0143028
704.911	0.0143013
704.989	0.0141087
705.068	0.0140196
705.146	0.0140365
705.224	0.0137477
705.302	0.0134964
705.380	0.0133527
705.458	0.0132528
705.536	0.0130039
705.614	0.0129430
705.693	0.0128570
705.771	0.0128217
705.849	0.0126930
705.927	0.0124268
706.005	0.0125967
706.083	0.0125524
706.161	0.0125248
706.239	0.0125262
706.318	0.0125003
706.396	0.0124111
706.474	0.0124828
706.552	0.0127090
706.630	0.0128458
706.708	0.0128046
706.786	0.0130428
706.864	0.0132714
706.943	0.0132554
707.021	0.0132525
707.099	0.0135242
707.177	0.0136361
707.255	0.0137473
707.333	0.0137566
707.411	0.0139280
707.489	0.0139253
707.568	0.0138212
707.646	0.0138813
707.724	0.0139761
707.802	0.0138383
707.880	0.0139046
707.958	0.0138999
708.036	0.0138779
708.114	0.0138421
708.193	0.0138061
708.271	0.0138531
708.349	0.0139183
708.427	0.0138937
708.505	0.0138340
708.583	0.0139941
708.661	0.0141403
708.739	0.0140929
708.818	0.0141196
708.896	0.0141058
708.974	0.0142879
709.052	0.0142622
709.130	0.0143247
709.208	0.0142468
709.286	0.0141999
709.364	0.0140636
709.443	0.0142123
709.521	0.0140003
709.599	0.0139088
709.677	0.0138715
709.755	0.0137518
709.833	0.0133801
709.911	0.0131033
709.989	0.0129401
710.068	0.0128494
710.146	0.0127827
710.224	0.0126048
710.302	0.0124336
710.380	0.0121979
710.458	0.0123346
710.536	0.0122649
710.614	0.0123047
710.693	0.0122446
710.771	0.0122814
710.849	0.0124399
710.927	0.0124875
711.005	0.0126549
711.083	0.0127882
711.161	0.0128601
711.239	0.0130372
711.318	0.0130034
711.396	0.0133633
711.474	0.0133737
711.552	0.0132458
711.630	0.0134496
711.708	0.0135966
711.786	0.0135082
711.864	0.0133531
711.943	0.0136036
712.021	0.0136504
712.099	0.0135558
712.177	0.0135597
712.255	0.0133446
712.333	0.0133920
712.411	0.0134638
712.489	0.0134690
712.568	0.0135689
712.646	0.0138432
712.724	0.0138367
712.802	0.0139243
712.880	0.0141297
712.958	0.0142441
713.036	0.0143693
713.114	0.0143857
713.193	0.0144745
713.271	0.0145740
713.349	0.0144699
713.427	0.0147423
713.505	0.0145857
713.583	0.0145258
713.661	0.0143942
713.739	0.0142999
713.818	0.0141497
713.896	0.0141972
713.974	0.0138574
714.052	0.0136416
714.130	0.0137064
714.208	0.0134541
714.286	0.0131886
714.364	0.0129589
714.443	0.0128498
714.521	0.0127465
714.599	0.0126504
714.677	0.0124364
714.755	0.0124568
714.833	0.0123458
714.911	0.0123185
714.989	0.0123302
715.068	0.0123962
715.146	0.0124049
715.224	0.0125610
715.302	0.0125673
715.380	0.0126704
715.458	0.0127418
715.536	0.0127742
715.614	0.0130861
715.693	0.0131462
715.771	0.0132237
715.849	0.0133980
715.927	0.0135410
716.005	0.0135744
716.083	0.0134860
716.161	0.0136935
716.239	0.0138664
716.318	0.0138774
716.396	0.0138238
716.474	0.0139326
716.552	0.0137565
716.630	0.0138035
716.708	0.0136919
716.786	0.0136684
716.864	0.0136199
716.943	0.0135934
717.021	0.0134627
717.099	0.0134698
717.177	0.0134422
717.255	0.0135464
717.333	0.0137154
717.411	0.0135326
717.489	0.0135630
717.568	0.0137183
717.646	0.0137696
717.724	0.0138262
717.802	0.0138124
717.880	0.0139574
717.958	0.0139749
718.036	0.0139805
718.114	0.0140462
718.193	0.0140402
718.271	0.0140412
718.349	0.0141895
718.427	0.0142017
718.505	0.0141850
718.583	0.0139519
718.661	0.0139920
718.739	0.0138804
718.818	0.0137853
718.896	0.0137232
718.974	0.0136425
719.052	0.0133662
719.130	0.0133379
719.208	0.0131457
719.286	0.0130411
719.364	0.0130530
719.443	0.0130373
719.521	0.0128116
719.599	0.0128405
719.677	0.0127821
719.755	0.0127888
719.833	0.0129723
719.911	0.0128314
719.989	0.0128131
720.068	0.0128297
720.146	0.0128797
720.224	0.0131116
720.302	0.0131420
720.380	0.0130050
720.458	0.0132018
720.536	0.0132030
720.614	0.0133280
720.693	0.0132591
720.771	0.0131358
720.849	0.0132520
720.927	0.0131848
721.005	0.0130518
721.083	0.0132288
721.161	0.0131145
721.239	0.0133134
721.318	0.0132585
721.396	0.0132799
721.474	0.0133492
721.552	0.0133857
721.630	0.0134753
721.708	0.0135281
721.786	0.0136829
721.864	0.0134852
721.943	0.0137648
722.021	0.0138660
722.099	0.0138751
722.177	0.0138011
722.255	0.0139271
722.333	0.0138406
722.411	0.0138845
722.489	0.0139655
722.568	0.0139478
722.646	0.0139864
722.724	0.0139325
722.802	0.0139836
722.880	0.0139171
722.958	0.0139384
723.036	0.0139529
723.114	0.0140781
723.193	0.0138811
723.271	0.0137711
723.349	0.0137857
723.427	0.0136237
723.505	0.0136253
723.583	0.0135426
723.661	0.0135353
723.739	0.0133836
723.818	0.0132951
723.896	0.0134035
723.974	0.0132956
724.052	0.0133183
724.130	0.0133283
724.208	0.0134642
724.286	0.0133982
724.364	0.0134413
724.443	0.0135216
724.521	0.0133177
724.599	0.0135040
724.677	0.0136069
724.755	0.0133811
724.833	0.0134114
724.911	0.0134216
724.989	0.0132568
725.068	0.0131690
725.146	0.0131709
725.224	0.0133444
725.302	0.0131536
725.380	0.0129483
725.458	0.0129995
725.536	0.0130247
725.614	0.0130325
725.693	0.0129449
725.771	0.0128719
725.849	0.0128847
725.927	0.0130076
726.005	0.0130371
726.083	0.0129662
726.161	0.0131284
726.239	0.0131128
726.318	0.0132323
726.396	0.0133401
726.474	0.0133212
726.552	0.0134859
726.630	0.0134328
726.708	0.0133886
726.786	0.0134747
726.864	0.0136882
726.943	0.0135350
727.021	0.0135828
727.099	0.0136675
727.177	0.0137120
727.255	0.0135975
727.333	0.0136600
727.411	0.0137033
727.489	0.0136462
727.568	0.0137270
727.646	0.0137795
727.724	0.0138174
727.802	0.0138432
727.880	0.0137613
727.958	0.0135780
728.036	0.0137524
728.114	0.0137566
728.193	0.0135564
728.271	0.0136191
728.349	0.0138866
728.427	0.0137566
728.505	0.0137048
728.583	0.0136999
728.661	0.0137683
728.739	0.0137186
728.818	0.0137006
728.896	0.0135315
728.974	0.0137545
729.052	0.0137086
729.130	0.0135165
729.208	0.0136591
729.286	0.0136988
729.364	0.0136315
729.443	0.0134975
729.521	0.0136566
729.599	0.0135597
729.677	0.0134969
729.755	0.0134177
729.833	0.0135764
729.911	0.0134841
729.989	0.0135657
730.068	0.0134704
730.146	0.0134309
730.224	0.0134625
730.302	0.0132431
730.380	0.0132302
730.458	0.0133721
730.536	0.0133116
730.614	0.0131565
730.693	0.0131441
730.771	0.0131621
730.849	0.0132293
730.927	0.0131312
731.005	0.0131281
731.083	0.0131522
731.161	0.0131638
731.239	0.0131763
731.318	0.0132203
731.396	0.0132405
731.474	0.0133487
731.552	0.0134067
731.630	0.0133434
731.708	0.0134854
731.786	0.0136575
731.864	0.0134220
731.943	0.0135844
732.021	0.0138104
732.099	0.0136608
732.177	0.0137379
732.255	0.0137530
732.333	0.0138021
732.411	0.0136349
732.489	0.0135741
732.568	0.0136208
732.646	0.0135617
732.724	0.0134214
732.802	0.0134831
732.880	0.0132431
732.958	0.0132272
733.036	0.0132244
733.114	0.0132642
733.193	0.0131551
733.271	0.0131686
733.349	0.0134096
733.427	0.0133125
733.505	0.0133622
733.583	0.0133780
733.661	0.0133765
733.739	0.0134575
733.818	0.0135764
733.896	0.0135634
733.974	0.0135838
734.052	0.0137476
734.130	0.0136246
734.208	0.0137438
734.286	0.0136852
734.364	0.0139577
734.443	0.0137437
734.521	0.0138078
734.599	0.0138702
734.677	0.0137949
734.755	0.0137840
734.833	0.0136195
734.911	0.0135233
734.989	0.0136775
735.068	0.0134908
735.146	0.0133756
735.224	0.0133465
735.302	0.0132981
735.380	0.0134367
735.458	0.0133060
735.536	0.0131127
735.614	0.0132645
735.693	0.0132320
735.771	0.0132748
735.849	0.0133614
735.927	0.0132236
736.005	0.0133743
736.083	0.0132780
736.161	0.0133828
736.239	0.0133397
736.318	0.0135176
736.396	0.0135735
736.474	0.0134903
736.552	0.0133968
736.630	0.0135485
736.708	0.0135472
736.786	0.0136581
736.864	0.0136979
736.943	0.0135516
737.021	0.0135037
737.099	0.0134193
737.177	0.0135372
737.255	0.0134898
737.333	0.0134216
737.411	0.0132912
737.489	0.0131254
737.568	0.0133240
737.646	0.0131454
737.724	0.0130905
737.802	0.0132851
737.880	0.0132230
737.958	0.0131107
738.036	0.0132571
738.114	0.0131323
738.193	0.0131712
738.271	0.0132555
738.349	0.0132298
738.427	0.0131162
738.505	0.0133013
738.583	0.0134913
738.661	0.0133290
738.739	0.0133815
738.818	0.0134435
738.896	0.0134098
738.974	0.0133748
739.052	0.0134801
739.130	0.0134470
739.208	0.0134613
739.286	0.0135912
739.364	0.0136118
739.443	0.0136497
739.521	0.0136205
739.599	0.0136262
739.677	0.0136314
739.755	0.0135886
739.833	0.0136254
739.911	0.0136858
739.989	0.0135112
740.068	0.0135503
740.146	0.0134635
740.224	0.0133775
740.302	0.0134648
740.380	0.0133495
740.458	0.0134770
740.536	0.0135515
740.614	0.0135310
740.693	0.0136105
740.771	0.0134909
740.849	0.0135501
740.927	0.0133939
741.005	0.0134321
741.083	0.0134382
741.161	0.0134538
741.239	0.0133778
741.318	0.0133720
741.396	0.0133583
741.474	0.0133376
741.552	0.0134560
741.630	0.0135073
741.708	0.0134689
741.786	0.0135205
741.864	0.0134695
741.943	0.0134635
742.021	0.0135840
742.099	0.0135912
742.177	0.0136166
742.255	0.0134679
742.333	0.0135303
742.411	0.0135175
742.489	0.0136698
742.568	0.0136005
742.646	0.0133631
742.724	0.0134832
742.802	0.0136113
742.880	0.0133818
742.958	0.0133250
743.036	0.0133373
743.114	0.0134012
743.193	0.0133601
743.271	0.0133294
743.349	0.0133962
743.427	0.0134172
743.505	0.0133930
743.583	0.0132710
743.661	0.0133377
743.739	0.0132987
743.818	0.0133703
743.896	0.0133804
743.974	0.0134664
744.052	0.0134196
744.130	0.0133569
744.208	0.0134325
744.286	0.0133922
744.364	0.0134537
744.443	0.0133990
744.521	0.0134518
744.599	0.0133740
744.677	0.0134612
744.755	0.0134184
744.833	0.0135685
744.911	0.0134077
744.989	0.0132793
745.068	0.0133864
745.146	0.0134113
745.224	0.0133461
745.302	0.0134097
745.380	0.0133833
745.458	0.0133766
745.536	0.0133813
745.614	0.0133718
745.693	0.0134052
745.771	0.0134920
745.849	0.0134332
745.927	0.0134483
746.005	0.0135932
746.083	0.0136922
746.161	0.0134805
746.239	0.0135429
746.318	0.0137395
746.396	0.0135983
746.474	0.0136485
746.552	0.0135855
746.630	0.0137113
746.708	0.0136852
746.786	0.0137251
746.864	0.0135903
746.943	0.0137664
747.021	0.0137249
747.099	0.0136825
747.177	0.0136099
747.255	0.0136673
747.333	0.0134483
747.411	0.0136037
747.489	0.0136687
747.568	0.0134950
747.646	0.0134431
747.724	0.0135909
747.802	0.0133428
747.880	0.0133786
747.958	0.0135225
748.036	0.0134846
748.114	0.0134946
748.193	0.0135993
748.271	0.0134406
748.349	0.0134995
748.427	0.0134958
748.505	0.0134644
748.583	0.0135619
748.661	0.0136607
748.739	0.0136379
748.818	0.0135423
748.896	0.0135434
748.974	0.0136504
749.052	0.0135794
749.130	0.0135336
749.208	0.0133151
749.286	0.0134090
749.364	0.0133440
749.443	0.0132349
749.521	0.0132703
749.599	0.0131577
749.677	0.0130804
749.755	0.0130782
749.833	0.0130750
749.911	0.0131985
749.989	0.0131210
750.068	0.0130773
750.146	0.0130826
750.224	0.0132050
750.302	0.0133839
750.380	0.0131713
750.458	0.0132763
750.536	0.0134195
750.614	0.0132917
750.693	0.0133425
750.771	0.0132883
750.849	0.0134458
750.927	0.0135541
751.005	0.0134949
751.083	0.0136264
751.161	0.0135664
751.239	0.0135201
751.318	0.0136395
751.396	0.0138809
751.474	0.0135566
751.552	0.0136132
751.630	0.0137148
751.708	0.0136232
751.786	0.0136463
751.864	0.0135809
751.943	0.0134020
752.021	0.0134174
752.099	0.0134573
752.177	0.0134425
752.255	0.0134544
752.333	0.0132393
752.411	0.0134197
752.489	0.0133116
752.568	0.0132673
752.646	0.0132094
752.724	0.0133160
752.802	0.0132944
752.880	0.0133231
752.958	0.0132845
753.036	0.0133499
753.114	0.0134574
753.193	0.0136456
753.271	0.0135703
753.349	0.0135867
753.427	0.0135850
753.505	0.0135693
753.583	0.0136386
753.661	0.0137225
753.739	0.0135796
753.818	0.0136053
753.896	0.0136622
753.974	0.0136858
754.052	0.0136034
754.130	0.0137302
754.208	0.0137798
754.286	0.0137225
754.364	0.0135954
754.443	0.0137257
754.521	0.0137184
754.599	0.0138138
754.677	0.0136298
754.755	0.0137254
754.833	0.0135619
754.911	0.0136279
754.989	0.0136163
755.068	0.0134963
755.146	0.0135125
755.224	0.0135228
755.302	0.0135288
755.380	0.0133384
755.458	0.0132111
755.536	0.0132223
755.614	0.0131339
755.693	0.0132262
755.771	0.0131553
755.849	0.0131069
755.927	0.0131139
756.005	0.0130746
756.083	0.0130874
756.161	0.0130672
756.239	0.0129510
756.318	0.0129930
756.396	0.0132619
756.474	0.0132485
756.552	0.0131406
756.630	0.0133008
756.708	0.0131856
756.786	0.0133133
756.864	0.0132964
756.943	0.0133591
757.021	0.0135755
757.099	0.0136414
757.177	0.0135889
757.255	0.0135991
757.333	0.0136983
757.411	0.0137844
757.489	0.0137917
757.568	0.0138148
757.646	0.0137674
757.724	0.0139629
757.802	0.0136868
757.880	0.0136341
757.958	0.0138742
758.036	0.0138330
758.114	0.0137137
758.193	0.0137480
758.271	0.0136419
758.349	0.0135088
758.427	0.0136105
758.505	0.0134039
758.583	0.0134863
758.661	0.0134407
758.739	0.0135706
758.818	0.0135248
758.896	0.0133640
758.974	0.0132604
759.052	0.0133044
759.130	0.0133529
759.208	0.0133070
759.286	0.0134374
759.364	0.0132996
759.443	0.0132726
759.521	0.0134245
759.599	0.0133694
759.677	0.0133058
759.755	0.0132506
759.833	0.0133830
759.911	0.0133597
759.989	0.0133504
760.068	0.0133385
760.146	0.0132632
760.224	0.0132661
760.302	0.0132121
760.380	0.0132790
760.458	0.0131705
760.536	0.0133459
760.614	0.0133272
760.693	0.0132996
760.771	0.0134348
760.849	0.0135040
760.927	0.0134398
761.005	0.0134718
761.083	0.0135305
761.161	0.0136340
761.239	0.0136864
761.318	0.0136517
761.396	0.0136434
761.474	0.0136834
761.552	0.0137280
761.630	0.0136821
761.708	0.0137724
761.786	0.0136266
761.864	0.0136538
761.943	0.0136204
762.021	0.0136825
762.099	0.0134905
762.177	0.0134989
762.255	0.0133706
762.333	0.0133213
762.411	0.0133611
762.489	0.0133086
762.568	0.0131518
762.646	0.0130944
762.724	0.0130839
762.802	0.0131315
762.880	0.0131673
762.958	0.0131794
763.036	0.0131446
763.114	0.0132751
763.193	0.0131640
763.271	0.0132697
763.349	0.0132525
763.427	0.0132756
763.505	0.0135434
763.583	0.0133418
763.661	0.0134245
763.739	0.0133836
763.818	0.0134797
763.896	0.0135580
763.974	0.0134254
764.052	0.0138036
764.130	0.0138098
764.208	0.0136745
764.286	0.0136874
764.364	0.0136886
764.443	0.0135442
764.521	0.0136043
764.599	0.0135799
764.677	0.0135843
764.755	0.0136909
764.833	0.0134498
764.911	0.0134052
764.989	0.0135112
765.068	0.0134903
765.146	0.0133829
765.224	0.0132803
765.302	0.0132877
765.380	0.0134177
765.458	0.0134122
765.536	0.0133733
765.614	0.0132917
765.693	0.0132541
765.771	0.0132885
765.849	0.0133659
765.927	0.0133844
766.005	0.0134682
766.083	0.0135270
766.161	0.0135204
766.239	0.0133968
766.318	0.0133028
766.396	0.0135416
766.474	0.0134962
766.552	0.0135807
766.630	0.0136256
766.708	0.0135184
766.786	0.0137248
766.864	0.0136240
766.943	0.0134632
767.021	0.0135855
767.099	0.0135982
767.177	0.0136410
767.255	0.0137457
767.333	0.0137485
767.411	0.0136042
767.489	0.0136861
767.568	0.0138222
767.646	0.0137640
767.724	0.0136799
767.802	0.0136997
767.880	0.0135229
767.958	0.0136600
768.036	0.0137658
768.114	0.0137539
768.193	0.0137609
768.271	0.0135860
768.349	0.0135129
768.427	0.0135022
768.505	0.0134293
768.583	0.0131877
768.661	0.0131580
768.739	0.0133117
768.818	0.0130913
768.896	0.0130817
768.974	0.0131477
769.052	0.0130503
769.130	0.0129279
769.208	0.0130613
769.286	0.0131253
769.364	0.0129529
769.443	0.0129646
769.521	0.0132583
769.599	0.0129951
769.677	0.0130668
769.755	0.0131781
769.833	0.0132980
769.911	0.0133453
769.989	0.0133436
770.068	0.0133179
770.146	0.0133658
770.224	0.0134208
770.302	0.0133745
770.380	0.0135087
770.458	0.0135207
770.536	0.0136092
770.614	0.0136602
770.693	0.0136210
770.771	0.0137296
770.849	0.0136845
770.927	0.0135135
771.005	0.0135139
771.083	0.0137531
771.161	0.0137189
771.239	0.0136693
771.318	0.0137357
771.396	0.0137216
771.474	0.0137421
771.552	0.0138821
771.630	0.0138000
771.708	0.0136895
771.786	0.0136439
771.864	0.0136776
771.943	0.0137106
772.021	0.0138808
772.099	0.0137005
772.177	0.0136404
772.255	0.0137643
772.333	0.0137790
772.411	0.0136222
772.489	0.0136742
772.568	0.0135220
772.646	0.0135243
772.724	0.0135022
772.802	0.0133881
772.880	0.0135105
772.958	0.0134000
773.036	0.0132116
773.114	0.0133381
773.193	0.0132313
773.271	0.0131319
773.349	0.0131559
773.427	0.0132130
773.505	0.0132377
773.583	0.0131625
773.661	0.0130873
773.739	0.0131834
773.818	0.0131781
773.896	0.0130950
773.974	0.0131264
774.052	0.0133197
774.130	0.0133388
774.208	0.0133878
774.286	0.0135223
774.364	0.0132911
774.443	0.0132965
774.521	0.0133172
774.599	0.0133509
774.677	0.0135208
774.755	0.0133211
774.833	0.0133694
774.911	0.0133890
774.989	0.0134070
775.068	0.0134817
775.146	0.0133153
775.224	0.0134325
775.302	0.0135626
775.380	0.0134377
775.458	0.0135366
775.536	0.0135786
775.614	0.0135083
775.693	0.0134957
775.771	0.0135306
775.849	0.0136703
775.927	0.0138995
776.005	0.0136594
776.083	0.0136835
776.161	0.0136861
776.239	0.0138390
776.318	0.0137743
776.396	0.0136927
776.474	0.0138531
776.552	0.0137429
776.630	0.0136957
776.708	0.0137767
776.786	0.0137674
776.864	0.0138914
776.943	0.0136243
777.021	0.0135799
777.099	0.0135400
777.177	0.0136152
777.255	0.0136208
777.333	0.0135283
777.411	0.0135896
777.489	0.0135672
777.568	0.0134668
777.646	0.0133761
777.724	0.0134383
777.802	0.0135210
777.880	0.0134336
777.958	0.0134538
778.036	0.0133810
778.114	0.0133950
778.193	0.0133084
778.271	0.0134520
778.349	0.0132614
778.427	0.0133587
778.505	0.0133897
778.583	0.0133704
778.661	0.0134100
778.739	0.0134849
778.818	0.0133012
778.896	0.0133676
778.974	0.0134537
779.052	0.0133763
779.130	0.0133801
779.208	0.0133147
779.286	0.0134335
779.364	0.0135077
779.443	0.0134059
779.521	0.0134777
779.599	0.0132275
779.677	0.0134424
779.755	0.0133941
779.833	0.0134542
779.911	0.0133584
779.989	0.0134270
780.068	0.0135206
780.146	0.0134804
780.224	0.0135819
780.302	0.0135444
780.380	0.0135989
780.458	0.0135578
780.536	0.0135459
780.614	0.0135771
780.693	0.0135098
780.771	0.0136098
780.849	0.0134760
780.927	0.0136557
781.005	0.0136707
781.083	0.0138012
781.161	0.0136739
781.239	0.0136888
781.318	0.0137104
781.396	0.0134765
781.474	0.0135455
781.552	0.0135604
781.630	0.0135818
781.708	0.0135323
781.786	0.0136620
781.864	0.0135696
781.943	0.0135551
782.021	0.0136390
782.099	0.0136227
782.177	0.0135410
782.255	0.0135804
782.333	0.0134366
782.411	0.0135950
782.489	0.0135857
782.568	0.0135248
782.646	0.0134902
782.724	0.0135194
782.802	0.0133888
782.880	0.0134151
782.958	0.0134700
783.036	0.0133568
783.114	0.0133201
783.193	0.0133491
783.271	0.0132911
783.349	0.0132188
783.427	0.0131497
783.505	0.0132613
783.583	0.0132875
783.661	0.0131443
783.739	0.0131769
783.818	0.0131493
783.896	0.0132639
783.974	0.0132833
784.052	0.0132310
784.130	0.0133794
784.208	0.0133915
784.286	0.0132825
784.364	0.0133907
784.443	0.0134092
784.521	0.0133768
784.599	0.0134761
784.677	0.0135825
784.755	0.0137196
784.833	0.0136378
784.911	0.0136790
784.989	0.0136210
785.068	0.0137600
785.146	0.0137073
785.224	0.0137093
785.302	0.0136369
785.380	0.0135754
785.458	0.0136943
785.536	0.0136864
785.614	0.0137541
785.693	0.0135717
785.771	0.0135586
785.849	0.0134778
785.927	0.0135315
786.005	0.0134708
786.083	0.0134367
786.161	0.0133160
786.239	0.0136111
786.318	0.0136262
786.396	0.0135360
786.474	0.0135145
786.552	0.0136768
786.630	0.0136808
786.708	0.0135292
786.786	0.0136623
786.864	0.0136661
786.943	0.0136272
787.021	0.0136584
787.099	0.0136060
787.177	0.0137133
787.255	0.0137481
787.333	0.0136333
787.411	0.0135078
787.489	0.0134386
787.568	0.0134030
787.646	0.0135002
787.724	0.0133861
787.802	0.0134171
787.880	0.0134897
787.958	0.0132127
788.036	0.0134007
788.114	0.0133224
788.193	0.0132363
788.271	0.0134104
788.349	0.0133381
788.427	0.0133839
788.505	0.0134360
788.583	0.0133720
788.661	0.0132988
788.739	0.0132431
788.818	0.0133208
788.896	0.0133141
788.974	0.0134712
789.052	0.0134177
789.130	0.0134848
789.208	0.0134557
789.286	0.0134692
789.364	0.0133787
789.443	0.0133760
789.521	0.0134998
789.599	0.0134722
789.677	0.0135310
789.755	0.0133936
789.833	0.0134465
789.911	0.0134758
789.989	0.0133871
790.068	0.0134799
790.146	0.0134694
790.224	0.0135406
790.302	0.0135403
790.380	0.0135771
790.458	0.0134698
790.536	0.0133932
790.614	0.0135011
790.693	0.0135094
790.771	0.0134494
790.849	0.0135026
790.927	0.0135551
791.005	0.0135772
791.083	0.0136327
791.161	0.0135294
791.239	0.0135954
791.318	0.0135337
791.396	0.0135184
791.474	0.0134158
791.552	0.0134872
791.630	0.0135275
791.708	0.0133995
791.786	0.0135445
791.864	0.0134167
791.943	0.0134164
792.021	0.0131888
792.099	0.0132953
792.177	0.0131404
792.255	0.0133415
792.333	0.0133663
792.411	0.0133089
792.489	0.0131717
792.568	0.0132600
792.646	0.0132832
792.724	0.0133643
792.802	0.0133414
792.880	0.0135210
792.958	0.0134870
793.036	0.0134072
793.114	0.0134627
793.193	0.0134933
793.271	0.0135722
793.349	0.0136179
793.427	0.0134684
793.505	0.0136143
793.583	0.0135490
793.661	0.0136321
793.739	0.0136307
793.818	0.0136489
793.896	0.0136993
793.974	0.0135028
794.052	0.0135791
794.130	0.0135293
794.208	0.0135249
794.286	0.0135595
794.364	0.0135098
794.443	0.0133102
794.521	0.0134161
794.599	0.0134148
794.677	0.0131920
794.755	0.0132477
794.833	0.0133846
794.911	0.0132545
794.989	0.0133388
795.068	0.0132773
795.146	0.0133335
795.224	0.0131522
795.302	0.0132165
795.380	0.0134340
795.458	0.0134821
795.536	0.0133413
795.614	0.0134212
795.693	0.0133961
795.771	0.0134659
795.849	0.0134509
795.927	0.0135394
796.005	0.0135825
796.083	0.0133979
796.161	0.0134068
796.239	0.0134041
796.318	0.0133610
796.396	0.0135175
796.474	0.0133722
796.552	0.0133514
796.630	0.0133064
796.708	0.0133849
796.786	0.0133448
796.864	0.0134918
796.943	0.0134202
797.021	0.0132611
797.099	0.0134450
797.177	0.0134810
797.255	0.0134711
797.333	0.0136095
797.411	0.0135407
797.489	0.0136217
797.568	0.0134377
797.646	0.0134818
797.724	0.0135626
797.802	0.0136224
797.880	0.0135094
797.958	0.0135248
798.036	0.0135026
798.114	0.0134399
798.193	0.0134761
798.271	0.0134739
798.349	0.0134904
798.427	0.0134415
798.505	0.0135218
798.583	0.0133904
798.661	0.0132749
798.739	0.0133221
798.818	0.0133611
798.896	0.0131778
798.974	0.0132565
799.052	0.0132835
799.130	0.0132613
799.208	0.0133700
799.286	0.0134325
799.364	0.0135020
799.443	0.0134534
799.521	0.0134948
799.599	0.0134442
799.677	0.0134380
799.755	0.0133669
799.833	0.0135603
799.911	0.0135099
799.989	0.0135753
800.068	0.0135085
800.146	0.0133897
800.224	0.0135032
800.302	0.0132434
800.380	0.0134048
800.458	0.0134689
800.536	0.0134100
800.614	0.0134740
800.693	0.0134779
800.771	0.0134659
800.849	0.0134227
800.927	0.0133768
801.005	0.0133371
801.083	0.0134347
801.161	0.0134555
801.239	0.0134731
801.318	0.0134523
801.396	0.0133964
801.474	0.0135133
801.552	0.0134090
801.630	0.0135892
801.708	0.0135645
801.786	0.0136171
801.864	0.0135997
801.943	0.0135763
802.021	0.0134962
802.099	0.0134383
802.177	0.0134577
802.255	0.0134708
802.333	0.0134681
802.411	0.0134116
802.489	0.0135466
802.568	0.0134792
802.646	0.0133412
802.724	0.0134182
802.802	0.0134261
802.880	0.0133790
802.958	0.0133336
803.036	0.0132870
803.114	0.0133311
803.193	0.0133186
803.271	0.0132518
803.349	0.0134271
803.427	0.0133520
803.505	0.0133774
803.583	0.0134986
803.661	0.0134824
803.739	0.0135886
803.818	0.0134997
803.896	0.0134671
803.974	0.0134882
804.052	0.0135076
804.130	0.0135351
804.208	0.0135011
804.286	0.0134247
804.364	0.0133007
804.443	0.0134538
804.521	0.0135429
804.599	0.0135338
804.677	0.0134756
804.755	0.0133345
804.833	0.0135453
804.911	0.0134438
804.989	0.0136385
805.068	0.0135023
805.146	0.0133946
805.224	0.0135316
805.302	0.0135481
805.380	0.0136282
805.458	0.0136076
805.536	0.0137387
805.614	0.0136886
805.693	0.0135609
805.771	0.0135796
805.849	0.0137081
805.927	0.0136055
806.005	0.0136109
806.083	0.0135212
806.161	0.0136551
806.239	0.0134278
806.318	0.0133447
806.396	0.0134900
806.474	0.0135105
806.552	0.0134208
806.630	0.0133698
806.708	0.0132872
806.786	0.0132780
806.864	0.0133203
806.943	0.0132883
807.021	0.0133911
807.099	0.0133431
807.177	0.0133591
807.255	0.0133278
807.333	0.0134741
807.411	0.0132794
807.489	0.0132793
807.568	0.0133560
807.646	0.0133539
807.724	0.0134054
807.802	0.0134213
807.880	0.0134261
807.958	0.0134231
808.036	0.0136086
808.114	0.0136037
808.193	0.0134804
808.271	0.0136390
808.349	0.0135686
808.427	0.0135874
808.505	0.0134813
808.583	0.0134319
808.661	0.0134316
808.739	0.0134556
808.818	0.0134631
808.896	0.0135875
808.974	0.0136031
809.052	0.0133202
809.130	0.0133609
809.208	0.0134493
809.286	0.0133086
809.364	0.0133588
809.443	0.0134284
809.521	0.0134810
809.599	0.0134265
809.677	0.0135389
809.755	0.0133405
809.833	0.0132964
809.911	0.0135899
809.989	0.0134933
810.068	0.0135419
810.146	0.0135080
810.224	0.0134970
810.302	0.0136294
810.380	0.0135249
810.458	0.0134213
810.536	0.0134814
810.614	0.0136807
810.693	0.0136304
810.771	0.0134262
810.849	0.0134712
810.927	0.0134728
811.005	0.0134678
811.083	0.0134510
811.161	0.0135971
811.239	0.0134072
811.318	0.0134968
811.396	0.0134348
811.474	0.0134682
811.552	0.0133555
811.630	0.0133804
811.708	0.0133040
811.786	0.0134392
811.864	0.0132240
811.943	0.0132381
812.021	0.0132339
812.099	0.0133719
812.177	0.0133232
812.255	0.0133929
812.333	0.0133669
812.411	0.0133385
812.489	0.0134859
812.568	0.0136353
812.646	0.0133985
812.724	0.0134325
812.802	0.0134844
812.880	0.0136359
812.958	0.0136275
813.036	0.0137083
813.114	0.0136455
813.193	0.0135065
813.271	0.0135614
813.349	0.0136137
813.427	0.0135699
813.505	0.0134785
813.583	0.0135440
813.661	0.0135652
813.739	0.0134763
813.818	0.0134109
813.896	0.0134080
813.974	0.0133820
814.052	0.0132775
814.130	0.0133522
814.208	0.0135043
814.286	0.0133617
814.364	0.0133261
814.443	0.0135372
814.521	0.0133845
814.599	0.0133868
814.677	0.0134657
814.755	0.0135272
814.833	0.0134801
814.911	0.0134265
814.989	0.0135027
815.068	0.0135721
815.146	0.0135863
815.224	0.0136588
815.302	0.0135347
815.380	0.0136183
815.458	0.0135444
815.536	0.0137796
815.614	0.0137843
815.693	0.0137814
815.771	0.0137183
815.849	0.0134998
815.927	0.0137064
816.005	0.0136958
816.083	0.0135577
816.161	0.0135331
816.239	0.0137068
816.318	0.0136086
816.396	0.0135281
816.474	0.0135149
816.552	0.0134191
816.630	0.0134859
816.708	0.0134872
816.786	0.0134773
816.864	0.0131842
816.943	0.0131820
817.021	0.0132412
817.099	0.0131118
817.177	0.0131808
817.255	0.0130212
817.333	0.0129544
817.411	0.0130920
817.489	0.0130632
817.568	0.0130137
817.646	0.0130831
817.724	0.0129605
817.802	0.0129501
817.880	0.0130484
817.958	0.0131096
818.036	0.0131348
818.114	0.0131248
818.193	0.0130810
818.271	0.0131931
818.349	0.0131496
818.427	0.0132735
818.505	0.0134345
818.583	0.0133565
818.661	0.0135026
818.739	0.0135849
818.818	0.0137018
818.896	0.0137974
818.974	0.0139794
819.052	0.0139414
819.130	0.0138671
819.208	0.0139831
819.286	0.0139737
819.364	0.0139881
819.443	0.0139853
819.521	0.0139751
819.599	0.0138285
819.677	0.0139730
819.755	0.0139211
819.833	0.0138074
819.911	0.0138292
819.989	0.0136421
820.068	0.0136353
820.146	0.0135936
820.224	0.0135338
820.302	0.0134961
820.380	0.0135037
820.458	0.0134620
820.536	0.0133411
820.614	0.0131712
820.693	0.0133391
820.771	0.0132710
820.849	0.0131686
820.927	0.0131667
821.005	0.0132057
821.083	0.0130558
821.161	0.0130145
821.239	0.0131035
821.318	0.0130183
821.396	0.0130601
821.474	0.0130949
821.552	0.0130623
821.630	0.0131424
821.708	0.0131929
821.786	0.0130744
821.864	0.0131348
821.943	0.0129575
822.021	0.0129949
822.099	0.0132439
822.177	0.0130900
822.255	0.0130372
822.333	0.0131342
822.411	0.0130865
822.489	0.0131303
822.568	0.0132885
822.646	0.0133036
822.724	0.0133016
822.802	0.0133898
822.880	0.0132881
822.958	0.0134492
823.036	0.0135265
823.114	0.0135069
823.193	0.0135256
823.271	0.0135509
823.349	0.0136779
823.427	0.0136201
823.505	0.0135181
823.583	0.0134864
823.661	0.0135563
823.739	0.0136106
823.818	0.0136319
823.896	0.0137844
823.974	0.0135802
824.052	0.0136797
824.130	0.0137413
824.208	0.0136162
824.286	0.0135616
824.364	0.0135464
824.443	0.0136207
824.521	0.0136572
824.599	0.0134765
824.677	0.0134625
824.755	0.0133562
824.833	0.0134222
824.911	0.0135204
824.989	0.0134534
825.068	0.0133636
825.146	0.0134019
825.224	0.0133215
825.302	0.0133302
825.380	0.0133407
825.458	0.0132248
825.536	0.0132535
825.614	0.0132133
825.693	0.0132143
825.771	0.0133131
825.849	0.0132018
825.927	0.0131167
826.005	0.0131133
826.083	0.0131755
826.161	0.0131237
826.239	0.0130731
826.318	0.0129856
826.396	0.0130523
826.474	0.0131902
826.552	0.0131691
826.630	0.0130191
826.708	0.0130647
826.786	0.0132086
826.864	0.0130777
826.943	0.0131451
827.021	0.0131742
827.099	0.0131380
827.177	0.0131973
827.255	0.0132745
827.333	0.0131647
827.411	0.0133176
827.489	0.0133845
827.568	0.0134055
827.646	0.0133991
827.724	0.0134905
827.802	0.0135783
827.880	0.0137433
827.958	0.0137686
828.036	0.0138482
828.114	0.0137072
828.193	0.0138968
828.271	0.0139517
828.349	0.0138750
828.427	0.0139469
828.505	0.0139529
828.583	0.0138026
828.661	0.0138364
828.739	0.0138676
828.818	0.0138767
828.896	0.0139179
828.974	0.0139573
829.052	0.0137733
829.130	0.0137792
829.208	0.0136847
829.286	0.0136836
829.364	0.0135820
829.443	0.0136175
829.521	0.0134255
829.599	0.0132623
829.677	0.0133217
829.755	0.0131913
829.833	0.0131932
829.911	0.0130824
829.989	0.0130665
830.068	0.0130417
830.146	0.0129176
830.224	0.0128636
830.302	0.0128088
830.380	0.0127930
830.458	0.0127768
830.536	0.0128007
830.614	0.0128377
830.693	0.0129242
830.771	0.0128445
830.849	0.0129401
830.927	0.0128394
831.005	0.0128217
831.083	0.0129435
831.161	0.0130785
831.239	0.0131359
831.318	0.0131727
831.396	0.0133224
831.474	0.0132729
831.552	0.0133027
831.630	0.0135081
831.708	0.0135031
831.786	0.0136918
831.864	0.0136681
831.943	0.0137109
832.021	0.0137129
832.099	0.0138309
832.177	0.0139674
832.255	0.0138609
832.333	0.0140870
832.411	0.0139692
832.489	0.0140563
832.568	0.0140564
832.646	0.0138783
832.724	0.0141185
832.802	0.0139598
832.880	0.0139899
832.958	0.0139902
833.036	0.0138660
833.114	0.0139529
833.193	0.0140164
833.271	0.0138316
833.349	0.0137776
833.427	0.0136539
833.505	0.0136211
833.583	0.0136179
833.661	0.0136665
833.739	0.0135895
833.818	0.0133810
833.896	0.0133746
833.974	0.0132639
834.052	0.0132669
834.130	0.0132911
834.208	0.0131030
834.286	0.0130554
834.364	0.0130235
834.443	0.0130164
834.521	0.0129789
834.599	0.0129726
834.677	0.0128109
834.755	0.0128310
834.833	0.0128078
834.911	0.0127790
834.989	0.0128033
835.068	0.0128071
835.146	0.0127555
835.224	0.0128198
835.302	0.0128952
835.380	0.0128808
835.458	0.0130032
835.536	0.0129845
835.614	0.0129932
835.693	0.0131279
835.771	0.0131480
835.849	0.0132761
835.927	0.0133218
836.005	0.0133283
836.083	0.0135020
836.161	0.0134627
836.239	0.0136501
836.318	0.0136088
836.396	0.0136874
836.474	0.0138344
836.552	0.0137164
836.630	0.0136440
836.708	0.0140750
836.786	0.0140278
836.864	0.0140707
836.943	0.0140074
837.021	0.0139466
837.099	0.0139869
837.177	0.0138740
837.255	0.0139915
837.333	0.0139928
837.411	0.0137804
837.489	0.0138881
837.568	0.0138641
837.646	0.0138081
837.724	0.0138285
837.802	0.0138828
837.880	0.0137215
837.958	0.0137572
838.036	0.0137597
838.114	0.0137119
838.193	0.0135084
838.271	0.0134145
838.349	0.0132911
838.427	0.0135187
838.505	0.0133625
838.583	0.0133562
838.661	0.0132322
838.739	0.0132981
838.818	0.0132685
838.896	0.0131895
838.974	0.0131413
839.052	0.0132759
839.130	0.0131273
839.208	0.0130322
839.286	0.0130746
839.364	0.0132648
839.443	0.0131860
839.521	0.0132859
839.599	0.0131766
839.677	0.0132201
839.755	0.0132087
839.833	0.0132715
839.911	0.0132879
839.989	0.0132416
840.068	0.0132134
840.146	0.0132983
840.224	0.0132443
840.302	0.0131929
840.380	0.0133303
840.458	0.0131179
840.536	0.0132641
840.614	0.0133205
840.693	0.0132764
840.771	0.0133544
840.849	0.0133211
840.927	0.0134815
841.005	0.0134229
841.083	0.0132853
841.161	0.0133772
841.239	0.0135201
841.318	0.0135283
841.396	0.0135799
841.474	0.0137050
841.552	0.0135023
841.630	0.0136314
841.708	0.0137563
841.786	0.0136079
841.864	0.0137775
841.943	0.0135596
842.021	0.0136137
842.099	0.0137415
842.177	0.0137495
842.255	0.0138051
842.333	0.0136811
842.411	0.0137260
842.489	0.0137618
842.568	0.0137397
842.646	0.0136801
842.724	0.0136237
842.802	0.0137772
842.880	0.0137418
842.958	0.0137207
843.036	0.0137179
843.114	0.0137012
843.193	0.0136878
843.271	0.0136873
843.349	0.0135596
843.427	0.0135777
843.505	0.0136229
843.583	0.0134120
843.661	0.0134801
843.739	0.0135968
843.818	0.0135067
843.896	0.0134908
843.974	0.0134760
844.052	0.0133575
844.130	0.0133560
844.208	0.0132843
844.286	0.0132191
844.364	0.0133279
844.443	0.0133123
844.521	0.0132001
844.599	0.0132572
844.677	0.0131072
844.755	0.0130863
844.833	0.0132047
844.911	0.0132537
844.989	0.0131564
845.068	0.0130937
845.146	0.0131110
845.224	0.0131493
845.302	0.0132642
845.380	0.0131670
845.458	0.0131500
845.536	0.0131178
845.614	0.0131801
845.693	0.0132517
845.771	0.0131361
845.849	0.0132059
845.927	0.0131487
846.005	0.0131425
846.083	0.0131950
846.161	0.0133559
846.239	0.0132887
846.318	0.0132942
846.396	0.0133195
846.474	0.0134574
846.552	0.0135117
846.630	0.0134408
846.708	0.0135487
846.786	0.0136461
846.864	0.0137029
846.943	0.0138679
847.021	0.0138141
847.099	0.0137896
847.177	0.0139407
847.255	0.0138986
847.333	0.0138683
847.411	0.0138791
847.489	0.0138966
847.568	0.0137266
847.646	0.0138351
847.724	0.0137937
847.802	0.0137780
847.880	0.0137770
847.958	0.0137289
848.036	0.0136332
848.114	0.0137019
848.193	0.0136420
848.271	0.0135236
848.349	0.0136198
848.427	0.0135309
848.505	0.0135378
848.583	0.0134049
848.661	0.0132916
848.739	0.0133811
848.818	0.0134782
848.896	0.0134653
848.974	0.0134413
849.052	0.0134268
849.130	0.0134004
849.208	0.0133961
849.286	0.0132622
849.364	0.0133792
849.443	0.0132381
849.521	0.0132349
849.599	0.0132700
849.677	0.0132332
849.755	0.0131593
849.833	0.0132830
849.911	0.0131606
849.989	0.0133025
850.068	0.0132576
850.146	0.0133091
850.224	0.0131534
850.302	0.0132393
850.380	0.0133125
850.458	0.0131301
850.536	0.0131202
850.614	0.0132561
850.693	0.0134011
850.771	0.0133067
850.849	0.0133848
850.927	0.0133748
851.005	0.0134347
851.083	0.0134494
851.161	0.0135408
851.239	0.0135107
851.318	0.0136239
851.396	0.0136100
851.474	0.0134293
851.552	0.0135680
851.630	0.0137132
851.708	0.0136974
851.786	0.0135056
851.864	0.0135458
851.943	0.0136572
852.021	0.0136784
852.099	0.0135833
852.177	0.0136178
852.255	0.0136338
852.333	0.0134501
852.411	0.0135059
852.489	0.0134040
852.568	0.0135484
852.646	0.0136177
852.724	0.0134400
852.802	0.0133720
852.880	0.0133537
852.958	0.0133015
853.036	0.0133005
853.114	0.0134161
853.193	0.0135177
853.271	0.0134497
853.349	0.0134977
853.427	0.0133258
853.505	0.0133369
853.583	0.0134415
853.661	0.0134803
853.739	0.0133157
853.818	0.0134727
853.896	0.0134207
853.974	0.0134345
854.052	0.0134618
854.130	0.0134544
854.208	0.0135331
854.286	0.0135039
854.364	0.0134921
854.443	0.0134569
854.521	0.0134304
854.599	0.0134526
854.677	0.0134669
854.755	0.0134872
854.833	0.0134726
854.911	0.0135854
854.989	0.0135120
855.068	0.0135392
855.146	0.0135334
855.224	0.0134637
855.302	0.0135324
855.380	0.0135287
855.458	0.0134682
855.536	0.0135027
855.614	0.0134765
855.693	0.0134868
855.771	0.0134410
855.849	0.0133908
855.927	0.0133949
856.005	0.0135579
856.083	0.0133501
856.161	0.0133467
856.239	0.0133039
856.318	0.0133148
856.396	0.0134380
856.474	0.0134425
856.552	0.0132450
856.630	0.0133786
856.708	0.0132708
856.786	0.0133821
856.864	0.0133152
856.943	0.0134258
857.021	0.0133657
857.099	0.0132944
857.177	0.0133900
857.255	0.0133835
857.333	0.0134466
857.411	0.0134557
857.489	0.0134158
857.568	0.0134411
857.646	0.0134345
857.724	0.0134269
857.802	0.0135364
857.880	0.0133523
857.958	0.0134654
858.036	0.0135131
858.114	0.0135442
858.193	0.0135512
858.271	0.0135199
858.349	0.0135397
858.427	0.0134740
858.505	0.0134508
858.583	0.0134180
858.661	0.0134459
858.739	0.0136031
858.818	0.0136214
858.896	0.0135114
858.974	0.0135443
859.052	0.0136374
859.130	0.0134097
859.208	0.0134343
859.286	0.0134336
859.364	0.0133239
859.443	0.0133947
859.521	0.0134720
859.599	0.0135555
859.677	0.0136378
859.755	0.0136445
859.833	0.0135569
859.911	0.0135134
859.989	0.0136600
860.068	0.0137075
860.146	0.0137469
860.224	0.0136046
860.302	0.0136409
860.380	0.0137370
860.458	0.0136773
860.536	0.0135159
860.614	0.0135666
860.693	0.0136964
860.771	0.0135647
860.849	0.0135623
860.927	0.0134737
861.005	0.0135017
861.083	0.0135383
861.161	0.0134742
861.239	0.0133696
861.318	0.0133256
861.396	0.0133466
861.474	0.0133333
861.552	0.0132690
861.630	0.0131716
861.708	0.0132846
861.786	0.0133138
861.864	0.0133230
861.943	0.0132755
862.021	0.0132519
862.099	0.0132114
862.177	0.0132177
862.255	0.0132340
862.333	0.0131736
862.411	0.0134161
862.489	0.0132766
862.568	0.0131409
862.646	0.0132694
862.724	0.0132796
862.802	0.0134440
862.880	0.0133547
862.958	0.0132717
863.036	0.0133292
863.114	0.0132207
863.193	0.0133639
863.271	0.0135436
863.349	0.0134475
863.427	0.0132945
863.505	0.0135484
863.583	0.0136002
863.661	0.0135203
863.739	0.0135175
863.818	0.0134886
863.896	0.0137872
863.974	0.0137140
864.052	0.0136288
864.130	0.0137978
864.208	0.0135978
864.286	0.0137031
864.364	0.0136504
864.443	0.0136153
864.521	0.0136425
864.599	0.0135333
864.677	0.0136097
864.755	0.0136519
864.833	0.0135465
864.911	0.0135443
864.989	0.0133652
865.068	0.0135927
865.146	0.0134371
865.224	0.0134506
865.302	0.0132690
865.380	0.0133343
865.458	0.0132954
865.536	0.0132652
865.614	0.0133339
865.693	0.0133488
865.771	0.0132878
865.849	0.0132655
865.927	0.0132915
866.005	0.0132987
866.083	0.0131449
866.161	0.0131260
866.239	0.0134109
866.318	0.0134163
866.396	0.0133086
866.474	0.0133789
866.552	0.0134469
866.630	0.0134534
866.708	0.0136445
866.786	0.0134732
866.864	0.0135912
866.943	0.0138025
867.021	0.0137069
867.099	0.0137486
867.177	0.0135722
867.255	0.0137530
867.333	0.0136740
867.411	0.0137623
867.489	0.0138030
867.568	0.0136781
867.646	0.0137348
867.724	0.0137593
867.802	0.0136102
867.880	0.0137168
867.958	0.0135599
868.036	0.0136539
868.114	0.0135897
868.193	0.0135405
868.271	0.0137183
868.349	0.0135638
868.427	0.0134675
868.505	0.0134486
868.583	0.0135103
868.661	0.0134956
868.739	0.0135087
868.818	0.0133415
868.896	0.0132993
868.974	0.0132682
869.052	0.0132944
869.130	0.0134347
869.208	0.0131935
869.286	0.0133041
869.364	0.0132659
869.443	0.0131960
869.521	0.0131657
869.599	0.0131486
869.677	0.0132068
869.755	0.0132423
869.833	0.0132276
869.911	0.0131987
869.989	0.0132011
870.068	0.0130373
870.146	0.0131912
870.224	0.0131901
870.302	0.0131934
870.380	0.0131744
870.458	0.0132137
870.536	0.0132721
870.614	0.0132690
870.693	0.0131351
870.771	0.0131759
870.849	0.0132185
870.927	0.0131642
871.005	0.0132192
871.083	0.0133714
871.161	0.0133674
871.239	0.0132707
871.318	0.0133579
871.396	0.0132627
871.474	0.0133319
871.552	0.0136138
871.630	0.0134351
871.708	0.0135107
871.786	0.0138118
871.864	0.0135840
871.943	0.0135468
872.021	0.0137618
872.099	0.0136520
872.177	0.0136378
872.255	0.0137685
872.333	0.0136884
872.411	0.0138364
872.489	0.0136008
872.568	0.0135775
872.646	0.0138137
872.724	0.0136087
872.802	0.0136616
872.880	0.0136461
872.958	0.0137112
873.036	0.0136700
873.114	0.0136497
873.193	0.0135393
873.271	0.0135976
873.349	0.0134282
873.427	0.0135067
873.505	0.0135477
873.583	0.0136253
873.661	0.0134818
873.739	0.0134779
873.818	0.0133494
873.896	0.0133875
873.974	0.0134700
874.052	0.0133241
874.130	0.0132493
874.208	0.0131431
874.286	0.0133195
874.364	0.0131962
874.443	0.0131661
874.521	0.0132996
874.599	0.0131832
874.677	0.0132775
874.755	0.0133061
874.833	0.0133273
874.911	0.0132353
874.989	0.0132888
875.068	0.0133186
875.146	0.0133242
875.224	0.0132349
875.302	0.0134741
875.380	0.0133263
875.458	0.0133463
875.536	0.0132292
875.614	0.0134653
875.693	0.0134703
875.771	0.0133861
875.849	0.0135130
875.927	0.0135092
876.005	0.0134525
876.083	0.0134406
876.161	0.0134223
876.239	0.0134232
876.318	0.0135257
876.396	0.0135926
876.474	0.0134792
876.552	0.0134454
876.630	0.0134189
876.708	0.0135623
876.786	0.0135135
876.864	0.0136234
876.943	0.0135778
877.021	0.0134003
877.099	0.0136232
877.177	0.0134361
877.255	0.0135596
877.333	0.0137060
877.411	0.0135072
877.489	0.0136355
877.568	0.0136834
877.646	0.0135625
877.724	0.0135745
877.802	0.0136485
877.880	0.0135775
877.958	0.0136422
878.036	0.0135164
878.114	0.0135272
878.193	0.0135330
878.271	0.0135242
878.349	0.0136044
878.427	0.0134211
878.505	0.0134470
878.583	0.0134829
878.661	0.0134936
878.739	0.0134699
878.818	0.0134477
878.896	0.0133450
878.974	0.0134444
879.052	0.0135757
879.130	0.0133758
879.208	0.0135011
879.286	0.0133596
879.364	0.0134233
879.443	0.0134962
879.521	0.0135451
879.599	0.0134648
879.677	0.0136458
879.755	0.0135112
879.833	0.0134711
879.911	0.0134338
879.989	0.0135838
880.068	0.0136263
880.146	0.0135672
880.224	0.0135885
880.302	0.0136440
880.380	0.0134603
880.458	0.0135419
880.536	0.0134653
880.614	0.0136015
880.693	0.0135157
880.771	0.0133868
880.849	0.0134058
880.927	0.0135069
881.005	0.0134380
881.083	0.0134808
881.161	0.0135137
881.239	0.0134017
881.318	0.0134749
881.396	0.0132817
881.474	0.0133825
881.552	0.0134056
881.630	0.0134942
881.708	0.0134433
881.786	0.0133045
881.864	0.0132257
881.943	0.0133302
882.021	0.0132082
882.099	0.0131628
882.177	0.0133823
882.255	0.0132716
882.333	0.0133167
882.411	0.0132870
882.489	0.0132882
882.568	0.0131641
882.646	0.0132668
882.724	0.0132721
882.802	0.0133867
882.880	0.0133135
882.958	0.0133891
883.036	0.0135107
883.114	0.0134663
883.193	0.0134395
883.271	0.0135402
883.349	0.0135323
883.427	0.0134624
883.505	0.0135805
883.583	0.0135541
883.661	0.0136488
883.739	0.0136639
883.818	0.0137794
883.896	0.0137078
883.974	0.0137103
884.052	0.0137269
884.130	0.0135658
884.208	0.0135650
884.286	0.0137300
884.364	0.0135525
884.443	0.0135769
884.521	0.0134933
884.599	0.0134710
884.677	0.0134333
884.755	0.0135082
884.833	0.0134422
884.911	0.0132697
884.989	0.0134035
885.068	0.0134103
885.146	0.0133791
885.224	0.0134345
885.302	0.0134299
885.380	0.0134686
885.458	0.0135339
885.536	0.0137142
885.614	0.0136200
885.693	0.0137266
885.771	0.0137392
885.849	0.0136691
885.927	0.0137393
886.005	0.0137628
886.083	0.0137434
886.161	0.0137154
886.239	0.0136549
886.318	0.0136029
886.396	0.0136844
886.474	0.0135674
886.552	0.0135393
886.630	0.0135328
886.708	0.0135629
886.786	0.0133360
886.864	0.0134500
886.943	0.0134512
887.021	0.0134229
887.099	0.0134552
887.177	0.0133374
887.255	0.0134666
887.333	0.0133318
887.411	0.0134438
887.489	0.0134561
887.568	0.0134833
887.646	0.0134753
887.724	0.0134803
887.802	0.0134710
887.880	0.0134720
887.958	0.0134794
888.036	0.0134268
888.114	0.0135102
888.193	0.0133385
888.271	0.0133572
888.349	0.0134583
888.427	0.0135342
888.505	0.0133067
888.583	0.0134696
888.661	0.0134496
888.739	0.0135342
888.818	0.0135194
888.896	0.0134068
888.974	0.0133592
889.052	0.0134335
889.130	0.0133732
889.208	0.0133876
889.286	0.0134573
889.364	0.0133913
889.443	0.0134715
889.521	0.0134254
889.599	0.0135017
889.677	0.0134867
889.755	0.0134469
889.833	0.0134464
889.911	0.0134629
889.989	0.0136073
890.068	0.0134318
890.146	0.0133811
890.224	0.0135163
890.302	0.0135254
890.380	0.0133531
890.458	0.0134238
890.536	0.0135443
890.614	0.0133534
890.693	0.0133846
890.771	0.0135010
890.849	0.0134169
890.927	0.0134978
891.005	0.0135315
891.083	0.0135174
891.161	0.0133246
891.239	0.0134783
891.318	0.0134904
891.396	0.0135824
891.474	0.0135519
891.552	0.0135724
891.630	0.0137304
891.708	0.0136328
891.786	0.0136513
891.864	0.0137508
891.943	0.0137843
892.021	0.0136755
892.099	0.0136665
892.177	0.0137023
892.255	0.0136768
892.333	0.0137039
892.411	0.0137078
892.489	0.0137540
892.568	0.0136216
892.646	0.0135937
892.724	0.0134818
892.802	0.0133892
892.880	0.0134003
892.958	0.0134314
893.036	0.0134534
893.114	0.0133109
893.193	0.0130898
893.271	0.0131535
893.349	0.0132067
893.427	0.0132303
893.505	0.0132008
893.583	0.0132286
893.661	0.0131103
893.739	0.0131931
893.818	0.0131270
893.896	0.0131828
893.974	0.0133191
894.052	0.0132209
894.130	0.0132372
894.208	0.0132436
894.286	0.0133140
894.364	0.0132413
894.443	0.0131987
894.521	0.0131739
894.599	0.0133434
894.677	0.0133838
894.755	0.0133990
894.833	0.0133877
894.911	0.0133095
894.989	0.0133360
895.068	0.0132802
895.146	0.0134016
895.224	0.0133923
895.302	0.0134881
895.380	0.0133903
895.458	0.0133123
895.536	0.0133789
895.614	0.0133295
895.693	0.0135896
895.771	0.0133759
895.849	0.0133196
895.927	0.0134278
896.005	0.0134109
896.083	0.0134467
896.161	0.0132369
896.239	0.0134550
896.318	0.0133945
896.396	0.0134473
896.474	0.0134286
896.552	0.0133952
896.630	0.0135118
896.708	0.0133615
896.786	0.0134342
896.864	0.0134451
896.943	0.0134367
897.021	0.0134042
897.099	0.0134323
897.177	0.0134995
897.255	0.0134077
897.333	0.0133620
897.411	0.0134328
897.489	0.0135275
897.568	0.0133485
897.646	0.0134452
897.724	0.0132835
897.802	0.0133871
897.880	0.0133447
897.958	0.0133764
898.036	0.0132837
898.114	0.0132916
898.193	0.0135020
898.271	0.0133401
898.349	0.0134241
898.427	0.0133682
898.505	0.0135042
898.583	0.0132716
898.661	0.0134302
898.739	0.0134470
898.818	0.0133394
898.896	0.0133624
898.974	0.0133891
899.052	0.0134264
899.130	0.0133108
899.208	0.0133128
899.286	0.0133347
899.364	0.0133898
899.443	0.0134551
899.521	0.0135394
899.599	0.0135231
899.677	0.0134507
899.755	0.0134049
899.833	0.0136257
899.911	0.0135131
899.989	0.0135170
900.068	0.0135361
900.146	0.0136980
900.224	0.0136373
900.302	0.0135533
900.380	0.0136679
900.458	0.0135496
900.536	0.0135905
900.614	0.0135442
900.693	0.0134853
900.771	0.0134785
900.849	0.0134741
900.927	0.0134888
901.005	0.0133852
901.083	0.0133459
901.161	0.0134200
901.239	0.0133912
901.318	0.0134138
901.396	0.0133388
901.474	0.0133323
901.552	0.0133589
901.630	0.0132279
901.708	0.0130882
901.786	0.0132728
901.864	0.0131733
901.943	0.0133202
902.021	0.0131740
902.099	0.0131610
902.177	0.0132465
902.255	0.0132468
902.333	0.0131408
902.411	0.0132642
902.489	0.0131835
902.568	0.0133176
902.646	0.0133482
902.724	0.0133807
902.802	0.0133774
902.880	0.0133571
902.958	0.0134175
903.036	0.0136633
903.114	0.0134918
903.193	0.0134737
903.271	0.0136494
903.349	0.0133553
903.427	0.0134972
903.505	0.0135594
903.583	0.0135577
903.661	0.0135073
903.739	0.0135972
903.818	0.0135609
903.896	0.0135915
903.974	0.0133998
904.052	0.0135496
904.130	0.0135184
904.208	0.0135561
904.286	0.0135847
904.364	0.0135153
904.443	0.0134939
904.521	0.0136687
904.599	0.0135275
904.677	0.0135278
904.755	0.0136141
904.833	0.0136704
904.911	0.0136108
904.989	0.0136225
905.068	0.0135693
905.146	0.0137498
905.224	0.0137024
905.302	0.0137158
905.380	0.0136029
905.458	0.0135220
905.536	0.0134603
905.614	0.0135270
905.693	0.0134657
905.771	0.0133944
905.849	0.0135351
905.927	0.0132957
906.005	0.0133199
906.083	0.0133246
906.161	0.0132879
906.239	0.0132995
906.318	0.0131453
906.396	0.0131970
906.474	0.0131774
906.552	0.0131001
906.630	0.0130548
906.708	0.0132325
906.786	0.0132059
906.864	0.0131843
906.943	0.0132959
907.021	0.0133261
907.099	0.0135741
907.177	0.0134405
907.255	0.0134496
907.333	0.0135255
907.411	0.0135226
907.489	0.0135552
907.568	0.0136343
907.646	0.0136401
907.724	0.0136494
907.802	0.0136215
907.880	0.0135992
907.958	0.0135590
908.036	0.0135876
908.114	0.0135214
908.193	0.0134486
908.271	0.0135587
908.349	0.0134408
908.427	0.0133097
908.505	0.0133475
908.583	0.0132658
908.661	0.0132630
908.739	0.0131670
908.818	0.0131419
908.896	0.0133255
908.974	0.0131953
909.052	0.0131046
909.130	0.0133585
909.208	0.0133573
909.286	0.0132977
909.364	0.0133340
909.443	0.0134891
909.521	0.0137119
909.599	0.0135728
909.677	0.0136706
909.755	0.0137020
909.833	0.0137469
909.911	0.0137659
909.989	0.0137427
910.068	0.0138183
910.146	0.0139191
910.224	0.0138673
910.302	0.0137159
910.380	0.0136588
910.458	0.0136596
910.536	0.0138120
910.614	0.0134803
910.693	0.0134263
910.771	0.0134877
910.849	0.0134560
910.927	0.0133535
911.005	0.0132688
911.083	0.0132552
911.161	0.0132134
911.239	0.0131781
911.318	0.0131811
911.396	0.0132695
911.474	0.0131209
911.552	0.0132241
911.630	0.0132050
911.708	0.0131792
911.786	0.0131970
911.864	0.0132626
911.943	0.0134467
912.021	0.0132870
912.099	0.0134420
912.177	0.0135016
912.255	0.0134978
912.333	0.0134778
912.411	0.0135615
912.489	0.0135815
912.568	0.0136663
912.646	0.0135725
912.724	0.0135922
912.802	0.0136663
912.880	0.0136423
912.958	0.0135567
913.036	0.0136570
913.114	0.0135196
913.193	0.0134293
913.271	0.0133825
913.349	0.0132970
913.427	0.0131987
913.505	0.0134005
913.583	0.0131927
913.661	0.0132087
913.739	0.0131608
913.818	0.0132138
913.896	0.0131974
913.974	0.0131174
914.052	0.0131278
914.130	0.0131953
914.208	0.0132072
914.286	0.0132255
914.364	0.0132108
914.443	0.0133410
914.521	0.0133875
914.599	0.0133588
914.677	0.0135893
914.755	0.0135471
914.833	0.0134725
914.911	0.0135388
914.989	0.0135838
915.068	0.0136069
915.146	0.0136089
915.224	0.0135579
915.302	0.0136956
915.380	0.0136297
915.458	0.0136127
915.536	0.0135914
915.614	0.0136744
915.693	0.0136591
915.771	0.0135812
915.849	0.0134897
915.927	0.0134943
916.005	0.0134312
916.083	0.0133060
916.161	0.0134850
916.239	0.0133659
916.318	0.0133649
916.396	0.0134200
916.474	0.0132956
916.552	0.0133102
916.630	0.0132346
916.708	0.0132384
916.786	0.0132851
916.864	0.0133507
916.943	0.0131449
917.021	0.0132326
917.099	0.0132519
917.177	0.0132204
917.255	0.0131873
917.333	0.0133827
917.411	0.0132968
917.489	0.0132352
917.568	0.0132671
917.646	0.0133080
917.724	0.0133192
917.802	0.0132006
917.880	0.0132368
917.958	0.0132308
918.036	0.0133532
918.114	0.0133060
918.193	0.0134793
918.271	0.0133499
918.349	0.0133199
918.427	0.0134390
918.505	0.0134198
918.583	0.0134109
918.661	0.0133983
918.739	0.0134519
918.818	0.0133514
918.896	0.0134312
918.974	0.0134801
919.052	0.0134747
919.130	0.0133617
919.208	0.0134330
919.286	0.0135101
919.364	0.0135162
919.443	0.0134753
919.521	0.0135535
919.599	0.0135943
919.677	0.0134718
919.755	0.0134283
919.833	0.0134170
919.911	0.0135078
919.989	0.0135201
920.068	0.0135040
920.146	0.0135155
920.224	0.0134087
920.302	0.0135240
920.380	0.0134004
920.458	0.0133498
920.536	0.0133147
920.614	0.0135139
920.693	0.0135899
920.771	0.0134365
920.849	0.0134875
920.927	0.0134730
921.005	0.0134577
921.083	0.0133720
921.161	0.0133628
921.239	0.0133308
921.318	0.0133862
921.396	0.0133315
921.474	0.0134128
921.552	0.0133630
921.630	0.0133498
921.708	0.0134225
921.786	0.0134848
921.864	0.0133018
921.943	0.0133324
922.021	0.0133765
922.099	0.0133348
922.177	0.0132439
922.255	0.0133750
922.333	0.0134675
922.411	0.0134452
922.489	0.0133492
922.568	0.0132628
922.646	0.0133601
922.724	0.0133222
922.802	0.0132133
922.880	0.0132721
922.958	0.0132717
923.036	0.0132735
923.114	0.0133999
923.193	0.0132789
923.271	0.0132281
923.349	0.0133540
923.427	0.0133147
923.505	0.0132285
923.583	0.0133913
923.661	0.0132507
923.739	0.0134429
923.818	0.0133982
923.896	0.0134540
923.974	0.0134352
924.052	0.0133641
924.130	0.0134562
924.208	0.0133949
924.286	0.0135215
924.364	0.0135452
924.443	0.0135914
924.521	0.0134427
924.599	0.0135269
924.677	0.0134390
924.755	0.0134817
924.833	0.0135564
924.911	0.0136106
924.989	0.0135236
925.068	0.0136207
925.146	0.0136711
925.224	0.0135977
925.302	0.0135688
925.380	0.0135292
925.458	0.0134724
925.536	0.0135510
925.614	0.0136470
925.693	0.0135040
925.771	0.0135114
925.849	0.0135600
925.927	0.0135442
926.005	0.0134117
926.083	0.0134113
926.161	0.0133908
926.239	0.0134511
926.318	0.0135930
926.396	0.0135310
926.474	0.0133555
926.552	0.0132525
926.630	0.0133701
926.708	0.0132758
926.786	0.0132291
926.864	0.0132713
926.943	0.0133031
927.021	0.0132607
927.099	0.0132790
927.177	0.0133173
927.255	0.0133228
927.333	0.0132423
927.411	0.0134366
927.489	0.0133369
927.568	0.0132828
927.646	0.0133851
927.724	0.0133421
927.802	0.0133904
927.880	0.0134876
927.958	0.0133499
928.036	0.0133130
928.114	0.0134624
928.193	0.0134629
928.271	0.0135229
928.349	0.0135183
928.427	0.0134764
928.505	0.0135001
928.583	0.0135497
928.661	0.0135950
928.739	0.0134703
928.818	0.0135436
928.896	0.0135532
928.974	0.0134392
929.052	0.0135089
929.130	0.0135096
929.208	0.0135960
929.286	0.0136271
929.364	0.0133404
929.443	0.0133923
929.521	0.0134157
929.599	0.0133781
929.677	0.0134786
929.755	0.0135144
929.833	0.0133823
929.911	0.0134900
929.989	0.0134759
930.068	0.0133993
930.146	0.0134915
930.224	0.0135049
930.302	0.0135069
930.380	0.0135162
930.458	0.0135557
930.536	0.0134937
930.614	0.0133432
930.693	0.0133792
930.771	0.0134096
930.849	0.0133752
930.927	0.0134417
931.005	0.0134444
931.083	0.0133640
931.161	0.0135821
931.239	0.0133677
931.318	0.0134176
931.396	0.0132870
931.474	0.0134053
931.552	0.0133169
931.630	0.0134248
931.708	0.0133262
931.786	0.0133520
931.864	0.0133679
931.943	0.0133383
932.021	0.0133544
932.099	0.0133459
932.177	0.0132869
932.255	0.0134769
932.333	0.0133714
932.411	0.0134441
932.489	0.0134205
932.568	0.0135310
932.646	0.0135109
932.724	0.0134697
932.802	0.0135913
932.880	0.0135575
932.958	0.0135799
933.036	0.0136845
933.114	0.0135155
933.193	0.0135198
933.271	0.0134422
933.349	0.0134982
933.427	0.0136809
933.505	0.0135877
933.583	0.0135593
933.661	0.0137392
933.739	0.0135777
933.818	0.0135262
933.896	0.0135129
933.974	0.0135847
934.052	0.0135540
934.130	0.0136635
934.208	0.0136937
934.286	0.0134914
934.364	0.0135415
934.443	0.0137118
934.521	0.0136681
934.599	0.0135392
934.677	0.0133688
934.755	0.0133656
934.833	0.0134740
934.911	0.0135378
934.989	0.0135299
935.068	0.0133435
935.146	0.0134615
935.224	0.0135743
935.302	0.0135561
935.380	0.0134117
935.458	0.0134148
935.536	0.0134296
935.614	0.0135926
935.693	0.0135641
935.771	0.0134892
935.849	0.0134399
935.927	0.0135551
936.005	0.0135516
936.083	0.0136225
936.161	0.0135716
936.239	0.0134591
936.318	0.0134710
936.396	0.0133147
936.474	0.0135973
936.552	0.0135303
936.630	0.0133289
936.708	0.0133008
936.786	0.0134013
936.864	0.0134487
936.943	0.0134185
937.021	0.0132532
937.099	0.0133524
937.177	0.0133347
937.255	0.0133216
937.333	0.0133252
937.411	0.0132159
937.489	0.0133537
937.568	0.0134379
937.646	0.0133603
937.724	0.0133224
937.802	0.0133379
937.880	0.0135163
937.958	0.0132670
938.036	0.0134809
938.114	0.0135348
938.193	0.0135517
938.271	0.0135006
938.349	0.0134438
938.427	0.0133913
938.505	0.0136024
938.583	0.0135265
938.661	0.0135365
938.739	0.0135647
938.818	0.0136038
938.896	0.0132997
938.974	0.0133667
939.052	0.0134335
939.130	0.0134554
939.208	0.0132990
939.286	0.0133333
939.364	0.0134668
939.443	0.0133083
939.521	0.0132130
939.599	0.0134216
939.677	0.0133937
939.755	0.0133745
939.833	0.0133883
939.911	0.0135237
939.989	0.0134040
940.068	0.0133681
940.146	0.0135681
940.224	0.0135353
940.302	0.0135174
940.380	0.0135723
940.458	0.0134983
940.536	0.0135307
940.614	0.0135294
940.693	0.0136292
940.771	0.0135297
940.849	0.0135413
940.927	0.0135179
941.005	0.0134525
941.083	0.0134355
941.161	0.0135590
941.239	0.0135098
941.318	0.0133946
941.396	0.0133860
941.474	0.0131544
941.552	0.0132806
941.630	0.0131174
941.708	0.0132259
941.786	0.0133389
941.864	0.0132993
941.943	0.0131256
942.021	0.0133743
942.099	0.0132048
942.177	0.0133154
942.255	0.0133560
942.333	0.0135134
942.411	0.0135793
942.489	0.0134907
942.568	0.0134586
942.646	0.0135513
942.724	0.0135635
942.802	0.0136005
942.880	0.0135511
942.958	0.0134825
943.036	0.0136134
943.114	0.0136077
943.193	0.0134606
943.271	0.0135793
943.349	0.0135522
943.427	0.0135668
943.505	0.0135104
943.583	0.0133510
943.661	0.0135872
943.739	0.0134824
943.818	0.0133328
943.896	0.0134931
943.974	0.0135239
944.052	0.0134873
944.130	0.0134476
944.208	0.0134531
944.286	0.0135435
944.364	0.0135719
944.443	0.0134301
944.521	0.0136540
944.599	0.0136040
944.677	0.0133797
944.755	0.0134906
944.833	0.0134348
944.911	0.0133981
944.989	0.0135499
945.068	0.0135826
945.146	0.0134912
945.224	0.0134579
945.302	0.0134469
945.380	0.0136282
945.458	0.0132841
945.536	0.0134016
945.614	0.0134437
945.693	0.0134747
945.771	0.0134373
945.849	0.0135368
945.927	0.0135062
946.005	0.0134732
946.083	0.0134203
946.161	0.0134081
946.239	0.0134274
946.318	0.0134188
946.396	0.0134082
946.474	0.0134203
946.552	0.0133060
946.630	0.0133369
946.708	0.0133952
946.786	0.0134032
946.864	0.0134449
946.943	0.0134658
947.021	0.0133546
947.099	0.0134592
947.177	0.0133035
947.255	0.0133545
947.333	0.0134781
947.411	0.0133567
947.489	0.0133859
947.568	0.0135227
947.646	0.0135384
947.724	0.0134242
947.802	0.0134883
947.880	0.0136186
947.958	0.0134053
948.036	0.0135051
948.114	0.0136123
948.193	0.0135748
948.271	0.0134021
948.349	0.0134287
948.427	0.0136583
948.505	0.0133723
948.583	0.0134444
948.661	0.0136274
948.739	0.0134874
948.818	0.0135451
948.896	0.0136536
948.974	0.0134106
949.052	0.0135175
949.130	0.0135491
949.208	0.0136107
949.286	0.0135472
949.364	0.0137578
949.443	0.0135564
949.521	0.0134248
949.599	0.0135523
949.677	0.0135467
949.755	0.0134911
949.833	0.0134662
949.911	0.0134550
949.989	0.0135646
950.068	0.0133255
950.146	0.0132724
950.224	0.0134768
950.302	0.0135995
950.380	0.0133826
950.458	0.0133298
950.536	0.0133286
950.614	0.0135142
950.693	0.0134626
950.771	0.0135075
950.849	0.0135303
950.927	0.0134652
951.005	0.0133770
951.083	0.0134959
951.161	0.0134294
951.239	0.0134143
951.318	0.0135508
951.396	0.0134570
951.474	0.0135970
951.552	0.0135935
951.630	0.0135828
951.708	0.0136547
951.786	0.0134703
951.864	0.0135430
951.943	0.0135033
952.021	0.0135610
952.099	0.0134644
952.177	0.0134947
952.255	0.0134061
952.333	0.0134086
952.411	0.0134445
952.489	0.0135554
952.568	0.0136305
952.646	0.0134603
952.724	0.0134010
952.802	0.0134949
952.880	0.0134071
952.958	0.0134898
953.036	0.0135378
953.114	0.0134239
953.193	0.0135104
953.271	0.0134996
953.349	0.0135645
953.427	0.0134277
953.505	0.0134444
953.583	0.0134690
953.661	0.0134000
953.739	0.0136042
953.818	0.0135195
953.896	0.0135021
953.974	0.0135423
954.052	0.0135779
954.130	0.0134465
954.208	0.0133758
954.286	0.0134545
954.364	0.0135190
954.443	0.0134475
954.521	0.0134612
954.599	0.0133298
954.677	0.0133902
954.755	0.0134960
954.833	0.0133336
954.911	0.0134261
954.989	0.0133530
955.068	0.0134613
955.146	0.0133951
955.224	0.0134425
955.302	0.0135295
955.380	0.0134737
955.458	0.0133605
955.536	0.0135028
955.614	0.0134521
955.693	0.0133144
955.771	0.0134547
955.849	0.0135455
955.927	0.0135195
956.005	0.0135125
956.083	0.0134898
956.161	0.0134890
956.239	0.0134157
956.318	0.0133826
956.396	0.0135518
956.474	0.0134507
956.552	0.0134688
956.630	0.0134786
956.708	0.0134441
956.786	0.0134402
956.864	0.0134279
956.943	0.0133317
957.021	0.0134846
957.099	0.0134933
957.177	0.0135270
957.255	0.0135848
957.333	0.0134603
957.411	0.0133540
957.489	0.0134526
957.568	0.0136683
957.646	0.0134914
957.724	0.0134751
957.802	0.0134836
957.880	0.0134211
957.958	0.0135277
958.036	0.0134171
958.114	0.0135093
958.193	0.0135609
958.271	0.0135008
958.349	0.0133711
958.427	0.0134139
958.505	0.0135564
958.583	0.0134381
958.661	0.0134322
958.739	0.0134406
958.818	0.0136145
958.896	0.0134371
958.974	0.0134703
959.052	0.0134428
959.130	0.0134595
959.208	0.0135128
959.286	0.0135072
959.364	0.0133961
959.443	0.0136718
959.521	0.0135543
959.599	0.0133337
959.677	0.0134096
959.755	0.0134074
959.833	0.0134233
959.911	0.0133688
