05/14/2022	16:40:52	Ver.	4.1	UNKNOWN
Optical Delay	639.989416	Delta X		0.078125	Sweeps	1	Scan Rate	0/0
Coordinates	Axis 1	NaN	Axis 2	NaN	Axis 3	NaN	Axis 4	NaN	Axis 5	NaN	Axis 6	0.000000
TX Power	0.000000	RX Power	0.000000

639.989	0.0132995
640.068	0.0131948
640.146	0.0132748
640.224	0.0133103
640.302	0.0132561
640.380	0.0132804
640.458	0.0133218
640.536	0.0133109
640.614	0.0134333
640.693	0.0134095
640.771	0.0132556
640.849	0.0132653
640.927	0.0132735
641.005	0.0132903
641.083	0.0132431
641.161	0.0133917
641.239	0.0134000
641.318	0.0132641
641.396	0.0133596
641.474	0.0133826
641.552	0.0133994
641.630	0.0132867
641.708	0.0133455
641.786	0.0132098
641.864	0.0132906
641.943	0.0133043
642.021	0.0132159
642.099	0.0132922
642.177	0.0132054
642.255	0.0132490
642.333	0.0132066
642.411	0.0133250
642.489	0.0133562
642.568	0.0131300
642.646	0.0132108
642.724	0.0131960
642.802	0.0133195
642.880	0.0131190
642.958	0.0132873
643.036	0.0132454
643.114	0.0132227
643.193	0.0131898
643.271	0.0132315
643.349	0.0131583
643.427	0.0134925
643.505	0.0133504
643.583	0.0131361
643.661	0.0131245
643.739	0.0132938
643.818	0.0131815
643.896	0.0133024
643.974	0.0132840
644.052	0.0131790
644.130	0.0133076
644.208	0.0132059
644.286	0.0131116
644.364	0.0130567
644.443	0.0132696
644.521	0.0132130
644.599	0.0132761
644.677	0.0132319
644.755	0.0132415
644.833	0.0132599
644.911	0.0133205
644.989	0.0131849
645.068	0.0132101
645.146	0.0130894
645.224	0.0132311
645.302	0.0132812
645.380	0.0133640
645.458	0.0132381
645.536	0.0132688
645.614	0.0131763
645.693	0.0132491
645.771	0.0132352
645.849	0.0132201
645.927	0.0132379
646.005	0.0132739
646.083	0.0132591
646.161	0.0132564
646.239	0.0131615
646.318	0.0132001
646.396	0.0131542
646.474	0.0131019
646.552	0.0131682
646.630	0.0131100
646.708	0.0132569
646.786	0.0132593
646.864	0.0132671
646.943	0.0132925
647.021	0.0131867
647.099	0.0132703
647.177	0.0133291
647.255	0.0132895
647.333	0.0131681
647.411	0.0134133
647.489	0.0133801
647.568	0.0134193
647.646	0.0133640
647.724	0.0132265
647.802	0.0131931
647.880	0.0133445
647.958	0.0131812
648.036	0.0132933
648.114	0.0132278
648.193	0.0131633
648.271	0.0131840
648.349	0.0131406
648.427	0.0131976
648.505	0.0132058
648.583	0.0133414
648.661	0.0132127
648.739	0.0132227
648.818	0.0133455
648.896	0.0131995
648.974	0.0132408
649.052	0.0132331
649.130	0.0132743
649.208	0.0133026
649.286	0.0132589
649.364	0.0132079
649.443	0.0132527
649.521	0.0132500
649.599	0.0132241
649.677	0.0130627
649.755	0.0131719
649.833	0.0131632
649.911	0.0132478
649.989	0.0132242
650.068	0.0132559
650.146	0.0131342
650.224	0.0130373
650.302	0.0133046
650.380	0.0131850
650.458	0.0132408
650.536	0.0132344
650.614	0.0131278
650.693	0.0132008
650.771	0.0134142
650.849	0.0132179
650.927	0.0130643
651.005	0.0132322
651.083	0.0132021
651.161	0.0131290
651.239	0.0131752
651.318	0.0131159
651.396	0.0131914
651.474	0.0131866
651.552	0.0132408
651.630	0.0130853
651.708	0.0131941
651.786	0.0132552
651.864	0.0131501
651.943	0.0132668
652.021	0.0132430
652.099	0.0133108
652.177	0.0130991
652.255	0.0132770
652.333	0.0132120
652.411	0.0131209
652.489	0.0132083
652.568	0.0131478
652.646	0.0131643
652.724	0.0131814
652.802	0.0132104
652.880	0.0131850
652.958	0.0131261
653.036	0.0132046
653.114	0.0132107
653.193	0.0132676
653.271	0.0131802
653.349	0.0132609
653.427	0.0134430
653.505	0.0131773
653.583	0.0132423
653.661	0.0133515
653.739	0.0132191
653.818	0.0132949
653.896	0.0132676
653.974	0.0131799
654.052	0.0131345
654.130	0.0133257
654.208	0.0132862
654.286	0.0132920
654.364	0.0133300
654.443	0.0131982
654.521	0.0132323
654.599	0.0132419
654.677	0.0132408
654.755	0.0133251
654.833	0.0134676
654.911	0.0132830
654.989	0.0133121
655.068	0.0134013
655.146	0.0133749
655.224	0.0134062
655.302	0.0133372
655.380	0.0132955
655.458	0.0133166
655.536	0.0132825
655.614	0.0132945
655.693	0.0133060
655.771	0.0133412
655.849	0.0133861
655.927	0.0133310
656.005	0.0133493
656.083	0.0132620
656.161	0.0133514
656.239	0.0134254
656.318	0.0134357
656.396	0.0132972
656.474	0.0132905
656.552	0.0133553
656.630	0.0133443
656.708	0.0134262
656.786	0.0133228
656.864	0.0133548
656.943	0.0134851
657.021	0.0134052
657.099	0.0134100
657.177	0.0133739
657.255	0.0133952
657.333	0.0132552
657.411	0.0133147
657.489	0.0132944
657.568	0.0133713
657.646	0.0132430
657.724	0.0131920
657.802	0.0132597
657.880	0.0133489
657.958	0.0133047
658.036	0.0132829
658.114	0.0132789
658.193	0.0131781
658.271	0.0132784
658.349	0.0132885
658.427	0.0133188
658.505	0.0133268
658.583	0.0132722
658.661	0.0132809
658.739	0.0134087
658.818	0.0133582
658.896	0.0133557
658.974	0.0133801
659.052	0.0134043
659.130	0.0133441
659.208	0.0133744
659.286	0.0132229
659.364	0.0132478
659.443	0.0133183
659.521	0.0132236
659.599	0.0133896
659.677	0.0132627
659.755	0.0134350
659.833	0.0133087
659.911	0.0132700
659.989	0.0132150
660.068	0.0132287
660.146	0.0133881
660.224	0.0132443
660.302	0.0132575
660.380	0.0132726
660.458	0.0133430
660.536	0.0133456
660.614	0.0134000
660.693	0.0134412
660.771	0.0135242
660.849	0.0133827
660.927	0.0132530
661.005	0.0134746
661.083	0.0133720
661.161	0.0133990
661.239	0.0133961
661.318	0.0134751
661.396	0.0133302
661.474	0.0133434
661.552	0.0135052
661.630	0.0134655
661.708	0.0134914
661.786	0.0134141
661.864	0.0133891
661.943	0.0134254
662.021	0.0134879
662.099	0.0133927
662.177	0.0134882
662.255	0.0133928
662.333	0.0133288
662.411	0.0134279
662.489	0.0133195
662.568	0.0134428
662.646	0.0134478
662.724	0.0132637
662.802	0.0132919
662.880	0.0132857
662.958	0.0133159
663.036	0.0132887
663.114	0.0133767
663.193	0.0132295
663.271	0.0134093
663.349	0.0133282
663.427	0.0133291
663.505	0.0133479
663.583	0.0133764
663.661	0.0133434
663.739	0.0131924
663.818	0.0132631
663.896	0.0132011
663.974	0.0132019
664.052	0.0132715
664.130	0.0131682
664.208	0.0132442
664.286	0.0131540
664.364	0.0132259
664.443	0.0131724
664.521	0.0133141
664.599	0.0131306
664.677	0.0131929
664.755	0.0132652
664.833	0.0130991
664.911	0.0131842
664.989	0.0131493
665.068	0.0131803
665.146	0.0133334
665.224	0.0132204
665.302	0.0132337
665.380	0.0132220
665.458	0.0133430
665.536	0.0132912
665.614	0.0132326
665.693	0.0132874
665.771	0.0132587
665.849	0.0132430
665.927	0.0133277
666.005	0.0133453
666.083	0.0132168
666.161	0.0133645
666.239	0.0133113
666.318	0.0135273
666.396	0.0133745
666.474	0.0133260
666.552	0.0134193
666.630	0.0133223
666.708	0.0133439
666.786	0.0134611
666.864	0.0132779
666.943	0.0132777
667.021	0.0133498
667.099	0.0133780
667.177	0.0133630
667.255	0.0134129
667.333	0.0132253
667.411	0.0133847
667.489	0.0133591
667.568	0.0133398
667.646	0.0131428
667.724	0.0131293
667.802	0.0133360
667.880	0.0132932
667.958	0.0133951
668.036	0.0131898
668.114	0.0132718
668.193	0.0135020
668.271	0.0133693
668.349	0.0133247
668.427	0.0132722
668.505	0.0133533
668.583	0.0133617
668.661	0.0134490
668.739	0.0132347
668.818	0.0132848
668.896	0.0132715
668.974	0.0133366
669.052	0.0133611
669.130	0.0132301
669.208	0.0131321
669.286	0.0132011
669.364	0.0132642
669.443	0.0130721
669.521	0.0132728
669.599	0.0131724
669.677	0.0130959
669.755	0.0130890
669.833	0.0132047
669.911	0.0131952
669.989	0.0132475
670.068	0.0132819
670.146	0.0132415
670.224	0.0132462
670.302	0.0133009
670.380	0.0132604
670.458	0.0133456
670.536	0.0133745
670.614	0.0133136
670.693	0.0132511
670.771	0.0133994
670.849	0.0134004
670.927	0.0134538
671.005	0.0134879
671.083	0.0133802
671.161	0.0136040
671.239	0.0135599
671.318	0.0134596
671.396	0.0133215
671.474	0.0133772
671.552	0.0132903
671.630	0.0133100
671.708	0.0133519
671.786	0.0132992
671.864	0.0133942
671.943	0.0134884
672.021	0.0132675
672.099	0.0133266
672.177	0.0134505
672.255	0.0134427
672.333	0.0133786
672.411	0.0133935
672.489	0.0135326
672.568	0.0134942
672.646	0.0132493
672.724	0.0132413
672.802	0.0133556
672.880	0.0135526
672.958	0.0132937
673.036	0.0132588
673.114	0.0131695
673.193	0.0131362
673.271	0.0130966
673.349	0.0128403
673.427	0.0129767
673.505	0.0129310
673.583	0.0128268
673.661	0.0130176
673.739	0.0129024
673.818	0.0129872
673.896	0.0130387
673.974	0.0132254
674.052	0.0131406
674.130	0.0130671
674.208	0.0132940
674.286	0.0133451
674.364	0.0136508
674.443	0.0136654
674.521	0.0136808
674.599	0.0139632
674.677	0.0138784
674.755	0.0140272
674.833	0.0142254
674.911	0.0141073
674.989	0.0142703
675.068	0.0141734
675.146	0.0141180
675.224	0.0142243
675.302	0.0141536
675.380	0.0140531
675.458	0.0138543
675.536	0.0137862
675.614	0.0135609
675.693	0.0133987
675.771	0.0134288
675.849	0.0132019
675.927	0.0129662
676.005	0.0127582
676.083	0.0124475
676.161	0.0125330
676.239	0.0122066
676.318	0.0121117
676.396	0.0121326
676.474	0.0119730
676.552	0.0120734
676.630	0.0119764
676.708	0.0118134
676.786	0.0119001
676.864	0.0118955
676.943	0.0120715
677.021	0.0121248
677.099	0.0124662
677.177	0.0125875
677.255	0.0128899
677.333	0.0129475
677.411	0.0133150
677.489	0.0136000
677.568	0.0138034
677.646	0.0141030
677.724	0.0143329
677.802	0.0145570
677.880	0.0148884
677.958	0.0149921
678.036	0.0150262
678.114	0.0150961
678.193	0.0152682
678.271	0.0152738
678.349	0.0153836
678.427	0.0152513
678.505	0.0152158
678.583	0.0150110
678.661	0.0150639
678.739	0.0146519
678.818	0.0143535
678.896	0.0141063
678.974	0.0138428
679.052	0.0136213
679.130	0.0133625
679.208	0.0129173
679.286	0.0126492
679.364	0.0123328
679.443	0.0119580
679.521	0.0115699
679.599	0.0113973
679.677	0.0113551
679.755	0.0110281
679.833	0.0107142
679.911	0.0105882
679.989	0.0105285
680.068	0.0107350
680.146	0.0104967
680.224	0.0105640
680.302	0.0107637
680.380	0.0109613
680.458	0.0110988
680.536	0.0114333
680.614	0.0117075
680.693	0.0118737
680.771	0.0122829
680.849	0.0125384
680.927	0.0128510
681.005	0.0133140
681.083	0.0138956
681.161	0.0142344
681.239	0.0146117
681.318	0.0150280
681.396	0.0154781
681.474	0.0158524
681.552	0.0162197
681.630	0.0166286
681.708	0.0168764
681.786	0.0170638
681.864	0.0171011
681.943	0.0173358
682.021	0.0172089
682.099	0.0173403
682.177	0.0171830
682.255	0.0168182
682.333	0.0164913
682.411	0.0162127
682.489	0.0155633
682.568	0.0152335
682.646	0.0148019
682.724	0.0141463
682.802	0.0135597
682.880	0.0130445
682.958	0.0125397
683.036	0.0119857
683.114	0.0114999
683.193	0.0109956
683.271	0.0105901
683.349	0.0102463
683.427	0.00978943
683.505	0.00954903
683.583	0.00946472
683.661	0.00926567
683.739	0.00903954
683.818	0.00903313
683.896	0.00922050
683.974	0.00929108
684.052	0.00945595
684.130	0.00979034
684.208	0.0101939
684.286	0.0105792
684.364	0.0108382
684.443	0.0112538
684.521	0.0118858
684.599	0.0122905
684.677	0.0127505
684.755	0.0132763
684.833	0.0137748
684.911	0.0141428
684.989	0.0148264
685.068	0.0152360
685.146	0.0156440
685.224	0.0161839
685.302	0.0165917
685.380	0.0169244
685.458	0.0172412
685.536	0.0175024
685.614	0.0176340
685.693	0.0177233
685.771	0.0177513
685.849	0.0177755
685.927	0.0177544
686.005	0.0175736
686.083	0.0171577
686.161	0.0168886
686.239	0.0165576
686.318	0.0162598
686.396	0.0157672
686.474	0.0152226
686.552	0.0148440
686.630	0.0141891
686.708	0.0137677
686.786	0.0132759
686.864	0.0124189
686.943	0.0120284
687.021	0.0115576
687.099	0.0109654
687.177	0.0106110
687.255	0.0102492
687.333	0.00989426
687.411	0.00947792
687.489	0.00930374
687.568	0.00908730
687.646	0.00903465
687.724	0.00887245
687.802	0.00892982
687.880	0.00904663
687.958	0.00920891
688.036	0.00929192
688.114	0.00966431
688.193	0.00990341
688.271	0.0104453
688.349	0.0107690
688.427	0.0111093
688.505	0.0116579
688.583	0.0121574
688.661	0.0127068
688.739	0.0132746
688.818	0.0136919
688.896	0.0142992
688.974	0.0148801
689.052	0.0153374
689.130	0.0156773
689.208	0.0160338
689.286	0.0162402
689.364	0.0167175
689.443	0.0167696
689.521	0.0168578
689.599	0.0169427
689.677	0.0169736
689.755	0.0167970
689.833	0.0166730
689.911	0.0166611
689.989	0.0164720
690.068	0.0160950
690.146	0.0158057
690.224	0.0156387
690.302	0.0152873
690.380	0.0146760
690.458	0.0144530
690.536	0.0142073
690.614	0.0137942
690.693	0.0133640
690.771	0.0131210
690.849	0.0127715
690.927	0.0125199
691.005	0.0120802
691.083	0.0118769
691.161	0.0117669
691.239	0.0114709
691.318	0.0113554
691.396	0.0111727
691.474	0.0112621
691.552	0.0111238
691.630	0.0110799
691.708	0.0111169
691.786	0.0112976
691.864	0.0112782
691.943	0.0114922
692.021	0.0116707
692.099	0.0118552
692.177	0.0121519
692.255	0.0123238
692.333	0.0125632
692.411	0.0129229
692.489	0.0131794
692.568	0.0133358
692.646	0.0134335
692.724	0.0135659
692.802	0.0137643
692.880	0.0139549
692.958	0.0139565
693.036	0.0139141
693.114	0.0141160
693.193	0.0138614
693.271	0.0138658
693.349	0.0139576
693.427	0.0139635
693.505	0.0138222
693.583	0.0137260
693.661	0.0136632
693.739	0.0136613
693.818	0.0135432
693.896	0.0134454
693.974	0.0133935
694.052	0.0133508
694.130	0.0132954
694.208	0.0131170
694.286	0.0130103
694.364	0.0128496
694.443	0.0127631
694.521	0.0129191
694.599	0.0128822
694.677	0.0129035
694.755	0.0127572
694.833	0.0128523
694.911	0.0129754
694.989	0.0129519
695.068	0.0130548
695.146	0.0131820
695.224	0.0132845
695.302	0.0132726
695.380	0.0133936
695.458	0.0135658
695.536	0.0136594
695.614	0.0136041
695.693	0.0136865
695.771	0.0139231
695.849	0.0138511
695.927	0.0138397
696.005	0.0139616
696.083	0.0139729
696.161	0.0139954
696.239	0.0140776
696.318	0.0141212
696.396	0.0140931
696.474	0.0140992
696.552	0.0141943
696.630	0.0141270
696.708	0.0142233
696.786	0.0142284
696.864	0.0141102
696.943	0.0141214
697.021	0.0141180
697.099	0.0139376
697.177	0.0138544
697.255	0.0137471
697.333	0.0137423
697.411	0.0135094
697.489	0.0131083
697.568	0.0131746
697.646	0.0129262
697.724	0.0125488
697.802	0.0125072
697.880	0.0122782
697.958	0.0120151
698.036	0.0118749
698.114	0.0117020
698.193	0.0118478
698.271	0.0115584
698.349	0.0115062
698.427	0.0115344
698.505	0.0116177
698.583	0.0115697
698.661	0.0115693
698.739	0.0115854
698.818	0.0117258
698.896	0.0117657
698.974	0.0118357
699.052	0.0121021
699.130	0.0121915
699.208	0.0123357
699.286	0.0125317
699.364	0.0126926
699.443	0.0127193
699.521	0.0129386
699.599	0.0130021
699.677	0.0131456
699.755	0.0131710
699.833	0.0132893
699.911	0.0133930
699.989	0.0134321
700.068	0.0133981
700.146	0.0135680
700.224	0.0135614
700.302	0.0135532
700.380	0.0138352
700.458	0.0139571
700.536	0.0140052
700.614	0.0141331
700.693	0.0141624
700.771	0.0145248
700.849	0.0147483
700.927	0.0148493
701.005	0.0150729
701.083	0.0151613
701.161	0.0153251
701.239	0.0154380
701.318	0.0154997
701.396	0.0156711
701.474	0.0155264
701.552	0.0156581
701.630	0.0155125
701.708	0.0154874
701.786	0.0154514
701.864	0.0154095
701.943	0.0152244
702.021	0.0149081
702.099	0.0147000
702.177	0.0144469
702.255	0.0142889
702.333	0.0137447
702.411	0.0132779
702.489	0.0130331
702.568	0.0127562
702.646	0.0122916
702.724	0.0118591
702.802	0.0115328
702.880	0.0111149
702.958	0.0109206
703.036	0.0103728
703.114	0.0101920
703.193	0.00981255
703.271	0.00976120
703.349	0.00959457
703.427	0.00938255
703.505	0.00941162
703.583	0.00949280
703.661	0.00949570
703.739	0.00963943
703.818	0.0100504
703.896	0.0101917
703.974	0.0105163
704.052	0.0107598
704.130	0.0113023
704.208	0.0116716
704.286	0.0120571
704.364	0.0126785
704.443	0.0133112
704.521	0.0135674
704.599	0.0141509
704.677	0.0143922
704.755	0.0148064
704.833	0.0153074
704.911	0.0155943
704.989	0.0160151
705.068	0.0161637
705.146	0.0164575
705.224	0.0166821
705.302	0.0168416
705.380	0.0168160
705.458	0.0168298
705.536	0.0168677
705.614	0.0167921
705.693	0.0168003
705.771	0.0166646
705.849	0.0163416
705.927	0.0160503
706.005	0.0158920
706.083	0.0155466
706.161	0.0152142
706.239	0.0149405
706.318	0.0145272
706.396	0.0142386
706.474	0.0138233
706.552	0.0132861
706.630	0.0129544
706.708	0.0127825
706.786	0.0121742
706.864	0.0118870
706.943	0.0116534
707.021	0.0114153
707.099	0.0110761
707.177	0.0109180
707.255	0.0107921
707.333	0.0105759
707.411	0.0106384
707.489	0.0105783
707.568	0.0105787
707.646	0.0105192
707.724	0.0107348
707.802	0.0107354
707.880	0.0109147
707.958	0.0111806
708.036	0.0112595
708.114	0.0114151
708.193	0.0116986
708.271	0.0119252
708.349	0.0119844
708.427	0.0123690
708.505	0.0127167
708.583	0.0130394
708.661	0.0132683
708.739	0.0134367
708.818	0.0136404
708.896	0.0139577
708.974	0.0141844
709.052	0.0142674
709.130	0.0143354
709.208	0.0144519
709.286	0.0145812
709.364	0.0145795
709.443	0.0146676
709.521	0.0145904
709.599	0.0145184
709.677	0.0146585
709.755	0.0146008
709.833	0.0146124
709.911	0.0144333
709.989	0.0143166
710.068	0.0143944
710.146	0.0143617
710.224	0.0143561
710.302	0.0142251
710.380	0.0142339
710.458	0.0142041
710.536	0.0141338
710.614	0.0141091
710.693	0.0139556
710.771	0.0136880
710.849	0.0138119
710.927	0.0135191
711.005	0.0135073
711.083	0.0134261
711.161	0.0133481
711.239	0.0129272
711.318	0.0130909
711.396	0.0128983
711.474	0.0129436
711.552	0.0127689
711.630	0.0126845
711.708	0.0126514
711.786	0.0128116
711.864	0.0127444
711.943	0.0127392
712.021	0.0128188
712.099	0.0127166
712.177	0.0128110
712.255	0.0128342
712.333	0.0129861
712.411	0.0128722
712.489	0.0127814
712.568	0.0128654
712.646	0.0129144
712.724	0.0129793
712.802	0.0128001
712.880	0.0129470
712.958	0.0128259
713.036	0.0127561
713.114	0.0127084
713.193	0.0127766
713.271	0.0127391
713.349	0.0127069
713.427	0.0129302
713.505	0.0127758
713.583	0.0128786
713.661	0.0129195
713.739	0.0130390
713.818	0.0132891
713.896	0.0132658
713.974	0.0134531
714.052	0.0136386
714.130	0.0135930
714.208	0.0137637
714.286	0.0138615
714.364	0.0140482
714.443	0.0139913
714.521	0.0140762
714.599	0.0139948
714.677	0.0142365
714.755	0.0142089
714.833	0.0141125
714.911	0.0141088
714.989	0.0140138
715.068	0.0139957
715.146	0.0138038
715.224	0.0137583
715.302	0.0136880
715.380	0.0134824
715.458	0.0132806
715.536	0.0132940
715.614	0.0131632
715.693	0.0132837
715.771	0.0130669
715.849	0.0130678
715.927	0.0130489
716.005	0.0132302
716.083	0.0132903
716.161	0.0131804
716.239	0.0132046
716.318	0.0133770
716.396	0.0134145
716.474	0.0134357
716.552	0.0133596
716.630	0.0134131
716.708	0.0134259
716.786	0.0132626
716.864	0.0133424
716.943	0.0130668
717.021	0.0131094
717.099	0.0129142
717.177	0.0127962
717.255	0.0127236
717.333	0.0125290
717.411	0.0124873
717.489	0.0125284
717.568	0.0125607
717.646	0.0124968
717.724	0.0123982
717.802	0.0124567
717.880	0.0124997
717.958	0.0127065
718.036	0.0126593
718.114	0.0125711
718.193	0.0126815
718.271	0.0127930
718.349	0.0129219
718.427	0.0130698
718.505	0.0131177
718.583	0.0131528
718.661	0.0132236
718.739	0.0133556
718.818	0.0134598
718.896	0.0135339
718.974	0.0135054
719.052	0.0136243
719.130	0.0136200
719.208	0.0139528
719.286	0.0136156
719.364	0.0137538
719.443	0.0139431
719.521	0.0138472
719.599	0.0139077
719.677	0.0139220
719.755	0.0139827
719.833	0.0140292
719.911	0.0140782
719.989	0.0139065
720.068	0.0137690
720.146	0.0139478
720.224	0.0136641
720.302	0.0135194
720.380	0.0134357
720.458	0.0133138
720.536	0.0132130
720.614	0.0129418
720.693	0.0130077
720.771	0.0129053
720.849	0.0129032
720.927	0.0128539
721.005	0.0128967
721.083	0.0129899
721.161	0.0129735
721.239	0.0129310
721.318	0.0130212
721.396	0.0129799
721.474	0.0130144
721.552	0.0128922
721.630	0.0131741
721.708	0.0130631
721.786	0.0129076
721.864	0.0129961
721.943	0.0129864
722.021	0.0129287
722.099	0.0128024
722.177	0.0127209
722.255	0.0127977
722.333	0.0129671
722.411	0.0129691
722.489	0.0129031
722.568	0.0129177
722.646	0.0129027
722.724	0.0129041
722.802	0.0128428
722.880	0.0127325
722.958	0.0126952
723.036	0.0125771
723.114	0.0125215
723.193	0.0124622
723.271	0.0125040
723.349	0.0125734
723.427	0.0123428
723.505	0.0124659
723.583	0.0125553
723.661	0.0124200
723.739	0.0127287
723.818	0.0127747
723.896	0.0127905
723.974	0.0128693
724.052	0.0129316
724.130	0.0130203
724.208	0.0131129
724.286	0.0132567
724.364	0.0132325
724.443	0.0132243
724.521	0.0134783
724.599	0.0135429
724.677	0.0135570
724.755	0.0137216
724.833	0.0137772
724.911	0.0138482
724.989	0.0137973
725.068	0.0139745
725.146	0.0141058
725.224	0.0141133
725.302	0.0140964
725.380	0.0141382
725.458	0.0140934
725.536	0.0142603
725.614	0.0140693
725.693	0.0138186
725.771	0.0138774
725.849	0.0136242
725.927	0.0136579
726.005	0.0134958
726.083	0.0134174
726.161	0.0133772
726.239	0.0134615
726.318	0.0131685
726.396	0.0128837
726.474	0.0129165
726.552	0.0127971
726.630	0.0127798
726.708	0.0127536
726.786	0.0128804
726.864	0.0127777
726.943	0.0128867
727.021	0.0130101
727.099	0.0130743
727.177	0.0132049
727.255	0.0131087
727.333	0.0132840
727.411	0.0133398
727.489	0.0134582
727.568	0.0135238
727.646	0.0133878
727.724	0.0135289
727.802	0.0136562
727.880	0.0134589
727.958	0.0133762
728.036	0.0132177
728.114	0.0131556
728.193	0.0131193
728.271	0.0128234
728.349	0.0126263
728.427	0.0126167
728.505	0.0124614
728.583	0.0125536
728.661	0.0123437
728.739	0.0121539
728.818	0.0122608
728.896	0.0123816
728.974	0.0123507
729.052	0.0123154
729.130	0.0124005
729.208	0.0123860
729.286	0.0126158
729.364	0.0127294
729.443	0.0128127
729.521	0.0129592
729.599	0.0130419
729.677	0.0131750
729.755	0.0133177
729.833	0.0134032
729.911	0.0134873
729.989	0.0136187
730.068	0.0136771
730.146	0.0137464
730.224	0.0139265
730.302	0.0139175
730.380	0.0139395
730.458	0.0140323
730.536	0.0141238
730.614	0.0141734
730.693	0.0141335
730.771	0.0140833
730.849	0.0141081
730.927	0.0140368
731.005	0.0140837
731.083	0.0140630
731.161	0.0141235
731.239	0.0139626
731.318	0.0138593
731.396	0.0137896
731.474	0.0135687
731.552	0.0135203
731.630	0.0134769
731.708	0.0133981
731.786	0.0132496
731.864	0.0132939
731.943	0.0133200
732.021	0.0132003
732.099	0.0132793
732.177	0.0134202
732.255	0.0133504
732.333	0.0132766
732.411	0.0133272
732.489	0.0133309
732.568	0.0133079
732.646	0.0132645
732.724	0.0133288
732.802	0.0131602
732.880	0.0131007
732.958	0.0132355
733.036	0.0132461
733.114	0.0129580
733.193	0.0129402
733.271	0.0129875
733.349	0.0129458
733.427	0.0129917
733.505	0.0128977
733.583	0.0131426
733.661	0.0129771
733.739	0.0129382
733.818	0.0130351
733.896	0.0131079
733.974	0.0131469
734.052	0.0131342
734.130	0.0130966
734.208	0.0130809
734.286	0.0130217
734.364	0.0131488
734.443	0.0131024
734.521	0.0130759
734.599	0.0131539
734.677	0.0131287
734.755	0.0131344
734.833	0.0132589
734.911	0.0131685
734.989	0.0133862
735.068	0.0134595
735.146	0.0133948
735.224	0.0135074
735.302	0.0135336
735.380	0.0137856
735.458	0.0136507
735.536	0.0136744
735.614	0.0137804
735.693	0.0136803
735.771	0.0136578
735.849	0.0137945
735.927	0.0135705
736.005	0.0135580
736.083	0.0135835
736.161	0.0135194
736.239	0.0134935
736.318	0.0135540
736.396	0.0135439
736.474	0.0134931
736.552	0.0135957
736.630	0.0135623
736.708	0.0134891
736.786	0.0135133
736.864	0.0133600
736.943	0.0134818
737.021	0.0134425
737.099	0.0134312
737.177	0.0134032
737.255	0.0135069
737.333	0.0134277
737.411	0.0134147
737.489	0.0133488
737.568	0.0133757
737.646	0.0134710
737.724	0.0133550
737.802	0.0133489
737.880	0.0134409
737.958	0.0134473
738.036	0.0131868
738.114	0.0132658
738.193	0.0132156
738.271	0.0133004
738.349	0.0133560
738.427	0.0130404
738.505	0.0132675
738.583	0.0132433
738.661	0.0131319
738.739	0.0130948
738.818	0.0131173
738.896	0.0131659
738.974	0.0130981
739.052	0.0130898
739.130	0.0131744
739.208	0.0131622
739.286	0.0133366
739.364	0.0134265
739.443	0.0134774
739.521	0.0134473
739.599	0.0135016
739.677	0.0135143
739.755	0.0134911
739.833	0.0136787
739.911	0.0136658
739.989	0.0136812
740.068	0.0137434
740.146	0.0136098
740.224	0.0136698
740.302	0.0136447
740.380	0.0136042
740.458	0.0135226
740.536	0.0134230
740.614	0.0134711
740.693	0.0133246
740.771	0.0132682
740.849	0.0131869
740.927	0.0130540
741.005	0.0127652
741.083	0.0127771
741.161	0.0128558
741.239	0.0126613
741.318	0.0127070
741.396	0.0128869
741.474	0.0125958
741.552	0.0126563
741.630	0.0127168
741.708	0.0128438
741.786	0.0128030
741.864	0.0128077
741.943	0.0128772
742.021	0.0128928
742.099	0.0128845
742.177	0.0127676
742.255	0.0126900
742.333	0.0128846
742.411	0.0129479
742.489	0.0129452
742.568	0.0128028
742.646	0.0128317
742.724	0.0127717
742.802	0.0130172
742.880	0.0130028
742.958	0.0128504
743.036	0.0129813
743.114	0.0131177
743.193	0.0130474
743.271	0.0129653
743.349	0.0131013
743.427	0.0131947
743.505	0.0131749
743.583	0.0132259
743.661	0.0133970
743.739	0.0134087
743.818	0.0134673
743.896	0.0134558
743.974	0.0137105
744.052	0.0137707
744.130	0.0137444
744.208	0.0138287
744.286	0.0139085
744.364	0.0140231
744.443	0.0140518
744.521	0.0140630
744.599	0.0139597
744.677	0.0141470
744.755	0.0140565
744.833	0.0140465
744.911	0.0140444
744.989	0.0139108
745.068	0.0138509
745.146	0.0137048
745.224	0.0139392
745.302	0.0137994
745.380	0.0139347
745.458	0.0138659
745.536	0.0137886
745.614	0.0137097
745.693	0.0136636
745.771	0.0135077
745.849	0.0134811
745.927	0.0132221
746.005	0.0133000
746.083	0.0133280
746.161	0.0131252
746.239	0.0129359
746.318	0.0128928
746.396	0.0128104
746.474	0.0127229
746.552	0.0127811
746.630	0.0128350
746.708	0.0126246
746.786	0.0125621
746.864	0.0126524
746.943	0.0126414
747.021	0.0125252
747.099	0.0125197
747.177	0.0125549
747.255	0.0125751
747.333	0.0125509
747.411	0.0127147
747.489	0.0126102
747.568	0.0127354
747.646	0.0127260
747.724	0.0128801
747.802	0.0129652
747.880	0.0128716
747.958	0.0129589
748.036	0.0130503
748.114	0.0132512
748.193	0.0131945
748.271	0.0133978
748.349	0.0131458
748.427	0.0131416
748.505	0.0133426
748.583	0.0134441
748.661	0.0132920
748.739	0.0132559
748.818	0.0132885
748.896	0.0133929
748.974	0.0133932
749.052	0.0133134
749.130	0.0133910
749.208	0.0134177
749.286	0.0133199
749.364	0.0135725
749.443	0.0135718
749.521	0.0133961
749.599	0.0134538
749.677	0.0134696
749.755	0.0136480
749.833	0.0137523
749.911	0.0137297
749.989	0.0136407
750.068	0.0136219
750.146	0.0137148
750.224	0.0137625
750.302	0.0135683
750.380	0.0136472
750.458	0.0136202
750.536	0.0136873
750.614	0.0136430
750.693	0.0135327
750.771	0.0136598
750.849	0.0135651
750.927	0.0134919
751.005	0.0135936
751.083	0.0134894
751.161	0.0136401
751.239	0.0134699
751.318	0.0134478
751.396	0.0133767
751.474	0.0134249
751.552	0.0135282
751.630	0.0132652
751.708	0.0132996
751.786	0.0132743
751.864	0.0132007
751.943	0.0130174
752.021	0.0130478
752.099	0.0130254
752.177	0.0129466
752.255	0.0129564
752.333	0.0128528
752.411	0.0126876
752.489	0.0127596
752.568	0.0128295
752.646	0.0129136
752.724	0.0129524
752.802	0.0129818
752.880	0.0128761
752.958	0.0129406
753.036	0.0129875
753.114	0.0130328
753.193	0.0131239
753.271	0.0130260
753.349	0.0131259
753.427	0.0132090
753.505	0.0131619
753.583	0.0131043
753.661	0.0131899
753.739	0.0131197
753.818	0.0132369
753.896	0.0133364
753.974	0.0133691
754.052	0.0134346
754.130	0.0134640
754.208	0.0135074
754.286	0.0135133
754.364	0.0135766
754.443	0.0135386
754.521	0.0136294
754.599	0.0136956
754.677	0.0138341
754.755	0.0138229
754.833	0.0138211
754.911	0.0139129
754.989	0.0139260
755.068	0.0138149
755.146	0.0135988
755.224	0.0135069
755.302	0.0135103
755.380	0.0134813
755.458	0.0135088
755.536	0.0131982
755.614	0.0130291
755.693	0.0130387
755.771	0.0129748
755.849	0.0129427
755.927	0.0129706
756.005	0.0128635
756.083	0.0130878
756.161	0.0132191
756.239	0.0131346
756.318	0.0131760
756.396	0.0133810
756.474	0.0133366
756.552	0.0135096
756.630	0.0136002
756.708	0.0136278
756.786	0.0136462
756.864	0.0137837
756.943	0.0138594
757.021	0.0137209
757.099	0.0138628
757.177	0.0138165
757.255	0.0137804
757.333	0.0137875
757.411	0.0138221
757.489	0.0137018
757.568	0.0137891
757.646	0.0137131
757.724	0.0138161
757.802	0.0138366
757.880	0.0136955
757.958	0.0135630
758.036	0.0136694
758.114	0.0137663
758.193	0.0135862
758.271	0.0134260
758.349	0.0134245
758.427	0.0133680
758.505	0.0133127
758.583	0.0134289
758.661	0.0132697
758.739	0.0130705
758.818	0.0131280
758.896	0.0131337
758.974	0.0131215
759.052	0.0131480
759.130	0.0129573
759.208	0.0130455
759.286	0.0130983
759.364	0.0130320
759.443	0.0129587
759.521	0.0128732
759.599	0.0130187
759.677	0.0129762
759.755	0.0128419
759.833	0.0127094
759.911	0.0127618
759.989	0.0128210
760.068	0.0127655
760.146	0.0125764
760.224	0.0127324
760.302	0.0128642
760.380	0.0127245
760.458	0.0128556
760.536	0.0129993
760.614	0.0131737
760.693	0.0133045
760.771	0.0131847
760.849	0.0135395
760.927	0.0134705
761.005	0.0135768
761.083	0.0135793
761.161	0.0136644
761.239	0.0135470
761.318	0.0136309
761.396	0.0138015
761.474	0.0137821
761.552	0.0137782
761.630	0.0136857
761.708	0.0137716
761.786	0.0137228
761.864	0.0136119
761.943	0.0135815
762.021	0.0136760
762.099	0.0137154
762.177	0.0138030
762.255	0.0137380
762.333	0.0136143
762.411	0.0135667
762.489	0.0137511
762.568	0.0136899
762.646	0.0136633
762.724	0.0136710
762.802	0.0136425
762.880	0.0136794
762.958	0.0136067
763.036	0.0135108
763.114	0.0136302
763.193	0.0136261
763.271	0.0134221
763.349	0.0135120
763.427	0.0133492
763.505	0.0133146
763.583	0.0132441
763.661	0.0130634
763.739	0.0131761
763.818	0.0131673
763.896	0.0132576
763.974	0.0130023
764.052	0.0129165
764.130	0.0131457
764.208	0.0131104
764.286	0.0128262
764.364	0.0129024
764.443	0.0130805
764.521	0.0129975
764.599	0.0128899
764.677	0.0128572
764.755	0.0128703
764.833	0.0130136
764.911	0.0129247
764.989	0.0128235
765.068	0.0127779
765.146	0.0127716
765.224	0.0129414
765.302	0.0128606
765.380	0.0130267
765.458	0.0131094
765.536	0.0131900
765.614	0.0131635
765.693	0.0131721
765.771	0.0130728
765.849	0.0131921
765.927	0.0131973
766.005	0.0132510
766.083	0.0132093
766.161	0.0131680
766.239	0.0131597
766.318	0.0131277
766.396	0.0131697
766.474	0.0131539
766.552	0.0131413
766.630	0.0131488
766.708	0.0131290
766.786	0.0130902
766.864	0.0130891
766.943	0.0132500
767.021	0.0133799
767.099	0.0133512
767.177	0.0132818
767.255	0.0135384
767.333	0.0134662
767.411	0.0135290
767.489	0.0135821
767.568	0.0134899
767.646	0.0135349
767.724	0.0135958
767.802	0.0136356
767.880	0.0136324
767.958	0.0135419
768.036	0.0136549
768.114	0.0136267
768.193	0.0134423
768.271	0.0134978
768.349	0.0134436
768.427	0.0136440
768.505	0.0134234
768.583	0.0134758
768.661	0.0134949
768.739	0.0133923
768.818	0.0134319
768.896	0.0134719
768.974	0.0133727
769.052	0.0133794
769.130	0.0133603
769.208	0.0132471
769.286	0.0133541
769.364	0.0132335
769.443	0.0131902
769.521	0.0131480
769.599	0.0129939
769.677	0.0130010
769.755	0.0129877
769.833	0.0128391
769.911	0.0128123
769.989	0.0128259
770.068	0.0127517
770.146	0.0126794
770.224	0.0127853
770.302	0.0127477
770.380	0.0128001
770.458	0.0128397
770.536	0.0130495
770.614	0.0129942
770.693	0.0129162
770.771	0.0129586
770.849	0.0129745
770.927	0.0131696
771.005	0.0131932
771.083	0.0129929
771.161	0.0132076
771.239	0.0133318
771.318	0.0133187
771.396	0.0133160
771.474	0.0133329
771.552	0.0133147
771.630	0.0135157
771.708	0.0133849
771.786	0.0135105
771.864	0.0134072
771.943	0.0134042
772.021	0.0134595
772.099	0.0134601
772.177	0.0133185
772.255	0.0132986
772.333	0.0133080
772.411	0.0131110
772.489	0.0133115
772.568	0.0132577
772.646	0.0131079
772.724	0.0130618
772.802	0.0131316
772.880	0.0131491
772.958	0.0131592
773.036	0.0131613
773.114	0.0130265
773.193	0.0130698
773.271	0.0130998
773.349	0.0131575
773.427	0.0132221
773.505	0.0132983
773.583	0.0133863
773.661	0.0134948
773.739	0.0134592
773.818	0.0135399
773.896	0.0135054
773.974	0.0136429
774.052	0.0135959
774.130	0.0135812
774.208	0.0136027
774.286	0.0134543
774.364	0.0136068
774.443	0.0135687
774.521	0.0137151
774.599	0.0136752
774.677	0.0133901
774.755	0.0134571
774.833	0.0137798
774.911	0.0136003
774.989	0.0136192
775.068	0.0134554
775.146	0.0136895
775.224	0.0135809
775.302	0.0136356
775.380	0.0137025
775.458	0.0136227
775.536	0.0136847
775.614	0.0136708
775.693	0.0137243
775.771	0.0135487
775.849	0.0134630
775.927	0.0134235
776.005	0.0134470
776.083	0.0132146
776.161	0.0131953
776.239	0.0130180
776.318	0.0131347
776.396	0.0131273
776.474	0.0128998
776.552	0.0127985
776.630	0.0128483
776.708	0.0127540
776.786	0.0129285
776.864	0.0128468
776.943	0.0128624
777.021	0.0127895
777.099	0.0127277
777.177	0.0128123
777.255	0.0128846
777.333	0.0128938
777.411	0.0129456
777.489	0.0132143
777.568	0.0130922
777.646	0.0131665
777.724	0.0135190
777.802	0.0134257
777.880	0.0134863
777.958	0.0135523
778.036	0.0135909
778.114	0.0137157
778.193	0.0136540
778.271	0.0136953
778.349	0.0137853
778.427	0.0138113
778.505	0.0138843
778.583	0.0137908
778.661	0.0138683
778.739	0.0137096
778.818	0.0137222
778.896	0.0136865
778.974	0.0136150
779.052	0.0135117
779.130	0.0134406
779.208	0.0136439
779.286	0.0136223
779.364	0.0135603
779.443	0.0135183
779.521	0.0134385
779.599	0.0134322
779.677	0.0134514
779.755	0.0134023
779.833	0.0133853
779.911	0.0133306
779.989	0.0133162
780.068	0.0132865
780.146	0.0132317
780.224	0.0131109
780.302	0.0131642
780.380	0.0131536
780.458	0.0130709
780.536	0.0129459
780.614	0.0129940
780.693	0.0130326
780.771	0.0130067
780.849	0.0129676
780.927	0.0130159
781.005	0.0129256
781.083	0.0132475
781.161	0.0130114
781.239	0.0131361
781.318	0.0131781
781.396	0.0132202
781.474	0.0134644
781.552	0.0134007
781.630	0.0135496
781.708	0.0135547
781.786	0.0135882
781.864	0.0138013
781.943	0.0135806
782.021	0.0138905
782.099	0.0139475
782.177	0.0138949
782.255	0.0139103
782.333	0.0138766
782.411	0.0139048
782.489	0.0139874
782.568	0.0139890
782.646	0.0139408
782.724	0.0139265
782.802	0.0137780
782.880	0.0136074
782.958	0.0135639
783.036	0.0134097
783.114	0.0134893
783.193	0.0132255
783.271	0.0131417
783.349	0.0131725
783.427	0.0130173
783.505	0.0129135
783.583	0.0126662
783.661	0.0127367
783.739	0.0127428
783.818	0.0125253
783.896	0.0125021
783.974	0.0126198
784.052	0.0126313
784.130	0.0125079
784.208	0.0126365
784.286	0.0126082
784.364	0.0125687
784.443	0.0126404
784.521	0.0128233
784.599	0.0128291
784.677	0.0128899
784.755	0.0129471
784.833	0.0130836
784.911	0.0130940
784.989	0.0130711
785.068	0.0132002
785.146	0.0132164
785.224	0.0132259
785.302	0.0133036
785.380	0.0134111
785.458	0.0134112
785.536	0.0133810
785.614	0.0136189
785.693	0.0135031
785.771	0.0137315
785.849	0.0136040
785.927	0.0137383
786.005	0.0136621
786.083	0.0137792
786.161	0.0138496
786.239	0.0137531
786.318	0.0136264
786.396	0.0138152
786.474	0.0137086
786.552	0.0136469
786.630	0.0137357
786.708	0.0136175
786.786	0.0134870
786.864	0.0135655
786.943	0.0134666
787.021	0.0134539
787.099	0.0134222
787.177	0.0133347
787.255	0.0131776
787.333	0.0132591
787.411	0.0132487
787.489	0.0130306
787.568	0.0131046
787.646	0.0129234
787.724	0.0130215
787.802	0.0129739
787.880	0.0129486
787.958	0.0130081
788.036	0.0130764
788.114	0.0129578
788.193	0.0129988
788.271	0.0130086
788.349	0.0130747
788.427	0.0130776
788.505	0.0131610
788.583	0.0130601
788.661	0.0129765
788.739	0.0130012
788.818	0.0130074
788.896	0.0130928
788.974	0.0129962
789.052	0.0129749
789.130	0.0129994
789.208	0.0131007
789.286	0.0131915
789.364	0.0130566
789.443	0.0130675
789.521	0.0131757
789.599	0.0132201
789.677	0.0131418
789.755	0.0130097
789.833	0.0131290
789.911	0.0130721
789.989	0.0132612
790.068	0.0131214
790.146	0.0131137
790.224	0.0131178
790.302	0.0131190
790.380	0.0132392
790.458	0.0131422
790.536	0.0132104
790.614	0.0133591
790.693	0.0131126
790.771	0.0130966
790.849	0.0130714
790.927	0.0131285
791.005	0.0131223
791.083	0.0132253
791.161	0.0132202
791.239	0.0131046
791.318	0.0131450
791.396	0.0131956
791.474	0.0132187
791.552	0.0130195
791.630	0.0131191
791.708	0.0132446
791.786	0.0131512
791.864	0.0131442
791.943	0.0132124
792.021	0.0131860
792.099	0.0130627
792.177	0.0131303
792.255	0.0132598
792.333	0.0132507
792.411	0.0132027
792.489	0.0131923
792.568	0.0130952
792.646	0.0132379
792.724	0.0131497
792.802	0.0133421
792.880	0.0131662
792.958	0.0131666
793.036	0.0131026
793.114	0.0132364
793.193	0.0132822
793.271	0.0134295
793.349	0.0133363
793.427	0.0133753
793.505	0.0133507
793.583	0.0133044
793.661	0.0133522
793.739	0.0133329
793.818	0.0133169
793.896	0.0134482
793.974	0.0135042
794.052	0.0134489
794.130	0.0133846
794.208	0.0133598
794.286	0.0133327
794.364	0.0132999
794.443	0.0133539
794.521	0.0133076
794.599	0.0133109
794.677	0.0132207
794.755	0.0133205
794.833	0.0132314
794.911	0.0132768
794.989	0.0132162
795.068	0.0132695
795.146	0.0132352
795.224	0.0133227
795.302	0.0132188
795.380	0.0132616
795.458	0.0133893
795.536	0.0132640
795.614	0.0131728
795.693	0.0132270
795.771	0.0132699
795.849	0.0132898
795.927	0.0132016
796.005	0.0131893
796.083	0.0133054
796.161	0.0133696
796.239	0.0133308
796.318	0.0131982
796.396	0.0132535
796.474	0.0133033
796.552	0.0132076
796.630	0.0131184
796.708	0.0132224
796.786	0.0132030
796.864	0.0132411
796.943	0.0131561
797.021	0.0131149
797.099	0.0132319
797.177	0.0131516
797.255	0.0132042
797.333	0.0131855
797.411	0.0133337
797.489	0.0133020
797.568	0.0133342
797.646	0.0133089
797.724	0.0133993
797.802	0.0132482
797.880	0.0132230
797.958	0.0135492
798.036	0.0135499
798.114	0.0137257
798.193	0.0134576
798.271	0.0135226
798.349	0.0138272
798.427	0.0136285
798.505	0.0137063
798.583	0.0137642
798.661	0.0135614
798.739	0.0137042
798.818	0.0135819
798.896	0.0136141
798.974	0.0136732
799.052	0.0135818
799.130	0.0136559
799.208	0.0135043
799.286	0.0134521
799.364	0.0133920
799.443	0.0133028
799.521	0.0132807
799.599	0.0131773
799.677	0.0129510
799.755	0.0130543
799.833	0.0130489
799.911	0.0129087
799.989	0.0127728
800.068	0.0127300
800.146	0.0127210
800.224	0.0126864
800.302	0.0127370
800.380	0.0127995
800.458	0.0128879
800.536	0.0127047
800.614	0.0126255
800.693	0.0127717
800.771	0.0128049
800.849	0.0129324
800.927	0.0127632
801.005	0.0128555
801.083	0.0130244
801.161	0.0130862
801.239	0.0131384
801.318	0.0132403
801.396	0.0131478
801.474	0.0132478
801.552	0.0132833
801.630	0.0134353
801.708	0.0136393
801.786	0.0134772
801.864	0.0137218
801.943	0.0138367
802.021	0.0138148
802.099	0.0138535
802.177	0.0139428
802.255	0.0140041
802.333	0.0139670
802.411	0.0141508
802.489	0.0141582
802.568	0.0140868
802.646	0.0139683
802.724	0.0139924
802.802	0.0141821
802.880	0.0142200
802.958	0.0140854
803.036	0.0140225
803.114	0.0140525
803.193	0.0137785
803.271	0.0137611
803.349	0.0137088
803.427	0.0137852
803.505	0.0137342
803.583	0.0135285
803.661	0.0134830
803.739	0.0134346
803.818	0.0134136
803.896	0.0132506
803.974	0.0131643
804.052	0.0130456
804.130	0.0129945
804.208	0.0130083
804.286	0.0129766
804.364	0.0129858
804.443	0.0129436
804.521	0.0128545
804.599	0.0128102
804.677	0.0127796
804.755	0.0128249
804.833	0.0127481
804.911	0.0127596
804.989	0.0127619
805.068	0.0128030
805.146	0.0128590
805.224	0.0129515
805.302	0.0129367
805.380	0.0129404
805.458	0.0129861
805.536	0.0129438
805.614	0.0130377
805.693	0.0130964
805.771	0.0131371
805.849	0.0131126
805.927	0.0130658
806.005	0.0131286
806.083	0.0133488
806.161	0.0133823
806.239	0.0133569
806.318	0.0132343
806.396	0.0133347
806.474	0.0134163
806.552	0.0134724
806.630	0.0134653
806.708	0.0134760
806.786	0.0134835
806.864	0.0134399
806.943	0.0135540
807.021	0.0136900
807.099	0.0135635
807.177	0.0136069
807.255	0.0137514
807.333	0.0135954
807.411	0.0137102
807.489	0.0136906
807.568	0.0135977
807.646	0.0134429
807.724	0.0135691
807.802	0.0136577
807.880	0.0135896
807.958	0.0136673
808.036	0.0135079
808.114	0.0134004
808.193	0.0133391
808.271	0.0133282
808.349	0.0132392
808.427	0.0132028
808.505	0.0130373
808.583	0.0129519
808.661	0.0130492
808.739	0.0129490
808.818	0.0129595
808.896	0.0129060
808.974	0.0127918
809.052	0.0127123
809.130	0.0127971
809.208	0.0127400
809.286	0.0126929
809.364	0.0127012
809.443	0.0127708
809.521	0.0128232
809.599	0.0128261
809.677	0.0128681
809.755	0.0129729
809.833	0.0129339
809.911	0.0130356
809.989	0.0128458
810.068	0.0131654
810.146	0.0130392
810.224	0.0131274
810.302	0.0131741
810.380	0.0133333
810.458	0.0132300
810.536	0.0133360
810.614	0.0133471
810.693	0.0135889
810.771	0.0135632
810.849	0.0133356
810.927	0.0133051
811.005	0.0134093
811.083	0.0134234
811.161	0.0135865
811.239	0.0133396
811.318	0.0134113
811.396	0.0134134
811.474	0.0134166
811.552	0.0134554
811.630	0.0134143
811.708	0.0133382
811.786	0.0133632
811.864	0.0133015
811.943	0.0133253
812.021	0.0131889
812.099	0.0130332
812.177	0.0130152
812.255	0.0132819
812.333	0.0131915
812.411	0.0131993
812.489	0.0131192
812.568	0.0131419
812.646	0.0131682
812.724	0.0132525
812.802	0.0130684
812.880	0.0132226
812.958	0.0132055
813.036	0.0132189
813.114	0.0131640
813.193	0.0132831
813.271	0.0133654
813.349	0.0133151
813.427	0.0132748
813.505	0.0133160
813.583	0.0131316
813.661	0.0131593
813.739	0.0130985
813.818	0.0132957
813.896	0.0133282
813.974	0.0130691
814.052	0.0133228
814.130	0.0131797
814.208	0.0131081
814.286	0.0129766
814.364	0.0130079
814.443	0.0130545
814.521	0.0129504
814.599	0.0128118
814.677	0.0129314
814.755	0.0128864
814.833	0.0129328
814.911	0.0127409
814.989	0.0127364
815.068	0.0128183
815.146	0.0128137
815.224	0.0127579
815.302	0.0129431
815.380	0.0130491
815.458	0.0129472
815.536	0.0130207
815.614	0.0131179
815.693	0.0131108
815.771	0.0131685
815.849	0.0132040
815.927	0.0132240
816.005	0.0133649
816.083	0.0132523
816.161	0.0134277
816.239	0.0134731
816.318	0.0135150
816.396	0.0135612
816.474	0.0135977
816.552	0.0136373
816.630	0.0134885
816.708	0.0133559
816.786	0.0134920
816.864	0.0135484
816.943	0.0134216
817.021	0.0135391
817.099	0.0134315
817.177	0.0133810
817.255	0.0133534
817.333	0.0134921
817.411	0.0135145
817.489	0.0133707
817.568	0.0133319
817.646	0.0134209
817.724	0.0135270
817.802	0.0136284
817.880	0.0135142
817.958	0.0134890
818.036	0.0134892
818.114	0.0134930
818.193	0.0136082
818.271	0.0134464
818.349	0.0134461
818.427	0.0134744
818.505	0.0134267
818.583	0.0133466
818.661	0.0133098
818.739	0.0133195
818.818	0.0131367
818.896	0.0132520
818.974	0.0133617
819.052	0.0132714
819.130	0.0132142
819.208	0.0131285
819.286	0.0131160
819.364	0.0131169
819.443	0.0129765
819.521	0.0130824
819.599	0.0130163
819.677	0.0128650
819.755	0.0128933
819.833	0.0130133
819.911	0.0129224
819.989	0.0129868
820.068	0.0129922
820.146	0.0129148
820.224	0.0130016
820.302	0.0130573
820.380	0.0129793
820.458	0.0130524
820.536	0.0131624
820.614	0.0130050
820.693	0.0131128
820.771	0.0131474
820.849	0.0130675
820.927	0.0131154
821.005	0.0132173
821.083	0.0133868
821.161	0.0132552
821.239	0.0132732
821.318	0.0134663
821.396	0.0133640
821.474	0.0133074
821.552	0.0135706
821.630	0.0136360
821.708	0.0135891
821.786	0.0134119
821.864	0.0135030
821.943	0.0135054
822.021	0.0135641
822.099	0.0135061
822.177	0.0134515
822.255	0.0133884
822.333	0.0134094
822.411	0.0133908
822.489	0.0132889
822.568	0.0131532
822.646	0.0132609
822.724	0.0133075
822.802	0.0133289
822.880	0.0132854
822.958	0.0132262
823.036	0.0134132
823.114	0.0132825
823.193	0.0131506
823.271	0.0132214
823.349	0.0132273
823.427	0.0131928
823.505	0.0132183
823.583	0.0133007
823.661	0.0133128
823.739	0.0132549
823.818	0.0132529
823.896	0.0132649
823.974	0.0133099
824.052	0.0133464
824.130	0.0132455
824.208	0.0132822
824.286	0.0133434
824.364	0.0133918
824.443	0.0133303
824.521	0.0132001
824.599	0.0131660
824.677	0.0131584
824.755	0.0130941
824.833	0.0131376
824.911	0.0131310
824.989	0.0130997
825.068	0.0130807
825.146	0.0131238
825.224	0.0130428
825.302	0.0130856
825.380	0.0130157
825.458	0.0130305
825.536	0.0130582
825.614	0.0132105
825.693	0.0130995
825.771	0.0131995
825.849	0.0131377
825.927	0.0131038
826.005	0.0132805
826.083	0.0132622
826.161	0.0132350
826.239	0.0131966
826.318	0.0132508
826.396	0.0132629
826.474	0.0134235
826.552	0.0132583
826.630	0.0133326
826.708	0.0135813
826.786	0.0134749
826.864	0.0134050
826.943	0.0134032
827.021	0.0134912
827.099	0.0134580
827.177	0.0134052
827.255	0.0134635
827.333	0.0136304
827.411	0.0135567
827.489	0.0134533
827.568	0.0135193
827.646	0.0136024
827.724	0.0135238
827.802	0.0135111
827.880	0.0134435
827.958	0.0135043
828.036	0.0136915
828.114	0.0136625
828.193	0.0136304
828.271	0.0135165
828.349	0.0135188
828.427	0.0136211
828.505	0.0134248
828.583	0.0133852
828.661	0.0135138
828.739	0.0133915
828.818	0.0133533
828.896	0.0133611
828.974	0.0134888
829.052	0.0134760
829.130	0.0133886
829.208	0.0133055
829.286	0.0131747
829.364	0.0131850
829.443	0.0132990
829.521	0.0133508
829.599	0.0132740
829.677	0.0133128
829.755	0.0132516
829.833	0.0132160
829.911	0.0131354
829.989	0.0131890
830.068	0.0132900
830.146	0.0134309
830.224	0.0131952
830.302	0.0131835
830.380	0.0133658
830.458	0.0132788
830.536	0.0132002
830.614	0.0133317
830.693	0.0132198
830.771	0.0134235
830.849	0.0134525
830.927	0.0132296
831.005	0.0133397
831.083	0.0134251
831.161	0.0133955
831.239	0.0133920
831.318	0.0134586
831.396	0.0133031
831.474	0.0134289
831.552	0.0134811
831.630	0.0133640
831.708	0.0133761
831.786	0.0135130
831.864	0.0134739
831.943	0.0134325
832.021	0.0135387
832.099	0.0133635
832.177	0.0134071
832.255	0.0135145
832.333	0.0134259
832.411	0.0131560
832.489	0.0132481
832.568	0.0133439
832.646	0.0132193
832.724	0.0132008
832.802	0.0133401
832.880	0.0132417
832.958	0.0132938
833.036	0.0132845
833.114	0.0133697
833.193	0.0132860
833.271	0.0134579
833.349	0.0135076
833.427	0.0134329
833.505	0.0134052
833.583	0.0135276
833.661	0.0135204
833.739	0.0135566
833.818	0.0135226
833.896	0.0135215
833.974	0.0132834
834.052	0.0134657
834.130	0.0136337
834.208	0.0135578
834.286	0.0134814
834.364	0.0134769
834.443	0.0134354
834.521	0.0133388
834.599	0.0135458
834.677	0.0135471
834.755	0.0135226
834.833	0.0135109
834.911	0.0133523
834.989	0.0134507
835.068	0.0133633
835.146	0.0133846
835.224	0.0134381
835.302	0.0133036
835.380	0.0132557
835.458	0.0133498
835.536	0.0131814
835.614	0.0131398
835.693	0.0131049
835.771	0.0131467
835.849	0.0131568
835.927	0.0130514
836.005	0.0131425
836.083	0.0130405
836.161	0.0131392
836.239	0.0130640
836.318	0.0130265
836.396	0.0131483
836.474	0.0132092
836.552	0.0133220
836.630	0.0130801
836.708	0.0131865
836.786	0.0133052
836.864	0.0133068
836.943	0.0133049
837.021	0.0132584
837.099	0.0133393
837.177	0.0132159
837.255	0.0133970
837.333	0.0134063
837.411	0.0134417
837.489	0.0132548
837.568	0.0134151
837.646	0.0135641
837.724	0.0133276
837.802	0.0135166
837.880	0.0134086
837.958	0.0135503
838.036	0.0135313
838.114	0.0133169
838.193	0.0134209
838.271	0.0134387
838.349	0.0134886
838.427	0.0134113
838.505	0.0134171
838.583	0.0135448
838.661	0.0133337
838.739	0.0133326
838.818	0.0133543
838.896	0.0135036
838.974	0.0133976
839.052	0.0134273
839.130	0.0134539
839.208	0.0134253
839.286	0.0132131
839.364	0.0132650
839.443	0.0133178
839.521	0.0134254
839.599	0.0135036
839.677	0.0132284
839.755	0.0132585
839.833	0.0133855
839.911	0.0132941
839.989	0.0132683
840.068	0.0133408
840.146	0.0133594
840.224	0.0132099
840.302	0.0132454
840.380	0.0134065
840.458	0.0132003
840.536	0.0132409
840.614	0.0133187
840.693	0.0131956
840.771	0.0130975
840.849	0.0132179
840.927	0.0130848
841.005	0.0130264
841.083	0.0129369
841.161	0.0131530
841.239	0.0129992
841.318	0.0130105
841.396	0.0128739
841.474	0.0128493
841.552	0.0129329
841.630	0.0127649
841.708	0.0127988
841.786	0.0128271
841.864	0.0128307
841.943	0.0130354
842.021	0.0128380
842.099	0.0129377
842.177	0.0130303
842.255	0.0129517
842.333	0.0131607
842.411	0.0132678
842.489	0.0134264
842.568	0.0133414
842.646	0.0134103
842.724	0.0134002
842.802	0.0133842
842.880	0.0135543
842.958	0.0134030
843.036	0.0136282
843.114	0.0135110
843.193	0.0134399
843.271	0.0134496
843.349	0.0136171
843.427	0.0135283
843.505	0.0133611
843.583	0.0134098
843.661	0.0133492
843.739	0.0133994
843.818	0.0132379
843.896	0.0132677
843.974	0.0133306
844.052	0.0131953
844.130	0.0131995
844.208	0.0131812
844.286	0.0130850
844.364	0.0131395
844.443	0.0132442
844.521	0.0131165
844.599	0.0130946
844.677	0.0130841
844.755	0.0131277
844.833	0.0133002
844.911	0.0131829
844.989	0.0132108
845.068	0.0131873
845.146	0.0131100
845.224	0.0131332
845.302	0.0131973
845.380	0.0134203
845.458	0.0132778
845.536	0.0134209
845.614	0.0133226
845.693	0.0133014
845.771	0.0132942
845.849	0.0133169
845.927	0.0133516
846.005	0.0133521
846.083	0.0133369
846.161	0.0132753
846.239	0.0133406
846.318	0.0133758
846.396	0.0133334
846.474	0.0132632
846.552	0.0133556
846.630	0.0133605
846.708	0.0132723
846.786	0.0131967
846.864	0.0133332
846.943	0.0132179
847.021	0.0133089
847.099	0.0132773
847.177	0.0132350
847.255	0.0132536
847.333	0.0133366
847.411	0.0134809
847.489	0.0132378
847.568	0.0133274
847.646	0.0132372
847.724	0.0133991
847.802	0.0133103
847.880	0.0133373
847.958	0.0132968
848.036	0.0132697
848.114	0.0132905
848.193	0.0132621
848.271	0.0133355
848.349	0.0131335
848.427	0.0133817
848.505	0.0131932
848.583	0.0132382
848.661	0.0131823
848.739	0.0134038
848.818	0.0133701
848.896	0.0133897
848.974	0.0132121
849.052	0.0132270
849.130	0.0133643
849.208	0.0132023
849.286	0.0131811
849.364	0.0133097
849.443	0.0131579
849.521	0.0132730
849.599	0.0130902
849.677	0.0132072
849.755	0.0132022
849.833	0.0130977
849.911	0.0131850
849.989	0.0133260
850.068	0.0131174
850.146	0.0133321
850.224	0.0131810
850.302	0.0132854
850.380	0.0133331
850.458	0.0132722
850.536	0.0134075
850.614	0.0133543
850.693	0.0134383
850.771	0.0137497
850.849	0.0134839
850.927	0.0134884
851.005	0.0134908
851.083	0.0135609
851.161	0.0135094
851.239	0.0135714
851.318	0.0134790
851.396	0.0135114
851.474	0.0135689
851.552	0.0136530
851.630	0.0137321
851.708	0.0134868
851.786	0.0134769
851.864	0.0136244
851.943	0.0136057
852.021	0.0133932
852.099	0.0135983
852.177	0.0135812
852.255	0.0135278
852.333	0.0135397
852.411	0.0134103
852.489	0.0134442
852.568	0.0135824
852.646	0.0134377
852.724	0.0133921
852.802	0.0134695
852.880	0.0134743
852.958	0.0135582
853.036	0.0134894
853.114	0.0135609
853.193	0.0135503
853.271	0.0135538
853.349	0.0134691
853.427	0.0134758
853.505	0.0134699
853.583	0.0134978
853.661	0.0135231
853.739	0.0135417
853.818	0.0134541
853.896	0.0134448
853.974	0.0133016
854.052	0.0132851
854.130	0.0133960
854.208	0.0131764
854.286	0.0134152
854.364	0.0132878
854.443	0.0133027
854.521	0.0132262
854.599	0.0133064
854.677	0.0133094
854.755	0.0133067
854.833	0.0132362
854.911	0.0132434
854.989	0.0132245
855.068	0.0132043
855.146	0.0131917
855.224	0.0132665
855.302	0.0132755
855.380	0.0131812
855.458	0.0132468
855.536	0.0132441
855.614	0.0133150
855.693	0.0132639
855.771	0.0132339
855.849	0.0133475
855.927	0.0132767
856.005	0.0132725
856.083	0.0133221
856.161	0.0133969
856.239	0.0131903
856.318	0.0132991
856.396	0.0133600
856.474	0.0134013
856.552	0.0134900
856.630	0.0134254
856.708	0.0134194
856.786	0.0134888
856.864	0.0134308
856.943	0.0134228
857.021	0.0136273
857.099	0.0135971
857.177	0.0136711
857.255	0.0136324
857.333	0.0135427
857.411	0.0134952
857.489	0.0135041
857.568	0.0135168
857.646	0.0136143
857.724	0.0134885
857.802	0.0134697
857.880	0.0134012
857.958	0.0134188
858.036	0.0133636
858.114	0.0133818
858.193	0.0134863
858.271	0.0133901
858.349	0.0132886
858.427	0.0132459
858.505	0.0131409
858.583	0.0133427
858.661	0.0132523
858.739	0.0133167
858.818	0.0132931
858.896	0.0133398
858.974	0.0132573
859.052	0.0134456
859.130	0.0133069
859.208	0.0133411
859.286	0.0133101
859.364	0.0133198
859.443	0.0133241
859.521	0.0133094
859.599	0.0134364
859.677	0.0133283
859.755	0.0132597
859.833	0.0132909
859.911	0.0133433
859.989	0.0132914
860.068	0.0132282
860.146	0.0132659
860.224	0.0132346
860.302	0.0132687
860.380	0.0133362
860.458	0.0133395
860.536	0.0132255
860.614	0.0131531
860.693	0.0132581
860.771	0.0133034
860.849	0.0132774
860.927	0.0133114
861.005	0.0132959
861.083	0.0131940
861.161	0.0133156
861.239	0.0134358
861.318	0.0133913
861.396	0.0134191
861.474	0.0133863
861.552	0.0133224
861.630	0.0134481
861.708	0.0133878
861.786	0.0134420
861.864	0.0135190
861.943	0.0133946
862.021	0.0134997
862.099	0.0135374
862.177	0.0133948
862.255	0.0134372
862.333	0.0134653
862.411	0.0134401
862.489	0.0134540
862.568	0.0134613
862.646	0.0133485
862.724	0.0133224
862.802	0.0132917
862.880	0.0133501
862.958	0.0132807
863.036	0.0132182
863.114	0.0131631
863.193	0.0132018
863.271	0.0132501
863.349	0.0130627
863.427	0.0130592
863.505	0.0131364
863.583	0.0132327
863.661	0.0132015
863.739	0.0132525
863.818	0.0132896
863.896	0.0132417
863.974	0.0132712
864.052	0.0134239
864.130	0.0134524
864.208	0.0133105
864.286	0.0133459
864.364	0.0133588
864.443	0.0134451
864.521	0.0133897
864.599	0.0134724
864.677	0.0133820
864.755	0.0134122
864.833	0.0133263
864.911	0.0134645
864.989	0.0134016
865.068	0.0132993
865.146	0.0134263
865.224	0.0133273
865.302	0.0132774
865.380	0.0133630
865.458	0.0132220
865.536	0.0134379
865.614	0.0133963
865.693	0.0133702
865.771	0.0133163
865.849	0.0133372
865.927	0.0132977
866.005	0.0132689
866.083	0.0133582
866.161	0.0132720
866.239	0.0133425
866.318	0.0132013
866.396	0.0130727
866.474	0.0131046
866.552	0.0132288
866.630	0.0132020
866.708	0.0132320
866.786	0.0131116
866.864	0.0131965
866.943	0.0131091
867.021	0.0129786
867.099	0.0131122
867.177	0.0129564
867.255	0.0129361
867.333	0.0131470
867.411	0.0130827
867.489	0.0129699
867.568	0.0130810
867.646	0.0128910
867.724	0.0130331
867.802	0.0129408
867.880	0.0128462
867.958	0.0129254
868.036	0.0129133
868.114	0.0129138
868.193	0.0128220
868.271	0.0129086
868.349	0.0128877
868.427	0.0129939
868.505	0.0128767
868.583	0.0130515
868.661	0.0131520
868.739	0.0131427
868.818	0.0131247
868.896	0.0132053
868.974	0.0133595
869.052	0.0134785
869.130	0.0132103
869.208	0.0132397
869.286	0.0132247
869.364	0.0133397
869.443	0.0133304
869.521	0.0133912
869.599	0.0135859
869.677	0.0135641
869.755	0.0134605
869.833	0.0135435
869.911	0.0135760
869.989	0.0135745
870.068	0.0136044
870.146	0.0136152
870.224	0.0134840
870.302	0.0135060
870.380	0.0134799
870.458	0.0134003
870.536	0.0133422
870.614	0.0132648
870.693	0.0133992
870.771	0.0132627
870.849	0.0132469
870.927	0.0132167
871.005	0.0131829
871.083	0.0131348
871.161	0.0130865
871.239	0.0130017
871.318	0.0129536
871.396	0.0130431
871.474	0.0130347
871.552	0.0129691
871.630	0.0131609
871.708	0.0128585
871.786	0.0129741
871.864	0.0130224
871.943	0.0130026
872.021	0.0130022
872.099	0.0131301
872.177	0.0130465
872.255	0.0130456
872.333	0.0131080
872.411	0.0132883
872.489	0.0133816
872.568	0.0132626
872.646	0.0132782
872.724	0.0133157
872.802	0.0134629
872.880	0.0134943
872.958	0.0133958
873.036	0.0133353
873.114	0.0134050
873.193	0.0134594
873.271	0.0133626
873.349	0.0134226
873.427	0.0134818
873.505	0.0133710
873.583	0.0134085
873.661	0.0134096
873.739	0.0134445
873.818	0.0133865
873.896	0.0134666
873.974	0.0133326
874.052	0.0133492
874.130	0.0132420
874.208	0.0132207
874.286	0.0132158
874.364	0.0131862
874.443	0.0131699
874.521	0.0132840
874.599	0.0131339
874.677	0.0131685
874.755	0.0130527
874.833	0.0130040
874.911	0.0131867
874.989	0.0131579
875.068	0.0130592
875.146	0.0132323
875.224	0.0131493
875.302	0.0131335
875.380	0.0131494
875.458	0.0131175
875.536	0.0131438
875.614	0.0132388
875.693	0.0133537
875.771	0.0132666
875.849	0.0132375
875.927	0.0133750
876.005	0.0134056
876.083	0.0132886
876.161	0.0133418
876.239	0.0135162
876.318	0.0135516
876.396	0.0135197
876.474	0.0134316
876.552	0.0136160
876.630	0.0135239
876.708	0.0135564
876.786	0.0135399
876.864	0.0135680
876.943	0.0136270
877.021	0.0136120
877.099	0.0135296
877.177	0.0134779
877.255	0.0136656
877.333	0.0137158
877.411	0.0135432
877.489	0.0134418
877.568	0.0133772
877.646	0.0134158
877.724	0.0135501
877.802	0.0134463
877.880	0.0133461
877.958	0.0133299
878.036	0.0131792
878.114	0.0131940
878.193	0.0130423
878.271	0.0131067
878.349	0.0131372
878.427	0.0130890
878.505	0.0131338
878.583	0.0132065
878.661	0.0132137
878.739	0.0131417
878.818	0.0132088
878.896	0.0131339
878.974	0.0130882
879.052	0.0131670
879.130	0.0131019
879.208	0.0132288
879.286	0.0131194
879.364	0.0132191
879.443	0.0131602
879.521	0.0130906
879.599	0.0131725
879.677	0.0132442
879.755	0.0132812
879.833	0.0132835
879.911	0.0132208
879.989	0.0133507
880.068	0.0133052
880.146	0.0134481
880.224	0.0133313
880.302	0.0135912
880.380	0.0136317
880.458	0.0134695
880.536	0.0135599
880.614	0.0136021
880.693	0.0135237
880.771	0.0137276
880.849	0.0137127
880.927	0.0137016
881.005	0.0137201
881.083	0.0137080
881.161	0.0136906
881.239	0.0136599
881.318	0.0135763
881.396	0.0136504
881.474	0.0135294
881.552	0.0134674
881.630	0.0134794
881.708	0.0135315
881.786	0.0134604
881.864	0.0134569
881.943	0.0133436
882.021	0.0132131
882.099	0.0133559
882.177	0.0132754
882.255	0.0131857
882.333	0.0133067
882.411	0.0133035
882.489	0.0132256
882.568	0.0131074
882.646	0.0132332
882.724	0.0132528
882.802	0.0132006
882.880	0.0131380
882.958	0.0132967
883.036	0.0132071
883.114	0.0132349
883.193	0.0132865
883.271	0.0132798
883.349	0.0132449
883.427	0.0133379
883.505	0.0133086
883.583	0.0131899
883.661	0.0134127
883.739	0.0134608
883.818	0.0131342
883.896	0.0131785
883.974	0.0133826
884.052	0.0133481
884.130	0.0132620
884.208	0.0134502
884.286	0.0132194
884.364	0.0133070
884.443	0.0132943
884.521	0.0133499
884.599	0.0133712
884.677	0.0131676
884.755	0.0133188
884.833	0.0132957
884.911	0.0132401
884.989	0.0134021
885.068	0.0133263
885.146	0.0132877
885.224	0.0132340
885.302	0.0132462
885.380	0.0133101
885.458	0.0132918
885.536	0.0132291
885.614	0.0133592
885.693	0.0132494
885.771	0.0133456
885.849	0.0132089
885.927	0.0133938
886.005	0.0132861
886.083	0.0132480
886.161	0.0132603
886.239	0.0130892
886.318	0.0131577
886.396	0.0132022
886.474	0.0130096
886.552	0.0132069
886.630	0.0130774
886.708	0.0131261
886.786	0.0131575
886.864	0.0131181
886.943	0.0130144
887.021	0.0132166
887.099	0.0133179
887.177	0.0132539
887.255	0.0131821
887.333	0.0131910
887.411	0.0132561
887.489	0.0131179
887.568	0.0131665
887.646	0.0133120
887.724	0.0132396
887.802	0.0132159
887.880	0.0132833
887.958	0.0133105
888.036	0.0134592
888.114	0.0132558
888.193	0.0132323
888.271	0.0133018
888.349	0.0133813
888.427	0.0132973
888.505	0.0134114
888.583	0.0132823
888.661	0.0133820
888.739	0.0134042
888.818	0.0134244
888.896	0.0133619
888.974	0.0131844
889.052	0.0131818
889.130	0.0132026
889.208	0.0132323
889.286	0.0132106
889.364	0.0130701
889.443	0.0131261
889.521	0.0131700
889.599	0.0130575
889.677	0.0130463
889.755	0.0130471
889.833	0.0131107
889.911	0.0131342
889.989	0.0130798
890.068	0.0130137
890.146	0.0129628
890.224	0.0130477
890.302	0.0130085
890.380	0.0131131
890.458	0.0130550
890.536	0.0130344
890.614	0.0130412
890.693	0.0131583
890.771	0.0131802
890.849	0.0130714
890.927	0.0129167
891.005	0.0132025
891.083	0.0132759
891.161	0.0131306
891.239	0.0131635
891.318	0.0131071
891.396	0.0131487
891.474	0.0133276
891.552	0.0133609
891.630	0.0131384
891.708	0.0130946
891.786	0.0133473
891.864	0.0132874
891.943	0.0132558
892.021	0.0131752
892.099	0.0132761
892.177	0.0133554
892.255	0.0132355
892.333	0.0133427
892.411	0.0133205
892.489	0.0134039
892.568	0.0132727
892.646	0.0134788
892.724	0.0133506
892.802	0.0132973
892.880	0.0134790
892.958	0.0133698
893.036	0.0133332
893.114	0.0134953
893.193	0.0133875
893.271	0.0133569
893.349	0.0134013
893.427	0.0133455
893.505	0.0133580
893.583	0.0132816
893.661	0.0132922
893.739	0.0132294
893.818	0.0130524
893.896	0.0130762
893.974	0.0129785
894.052	0.0129859
894.130	0.0130984
894.208	0.0130615
894.286	0.0128952
894.364	0.0128685
894.443	0.0128870
894.521	0.0130107
894.599	0.0128854
894.677	0.0128787
894.755	0.0129675
894.833	0.0129178
894.911	0.0129353
894.989	0.0129081
895.068	0.0129747
895.146	0.0129966
895.224	0.0130733
895.302	0.0130418
895.380	0.0129913
895.458	0.0132475
895.536	0.0132191
895.614	0.0132052
895.693	0.0134185
895.771	0.0132779
895.849	0.0133555
895.927	0.0133632
896.005	0.0135538
896.083	0.0135382
896.161	0.0135403
896.239	0.0135547
896.318	0.0135947
896.396	0.0136535
896.474	0.0136632
896.552	0.0135307
896.630	0.0136446
896.708	0.0134181
896.786	0.0136031
896.864	0.0135725
896.943	0.0133827
897.021	0.0132909
897.099	0.0134457
897.177	0.0133784
897.255	0.0133736
897.333	0.0132484
897.411	0.0131744
897.489	0.0132984
897.568	0.0132243
897.646	0.0132561
897.724	0.0129288
897.802	0.0130573
897.880	0.0131438
897.958	0.0130660
898.036	0.0129932
898.114	0.0129221
898.193	0.0130123
898.271	0.0130565
898.349	0.0130315
898.427	0.0130391
898.505	0.0129375
898.583	0.0129971
898.661	0.0131091
898.739	0.0131049
898.818	0.0129774
898.896	0.0131741
898.974	0.0130885
899.052	0.0132469
899.130	0.0132308
899.208	0.0131867
899.286	0.0132622
899.364	0.0133514
899.443	0.0131760
899.521	0.0134265
899.599	0.0134006
899.677	0.0134212
899.755	0.0132836
899.833	0.0133969
899.911	0.0133783
899.989	0.0133997
900.068	0.0134275
900.146	0.0132726
900.224	0.0133321
900.302	0.0134825
900.380	0.0135001
900.458	0.0134403
900.536	0.0132886
900.614	0.0134604
900.693	0.0134882
900.771	0.0133570
900.849	0.0133695
900.927	0.0135437
901.005	0.0133534
901.083	0.0132914
901.161	0.0134884
901.239	0.0133833
901.318	0.0132484
901.396	0.0132538
901.474	0.0133518
901.552	0.0131977
901.630	0.0132394
901.708	0.0131479
901.786	0.0133491
901.864	0.0132229
901.943	0.0131073
902.021	0.0131352
902.099	0.0133030
902.177	0.0132255
902.255	0.0132249
902.333	0.0132747
902.411	0.0133652
902.489	0.0134170
902.568	0.0133230
902.646	0.0133725
902.724	0.0133690
902.802	0.0132983
902.880	0.0133899
902.958	0.0133591
903.036	0.0135358
903.114	0.0134086
903.193	0.0133508
903.271	0.0133210
903.349	0.0132678
903.427	0.0132874
903.505	0.0133541
903.583	0.0132844
903.661	0.0132156
903.739	0.0133408
903.818	0.0133125
903.896	0.0132042
903.974	0.0131953
904.052	0.0131313
904.130	0.0131804
904.208	0.0132553
904.286	0.0132103
904.364	0.0130953
904.443	0.0131821
904.521	0.0132647
904.599	0.0133018
904.677	0.0132685
904.755	0.0131277
904.833	0.0132536
904.911	0.0132447
904.989	0.0132719
905.068	0.0133458
905.146	0.0133415
905.224	0.0133981
905.302	0.0133671
905.380	0.0131578
905.458	0.0134183
905.536	0.0132971
905.614	0.0133877
905.693	0.0133828
905.771	0.0133588
905.849	0.0134213
905.927	0.0133501
906.005	0.0133697
906.083	0.0133989
906.161	0.0134287
906.239	0.0133467
906.318	0.0134161
906.396	0.0133383
906.474	0.0133605
906.552	0.0133531
906.630	0.0134435
906.708	0.0134875
906.786	0.0133749
906.864	0.0133987
906.943	0.0132378
907.021	0.0132637
907.099	0.0132939
907.177	0.0132925
907.255	0.0132935
907.333	0.0132948
907.411	0.0134219
907.489	0.0133208
907.568	0.0132650
907.646	0.0133161
907.724	0.0134676
907.802	0.0132104
907.880	0.0133263
907.958	0.0135323
908.036	0.0134512
908.114	0.0132466
908.193	0.0134558
908.271	0.0133250
908.349	0.0133125
908.427	0.0133499
908.505	0.0134337
908.583	0.0133096
908.661	0.0132874
908.739	0.0132655
908.818	0.0132884
908.896	0.0133078
908.974	0.0133249
909.052	0.0131370
909.130	0.0132234
909.208	0.0131729
909.286	0.0132286
909.364	0.0131611
909.443	0.0132570
909.521	0.0132837
909.599	0.0133158
909.677	0.0132783
909.755	0.0132840
909.833	0.0132169
909.911	0.0131924
909.989	0.0132449
910.068	0.0132826
910.146	0.0133465
910.224	0.0132632
910.302	0.0132070
910.380	0.0132201
910.458	0.0132535
910.536	0.0132269
910.614	0.0133238
910.693	0.0133387
910.771	0.0133325
910.849	0.0130738
910.927	0.0133568
911.005	0.0132096
911.083	0.0132282
911.161	0.0133541
911.239	0.0130797
911.318	0.0133757
911.396	0.0132693
911.474	0.0131855
911.552	0.0132077
911.630	0.0131613
911.708	0.0132138
911.786	0.0131683
911.864	0.0132413
911.943	0.0132240
912.021	0.0132653
912.099	0.0131871
912.177	0.0132026
912.255	0.0131683
912.333	0.0132632
912.411	0.0133738
912.489	0.0132458
912.568	0.0133167
912.646	0.0133833
912.724	0.0133847
912.802	0.0133972
912.880	0.0134982
912.958	0.0134538
913.036	0.0135130
913.114	0.0134918
913.193	0.0135078
913.271	0.0134579
913.349	0.0133793
913.427	0.0134077
913.505	0.0133441
913.583	0.0133205
913.661	0.0134082
913.739	0.0132940
913.818	0.0134138
913.896	0.0132713
913.974	0.0134075
914.052	0.0133426
914.130	0.0132512
914.208	0.0133179
914.286	0.0132823
914.364	0.0131640
914.443	0.0132322
914.521	0.0131661
914.599	0.0133157
914.677	0.0132143
914.755	0.0132386
914.833	0.0131039
914.911	0.0131618
914.989	0.0132217
915.068	0.0131219
915.146	0.0131898
915.224	0.0131723
915.302	0.0132115
915.380	0.0131921
915.458	0.0133034
915.536	0.0133236
915.614	0.0133711
915.693	0.0132658
915.771	0.0133434
915.849	0.0133517
915.927	0.0132904
916.005	0.0132954
916.083	0.0134334
916.161	0.0134377
916.239	0.0133358
916.318	0.0134085
916.396	0.0134430
916.474	0.0134171
916.552	0.0134312
916.630	0.0134094
916.708	0.0135922
916.786	0.0133504
916.864	0.0133562
916.943	0.0134271
917.021	0.0133909
917.099	0.0133233
917.177	0.0133302
917.255	0.0134175
917.333	0.0133716
917.411	0.0132504
917.489	0.0133356
917.568	0.0133752
917.646	0.0132726
917.724	0.0133221
917.802	0.0131299
917.880	0.0132416
917.958	0.0131620
918.036	0.0132121
918.114	0.0130976
918.193	0.0131891
918.271	0.0132053
918.349	0.0131378
918.427	0.0129984
918.505	0.0131113
918.583	0.0131872
918.661	0.0131620
918.739	0.0131805
918.818	0.0132153
918.896	0.0132074
918.974	0.0132708
919.052	0.0132879
919.130	0.0132230
919.208	0.0130447
919.286	0.0131384
919.364	0.0132418
919.443	0.0133598
919.521	0.0133237
919.599	0.0132375
919.677	0.0132529
919.755	0.0132504
919.833	0.0132759
919.911	0.0132893
919.989	0.0133083
920.068	0.0131797
920.146	0.0132209
920.224	0.0131938
920.302	0.0132276
920.380	0.0132426
920.458	0.0132189
920.536	0.0132580
920.614	0.0133802
920.693	0.0134163
920.771	0.0132231
920.849	0.0132852
920.927	0.0131891
921.005	0.0131937
921.083	0.0134258
921.161	0.0131998
921.239	0.0132872
921.318	0.0133370
921.396	0.0131906
921.474	0.0131627
921.552	0.0132731
921.630	0.0131940
921.708	0.0132564
921.786	0.0132880
921.864	0.0132447
921.943	0.0132471
922.021	0.0131743
922.099	0.0132172
922.177	0.0131433
922.255	0.0130990
922.333	0.0130955
922.411	0.0130927
922.489	0.0131534
922.568	0.0131378
922.646	0.0132334
922.724	0.0131303
922.802	0.0130606
922.880	0.0131288
922.958	0.0131613
923.036	0.0131861
923.114	0.0131187
923.193	0.0131179
923.271	0.0133717
923.349	0.0132532
923.427	0.0133290
923.505	0.0132480
923.583	0.0132088
923.661	0.0132799
923.739	0.0131738
923.818	0.0131287
923.896	0.0134019
923.974	0.0134624
924.052	0.0132793
924.130	0.0133112
924.208	0.0133371
924.286	0.0132339
924.364	0.0134338
924.443	0.0133792
924.521	0.0133429
924.599	0.0133064
924.677	0.0132705
924.755	0.0134198
924.833	0.0134202
924.911	0.0132330
924.989	0.0134296
925.068	0.0133888
925.146	0.0134262
925.224	0.0133054
925.302	0.0133105
925.380	0.0133525
925.458	0.0133577
925.536	0.0133421
925.614	0.0132404
925.693	0.0132144
925.771	0.0132802
925.849	0.0132288
925.927	0.0132207
926.005	0.0132478
926.083	0.0132427
926.161	0.0131473
926.239	0.0131182
926.318	0.0132447
926.396	0.0132272
926.474	0.0132476
926.552	0.0131916
926.630	0.0132272
926.708	0.0131452
926.786	0.0131860
926.864	0.0132262
926.943	0.0130675
927.021	0.0129842
927.099	0.0131331
927.177	0.0131916
927.255	0.0131696
927.333	0.0131010
927.411	0.0131569
927.489	0.0131116
927.568	0.0130218
927.646	0.0131339
927.724	0.0131896
927.802	0.0131894
927.880	0.0131245
927.958	0.0131564
928.036	0.0130960
928.114	0.0130425
928.193	0.0132317
928.271	0.0131868
928.349	0.0130992
928.427	0.0133157
928.505	0.0133056
928.583	0.0132885
928.661	0.0132787
928.739	0.0133064
928.818	0.0134191
928.896	0.0135506
928.974	0.0133486
929.052	0.0132838
929.130	0.0134492
929.208	0.0133551
929.286	0.0132784
929.364	0.0135073
929.443	0.0133826
929.521	0.0133574
929.599	0.0133047
929.677	0.0133633
929.755	0.0132498
929.833	0.0132359
929.911	0.0133157
929.989	0.0132780
930.068	0.0134092
930.146	0.0133089
930.224	0.0131779
930.302	0.0131293
930.380	0.0132609
930.458	0.0132649
930.536	0.0131653
930.614	0.0133926
930.693	0.0131512
930.771	0.0133527
930.849	0.0133014
930.927	0.0132018
931.005	0.0133694
931.083	0.0134468
931.161	0.0133581
931.239	0.0133454
931.318	0.0133176
931.396	0.0133094
931.474	0.0135376
931.552	0.0136048
931.630	0.0135792
931.708	0.0134624
931.786	0.0134464
931.864	0.0134917
931.943	0.0135023
932.021	0.0134942
932.099	0.0134351
932.177	0.0135477
932.255	0.0135379
932.333	0.0135358
932.411	0.0134253
932.489	0.0134785
932.568	0.0134964
932.646	0.0133558
932.724	0.0133125
932.802	0.0134570
932.880	0.0134421
932.958	0.0133578
933.036	0.0132899
933.114	0.0133427
933.193	0.0131986
933.271	0.0133062
933.349	0.0131866
933.427	0.0133003
933.505	0.0133007
933.583	0.0132107
933.661	0.0131130
933.739	0.0131461
933.818	0.0130962
933.896	0.0131671
933.974	0.0133062
934.052	0.0131220
934.130	0.0131618
934.208	0.0133231
934.286	0.0132536
934.364	0.0132025
934.443	0.0132162
934.521	0.0133207
934.599	0.0133998
934.677	0.0131436
934.755	0.0131885
934.833	0.0133803
934.911	0.0133759
934.989	0.0134110
935.068	0.0135619
935.146	0.0134640
935.224	0.0134864
935.302	0.0133920
935.380	0.0135408
935.458	0.0136855
935.536	0.0135835
935.614	0.0135455
935.693	0.0134258
935.771	0.0137003
935.849	0.0136085
935.927	0.0135583
936.005	0.0136320
936.083	0.0135925
936.161	0.0135558
936.239	0.0136213
936.318	0.0135875
936.396	0.0135426
936.474	0.0135716
936.552	0.0134415
936.630	0.0134048
936.708	0.0134673
936.786	0.0134239
936.864	0.0135493
936.943	0.0133031
937.021	0.0133435
937.099	0.0132350
937.177	0.0132087
937.255	0.0131878
937.333	0.0131778
937.411	0.0132053
937.489	0.0131295
937.568	0.0131906
937.646	0.0129929
937.724	0.0130329
937.802	0.0131488
937.880	0.0130060
937.958	0.0128964
938.036	0.0130519
938.114	0.0129848
938.193	0.0133087
938.271	0.0132246
938.349	0.0132755
938.427	0.0132755
938.505	0.0132893
938.583	0.0131664
938.661	0.0132473
938.739	0.0132903
938.818	0.0132275
938.896	0.0133548
938.974	0.0134515
939.052	0.0133732
939.130	0.0133975
939.208	0.0133582
939.286	0.0134878
939.364	0.0135075
939.443	0.0133753
939.521	0.0135908
939.599	0.0135947
939.677	0.0137076
939.755	0.0136140
939.833	0.0136096
939.911	0.0135758
939.989	0.0136167
940.068	0.0134897
940.146	0.0136220
940.224	0.0135417
940.302	0.0134162
940.380	0.0136360
940.458	0.0135185
940.536	0.0134614
940.614	0.0134613
940.693	0.0135046
940.771	0.0135076
940.849	0.0133959
940.927	0.0132141
941.005	0.0133159
941.083	0.0132771
941.161	0.0133847
941.239	0.0132210
941.318	0.0132156
941.396	0.0132629
941.474	0.0131564
941.552	0.0132738
941.630	0.0131982
941.708	0.0131676
941.786	0.0132530
941.864	0.0132156
941.943	0.0130830
942.021	0.0131972
942.099	0.0132500
942.177	0.0131606
942.255	0.0131565
942.333	0.0132382
942.411	0.0131593
942.489	0.0132416
942.568	0.0132935
942.646	0.0130416
942.724	0.0131929
942.802	0.0131465
942.880	0.0132147
942.958	0.0131973
943.036	0.0132326
943.114	0.0132449
943.193	0.0130888
943.271	0.0133303
943.349	0.0133242
943.427	0.0132798
943.505	0.0132871
943.583	0.0133350
943.661	0.0132549
943.739	0.0132304
943.818	0.0133289
943.896	0.0133661
943.974	0.0134106
944.052	0.0133643
944.130	0.0133560
944.208	0.0134222
944.286	0.0132971
944.364	0.0133390
944.443	0.0134505
944.521	0.0134301
944.599	0.0135775
944.677	0.0134361
944.755	0.0135273
944.833	0.0134325
944.911	0.0133907
944.989	0.0134576
945.068	0.0134214
945.146	0.0135202
945.224	0.0133543
945.302	0.0134942
945.380	0.0133781
945.458	0.0133556
945.536	0.0134886
945.614	0.0133920
945.693	0.0133240
945.771	0.0133681
945.849	0.0132600
945.927	0.0134179
946.005	0.0132850
946.083	0.0133138
946.161	0.0133044
946.239	0.0132753
946.318	0.0134505
946.396	0.0132748
946.474	0.0132219
946.552	0.0133268
946.630	0.0133333
946.708	0.0132177
946.786	0.0132584
946.864	0.0132672
946.943	0.0131526
947.021	0.0132150
947.099	0.0132322
947.177	0.0131610
947.255	0.0133770
947.333	0.0133533
947.411	0.0131976
947.489	0.0132537
947.568	0.0132468
947.646	0.0132507
947.724	0.0134331
947.802	0.0133966
947.880	0.0133535
947.958	0.0133851
948.036	0.0134153
948.114	0.0134468
948.193	0.0135024
948.271	0.0134673
948.349	0.0136546
948.427	0.0135633
948.505	0.0136191
948.583	0.0135978
948.661	0.0134811
948.739	0.0133192
948.818	0.0135104
948.896	0.0134746
948.974	0.0134322
949.052	0.0133905
949.130	0.0134601
949.208	0.0134164
949.286	0.0133943
949.364	0.0133378
949.443	0.0132314
949.521	0.0133086
949.599	0.0133265
949.677	0.0132013
949.755	0.0132578
949.833	0.0131776
949.911	0.0133047
949.989	0.0133145
950.068	0.0132632
950.146	0.0131018
950.224	0.0131611
950.302	0.0131342
950.380	0.0132436
950.458	0.0131296
950.536	0.0130158
950.614	0.0132119
950.693	0.0132272
950.771	0.0130847
950.849	0.0132522
950.927	0.0133846
951.005	0.0132613
951.083	0.0132578
951.161	0.0132935
951.239	0.0133232
951.318	0.0132874
951.396	0.0134087
951.474	0.0133900
951.552	0.0134251
951.630	0.0133676
951.708	0.0134834
951.786	0.0133712
951.864	0.0133624
951.943	0.0134431
952.021	0.0132819
952.099	0.0134620
952.177	0.0134875
952.255	0.0134673
952.333	0.0134261
952.411	0.0134412
952.489	0.0135450
952.568	0.0135974
952.646	0.0135157
952.724	0.0134171
952.802	0.0133867
952.880	0.0134237
952.958	0.0135104
953.036	0.0133934
953.114	0.0134069
953.193	0.0132528
953.271	0.0133668
953.349	0.0132593
953.427	0.0130878
953.505	0.0131493
953.583	0.0133000
953.661	0.0132571
953.739	0.0130923
953.818	0.0131013
953.896	0.0131389
953.974	0.0131844
954.052	0.0133055
954.130	0.0133109
954.208	0.0132201
954.286	0.0132701
954.364	0.0132779
954.443	0.0133147
954.521	0.0133290
954.599	0.0134286
954.677	0.0134550
954.755	0.0133463
954.833	0.0133780
954.911	0.0133760
954.989	0.0133616
955.068	0.0134151
955.146	0.0133498
955.224	0.0135321
955.302	0.0134150
955.380	0.0134338
955.458	0.0134225
955.536	0.0133924
955.614	0.0133661
955.693	0.0134586
955.771	0.0133263
955.849	0.0132497
955.927	0.0134299
956.005	0.0133447
956.083	0.0134824
956.161	0.0133286
956.239	0.0133335
956.318	0.0133961
956.396	0.0134583
956.474	0.0132797
956.552	0.0132717
956.630	0.0131698
956.708	0.0134288
956.786	0.0133836
956.864	0.0132645
956.943	0.0132957
957.021	0.0132336
957.099	0.0132600
957.177	0.0133419
957.255	0.0131769
957.333	0.0132914
957.411	0.0131844
957.489	0.0132792
957.568	0.0133531
957.646	0.0131931
957.724	0.0131350
957.802	0.0132215
957.880	0.0131650
957.958	0.0130842
958.036	0.0132101
958.114	0.0132551
958.193	0.0131641
958.271	0.0132556
958.349	0.0131670
958.427	0.0132064
958.505	0.0131428
958.583	0.0131844
958.661	0.0133200
958.739	0.0132455
958.818	0.0132697
958.896	0.0134308
958.974	0.0134241
959.052	0.0133661
959.130	0.0133492
959.208	0.0133823
959.286	0.0133456
959.364	0.0134448
959.443	0.0134145
959.521	0.0130322
959.599	0.0133901
959.677	0.0133128
959.755	0.0132747
959.833	0.0133437
959.911	0.0133051
