05/14/2022	16:41:52	Ver.	4.1	UNKNOWN
Optical Delay	639.989416	Delta X		0.078125	Sweeps	1	Scan Rate	0/0
Coordinates	Axis 1	NaN	Axis 2	NaN	Axis 3	NaN	Axis 4	NaN	Axis 5	NaN	Axis 6	0.000000
TX Power	0.000000	RX Power	0.000000

639.989	0.0138980
640.068	0.0139402
640.146	0.0139555
640.224	0.0139381
640.302	0.0138618
640.380	0.0137823
640.458	0.0138570
640.536	0.0138228
640.614	0.0139001
640.693	0.0137313
640.771	0.0137634
640.849	0.0138150
640.927	0.0137395
641.005	0.0138651
641.083	0.0137466
641.161	0.0138203
641.239	0.0139737
641.318	0.0138235
641.396	0.0138544
641.474	0.0138465
641.552	0.0139242
641.630	0.0137660
641.708	0.0138387
641.786	0.0137546
641.864	0.0138675
641.943	0.0138827
642.021	0.0138050
642.099	0.0138089
642.177	0.0137265
642.255	0.0138525
642.333	0.0138593
642.411	0.0138433
642.489	0.0139046
642.568	0.0139729
642.646	0.0138703
642.724	0.0137355
642.802	0.0138647
642.880	0.0139216
642.958	0.0139460
643.036	0.0138587
643.114	0.0138961
643.193	0.0139677
643.271	0.0138463
643.349	0.0139672
643.427	0.0138984
643.505	0.0138184
643.583	0.0137820
643.661	0.0137963
643.739	0.0138880
643.818	0.0138836
643.896	0.0137923
643.974	0.0138828
644.052	0.0138702
644.130	0.0138229
644.208	0.0137674
644.286	0.0137229
644.364	0.0137588
644.443	0.0139722
644.521	0.0138969
644.599	0.0137938
644.677	0.0139819
644.755	0.0138361
644.833	0.0139223
644.911	0.0137897
644.989	0.0138064
645.068	0.0138499
645.146	0.0138644
645.224	0.0136677
645.302	0.0137882
645.380	0.0138959
645.458	0.0137360
645.536	0.0139896
645.614	0.0138575
645.693	0.0139049
645.771	0.0138496
645.849	0.0138523
645.927	0.0139603
646.005	0.0139484
646.083	0.0138122
646.161	0.0140047
646.239	0.0138680
646.318	0.0137963
646.396	0.0138712
646.474	0.0138251
646.552	0.0139643
646.630	0.0140186
646.708	0.0138526
646.786	0.0138515
646.864	0.0138542
646.943	0.0138914
647.021	0.0137379
647.099	0.0138161
647.177	0.0138150
647.255	0.0138204
647.333	0.0139044
647.411	0.0140100
647.489	0.0138640
647.568	0.0138607
647.646	0.0138141
647.724	0.0139293
647.802	0.0138940
647.880	0.0138044
647.958	0.0139848
648.036	0.0139519
648.114	0.0139513
648.193	0.0138090
648.271	0.0138409
648.349	0.0139955
648.427	0.0138828
648.505	0.0137318
648.583	0.0139124
648.661	0.0139492
648.739	0.0138001
648.818	0.0137116
648.896	0.0139001
648.974	0.0139110
649.052	0.0139624
649.130	0.0138869
649.208	0.0139268
649.286	0.0140444
649.364	0.0139329
649.443	0.0139038
649.521	0.0138654
649.599	0.0137969
649.677	0.0138705
649.755	0.0141608
649.833	0.0138902
649.911	0.0139122
649.989	0.0139761
650.068	0.0140632
650.146	0.0140944
650.224	0.0139575
650.302	0.0140302
650.380	0.0139508
650.458	0.0139629
650.536	0.0139474
650.614	0.0139310
650.693	0.0139182
650.771	0.0140137
650.849	0.0139593
650.927	0.0140438
651.005	0.0139171
651.083	0.0138564
651.161	0.0139392
651.239	0.0139694
651.318	0.0140586
651.396	0.0138732
651.474	0.0138979
651.552	0.0139934
651.630	0.0138061
651.708	0.0138477
651.786	0.0137674
651.864	0.0139127
651.943	0.0140128
652.021	0.0139572
652.099	0.0139542
652.177	0.0138858
652.255	0.0139178
652.333	0.0138008
652.411	0.0139133
652.489	0.0140425
652.568	0.0139902
652.646	0.0139960
652.724	0.0140858
652.802	0.0140794
652.880	0.0139022
652.958	0.0140552
653.036	0.0138889
653.114	0.0140578
653.193	0.0140453
653.271	0.0141045
653.349	0.0140130
653.427	0.0139028
653.505	0.0138885
653.583	0.0139576
653.661	0.0138942
653.739	0.0139097
653.818	0.0139085
653.896	0.0139496
653.974	0.0138883
654.052	0.0138995
654.130	0.0138818
654.208	0.0139418
654.286	0.0139393
654.364	0.0138888
654.443	0.0139718
654.521	0.0138437
654.599	0.0138089
654.677	0.0139101
654.755	0.0139286
654.833	0.0138455
654.911	0.0139157
654.989	0.0138260
655.068	0.0137840
655.146	0.0138594
655.224	0.0138649
655.302	0.0139524
655.380	0.0138837
655.458	0.0138391
655.536	0.0138149
655.614	0.0138927
655.693	0.0139381
655.771	0.0138014
655.849	0.0138114
655.927	0.0137862
656.005	0.0138490
656.083	0.0138721
656.161	0.0139317
656.239	0.0138630
656.318	0.0138198
656.396	0.0138298
656.474	0.0138393
656.552	0.0137808
656.630	0.0137363
656.708	0.0139463
656.786	0.0138741
656.864	0.0138538
656.943	0.0138526
657.021	0.0139298
657.099	0.0138257
657.177	0.0138804
657.255	0.0138956
657.333	0.0137490
657.411	0.0138126
657.489	0.0138818
657.568	0.0140384
657.646	0.0138873
657.724	0.0139325
657.802	0.0139613
657.880	0.0139662
657.958	0.0138252
658.036	0.0138786
658.114	0.0139153
658.193	0.0140114
658.271	0.0137929
658.349	0.0138509
658.427	0.0138326
658.505	0.0138868
658.583	0.0137604
658.661	0.0138993
658.739	0.0138109
658.818	0.0139948
658.896	0.0139498
658.974	0.0138585
659.052	0.0138541
659.130	0.0137881
659.208	0.0138379
659.286	0.0137529
659.364	0.0138671
659.443	0.0139591
659.521	0.0138249
659.599	0.0138287
659.677	0.0138687
659.755	0.0137446
659.833	0.0138798
659.911	0.0139424
659.989	0.0138434
660.068	0.0138236
660.146	0.0138196
660.224	0.0137907
660.302	0.0138565
660.380	0.0137382
660.458	0.0137325
660.536	0.0138187
660.614	0.0138511
660.693	0.0138078
660.771	0.0137836
660.849	0.0139565
660.927	0.0138029
661.005	0.0138184
661.083	0.0137836
661.161	0.0137792
661.239	0.0139015
661.318	0.0138567
661.396	0.0137910
661.474	0.0138084
661.552	0.0138920
661.630	0.0138662
661.708	0.0139338
661.786	0.0138678
661.864	0.0137466
661.943	0.0137293
662.021	0.0137977
662.099	0.0138309
662.177	0.0138634
662.255	0.0137291
662.333	0.0138046
662.411	0.0137389
662.489	0.0137633
662.568	0.0137788
662.646	0.0139075
662.724	0.0136754
662.802	0.0137391
662.880	0.0137262
662.958	0.0138116
663.036	0.0137801
663.114	0.0138760
663.193	0.0138386
663.271	0.0140122
663.349	0.0137498
663.427	0.0137677
663.505	0.0138205
663.583	0.0137968
663.661	0.0138649
663.739	0.0137425
663.818	0.0138183
663.896	0.0138140
663.974	0.0137570
664.052	0.0138441
664.130	0.0137919
664.208	0.0139812
664.286	0.0139836
664.364	0.0136687
664.443	0.0138239
664.521	0.0138628
664.599	0.0136721
664.677	0.0138683
664.755	0.0137744
664.833	0.0138349
664.911	0.0138598
664.989	0.0137553
665.068	0.0138848
665.146	0.0139278
665.224	0.0138808
665.302	0.0139378
665.380	0.0138988
665.458	0.0136872
665.536	0.0137936
665.614	0.0137605
665.693	0.0137841
665.771	0.0138773
665.849	0.0138097
665.927	0.0137661
666.005	0.0137563
666.083	0.0137736
666.161	0.0137086
666.239	0.0137492
666.318	0.0138261
666.396	0.0139076
666.474	0.0138002
666.552	0.0137527
666.630	0.0138135
666.708	0.0139452
666.786	0.0137871
666.864	0.0137969
666.943	0.0138885
667.021	0.0138605
667.099	0.0138731
667.177	0.0137889
667.255	0.0139062
667.333	0.0138621
667.411	0.0139443
667.489	0.0138605
667.568	0.0138860
667.646	0.0138127
667.724	0.0138120
667.802	0.0138583
667.880	0.0136829
667.958	0.0136848
668.036	0.0137306
668.114	0.0137623
668.193	0.0136430
668.271	0.0137550
668.349	0.0138109
668.427	0.0137212
668.505	0.0138248
668.583	0.0137696
668.661	0.0137580
668.739	0.0138906
668.818	0.0137616
668.896	0.0138783
668.974	0.0139028
669.052	0.0140000
669.130	0.0140352
669.208	0.0139157
669.286	0.0140395
669.364	0.0140340
669.443	0.0140390
669.521	0.0139020
669.599	0.0138586
669.677	0.0140398
669.755	0.0140484
669.833	0.0139628
669.911	0.0138538
669.989	0.0137510
670.068	0.0138164
670.146	0.0137191
670.224	0.0138126
670.302	0.0138361
670.380	0.0138728
670.458	0.0137363
670.536	0.0136475
670.614	0.0137021
670.693	0.0138585
670.771	0.0138860
670.849	0.0136833
670.927	0.0137897
671.005	0.0137829
671.083	0.0140022
671.161	0.0140343
671.239	0.0139619
671.318	0.0140423
671.396	0.0141020
671.474	0.0139183
671.552	0.0139513
671.630	0.0139964
671.708	0.0140987
671.786	0.0139294
671.864	0.0137592
671.943	0.0138565
672.021	0.0137747
672.099	0.0137370
672.177	0.0135432
672.255	0.0135246
672.333	0.0135085
672.411	0.0135375
672.489	0.0136002
672.568	0.0135694
672.646	0.0135551
672.724	0.0135578
672.802	0.0137432
672.880	0.0137894
672.958	0.0139079
673.036	0.0139552
673.114	0.0141807
673.193	0.0142172
673.271	0.0141636
673.349	0.0144380
673.427	0.0144883
673.505	0.0145855
673.583	0.0146749
673.661	0.0147440
673.739	0.0147052
673.818	0.0146574
673.896	0.0146117
673.974	0.0147302
674.052	0.0144823
674.130	0.0144166
674.208	0.0142469
674.286	0.0142774
674.364	0.0141868
674.443	0.0139650
674.521	0.0135928
674.599	0.0134722
674.677	0.0134718
674.755	0.0133045
674.833	0.0130430
674.911	0.0129971
674.989	0.0128757
675.068	0.0127790
675.146	0.0126894
675.224	0.0125700
675.302	0.0127618
675.380	0.0126826
675.458	0.0127718
675.536	0.0127871
675.614	0.0128753
675.693	0.0131106
675.771	0.0134096
675.849	0.0135751
675.927	0.0137319
676.005	0.0137484
676.083	0.0138929
676.161	0.0143626
676.239	0.0143933
676.318	0.0147164
676.396	0.0147890
676.474	0.0150615
676.552	0.0151647
676.630	0.0152563
676.708	0.0154434
676.786	0.0155126
676.864	0.0154144
676.943	0.0154314
677.021	0.0154136
677.099	0.0153609
677.177	0.0151225
677.255	0.0150467
677.333	0.0148637
677.411	0.0147653
677.489	0.0145635
677.568	0.0141689
677.646	0.0140172
677.724	0.0136989
677.802	0.0133694
677.880	0.0131338
677.958	0.0127617
678.036	0.0126392
678.114	0.0125209
678.193	0.0123595
678.271	0.0122185
678.349	0.0120094
678.427	0.0119814
678.505	0.0118137
678.583	0.0117014
678.661	0.0117633
678.739	0.0119263
678.818	0.0119534
678.896	0.0120143
678.974	0.0121387
679.052	0.0122543
679.130	0.0123531
679.208	0.0125952
679.286	0.0125962
679.364	0.0128990
679.443	0.0130794
679.521	0.0132958
679.599	0.0135619
679.677	0.0137759
679.755	0.0140686
679.833	0.0143041
679.911	0.0144904
679.989	0.0148357
680.068	0.0150722
680.146	0.0152751
680.224	0.0156063
680.302	0.0158324
680.380	0.0160121
680.458	0.0161224
680.536	0.0164780
680.614	0.0166501
680.693	0.0166231
680.771	0.0165250
680.849	0.0165382
680.927	0.0165815
681.005	0.0164378
681.083	0.0161777
681.161	0.0160070
681.239	0.0156900
681.318	0.0153106
681.396	0.0150571
681.474	0.0145990
681.552	0.0142191
681.630	0.0138609
681.708	0.0133812
681.786	0.0130727
681.864	0.0124784
681.943	0.0119437
682.021	0.0117356
682.099	0.0113386
682.177	0.0109515
682.255	0.0105968
682.333	0.0102457
682.411	0.0100099
682.489	0.00998627
682.568	0.00992401
682.646	0.00998940
682.724	0.0100443
682.802	0.0102706
682.880	0.0103030
682.958	0.0105658
683.036	0.0110242
683.114	0.0114787
683.193	0.0119282
683.271	0.0122747
683.349	0.0129144
683.427	0.0133424
683.505	0.0135789
683.583	0.0143233
683.661	0.0148375
683.739	0.0153439
683.818	0.0158268
683.896	0.0162251
683.974	0.0165248
684.052	0.0169868
684.130	0.0173009
684.208	0.0174590
684.286	0.0176403
684.364	0.0179213
684.443	0.0179321
684.521	0.0178179
684.599	0.0178699
684.677	0.0177538
684.755	0.0175278
684.833	0.0171144
684.911	0.0168354
684.989	0.0165729
685.068	0.0160387
685.146	0.0158065
685.224	0.0151322
685.302	0.0147469
685.380	0.0143817
685.458	0.0138215
685.536	0.0133714
685.614	0.0129103
685.693	0.0125222
685.771	0.0121584
685.849	0.0118449
685.927	0.0116042
686.005	0.0113025
686.083	0.0109127
686.161	0.0109242
686.239	0.0106071
686.318	0.0105577
686.396	0.0104651
686.474	0.0103738
686.552	0.0103540
686.630	0.0103635
686.708	0.0105946
686.786	0.0106474
686.864	0.0107912
686.943	0.0110559
687.021	0.0114292
687.099	0.0115684
687.177	0.0118169
687.255	0.0121726
687.333	0.0126024
687.411	0.0127792
687.489	0.0132321
687.568	0.0135712
687.646	0.0140337
687.724	0.0143445
687.802	0.0147559
687.880	0.0150153
687.958	0.0152767
688.036	0.0156033
688.114	0.0159864
688.193	0.0162282
688.271	0.0162102
688.349	0.0165030
688.427	0.0166460
688.505	0.0168696
688.583	0.0166458
688.661	0.0167550
688.739	0.0166471
688.818	0.0167090
688.896	0.0166622
688.974	0.0166512
689.052	0.0163060
689.130	0.0162161
689.208	0.0158359
689.286	0.0157451
689.364	0.0154449
689.443	0.0151883
689.521	0.0148275
689.599	0.0145512
689.677	0.0140591
689.755	0.0138536
689.833	0.0135144
689.911	0.0132516
689.989	0.0131232
690.068	0.0130082
690.146	0.0127370
690.224	0.0125212
690.302	0.0124323
690.380	0.0122357
690.458	0.0121459
690.536	0.0120369
690.614	0.0119406
690.693	0.0118205
690.771	0.0117083
690.849	0.0118271
690.927	0.0118266
691.005	0.0118565
691.083	0.0118230
691.161	0.0118089
691.239	0.0119415
691.318	0.0121361
691.396	0.0121679
691.474	0.0122594
691.552	0.0124409
691.630	0.0127153
691.708	0.0128618
691.786	0.0128570
691.864	0.0132023
691.943	0.0133315
692.021	0.0135572
692.099	0.0137793
692.177	0.0139908
692.255	0.0142179
692.333	0.0142629
692.411	0.0144140
692.489	0.0147420
692.568	0.0148024
692.646	0.0146979
692.724	0.0150007
692.802	0.0149306
692.880	0.0147984
692.958	0.0149622
693.036	0.0149412
693.114	0.0149364
693.193	0.0149557
693.271	0.0148181
693.349	0.0148248
693.427	0.0147220
693.505	0.0145878
693.583	0.0146136
693.661	0.0146191
693.739	0.0144472
693.818	0.0144141
693.896	0.0144512
693.974	0.0143326
694.052	0.0143796
694.130	0.0144062
694.208	0.0141753
694.286	0.0139939
694.364	0.0139602
694.443	0.0141294
694.521	0.0139446
694.599	0.0139725
694.677	0.0140048
694.755	0.0139114
694.833	0.0140164
694.911	0.0139850
694.989	0.0138941
695.068	0.0140265
695.146	0.0139674
695.224	0.0139851
695.302	0.0139742
695.380	0.0140264
695.458	0.0141386
695.536	0.0140823
695.614	0.0140386
695.693	0.0140577
695.771	0.0140327
695.849	0.0139806
695.927	0.0139874
696.005	0.0139523
696.083	0.0138449
696.161	0.0137369
696.239	0.0137574
696.318	0.0136294
696.396	0.0136226
696.474	0.0133754
696.552	0.0132431
696.630	0.0132082
696.708	0.0128817
696.786	0.0127745
696.864	0.0126618
696.943	0.0126080
697.021	0.0124770
697.099	0.0122321
697.177	0.0121469
697.255	0.0121861
697.333	0.0121998
697.411	0.0121508
697.489	0.0121823
697.568	0.0121479
697.646	0.0123315
697.724	0.0125553
697.802	0.0126614
697.880	0.0128625
697.958	0.0130459
698.036	0.0133190
698.114	0.0135661
698.193	0.0138132
698.271	0.0141721
698.349	0.0143874
698.427	0.0145862
698.505	0.0146759
698.583	0.0149113
698.661	0.0151059
698.739	0.0152909
698.818	0.0153363
698.896	0.0154190
698.974	0.0154818
699.052	0.0154553
699.130	0.0152589
699.208	0.0151849
699.286	0.0153675
699.364	0.0154359
699.443	0.0152615
699.521	0.0152090
699.599	0.0151342
699.677	0.0149506
699.755	0.0146894
699.833	0.0146942
699.911	0.0146001
699.989	0.0144256
700.068	0.0142754
700.146	0.0140983
700.224	0.0140305
700.302	0.0139772
700.380	0.0136759
700.458	0.0137444
700.536	0.0136087
700.614	0.0136097
700.693	0.0135400
700.771	0.0135384
700.849	0.0136131
700.927	0.0136945
701.005	0.0135474
701.083	0.0136406
701.161	0.0136938
701.239	0.0136633
701.318	0.0135857
701.396	0.0136308
701.474	0.0136873
701.552	0.0136002
701.630	0.0134919
701.708	0.0134428
701.786	0.0133790
701.864	0.0133511
701.943	0.0132310
702.021	0.0130842
702.099	0.0129352
702.177	0.0127454
702.255	0.0126514
702.333	0.0124776
702.411	0.0124084
702.489	0.0122134
702.568	0.0120602
702.646	0.0118884
702.724	0.0118791
702.802	0.0118047
702.880	0.0117203
702.958	0.0118871
703.036	0.0118742
703.114	0.0120267
703.193	0.0121571
703.271	0.0122405
703.349	0.0125055
703.427	0.0128932
703.505	0.0129878
703.583	0.0132151
703.661	0.0136932
703.739	0.0138900
703.818	0.0141587
703.896	0.0143169
703.974	0.0145614
704.052	0.0147481
704.130	0.0147832
704.208	0.0148735
704.286	0.0151585
704.364	0.0150458
704.443	0.0151844
704.521	0.0152752
704.599	0.0152618
704.677	0.0152947
704.755	0.0153510
704.833	0.0153368
704.911	0.0153393
704.989	0.0152708
705.068	0.0154292
705.146	0.0153071
705.224	0.0154145
705.302	0.0152828
705.380	0.0153363
705.458	0.0154447
705.536	0.0152738
705.614	0.0151385
705.693	0.0153291
705.771	0.0152484
705.849	0.0151895
705.927	0.0150701
706.005	0.0148385
706.083	0.0147790
706.161	0.0147478
706.239	0.0144855
706.318	0.0143988
706.396	0.0140970
706.474	0.0139803
706.552	0.0138815
706.630	0.0136637
706.708	0.0132669
706.786	0.0130873
706.864	0.0128629
706.943	0.0125784
707.021	0.0122508
707.099	0.0119957
707.177	0.0118845
707.255	0.0115126
707.333	0.0114147
707.411	0.0111370
707.489	0.0110408
707.568	0.0107525
707.646	0.0106653
707.724	0.0106775
707.802	0.0107083
707.880	0.0107410
707.958	0.0108577
708.036	0.0109585
708.114	0.0111613
708.193	0.0112580
708.271	0.0116187
708.349	0.0119370
708.427	0.0122774
708.505	0.0125275
708.583	0.0129539
708.661	0.0133215
708.739	0.0138177
708.818	0.0142673
708.896	0.0146891
708.974	0.0149959
709.052	0.0153464
709.130	0.0157508
709.208	0.0161799
709.286	0.0163816
709.364	0.0164534
709.443	0.0166793
709.521	0.0167762
709.599	0.0169662
709.677	0.0169255
709.755	0.0166696
709.833	0.0165312
709.911	0.0165440
709.989	0.0163225
710.068	0.0160621
710.146	0.0157736
710.224	0.0155154
710.302	0.0153569
710.380	0.0151637
710.458	0.0147736
710.536	0.0145343
710.614	0.0142682
710.693	0.0140440
710.771	0.0139333
710.849	0.0136240
710.927	0.0133980
711.005	0.0134148
711.083	0.0132510
711.161	0.0132191
711.239	0.0132047
711.318	0.0131670
711.396	0.0132252
711.474	0.0133759
711.552	0.0132632
711.630	0.0132674
711.708	0.0135540
711.786	0.0136034
711.864	0.0136480
711.943	0.0136977
712.021	0.0137445
712.099	0.0137868
712.177	0.0137966
712.255	0.0137688
712.333	0.0135780
712.411	0.0136759
712.489	0.0134667
712.568	0.0135206
712.646	0.0133913
712.724	0.0133585
712.802	0.0131199
712.880	0.0131218
712.958	0.0131338
713.036	0.0130090
713.114	0.0129564
713.193	0.0129337
713.271	0.0129429
713.349	0.0129844
713.427	0.0130125
713.505	0.0127974
713.583	0.0129771
713.661	0.0129068
713.739	0.0129979
713.818	0.0129090
713.896	0.0129646
713.974	0.0129134
714.052	0.0131647
714.130	0.0133258
714.208	0.0132889
714.286	0.0134870
714.364	0.0134472
714.443	0.0136390
714.521	0.0137594
714.599	0.0139146
714.677	0.0142407
714.755	0.0144737
714.833	0.0143523
714.911	0.0145022
714.989	0.0145192
715.068	0.0147563
715.146	0.0148513
715.224	0.0148160
715.302	0.0147534
715.380	0.0148240
715.458	0.0148781
715.536	0.0148882
715.614	0.0147330
715.693	0.0146526
715.771	0.0146676
715.849	0.0147588
715.927	0.0145649
716.005	0.0143898
716.083	0.0144936
716.161	0.0144948
716.239	0.0143525
716.318	0.0145612
716.396	0.0146576
716.474	0.0146696
716.552	0.0148379
716.630	0.0147784
716.708	0.0149665
716.786	0.0150617
716.864	0.0149772
716.943	0.0150961
717.021	0.0150475
717.099	0.0150423
717.177	0.0149661
717.255	0.0149610
717.333	0.0148896
717.411	0.0145039
717.489	0.0144411
717.568	0.0141966
717.646	0.0138988
717.724	0.0135728
717.802	0.0130912
717.880	0.0127661
717.958	0.0125041
718.036	0.0121881
718.114	0.0119328
718.193	0.0115939
718.271	0.0113808
718.349	0.0114449
718.427	0.0112458
718.505	0.0113660
718.583	0.0113055
718.661	0.0114117
718.739	0.0115963
718.818	0.0116539
718.896	0.0117760
718.974	0.0121461
719.052	0.0123690
719.130	0.0125070
719.208	0.0128906
719.286	0.0130596
719.364	0.0134999
719.443	0.0136885
719.521	0.0140705
719.599	0.0143940
719.677	0.0145669
719.755	0.0148273
719.833	0.0148486
719.911	0.0151312
719.989	0.0152781
720.068	0.0152899
720.146	0.0151825
720.224	0.0152713
720.302	0.0151129
720.380	0.0152517
720.458	0.0150840
720.536	0.0150086
720.614	0.0148540
720.693	0.0147113
720.771	0.0147263
720.849	0.0146149
720.927	0.0146464
721.005	0.0145567
721.083	0.0144465
721.161	0.0143594
721.239	0.0143479
721.318	0.0142569
721.396	0.0142567
721.474	0.0142495
721.552	0.0141191
721.630	0.0143319
721.708	0.0141101
721.786	0.0142371
721.864	0.0141525
721.943	0.0142000
722.021	0.0141082
722.099	0.0141489
722.177	0.0141900
722.255	0.0140694
722.333	0.0141270
722.411	0.0141014
722.489	0.0140306
722.568	0.0138443
722.646	0.0139369
722.724	0.0137018
722.802	0.0136922
722.880	0.0134592
722.958	0.0134412
723.036	0.0132751
723.114	0.0130473
723.193	0.0128957
723.271	0.0129413
723.349	0.0129296
723.427	0.0126966
723.505	0.0126852
723.583	0.0127495
723.661	0.0125144
723.739	0.0123837
723.818	0.0124984
723.896	0.0124701
723.974	0.0124140
724.052	0.0126276
724.130	0.0126273
724.208	0.0127318
724.286	0.0130122
724.364	0.0131145
724.443	0.0131558
724.521	0.0134057
724.599	0.0136447
724.677	0.0137150
724.755	0.0138489
724.833	0.0139933
724.911	0.0139804
724.989	0.0142747
725.068	0.0142892
725.146	0.0143807
725.224	0.0145220
725.302	0.0143477
725.380	0.0144212
725.458	0.0145261
725.536	0.0145592
725.614	0.0145864
725.693	0.0143838
725.771	0.0144451
725.849	0.0143250
725.927	0.0142486
726.005	0.0144334
726.083	0.0142448
726.161	0.0141746
726.239	0.0139820
726.318	0.0139394
726.396	0.0138261
726.474	0.0137395
726.552	0.0138855
726.630	0.0137537
726.708	0.0137212
726.786	0.0136841
726.864	0.0137925
726.943	0.0138206
727.021	0.0139815
727.099	0.0140711
727.177	0.0141679
727.255	0.0143041
727.333	0.0144155
727.411	0.0145145
727.489	0.0145884
727.568	0.0145655
727.646	0.0146848
727.724	0.0146130
727.802	0.0146964
727.880	0.0146208
727.958	0.0143815
728.036	0.0143713
728.114	0.0143464
728.193	0.0140612
728.271	0.0139643
728.349	0.0137084
728.427	0.0135563
728.505	0.0133951
728.583	0.0132838
728.661	0.0132764
728.739	0.0131093
728.818	0.0129415
728.896	0.0128814
728.974	0.0130798
729.052	0.0130864
729.130	0.0130746
729.208	0.0129942
729.286	0.0130833
729.364	0.0132022
729.443	0.0133135
729.521	0.0132896
729.599	0.0133376
729.677	0.0134962
729.755	0.0135014
729.833	0.0136398
729.911	0.0137984
729.989	0.0137678
730.068	0.0139063
730.146	0.0141294
730.224	0.0140984
730.302	0.0140943
730.380	0.0143615
730.458	0.0142719
730.536	0.0143498
730.614	0.0143865
730.693	0.0143565
730.771	0.0143334
730.849	0.0143378
730.927	0.0143074
731.005	0.0144510
731.083	0.0141601
731.161	0.0143338
731.239	0.0143298
731.318	0.0141287
731.396	0.0142234
731.474	0.0141326
731.552	0.0139745
731.630	0.0140437
731.708	0.0140211
731.786	0.0139199
731.864	0.0139523
731.943	0.0139465
732.021	0.0137017
732.099	0.0137597
732.177	0.0138651
732.255	0.0137615
732.333	0.0137966
732.411	0.0137590
732.489	0.0137590
732.568	0.0138363
732.646	0.0136777
732.724	0.0137421
732.802	0.0136297
732.880	0.0137916
732.958	0.0138062
733.036	0.0137114
733.114	0.0139722
733.193	0.0138658
733.271	0.0138713
733.349	0.0138834
733.427	0.0138474
733.505	0.0140955
733.583	0.0140410
733.661	0.0141760
733.739	0.0140817
733.818	0.0140224
733.896	0.0139821
733.974	0.0138675
734.052	0.0139426
734.130	0.0138423
734.208	0.0137534
734.286	0.0136240
734.364	0.0135025
734.443	0.0134557
734.521	0.0135547
734.599	0.0134741
734.677	0.0134341
734.755	0.0135259
734.833	0.0135638
734.911	0.0135066
734.989	0.0136269
735.068	0.0138868
735.146	0.0140037
735.224	0.0140092
735.302	0.0141399
735.380	0.0141943
735.458	0.0142804
735.536	0.0143249
735.614	0.0142679
735.693	0.0143545
735.771	0.0143408
735.849	0.0144597
735.927	0.0144124
736.005	0.0142646
736.083	0.0141167
736.161	0.0142151
736.239	0.0141333
736.318	0.0140905
736.396	0.0140482
736.474	0.0141489
736.552	0.0139937
736.630	0.0140227
736.708	0.0139502
736.786	0.0137951
736.864	0.0138654
736.943	0.0137613
737.021	0.0139676
737.099	0.0138715
737.177	0.0137651
737.255	0.0139934
737.333	0.0139317
737.411	0.0138401
737.489	0.0138861
737.568	0.0138650
737.646	0.0138795
737.724	0.0139466
737.802	0.0138931
737.880	0.0138088
737.958	0.0139070
738.036	0.0137669
738.114	0.0137383
738.193	0.0138819
738.271	0.0136815
738.349	0.0138646
738.427	0.0137585
738.505	0.0137137
738.583	0.0138637
738.661	0.0138090
738.739	0.0138560
738.818	0.0138564
738.896	0.0139661
738.974	0.0139458
739.052	0.0141097
739.130	0.0140059
739.208	0.0141107
739.286	0.0140106
739.364	0.0139466
739.443	0.0140298
739.521	0.0142223
739.599	0.0142754
739.677	0.0142285
739.755	0.0143285
739.833	0.0142496
739.911	0.0143192
739.989	0.0144679
740.068	0.0143446
740.146	0.0143613
740.224	0.0144575
740.302	0.0145175
740.380	0.0143111
740.458	0.0142112
740.536	0.0142426
740.614	0.0141357
740.693	0.0141617
740.771	0.0140851
740.849	0.0138289
740.927	0.0138040
741.005	0.0138632
741.083	0.0138443
741.161	0.0139290
741.239	0.0140125
741.318	0.0136321
741.396	0.0136695
741.474	0.0136673
741.552	0.0137818
741.630	0.0135664
741.708	0.0136632
741.786	0.0134489
741.864	0.0134523
741.943	0.0135586
742.021	0.0134389
742.099	0.0133019
742.177	0.0133866
742.255	0.0133192
742.333	0.0133112
742.411	0.0132241
742.489	0.0132908
742.568	0.0133089
742.646	0.0132839
742.724	0.0132445
742.802	0.0132256
742.880	0.0133720
742.958	0.0134045
743.036	0.0134180
743.114	0.0133320
743.193	0.0135000
743.271	0.0135683
743.349	0.0135223
743.427	0.0136353
743.505	0.0135721
743.583	0.0135505
743.661	0.0139272
743.739	0.0140324
743.818	0.0140400
743.896	0.0140006
743.974	0.0141373
744.052	0.0143117
744.130	0.0141846
744.208	0.0142490
744.286	0.0143555
744.364	0.0143133
744.443	0.0144749
744.521	0.0144464
744.599	0.0143338
744.677	0.0143667
744.755	0.0143472
744.833	0.0143113
744.911	0.0142935
744.989	0.0143652
745.068	0.0143359
745.146	0.0143854
745.224	0.0142677
745.302	0.0142346
745.380	0.0142823
745.458	0.0142107
745.536	0.0142458
745.614	0.0141344
745.693	0.0141412
745.771	0.0140423
745.849	0.0139807
745.927	0.0140244
746.005	0.0140002
746.083	0.0138600
746.161	0.0137864
746.239	0.0136546
746.318	0.0139202
746.396	0.0138979
746.474	0.0137751
746.552	0.0136905
746.630	0.0136397
746.708	0.0137011
746.786	0.0136921
746.864	0.0135068
746.943	0.0136337
747.021	0.0135761
747.099	0.0134454
747.177	0.0135825
747.255	0.0135565
747.333	0.0133713
747.411	0.0134904
747.489	0.0134558
747.568	0.0133801
747.646	0.0133043
747.724	0.0132868
747.802	0.0131820
747.880	0.0133119
747.958	0.0131812
748.036	0.0133677
748.114	0.0132238
748.193	0.0133471
748.271	0.0133474
748.349	0.0132294
748.427	0.0133588
748.505	0.0133808
748.583	0.0135211
748.661	0.0135478
748.739	0.0136919
748.818	0.0135472
748.896	0.0135824
748.974	0.0138013
749.052	0.0137442
749.130	0.0138238
749.208	0.0139310
749.286	0.0138447
749.364	0.0139351
749.443	0.0142077
749.521	0.0141567
749.599	0.0143664
749.677	0.0143318
749.755	0.0143496
749.833	0.0144460
749.911	0.0143713
749.989	0.0144140
750.068	0.0145256
750.146	0.0145869
750.224	0.0146124
750.302	0.0146667
750.380	0.0146548
750.458	0.0147207
750.536	0.0145950
750.614	0.0146075
750.693	0.0146242
750.771	0.0145187
750.849	0.0145303
750.927	0.0144128
751.005	0.0143147
751.083	0.0141946
751.161	0.0140181
751.239	0.0140324
751.318	0.0138081
751.396	0.0137531
751.474	0.0135825
751.552	0.0137037
751.630	0.0134708
751.708	0.0133768
751.786	0.0133174
751.864	0.0133027
751.943	0.0132890
752.021	0.0132336
752.099	0.0133147
752.177	0.0133053
752.255	0.0134563
752.333	0.0134294
752.411	0.0133821
752.489	0.0134116
752.568	0.0134891
752.646	0.0134511
752.724	0.0136076
752.802	0.0136839
752.880	0.0138627
752.958	0.0137298
753.036	0.0136425
753.114	0.0138187
753.193	0.0138984
753.271	0.0138731
753.349	0.0139355
753.427	0.0137222
753.505	0.0136823
753.583	0.0137805
753.661	0.0139544
753.739	0.0137415
753.818	0.0136584
753.896	0.0137388
753.974	0.0138660
754.052	0.0138218
754.130	0.0138572
754.208	0.0137335
754.286	0.0138876
754.364	0.0138287
754.443	0.0137929
754.521	0.0138911
754.599	0.0140663
754.677	0.0140137
754.755	0.0139925
754.833	0.0140770
754.911	0.0141063
754.989	0.0142236
755.068	0.0141206
755.146	0.0142513
755.224	0.0143192
755.302	0.0142824
755.380	0.0142229
755.458	0.0141612
755.536	0.0142824
755.614	0.0142144
755.693	0.0140784
755.771	0.0142406
755.849	0.0141098
755.927	0.0141034
756.005	0.0142699
756.083	0.0142048
756.161	0.0140977
756.239	0.0140980
756.318	0.0141826
756.396	0.0140125
756.474	0.0139689
756.552	0.0138464
756.630	0.0139255
756.708	0.0139844
756.786	0.0139127
756.864	0.0140270
756.943	0.0138744
757.021	0.0139120
757.099	0.0139290
757.177	0.0139966
757.255	0.0140030
757.333	0.0140971
757.411	0.0140337
757.489	0.0140833
757.568	0.0140063
757.646	0.0139687
757.724	0.0138995
757.802	0.0139480
757.880	0.0141074
757.958	0.0141425
758.036	0.0141054
758.114	0.0140142
758.193	0.0139729
758.271	0.0140588
758.349	0.0140700
758.427	0.0141825
758.505	0.0141991
758.583	0.0141821
758.661	0.0141511
758.739	0.0142786
758.818	0.0143147
758.896	0.0142421
758.974	0.0142362
759.052	0.0142165
759.130	0.0144221
759.208	0.0143904
759.286	0.0141981
759.364	0.0141550
759.443	0.0141454
759.521	0.0141901
759.599	0.0141718
759.677	0.0139312
759.755	0.0138123
759.833	0.0138718
759.911	0.0138221
759.989	0.0136970
760.068	0.0136552
760.146	0.0137521
760.224	0.0136788
760.302	0.0135398
760.380	0.0136206
760.458	0.0135218
760.536	0.0135670
760.614	0.0135079
760.693	0.0134867
760.771	0.0134389
760.849	0.0134042
760.927	0.0133926
761.005	0.0134511
761.083	0.0133707
761.161	0.0133720
761.239	0.0135303
761.318	0.0133696
761.396	0.0134148
761.474	0.0135155
761.552	0.0135826
761.630	0.0137253
761.708	0.0136765
761.786	0.0137556
761.864	0.0138252
761.943	0.0138545
762.021	0.0137897
762.099	0.0141145
762.177	0.0140796
762.255	0.0141302
762.333	0.0142079
762.411	0.0140682
762.489	0.0142564
762.568	0.0142952
762.646	0.0141757
762.724	0.0143283
762.802	0.0142535
762.880	0.0142327
762.958	0.0143365
763.036	0.0144144
763.114	0.0144386
763.193	0.0144048
763.271	0.0143140
763.349	0.0143608
763.427	0.0143208
763.505	0.0141442
763.583	0.0141873
763.661	0.0142352
763.739	0.0142017
763.818	0.0140563
763.896	0.0140451
763.974	0.0139732
764.052	0.0138925
764.130	0.0139010
764.208	0.0138313
764.286	0.0136597
764.364	0.0136359
764.443	0.0135091
764.521	0.0136037
764.599	0.0135390
764.677	0.0133704
764.755	0.0132889
764.833	0.0133549
764.911	0.0132201
764.989	0.0133827
765.068	0.0132606
765.146	0.0131726
765.224	0.0131768
765.302	0.0131281
765.380	0.0131078
765.458	0.0130852
765.536	0.0132440
765.614	0.0131512
765.693	0.0133320
765.771	0.0133784
765.849	0.0132581
765.927	0.0133517
766.005	0.0135240
766.083	0.0135132
766.161	0.0134952
766.239	0.0134599
766.318	0.0135182
766.396	0.0134153
766.474	0.0134701
766.552	0.0135034
766.630	0.0138059
766.708	0.0138410
766.786	0.0138924
766.864	0.0136461
766.943	0.0138018
767.021	0.0138765
767.099	0.0139244
767.177	0.0140919
767.255	0.0141708
767.333	0.0140853
767.411	0.0140645
767.489	0.0141164
767.568	0.0141448
767.646	0.0142265
767.724	0.0141721
767.802	0.0142339
767.880	0.0141775
767.958	0.0141631
768.036	0.0141425
768.114	0.0141916
768.193	0.0141181
768.271	0.0141766
768.349	0.0140723
768.427	0.0141267
768.505	0.0138963
768.583	0.0139405
768.661	0.0140239
768.739	0.0140079
768.818	0.0138342
768.896	0.0137910
768.974	0.0137490
769.052	0.0135638
769.130	0.0136201
769.208	0.0136529
769.286	0.0134492
769.364	0.0135364
769.443	0.0135399
769.521	0.0133876
769.599	0.0135253
769.677	0.0134759
769.755	0.0134386
769.833	0.0134451
769.911	0.0134422
769.989	0.0134312
770.068	0.0133152
770.146	0.0136129
770.224	0.0135249
770.302	0.0135806
770.380	0.0135968
770.458	0.0136696
770.536	0.0136635
770.614	0.0138076
770.693	0.0139608
770.771	0.0138042
770.849	0.0138245
770.927	0.0138557
771.005	0.0138895
771.083	0.0138806
771.161	0.0138520
771.239	0.0137852
771.318	0.0138425
771.396	0.0139700
771.474	0.0137525
771.552	0.0140765
771.630	0.0139297
771.708	0.0139526
771.786	0.0140068
771.864	0.0141126
771.943	0.0140731
772.021	0.0140892
772.099	0.0140105
772.177	0.0140652
772.255	0.0140593
772.333	0.0141125
772.411	0.0143090
772.489	0.0142371
772.568	0.0139281
772.646	0.0140496
772.724	0.0141095
772.802	0.0140826
772.880	0.0141264
772.958	0.0141134
773.036	0.0141610
773.114	0.0141528
773.193	0.0141006
773.271	0.0139209
773.349	0.0141855
773.427	0.0140886
773.505	0.0140784
773.583	0.0139336
773.661	0.0139436
773.739	0.0140047
773.818	0.0139719
773.896	0.0138782
773.974	0.0137869
774.052	0.0139157
774.130	0.0138542
774.208	0.0137041
774.286	0.0138512
774.364	0.0136824
774.443	0.0135464
774.521	0.0134520
774.599	0.0135412
774.677	0.0135870
774.755	0.0133831
774.833	0.0133022
774.911	0.0134375
774.989	0.0133479
775.068	0.0133397
775.146	0.0134216
775.224	0.0133163
775.302	0.0133885
775.380	0.0134121
775.458	0.0134251
775.536	0.0135733
775.614	0.0135913
775.693	0.0134692
775.771	0.0136145
775.849	0.0137473
775.927	0.0138361
776.005	0.0138739
776.083	0.0138238
776.161	0.0139530
776.239	0.0140931
776.318	0.0142646
776.396	0.0143161
776.474	0.0144060
776.552	0.0143408
776.630	0.0144456
776.708	0.0147426
776.786	0.0148050
776.864	0.0146259
776.943	0.0147498
777.021	0.0145972
777.099	0.0146477
777.177	0.0146783
777.255	0.0144466
777.333	0.0144808
777.411	0.0144312
777.489	0.0143023
777.568	0.0142281
777.646	0.0141152
777.724	0.0140751
777.802	0.0139159
777.880	0.0140514
777.958	0.0139928
778.036	0.0138737
778.114	0.0138818
778.193	0.0136409
778.271	0.0135626
778.349	0.0136353
778.427	0.0135437
778.505	0.0135229
778.583	0.0135971
778.661	0.0133965
778.739	0.0132982
778.818	0.0133672
778.896	0.0133814
778.974	0.0134919
779.052	0.0134234
779.130	0.0133025
779.208	0.0131734
779.286	0.0132191
779.364	0.0132712
779.443	0.0132643
779.521	0.0134119
779.599	0.0134229
779.677	0.0134181
779.755	0.0133848
779.833	0.0135699
779.911	0.0136940
779.989	0.0136514
780.068	0.0136980
780.146	0.0138683
780.224	0.0139627
780.302	0.0139318
780.380	0.0140669
780.458	0.0141478
780.536	0.0142914
780.614	0.0143237
780.693	0.0145341
780.771	0.0145094
780.849	0.0146356
780.927	0.0146943
781.005	0.0145901
781.083	0.0147257
781.161	0.0146393
781.239	0.0146466
781.318	0.0146868
781.396	0.0147850
781.474	0.0144688
781.552	0.0145516
781.630	0.0145268
781.708	0.0142956
781.786	0.0142140
781.864	0.0141917
781.943	0.0140911
782.021	0.0140717
782.099	0.0140015
782.177	0.0138723
782.255	0.0138419
782.333	0.0137808
782.411	0.0136422
782.489	0.0135638
782.568	0.0135041
782.646	0.0135826
782.724	0.0135137
782.802	0.0135722
782.880	0.0134517
782.958	0.0134282
783.036	0.0134454
783.114	0.0134983
783.193	0.0133105
783.271	0.0131451
783.349	0.0132748
783.427	0.0133683
783.505	0.0133392
783.583	0.0132339
783.661	0.0132606
783.739	0.0134212
783.818	0.0133994
783.896	0.0134753
783.974	0.0133775
784.052	0.0136610
784.130	0.0135696
784.208	0.0136259
784.286	0.0138017
784.364	0.0139562
784.443	0.0139173
784.521	0.0140869
784.599	0.0141647
784.677	0.0141800
784.755	0.0143192
784.833	0.0142152
784.911	0.0143920
784.989	0.0143705
785.068	0.0143012
785.146	0.0143713
785.224	0.0144476
785.302	0.0143754
785.380	0.0144069
785.458	0.0145229
785.536	0.0145321
785.614	0.0145760
785.693	0.0144262
785.771	0.0143481
785.849	0.0143423
785.927	0.0143604
786.005	0.0141890
786.083	0.0141846
786.161	0.0140592
786.239	0.0141135
786.318	0.0139603
786.396	0.0138514
786.474	0.0137505
786.552	0.0136390
786.630	0.0136916
786.708	0.0134486
786.786	0.0133973
786.864	0.0135366
786.943	0.0135587
787.021	0.0134285
787.099	0.0134216
787.177	0.0133214
787.255	0.0132623
787.333	0.0132532
787.411	0.0132829
787.489	0.0132574
787.568	0.0133894
787.646	0.0132610
787.724	0.0131143
787.802	0.0131268
787.880	0.0131353
787.958	0.0133191
788.036	0.0133148
788.114	0.0132957
788.193	0.0133502
788.271	0.0133878
788.349	0.0135132
788.427	0.0134292
788.505	0.0133654
788.583	0.0133606
788.661	0.0134801
788.739	0.0136607
788.818	0.0134271
788.896	0.0136686
788.974	0.0136645
789.052	0.0138107
789.130	0.0138637
789.208	0.0140562
789.286	0.0139572
789.364	0.0140577
789.443	0.0141068
789.521	0.0141773
789.599	0.0143291
789.677	0.0141965
789.755	0.0142515
789.833	0.0143889
789.911	0.0144582
789.989	0.0142798
790.068	0.0142584
790.146	0.0144398
790.224	0.0143890
790.302	0.0142673
790.380	0.0144933
790.458	0.0142926
790.536	0.0142552
790.614	0.0143170
790.693	0.0140939
790.771	0.0141936
790.849	0.0141199
790.927	0.0138660
791.005	0.0140144
791.083	0.0138055
791.161	0.0138617
791.239	0.0138544
791.318	0.0138288
791.396	0.0138138
791.474	0.0137546
791.552	0.0135440
791.630	0.0135693
791.708	0.0134804
791.786	0.0132594
791.864	0.0134226
791.943	0.0133635
792.021	0.0132522
792.099	0.0132430
792.177	0.0132123
792.255	0.0131816
792.333	0.0133286
792.411	0.0131558
792.489	0.0131598
792.568	0.0132364
792.646	0.0133427
792.724	0.0133714
792.802	0.0133163
792.880	0.0132716
792.958	0.0135036
793.036	0.0136723
793.114	0.0133995
793.193	0.0135421
793.271	0.0136924
793.349	0.0136299
793.427	0.0137263
793.505	0.0138366
793.583	0.0138764
793.661	0.0138710
793.739	0.0138637
793.818	0.0138258
793.896	0.0139822
793.974	0.0140353
794.052	0.0140902
794.130	0.0140180
794.208	0.0140661
794.286	0.0140848
794.364	0.0142322
794.443	0.0141440
794.521	0.0141522
794.599	0.0140019
794.677	0.0140719
794.755	0.0139937
794.833	0.0142436
794.911	0.0142071
794.989	0.0140859
795.068	0.0140598
795.146	0.0141116
795.224	0.0140536
795.302	0.0139536
795.380	0.0140589
795.458	0.0140368
795.536	0.0140391
795.614	0.0141474
795.693	0.0139084
795.771	0.0139928
795.849	0.0140742
795.927	0.0140086
796.005	0.0139688
796.083	0.0139956
796.161	0.0139095
796.239	0.0138554
796.318	0.0139362
796.396	0.0138062
796.474	0.0138488
796.552	0.0138812
796.630	0.0137531
796.708	0.0137521
796.786	0.0136484
796.864	0.0136440
796.943	0.0137236
797.021	0.0135809
797.099	0.0136877
797.177	0.0135982
797.255	0.0137878
797.333	0.0138342
797.411	0.0137353
797.489	0.0137656
797.568	0.0137433
797.646	0.0138184
797.724	0.0137912
797.802	0.0138374
797.880	0.0138783
797.958	0.0138541
798.036	0.0138900
798.114	0.0140199
798.193	0.0138510
798.271	0.0138902
798.349	0.0138349
798.427	0.0138956
798.505	0.0139628
798.583	0.0140630
798.661	0.0139090
798.739	0.0138345
798.818	0.0138853
798.896	0.0139729
798.974	0.0137688
799.052	0.0139218
799.130	0.0138033
799.208	0.0136559
799.286	0.0136162
799.364	0.0136916
799.443	0.0136512
799.521	0.0136766
799.599	0.0135246
799.677	0.0136312
799.755	0.0134029
799.833	0.0136020
799.911	0.0136106
799.989	0.0135957
800.068	0.0136557
800.146	0.0136118
800.224	0.0137057
800.302	0.0137783
800.380	0.0137680
800.458	0.0137373
800.536	0.0138551
800.614	0.0138206
800.693	0.0139561
800.771	0.0139378
800.849	0.0139456
800.927	0.0140812
801.005	0.0140329
801.083	0.0142393
801.161	0.0142458
801.239	0.0142281
801.318	0.0143159
801.396	0.0143179
801.474	0.0142991
801.552	0.0143492
801.630	0.0143718
801.708	0.0144715
801.786	0.0143307
801.864	0.0141751
801.943	0.0144872
802.021	0.0143453
802.099	0.0144161
802.177	0.0143997
802.255	0.0144290
802.333	0.0142313
802.411	0.0142056
802.489	0.0141388
802.568	0.0141250
802.646	0.0141350
802.724	0.0140734
802.802	0.0138821
802.880	0.0139054
802.958	0.0137404
803.036	0.0138138
803.114	0.0137820
803.193	0.0138947
803.271	0.0134946
803.349	0.0136225
803.427	0.0134621
803.505	0.0133241
803.583	0.0135161
803.661	0.0133196
803.739	0.0132635
803.818	0.0132891
803.896	0.0131252
803.974	0.0132300
804.052	0.0131880
804.130	0.0132835
804.208	0.0132889
804.286	0.0131985
804.364	0.0133613
804.443	0.0134051
804.521	0.0133978
804.599	0.0134768
804.677	0.0133572
804.755	0.0134262
804.833	0.0135689
804.911	0.0136036
804.989	0.0137775
805.068	0.0138528
805.146	0.0137614
805.224	0.0139109
805.302	0.0141592
805.380	0.0142139
805.458	0.0141709
805.536	0.0140263
805.614	0.0141882
805.693	0.0141138
805.771	0.0141999
805.849	0.0142710
805.927	0.0144068
806.005	0.0142720
806.083	0.0142776
806.161	0.0143996
806.239	0.0143938
806.318	0.0143790
806.396	0.0143804
806.474	0.0144459
806.552	0.0142772
806.630	0.0144363
806.708	0.0144038
806.786	0.0142078
806.864	0.0141340
806.943	0.0142277
807.021	0.0142137
807.099	0.0143673
807.177	0.0142431
807.255	0.0141606
807.333	0.0142622
807.411	0.0141487
807.489	0.0140662
807.568	0.0141298
807.646	0.0141518
807.724	0.0141203
807.802	0.0141159
807.880	0.0141735
807.958	0.0141392
808.036	0.0141003
808.114	0.0140377
808.193	0.0139740
808.271	0.0140977
808.349	0.0139999
808.427	0.0139648
808.505	0.0140230
808.583	0.0137457
808.661	0.0137601
808.739	0.0137992
808.818	0.0136472
808.896	0.0136394
808.974	0.0134528
809.052	0.0134000
809.130	0.0133932
809.208	0.0132880
809.286	0.0132928
809.364	0.0131492
809.443	0.0130807
809.521	0.0130397
809.599	0.0132897
809.677	0.0130324
809.755	0.0130791
809.833	0.0131371
809.911	0.0131551
809.989	0.0132244
810.068	0.0134290
810.146	0.0134869
810.224	0.0135379
810.302	0.0135390
810.380	0.0135740
810.458	0.0136550
810.536	0.0138797
810.614	0.0137946
810.693	0.0138612
810.771	0.0139624
810.849	0.0141013
810.927	0.0140166
811.005	0.0140730
811.083	0.0140816
811.161	0.0142074
811.239	0.0142803
811.318	0.0143520
811.396	0.0142685
811.474	0.0142164
811.552	0.0144073
811.630	0.0143649
811.708	0.0143657
811.786	0.0143700
811.864	0.0142910
811.943	0.0144226
812.021	0.0145043
812.099	0.0143287
812.177	0.0142686
812.255	0.0144344
812.333	0.0142989
812.411	0.0143551
812.489	0.0143253
812.568	0.0144193
812.646	0.0144453
812.724	0.0142622
812.802	0.0143670
812.880	0.0142132
812.958	0.0140984
813.036	0.0141317
813.114	0.0141629
813.193	0.0141660
813.271	0.0140260
813.349	0.0139867
813.427	0.0139912
813.505	0.0137299
813.583	0.0137740
813.661	0.0137695
813.739	0.0136004
813.818	0.0135729
813.896	0.0136057
813.974	0.0136275
814.052	0.0133251
814.130	0.0132737
814.208	0.0135780
814.286	0.0136140
814.364	0.0132085
814.443	0.0132906
814.521	0.0133345
814.599	0.0132848
814.677	0.0134131
814.755	0.0136523
814.833	0.0135350
814.911	0.0135592
814.989	0.0135458
815.068	0.0135957
815.146	0.0138421
815.224	0.0137598
815.302	0.0137113
815.380	0.0139091
815.458	0.0138942
815.536	0.0138737
815.614	0.0139743
815.693	0.0140768
815.771	0.0140622
815.849	0.0141117
815.927	0.0141415
816.005	0.0140838
816.083	0.0139445
816.161	0.0141772
816.239	0.0141779
816.318	0.0142635
816.396	0.0141753
816.474	0.0142262
816.552	0.0141476
816.630	0.0140640
816.708	0.0140321
816.786	0.0140475
816.864	0.0140735
816.943	0.0140678
817.021	0.0140713
817.099	0.0138525
817.177	0.0138683
817.255	0.0138841
817.333	0.0138200
817.411	0.0140770
817.489	0.0137814
817.568	0.0138197
817.646	0.0138451
817.724	0.0138891
817.802	0.0138288
817.880	0.0137251
817.958	0.0138146
818.036	0.0137150
818.114	0.0136814
818.193	0.0138898
818.271	0.0138197
818.349	0.0136939
818.427	0.0138582
818.505	0.0138211
818.583	0.0138330
818.661	0.0137609
818.739	0.0137177
818.818	0.0138345
818.896	0.0139608
818.974	0.0138422
819.052	0.0136965
819.130	0.0135526
819.208	0.0135990
819.286	0.0136949
819.364	0.0135437
819.443	0.0136066
819.521	0.0135193
819.599	0.0133837
819.677	0.0135178
819.755	0.0135192
819.833	0.0134696
819.911	0.0132932
819.989	0.0134105
820.068	0.0133850
820.146	0.0134943
820.224	0.0133754
820.302	0.0134082
820.380	0.0135667
820.458	0.0136636
820.536	0.0135668
820.614	0.0135950
820.693	0.0136136
820.771	0.0136379
820.849	0.0137525
820.927	0.0138142
821.005	0.0138436
821.083	0.0138712
821.161	0.0138084
821.239	0.0138564
821.318	0.0140384
821.396	0.0139117
821.474	0.0139399
821.552	0.0139772
821.630	0.0141708
821.708	0.0140285
821.786	0.0141931
821.864	0.0141869
821.943	0.0140168
822.021	0.0140680
822.099	0.0142048
822.177	0.0141205
822.255	0.0141120
822.333	0.0140658
822.411	0.0141651
822.489	0.0143297
822.568	0.0140465
822.646	0.0140444
822.724	0.0140176
822.802	0.0139451
822.880	0.0141010
822.958	0.0139748
823.036	0.0139149
823.114	0.0137611
823.193	0.0137254
823.271	0.0137476
823.349	0.0137473
823.427	0.0137743
823.505	0.0137827
823.583	0.0136108
823.661	0.0137494
823.739	0.0136790
823.818	0.0135917
823.896	0.0136337
823.974	0.0136522
824.052	0.0137619
824.130	0.0136535
824.208	0.0137463
824.286	0.0136838
824.364	0.0137132
824.443	0.0136701
824.521	0.0136215
824.599	0.0137588
824.677	0.0137695
824.755	0.0138850
824.833	0.0138098
824.911	0.0138158
824.989	0.0137267
825.068	0.0138820
825.146	0.0137017
825.224	0.0137054
825.302	0.0138834
825.380	0.0138979
825.458	0.0137151
825.536	0.0137115
825.614	0.0138801
825.693	0.0140281
825.771	0.0140086
825.849	0.0140002
825.927	0.0140855
826.005	0.0141212
826.083	0.0140550
826.161	0.0140262
826.239	0.0140707
826.318	0.0140690
826.396	0.0142025
826.474	0.0140166
826.552	0.0140808
826.630	0.0140935
826.708	0.0141125
826.786	0.0140705
826.864	0.0140630
826.943	0.0140054
827.021	0.0139906
827.099	0.0140764
827.177	0.0140521
827.255	0.0141825
827.333	0.0141409
827.411	0.0141158
827.489	0.0139766
827.568	0.0139852
827.646	0.0140118
827.724	0.0139230
827.802	0.0139811
827.880	0.0139835
827.958	0.0139059
828.036	0.0140218
828.114	0.0138081
828.193	0.0137583
828.271	0.0137840
828.349	0.0136970
828.427	0.0137885
828.505	0.0137658
828.583	0.0137589
828.661	0.0136840
828.739	0.0136261
828.818	0.0138020
828.896	0.0136263
828.974	0.0137126
829.052	0.0136551
829.130	0.0137350
829.208	0.0138573
829.286	0.0137443
829.364	0.0136826
829.443	0.0137017
829.521	0.0139222
829.599	0.0138448
829.677	0.0136661
829.755	0.0139862
829.833	0.0139868
829.911	0.0138096
829.989	0.0139323
830.068	0.0140344
830.146	0.0139105
830.224	0.0140734
830.302	0.0140950
830.380	0.0141546
830.458	0.0140914
830.536	0.0142914
830.614	0.0143375
830.693	0.0140820
830.771	0.0142901
830.849	0.0142207
830.927	0.0141909
831.005	0.0142760
831.083	0.0141578
831.161	0.0140253
831.239	0.0141503
831.318	0.0140553
831.396	0.0138747
831.474	0.0138655
831.552	0.0138911
831.630	0.0139639
831.708	0.0138753
831.786	0.0138422
831.864	0.0138530
831.943	0.0138540
832.021	0.0137584
832.099	0.0136633
832.177	0.0137082
832.255	0.0136852
832.333	0.0139001
832.411	0.0137210
832.489	0.0139163
832.568	0.0139368
832.646	0.0140215
832.724	0.0140475
832.802	0.0140314
832.880	0.0140965
832.958	0.0140620
833.036	0.0140569
833.114	0.0141901
833.193	0.0142070
833.271	0.0142619
833.349	0.0142386
833.427	0.0143211
833.505	0.0142860
833.583	0.0143591
833.661	0.0143536
833.739	0.0142679
833.818	0.0142110
833.896	0.0141887
833.974	0.0142281
834.052	0.0142334
834.130	0.0140245
834.208	0.0140978
834.286	0.0140881
834.364	0.0140496
834.443	0.0140005
834.521	0.0140739
834.599	0.0139043
834.677	0.0136974
834.755	0.0137894
834.833	0.0137141
834.911	0.0137057
834.989	0.0137303
835.068	0.0137565
835.146	0.0136698
835.224	0.0136128
835.302	0.0136195
835.380	0.0135783
835.458	0.0135399
835.536	0.0135387
835.614	0.0136665
835.693	0.0137592
835.771	0.0137924
835.849	0.0139189
835.927	0.0139963
836.005	0.0139621
836.083	0.0140442
836.161	0.0139938
836.239	0.0141448
836.318	0.0141724
836.396	0.0140520
836.474	0.0142639
836.552	0.0141921
836.630	0.0141420
836.708	0.0142510
836.786	0.0141258
836.864	0.0141331
836.943	0.0140656
837.021	0.0141222
837.099	0.0142550
837.177	0.0139917
837.255	0.0139124
837.333	0.0138981
837.411	0.0140070
837.489	0.0140153
837.568	0.0139880
837.646	0.0139081
837.724	0.0139177
837.802	0.0140217
837.880	0.0140484
837.958	0.0139165
838.036	0.0140001
838.114	0.0141019
838.193	0.0141036
838.271	0.0142114
838.349	0.0139973
838.427	0.0139660
838.505	0.0141124
838.583	0.0142357
838.661	0.0141170
838.739	0.0141321
838.818	0.0139665
838.896	0.0140585
838.974	0.0140293
839.052	0.0141048
839.130	0.0138703
839.208	0.0138422
839.286	0.0138959
839.364	0.0139445
839.443	0.0139783
839.521	0.0138172
839.599	0.0138766
839.677	0.0136852
839.755	0.0136913
839.833	0.0138634
839.911	0.0139092
839.989	0.0137430
840.068	0.0138110
840.146	0.0137309
840.224	0.0137475
840.302	0.0138318
840.380	0.0137990
840.458	0.0138468
840.536	0.0138731
840.614	0.0139940
840.693	0.0138364
840.771	0.0138857
840.849	0.0140097
840.927	0.0139909
841.005	0.0140131
841.083	0.0139418
841.161	0.0140369
841.239	0.0140900
841.318	0.0140159
841.396	0.0139702
841.474	0.0139256
841.552	0.0138717
841.630	0.0139557
841.708	0.0138007
841.786	0.0139004
841.864	0.0137555
841.943	0.0137190
842.021	0.0137826
842.099	0.0136954
842.177	0.0137521
842.255	0.0137518
842.333	0.0135773
842.411	0.0136526
842.489	0.0137446
842.568	0.0137554
842.646	0.0137061
842.724	0.0137144
842.802	0.0137110
842.880	0.0135957
842.958	0.0138680
843.036	0.0137809
843.114	0.0137234
843.193	0.0138348
843.271	0.0138907
843.349	0.0139745
843.427	0.0138646
843.505	0.0137668
843.583	0.0138181
843.661	0.0138472
843.739	0.0139317
843.818	0.0138697
843.896	0.0137524
843.974	0.0136540
844.052	0.0137239
844.130	0.0138525
844.208	0.0137881
844.286	0.0136772
844.364	0.0136887
844.443	0.0136249
844.521	0.0137641
844.599	0.0138188
844.677	0.0136491
844.755	0.0135419
844.833	0.0136285
844.911	0.0136969
844.989	0.0135778
845.068	0.0134351
845.146	0.0135826
845.224	0.0135791
845.302	0.0134875
845.380	0.0134954
845.458	0.0135556
845.536	0.0135017
845.614	0.0135233
845.693	0.0135297
845.771	0.0137352
845.849	0.0136938
845.927	0.0136717
846.005	0.0136929
846.083	0.0138036
846.161	0.0139017
846.239	0.0138237
846.318	0.0138486
846.396	0.0139355
846.474	0.0140100
846.552	0.0138623
846.630	0.0140051
846.708	0.0139141
846.786	0.0139496
846.864	0.0140968
846.943	0.0140581
847.021	0.0140944
847.099	0.0140552
847.177	0.0140197
847.255	0.0138822
847.333	0.0139425
847.411	0.0137253
847.489	0.0137828
847.568	0.0138026
847.646	0.0136455
847.724	0.0137601
847.802	0.0137968
847.880	0.0136446
847.958	0.0135948
848.036	0.0136383
848.114	0.0136167
848.193	0.0137093
848.271	0.0137825
848.349	0.0137065
848.427	0.0136498
848.505	0.0137592
848.583	0.0137204
848.661	0.0139831
848.739	0.0139696
848.818	0.0139695
848.896	0.0138482
848.974	0.0139185
849.052	0.0140260
849.130	0.0140745
849.208	0.0139890
849.286	0.0139218
849.364	0.0138703
849.443	0.0138861
849.521	0.0138838
849.599	0.0138420
849.677	0.0138283
849.755	0.0137318
849.833	0.0137585
849.911	0.0137524
849.989	0.0136182
850.068	0.0137064
850.146	0.0135479
850.224	0.0137033
850.302	0.0135968
850.380	0.0134566
850.458	0.0134200
850.536	0.0135354
850.614	0.0135819
850.693	0.0134594
850.771	0.0136884
850.849	0.0136352
850.927	0.0136814
851.005	0.0136386
851.083	0.0136120
851.161	0.0138004
851.239	0.0136343
851.318	0.0138303
851.396	0.0137765
851.474	0.0138811
851.552	0.0138720
851.630	0.0140214
851.708	0.0139692
851.786	0.0141132
851.864	0.0140233
851.943	0.0141289
852.021	0.0141084
852.099	0.0141305
852.177	0.0141294
852.255	0.0141069
852.333	0.0141185
852.411	0.0141357
852.489	0.0140674
852.568	0.0139343
852.646	0.0139984
852.724	0.0139353
852.802	0.0140038
852.880	0.0139444
852.958	0.0139172
853.036	0.0139173
853.114	0.0137860
853.193	0.0138235
853.271	0.0137530
853.349	0.0138705
853.427	0.0138836
853.505	0.0138435
853.583	0.0136825
853.661	0.0137933
853.739	0.0140147
853.818	0.0138629
853.896	0.0138096
853.974	0.0139985
854.052	0.0140290
854.130	0.0139256
854.208	0.0138078
854.286	0.0137634
854.364	0.0139906
854.443	0.0139426
854.521	0.0140204
854.599	0.0140736
854.677	0.0138186
854.755	0.0139701
854.833	0.0140498
854.911	0.0140064
854.989	0.0141640
855.068	0.0140102
855.146	0.0139738
855.224	0.0140910
855.302	0.0140023
855.380	0.0140694
855.458	0.0141403
855.536	0.0139238
855.614	0.0140388
855.693	0.0140409
855.771	0.0138878
855.849	0.0139626
855.927	0.0141936
856.005	0.0140423
856.083	0.0140260
856.161	0.0141158
856.239	0.0140421
856.318	0.0140268
856.396	0.0140601
856.474	0.0141228
856.552	0.0141403
856.630	0.0141032
856.708	0.0140621
856.786	0.0139496
856.864	0.0140244
856.943	0.0140171
857.021	0.0141830
857.099	0.0140884
857.177	0.0140126
857.255	0.0139798
857.333	0.0138792
857.411	0.0139796
857.489	0.0140029
857.568	0.0138663
857.646	0.0138512
857.724	0.0138235
857.802	0.0138107
857.880	0.0138688
857.958	0.0138690
858.036	0.0137557
858.114	0.0138397
858.193	0.0138933
858.271	0.0138303
858.349	0.0137962
858.427	0.0136988
858.505	0.0138530
858.583	0.0139413
858.661	0.0139396
858.739	0.0138069
858.818	0.0138731
858.896	0.0138702
858.974	0.0140833
859.052	0.0140478
859.130	0.0140484
859.208	0.0140360
859.286	0.0142687
859.364	0.0140874
859.443	0.0139576
859.521	0.0139733
859.599	0.0141745
859.677	0.0141966
859.755	0.0140753
859.833	0.0140117
859.911	0.0140788
859.989	0.0139919
860.068	0.0139932
860.146	0.0138982
860.224	0.0140212
860.302	0.0139519
860.380	0.0139372
860.458	0.0139716
860.536	0.0139860
860.614	0.0138602
860.693	0.0138174
860.771	0.0139375
860.849	0.0138401
860.927	0.0139726
861.005	0.0138668
861.083	0.0138322
861.161	0.0137334
861.239	0.0138325
861.318	0.0139400
861.396	0.0138772
861.474	0.0139307
861.552	0.0138300
861.630	0.0137357
861.708	0.0139053
861.786	0.0138708
861.864	0.0138219
861.943	0.0138564
862.021	0.0137635
862.099	0.0136590
862.177	0.0137573
862.255	0.0136482
862.333	0.0136964
862.411	0.0137290
862.489	0.0137603
862.568	0.0137838
862.646	0.0138478
862.724	0.0138312
862.802	0.0138033
862.880	0.0138043
862.958	0.0136425
863.036	0.0137428
863.114	0.0136900
863.193	0.0137901
863.271	0.0136239
863.349	0.0136596
863.427	0.0136329
863.505	0.0137113
863.583	0.0138095
863.661	0.0136939
863.739	0.0137798
863.818	0.0138215
863.896	0.0139723
863.974	0.0138465
864.052	0.0139915
864.130	0.0136793
864.208	0.0138202
864.286	0.0139014
864.364	0.0140090
864.443	0.0138825
864.521	0.0139556
864.599	0.0139017
864.677	0.0138911
864.755	0.0141054
864.833	0.0139493
864.911	0.0138496
864.989	0.0140715
865.068	0.0139595
865.146	0.0139458
865.224	0.0140399
865.302	0.0139518
865.380	0.0139122
865.458	0.0139961
865.536	0.0140637
865.614	0.0139595
865.693	0.0139069
865.771	0.0138360
865.849	0.0138720
865.927	0.0139552
866.005	0.0138129
866.083	0.0139013
866.161	0.0139001
866.239	0.0138219
866.318	0.0136630
866.396	0.0136970
866.474	0.0137257
866.552	0.0137434
866.630	0.0137712
866.708	0.0137119
866.786	0.0136415
866.864	0.0137426
866.943	0.0136039
867.021	0.0135810
867.099	0.0138190
867.177	0.0136684
867.255	0.0135448
867.333	0.0136463
867.411	0.0137122
867.489	0.0136005
867.568	0.0137325
867.646	0.0137963
867.724	0.0136360
867.802	0.0136715
867.880	0.0138238
867.958	0.0137366
868.036	0.0137941
868.114	0.0136698
868.193	0.0137367
868.271	0.0136769
868.349	0.0137418
868.427	0.0137057
868.505	0.0138988
868.583	0.0138815
868.661	0.0138053
868.739	0.0136696
868.818	0.0137876
868.896	0.0138049
868.974	0.0138488
869.052	0.0136874
869.130	0.0137489
869.208	0.0137996
869.286	0.0138895
869.364	0.0135701
869.443	0.0137939
869.521	0.0138989
869.599	0.0137511
869.677	0.0138297
869.755	0.0138505
869.833	0.0137808
869.911	0.0136845
869.989	0.0137074
870.068	0.0136919
870.146	0.0137481
870.224	0.0137703
870.302	0.0136259
870.380	0.0137863
870.458	0.0137373
870.536	0.0137885
870.614	0.0137577
870.693	0.0138136
870.771	0.0137497
870.849	0.0138153
870.927	0.0138181
871.005	0.0139148
871.083	0.0138172
871.161	0.0138311
871.239	0.0137789
871.318	0.0137640
871.396	0.0137801
871.474	0.0138227
871.552	0.0138355
871.630	0.0136459
871.708	0.0136071
871.786	0.0139099
871.864	0.0138196
871.943	0.0138966
872.021	0.0137775
872.099	0.0137453
872.177	0.0137617
872.255	0.0137529
872.333	0.0137784
872.411	0.0139162
872.489	0.0137296
872.568	0.0138036
872.646	0.0138992
872.724	0.0139240
872.802	0.0136971
872.880	0.0138308
872.958	0.0136826
873.036	0.0137827
873.114	0.0137832
873.193	0.0136418
873.271	0.0136096
873.349	0.0136955
873.427	0.0136510
873.505	0.0135905
873.583	0.0135283
873.661	0.0135204
873.739	0.0135526
873.818	0.0135045
873.896	0.0134501
873.974	0.0134617
874.052	0.0135940
874.130	0.0133734
874.208	0.0135067
874.286	0.0134973
874.364	0.0136039
874.443	0.0136283
874.521	0.0136096
874.599	0.0136497
874.677	0.0136345
874.755	0.0137458
874.833	0.0137499
874.911	0.0139051
874.989	0.0139555
875.068	0.0140530
875.146	0.0140043
875.224	0.0139925
875.302	0.0141539
875.380	0.0139692
875.458	0.0140352
875.536	0.0141181
875.614	0.0141196
875.693	0.0140665
875.771	0.0141806
875.849	0.0140794
875.927	0.0140449
876.005	0.0141796
876.083	0.0141543
876.161	0.0142026
876.239	0.0139335
876.318	0.0139999
876.396	0.0140594
876.474	0.0139227
876.552	0.0138763
876.630	0.0138791
876.708	0.0139272
876.786	0.0138899
876.864	0.0137869
876.943	0.0137399
877.021	0.0137637
877.099	0.0137897
877.177	0.0137811
877.255	0.0137212
877.333	0.0137418
877.411	0.0137150
877.489	0.0137095
877.568	0.0137344
877.646	0.0137470
877.724	0.0137119
877.802	0.0136219
877.880	0.0138215
877.958	0.0136813
878.036	0.0137279
878.114	0.0136414
878.193	0.0137080
878.271	0.0136059
878.349	0.0137292
878.427	0.0136447
878.505	0.0137009
878.583	0.0136163
878.661	0.0136451
878.739	0.0136404
878.818	0.0136668
878.896	0.0137019
878.974	0.0138427
879.052	0.0137731
879.130	0.0138734
879.208	0.0139570
879.286	0.0139635
879.364	0.0138987
879.443	0.0139284
879.521	0.0139227
879.599	0.0139542
879.677	0.0138729
879.755	0.0139903
879.833	0.0138962
879.911	0.0138211
879.989	0.0138815
880.068	0.0139063
880.146	0.0138550
880.224	0.0138837
880.302	0.0139754
880.380	0.0138260
880.458	0.0136513
880.536	0.0138094
880.614	0.0137201
880.693	0.0137076
880.771	0.0136442
880.849	0.0137928
880.927	0.0137571
881.005	0.0137394
881.083	0.0136969
881.161	0.0137177
881.239	0.0138007
881.318	0.0138136
881.396	0.0136573
881.474	0.0137426
881.552	0.0138594
881.630	0.0138874
881.708	0.0138219
881.786	0.0137029
881.864	0.0137226
881.943	0.0138699
882.021	0.0139198
882.099	0.0138542
882.177	0.0141113
882.255	0.0139098
882.333	0.0138117
882.411	0.0139027
882.489	0.0138148
882.568	0.0140042
882.646	0.0140968
882.724	0.0139940
882.802	0.0139387
882.880	0.0139310
882.958	0.0138982
883.036	0.0139183
883.114	0.0138753
883.193	0.0140409
883.271	0.0140788
883.349	0.0140997
883.427	0.0139124
883.505	0.0140833
883.583	0.0140596
883.661	0.0139581
883.739	0.0138759
883.818	0.0138717
883.896	0.0139289
883.974	0.0138852
884.052	0.0140276
884.130	0.0139941
884.208	0.0139555
884.286	0.0138420
884.364	0.0138388
884.443	0.0137770
884.521	0.0137922
884.599	0.0139687
884.677	0.0138683
884.755	0.0138159
884.833	0.0138395
884.911	0.0137202
884.989	0.0138857
885.068	0.0138623
885.146	0.0135918
885.224	0.0137231
885.302	0.0137633
885.380	0.0138132
885.458	0.0138481
885.536	0.0138730
885.614	0.0136854
885.693	0.0137941
885.771	0.0136307
885.849	0.0137611
885.927	0.0136597
886.005	0.0137079
886.083	0.0136543
886.161	0.0135400
886.239	0.0136729
886.318	0.0136272
886.396	0.0136369
886.474	0.0137277
886.552	0.0137289
886.630	0.0137788
886.708	0.0137735
886.786	0.0139880
886.864	0.0140462
886.943	0.0139722
887.021	0.0138764
887.099	0.0139894
887.177	0.0140877
887.255	0.0140277
887.333	0.0140171
887.411	0.0138574
887.489	0.0140395
887.568	0.0139555
887.646	0.0139801
887.724	0.0137997
887.802	0.0138803
887.880	0.0139958
887.958	0.0140623
888.036	0.0139683
888.114	0.0138884
888.193	0.0139655
888.271	0.0139204
888.349	0.0138835
888.427	0.0138775
888.505	0.0138199
888.583	0.0139030
888.661	0.0138508
888.739	0.0138197
888.818	0.0137211
888.896	0.0137733
888.974	0.0137126
889.052	0.0135983
889.130	0.0137462
889.208	0.0136338
889.286	0.0137825
889.364	0.0138657
889.443	0.0137483
889.521	0.0138711
889.599	0.0137906
889.677	0.0138409
889.755	0.0137520
889.833	0.0137019
889.911	0.0137875
889.989	0.0138316
890.068	0.0139388
890.146	0.0136321
890.224	0.0136154
890.302	0.0137138
890.380	0.0138136
890.458	0.0136507
890.536	0.0137971
890.614	0.0137392
890.693	0.0138088
890.771	0.0138802
890.849	0.0138784
890.927	0.0137653
891.005	0.0138062
891.083	0.0139073
891.161	0.0138865
891.239	0.0137996
891.318	0.0138248
891.396	0.0139429
891.474	0.0137423
891.552	0.0139376
891.630	0.0139955
891.708	0.0138638
891.786	0.0138659
891.864	0.0139987
891.943	0.0140385
892.021	0.0138979
892.099	0.0140808
892.177	0.0140613
892.255	0.0140013
892.333	0.0140448
892.411	0.0139331
892.489	0.0139340
892.568	0.0139035
892.646	0.0139955
892.724	0.0138528
892.802	0.0138308
892.880	0.0138525
892.958	0.0138322
893.036	0.0136887
893.114	0.0137469
893.193	0.0136779
893.271	0.0136426
893.349	0.0136501
893.427	0.0136234
893.505	0.0135371
893.583	0.0135818
893.661	0.0136047
893.739	0.0135247
893.818	0.0135949
893.896	0.0136838
893.974	0.0137872
894.052	0.0138268
894.130	0.0136828
894.208	0.0136780
894.286	0.0139095
894.364	0.0139822
894.443	0.0139030
894.521	0.0139840
894.599	0.0140257
894.677	0.0138766
894.755	0.0140224
894.833	0.0141528
894.911	0.0142004
894.989	0.0143300
895.068	0.0142902
895.146	0.0141444
895.224	0.0142408
895.302	0.0142108
895.380	0.0140118
895.458	0.0142022
895.536	0.0143237
895.614	0.0142664
895.693	0.0141676
895.771	0.0141629
895.849	0.0141605
895.927	0.0140786
896.005	0.0139790
896.083	0.0139538
896.161	0.0139112
896.239	0.0139217
896.318	0.0138786
896.396	0.0138735
896.474	0.0138206
896.552	0.0137915
896.630	0.0137860
896.708	0.0138100
896.786	0.0135341
896.864	0.0137804
896.943	0.0137402
897.021	0.0137774
897.099	0.0138087
897.177	0.0136764
897.255	0.0137158
897.333	0.0136851
897.411	0.0138534
897.489	0.0137539
897.568	0.0138187
897.646	0.0137604
897.724	0.0138274
897.802	0.0137361
897.880	0.0137404
897.958	0.0137604
898.036	0.0137247
898.114	0.0139930
898.193	0.0139610
898.271	0.0138473
898.349	0.0137957
898.427	0.0138591
898.505	0.0138097
898.583	0.0137741
898.661	0.0136771
898.739	0.0137576
898.818	0.0139452
898.896	0.0138110
898.974	0.0138313
899.052	0.0137253
899.130	0.0137927
899.208	0.0137376
899.286	0.0138090
899.364	0.0138582
899.443	0.0139707
899.521	0.0138488
899.599	0.0138165
899.677	0.0139240
899.755	0.0139953
899.833	0.0138412
899.911	0.0137746
899.989	0.0138664
900.068	0.0141182
900.146	0.0140295
900.224	0.0139481
900.302	0.0140252
900.380	0.0140154
900.458	0.0142101
900.536	0.0140597
900.614	0.0140255
900.693	0.0141727
900.771	0.0141107
900.849	0.0141485
900.927	0.0141258
901.005	0.0140751
901.083	0.0139104
901.161	0.0140237
901.239	0.0139807
901.318	0.0138642
901.396	0.0137742
901.474	0.0138181
901.552	0.0138012
901.630	0.0136259
901.708	0.0137688
901.786	0.0136238
901.864	0.0135264
901.943	0.0135098
902.021	0.0135039
902.099	0.0134812
902.177	0.0134715
902.255	0.0133926
902.333	0.0134282
902.411	0.0134227
902.489	0.0134218
902.568	0.0134055
902.646	0.0135114
902.724	0.0132560
902.802	0.0133308
902.880	0.0133957
902.958	0.0132501
903.036	0.0135118
903.114	0.0134997
903.193	0.0134524
903.271	0.0135487
903.349	0.0136761
903.427	0.0136679
903.505	0.0135754
903.583	0.0135789
903.661	0.0138623
903.739	0.0139352
903.818	0.0138122
903.896	0.0138422
903.974	0.0138342
904.052	0.0140147
904.130	0.0138399
904.208	0.0138531
904.286	0.0137012
904.364	0.0137798
904.443	0.0138374
904.521	0.0139261
904.599	0.0137415
904.677	0.0137859
904.755	0.0137646
904.833	0.0136452
904.911	0.0137534
904.989	0.0137532
905.068	0.0138467
905.146	0.0138859
905.224	0.0138731
905.302	0.0139023
905.380	0.0137608
905.458	0.0139880
905.536	0.0138563
905.614	0.0139331
905.693	0.0140401
905.771	0.0139753
905.849	0.0138700
905.927	0.0138588
906.005	0.0138354
906.083	0.0139712
906.161	0.0138297
906.239	0.0137858
906.318	0.0138194
906.396	0.0139239
906.474	0.0137214
906.552	0.0137553
906.630	0.0137358
906.708	0.0136852
906.786	0.0138303
906.864	0.0137183
906.943	0.0136209
907.021	0.0138006
907.099	0.0137336
907.177	0.0136687
907.255	0.0136357
907.333	0.0136684
907.411	0.0138325
907.489	0.0138832
907.568	0.0137014
907.646	0.0136800
907.724	0.0137857
907.802	0.0137685
907.880	0.0136507
907.958	0.0138337
908.036	0.0138045
908.114	0.0138605
908.193	0.0138297
908.271	0.0138555
908.349	0.0137727
908.427	0.0138580
908.505	0.0140137
908.583	0.0140515
908.661	0.0140580
908.739	0.0140359
908.818	0.0140099
908.896	0.0140736
908.974	0.0140656
909.052	0.0141472
909.130	0.0141132
909.208	0.0141129
909.286	0.0140752
909.364	0.0139273
909.443	0.0140447
909.521	0.0140289
909.599	0.0139322
909.677	0.0139053
909.755	0.0137912
909.833	0.0139047
909.911	0.0138503
909.989	0.0137381
910.068	0.0137363
910.146	0.0137375
910.224	0.0138697
910.302	0.0139698
910.380	0.0138503
910.458	0.0138646
910.536	0.0138439
910.614	0.0139265
910.693	0.0139343
910.771	0.0139420
910.849	0.0139134
910.927	0.0141135
911.005	0.0140650
911.083	0.0140022
911.161	0.0140430
911.239	0.0141467
911.318	0.0141722
911.396	0.0140653
911.474	0.0140132
911.552	0.0141791
911.630	0.0142092
911.708	0.0141470
911.786	0.0141270
911.864	0.0141487
911.943	0.0141319
912.021	0.0139157
912.099	0.0139275
912.177	0.0141450
912.255	0.0140733
912.333	0.0138876
912.411	0.0139183
912.489	0.0139666
912.568	0.0140034
912.646	0.0138952
912.724	0.0137792
912.802	0.0139606
912.880	0.0138811
912.958	0.0138041
913.036	0.0138124
913.114	0.0137405
913.193	0.0137554
913.271	0.0137735
913.349	0.0137846
913.427	0.0136739
913.505	0.0138387
913.583	0.0137833
913.661	0.0136632
913.739	0.0138191
913.818	0.0137077
913.896	0.0138192
913.974	0.0137911
914.052	0.0137321
914.130	0.0138950
914.208	0.0137681
914.286	0.0136793
914.364	0.0137788
914.443	0.0139177
914.521	0.0138248
914.599	0.0138512
914.677	0.0139220
914.755	0.0139458
914.833	0.0139310
914.911	0.0138821
914.989	0.0138634
915.068	0.0139491
915.146	0.0138972
915.224	0.0140035
915.302	0.0138813
915.380	0.0138953
915.458	0.0139117
915.536	0.0139318
915.614	0.0140263
915.693	0.0141033
915.771	0.0139812
915.849	0.0140895
915.927	0.0141028
916.005	0.0140390
916.083	0.0141093
916.161	0.0140413
916.239	0.0140857
916.318	0.0141077
916.396	0.0140910
916.474	0.0140665
916.552	0.0141806
916.630	0.0140482
916.708	0.0139808
916.786	0.0140512
916.864	0.0140701
916.943	0.0140119
917.021	0.0138985
917.099	0.0139141
917.177	0.0138536
917.255	0.0138126
917.333	0.0137142
917.411	0.0138152
917.489	0.0139108
917.568	0.0138935
917.646	0.0137325
917.724	0.0138669
917.802	0.0137566
917.880	0.0138227
917.958	0.0138054
918.036	0.0137940
918.114	0.0138758
918.193	0.0138519
918.271	0.0138357
918.349	0.0139675
918.427	0.0138608
918.505	0.0139341
918.583	0.0138462
918.661	0.0139742
918.739	0.0139345
918.818	0.0138807
918.896	0.0140804
918.974	0.0141635
919.052	0.0142837
919.130	0.0140773
919.208	0.0140820
919.286	0.0141823
919.364	0.0141277
919.443	0.0141846
919.521	0.0140658
919.599	0.0139494
919.677	0.0140273
919.755	0.0141276
919.833	0.0141215
919.911	0.0139532
919.989	0.0138277
920.068	0.0139316
920.146	0.0137846
920.224	0.0138288
920.302	0.0138102
920.380	0.0137094
920.458	0.0136782
920.536	0.0137138
920.614	0.0136012
920.693	0.0137212
920.771	0.0137649
920.849	0.0137077
920.927	0.0136303
921.005	0.0136710
921.083	0.0135902
921.161	0.0136420
921.239	0.0136199
921.318	0.0137820
921.396	0.0136823
921.474	0.0136520
921.552	0.0136127
921.630	0.0135900
921.708	0.0136599
921.786	0.0136191
921.864	0.0137291
921.943	0.0135737
922.021	0.0136421
922.099	0.0137270
922.177	0.0138146
922.255	0.0139150
922.333	0.0137094
922.411	0.0137979
922.489	0.0137640
922.568	0.0137838
922.646	0.0137959
922.724	0.0139227
922.802	0.0139985
922.880	0.0140396
922.958	0.0138734
923.036	0.0139036
923.114	0.0140720
923.193	0.0139868
923.271	0.0139326
923.349	0.0140004
923.427	0.0140286
923.505	0.0141084
923.583	0.0140932
923.661	0.0140309
923.739	0.0138988
923.818	0.0140240
923.896	0.0139371
923.974	0.0140057
924.052	0.0140144
924.130	0.0138804
924.208	0.0138416
924.286	0.0140188
924.364	0.0139779
924.443	0.0139997
924.521	0.0140625
924.599	0.0139906
924.677	0.0139396
924.755	0.0139590
924.833	0.0139713
924.911	0.0138572
924.989	0.0139049
925.068	0.0140043
925.146	0.0139590
925.224	0.0137862
925.302	0.0138924
925.380	0.0138165
925.458	0.0138542
925.536	0.0138729
925.614	0.0138868
925.693	0.0138877
925.771	0.0137611
925.849	0.0137609
925.927	0.0138506
926.005	0.0138014
926.083	0.0138321
926.161	0.0139470
926.239	0.0137761
926.318	0.0139281
926.396	0.0138641
926.474	0.0138757
926.552	0.0139275
926.630	0.0138586
926.708	0.0141057
926.786	0.0140700
926.864	0.0139204
926.943	0.0139192
927.021	0.0141025
927.099	0.0139859
927.177	0.0140473
927.255	0.0139568
927.333	0.0139049
927.411	0.0139544
927.489	0.0140909
927.568	0.0140237
927.646	0.0141389
927.724	0.0140656
927.802	0.0140250
927.880	0.0139329
927.958	0.0140823
928.036	0.0140733
928.114	0.0140030
928.193	0.0138677
928.271	0.0137078
928.349	0.0139106
928.427	0.0139762
928.505	0.0137601
928.583	0.0136364
928.661	0.0137633
928.739	0.0137864
928.818	0.0137148
928.896	0.0138563
928.974	0.0137087
929.052	0.0137135
929.130	0.0136479
929.208	0.0137251
929.286	0.0135807
929.364	0.0137465
929.443	0.0137344
929.521	0.0136243
929.599	0.0138049
929.677	0.0137986
929.755	0.0137137
929.833	0.0138222
929.911	0.0138577
929.989	0.0137872
930.068	0.0137842
930.146	0.0138225
930.224	0.0137109
930.302	0.0137952
930.380	0.0138068
930.458	0.0138351
930.536	0.0138419
930.614	0.0138728
930.693	0.0137836
930.771	0.0139639
930.849	0.0138711
930.927	0.0139206
931.005	0.0139310
931.083	0.0138898
931.161	0.0139017
931.239	0.0139579
931.318	0.0140273
931.396	0.0140382
931.474	0.0140559
931.552	0.0140041
931.630	0.0138946
931.708	0.0138959
931.786	0.0138943
931.864	0.0139721
931.943	0.0139385
932.021	0.0137304
932.099	0.0137824
932.177	0.0138030
932.255	0.0137477
932.333	0.0137823
932.411	0.0137338
932.489	0.0138558
932.568	0.0137672
932.646	0.0137731
932.724	0.0138799
932.802	0.0137271
932.880	0.0139481
932.958	0.0139286
933.036	0.0137986
933.114	0.0139223
933.193	0.0137413
933.271	0.0137688
933.349	0.0139243
933.427	0.0139035
933.505	0.0139452
933.583	0.0139159
933.661	0.0140349
933.739	0.0140741
933.818	0.0139436
933.896	0.0138930
933.974	0.0140985
934.052	0.0140683
934.130	0.0140020
934.208	0.0139517
934.286	0.0139521
934.364	0.0138194
934.443	0.0141763
934.521	0.0140656
934.599	0.0137935
934.677	0.0139555
934.755	0.0140250
934.833	0.0140916
934.911	0.0140853
934.989	0.0139870
935.068	0.0139933
935.146	0.0140271
935.224	0.0139409
935.302	0.0140222
935.380	0.0138940
935.458	0.0139659
935.536	0.0138265
935.614	0.0140059
935.693	0.0138623
935.771	0.0138713
935.849	0.0137442
935.927	0.0138310
936.005	0.0138172
936.083	0.0137022
936.161	0.0136867
936.239	0.0137763
936.318	0.0137259
936.396	0.0135818
936.474	0.0137421
936.552	0.0137139
936.630	0.0137286
936.708	0.0136166
936.786	0.0137226
936.864	0.0137772
936.943	0.0137235
937.021	0.0135999
937.099	0.0136400
937.177	0.0136346
937.255	0.0137794
937.333	0.0137083
937.411	0.0136606
937.489	0.0137581
937.568	0.0135352
937.646	0.0137202
937.724	0.0137345
937.802	0.0138667
937.880	0.0137602
937.958	0.0137825
938.036	0.0138325
938.114	0.0138139
938.193	0.0137321
938.271	0.0138667
938.349	0.0138510
938.427	0.0138875
938.505	0.0139312
938.583	0.0140086
938.661	0.0139970
938.739	0.0138693
938.818	0.0139091
938.896	0.0138715
938.974	0.0139944
939.052	0.0139875
939.130	0.0139504
939.208	0.0138061
939.286	0.0138070
939.364	0.0139154
939.443	0.0138912
939.521	0.0139124
939.599	0.0138803
939.677	0.0140256
939.755	0.0138955
939.833	0.0139167
939.911	0.0140126
939.989	0.0138313
940.068	0.0138070
940.146	0.0138280
940.224	0.0138492
940.302	0.0138519
940.380	0.0138614
940.458	0.0136948
940.536	0.0138572
940.614	0.0139043
940.693	0.0138921
940.771	0.0138501
940.849	0.0137401
940.927	0.0137843
941.005	0.0137228
941.083	0.0136819
941.161	0.0136986
941.239	0.0137254
941.318	0.0137234
941.396	0.0137495
941.474	0.0137807
941.552	0.0137928
941.630	0.0136936
941.708	0.0138183
941.786	0.0137215
941.864	0.0137161
941.943	0.0136909
942.021	0.0137184
942.099	0.0137130
942.177	0.0137815
942.255	0.0137588
942.333	0.0137378
942.411	0.0138309
942.489	0.0138539
942.568	0.0138006
942.646	0.0136780
942.724	0.0138507
942.802	0.0138030
942.880	0.0137558
942.958	0.0136443
943.036	0.0136993
943.114	0.0137589
943.193	0.0139507
943.271	0.0138499
943.349	0.0137543
943.427	0.0138080
943.505	0.0137894
943.583	0.0137780
943.661	0.0138020
943.739	0.0138944
943.818	0.0138113
943.896	0.0137341
943.974	0.0138875
944.052	0.0140908
944.130	0.0140003
944.208	0.0139556
944.286	0.0139590
944.364	0.0138425
944.443	0.0139671
944.521	0.0139830
944.599	0.0139417
944.677	0.0139415
944.755	0.0139585
944.833	0.0138772
944.911	0.0140773
944.989	0.0139824
945.068	0.0139629
945.146	0.0139138
945.224	0.0137376
945.302	0.0138491
945.380	0.0138046
945.458	0.0137862
945.536	0.0139188
945.614	0.0139893
945.693	0.0138209
945.771	0.0139296
945.849	0.0138338
945.927	0.0140147
946.005	0.0139771
946.083	0.0137338
946.161	0.0137274
946.239	0.0137055
946.318	0.0136568
946.396	0.0137350
946.474	0.0138187
946.552	0.0137174
946.630	0.0136494
946.708	0.0138363
946.786	0.0137180
946.864	0.0137434
946.943	0.0138005
947.021	0.0137815
947.099	0.0136740
947.177	0.0136857
947.255	0.0137871
947.333	0.0137237
947.411	0.0137820
947.489	0.0136529
947.568	0.0136607
947.646	0.0138323
947.724	0.0137429
947.802	0.0137657
947.880	0.0135770
947.958	0.0136926
948.036	0.0137153
948.114	0.0137244
948.193	0.0136703
948.271	0.0137319
948.349	0.0138513
948.427	0.0137856
948.505	0.0137934
948.583	0.0137202
948.661	0.0136980
948.739	0.0137558
948.818	0.0138949
948.896	0.0137966
948.974	0.0137976
949.052	0.0138689
949.130	0.0139648
949.208	0.0137971
949.286	0.0139855
949.364	0.0138567
949.443	0.0137540
949.521	0.0139201
949.599	0.0138729
949.677	0.0137827
949.755	0.0139464
949.833	0.0137951
949.911	0.0138916
949.989	0.0138965
950.068	0.0139392
950.146	0.0138914
950.224	0.0139695
950.302	0.0138803
950.380	0.0138494
950.458	0.0138469
950.536	0.0138950
950.614	0.0138354
950.693	0.0139245
950.771	0.0140089
950.849	0.0137894
950.927	0.0139195
951.005	0.0140314
951.083	0.0138625
951.161	0.0138902
951.239	0.0140070
951.318	0.0139803
951.396	0.0139431
951.474	0.0139410
951.552	0.0138872
951.630	0.0137886
951.708	0.0138898
951.786	0.0139130
951.864	0.0140535
951.943	0.0138579
952.021	0.0137370
952.099	0.0139279
952.177	0.0139299
952.255	0.0139159
952.333	0.0138788
952.411	0.0138313
952.489	0.0137493
952.568	0.0137392
952.646	0.0138334
952.724	0.0139222
952.802	0.0139725
952.880	0.0137096
952.958	0.0136135
953.036	0.0137769
953.114	0.0138653
953.193	0.0137965
953.271	0.0138255
953.349	0.0139042
953.427	0.0137232
953.505	0.0138194
953.583	0.0139091
953.661	0.0138559
953.739	0.0139361
953.818	0.0139240
953.896	0.0138206
953.974	0.0138834
954.052	0.0139077
954.130	0.0139775
954.208	0.0138828
954.286	0.0138508
954.364	0.0140004
954.443	0.0139176
954.521	0.0137482
954.599	0.0137548
954.677	0.0139405
954.755	0.0138819
954.833	0.0138181
954.911	0.0139461
954.989	0.0140216
955.068	0.0138603
955.146	0.0138808
955.224	0.0139725
955.302	0.0138587
955.380	0.0139311
955.458	0.0140253
955.536	0.0138605
955.614	0.0138466
955.693	0.0139339
955.771	0.0139021
955.849	0.0138234
955.927	0.0138812
956.005	0.0139053
956.083	0.0139377
956.161	0.0137682
956.239	0.0139862
956.318	0.0139435
956.396	0.0138946
956.474	0.0139095
956.552	0.0137543
956.630	0.0137333
956.708	0.0137160
956.786	0.0138476
956.864	0.0137446
956.943	0.0138609
957.021	0.0137017
957.099	0.0137440
957.177	0.0136124
957.255	0.0137461
957.333	0.0137868
957.411	0.0138239
957.489	0.0138594
957.568	0.0137386
957.646	0.0138198
957.724	0.0136824
957.802	0.0136922
957.880	0.0137856
957.958	0.0137777
958.036	0.0137299
958.114	0.0137348
958.193	0.0137379
958.271	0.0137416
958.349	0.0137254
958.427	0.0137160
958.505	0.0138348
958.583	0.0138736
958.661	0.0137923
958.739	0.0138879
958.818	0.0138927
958.896	0.0139378
958.974	0.0140189
959.052	0.0139336
959.130	0.0139340
959.208	0.0140110
959.286	0.0139041
959.364	0.0138683
959.443	0.0139620
959.521	0.0141113
959.599	0.0139213
959.677	0.0138422
959.755	0.0139336
959.833	0.0139936
959.911	0.0140136
