05/14/2022	16:42:07	Ver.	4.1	UNKNOWN
Optical Delay	639.989416	Delta X		0.078125	Sweeps	1	Scan Rate	0/0
Coordinates	Axis 1	NaN	Axis 2	NaN	Axis 3	NaN	Axis 4	NaN	Axis 5	NaN	Axis 6	0.000000
TX Power	0.000000	RX Power	0.000000

639.989	0.0137578
640.068	0.0136692
640.146	0.0137906
640.224	0.0137412
640.302	0.0137718
640.380	0.0138368
640.458	0.0136102
640.536	0.0137764
640.614	0.0138320
640.693	0.0138000
640.771	0.0138803
640.849	0.0137246
640.927	0.0137206
641.005	0.0137711
641.083	0.0138538
641.161	0.0137559
641.239	0.0137361
641.318	0.0137560
641.396	0.0137106
641.474	0.0137042
641.552	0.0136365
641.630	0.0137730
641.708	0.0137094
641.786	0.0137476
641.864	0.0137864
641.943	0.0136295
642.021	0.0137595
642.099	0.0137362
642.177	0.0137987
642.255	0.0136874
642.333	0.0138592
642.411	0.0137505
642.489	0.0138129
642.568	0.0138894
642.646	0.0137891
642.724	0.0137380
642.802	0.0138291
642.880	0.0137508
642.958	0.0137168
643.036	0.0137913
643.114	0.0138010
643.193	0.0138109
643.271	0.0137517
643.349	0.0137894
643.427	0.0137429
643.505	0.0137751
643.583	0.0136779
643.661	0.0138165
643.739	0.0138049
643.818	0.0137578
643.896	0.0136667
643.974	0.0138106
644.052	0.0137679
644.130	0.0137461
644.208	0.0136443
644.286	0.0136411
644.364	0.0137218
644.443	0.0138833
644.521	0.0140167
644.599	0.0137735
644.677	0.0137807
644.755	0.0137967
644.833	0.0138199
644.911	0.0137076
644.989	0.0137536
645.068	0.0138648
645.146	0.0139328
645.224	0.0138289
645.302	0.0138571
645.380	0.0137881
645.458	0.0138972
645.536	0.0138380
645.614	0.0139439
645.693	0.0139209
645.771	0.0138428
645.849	0.0138589
645.927	0.0139227
646.005	0.0140500
646.083	0.0139460
646.161	0.0137833
646.239	0.0139656
646.318	0.0138079
646.396	0.0138027
646.474	0.0139606
646.552	0.0138822
646.630	0.0138210
646.708	0.0138105
646.786	0.0138429
646.864	0.0139812
646.943	0.0139511
647.021	0.0139931
647.099	0.0137790
647.177	0.0137884
647.255	0.0138624
647.333	0.0138583
647.411	0.0137720
647.489	0.0138304
647.568	0.0137388
647.646	0.0138854
647.724	0.0137517
647.802	0.0138139
647.880	0.0138090
647.958	0.0137833
648.036	0.0138154
648.114	0.0138295
648.193	0.0138659
648.271	0.0139166
648.349	0.0138672
648.427	0.0138705
648.505	0.0139558
648.583	0.0138279
648.661	0.0140334
648.739	0.0138123
648.818	0.0139104
648.896	0.0138838
648.974	0.0137652
649.052	0.0139221
649.130	0.0138394
649.208	0.0137925
649.286	0.0139198
649.364	0.0137627
649.443	0.0137643
649.521	0.0137492
649.599	0.0139665
649.677	0.0137350
649.755	0.0138454
649.833	0.0137261
649.911	0.0137907
649.989	0.0138061
650.068	0.0137963
650.146	0.0136761
650.224	0.0137852
650.302	0.0137620
650.380	0.0138302
650.458	0.0138071
650.536	0.0138228
650.614	0.0136798
650.693	0.0136819
650.771	0.0137036
650.849	0.0136924
650.927	0.0138322
651.005	0.0137695
651.083	0.0138744
651.161	0.0138087
651.239	0.0136922
651.318	0.0136638
651.396	0.0137699
651.474	0.0136781
651.552	0.0137782
651.630	0.0138219
651.708	0.0136539
651.786	0.0137392
651.864	0.0138445
651.943	0.0138441
652.021	0.0138080
652.099	0.0137998
652.177	0.0138473
652.255	0.0137313
652.333	0.0137928
652.411	0.0138004
652.489	0.0137960
652.568	0.0137320
652.646	0.0138132
652.724	0.0138586
652.802	0.0137996
652.880	0.0138391
652.958	0.0137761
653.036	0.0137389
653.114	0.0136990
653.193	0.0137395
653.271	0.0138570
653.349	0.0138605
653.427	0.0136911
653.505	0.0137905
653.583	0.0138232
653.661	0.0138136
653.739	0.0137488
653.818	0.0138972
653.896	0.0138232
653.974	0.0137204
654.052	0.0137849
654.130	0.0137692
654.208	0.0137048
654.286	0.0138230
654.364	0.0136976
654.443	0.0136654
654.521	0.0137666
654.599	0.0137908
654.677	0.0138727
654.755	0.0137434
654.833	0.0136963
654.911	0.0138037
654.989	0.0137941
655.068	0.0137879
655.146	0.0137070
655.224	0.0137484
655.302	0.0137688
655.380	0.0136783
655.458	0.0137065
655.536	0.0137034
655.614	0.0138464
655.693	0.0135847
655.771	0.0136787
655.849	0.0137506
655.927	0.0138811
656.005	0.0136738
656.083	0.0136375
656.161	0.0137459
656.239	0.0138616
656.318	0.0137136
656.396	0.0136228
656.474	0.0136578
656.552	0.0137547
656.630	0.0137415
656.708	0.0137433
656.786	0.0138189
656.864	0.0137684
656.943	0.0137207
657.021	0.0137474
657.099	0.0137607
657.177	0.0137214
657.255	0.0138793
657.333	0.0137856
657.411	0.0136953
657.489	0.0138000
657.568	0.0137444
657.646	0.0136280
657.724	0.0135683
657.802	0.0137610
657.880	0.0135621
657.958	0.0135908
658.036	0.0136521
658.114	0.0137222
658.193	0.0135521
658.271	0.0134921
658.349	0.0137335
658.427	0.0136708
658.505	0.0136652
658.583	0.0137048
658.661	0.0135983
658.739	0.0135867
658.818	0.0137764
658.896	0.0138503
658.974	0.0136430
659.052	0.0135994
659.130	0.0137629
659.208	0.0137786
659.286	0.0136792
659.364	0.0136996
659.443	0.0137057
659.521	0.0136896
659.599	0.0136596
659.677	0.0135993
659.755	0.0136777
659.833	0.0137948
659.911	0.0137543
659.989	0.0136806
660.068	0.0137923
660.146	0.0136742
660.224	0.0136942
660.302	0.0137707
660.380	0.0137885
660.458	0.0137665
660.536	0.0137710
660.614	0.0137659
660.693	0.0137026
660.771	0.0136493
660.849	0.0138009
660.927	0.0137629
661.005	0.0136298
661.083	0.0137861
661.161	0.0137579
661.239	0.0138074
661.318	0.0137831
661.396	0.0137137
661.474	0.0138747
661.552	0.0136871
661.630	0.0137379
661.708	0.0137174
661.786	0.0137211
661.864	0.0137912
661.943	0.0137023
662.021	0.0137644
662.099	0.0138353
662.177	0.0136981
662.255	0.0135502
662.333	0.0135636
662.411	0.0137989
662.489	0.0138412
662.568	0.0137864
662.646	0.0137682
662.724	0.0137784
662.802	0.0137163
662.880	0.0136912
662.958	0.0138036
663.036	0.0137292
663.114	0.0136922
663.193	0.0138208
663.271	0.0136571
663.349	0.0137433
663.427	0.0136613
663.505	0.0137908
663.583	0.0137408
663.661	0.0137431
663.739	0.0137791
663.818	0.0136400
663.896	0.0135732
663.974	0.0137138
664.052	0.0138163
664.130	0.0135721
664.208	0.0136803
664.286	0.0136022
664.364	0.0136267
664.443	0.0136409
664.521	0.0137226
664.599	0.0136739
664.677	0.0138431
664.755	0.0137180
664.833	0.0136333
664.911	0.0135806
664.989	0.0137426
665.068	0.0138085
665.146	0.0138174
665.224	0.0137072
665.302	0.0136140
665.380	0.0138306
665.458	0.0138145
665.536	0.0137543
665.614	0.0138439
665.693	0.0136322
665.771	0.0138322
665.849	0.0139654
665.927	0.0136993
666.005	0.0136413
666.083	0.0138872
666.161	0.0138643
666.239	0.0137289
666.318	0.0138432
666.396	0.0136840
666.474	0.0137852
666.552	0.0138187
666.630	0.0138719
666.708	0.0137545
666.786	0.0138326
666.864	0.0138712
666.943	0.0138036
667.021	0.0137666
667.099	0.0138029
667.177	0.0137792
667.255	0.0138646
667.333	0.0138536
667.411	0.0137732
667.489	0.0137296
667.568	0.0138718
667.646	0.0136769
667.724	0.0136948
667.802	0.0136524
667.880	0.0136143
667.958	0.0135535
668.036	0.0135665
668.114	0.0135895
668.193	0.0136766
668.271	0.0137524
668.349	0.0136897
668.427	0.0138161
668.505	0.0137605
668.583	0.0137651
668.661	0.0137715
668.739	0.0139102
668.818	0.0138804
668.896	0.0138166
668.974	0.0139793
669.052	0.0138585
669.130	0.0140124
669.208	0.0141476
669.286	0.0139503
669.364	0.0140074
669.443	0.0139674
669.521	0.0139513
669.599	0.0139698
669.677	0.0139725
669.755	0.0138056
669.833	0.0138071
669.911	0.0138377
669.989	0.0138097
670.068	0.0137189
670.146	0.0137512
670.224	0.0137505
670.302	0.0136756
670.380	0.0135655
670.458	0.0136588
670.536	0.0136755
670.614	0.0137415
670.693	0.0136228
670.771	0.0138470
670.849	0.0137447
670.927	0.0139005
671.005	0.0139194
671.083	0.0139305
671.161	0.0139494
671.239	0.0140628
671.318	0.0139464
671.396	0.0139961
671.474	0.0141315
671.552	0.0139485
671.630	0.0139365
671.708	0.0138728
671.786	0.0136526
671.864	0.0137131
671.943	0.0136780
672.021	0.0136115
672.099	0.0135734
672.177	0.0134991
672.255	0.0134564
672.333	0.0133482
672.411	0.0133298
672.489	0.0134064
672.568	0.0134690
672.646	0.0133662
672.724	0.0134550
672.802	0.0135729
672.880	0.0135133
672.958	0.0137183
673.036	0.0138852
673.114	0.0139853
673.193	0.0140049
673.271	0.0141027
673.349	0.0141746
673.427	0.0142138
673.505	0.0143929
673.583	0.0143219
673.661	0.0144347
673.739	0.0143314
673.818	0.0143218
673.896	0.0143569
673.974	0.0142544
674.052	0.0141969
674.130	0.0140024
674.208	0.0138856
674.286	0.0138469
674.364	0.0138264
674.443	0.0136047
674.521	0.0133136
674.599	0.0130526
674.677	0.0130219
674.755	0.0128430
674.833	0.0126832
674.911	0.0125563
674.989	0.0125916
675.068	0.0125205
675.146	0.0124837
675.224	0.0125688
675.302	0.0125885
675.380	0.0126729
675.458	0.0129425
675.536	0.0129108
675.614	0.0130394
675.693	0.0132185
675.771	0.0133739
675.849	0.0134240
675.927	0.0137591
676.005	0.0139246
676.083	0.0141200
676.161	0.0143321
676.239	0.0145799
676.318	0.0146614
676.396	0.0147982
676.474	0.0151346
676.552	0.0152965
676.630	0.0153205
676.708	0.0152343
676.786	0.0153176
676.864	0.0154183
676.943	0.0153084
677.021	0.0152019
677.099	0.0150347
677.177	0.0148372
677.255	0.0148321
677.333	0.0146758
677.411	0.0143983
677.489	0.0142342
677.568	0.0138728
677.646	0.0136469
677.724	0.0133157
677.802	0.0132102
677.880	0.0129590
677.958	0.0127107
678.036	0.0124920
678.114	0.0123730
678.193	0.0121812
678.271	0.0120235
678.349	0.0120839
678.427	0.0119917
678.505	0.0117352
678.583	0.0118755
678.661	0.0118027
678.739	0.0120198
678.818	0.0119511
678.896	0.0122100
678.974	0.0122643
679.052	0.0124832
679.130	0.0127013
679.208	0.0127530
679.286	0.0130061
679.364	0.0132558
679.443	0.0133778
679.521	0.0134993
679.599	0.0136494
679.677	0.0140007
679.755	0.0142516
679.833	0.0143583
679.911	0.0147111
679.989	0.0150062
680.068	0.0151031
680.146	0.0153360
680.224	0.0155694
680.302	0.0157528
680.380	0.0159290
680.458	0.0159652
680.536	0.0162836
680.614	0.0163316
680.693	0.0163166
680.771	0.0164560
680.849	0.0162122
680.927	0.0161834
681.005	0.0159566
681.083	0.0157392
681.161	0.0154810
681.239	0.0152976
681.318	0.0149271
681.396	0.0144691
681.474	0.0141794
681.552	0.0137894
681.630	0.0134979
681.708	0.0130321
681.786	0.0125671
681.864	0.0121403
681.943	0.0118429
682.021	0.0114626
682.099	0.0111063
682.177	0.0106786
682.255	0.0105331
682.333	0.0103826
682.411	0.0101118
682.489	0.00989967
682.568	0.00992950
682.646	0.0101030
682.724	0.0101033
682.802	0.0101848
682.880	0.0103440
682.958	0.0108245
683.036	0.0111263
683.114	0.0117582
683.193	0.0120847
683.271	0.0125373
683.349	0.0129771
683.427	0.0133298
683.505	0.0136987
683.583	0.0145058
683.661	0.0150313
683.739	0.0153675
683.818	0.0159026
683.896	0.0162830
683.974	0.0166864
684.052	0.0169846
684.130	0.0173103
684.208	0.0175704
684.286	0.0177067
684.364	0.0178505
684.443	0.0177972
684.521	0.0176963
684.599	0.0175874
684.677	0.0172780
684.755	0.0172054
684.833	0.0168858
684.911	0.0163575
684.989	0.0159928
685.068	0.0157662
685.146	0.0153392
685.224	0.0147540
685.302	0.0142346
685.380	0.0138738
685.458	0.0133823
685.536	0.0130774
685.614	0.0125334
685.693	0.0122096
685.771	0.0118924
685.849	0.0115670
685.927	0.0113140
686.005	0.0111458
686.083	0.0106424
686.161	0.0107144
686.239	0.0105964
686.318	0.0104555
686.396	0.0103719
686.474	0.0104053
686.552	0.0104310
686.630	0.0106146
686.708	0.0106520
686.786	0.0107655
686.864	0.0111442
686.943	0.0111934
687.021	0.0114884
687.099	0.0119283
687.177	0.0120802
687.255	0.0124541
687.333	0.0127513
687.411	0.0129804
687.489	0.0133731
687.568	0.0137285
687.646	0.0139933
687.724	0.0143977
687.802	0.0146128
687.880	0.0148868
687.958	0.0151102
688.036	0.0153974
688.114	0.0156426
688.193	0.0159749
688.271	0.0160394
688.349	0.0162311
688.427	0.0163351
688.505	0.0164645
688.583	0.0163174
688.661	0.0165088
688.739	0.0164977
688.818	0.0163367
688.896	0.0162057
688.974	0.0161346
689.052	0.0161161
689.130	0.0159283
689.208	0.0158310
689.286	0.0156432
689.364	0.0153281
689.443	0.0150288
689.521	0.0147419
689.599	0.0145323
689.677	0.0141884
689.755	0.0139027
689.833	0.0136845
689.911	0.0133791
689.989	0.0132472
690.068	0.0129457
690.146	0.0127148
690.224	0.0126527
690.302	0.0124670
690.380	0.0122831
690.458	0.0121254
690.536	0.0121672
690.614	0.0119917
690.693	0.0118783
690.771	0.0119607
690.849	0.0118401
690.927	0.0117542
691.005	0.0118327
691.083	0.0117861
691.161	0.0118517
691.239	0.0118212
691.318	0.0119217
691.396	0.0119524
691.474	0.0121568
691.552	0.0123280
691.630	0.0124174
691.708	0.0125255
691.786	0.0127593
691.864	0.0127650
691.943	0.0130651
692.021	0.0131202
692.099	0.0134718
692.177	0.0136755
692.255	0.0139069
692.333	0.0139672
692.411	0.0142151
692.489	0.0144511
692.568	0.0144444
692.646	0.0145818
692.724	0.0148697
692.802	0.0149957
692.880	0.0150023
692.958	0.0150656
693.036	0.0149742
693.114	0.0148572
693.193	0.0149895
693.271	0.0150645
693.349	0.0148837
693.427	0.0148827
693.505	0.0146806
693.583	0.0148438
693.661	0.0147994
693.739	0.0146655
693.818	0.0146353
693.896	0.0145071
693.974	0.0143719
694.052	0.0144530
694.130	0.0142628
694.208	0.0143237
694.286	0.0141052
694.364	0.0140695
694.443	0.0139626
694.521	0.0138927
694.599	0.0138216
694.677	0.0137342
694.755	0.0137793
694.833	0.0136643
694.911	0.0136655
694.989	0.0136391
695.068	0.0136089
695.146	0.0136493
695.224	0.0138112
695.302	0.0137140
695.380	0.0135722
695.458	0.0136469
695.536	0.0134151
695.614	0.0135689
695.693	0.0136143
695.771	0.0135703
695.849	0.0134854
695.927	0.0135107
696.005	0.0133787
696.083	0.0133878
696.161	0.0134274
696.239	0.0133236
696.318	0.0132994
696.396	0.0133266
696.474	0.0130508
696.552	0.0128793
696.630	0.0129984
696.708	0.0128121
696.786	0.0127438
696.864	0.0124830
696.943	0.0124892
697.021	0.0125183
697.099	0.0124252
697.177	0.0121805
697.255	0.0121900
697.333	0.0121401
697.411	0.0121720
697.489	0.0122766
697.568	0.0122674
697.646	0.0121403
697.724	0.0123335
697.802	0.0125456
697.880	0.0126054
697.958	0.0127940
698.036	0.0130962
698.114	0.0132595
698.193	0.0135548
698.271	0.0138342
698.349	0.0140897
698.427	0.0142483
698.505	0.0144192
698.583	0.0147845
698.661	0.0149289
698.739	0.0148853
698.818	0.0150712
698.896	0.0152426
698.974	0.0153160
699.052	0.0153122
699.130	0.0153762
699.208	0.0153402
699.286	0.0151794
699.364	0.0151665
699.443	0.0151173
699.521	0.0150488
699.599	0.0150115
699.677	0.0149165
699.755	0.0148065
699.833	0.0148186
699.911	0.0147065
699.989	0.0143813
700.068	0.0143651
700.146	0.0141955
700.224	0.0139045
700.302	0.0138389
700.380	0.0137820
700.458	0.0135445
700.536	0.0135390
700.614	0.0133736
700.693	0.0131496
700.771	0.0132890
700.849	0.0132004
700.927	0.0130772
701.005	0.0129776
701.083	0.0132446
701.161	0.0130944
701.239	0.0129658
701.318	0.0130760
701.396	0.0130724
701.474	0.0130112
701.552	0.0129443
701.630	0.0129263
701.708	0.0128479
701.786	0.0127893
701.864	0.0128588
701.943	0.0127007
702.021	0.0127379
702.099	0.0128169
702.177	0.0126168
702.255	0.0127402
702.333	0.0125874
702.411	0.0125507
702.489	0.0124675
702.568	0.0125110
702.646	0.0124919
702.724	0.0124509
702.802	0.0123244
702.880	0.0122890
702.958	0.0123251
703.036	0.0124476
703.114	0.0126071
703.193	0.0127907
703.271	0.0127600
703.349	0.0130145
703.427	0.0131188
703.505	0.0135522
703.583	0.0136682
703.661	0.0139425
703.739	0.0143294
703.818	0.0143655
703.896	0.0145380
703.974	0.0147483
704.052	0.0148296
704.130	0.0148581
704.208	0.0150900
704.286	0.0151341
704.364	0.0148955
704.443	0.0149072
704.521	0.0150462
704.599	0.0149891
704.677	0.0149156
704.755	0.0149080
704.833	0.0149200
704.911	0.0149426
704.989	0.0146484
705.068	0.0146224
705.146	0.0146728
705.224	0.0144891
705.302	0.0144205
705.380	0.0146014
705.458	0.0146044
705.536	0.0144350
705.614	0.0143984
705.693	0.0145123
705.771	0.0146638
705.849	0.0145757
705.927	0.0146069
706.005	0.0145029
706.083	0.0145486
706.161	0.0144855
706.239	0.0143950
706.318	0.0143779
706.396	0.0142744
706.474	0.0141702
706.552	0.0141647
706.630	0.0137981
706.708	0.0136879
706.786	0.0137589
706.864	0.0134259
706.943	0.0132726
707.021	0.0130410
707.099	0.0130235
707.177	0.0126865
707.255	0.0122832
707.333	0.0122140
707.411	0.0120586
707.489	0.0116388
707.568	0.0116216
707.646	0.0112516
707.724	0.0111895
707.802	0.0110153
707.880	0.0110103
707.958	0.0109534
708.036	0.0109039
708.114	0.0107617
708.193	0.0109124
708.271	0.0111632
708.349	0.0113559
708.427	0.0113724
708.505	0.0117432
708.583	0.0118776
708.661	0.0123469
708.739	0.0126166
708.818	0.0129705
708.896	0.0135193
708.974	0.0141483
709.052	0.0144675
709.130	0.0148282
709.208	0.0152649
709.286	0.0157122
709.364	0.0158477
709.443	0.0162580
709.521	0.0166590
709.599	0.0168648
709.677	0.0170792
709.755	0.0170586
709.833	0.0170200
709.911	0.0170639
709.989	0.0169044
710.068	0.0166658
710.146	0.0164574
710.224	0.0162775
710.302	0.0161091
710.380	0.0158207
710.458	0.0157045
710.536	0.0153269
710.614	0.0150091
710.693	0.0147681
710.771	0.0143797
710.849	0.0141666
710.927	0.0139282
711.005	0.0136755
711.083	0.0134578
711.161	0.0132780
711.239	0.0132058
711.318	0.0129198
711.396	0.0128757
711.474	0.0127072
711.552	0.0126853
711.630	0.0127532
711.708	0.0125993
711.786	0.0126539
711.864	0.0127800
711.943	0.0128922
712.021	0.0127991
712.099	0.0125841
712.177	0.0127876
712.255	0.0127604
712.333	0.0127330
712.411	0.0127493
712.489	0.0128996
712.568	0.0128588
712.646	0.0127774
712.724	0.0126537
712.802	0.0126853
712.880	0.0127760
712.958	0.0127473
713.036	0.0127033
713.114	0.0127636
713.193	0.0127904
713.271	0.0127465
713.349	0.0127850
713.427	0.0129735
713.505	0.0129453
713.583	0.0130098
713.661	0.0129474
713.739	0.0131176
713.818	0.0130556
713.896	0.0130472
713.974	0.0130676
714.052	0.0132423
714.130	0.0131892
714.208	0.0131402
714.286	0.0133318
714.364	0.0134760
714.443	0.0137241
714.521	0.0136278
714.599	0.0137200
714.677	0.0137410
714.755	0.0139598
714.833	0.0141537
714.911	0.0142174
714.989	0.0142979
715.068	0.0145482
715.146	0.0145326
715.224	0.0145783
715.302	0.0146574
715.380	0.0146584
715.458	0.0147813
715.536	0.0146452
715.614	0.0148023
715.693	0.0147314
715.771	0.0146472
715.849	0.0145866
715.927	0.0144764
716.005	0.0143728
716.083	0.0145299
716.161	0.0144637
716.239	0.0145553
716.318	0.0143756
716.396	0.0144920
716.474	0.0144855
716.552	0.0143851
716.630	0.0144138
716.708	0.0144695
716.786	0.0146680
716.864	0.0146605
716.943	0.0146082
717.021	0.0146530
717.099	0.0146986
717.177	0.0147649
717.255	0.0149574
717.333	0.0146600
717.411	0.0148478
717.489	0.0145487
717.568	0.0143788
717.646	0.0142039
717.724	0.0138989
717.802	0.0136628
717.880	0.0134607
717.958	0.0130230
718.036	0.0123750
718.114	0.0122890
718.193	0.0120844
718.271	0.0116283
718.349	0.0113406
718.427	0.0111562
718.505	0.0110667
718.583	0.0108276
718.661	0.0108821
718.739	0.0108803
718.818	0.0109925
718.896	0.0109909
718.974	0.0110978
719.052	0.0113736
719.130	0.0114135
719.208	0.0116952
719.286	0.0122103
719.364	0.0124830
719.443	0.0127361
719.521	0.0128842
719.599	0.0134387
719.677	0.0137984
719.755	0.0140929
719.833	0.0143230
719.911	0.0145923
719.989	0.0147684
720.068	0.0149381
720.146	0.0150150
720.224	0.0150881
720.302	0.0150825
720.380	0.0151240
720.458	0.0151321
720.536	0.0151512
720.614	0.0150633
720.693	0.0151622
720.771	0.0148856
720.849	0.0150213
720.927	0.0149846
721.005	0.0147562
721.083	0.0149126
721.161	0.0147894
721.239	0.0147004
721.318	0.0147006
721.396	0.0145328
721.474	0.0145921
721.552	0.0144147
721.630	0.0144514
721.708	0.0143615
721.786	0.0144086
721.864	0.0142345
721.943	0.0141328
722.021	0.0141821
722.099	0.0141679
722.177	0.0139864
722.255	0.0139082
722.333	0.0140244
722.411	0.0139755
722.489	0.0140001
722.568	0.0140201
722.646	0.0138689
722.724	0.0138454
722.802	0.0137478
722.880	0.0138698
722.958	0.0135129
723.036	0.0134286
723.114	0.0134533
723.193	0.0131687
723.271	0.0129865
723.349	0.0128609
723.427	0.0125762
723.505	0.0125618
723.583	0.0124826
723.661	0.0122845
723.739	0.0123386
723.818	0.0122364
723.896	0.0121045
723.974	0.0121243
724.052	0.0122903
724.130	0.0123486
724.208	0.0122659
724.286	0.0124017
724.364	0.0126534
724.443	0.0126627
724.521	0.0128686
724.599	0.0129388
724.677	0.0130163
724.755	0.0132430
724.833	0.0136774
724.911	0.0137650
724.989	0.0138836
725.068	0.0139997
725.146	0.0142018
725.224	0.0143018
725.302	0.0142839
725.380	0.0143452
725.458	0.0145686
725.536	0.0148061
725.614	0.0147233
725.693	0.0147159
725.771	0.0147802
725.849	0.0147727
725.927	0.0149161
726.005	0.0148592
726.083	0.0146053
726.161	0.0146668
726.239	0.0145779
726.318	0.0145244
726.396	0.0144093
726.474	0.0143388
726.552	0.0142046
726.630	0.0142268
726.708	0.0141490
726.786	0.0140033
726.864	0.0138083
726.943	0.0139635
727.021	0.0140226
727.099	0.0138886
727.177	0.0140250
727.255	0.0140463
727.333	0.0140875
727.411	0.0142245
727.489	0.0142925
727.568	0.0142410
727.646	0.0144260
727.724	0.0143407
727.802	0.0144083
727.880	0.0142542
727.958	0.0141924
728.036	0.0142623
728.114	0.0140643
728.193	0.0139299
728.271	0.0139286
728.349	0.0136677
728.427	0.0135339
728.505	0.0132360
728.583	0.0130466
728.661	0.0130714
728.739	0.0129381
728.818	0.0124708
728.896	0.0126730
728.974	0.0127328
729.052	0.0125446
729.130	0.0126276
729.208	0.0126456
729.286	0.0125109
729.364	0.0126651
729.443	0.0126939
729.521	0.0127612
729.599	0.0128591
729.677	0.0128009
729.755	0.0130141
729.833	0.0128344
729.911	0.0131111
729.989	0.0131260
730.068	0.0133848
730.146	0.0133788
730.224	0.0135152
730.302	0.0136943
730.380	0.0138585
730.458	0.0138595
730.536	0.0140881
730.614	0.0141656
730.693	0.0143031
730.771	0.0144043
730.849	0.0144902
730.927	0.0145334
731.005	0.0145238
731.083	0.0146732
731.161	0.0145284
731.239	0.0145126
731.318	0.0145085
731.396	0.0144493
731.474	0.0145450
731.552	0.0145099
731.630	0.0143401
731.708	0.0142940
731.786	0.0141876
731.864	0.0141901
731.943	0.0139647
732.021	0.0138647
732.099	0.0138392
732.177	0.0138121
732.255	0.0138028
732.333	0.0138306
732.411	0.0136935
732.489	0.0137907
732.568	0.0136776
732.646	0.0137012
732.724	0.0138017
732.802	0.0136586
732.880	0.0139169
732.958	0.0139124
733.036	0.0138261
733.114	0.0139342
733.193	0.0140175
733.271	0.0138104
733.349	0.0140163
733.427	0.0138840
733.505	0.0139481
733.583	0.0140565
733.661	0.0140787
733.739	0.0141788
733.818	0.0140541
733.896	0.0139668
733.974	0.0138940
734.052	0.0138349
734.130	0.0137907
734.208	0.0138528
734.286	0.0136407
734.364	0.0136932
734.443	0.0135560
734.521	0.0132582
734.599	0.0131997
734.677	0.0131586
734.755	0.0131123
734.833	0.0129445
734.911	0.0128936
734.989	0.0130173
735.068	0.0130133
735.146	0.0131602
735.224	0.0131992
735.302	0.0133032
735.380	0.0134701
735.458	0.0135017
735.536	0.0136127
735.614	0.0136467
735.693	0.0137507
735.771	0.0138510
735.849	0.0139487
735.927	0.0138954
736.005	0.0138678
736.083	0.0139201
736.161	0.0142083
736.239	0.0140281
736.318	0.0139571
736.396	0.0140507
736.474	0.0140000
736.552	0.0140292
736.630	0.0140408
736.708	0.0140136
736.786	0.0140540
736.864	0.0138538
736.943	0.0138405
737.021	0.0139241
737.099	0.0139584
737.177	0.0138046
737.255	0.0137684
737.333	0.0137884
737.411	0.0138108
737.489	0.0137880
737.568	0.0136958
737.646	0.0137801
737.724	0.0137385
737.802	0.0136471
737.880	0.0136540
737.958	0.0135973
738.036	0.0137938
738.114	0.0137518
738.193	0.0137413
738.271	0.0137595
738.349	0.0137463
738.427	0.0136577
738.505	0.0136707
738.583	0.0137424
738.661	0.0138042
738.739	0.0138315
738.818	0.0137646
738.896	0.0137457
738.974	0.0137157
739.052	0.0138789
739.130	0.0139003
739.208	0.0138593
739.286	0.0139557
739.364	0.0139554
739.443	0.0138280
739.521	0.0139236
739.599	0.0139033
739.677	0.0138711
739.755	0.0138687
739.833	0.0139125
739.911	0.0138277
739.989	0.0136610
740.068	0.0138288
740.146	0.0138693
740.224	0.0138580
740.302	0.0138795
740.380	0.0138649
740.458	0.0138428
740.536	0.0137905
740.614	0.0137516
740.693	0.0136733
740.771	0.0137105
740.849	0.0137275
740.927	0.0135052
741.005	0.0136596
741.083	0.0135258
741.161	0.0136183
741.239	0.0134593
741.318	0.0133225
741.396	0.0134778
741.474	0.0134232
741.552	0.0134650
741.630	0.0134535
741.708	0.0135956
741.786	0.0134380
741.864	0.0135175
741.943	0.0135832
742.021	0.0134586
742.099	0.0134093
742.177	0.0133106
742.255	0.0134270
742.333	0.0134990
742.411	0.0134438
742.489	0.0133141
742.568	0.0134349
742.646	0.0133963
742.724	0.0134042
742.802	0.0134954
742.880	0.0135017
742.958	0.0134250
743.036	0.0135318
743.114	0.0134482
743.193	0.0135835
743.271	0.0136436
743.349	0.0136030
743.427	0.0136543
743.505	0.0136863
743.583	0.0138293
743.661	0.0137771
743.739	0.0137700
743.818	0.0140573
743.896	0.0140345
743.974	0.0141373
744.052	0.0140807
744.130	0.0142632
744.208	0.0142497
744.286	0.0142984
744.364	0.0143279
744.443	0.0142249
744.521	0.0141872
744.599	0.0140793
744.677	0.0142697
744.755	0.0141319
744.833	0.0141950
744.911	0.0141152
744.989	0.0140155
745.068	0.0142509
745.146	0.0142064
745.224	0.0142224
745.302	0.0141804
745.380	0.0143417
745.458	0.0140974
745.536	0.0141110
745.614	0.0140875
745.693	0.0141673
745.771	0.0140679
745.849	0.0140636
745.927	0.0139246
746.005	0.0139310
746.083	0.0137885
746.161	0.0137070
746.239	0.0137424
746.318	0.0136694
746.396	0.0135387
746.474	0.0134289
746.552	0.0133635
746.630	0.0133289
746.708	0.0132382
746.786	0.0132294
746.864	0.0132140
746.943	0.0131784
747.021	0.0132380
747.099	0.0132110
747.177	0.0129887
747.255	0.0131422
747.333	0.0132920
747.411	0.0132569
747.489	0.0132477
747.568	0.0132088
747.646	0.0132708
747.724	0.0131582
747.802	0.0131950
747.880	0.0132622
747.958	0.0133621
748.036	0.0132722
748.114	0.0132034
748.193	0.0132449
748.271	0.0132864
748.349	0.0133566
748.427	0.0133894
748.505	0.0132774
748.583	0.0135448
748.661	0.0134977
748.739	0.0134293
748.818	0.0136554
748.896	0.0136258
748.974	0.0136098
749.052	0.0138518
749.130	0.0137833
749.208	0.0136309
749.286	0.0135954
749.364	0.0138712
749.443	0.0139079
749.521	0.0139106
749.599	0.0140488
749.677	0.0141267
749.755	0.0141528
749.833	0.0141727
749.911	0.0143626
749.989	0.0143950
750.068	0.0143660
750.146	0.0143904
750.224	0.0147121
750.302	0.0145441
750.380	0.0145320
750.458	0.0146546
750.536	0.0145998
750.614	0.0145493
750.693	0.0144209
750.771	0.0146093
750.849	0.0144950
750.927	0.0142093
751.005	0.0142605
751.083	0.0141798
751.161	0.0141984
751.239	0.0140321
751.318	0.0139560
751.396	0.0139126
751.474	0.0137598
751.552	0.0137512
751.630	0.0136562
751.708	0.0135069
751.786	0.0135265
751.864	0.0134467
751.943	0.0133689
752.021	0.0132975
752.099	0.0132449
752.177	0.0132959
752.255	0.0131850
752.333	0.0132090
752.411	0.0132806
752.489	0.0133033
752.568	0.0131127
752.646	0.0133160
752.724	0.0135034
752.802	0.0134502
752.880	0.0135535
752.958	0.0135881
753.036	0.0136958
753.114	0.0137395
753.193	0.0138210
753.271	0.0139127
753.349	0.0138286
753.427	0.0137545
753.505	0.0137269
753.583	0.0138776
753.661	0.0137821
753.739	0.0135970
753.818	0.0135159
753.896	0.0136275
753.974	0.0137000
754.052	0.0134679
754.130	0.0135250
754.208	0.0135844
754.286	0.0136598
754.364	0.0135803
754.443	0.0137056
754.521	0.0137028
754.599	0.0137750
754.677	0.0137772
754.755	0.0138347
754.833	0.0140508
754.911	0.0140217
754.989	0.0141624
755.068	0.0141591
755.146	0.0141238
755.224	0.0141227
755.302	0.0142584
755.380	0.0143291
755.458	0.0143129
755.536	0.0142908
755.614	0.0142281
755.693	0.0141702
755.771	0.0141006
755.849	0.0141334
755.927	0.0141323
756.005	0.0140993
756.083	0.0141218
756.161	0.0139365
756.239	0.0140409
756.318	0.0139866
756.396	0.0138047
756.474	0.0137737
756.552	0.0137970
756.630	0.0138572
756.708	0.0138625
756.786	0.0138596
756.864	0.0136304
756.943	0.0136650
757.021	0.0136407
757.099	0.0135725
757.177	0.0136674
757.255	0.0136435
757.333	0.0135293
757.411	0.0136954
757.489	0.0135423
757.568	0.0136030
757.646	0.0136359
757.724	0.0135238
757.802	0.0136742
757.880	0.0136476
757.958	0.0134679
758.036	0.0135197
758.114	0.0135551
758.193	0.0137346
758.271	0.0138206
758.349	0.0136328
758.427	0.0136150
758.505	0.0137208
758.583	0.0137623
758.661	0.0137878
758.739	0.0137766
758.818	0.0138805
758.896	0.0138886
758.974	0.0139182
759.052	0.0139698
759.130	0.0139841
759.208	0.0140691
759.286	0.0141144
759.364	0.0139688
759.443	0.0140720
759.521	0.0140512
759.599	0.0139339
759.677	0.0139178
759.755	0.0137736
759.833	0.0137519
759.911	0.0137954
759.989	0.0136739
760.068	0.0136961
760.146	0.0134767
760.224	0.0133468
760.302	0.0133046
760.380	0.0134036
760.458	0.0132663
760.536	0.0131394
760.614	0.0131224
760.693	0.0132726
760.771	0.0130820
760.849	0.0131285
760.927	0.0131355
761.005	0.0131229
761.083	0.0130553
761.161	0.0131080
761.239	0.0130376
761.318	0.0129074
761.396	0.0129936
761.474	0.0131608
761.552	0.0131595
761.630	0.0130756
761.708	0.0132919
761.786	0.0132228
761.864	0.0135131
761.943	0.0133842
762.021	0.0133878
762.099	0.0136843
762.177	0.0135988
762.255	0.0135955
762.333	0.0137315
762.411	0.0138811
762.489	0.0139088
762.568	0.0139160
762.646	0.0139954
762.724	0.0141637
762.802	0.0142023
762.880	0.0141476
762.958	0.0141550
763.036	0.0141698
763.114	0.0142723
763.193	0.0141544
763.271	0.0143925
763.349	0.0142690
763.427	0.0142930
763.505	0.0142717
763.583	0.0143007
763.661	0.0142518
763.739	0.0141668
763.818	0.0141679
763.896	0.0140475
763.974	0.0139081
764.052	0.0138779
764.130	0.0138249
764.208	0.0137986
764.286	0.0135750
764.364	0.0136134
764.443	0.0135066
764.521	0.0134268
764.599	0.0133627
764.677	0.0131694
764.755	0.0132042
764.833	0.0132131
764.911	0.0130771
764.989	0.0131230
765.068	0.0130457
765.146	0.0132042
765.224	0.0131295
765.302	0.0131145
765.380	0.0131559
765.458	0.0132697
765.536	0.0131759
765.614	0.0131281
765.693	0.0132024
765.771	0.0133327
765.849	0.0132590
765.927	0.0132886
766.005	0.0132851
766.083	0.0134718
766.161	0.0134677
766.239	0.0134196
766.318	0.0134340
766.396	0.0135410
766.474	0.0136360
766.552	0.0135292
766.630	0.0134036
766.708	0.0136665
766.786	0.0136668
766.864	0.0136411
766.943	0.0136764
767.021	0.0137144
767.099	0.0138462
767.177	0.0140445
767.255	0.0139785
767.333	0.0139947
767.411	0.0138514
767.489	0.0140460
767.568	0.0141940
767.646	0.0141697
767.724	0.0141495
767.802	0.0141660
767.880	0.0141640
767.958	0.0142764
768.036	0.0140590
768.114	0.0141860
768.193	0.0140148
768.271	0.0141153
768.349	0.0140286
768.427	0.0141317
768.505	0.0139214
768.583	0.0139908
768.661	0.0139626
768.739	0.0139594
768.818	0.0141221
768.896	0.0140656
768.974	0.0138559
769.052	0.0137148
769.130	0.0138407
769.208	0.0139192
769.286	0.0137879
769.364	0.0138175
769.443	0.0139523
769.521	0.0137318
769.599	0.0136984
769.677	0.0136580
769.755	0.0136853
769.833	0.0137718
769.911	0.0135684
769.989	0.0135173
770.068	0.0134645
770.146	0.0133701
770.224	0.0133117
770.302	0.0135447
770.380	0.0133163
770.458	0.0134297
770.536	0.0135629
770.614	0.0134398
770.693	0.0135225
770.771	0.0133688
770.849	0.0135927
770.927	0.0136140
771.005	0.0135010
771.083	0.0135403
771.161	0.0137034
771.239	0.0137383
771.318	0.0137935
771.396	0.0137534
771.474	0.0138478
771.552	0.0138905
771.630	0.0139684
771.708	0.0139601
771.786	0.0140421
771.864	0.0139738
771.943	0.0141139
772.021	0.0140237
772.099	0.0140794
772.177	0.0140982
772.255	0.0140749
772.333	0.0140658
772.411	0.0139650
772.489	0.0140660
772.568	0.0140256
772.646	0.0141183
772.724	0.0140513
772.802	0.0139248
772.880	0.0140760
772.958	0.0141148
773.036	0.0139234
773.114	0.0140380
773.193	0.0139914
773.271	0.0141109
773.349	0.0140336
773.427	0.0141412
773.505	0.0141094
773.583	0.0140164
773.661	0.0138882
773.739	0.0140446
773.818	0.0139128
773.896	0.0139164
773.974	0.0137769
774.052	0.0137177
774.130	0.0137420
774.208	0.0135650
774.286	0.0134444
774.364	0.0133975
774.443	0.0133378
774.521	0.0134363
774.599	0.0133351
774.677	0.0133849
774.755	0.0132710
774.833	0.0134016
774.911	0.0132922
774.989	0.0131936
775.068	0.0132216
775.146	0.0132111
775.224	0.0131536
775.302	0.0133417
775.380	0.0134851
775.458	0.0133271
775.536	0.0134111
775.614	0.0135780
775.693	0.0134709
775.771	0.0135731
775.849	0.0136618
775.927	0.0136012
776.005	0.0137197
776.083	0.0138759
776.161	0.0138207
776.239	0.0141270
776.318	0.0141218
776.396	0.0141184
776.474	0.0142595
776.552	0.0143653
776.630	0.0143314
776.708	0.0146086
776.786	0.0145796
776.864	0.0145214
776.943	0.0145442
777.021	0.0146047
777.099	0.0146017
777.177	0.0145760
777.255	0.0144870
777.333	0.0144745
777.411	0.0145910
777.489	0.0143596
777.568	0.0142269
777.646	0.0142803
777.724	0.0141077
777.802	0.0139579
777.880	0.0139722
777.958	0.0139111
778.036	0.0136060
778.114	0.0135728
778.193	0.0136042
778.271	0.0133916
778.349	0.0133591
778.427	0.0133670
778.505	0.0132455
778.583	0.0131872
778.661	0.0132112
778.739	0.0131446
778.818	0.0130147
778.896	0.0131730
778.974	0.0130505
779.052	0.0129143
779.130	0.0130447
779.208	0.0130423
779.286	0.0130827
779.364	0.0129904
779.443	0.0130612
779.521	0.0130679
779.599	0.0132412
779.677	0.0131680
779.755	0.0133027
779.833	0.0135378
779.911	0.0135259
779.989	0.0135596
780.068	0.0136906
780.146	0.0137846
780.224	0.0137493
780.302	0.0139185
780.380	0.0140592
780.458	0.0140227
780.536	0.0140993
780.614	0.0142271
780.693	0.0142444
780.771	0.0142063
780.849	0.0143336
780.927	0.0142689
781.005	0.0142602
781.083	0.0143077
781.161	0.0143552
781.239	0.0144759
781.318	0.0144586
781.396	0.0143566
781.474	0.0143148
781.552	0.0142043
781.630	0.0143190
781.708	0.0141159
781.786	0.0139275
781.864	0.0141147
781.943	0.0139048
782.021	0.0138406
782.099	0.0137089
782.177	0.0136619
782.255	0.0136176
782.333	0.0134739
782.411	0.0135770
782.489	0.0134229
782.568	0.0133556
782.646	0.0132577
782.724	0.0133061
782.802	0.0131645
782.880	0.0133621
782.958	0.0131506
783.036	0.0131490
783.114	0.0132081
783.193	0.0131570
783.271	0.0130273
783.349	0.0133130
783.427	0.0130582
783.505	0.0131148
783.583	0.0130798
783.661	0.0132056
783.739	0.0131036
783.818	0.0131690
783.896	0.0132409
783.974	0.0131621
784.052	0.0131740
784.130	0.0133088
784.208	0.0134219
784.286	0.0134484
784.364	0.0134840
784.443	0.0136259
784.521	0.0136441
784.599	0.0137605
784.677	0.0137753
784.755	0.0138465
784.833	0.0139361
784.911	0.0140069
784.989	0.0140185
785.068	0.0141512
785.146	0.0142027
785.224	0.0143800
785.302	0.0142664
785.380	0.0142593
785.458	0.0143474
785.536	0.0143235
785.614	0.0143332
785.693	0.0142806
785.771	0.0142741
785.849	0.0142951
785.927	0.0142797
786.005	0.0141048
786.083	0.0140199
786.161	0.0138141
786.239	0.0138760
786.318	0.0137210
786.396	0.0137405
786.474	0.0136330
786.552	0.0135456
786.630	0.0134751
786.708	0.0135287
786.786	0.0134106
786.864	0.0133693
786.943	0.0132511
787.021	0.0131990
787.099	0.0130788
787.177	0.0131698
787.255	0.0130876
787.333	0.0131960
787.411	0.0130856
787.489	0.0131461
787.568	0.0130479
787.646	0.0129712
787.724	0.0130931
787.802	0.0130097
787.880	0.0131263
787.958	0.0131642
788.036	0.0132861
788.114	0.0130287
788.193	0.0132352
788.271	0.0132835
788.349	0.0131641
788.427	0.0132605
788.505	0.0132763
788.583	0.0133835
788.661	0.0133995
788.739	0.0134168
788.818	0.0135003
788.896	0.0135127
788.974	0.0134616
789.052	0.0136469
789.130	0.0136865
789.208	0.0137491
789.286	0.0138512
789.364	0.0138989
789.443	0.0140491
789.521	0.0140186
789.599	0.0140508
789.677	0.0141389
789.755	0.0141765
789.833	0.0144730
789.911	0.0143128
789.989	0.0143378
790.068	0.0143178
790.146	0.0143887
790.224	0.0145766
790.302	0.0144754
790.380	0.0143016
790.458	0.0143408
790.536	0.0144489
790.614	0.0142445
790.693	0.0143629
790.771	0.0141188
790.849	0.0141202
790.927	0.0140266
791.005	0.0139050
791.083	0.0139203
791.161	0.0138476
791.239	0.0136990
791.318	0.0138517
791.396	0.0138322
791.474	0.0135068
791.552	0.0135750
791.630	0.0135861
791.708	0.0134135
791.786	0.0133360
791.864	0.0133980
791.943	0.0133567
792.021	0.0132840
792.099	0.0132899
792.177	0.0131774
792.255	0.0132471
792.333	0.0132574
792.411	0.0131686
792.489	0.0131458
792.568	0.0132019
792.646	0.0133024
792.724	0.0132255
792.802	0.0132902
792.880	0.0132878
792.958	0.0132388
793.036	0.0132896
793.114	0.0133018
793.193	0.0132428
793.271	0.0134142
793.349	0.0134350
793.427	0.0134586
793.505	0.0135078
793.583	0.0137588
793.661	0.0138148
793.739	0.0137476
793.818	0.0137241
793.896	0.0138990
793.974	0.0141460
794.052	0.0139252
794.130	0.0139319
794.208	0.0140527
794.286	0.0139926
794.364	0.0139990
794.443	0.0140288
794.521	0.0141508
794.599	0.0141396
794.677	0.0140482
794.755	0.0139884
794.833	0.0140263
794.911	0.0140976
794.989	0.0141129
795.068	0.0141624
795.146	0.0140199
795.224	0.0139702
795.302	0.0140238
795.380	0.0139781
795.458	0.0139587
795.536	0.0138701
795.614	0.0136819
795.693	0.0138613
795.771	0.0139218
795.849	0.0139245
795.927	0.0137306
796.005	0.0138017
796.083	0.0137652
796.161	0.0136270
796.239	0.0136441
796.318	0.0136957
796.396	0.0137266
796.474	0.0136942
796.552	0.0136768
796.630	0.0135699
796.708	0.0136048
796.786	0.0136241
796.864	0.0135907
796.943	0.0135565
797.021	0.0135619
797.099	0.0135312
797.177	0.0134813
797.255	0.0136205
797.333	0.0135226
797.411	0.0135446
797.489	0.0135370
797.568	0.0135415
797.646	0.0135854
797.724	0.0135806
797.802	0.0135513
797.880	0.0135691
797.958	0.0134831
798.036	0.0135872
798.114	0.0135919
798.193	0.0136184
798.271	0.0136701
798.349	0.0136295
798.427	0.0136292
798.505	0.0136852
798.583	0.0136260
798.661	0.0137232
798.739	0.0136223
798.818	0.0135619
798.896	0.0136841
798.974	0.0136378
799.052	0.0135298
799.130	0.0136581
799.208	0.0136724
799.286	0.0136964
799.364	0.0136118
799.443	0.0136454
799.521	0.0137554
799.599	0.0136691
799.677	0.0136090
799.755	0.0137038
799.833	0.0136165
799.911	0.0137426
799.989	0.0135090
800.068	0.0135884
800.146	0.0135487
800.224	0.0136723
800.302	0.0137289
800.380	0.0136964
800.458	0.0137622
800.536	0.0138342
800.614	0.0138501
800.693	0.0139626
800.771	0.0138921
800.849	0.0139290
800.927	0.0140173
801.005	0.0138692
801.083	0.0139935
801.161	0.0140407
801.239	0.0140305
801.318	0.0139744
801.396	0.0139373
801.474	0.0140995
801.552	0.0141770
801.630	0.0142626
801.708	0.0142434
801.786	0.0141363
801.864	0.0141807
801.943	0.0142735
802.021	0.0143201
802.099	0.0141651
802.177	0.0143347
802.255	0.0142596
802.333	0.0143300
802.411	0.0142356
802.489	0.0141924
802.568	0.0142576
802.646	0.0139973
802.724	0.0139865
802.802	0.0141484
802.880	0.0139995
802.958	0.0139125
803.036	0.0138324
803.114	0.0138029
803.193	0.0137041
803.271	0.0137602
803.349	0.0137968
803.427	0.0135365
803.505	0.0135706
803.583	0.0134524
803.661	0.0134733
803.739	0.0133337
803.818	0.0133408
803.896	0.0131454
803.974	0.0132045
804.052	0.0132980
804.130	0.0133400
804.208	0.0132332
804.286	0.0131293
804.364	0.0131297
804.443	0.0131144
804.521	0.0133045
804.599	0.0133294
804.677	0.0131609
804.755	0.0134285
804.833	0.0134570
804.911	0.0133243
804.989	0.0135126
805.068	0.0135659
805.146	0.0136024
805.224	0.0137387
805.302	0.0136707
805.380	0.0137320
805.458	0.0139382
805.536	0.0140504
805.614	0.0140665
805.693	0.0140517
805.771	0.0141130
805.849	0.0141284
805.927	0.0142008
806.005	0.0141557
806.083	0.0142139
806.161	0.0141656
806.239	0.0141897
806.318	0.0141539
806.396	0.0140875
806.474	0.0140668
806.552	0.0140727
806.630	0.0141077
806.708	0.0140414
806.786	0.0142867
806.864	0.0140679
806.943	0.0139652
807.021	0.0140419
807.099	0.0140316
807.177	0.0140053
807.255	0.0139843
807.333	0.0139119
807.411	0.0139526
807.489	0.0139830
807.568	0.0139449
807.646	0.0139162
807.724	0.0140656
807.802	0.0140012
807.880	0.0140892
807.958	0.0139386
808.036	0.0139042
808.114	0.0140681
808.193	0.0138410
808.271	0.0139735
808.349	0.0137873
808.427	0.0137833
808.505	0.0138216
808.583	0.0138646
808.661	0.0136778
808.739	0.0136893
808.818	0.0137094
808.896	0.0136613
808.974	0.0136249
809.052	0.0136015
809.130	0.0134999
809.208	0.0134704
809.286	0.0135286
809.364	0.0133238
809.443	0.0132961
809.521	0.0132581
809.599	0.0132178
809.677	0.0132684
809.755	0.0131012
809.833	0.0131809
809.911	0.0131792
809.989	0.0132719
810.068	0.0132143
810.146	0.0131591
810.224	0.0132881
810.302	0.0133687
810.380	0.0131723
810.458	0.0133619
810.536	0.0134834
810.614	0.0134743
810.693	0.0136653
810.771	0.0138027
810.849	0.0137804
810.927	0.0139388
811.005	0.0140414
811.083	0.0139775
811.161	0.0140441
811.239	0.0141236
811.318	0.0141397
811.396	0.0144295
811.474	0.0143658
811.552	0.0142218
811.630	0.0144540
811.708	0.0143171
811.786	0.0142391
811.864	0.0143536
811.943	0.0142622
812.021	0.0143235
812.099	0.0142391
812.177	0.0144227
812.255	0.0142746
812.333	0.0142534
812.411	0.0141057
812.489	0.0140528
812.568	0.0142274
812.646	0.0142472
812.724	0.0141755
812.802	0.0140258
812.880	0.0140094
812.958	0.0138698
813.036	0.0138557
813.114	0.0138464
813.193	0.0138219
813.271	0.0137393
813.349	0.0136200
813.427	0.0136102
813.505	0.0136020
813.583	0.0135328
813.661	0.0133844
813.739	0.0133516
813.818	0.0133353
813.896	0.0132710
813.974	0.0131485
814.052	0.0131292
814.130	0.0132333
814.208	0.0130280
814.286	0.0130460
814.364	0.0130019
814.443	0.0130682
814.521	0.0129025
814.599	0.0130087
814.677	0.0130353
814.755	0.0129795
814.833	0.0130191
814.911	0.0132030
814.989	0.0131050
815.068	0.0131334
815.146	0.0134047
815.224	0.0131969
815.302	0.0133036
815.380	0.0134461
815.458	0.0133085
815.536	0.0136395
815.614	0.0135716
815.693	0.0135303
815.771	0.0136622
815.849	0.0136906
815.927	0.0135973
816.005	0.0138810
816.083	0.0137749
816.161	0.0139581
816.239	0.0139001
816.318	0.0139358
816.396	0.0138709
816.474	0.0139350
816.552	0.0138654
816.630	0.0139999
816.708	0.0137286
816.786	0.0138474
816.864	0.0139928
816.943	0.0138792
817.021	0.0139771
817.099	0.0139938
817.177	0.0139844
817.255	0.0139552
817.333	0.0139883
817.411	0.0139004
817.489	0.0138532
817.568	0.0138395
817.646	0.0138945
817.724	0.0137893
817.802	0.0139474
817.880	0.0138370
817.958	0.0138499
818.036	0.0136813
818.114	0.0136912
818.193	0.0138289
818.271	0.0136917
818.349	0.0136424
818.427	0.0137533
818.505	0.0136671
818.583	0.0138145
818.661	0.0137263
818.739	0.0138272
818.818	0.0138766
818.896	0.0136842
818.974	0.0136912
819.052	0.0138102
819.130	0.0137626
819.208	0.0136349
819.286	0.0136686
819.364	0.0137476
819.443	0.0136140
819.521	0.0135297
819.599	0.0134483
819.677	0.0133852
819.755	0.0135442
819.833	0.0134633
819.911	0.0134134
819.989	0.0135551
820.068	0.0133379
820.146	0.0134003
820.224	0.0133658
820.302	0.0134250
820.380	0.0133485
820.458	0.0134566
820.536	0.0134135
820.614	0.0135514
820.693	0.0133574
820.771	0.0134866
820.849	0.0134942
820.927	0.0134847
821.005	0.0134940
821.083	0.0136896
821.161	0.0136943
821.239	0.0136866
821.318	0.0137169
821.396	0.0136490
821.474	0.0139394
821.552	0.0138602
821.630	0.0139693
821.708	0.0139807
821.786	0.0140295
821.864	0.0141127
821.943	0.0140321
822.021	0.0138654
822.099	0.0140642
822.177	0.0140970
822.255	0.0140793
822.333	0.0141667
822.411	0.0141020
822.489	0.0140076
822.568	0.0140739
822.646	0.0139314
822.724	0.0142034
822.802	0.0141717
822.880	0.0139817
822.958	0.0139900
823.036	0.0139441
823.114	0.0138912
823.193	0.0137562
823.271	0.0138105
823.349	0.0137244
823.427	0.0138202
823.505	0.0138354
823.583	0.0136668
823.661	0.0136909
823.739	0.0136642
823.818	0.0135855
823.896	0.0135067
823.974	0.0134225
824.052	0.0134976
824.130	0.0135635
824.208	0.0135429
824.286	0.0136021
824.364	0.0135836
824.443	0.0135361
824.521	0.0135333
824.599	0.0135840
824.677	0.0134878
824.755	0.0136010
824.833	0.0135937
824.911	0.0136639
824.989	0.0137519
825.068	0.0137350
825.146	0.0136716
825.224	0.0137222
825.302	0.0136699
825.380	0.0137189
825.458	0.0137139
825.536	0.0135600
825.614	0.0136605
825.693	0.0137754
825.771	0.0138553
825.849	0.0138946
825.927	0.0137963
826.005	0.0138149
826.083	0.0139049
826.161	0.0139989
826.239	0.0139273
826.318	0.0138590
826.396	0.0140400
826.474	0.0139043
826.552	0.0139153
826.630	0.0139844
826.708	0.0141245
826.786	0.0140653
826.864	0.0139108
826.943	0.0138756
827.021	0.0138960
827.099	0.0140016
827.177	0.0139120
827.255	0.0138121
827.333	0.0139271
827.411	0.0139010
827.489	0.0139644
827.568	0.0138432
827.646	0.0139625
827.724	0.0139864
827.802	0.0139437
827.880	0.0138852
827.958	0.0139534
828.036	0.0138033
828.114	0.0139072
828.193	0.0138500
828.271	0.0137599
828.349	0.0136887
828.427	0.0138031
828.505	0.0137553
828.583	0.0137402
828.661	0.0137624
828.739	0.0136930
828.818	0.0135885
828.896	0.0135547
828.974	0.0136831
829.052	0.0136305
829.130	0.0135998
829.208	0.0136004
829.286	0.0138198
829.364	0.0135875
829.443	0.0135689
829.521	0.0136318
829.599	0.0135906
829.677	0.0137704
829.755	0.0137753
829.833	0.0137643
829.911	0.0138116
829.989	0.0137891
830.068	0.0139556
830.146	0.0140562
830.224	0.0141030
830.302	0.0140754
830.380	0.0140778
830.458	0.0140204
830.536	0.0141125
830.614	0.0141405
830.693	0.0142772
830.771	0.0139728
830.849	0.0141010
830.927	0.0140422
831.005	0.0139299
831.083	0.0141457
831.161	0.0139696
831.239	0.0140150
831.318	0.0139335
831.396	0.0138603
831.474	0.0138940
831.552	0.0136419
831.630	0.0135753
831.708	0.0136487
831.786	0.0137138
831.864	0.0136419
831.943	0.0136451
832.021	0.0135654
832.099	0.0135973
832.177	0.0135123
832.255	0.0137122
832.333	0.0136755
832.411	0.0136713
832.489	0.0137334
832.568	0.0136594
832.646	0.0137930
832.724	0.0138496
832.802	0.0138547
832.880	0.0139807
832.958	0.0139454
833.036	0.0139274
833.114	0.0138728
833.193	0.0139935
833.271	0.0140225
833.349	0.0140742
833.427	0.0140862
833.505	0.0140613
833.583	0.0141501
833.661	0.0139507
833.739	0.0140007
833.818	0.0140850
833.896	0.0141122
833.974	0.0139169
834.052	0.0139723
834.130	0.0138965
834.208	0.0139861
834.286	0.0138478
834.364	0.0138074
834.443	0.0137945
834.521	0.0135621
834.599	0.0136938
834.677	0.0136697
834.755	0.0136465
834.833	0.0137003
834.911	0.0136877
834.989	0.0137883
835.068	0.0136060
835.146	0.0136790
835.224	0.0136572
835.302	0.0136135
835.380	0.0137141
835.458	0.0136713
835.536	0.0136911
835.614	0.0137679
835.693	0.0137401
835.771	0.0136670
835.849	0.0137933
835.927	0.0138593
836.005	0.0139171
836.083	0.0138863
836.161	0.0138564
836.239	0.0139503
836.318	0.0140521
836.396	0.0140086
836.474	0.0139154
836.552	0.0140163
836.630	0.0138435
836.708	0.0139372
836.786	0.0139423
836.864	0.0139577
836.943	0.0140069
837.021	0.0139485
837.099	0.0138021
837.177	0.0137848
837.255	0.0138621
837.333	0.0137181
837.411	0.0136158
837.489	0.0139110
837.568	0.0138486
837.646	0.0135909
837.724	0.0136642
837.802	0.0137859
837.880	0.0137253
837.958	0.0137129
838.036	0.0137672
838.114	0.0137304
838.193	0.0136172
838.271	0.0136545
838.349	0.0137762
838.427	0.0137333
838.505	0.0138924
838.583	0.0137015
838.661	0.0137984
838.739	0.0137609
838.818	0.0137362
838.896	0.0137043
838.974	0.0137192
839.052	0.0136562
839.130	0.0136197
839.208	0.0136271
839.286	0.0136314
839.364	0.0135040
839.443	0.0136088
839.521	0.0134798
839.599	0.0133623
839.677	0.0134020
839.755	0.0133772
839.833	0.0133629
839.911	0.0133928
839.989	0.0133251
840.068	0.0134230
840.146	0.0133155
840.224	0.0132934
840.302	0.0133939
840.380	0.0134704
840.458	0.0134299
840.536	0.0134374
840.614	0.0134457
840.693	0.0133294
840.771	0.0135999
840.849	0.0134620
840.927	0.0135458
841.005	0.0136064
841.083	0.0137120
841.161	0.0137880
841.239	0.0135574
841.318	0.0135093
841.396	0.0139719
841.474	0.0137529
841.552	0.0136086
841.630	0.0136378
841.708	0.0137379
841.786	0.0135991
841.864	0.0137546
841.943	0.0137890
842.021	0.0136335
842.099	0.0136134
842.177	0.0135595
842.255	0.0134758
842.333	0.0134956
842.411	0.0136267
842.489	0.0137007
842.568	0.0135728
842.646	0.0135937
842.724	0.0135548
842.802	0.0135881
842.880	0.0135019
842.958	0.0136938
843.036	0.0135664
843.114	0.0136489
843.193	0.0137691
843.271	0.0137226
843.349	0.0138277
843.427	0.0137167
843.505	0.0137216
843.583	0.0138332
843.661	0.0137722
843.739	0.0139374
843.818	0.0137974
843.896	0.0138177
843.974	0.0138701
844.052	0.0138219
844.130	0.0137949
844.208	0.0137951
844.286	0.0137143
844.364	0.0137534
844.443	0.0136382
844.521	0.0137596
844.599	0.0136038
844.677	0.0134628
844.755	0.0136612
844.833	0.0135574
844.911	0.0134799
844.989	0.0135249
845.068	0.0135500
845.146	0.0132944
845.224	0.0135048
845.302	0.0134205
845.380	0.0133584
845.458	0.0133812
845.536	0.0135130
845.614	0.0134585
845.693	0.0134904
845.771	0.0134299
845.849	0.0134767
845.927	0.0135860
846.005	0.0135065
846.083	0.0135561
846.161	0.0135500
846.239	0.0135979
846.318	0.0136751
846.396	0.0137891
846.474	0.0138168
846.552	0.0138573
846.630	0.0139207
846.708	0.0137592
846.786	0.0138477
846.864	0.0139640
846.943	0.0138693
847.021	0.0140511
847.099	0.0140718
847.177	0.0140309
847.255	0.0139810
847.333	0.0139275
847.411	0.0139211
847.489	0.0138801
847.568	0.0138904
847.646	0.0137817
847.724	0.0137122
847.802	0.0136157
847.880	0.0136532
847.958	0.0135030
848.036	0.0134328
848.114	0.0134287
848.193	0.0135543
848.271	0.0135686
848.349	0.0135152
848.427	0.0135382
848.505	0.0135971
848.583	0.0136642
848.661	0.0136503
848.739	0.0136594
848.818	0.0138302
848.896	0.0137236
848.974	0.0137906
849.052	0.0138956
849.130	0.0136585
849.208	0.0137926
849.286	0.0139645
849.364	0.0139033
849.443	0.0138342
849.521	0.0137981
849.599	0.0139447
849.677	0.0138850
849.755	0.0139348
849.833	0.0137638
849.911	0.0138568
849.989	0.0139037
850.068	0.0136865
850.146	0.0137720
850.224	0.0137655
850.302	0.0136547
850.380	0.0135674
850.458	0.0136607
850.536	0.0136564
850.614	0.0135527
850.693	0.0135249
850.771	0.0136415
850.849	0.0136579
850.927	0.0135075
851.005	0.0135619
851.083	0.0136075
851.161	0.0137188
851.239	0.0136410
851.318	0.0137862
851.396	0.0137132
851.474	0.0138525
851.552	0.0138492
851.630	0.0140406
851.708	0.0141513
851.786	0.0139458
851.864	0.0140790
851.943	0.0142090
852.021	0.0141798
852.099	0.0140677
852.177	0.0140228
852.255	0.0141537
852.333	0.0140437
852.411	0.0141425
852.489	0.0143570
852.568	0.0142314
852.646	0.0141817
852.724	0.0141228
852.802	0.0140684
852.880	0.0139828
852.958	0.0139267
853.036	0.0140900
853.114	0.0140068
853.193	0.0139382
853.271	0.0138600
853.349	0.0138015
853.427	0.0138312
853.505	0.0136552
853.583	0.0135977
853.661	0.0136832
853.739	0.0136325
853.818	0.0136979
853.896	0.0136480
853.974	0.0137078
854.052	0.0137711
854.130	0.0136619
854.208	0.0135714
854.286	0.0137374
854.364	0.0137711
854.443	0.0138081
854.521	0.0136423
854.599	0.0137492
854.677	0.0138094
854.755	0.0138422
854.833	0.0136958
854.911	0.0137541
854.989	0.0137145
855.068	0.0137160
855.146	0.0138693
855.224	0.0137946
855.302	0.0137335
855.380	0.0137714
855.458	0.0137307
855.536	0.0138335
855.614	0.0136745
855.693	0.0136587
855.771	0.0137336
855.849	0.0137138
855.927	0.0138377
856.005	0.0137820
856.083	0.0138880
856.161	0.0138180
856.239	0.0138577
856.318	0.0137568
856.396	0.0138885
856.474	0.0138144
856.552	0.0138231
856.630	0.0138007
856.708	0.0136988
856.786	0.0136385
856.864	0.0138950
856.943	0.0140202
857.021	0.0139415
857.099	0.0138170
857.177	0.0137530
857.255	0.0137805
857.333	0.0137425
857.411	0.0138345
857.489	0.0137746
857.568	0.0138003
857.646	0.0137330
857.724	0.0136542
857.802	0.0135593
857.880	0.0137753
857.958	0.0137431
858.036	0.0137039
858.114	0.0136736
858.193	0.0136443
858.271	0.0137270
858.349	0.0137009
858.427	0.0136883
858.505	0.0136098
858.583	0.0136832
858.661	0.0136612
858.739	0.0136060
858.818	0.0136134
858.896	0.0137843
858.974	0.0137999
859.052	0.0136766
859.130	0.0136884
859.208	0.0136584
859.286	0.0137270
859.364	0.0136874
859.443	0.0137238
859.521	0.0138020
859.599	0.0139228
859.677	0.0137553
859.755	0.0138395
859.833	0.0137846
859.911	0.0139478
859.989	0.0138135
860.068	0.0137605
860.146	0.0138203
860.224	0.0137607
860.302	0.0137545
860.380	0.0137904
860.458	0.0137876
860.536	0.0138242
860.614	0.0136576
860.693	0.0138763
860.771	0.0135226
860.849	0.0137287
860.927	0.0136607
861.005	0.0135641
861.083	0.0135095
861.161	0.0135761
861.239	0.0136483
861.318	0.0135072
861.396	0.0135955
861.474	0.0135721
861.552	0.0136591
861.630	0.0136228
861.708	0.0137727
861.786	0.0135538
861.864	0.0136113
861.943	0.0136329
862.021	0.0136263
862.099	0.0135858
862.177	0.0136101
862.255	0.0136812
862.333	0.0137740
862.411	0.0137733
862.489	0.0137424
862.568	0.0138407
862.646	0.0137103
862.724	0.0137613
862.802	0.0136887
862.880	0.0135915
862.958	0.0137141
863.036	0.0137390
863.114	0.0136713
863.193	0.0135698
863.271	0.0135852
863.349	0.0135720
863.427	0.0137192
863.505	0.0135879
863.583	0.0135933
863.661	0.0136293
863.739	0.0134861
863.818	0.0135217
863.896	0.0135936
863.974	0.0136472
864.052	0.0136111
864.130	0.0136304
864.208	0.0136276
864.286	0.0136937
864.364	0.0137589
864.443	0.0137115
864.521	0.0139462
864.599	0.0139059
864.677	0.0137556
864.755	0.0137618
864.833	0.0138403
864.911	0.0137653
864.989	0.0137740
865.068	0.0137804
865.146	0.0138152
865.224	0.0138072
865.302	0.0138398
865.380	0.0138735
865.458	0.0137004
865.536	0.0137166
865.614	0.0137818
865.693	0.0135306
865.771	0.0136824
865.849	0.0138358
865.927	0.0136490
866.005	0.0135420
866.083	0.0137231
866.161	0.0137027
866.239	0.0134229
866.318	0.0134109
866.396	0.0135475
866.474	0.0135060
866.552	0.0134641
866.630	0.0135397
866.708	0.0135381
866.786	0.0134304
866.864	0.0133684
866.943	0.0135545
867.021	0.0136015
867.099	0.0134096
867.177	0.0134388
867.255	0.0135099
867.333	0.0135435
867.411	0.0135525
867.489	0.0135337
867.568	0.0135990
867.646	0.0136919
867.724	0.0137286
867.802	0.0136172
867.880	0.0137878
867.958	0.0136919
868.036	0.0137337
868.114	0.0137910
868.193	0.0136302
868.271	0.0136971
868.349	0.0138706
868.427	0.0138217
868.505	0.0137482
868.583	0.0137631
868.661	0.0136879
868.739	0.0138173
868.818	0.0137463
868.896	0.0137573
868.974	0.0136657
869.052	0.0135031
869.130	0.0138031
869.208	0.0135219
869.286	0.0137302
869.364	0.0136719
869.443	0.0137278
869.521	0.0136018
869.599	0.0135108
869.677	0.0136784
869.755	0.0136973
869.833	0.0135261
869.911	0.0135464
869.989	0.0135142
870.068	0.0136316
870.146	0.0136081
870.224	0.0136897
870.302	0.0136574
870.380	0.0135844
870.458	0.0136328
870.536	0.0136093
870.614	0.0136244
870.693	0.0138116
870.771	0.0137437
870.849	0.0137842
870.927	0.0137144
871.005	0.0135593
871.083	0.0137587
871.161	0.0136606
871.239	0.0137232
871.318	0.0137724
871.396	0.0138638
871.474	0.0137655
871.552	0.0136222
871.630	0.0137392
871.708	0.0137099
871.786	0.0137404
871.864	0.0138795
871.943	0.0138445
872.021	0.0138148
872.099	0.0137797
872.177	0.0137726
872.255	0.0137234
872.333	0.0137192
872.411	0.0137630
872.489	0.0137051
872.568	0.0137196
872.646	0.0138792
872.724	0.0136545
872.802	0.0137509
872.880	0.0136830
872.958	0.0136481
873.036	0.0136234
873.114	0.0136613
873.193	0.0135838
873.271	0.0135551
873.349	0.0137066
873.427	0.0136192
873.505	0.0132824
873.583	0.0135018
873.661	0.0135654
873.739	0.0135101
873.818	0.0135018
873.896	0.0133184
873.974	0.0134366
874.052	0.0135158
874.130	0.0133730
874.208	0.0135162
874.286	0.0134370
874.364	0.0134267
874.443	0.0134327
874.521	0.0134930
874.599	0.0136393
874.677	0.0135505
874.755	0.0136355
874.833	0.0136340
874.911	0.0137701
874.989	0.0137972
875.068	0.0139191
875.146	0.0139155
875.224	0.0137778
875.302	0.0139642
875.380	0.0138981
875.458	0.0138242
875.536	0.0139632
875.614	0.0141046
875.693	0.0140976
875.771	0.0139845
875.849	0.0138730
875.927	0.0141178
876.005	0.0141046
876.083	0.0138481
876.161	0.0138290
876.239	0.0139885
876.318	0.0140088
876.396	0.0139050
876.474	0.0138630
876.552	0.0137661
876.630	0.0138431
876.708	0.0136855
876.786	0.0136884
876.864	0.0135714
876.943	0.0135709
877.021	0.0135497
877.099	0.0135335
877.177	0.0136299
877.255	0.0135880
877.333	0.0135114
877.411	0.0134806
877.489	0.0134757
877.568	0.0135469
877.646	0.0134449
877.724	0.0135816
877.802	0.0135258
877.880	0.0135461
877.958	0.0135892
878.036	0.0135272
878.114	0.0135030
878.193	0.0136263
878.271	0.0136503
878.349	0.0135414
878.427	0.0136468
878.505	0.0136893
878.583	0.0136111
878.661	0.0136966
878.739	0.0135719
878.818	0.0135751
878.896	0.0136412
878.974	0.0136802
879.052	0.0136694
879.130	0.0137782
879.208	0.0137974
879.286	0.0137198
879.364	0.0138828
879.443	0.0138017
879.521	0.0138477
879.599	0.0138501
879.677	0.0137653
879.755	0.0137851
879.833	0.0137829
879.911	0.0139170
879.989	0.0139413
880.068	0.0139188
880.146	0.0138977
880.224	0.0140213
880.302	0.0140083
880.380	0.0138747
880.458	0.0137296
880.536	0.0138255
880.614	0.0137646
880.693	0.0138409
880.771	0.0139178
880.849	0.0136877
880.927	0.0137949
881.005	0.0136679
881.083	0.0137646
881.161	0.0136956
881.239	0.0137158
881.318	0.0135797
881.396	0.0137837
881.474	0.0136905
881.552	0.0137827
881.630	0.0135506
881.708	0.0135986
881.786	0.0137360
881.864	0.0139716
881.943	0.0136089
882.021	0.0137164
882.099	0.0137971
882.177	0.0138056
882.255	0.0138750
882.333	0.0138377
882.411	0.0138380
882.489	0.0137103
882.568	0.0138300
882.646	0.0137897
882.724	0.0136696
882.802	0.0137448
882.880	0.0137642
882.958	0.0137852
883.036	0.0138167
883.114	0.0137178
883.193	0.0136712
883.271	0.0137682
883.349	0.0137846
883.427	0.0139449
883.505	0.0138989
883.583	0.0138369
883.661	0.0137113
883.739	0.0137376
883.818	0.0138135
883.896	0.0138011
883.974	0.0136873
884.052	0.0136901
884.130	0.0138146
884.208	0.0136951
884.286	0.0136089
884.364	0.0136935
884.443	0.0137086
884.521	0.0136033
884.599	0.0136539
884.677	0.0136897
884.755	0.0136577
884.833	0.0134547
884.911	0.0134991
884.989	0.0136301
885.068	0.0135059
885.146	0.0134718
885.224	0.0135932
885.302	0.0137234
885.380	0.0135957
885.458	0.0136015
885.536	0.0136381
885.614	0.0137543
885.693	0.0135564
885.771	0.0135188
885.849	0.0135419
885.927	0.0135255
886.005	0.0136602
886.083	0.0134409
886.161	0.0136086
886.239	0.0137003
886.318	0.0135860
886.396	0.0136794
886.474	0.0136086
886.552	0.0137560
886.630	0.0138342
886.708	0.0136360
886.786	0.0138390
886.864	0.0138408
886.943	0.0138434
887.021	0.0138428
887.099	0.0138468
887.177	0.0138628
887.255	0.0140498
887.333	0.0141675
887.411	0.0140245
887.489	0.0139065
887.568	0.0140331
887.646	0.0140002
887.724	0.0139417
887.802	0.0139929
887.880	0.0139415
887.958	0.0139605
888.036	0.0138791
888.114	0.0139637
888.193	0.0138549
888.271	0.0138845
888.349	0.0139214
888.427	0.0137056
888.505	0.0139449
888.583	0.0136947
888.661	0.0137863
888.739	0.0136513
888.818	0.0136628
888.896	0.0135571
888.974	0.0136444
889.052	0.0135104
889.130	0.0135808
889.208	0.0135030
889.286	0.0135583
889.364	0.0136274
889.443	0.0134815
889.521	0.0135335
889.599	0.0136033
889.677	0.0136000
889.755	0.0134428
889.833	0.0135237
889.911	0.0137405
889.989	0.0135629
890.068	0.0136250
890.146	0.0137374
890.224	0.0136900
890.302	0.0136706
890.380	0.0137841
890.458	0.0137320
890.536	0.0134879
890.614	0.0136772
890.693	0.0137513
890.771	0.0136340
890.849	0.0137061
890.927	0.0137532
891.005	0.0137072
891.083	0.0137894
891.161	0.0137470
891.239	0.0139256
891.318	0.0136200
891.396	0.0139107
891.474	0.0138779
891.552	0.0137760
891.630	0.0138724
891.708	0.0139221
891.786	0.0138898
891.864	0.0139818
891.943	0.0139544
892.021	0.0139915
892.099	0.0141266
892.177	0.0140427
892.255	0.0139806
892.333	0.0139641
892.411	0.0140616
892.489	0.0139574
892.568	0.0139822
892.646	0.0139631
892.724	0.0139095
892.802	0.0139462
892.880	0.0139323
892.958	0.0138405
893.036	0.0138023
893.114	0.0138229
893.193	0.0137351
893.271	0.0137249
893.349	0.0135757
893.427	0.0136259
893.505	0.0137092
893.583	0.0136165
893.661	0.0135288
893.739	0.0135532
893.818	0.0137590
893.896	0.0135369
893.974	0.0134662
894.052	0.0136784
894.130	0.0136689
894.208	0.0135857
894.286	0.0137504
894.364	0.0136435
894.443	0.0136084
894.521	0.0136723
894.599	0.0137998
894.677	0.0138139
894.755	0.0137876
894.833	0.0139627
894.911	0.0140096
894.989	0.0140591
895.068	0.0139687
895.146	0.0140880
895.224	0.0140359
895.302	0.0139120
895.380	0.0139355
895.458	0.0139606
895.536	0.0138637
895.614	0.0140294
895.693	0.0139809
895.771	0.0138960
895.849	0.0138343
895.927	0.0137954
896.005	0.0139132
896.083	0.0138471
896.161	0.0138022
896.239	0.0136755
896.318	0.0137463
896.396	0.0135496
896.474	0.0136021
896.552	0.0135120
896.630	0.0136046
896.708	0.0135526
896.786	0.0135403
896.864	0.0134133
896.943	0.0133732
897.021	0.0135378
897.099	0.0136623
897.177	0.0135406
897.255	0.0135411
897.333	0.0134559
897.411	0.0134932
897.489	0.0135861
897.568	0.0135029
897.646	0.0135909
897.724	0.0137042
897.802	0.0137148
897.880	0.0137206
897.958	0.0138202
898.036	0.0136104
898.114	0.0137179
898.193	0.0137848
898.271	0.0137505
898.349	0.0137110
898.427	0.0137634
898.505	0.0136650
898.583	0.0136904
898.661	0.0136407
898.739	0.0137766
898.818	0.0136884
898.896	0.0135915
898.974	0.0136530
899.052	0.0136725
899.130	0.0134983
899.208	0.0134978
899.286	0.0136040
899.364	0.0135411
899.443	0.0135696
899.521	0.0135665
899.599	0.0135171
899.677	0.0135315
899.755	0.0135313
899.833	0.0134937
899.911	0.0134958
899.989	0.0135722
900.068	0.0134825
900.146	0.0135664
900.224	0.0135835
900.302	0.0136118
900.380	0.0137452
900.458	0.0136712
900.536	0.0136639
900.614	0.0137443
900.693	0.0137862
900.771	0.0137592
900.849	0.0137389
900.927	0.0137783
901.005	0.0139577
901.083	0.0138008
901.161	0.0137871
901.239	0.0137696
901.318	0.0136750
901.396	0.0137856
901.474	0.0136560
901.552	0.0136532
901.630	0.0136498
901.708	0.0135226
901.786	0.0136390
901.864	0.0136647
901.943	0.0133817
902.021	0.0133715
902.099	0.0135281
902.177	0.0134783
902.255	0.0134819
902.333	0.0134361
902.411	0.0132449
902.489	0.0132777
902.568	0.0134261
902.646	0.0134634
902.724	0.0134055
902.802	0.0133556
902.880	0.0133948
902.958	0.0134097
903.036	0.0134351
903.114	0.0134769
903.193	0.0135701
903.271	0.0135989
903.349	0.0135801
903.427	0.0136511
903.505	0.0135949
903.583	0.0136205
903.661	0.0136971
903.739	0.0138975
903.818	0.0138115
903.896	0.0138522
903.974	0.0137708
904.052	0.0137938
904.130	0.0139562
904.208	0.0139818
904.286	0.0139497
904.364	0.0138692
904.443	0.0138554
904.521	0.0138052
904.599	0.0139740
904.677	0.0139503
904.755	0.0139304
904.833	0.0139210
904.911	0.0139661
904.989	0.0139211
905.068	0.0139765
905.146	0.0140757
905.224	0.0140550
905.302	0.0139427
905.380	0.0140260
905.458	0.0140407
905.536	0.0139587
905.614	0.0138708
905.693	0.0139878
905.771	0.0141718
905.849	0.0139935
905.927	0.0140862
906.005	0.0139300
906.083	0.0139810
906.161	0.0140845
906.239	0.0139704
906.318	0.0138576
906.396	0.0139367
906.474	0.0138662
906.552	0.0138717
906.630	0.0137817
906.708	0.0138539
906.786	0.0137265
906.864	0.0138174
906.943	0.0136983
907.021	0.0135453
907.099	0.0137294
907.177	0.0137209
907.255	0.0135984
907.333	0.0136454
907.411	0.0136567
907.489	0.0137090
907.568	0.0136184
907.646	0.0136036
907.724	0.0136274
907.802	0.0136497
907.880	0.0136053
907.958	0.0135428
908.036	0.0135883
908.114	0.0138224
908.193	0.0137154
908.271	0.0137927
908.349	0.0138305
908.427	0.0139351
908.505	0.0138067
908.583	0.0139690
908.661	0.0139792
908.739	0.0139645
908.818	0.0140066
908.896	0.0140991
908.974	0.0140964
909.052	0.0140757
909.130	0.0139811
909.208	0.0140308
909.286	0.0139075
909.364	0.0139915
909.443	0.0139697
909.521	0.0139700
909.599	0.0137785
909.677	0.0137247
909.755	0.0136901
909.833	0.0137600
909.911	0.0136906
909.989	0.0136029
910.068	0.0136034
910.146	0.0135622
910.224	0.0135254
910.302	0.0135264
910.380	0.0136208
910.458	0.0135275
910.536	0.0137674
910.614	0.0136234
910.693	0.0135419
910.771	0.0135863
910.849	0.0137028
910.927	0.0138273
911.005	0.0138351
911.083	0.0139250
911.161	0.0139690
911.239	0.0140196
911.318	0.0139586
911.396	0.0140491
911.474	0.0139787
911.552	0.0139786
911.630	0.0139219
911.708	0.0140524
911.786	0.0139942
911.864	0.0139744
911.943	0.0140327
912.021	0.0139545
912.099	0.0138070
912.177	0.0138953
912.255	0.0139129
912.333	0.0138512
912.411	0.0137801
912.489	0.0138055
912.568	0.0137410
912.646	0.0136440
912.724	0.0137640
912.802	0.0137763
912.880	0.0137694
912.958	0.0137608
913.036	0.0139391
913.114	0.0137842
913.193	0.0137573
913.271	0.0139053
913.349	0.0137827
913.427	0.0137778
913.505	0.0137209
913.583	0.0138853
913.661	0.0138670
913.739	0.0138082
913.818	0.0137990
913.896	0.0137373
913.974	0.0139351
914.052	0.0137774
914.130	0.0138361
914.208	0.0138828
914.286	0.0138350
914.364	0.0137646
914.443	0.0138014
914.521	0.0137897
914.599	0.0137288
914.677	0.0137845
914.755	0.0137883
914.833	0.0137014
914.911	0.0136703
914.989	0.0139182
915.068	0.0138967
915.146	0.0137779
915.224	0.0137913
915.302	0.0138854
915.380	0.0138940
915.458	0.0137755
915.536	0.0138013
915.614	0.0138060
915.693	0.0138544
915.771	0.0137811
915.849	0.0138305
915.927	0.0139460
916.005	0.0138652
916.083	0.0138588
916.161	0.0138988
916.239	0.0136855
916.318	0.0138158
916.396	0.0139161
916.474	0.0137579
916.552	0.0137194
916.630	0.0138770
916.708	0.0138515
916.786	0.0137821
916.864	0.0137232
916.943	0.0137609
917.021	0.0138029
917.099	0.0137461
917.177	0.0135775
917.255	0.0136758
917.333	0.0137380
917.411	0.0136493
917.489	0.0135387
917.568	0.0135857
917.646	0.0135416
917.724	0.0135894
917.802	0.0136102
917.880	0.0136026
917.958	0.0135367
918.036	0.0135654
918.114	0.0136655
918.193	0.0136305
918.271	0.0135746
918.349	0.0135532
918.427	0.0135702
918.505	0.0134915
918.583	0.0135841
918.661	0.0136267
918.739	0.0136068
918.818	0.0136223
918.896	0.0135209
918.974	0.0137429
919.052	0.0137791
919.130	0.0137061
919.208	0.0138039
919.286	0.0137756
919.364	0.0138661
919.443	0.0138103
919.521	0.0139033
919.599	0.0138807
919.677	0.0139105
919.755	0.0138435
919.833	0.0137936
919.911	0.0139238
919.989	0.0138287
920.068	0.0137643
920.146	0.0137576
920.224	0.0136732
920.302	0.0137421
920.380	0.0136877
920.458	0.0136763
920.536	0.0136633
920.614	0.0137744
920.693	0.0136098
920.771	0.0137722
920.849	0.0137703
920.927	0.0137199
921.005	0.0136852
921.083	0.0137687
921.161	0.0138161
921.239	0.0138681
921.318	0.0138094
921.396	0.0138054
921.474	0.0138245
921.552	0.0138801
921.630	0.0139899
921.708	0.0139211
921.786	0.0138727
921.864	0.0140255
921.943	0.0138140
922.021	0.0139862
922.099	0.0140250
922.177	0.0139713
922.255	0.0137738
922.333	0.0138454
922.411	0.0139902
922.489	0.0139319
922.568	0.0140019
922.646	0.0140493
922.724	0.0139809
922.802	0.0139982
922.880	0.0139099
922.958	0.0140085
923.036	0.0139747
923.114	0.0139095
923.193	0.0139589
923.271	0.0139570
923.349	0.0139834
923.427	0.0139254
923.505	0.0140707
923.583	0.0139457
923.661	0.0138568
923.739	0.0137436
923.818	0.0138923
923.896	0.0136964
923.974	0.0137875
924.052	0.0138887
924.130	0.0137388
924.208	0.0136646
924.286	0.0137264
924.364	0.0136860
924.443	0.0135128
924.521	0.0136742
924.599	0.0136448
924.677	0.0136633
924.755	0.0135593
924.833	0.0136789
924.911	0.0137289
924.989	0.0136095
925.068	0.0137785
925.146	0.0137771
925.224	0.0136906
925.302	0.0135764
925.380	0.0137132
925.458	0.0134658
925.536	0.0136139
925.614	0.0136061
925.693	0.0136768
925.771	0.0136897
925.849	0.0136706
925.927	0.0137807
926.005	0.0136683
926.083	0.0137562
926.161	0.0135745
926.239	0.0136189
926.318	0.0135753
926.396	0.0137309
926.474	0.0136131
926.552	0.0136250
926.630	0.0137293
926.708	0.0137899
926.786	0.0137726
926.864	0.0138076
926.943	0.0138565
927.021	0.0139367
927.099	0.0139062
927.177	0.0139367
927.255	0.0140231
927.333	0.0139509
927.411	0.0141794
927.489	0.0140620
927.568	0.0140502
927.646	0.0140356
927.724	0.0139027
927.802	0.0139799
927.880	0.0140491
927.958	0.0140350
928.036	0.0138746
928.114	0.0139599
928.193	0.0138402
928.271	0.0138683
928.349	0.0139342
928.427	0.0139112
928.505	0.0138779
928.583	0.0139036
928.661	0.0139244
928.739	0.0137944
928.818	0.0137469
928.896	0.0137621
928.974	0.0135680
929.052	0.0136804
929.130	0.0137437
929.208	0.0136115
929.286	0.0137238
929.364	0.0135465
929.443	0.0135123
929.521	0.0136862
929.599	0.0136194
929.677	0.0136883
929.755	0.0137801
929.833	0.0136217
929.911	0.0135737
929.989	0.0136952
930.068	0.0137387
930.146	0.0137297
930.224	0.0137292
930.302	0.0137400
930.380	0.0138576
930.458	0.0137836
930.536	0.0138271
930.614	0.0138488
930.693	0.0138287
930.771	0.0137987
930.849	0.0138887
930.927	0.0138274
931.005	0.0139012
931.083	0.0138695
931.161	0.0137160
931.239	0.0137280
931.318	0.0138890
931.396	0.0138615
931.474	0.0138222
931.552	0.0138189
931.630	0.0138757
931.708	0.0138718
931.786	0.0138907
931.864	0.0138466
931.943	0.0138306
932.021	0.0138637
932.099	0.0137676
932.177	0.0136432
932.255	0.0137169
932.333	0.0137577
932.411	0.0136486
932.489	0.0136639
932.568	0.0135876
932.646	0.0136349
932.724	0.0136526
932.802	0.0136456
932.880	0.0136303
932.958	0.0134363
933.036	0.0134790
933.114	0.0136353
933.193	0.0135434
933.271	0.0135860
933.349	0.0137491
933.427	0.0137377
933.505	0.0135845
933.583	0.0137233
933.661	0.0137560
933.739	0.0137432
933.818	0.0137931
933.896	0.0137109
933.974	0.0138694
934.052	0.0136682
934.130	0.0137063
934.208	0.0137383
934.286	0.0137538
934.364	0.0138315
934.443	0.0138962
934.521	0.0137473
934.599	0.0138155
934.677	0.0137257
934.755	0.0138205
934.833	0.0137769
934.911	0.0137698
934.989	0.0136723
935.068	0.0137991
935.146	0.0138615
935.224	0.0137434
935.302	0.0138215
935.380	0.0137247
935.458	0.0138182
935.536	0.0138028
935.614	0.0137495
935.693	0.0137669
935.771	0.0137556
935.849	0.0138754
935.927	0.0136928
936.005	0.0136631
936.083	0.0136030
936.161	0.0135683
936.239	0.0134972
936.318	0.0136856
936.396	0.0135716
936.474	0.0136038
936.552	0.0135027
936.630	0.0134111
936.708	0.0133532
936.786	0.0134103
936.864	0.0136257
936.943	0.0135435
937.021	0.0134371
937.099	0.0134448
937.177	0.0134758
937.255	0.0135773
937.333	0.0134847
937.411	0.0135507
937.489	0.0136525
937.568	0.0135430
937.646	0.0137214
937.724	0.0137663
937.802	0.0136888
937.880	0.0136898
937.958	0.0137109
938.036	0.0137359
938.114	0.0136919
938.193	0.0139024
938.271	0.0138116
938.349	0.0136163
938.427	0.0138277
938.505	0.0138499
938.583	0.0138227
938.661	0.0138198
938.739	0.0137981
938.818	0.0138212
938.896	0.0137637
938.974	0.0139525
939.052	0.0138040
939.130	0.0139048
939.208	0.0138734
939.286	0.0138618
939.364	0.0138675
939.443	0.0139663
939.521	0.0139180
939.599	0.0139473
939.677	0.0139116
939.755	0.0139970
939.833	0.0139190
939.911	0.0137825
939.989	0.0139019
940.068	0.0138082
940.146	0.0138640
940.224	0.0137876
940.302	0.0138412
940.380	0.0137876
940.458	0.0137914
940.536	0.0138063
940.614	0.0139211
940.693	0.0137772
940.771	0.0137347
940.849	0.0136910
940.927	0.0137446
941.005	0.0138757
941.083	0.0137720
941.161	0.0136072
941.239	0.0136139
941.318	0.0137405
941.396	0.0137250
941.474	0.0136484
941.552	0.0136740
941.630	0.0136953
941.708	0.0137087
941.786	0.0135475
941.864	0.0134818
941.943	0.0137218
942.021	0.0134522
942.099	0.0133584
942.177	0.0136565
942.255	0.0135471
942.333	0.0135753
942.411	0.0135793
942.489	0.0136252
942.568	0.0135610
942.646	0.0135253
942.724	0.0135664
942.802	0.0136782
942.880	0.0137088
942.958	0.0135463
943.036	0.0135106
943.114	0.0135653
943.193	0.0136369
943.271	0.0136030
943.349	0.0136292
943.427	0.0136194
943.505	0.0137473
943.583	0.0136868
943.661	0.0136676
943.739	0.0135664
943.818	0.0136345
943.896	0.0136628
943.974	0.0138102
944.052	0.0138529
944.130	0.0137553
944.208	0.0137684
944.286	0.0136802
944.364	0.0137909
944.443	0.0137672
944.521	0.0137498
944.599	0.0138339
944.677	0.0138411
944.755	0.0137289
944.833	0.0136931
944.911	0.0138538
944.989	0.0137269
945.068	0.0138836
945.146	0.0137778
945.224	0.0137293
945.302	0.0138192
945.380	0.0138480
945.458	0.0137888
945.536	0.0138179
945.614	0.0138792
945.693	0.0137746
945.771	0.0138187
945.849	0.0136802
945.927	0.0137319
946.005	0.0137283
946.083	0.0137681
946.161	0.0137276
946.239	0.0136255
946.318	0.0137469
946.396	0.0137557
946.474	0.0137782
946.552	0.0137567
946.630	0.0136357
946.708	0.0136675
946.786	0.0135959
946.864	0.0136495
946.943	0.0137278
947.021	0.0137192
947.099	0.0137490
947.177	0.0138428
947.255	0.0136872
947.333	0.0136017
947.411	0.0136755
947.489	0.0136959
947.568	0.0137366
947.646	0.0137515
947.724	0.0136993
947.802	0.0136726
947.880	0.0136229
947.958	0.0136517
948.036	0.0137215
948.114	0.0135963
948.193	0.0136822
948.271	0.0137790
948.349	0.0137405
948.427	0.0137286
948.505	0.0138355
948.583	0.0137933
948.661	0.0138169
948.739	0.0138237
948.818	0.0136541
948.896	0.0137962
948.974	0.0137273
949.052	0.0137138
949.130	0.0138937
949.208	0.0137563
949.286	0.0137151
949.364	0.0138375
949.443	0.0137966
949.521	0.0137514
949.599	0.0137878
949.677	0.0137739
949.755	0.0137931
949.833	0.0137616
949.911	0.0137727
949.989	0.0138863
950.068	0.0138305
950.146	0.0138635
950.224	0.0138109
950.302	0.0137529
950.380	0.0137935
950.458	0.0137105
950.536	0.0138587
950.614	0.0137822
950.693	0.0137816
950.771	0.0137488
950.849	0.0137585
950.927	0.0137022
951.005	0.0137525
951.083	0.0137708
951.161	0.0136392
951.239	0.0138738
951.318	0.0137029
951.396	0.0138475
951.474	0.0136575
951.552	0.0138056
951.630	0.0136812
951.708	0.0135865
951.786	0.0137847
951.864	0.0136211
951.943	0.0136179
952.021	0.0136169
952.099	0.0136771
952.177	0.0136250
952.255	0.0137257
952.333	0.0136172
952.411	0.0136089
952.489	0.0136269
952.568	0.0136771
952.646	0.0136980
952.724	0.0136784
952.802	0.0135775
952.880	0.0135596
952.958	0.0136930
953.036	0.0136766
953.114	0.0136617
953.193	0.0137384
953.271	0.0137067
953.349	0.0136360
953.427	0.0136342
953.505	0.0137936
953.583	0.0136760
953.661	0.0137494
953.739	0.0138264
953.818	0.0136906
953.896	0.0138857
953.974	0.0137287
954.052	0.0137256
954.130	0.0138168
954.208	0.0138544
954.286	0.0138292
954.364	0.0138058
954.443	0.0136514
954.521	0.0136590
954.599	0.0136330
954.677	0.0137146
954.755	0.0136841
954.833	0.0136742
954.911	0.0135461
954.989	0.0135526
955.068	0.0136668
955.146	0.0136665
955.224	0.0136144
955.302	0.0136163
955.380	0.0137350
955.458	0.0136487
955.536	0.0135307
955.614	0.0136095
955.693	0.0136980
955.771	0.0136349
955.849	0.0135765
955.927	0.0135976
956.005	0.0136044
956.083	0.0136862
956.161	0.0137761
956.239	0.0137774
956.318	0.0138243
956.396	0.0137687
956.474	0.0137637
956.552	0.0136433
956.630	0.0137949
956.708	0.0136893
956.786	0.0136758
956.864	0.0137891
956.943	0.0137007
957.021	0.0137154
957.099	0.0137886
957.177	0.0137694
957.255	0.0137464
957.333	0.0135791
957.411	0.0136903
957.489	0.0136029
957.568	0.0136522
957.646	0.0136000
957.724	0.0135598
957.802	0.0137952
957.880	0.0136874
957.958	0.0136905
958.036	0.0135672
958.114	0.0135845
958.193	0.0135025
958.271	0.0137705
958.349	0.0135314
958.427	0.0135447
958.505	0.0136944
958.583	0.0136110
958.661	0.0136818
958.739	0.0136108
958.818	0.0135550
958.896	0.0136612
958.974	0.0136134
959.052	0.0136987
959.130	0.0136835
959.208	0.0137486
959.286	0.0137873
959.364	0.0137700
959.443	0.0137321
959.521	0.0137472
959.599	0.0137410
959.677	0.0138005
959.755	0.0137493
959.833	0.0137369
959.911	0.0138428
