05/14/2022	16:18:06	Ver.	4.1	UNKNOWN
Optical Delay	639.989416	Delta X		0.078125	Sweeps	1	Scan Rate	0/0
Coordinates	Axis 1	NaN	Axis 2	NaN	Axis 3	NaN	Axis 4	NaN	Axis 5	NaN	Axis 6	0.000000
TX Power	0.000000	RX Power	0.000000

639.989	0.0134428
640.068	0.0134949
640.146	0.0134880
640.224	0.0133202
640.302	0.0133677
640.380	0.0133492
640.458	0.0134137
640.536	0.0135098
640.614	0.0134743
640.693	0.0133547
640.771	0.0133940
640.849	0.0133941
640.927	0.0133978
641.005	0.0133613
641.083	0.0135431
641.161	0.0134601
641.239	0.0133766
641.318	0.0134865
641.396	0.0135360
641.474	0.0134502
641.552	0.0134563
641.630	0.0135192
641.708	0.0134536
641.786	0.0134431
641.864	0.0134044
641.943	0.0134870
642.021	0.0135318
642.099	0.0134769
642.177	0.0134756
642.255	0.0132932
642.333	0.0135179
642.411	0.0134946
642.489	0.0134492
642.568	0.0134679
642.646	0.0134742
642.724	0.0134066
642.802	0.0134090
642.880	0.0134122
642.958	0.0134734
643.036	0.0133266
643.114	0.0134734
643.193	0.0134530
643.271	0.0133457
643.349	0.0135052
643.427	0.0134750
643.505	0.0134353
643.583	0.0134545
643.661	0.0134423
643.739	0.0134663
643.818	0.0134375
643.896	0.0135549
643.974	0.0134181
644.052	0.0134476
644.130	0.0133025
644.208	0.0133987
644.286	0.0133678
644.364	0.0134861
644.443	0.0134454
644.521	0.0134037
644.599	0.0135468
644.677	0.0134323
644.755	0.0134715
644.833	0.0135375
644.911	0.0133317
644.989	0.0134218
645.068	0.0135958
645.146	0.0134349
645.224	0.0134275
645.302	0.0134567
645.380	0.0134515
645.458	0.0133717
645.536	0.0135844
645.614	0.0133900
645.693	0.0133934
645.771	0.0134612
645.849	0.0133690
645.927	0.0133978
646.005	0.0133970
646.083	0.0134035
646.161	0.0135564
646.239	0.0135156
646.318	0.0134759
646.396	0.0134354
646.474	0.0134623
646.552	0.0133274
646.630	0.0135385
646.708	0.0135899
646.786	0.0135372
646.864	0.0133868
646.943	0.0133754
647.021	0.0134645
647.099	0.0134610
647.177	0.0133689
647.255	0.0134996
647.333	0.0134282
647.411	0.0134171
647.489	0.0134608
647.568	0.0133624
647.646	0.0133978
647.724	0.0134147
647.802	0.0133847
647.880	0.0135003
647.958	0.0134643
648.036	0.0133807
648.114	0.0134281
648.193	0.0133289
648.271	0.0134716
648.349	0.0135297
648.427	0.0135735
648.505	0.0133693
648.583	0.0134880
648.661	0.0135829
648.739	0.0134673
648.818	0.0135376
648.896	0.0135086
648.974	0.0135684
649.052	0.0134016
649.130	0.0134333
649.208	0.0134327
649.286	0.0134647
649.364	0.0136088
649.443	0.0134225
649.521	0.0134354
649.599	0.0133911
649.677	0.0133735
649.755	0.0134283
649.833	0.0134599
649.911	0.0134952
649.989	0.0133947
650.068	0.0135825
650.146	0.0135545
650.224	0.0133006
650.302	0.0135237
650.380	0.0134116
650.458	0.0135258
650.536	0.0134399
650.614	0.0134029
650.693	0.0133832
650.771	0.0135683
650.849	0.0133929
650.927	0.0134414
651.005	0.0133328
651.083	0.0135139
651.161	0.0135410
651.239	0.0135464
651.318	0.0133219
651.396	0.0134529
651.474	0.0135863
651.552	0.0135662
651.630	0.0134800
651.708	0.0133952
651.786	0.0133778
651.864	0.0135467
651.943	0.0135884
652.021	0.0134346
652.099	0.0134619
652.177	0.0134856
652.255	0.0134172
652.333	0.0133756
652.411	0.0134750
652.489	0.0134554
652.568	0.0135106
652.646	0.0134463
652.724	0.0134393
652.802	0.0133268
652.880	0.0133643
652.958	0.0135018
653.036	0.0134741
653.114	0.0134011
653.193	0.0135320
653.271	0.0134012
653.349	0.0133787
653.427	0.0134503
653.505	0.0134679
653.583	0.0133987
653.661	0.0133241
653.739	0.0133955
653.818	0.0134412
653.896	0.0135462
653.974	0.0135222
654.052	0.0134093
654.130	0.0134800
654.208	0.0134761
654.286	0.0134655
654.364	0.0133785
654.443	0.0133728
654.521	0.0134877
654.599	0.0135117
654.677	0.0134571
654.755	0.0133718
654.833	0.0135416
654.911	0.0133461
654.989	0.0135117
655.068	0.0132957
655.146	0.0133172
655.224	0.0135914
655.302	0.0134014
655.380	0.0133418
655.458	0.0134216
655.536	0.0133915
655.614	0.0133775
655.693	0.0133871
655.771	0.0133372
655.849	0.0135060
655.927	0.0134561
656.005	0.0133877
656.083	0.0132706
656.161	0.0134164
656.239	0.0133633
656.318	0.0134291
656.396	0.0132392
656.474	0.0133241
656.552	0.0133765
656.630	0.0134030
656.708	0.0134458
656.786	0.0133772
656.864	0.0132984
656.943	0.0133075
657.021	0.0135011
657.099	0.0132959
657.177	0.0133157
657.255	0.0134953
657.333	0.0134607
657.411	0.0134617
657.489	0.0134575
657.568	0.0134016
657.646	0.0133741
657.724	0.0135202
657.802	0.0134719
657.880	0.0133484
657.958	0.0133261
658.036	0.0133935
658.114	0.0134579
658.193	0.0133508
658.271	0.0133692
658.349	0.0133665
658.427	0.0134648
658.505	0.0134318
658.583	0.0134287
658.661	0.0135184
658.739	0.0133828
658.818	0.0134064
658.896	0.0132237
658.974	0.0133572
659.052	0.0134846
659.130	0.0135566
659.208	0.0134847
659.286	0.0134476
659.364	0.0134695
659.443	0.0134119
659.521	0.0133498
659.599	0.0134322
659.677	0.0133678
659.755	0.0134641
659.833	0.0134425
659.911	0.0134821
659.989	0.0134267
660.068	0.0135151
660.146	0.0135863
660.224	0.0136129
660.302	0.0135391
660.380	0.0133804
660.458	0.0134332
660.536	0.0134853
660.614	0.0134801
660.693	0.0134541
660.771	0.0135434
660.849	0.0134943
660.927	0.0134754
661.005	0.0133667
661.083	0.0133894
661.161	0.0134343
661.239	0.0135768
661.318	0.0134853
661.396	0.0133823
661.474	0.0134782
661.552	0.0134513
661.630	0.0134102
661.708	0.0134223
661.786	0.0134927
661.864	0.0134143
661.943	0.0133897
662.021	0.0134354
662.099	0.0134685
662.177	0.0134571
662.255	0.0134492
662.333	0.0135057
662.411	0.0134854
662.489	0.0133921
662.568	0.0135778
662.646	0.0135795
662.724	0.0135053
662.802	0.0134659
662.880	0.0135382
662.958	0.0135065
663.036	0.0133898
663.114	0.0134747
663.193	0.0134743
663.271	0.0134009
663.349	0.0134498
663.427	0.0133595
663.505	0.0134393
663.583	0.0134078
663.661	0.0135738
663.739	0.0135166
663.818	0.0133672
663.896	0.0134563
663.974	0.0133957
664.052	0.0133850
664.130	0.0135410
664.208	0.0134993
664.286	0.0134541
664.364	0.0133451
664.443	0.0135316
664.521	0.0134449
664.599	0.0133842
664.677	0.0134050
664.755	0.0133888
664.833	0.0134595
664.911	0.0135242
664.989	0.0135252
665.068	0.0133965
665.146	0.0134573
665.224	0.0135811
665.302	0.0135788
665.380	0.0134106
665.458	0.0134656
665.536	0.0134223
665.614	0.0135323
665.693	0.0134911
665.771	0.0135011
665.849	0.0134828
665.927	0.0134564
666.005	0.0133958
666.083	0.0134940
666.161	0.0134750
666.239	0.0134982
666.318	0.0136224
666.396	0.0134515
666.474	0.0133308
666.552	0.0133588
666.630	0.0135485
666.708	0.0134727
666.786	0.0135480
666.864	0.0134517
666.943	0.0134825
667.021	0.0133601
667.099	0.0135812
667.177	0.0134294
667.255	0.0135793
667.333	0.0134921
667.411	0.0134300
667.489	0.0134155
667.568	0.0135110
667.646	0.0133999
667.724	0.0135300
667.802	0.0134024
667.880	0.0133983
667.958	0.0135881
668.036	0.0135140
668.114	0.0133800
668.193	0.0135921
668.271	0.0134045
668.349	0.0133995
668.427	0.0134699
668.505	0.0135651
668.583	0.0134132
668.661	0.0134577
668.739	0.0135268
668.818	0.0134784
668.896	0.0134282
668.974	0.0134621
669.052	0.0135428
669.130	0.0135375
669.208	0.0134029
669.286	0.0134484
669.364	0.0133061
669.443	0.0134995
669.521	0.0136156
669.599	0.0134787
669.677	0.0134333
669.755	0.0135047
669.833	0.0134929
669.911	0.0134451
669.989	0.0134739
670.068	0.0134452
670.146	0.0134373
670.224	0.0135252
670.302	0.0134662
670.380	0.0134518
670.458	0.0134011
670.536	0.0134847
670.614	0.0134209
670.693	0.0134588
670.771	0.0134331
670.849	0.0134402
670.927	0.0134730
671.005	0.0134879
671.083	0.0133553
671.161	0.0134124
671.239	0.0134494
671.318	0.0135143
671.396	0.0133262
671.474	0.0133140
671.552	0.0134590
671.630	0.0133541
671.708	0.0134499
671.786	0.0134259
671.864	0.0133681
671.943	0.0134933
672.021	0.0134657
672.099	0.0133968
672.177	0.0133961
672.255	0.0132505
672.333	0.0133427
672.411	0.0134116
672.489	0.0132771
672.568	0.0131797
672.646	0.0133490
672.724	0.0135092
672.802	0.0134889
672.880	0.0134862
672.958	0.0134279
673.036	0.0135130
673.114	0.0134970
673.193	0.0133603
673.271	0.0133398
673.349	0.0134885
673.427	0.0133598
673.505	0.0133591
673.583	0.0133904
673.661	0.0133030
673.739	0.0133112
673.818	0.0132414
673.896	0.0132743
673.974	0.0133965
674.052	0.0133803
674.130	0.0134809
674.208	0.0133430
674.286	0.0132735
674.364	0.0134968
674.443	0.0133421
674.521	0.0134247
674.599	0.0133394
674.677	0.0134093
674.755	0.0133969
674.833	0.0133794
674.911	0.0132841
674.989	0.0132750
675.068	0.0133453
675.146	0.0133659
675.224	0.0134974
675.302	0.0131726
675.380	0.0133241
675.458	0.0135780
675.536	0.0134441
675.614	0.0134544
675.693	0.0134108
675.771	0.0133678
675.849	0.0133846
675.927	0.0134521
676.005	0.0133594
676.083	0.0132173
676.161	0.0134015
676.239	0.0134878
676.318	0.0134726
676.396	0.0134470
676.474	0.0133162
676.552	0.0135358
676.630	0.0134093
676.708	0.0135011
676.786	0.0134729
676.864	0.0134474
676.943	0.0134049
677.021	0.0134855
677.099	0.0134845
677.177	0.0135773
677.255	0.0135892
677.333	0.0135928
677.411	0.0133221
677.489	0.0134077
677.568	0.0133826
677.646	0.0135181
677.724	0.0135800
677.802	0.0134806
677.880	0.0134908
677.958	0.0135142
678.036	0.0133907
678.114	0.0135288
678.193	0.0135015
678.271	0.0136083
678.349	0.0136272
678.427	0.0134132
678.505	0.0137012
678.583	0.0134795
678.661	0.0134293
678.739	0.0136742
678.818	0.0135612
678.896	0.0136234
678.974	0.0135031
679.052	0.0135332
679.130	0.0137003
679.208	0.0133936
679.286	0.0136749
679.364	0.0137374
679.443	0.0135234
679.521	0.0135014
679.599	0.0134623
679.677	0.0134975
679.755	0.0135443
679.833	0.0136044
679.911	0.0136123
679.989	0.0134884
680.068	0.0133920
680.146	0.0135845
680.224	0.0134843
680.302	0.0135219
680.380	0.0134721
680.458	0.0135867
680.536	0.0135911
680.614	0.0135568
680.693	0.0135116
680.771	0.0135206
680.849	0.0136134
680.927	0.0135065
681.005	0.0136790
681.083	0.0134409
681.161	0.0133528
681.239	0.0135148
681.318	0.0135400
681.396	0.0135565
681.474	0.0134528
681.552	0.0135542
681.630	0.0134797
681.708	0.0134574
681.786	0.0134824
681.864	0.0135111
681.943	0.0134749
682.021	0.0133990
682.099	0.0135007
682.177	0.0136269
682.255	0.0135863
682.333	0.0135229
682.411	0.0134562
682.489	0.0134675
682.568	0.0134095
682.646	0.0134856
682.724	0.0135545
682.802	0.0135091
682.880	0.0133355
682.958	0.0135384
683.036	0.0134704
683.114	0.0135345
683.193	0.0135977
683.271	0.0133331
683.349	0.0134620
683.427	0.0133463
683.505	0.0133781
683.583	0.0135072
683.661	0.0135050
683.739	0.0133511
683.818	0.0134805
683.896	0.0134498
683.974	0.0134560
684.052	0.0134061
684.130	0.0134500
684.208	0.0134257
684.286	0.0134821
684.364	0.0134898
684.443	0.0134609
684.521	0.0134196
684.599	0.0133728
684.677	0.0134228
684.755	0.0134119
684.833	0.0134411
684.911	0.0134475
684.989	0.0134639
685.068	0.0132942
685.146	0.0133012
685.224	0.0134066
685.302	0.0134769
685.380	0.0133446
685.458	0.0134527
685.536	0.0134615
685.614	0.0134337
685.693	0.0134176
685.771	0.0135754
685.849	0.0133793
685.927	0.0133752
686.005	0.0134601
686.083	0.0133582
686.161	0.0134972
686.239	0.0134788
686.318	0.0133179
686.396	0.0134447
686.474	0.0135085
686.552	0.0135235
686.630	0.0134137
686.708	0.0134463
686.786	0.0135145
686.864	0.0134175
686.943	0.0134544
687.021	0.0135019
687.099	0.0135049
687.177	0.0134455
687.255	0.0135408
687.333	0.0134541
687.411	0.0133450
687.489	0.0133433
687.568	0.0133460
687.646	0.0133943
687.724	0.0133801
687.802	0.0134153
687.880	0.0135337
687.958	0.0133424
688.036	0.0134526
688.114	0.0133866
688.193	0.0134321
688.271	0.0134545
688.349	0.0134512
688.427	0.0134908
688.505	0.0134429
688.583	0.0134148
688.661	0.0132845
688.739	0.0134504
688.818	0.0134182
688.896	0.0134507
688.974	0.0133924
689.052	0.0134881
689.130	0.0136565
689.208	0.0134186
689.286	0.0135056
689.364	0.0133853
689.443	0.0134404
689.521	0.0134965
689.599	0.0134882
689.677	0.0133086
689.755	0.0133631
689.833	0.0135118
689.911	0.0134203
689.989	0.0134835
690.068	0.0134484
690.146	0.0135035
690.224	0.0134377
690.302	0.0134555
690.380	0.0135574
690.458	0.0134145
690.536	0.0135862
690.614	0.0136921
690.693	0.0135588
690.771	0.0134820
690.849	0.0134293
690.927	0.0133578
691.005	0.0132523
691.083	0.0131154
691.161	0.0130583
691.239	0.0129897
691.318	0.0132310
691.396	0.0132510
691.474	0.0131770
691.552	0.0133115
691.630	0.0136891
691.708	0.0137372
691.786	0.0138462
691.864	0.0140051
691.943	0.0142027
692.021	0.0140736
692.099	0.0141475
692.177	0.0141459
692.255	0.0137815
692.333	0.0138248
692.411	0.0134988
692.489	0.0133665
692.568	0.0132141
692.646	0.0129977
692.724	0.0128690
692.802	0.0127304
692.880	0.0125053
692.958	0.0124304
693.036	0.0125546
693.114	0.0126052
693.193	0.0127854
693.271	0.0129052
693.349	0.0131891
693.427	0.0134307
693.505	0.0137556
693.583	0.0138170
693.661	0.0139283
693.739	0.0141747
693.818	0.0143965
693.896	0.0144264
693.974	0.0144944
694.052	0.0145528
694.130	0.0144252
694.208	0.0142434
694.286	0.0142205
694.364	0.0140678
694.443	0.0138635
694.521	0.0136006
694.599	0.0132968
694.677	0.0129662
694.755	0.0128226
694.833	0.0124649
694.911	0.0124947
694.989	0.0124407
695.068	0.0122248
695.146	0.0121622
695.224	0.0123570
695.302	0.0125304
695.380	0.0126543
695.458	0.0128716
695.536	0.0129449
695.614	0.0130737
695.693	0.0134418
695.771	0.0136404
695.849	0.0137746
695.927	0.0138226
696.005	0.0138950
696.083	0.0139361
696.161	0.0141272
696.239	0.0141975
696.318	0.0139991
696.396	0.0142290
696.474	0.0141069
696.552	0.0142246
696.630	0.0141856
696.708	0.0141735
696.786	0.0141631
696.864	0.0139857
696.943	0.0140056
697.021	0.0138066
697.099	0.0136980
697.177	0.0135168
697.255	0.0132739
697.333	0.0131345
697.411	0.0130953
697.489	0.0130114
697.568	0.0128030
697.646	0.0128144
697.724	0.0127171
697.802	0.0127795
697.880	0.0127767
697.958	0.0128712
698.036	0.0129599
698.114	0.0131621
698.193	0.0130097
698.271	0.0131809
698.349	0.0132468
698.427	0.0133703
698.505	0.0134607
698.583	0.0134444
698.661	0.0133907
698.739	0.0133794
698.818	0.0133921
698.896	0.0133846
698.974	0.0133076
699.052	0.0133571
699.130	0.0133569
699.208	0.0131752
699.286	0.0132609
699.364	0.0132063
699.443	0.0133777
699.521	0.0134248
699.599	0.0132812
699.677	0.0133890
699.755	0.0135305
699.833	0.0134605
699.911	0.0137536
699.989	0.0137789
700.068	0.0138728
700.146	0.0140916
700.224	0.0141096
700.302	0.0141348
700.380	0.0142447
700.458	0.0142497
700.536	0.0142809
700.614	0.0141106
700.693	0.0141592
700.771	0.0141051
700.849	0.0141058
700.927	0.0139944
701.005	0.0138160
701.083	0.0135893
701.161	0.0134052
701.239	0.0132702
701.318	0.0132574
701.396	0.0129934
701.474	0.0129787
701.552	0.0128922
701.630	0.0127891
701.708	0.0126998
701.786	0.0125736
701.864	0.0127371
701.943	0.0127244
702.021	0.0126451
702.099	0.0127467
702.177	0.0126196
702.255	0.0126214
702.333	0.0127191
702.411	0.0126600
702.489	0.0129122
702.568	0.0127420
702.646	0.0127785
702.724	0.0127547
702.802	0.0126420
702.880	0.0128089
702.958	0.0128732
703.036	0.0129018
703.114	0.0130769
703.193	0.0132100
703.271	0.0134323
703.349	0.0136266
703.427	0.0137901
703.505	0.0139450
703.583	0.0140771
703.661	0.0143501
703.739	0.0144793
703.818	0.0147177
703.896	0.0148174
703.974	0.0148119
704.052	0.0149475
704.130	0.0148444
704.208	0.0149819
704.286	0.0149996
704.364	0.0148142
704.443	0.0146391
704.521	0.0145797
704.599	0.0142784
704.677	0.0140443
704.755	0.0139529
704.833	0.0138683
704.911	0.0136153
704.989	0.0134240
705.068	0.0132505
705.146	0.0129993
705.224	0.0128730
705.302	0.0126673
705.380	0.0124739
705.458	0.0123975
705.536	0.0122987
705.614	0.0122940
705.693	0.0121967
705.771	0.0122334
705.849	0.0120706
705.927	0.0122794
706.005	0.0123170
706.083	0.0123663
706.161	0.0123547
706.239	0.0125497
706.318	0.0126606
706.396	0.0129218
706.474	0.0131439
706.552	0.0132047
706.630	0.0132806
706.708	0.0133065
706.786	0.0135417
706.864	0.0134865
706.943	0.0137090
707.021	0.0138792
707.099	0.0139430
707.177	0.0139048
707.255	0.0139798
707.333	0.0139703
707.411	0.0141063
707.489	0.0139433
707.568	0.0140636
707.646	0.0139574
707.724	0.0139538
707.802	0.0139975
707.880	0.0139833
707.958	0.0140797
708.036	0.0140779
708.114	0.0140595
708.193	0.0140587
708.271	0.0139404
708.349	0.0142893
708.427	0.0143491
708.505	0.0141759
708.583	0.0141883
708.661	0.0141912
708.739	0.0142698
708.818	0.0142845
708.896	0.0142355
708.974	0.0141612
709.052	0.0141557
709.130	0.0139674
709.208	0.0138217
709.286	0.0137592
709.364	0.0135814
709.443	0.0134343
709.521	0.0131294
709.599	0.0129213
709.677	0.0128810
709.755	0.0126524
709.833	0.0123883
709.911	0.0121835
709.989	0.0120132
710.068	0.0120724
710.146	0.0120409
710.224	0.0121693
710.302	0.0120187
710.380	0.0121285
710.458	0.0122379
710.536	0.0123381
710.614	0.0123607
710.693	0.0125365
710.771	0.0127566
710.849	0.0129168
710.927	0.0129623
711.005	0.0130590
711.083	0.0132276
711.161	0.0133859
711.239	0.0133950
711.318	0.0134716
711.396	0.0136488
711.474	0.0135239
711.552	0.0136572
711.630	0.0135342
711.708	0.0134888
711.786	0.0136211
711.864	0.0135336
711.943	0.0136420
712.021	0.0135627
712.099	0.0137016
712.177	0.0138557
712.255	0.0138196
712.333	0.0139467
712.411	0.0141738
712.489	0.0142214
712.568	0.0143063
712.646	0.0144209
712.724	0.0144787
712.802	0.0144657
712.880	0.0145914
712.958	0.0145176
713.036	0.0147312
713.114	0.0146712
713.193	0.0146156
713.271	0.0145248
713.349	0.0145296
713.427	0.0145049
713.505	0.0143437
713.583	0.0141512
713.661	0.0140395
713.739	0.0137494
713.818	0.0136008
713.896	0.0135089
713.974	0.0131849
714.052	0.0130023
714.130	0.0127817
714.208	0.0125377
714.286	0.0123549
714.364	0.0123426
714.443	0.0123154
714.521	0.0120649
714.599	0.0120821
714.677	0.0120667
714.755	0.0121103
714.833	0.0121461
714.911	0.0122268
714.989	0.0123904
715.068	0.0124840
715.146	0.0126502
715.224	0.0127532
715.302	0.0128265
715.380	0.0129722
715.458	0.0132067
715.536	0.0135485
715.614	0.0135664
715.693	0.0136926
715.771	0.0139113
715.849	0.0138592
715.927	0.0139661
716.005	0.0140022
716.083	0.0140905
716.161	0.0141093
716.239	0.0140779
716.318	0.0140108
716.396	0.0139429
716.474	0.0138712
716.552	0.0137251
716.630	0.0136045
716.708	0.0136115
716.786	0.0135535
716.864	0.0132773
716.943	0.0134174
717.021	0.0135693
717.099	0.0136700
717.177	0.0135865
717.255	0.0135817
717.333	0.0136703
717.411	0.0137034
717.489	0.0137364
717.568	0.0139166
717.646	0.0140731
717.724	0.0140493
717.802	0.0142029
717.880	0.0144164
717.958	0.0143498
718.036	0.0144642
718.114	0.0143764
718.193	0.0144075
718.271	0.0141417
718.349	0.0141193
718.427	0.0140111
718.505	0.0137057
718.583	0.0136691
718.661	0.0136847
718.739	0.0133654
718.818	0.0131174
718.896	0.0130522
718.974	0.0129759
719.052	0.0128485
719.130	0.0127740
719.208	0.0127668
719.286	0.0126917
719.364	0.0126534
719.443	0.0126115
719.521	0.0125437
719.599	0.0125615
719.677	0.0127935
719.755	0.0128786
719.833	0.0129363
719.911	0.0127956
719.989	0.0128868
720.068	0.0130420
720.146	0.0130975
720.224	0.0131421
720.302	0.0131096
720.380	0.0131108
720.458	0.0130607
720.536	0.0131052
720.614	0.0130891
720.693	0.0130421
720.771	0.0131976
720.849	0.0131539
720.927	0.0132098
721.005	0.0131833
721.083	0.0133380
721.161	0.0134252
721.239	0.0134589
721.318	0.0134837
721.396	0.0136347
721.474	0.0137786
721.552	0.0136539
721.630	0.0137252
721.708	0.0138248
721.786	0.0137947
721.864	0.0139354
721.943	0.0139038
722.021	0.0138599
722.099	0.0139447
722.177	0.0139390
722.255	0.0140631
722.333	0.0140929
722.411	0.0139771
722.489	0.0138940
722.568	0.0141965
722.646	0.0140401
722.724	0.0138512
722.802	0.0138721
722.880	0.0139435
722.958	0.0138681
723.036	0.0138269
723.114	0.0139820
723.193	0.0136762
723.271	0.0135036
723.349	0.0133626
723.427	0.0132015
723.505	0.0132671
723.583	0.0132707
723.661	0.0132582
723.739	0.0132293
723.818	0.0132445
723.896	0.0133471
723.974	0.0133327
724.052	0.0132075
724.130	0.0132904
724.208	0.0133585
724.286	0.0133278
724.364	0.0133202
724.443	0.0132800
724.521	0.0132303
724.599	0.0131859
724.677	0.0130518
724.755	0.0131984
724.833	0.0131847
724.911	0.0130489
724.989	0.0130467
725.068	0.0129082
725.146	0.0129604
725.224	0.0130836
725.302	0.0128508
725.380	0.0128365
725.458	0.0128455
725.536	0.0129101
725.614	0.0130546
725.693	0.0129459
725.771	0.0130116
725.849	0.0131968
725.927	0.0131871
726.005	0.0131438
726.083	0.0132478
726.161	0.0134363
726.239	0.0135153
726.318	0.0134749
726.396	0.0136287
726.474	0.0137263
726.552	0.0136497
726.630	0.0137564
726.708	0.0138130
726.786	0.0137910
726.864	0.0137686
726.943	0.0138154
727.021	0.0136473
727.099	0.0137112
727.177	0.0136997
727.255	0.0138056
727.333	0.0137588
727.411	0.0137761
727.489	0.0135961
727.568	0.0137498
727.646	0.0138443
727.724	0.0135950
727.802	0.0136819
727.880	0.0136156
727.958	0.0136906
728.036	0.0136945
728.114	0.0136848
728.193	0.0136322
728.271	0.0136411
728.349	0.0136290
728.427	0.0135894
728.505	0.0137312
728.583	0.0136880
728.661	0.0137154
728.739	0.0137901
728.818	0.0137307
728.896	0.0135197
728.974	0.0136385
729.052	0.0135669
729.130	0.0135526
729.208	0.0136221
729.286	0.0136032
729.364	0.0136359
729.443	0.0136096
729.521	0.0133863
729.599	0.0134824
729.677	0.0134077
729.755	0.0133941
729.833	0.0134631
729.911	0.0133175
729.989	0.0131524
730.068	0.0131895
730.146	0.0132028
730.224	0.0131525
730.302	0.0130682
730.380	0.0130283
730.458	0.0130608
730.536	0.0130949
730.614	0.0129446
730.693	0.0129811
730.771	0.0130126
730.849	0.0131561
730.927	0.0131496
731.005	0.0132864
731.083	0.0132898
731.161	0.0132703
731.239	0.0132857
731.318	0.0134946
731.396	0.0135322
731.474	0.0134483
731.552	0.0135301
731.630	0.0135604
731.708	0.0137137
731.786	0.0137038
731.864	0.0137319
731.943	0.0138905
732.021	0.0137424
732.099	0.0137598
732.177	0.0136646
732.255	0.0136015
732.333	0.0135234
732.411	0.0135448
732.489	0.0134637
732.568	0.0134076
732.646	0.0131481
732.724	0.0132664
732.802	0.0132723
732.880	0.0131747
732.958	0.0131696
733.036	0.0132262
733.114	0.0133810
733.193	0.0133332
733.271	0.0133186
733.349	0.0133370
733.427	0.0133813
733.505	0.0136594
733.583	0.0137552
733.661	0.0136037
733.739	0.0136951
733.818	0.0136677
733.896	0.0137811
733.974	0.0138503
734.052	0.0137502
734.130	0.0138486
734.208	0.0140018
734.286	0.0138731
734.364	0.0138202
734.443	0.0139528
734.521	0.0137462
734.599	0.0134859
734.677	0.0135619
734.755	0.0136845
734.833	0.0133469
734.911	0.0133591
734.989	0.0131207
735.068	0.0133270
735.146	0.0132460
735.224	0.0131665
735.302	0.0131905
735.380	0.0130170
735.458	0.0132308
735.536	0.0130599
735.614	0.0131995
735.693	0.0131145
735.771	0.0132712
735.849	0.0133561
735.927	0.0132223
736.005	0.0134360
736.083	0.0134888
736.161	0.0135881
736.239	0.0135384
736.318	0.0135474
736.396	0.0135911
736.474	0.0134834
736.552	0.0134280
736.630	0.0135854
736.708	0.0135738
736.786	0.0135419
736.864	0.0135265
736.943	0.0134740
737.021	0.0134232
737.099	0.0133879
737.177	0.0134258
737.255	0.0132798
737.333	0.0131917
737.411	0.0132115
737.489	0.0132261
737.568	0.0132048
737.646	0.0130666
737.724	0.0131750
737.802	0.0131246
737.880	0.0130933
737.958	0.0132565
738.036	0.0132272
738.114	0.0132947
738.193	0.0133267
738.271	0.0132916
738.349	0.0134614
738.427	0.0133873
738.505	0.0135007
738.583	0.0135896
738.661	0.0136566
738.739	0.0135887
738.818	0.0136348
738.896	0.0136659
738.974	0.0136931
739.052	0.0136861
739.130	0.0136671
739.208	0.0137674
739.286	0.0135050
739.364	0.0134843
739.443	0.0136142
739.521	0.0135979
739.599	0.0134918
739.677	0.0134418
739.755	0.0135474
739.833	0.0135072
739.911	0.0136148
739.989	0.0134853
740.068	0.0135085
740.146	0.0135575
740.224	0.0136826
740.302	0.0136562
740.380	0.0135715
740.458	0.0135336
740.536	0.0135553
740.614	0.0134592
740.693	0.0135959
740.771	0.0134603
740.849	0.0134141
740.927	0.0134138
741.005	0.0134789
741.083	0.0133400
741.161	0.0133739
741.239	0.0133710
741.318	0.0133359
741.396	0.0133394
741.474	0.0135931
741.552	0.0134678
741.630	0.0135625
741.708	0.0135426
741.786	0.0134917
741.864	0.0135802
741.943	0.0135314
742.021	0.0134916
742.099	0.0136108
742.177	0.0135570
742.255	0.0135417
742.333	0.0134870
742.411	0.0136279
742.489	0.0136060
742.568	0.0133844
742.646	0.0133681
742.724	0.0134528
742.802	0.0132240
742.880	0.0132973
742.958	0.0132920
743.036	0.0132517
743.114	0.0131953
743.193	0.0131518
743.271	0.0131063
743.349	0.0132782
743.427	0.0132262
743.505	0.0132112
743.583	0.0132944
743.661	0.0132330
743.739	0.0133494
743.818	0.0134743
743.896	0.0134586
743.974	0.0134213
744.052	0.0133634
744.130	0.0134262
744.208	0.0134374
744.286	0.0133514
744.364	0.0134969
744.443	0.0134696
744.521	0.0134599
744.599	0.0134666
744.677	0.0135452
744.755	0.0133360
744.833	0.0133629
744.911	0.0135246
744.989	0.0133314
745.068	0.0134367
745.146	0.0134698
745.224	0.0133829
745.302	0.0133563
745.380	0.0133552
745.458	0.0134223
745.536	0.0135350
745.614	0.0134176
745.693	0.0134702
745.771	0.0134300
745.849	0.0134527
745.927	0.0137306
746.005	0.0136270
746.083	0.0135729
746.161	0.0135782
746.239	0.0138422
746.318	0.0136867
746.396	0.0137506
746.474	0.0138144
746.552	0.0138620
746.630	0.0137299
746.708	0.0136343
746.786	0.0136241
746.864	0.0137096
746.943	0.0137436
747.021	0.0134942
747.099	0.0136345
747.177	0.0135027
747.255	0.0134756
747.333	0.0133428
747.411	0.0135069
747.489	0.0133097
747.568	0.0133828
747.646	0.0135027
747.724	0.0133818
747.802	0.0135262
747.880	0.0133462
747.958	0.0135467
748.036	0.0136185
748.114	0.0136273
748.193	0.0135200
748.271	0.0136205
748.349	0.0135763
748.427	0.0136453
748.505	0.0135986
748.583	0.0136847
748.661	0.0135179
748.739	0.0135048
748.818	0.0133022
748.896	0.0132838
748.974	0.0133473
749.052	0.0131795
749.130	0.0131698
749.208	0.0130157
749.286	0.0131133
749.364	0.0130880
749.443	0.0131967
749.521	0.0130371
749.599	0.0129876
749.677	0.0130370
749.755	0.0131519
749.833	0.0130534
749.911	0.0131493
749.989	0.0132320
750.068	0.0131363
750.146	0.0132407
750.224	0.0133749
750.302	0.0134281
750.380	0.0134739
750.458	0.0135303
750.536	0.0135108
750.614	0.0136357
750.693	0.0136509
750.771	0.0137649
750.849	0.0136996
750.927	0.0135951
751.005	0.0137589
751.083	0.0137839
751.161	0.0136463
751.239	0.0137477
751.318	0.0136805
751.396	0.0135050
751.474	0.0135126
751.552	0.0135934
751.630	0.0134538
751.708	0.0133282
751.786	0.0134780
751.864	0.0133701
751.943	0.0133195
752.021	0.0132140
752.099	0.0133258
752.177	0.0132973
752.255	0.0134287
752.333	0.0133610
752.411	0.0132617
752.489	0.0134135
752.568	0.0132635
752.646	0.0133559
752.724	0.0135899
752.802	0.0134964
752.880	0.0134486
752.958	0.0134660
753.036	0.0136472
753.114	0.0137862
753.193	0.0136706
753.271	0.0136326
753.349	0.0136452
753.427	0.0136828
753.505	0.0137146
753.583	0.0137167
753.661	0.0136263
753.739	0.0138130
753.818	0.0137872
753.896	0.0137292
753.974	0.0138999
754.052	0.0137547
754.130	0.0138501
754.208	0.0139283
754.286	0.0136007
754.364	0.0136456
754.443	0.0137188
754.521	0.0136917
754.599	0.0137125
754.677	0.0135727
754.755	0.0134956
754.833	0.0134790
754.911	0.0133286
754.989	0.0132878
755.068	0.0131834
755.146	0.0132012
755.224	0.0131248
755.302	0.0130182
755.380	0.0129576
755.458	0.0130324
755.536	0.0128986
755.614	0.0128307
755.693	0.0129865
755.771	0.0129099
755.849	0.0129259
755.927	0.0130839
756.005	0.0129114
756.083	0.0130782
756.161	0.0130345
756.239	0.0131399
756.318	0.0132504
756.396	0.0133566
756.474	0.0132850
756.552	0.0133598
756.630	0.0135596
756.708	0.0136392
756.786	0.0136630
756.864	0.0137254
756.943	0.0137417
757.021	0.0138237
757.099	0.0136961
757.177	0.0138114
757.255	0.0138504
757.333	0.0139190
757.411	0.0139034
757.489	0.0137600
757.568	0.0138560
757.646	0.0137529
757.724	0.0137387
757.802	0.0138268
757.880	0.0136533
757.958	0.0136810
758.036	0.0136201
758.114	0.0136057
758.193	0.0136539
758.271	0.0136104
758.349	0.0133820
758.427	0.0133981
758.505	0.0132863
758.583	0.0133051
758.661	0.0132642
758.739	0.0134521
758.818	0.0133378
758.896	0.0133025
758.974	0.0133581
759.052	0.0133321
759.130	0.0133870
759.208	0.0135579
759.286	0.0134318
759.364	0.0133910
759.443	0.0133747
759.521	0.0134849
759.599	0.0132748
759.677	0.0132246
759.755	0.0132601
759.833	0.0132808
759.911	0.0133451
759.989	0.0131995
760.068	0.0132505
760.146	0.0132048
760.224	0.0134317
760.302	0.0133020
760.380	0.0134148
760.458	0.0133189
760.536	0.0134776
760.614	0.0135055
760.693	0.0135181
760.771	0.0136629
760.849	0.0135860
760.927	0.0137054
761.005	0.0138005
761.083	0.0137188
761.161	0.0136095
761.239	0.0137907
761.318	0.0136118
761.396	0.0136855
761.474	0.0137608
761.552	0.0136356
761.630	0.0134959
761.708	0.0135306
761.786	0.0134711
761.864	0.0133317
761.943	0.0134774
762.021	0.0132992
762.099	0.0132572
762.177	0.0130138
762.255	0.0129427
762.333	0.0130776
762.411	0.0131174
762.489	0.0128964
762.568	0.0129684
762.646	0.0132235
762.724	0.0130079
762.802	0.0132516
762.880	0.0133467
762.958	0.0131356
763.036	0.0133429
763.114	0.0132618
763.193	0.0132392
763.271	0.0133931
763.349	0.0135103
763.427	0.0135164
763.505	0.0136536
763.583	0.0134999
763.661	0.0135194
763.739	0.0135214
763.818	0.0135323
763.896	0.0136363
763.974	0.0135471
764.052	0.0136752
764.130	0.0137193
764.208	0.0135580
764.286	0.0135335
764.364	0.0135696
764.443	0.0136469
764.521	0.0135050
764.599	0.0133895
764.677	0.0134073
764.755	0.0134509
764.833	0.0135117
764.911	0.0134219
764.989	0.0133660
765.068	0.0134122
765.146	0.0135403
765.224	0.0133987
765.302	0.0134108
765.380	0.0132977
765.458	0.0133826
765.536	0.0134485
765.614	0.0133286
765.693	0.0134570
765.771	0.0134960
765.849	0.0134673
765.927	0.0136440
766.005	0.0134835
766.083	0.0135493
766.161	0.0135266
766.239	0.0134839
766.318	0.0134908
766.396	0.0136064
766.474	0.0135915
766.552	0.0135838
766.630	0.0135123
766.708	0.0137388
766.786	0.0137405
766.864	0.0136916
766.943	0.0136114
767.021	0.0137386
767.099	0.0137657
767.177	0.0136992
767.255	0.0137978
767.333	0.0137883
767.411	0.0137496
767.489	0.0137359
767.568	0.0137159
767.646	0.0136529
767.724	0.0135596
767.802	0.0135969
767.880	0.0135542
767.958	0.0134656
768.036	0.0134885
768.114	0.0133190
768.193	0.0131464
768.271	0.0131509
768.349	0.0131503
768.427	0.0129864
768.505	0.0128028
768.583	0.0128693
768.661	0.0128731
768.739	0.0128412
768.818	0.0129061
768.896	0.0128831
768.974	0.0129061
769.052	0.0127881
769.130	0.0129641
769.208	0.0130724
769.286	0.0130446
769.364	0.0131468
769.443	0.0130854
769.521	0.0131559
769.599	0.0133826
769.677	0.0132080
769.755	0.0133054
769.833	0.0132807
769.911	0.0133861
769.989	0.0136258
770.068	0.0134744
770.146	0.0136094
770.224	0.0136502
770.302	0.0135561
770.380	0.0137054
770.458	0.0137640
770.536	0.0136977
770.614	0.0137581
770.693	0.0137097
770.771	0.0138238
770.849	0.0137396
770.927	0.0136214
771.005	0.0138527
771.083	0.0137761
771.161	0.0136174
771.239	0.0138073
771.318	0.0137502
771.396	0.0138244
771.474	0.0138028
771.552	0.0137026
771.630	0.0137585
771.708	0.0137093
771.786	0.0135806
771.864	0.0137632
771.943	0.0136490
772.021	0.0136138
772.099	0.0135495
772.177	0.0137585
772.255	0.0135972
772.333	0.0133588
772.411	0.0134751
772.489	0.0133852
772.568	0.0134529
772.646	0.0132306
772.724	0.0133474
772.802	0.0132705
772.880	0.0130939
772.958	0.0131799
773.036	0.0131027
773.114	0.0130463
773.193	0.0130083
773.271	0.0131071
773.349	0.0132298
773.427	0.0131579
773.505	0.0130560
773.583	0.0131251
773.661	0.0132565
773.739	0.0133076
773.818	0.0132616
773.896	0.0131814
773.974	0.0133482
774.052	0.0133633
774.130	0.0133607
774.208	0.0132995
774.286	0.0134320
774.364	0.0134706
774.443	0.0134441
774.521	0.0133921
774.599	0.0134064
774.677	0.0134866
774.755	0.0134772
774.833	0.0134761
774.911	0.0132862
774.989	0.0133807
775.068	0.0135196
775.146	0.0135335
775.224	0.0135841
775.302	0.0134969
775.380	0.0136433
775.458	0.0136690
775.536	0.0136378
775.614	0.0135166
775.693	0.0136299
775.771	0.0137059
775.849	0.0136559
775.927	0.0137790
776.005	0.0137192
776.083	0.0137959
776.161	0.0137369
776.239	0.0136994
776.318	0.0137398
776.396	0.0137556
776.474	0.0137163
776.552	0.0136443
776.630	0.0134927
776.708	0.0136509
776.786	0.0135367
776.864	0.0135406
776.943	0.0135234
777.021	0.0135403
777.099	0.0134595
777.177	0.0132529
777.255	0.0134789
777.333	0.0134755
777.411	0.0133422
777.489	0.0133628
777.568	0.0133229
777.646	0.0133143
777.724	0.0133283
777.802	0.0133466
777.880	0.0132311
777.958	0.0132715
778.036	0.0133770
778.114	0.0132127
778.193	0.0132569
778.271	0.0132858
778.349	0.0133921
778.427	0.0135694
778.505	0.0134258
778.583	0.0132922
778.661	0.0134536
778.739	0.0133239
778.818	0.0133904
778.896	0.0135128
778.974	0.0134996
779.052	0.0134507
779.130	0.0133054
779.208	0.0133184
779.286	0.0134078
779.364	0.0133764
779.443	0.0133291
779.521	0.0133533
779.599	0.0134219
779.677	0.0134502
779.755	0.0134734
779.833	0.0135017
779.911	0.0134883
779.989	0.0135465
780.068	0.0136610
780.146	0.0136832
780.224	0.0136448
780.302	0.0135400
780.380	0.0135841
780.458	0.0137566
780.536	0.0137489
780.614	0.0137341
780.693	0.0137298
780.771	0.0137190
780.849	0.0137988
780.927	0.0137732
781.005	0.0135767
781.083	0.0136591
781.161	0.0136488
781.239	0.0135571
781.318	0.0135580
781.396	0.0135921
781.474	0.0136398
781.552	0.0136067
781.630	0.0136008
781.708	0.0134548
781.786	0.0134302
781.864	0.0135271
781.943	0.0134891
782.021	0.0134003
782.099	0.0133654
782.177	0.0135925
782.255	0.0134536
782.333	0.0133289
782.411	0.0133154
782.489	0.0134293
782.568	0.0134724
782.646	0.0133759
782.724	0.0131768
782.802	0.0132305
782.880	0.0131567
782.958	0.0132443
783.036	0.0132345
783.114	0.0131175
783.193	0.0131193
783.271	0.0131316
783.349	0.0131806
783.427	0.0130772
783.505	0.0132011
783.583	0.0132372
783.661	0.0132397
783.739	0.0133222
783.818	0.0132011
783.896	0.0132880
783.974	0.0132552
784.052	0.0134148
784.130	0.0133875
784.208	0.0134152
784.286	0.0135036
784.364	0.0134307
784.443	0.0134493
784.521	0.0137076
784.599	0.0135888
784.677	0.0138436
784.755	0.0136804
784.833	0.0135920
784.911	0.0137263
784.989	0.0135078
785.068	0.0135460
785.146	0.0136643
785.224	0.0136636
785.302	0.0135326
785.380	0.0134981
785.458	0.0134628
785.536	0.0134837
785.614	0.0135150
785.693	0.0137433
785.771	0.0136037
785.849	0.0134706
785.927	0.0136640
786.005	0.0135497
786.083	0.0136556
786.161	0.0135875
786.239	0.0135168
786.318	0.0135982
786.396	0.0136996
786.474	0.0136111
786.552	0.0136981
786.630	0.0137068
786.708	0.0136641
786.786	0.0136535
786.864	0.0136070
786.943	0.0137755
787.021	0.0137308
787.099	0.0135433
787.177	0.0136536
787.255	0.0135628
787.333	0.0134496
787.411	0.0135330
787.489	0.0134781
787.568	0.0134766
787.646	0.0134413
787.724	0.0133983
787.802	0.0133271
787.880	0.0132918
787.958	0.0132439
788.036	0.0132264
788.114	0.0132756
788.193	0.0133583
788.271	0.0133960
788.349	0.0133569
788.427	0.0134260
788.505	0.0133769
788.583	0.0133215
788.661	0.0134442
788.739	0.0134598
788.818	0.0134806
788.896	0.0134216
788.974	0.0135294
789.052	0.0134662
789.130	0.0134075
789.208	0.0134002
789.286	0.0135482
789.364	0.0135539
789.443	0.0135577
789.521	0.0134058
789.599	0.0133134
789.677	0.0134317
789.755	0.0135515
789.833	0.0134424
789.911	0.0133432
789.989	0.0134766
790.068	0.0136014
790.146	0.0134959
790.224	0.0132922
790.302	0.0134535
790.380	0.0135562
790.458	0.0135519
790.536	0.0135300
790.614	0.0133939
790.693	0.0134535
790.771	0.0135387
790.849	0.0134784
790.927	0.0134470
791.005	0.0135467
791.083	0.0136694
791.161	0.0136887
791.239	0.0135068
791.318	0.0134217
791.396	0.0134059
791.474	0.0133988
791.552	0.0133880
791.630	0.0133709
791.708	0.0133907
791.786	0.0133522
791.864	0.0131836
791.943	0.0131992
792.021	0.0133215
792.099	0.0132423
792.177	0.0132067
792.255	0.0132092
792.333	0.0133160
792.411	0.0134579
792.489	0.0132860
792.568	0.0134063
792.646	0.0134099
792.724	0.0134291
792.802	0.0136700
792.880	0.0134753
792.958	0.0135915
793.036	0.0135255
793.114	0.0136698
793.193	0.0137259
793.271	0.0135992
793.349	0.0136578
793.427	0.0136086
793.505	0.0134846
793.583	0.0135542
793.661	0.0135797
793.739	0.0135126
793.818	0.0133460
793.896	0.0134435
793.974	0.0134156
794.052	0.0132728
794.130	0.0131928
794.208	0.0132507
794.286	0.0132569
794.364	0.0131909
794.443	0.0131197
794.521	0.0133472
794.599	0.0131953
794.677	0.0132098
794.755	0.0132420
794.833	0.0133069
794.911	0.0134245
794.989	0.0133005
795.068	0.0134937
795.146	0.0134708
795.224	0.0134250
795.302	0.0135951
795.380	0.0133427
795.458	0.0134216
795.536	0.0134684
795.614	0.0134638
795.693	0.0135435
795.771	0.0135006
795.849	0.0135234
795.927	0.0134251
796.005	0.0134452
796.083	0.0132886
796.161	0.0133076
796.239	0.0132693
796.318	0.0133582
796.396	0.0134973
796.474	0.0133073
796.552	0.0134512
796.630	0.0134393
796.708	0.0133806
796.786	0.0132858
796.864	0.0134343
796.943	0.0135002
797.021	0.0135001
797.099	0.0135397
797.177	0.0134431
797.255	0.0135882
797.333	0.0135513
797.411	0.0135460
797.489	0.0135146
797.568	0.0135591
797.646	0.0135603
797.724	0.0135513
797.802	0.0135841
797.880	0.0135394
797.958	0.0134195
798.036	0.0135301
798.114	0.0133911
798.193	0.0133566
798.271	0.0133866
798.349	0.0133360
798.427	0.0132983
798.505	0.0132662
798.583	0.0134155
798.661	0.0133095
798.739	0.0132403
798.818	0.0134525
798.896	0.0134037
798.974	0.0134098
799.052	0.0134205
799.130	0.0134145
799.208	0.0133897
799.286	0.0136591
799.364	0.0136379
799.443	0.0135846
799.521	0.0135059
799.599	0.0136391
799.677	0.0134413
799.755	0.0133659
799.833	0.0133852
799.911	0.0135306
799.989	0.0133643
800.068	0.0134521
800.146	0.0133837
800.224	0.0133691
800.302	0.0134196
800.380	0.0135104
800.458	0.0134060
800.536	0.0133442
800.614	0.0134061
800.693	0.0134804
800.771	0.0134438
800.849	0.0135355
800.927	0.0134950
801.005	0.0135477
801.083	0.0136932
801.161	0.0134512
801.239	0.0134942
801.318	0.0135979
801.396	0.0136026
801.474	0.0134663
801.552	0.0133629
801.630	0.0135641
801.708	0.0136068
801.786	0.0135089
801.864	0.0135382
801.943	0.0134251
802.021	0.0135406
802.099	0.0134566
802.177	0.0135103
802.255	0.0135559
802.333	0.0135181
802.411	0.0134141
802.489	0.0133675
802.568	0.0134381
802.646	0.0134443
802.724	0.0135062
802.802	0.0133311
802.880	0.0133169
802.958	0.0133231
803.036	0.0133858
803.114	0.0133916
803.193	0.0134438
803.271	0.0134837
803.349	0.0134342
803.427	0.0133887
803.505	0.0134087
803.583	0.0133627
803.661	0.0134725
803.739	0.0134032
803.818	0.0135366
803.896	0.0134645
803.974	0.0134922
804.052	0.0134443
804.130	0.0135093
804.208	0.0133727
804.286	0.0133315
804.364	0.0136098
804.443	0.0134666
804.521	0.0133451
804.599	0.0134857
804.677	0.0135536
804.755	0.0135070
804.833	0.0134038
804.911	0.0134492
804.989	0.0135970
805.068	0.0135977
805.146	0.0135791
805.224	0.0135788
805.302	0.0135360
805.380	0.0136140
805.458	0.0136305
805.536	0.0135715
805.614	0.0135495
805.693	0.0134248
805.771	0.0134389
805.849	0.0134879
805.927	0.0136221
806.005	0.0136201
806.083	0.0134772
806.161	0.0133216
806.239	0.0133625
806.318	0.0133028
806.396	0.0132836
806.474	0.0134042
806.552	0.0135906
806.630	0.0133770
806.708	0.0133349
806.786	0.0132751
806.864	0.0133475
806.943	0.0135973
807.021	0.0132782
807.099	0.0133022
807.177	0.0132390
807.255	0.0133306
807.333	0.0133572
807.411	0.0133982
807.489	0.0133428
807.568	0.0133750
807.646	0.0135571
807.724	0.0134728
807.802	0.0134565
807.880	0.0135358
807.958	0.0135346
808.036	0.0135499
808.114	0.0134975
808.193	0.0135796
808.271	0.0134850
808.349	0.0134733
808.427	0.0135274
808.505	0.0135116
808.583	0.0135081
808.661	0.0135162
808.739	0.0133521
808.818	0.0133343
808.896	0.0134064
808.974	0.0134088
809.052	0.0133401
809.130	0.0133424
809.208	0.0134418
809.286	0.0134612
809.364	0.0132470
809.443	0.0134856
809.521	0.0135444
809.599	0.0135483
809.677	0.0134901
809.755	0.0134314
809.833	0.0135294
809.911	0.0135576
809.989	0.0136852
810.068	0.0135715
810.146	0.0136161
810.224	0.0135173
810.302	0.0135586
810.380	0.0135397
810.458	0.0135981
810.536	0.0136615
810.614	0.0135280
810.693	0.0135612
810.771	0.0134517
810.849	0.0135206
810.927	0.0135627
811.005	0.0136241
811.083	0.0134888
811.161	0.0132758
811.239	0.0132614
811.318	0.0133952
811.396	0.0132708
811.474	0.0133089
811.552	0.0134329
811.630	0.0132822
811.708	0.0132288
811.786	0.0131923
811.864	0.0132967
811.943	0.0133913
812.021	0.0132136
812.099	0.0134100
812.177	0.0133661
812.255	0.0133801
812.333	0.0134880
812.411	0.0134211
812.489	0.0134781
812.568	0.0135151
812.646	0.0136009
812.724	0.0135634
812.802	0.0133649
812.880	0.0135793
812.958	0.0135784
813.036	0.0136324
813.114	0.0135083
813.193	0.0133850
813.271	0.0133878
813.349	0.0134180
813.427	0.0133038
813.505	0.0134819
813.583	0.0133736
813.661	0.0134328
813.739	0.0133178
813.818	0.0135010
813.896	0.0133640
813.974	0.0133913
814.052	0.0135526
814.130	0.0134709
814.208	0.0134988
814.286	0.0136646
814.364	0.0135378
814.443	0.0136337
814.521	0.0137717
814.599	0.0136729
814.677	0.0137868
814.755	0.0136737
814.833	0.0137811
814.911	0.0137383
814.989	0.0137700
815.068	0.0136361
815.146	0.0135908
815.224	0.0136937
815.302	0.0136975
815.380	0.0135900
815.458	0.0134481
815.536	0.0135291
815.614	0.0136751
815.693	0.0134852
815.771	0.0134252
815.849	0.0134624
815.927	0.0134425
816.005	0.0133908
816.083	0.0131867
816.161	0.0132577
816.239	0.0131542
816.318	0.0133262
816.396	0.0132393
816.474	0.0130935
816.552	0.0131765
816.630	0.0132030
816.708	0.0131522
816.786	0.0130530
816.864	0.0130901
816.943	0.0129577
817.021	0.0131140
817.099	0.0131725
817.177	0.0130063
817.255	0.0131058
817.333	0.0130857
817.411	0.0130622
817.489	0.0133572
817.568	0.0132948
817.646	0.0132363
817.724	0.0133171
817.802	0.0134126
817.880	0.0133341
817.958	0.0134489
818.036	0.0135261
818.114	0.0136546
818.193	0.0136138
818.271	0.0137449
818.349	0.0137654
818.427	0.0138578
818.505	0.0138364
818.583	0.0138897
818.661	0.0138559
818.739	0.0138499
818.818	0.0139199
818.896	0.0140184
818.974	0.0137788
819.052	0.0138471
819.130	0.0139046
819.208	0.0138284
819.286	0.0137503
819.364	0.0138120
819.443	0.0137680
819.521	0.0137378
819.599	0.0137175
819.677	0.0136517
819.755	0.0135362
819.833	0.0136020
819.911	0.0134113
819.989	0.0134080
820.068	0.0134929
820.146	0.0133104
820.224	0.0130997
820.302	0.0132198
820.380	0.0132236
820.458	0.0130878
820.536	0.0131544
820.614	0.0129987
820.693	0.0130409
820.771	0.0131440
820.849	0.0129830
820.927	0.0129029
821.005	0.0130508
821.083	0.0130811
821.161	0.0129476
821.239	0.0128904
821.318	0.0131214
821.396	0.0129865
821.474	0.0130546
821.552	0.0131634
821.630	0.0131289
821.708	0.0131937
821.786	0.0132307
821.864	0.0131924
821.943	0.0132291
822.021	0.0133730
822.099	0.0133912
822.177	0.0134269
822.255	0.0134323
822.333	0.0135624
822.411	0.0135909
822.489	0.0135192
822.568	0.0136266
822.646	0.0136824
822.724	0.0138148
822.802	0.0138046
822.880	0.0138978
822.958	0.0138753
823.036	0.0138274
823.114	0.0138429
823.193	0.0138378
823.271	0.0137785
823.349	0.0139419
823.427	0.0137627
823.505	0.0136722
823.583	0.0136441
823.661	0.0137791
823.739	0.0137402
823.818	0.0136701
823.896	0.0136208
823.974	0.0135938
824.052	0.0134846
824.130	0.0132913
824.208	0.0133199
824.286	0.0134293
824.364	0.0133956
824.443	0.0132917
824.521	0.0131406
824.599	0.0130774
824.677	0.0131220
824.755	0.0130831
824.833	0.0131156
824.911	0.0129945
824.989	0.0129725
825.068	0.0129836
825.146	0.0131109
825.224	0.0131239
825.302	0.0133015
825.380	0.0132447
825.458	0.0132356
825.536	0.0130385
825.614	0.0130974
825.693	0.0133006
825.771	0.0134132
825.849	0.0131554
825.927	0.0132487
826.005	0.0132474
826.083	0.0132978
826.161	0.0132704
826.239	0.0132275
826.318	0.0133875
826.396	0.0133356
826.474	0.0133468
826.552	0.0133879
826.630	0.0133128
826.708	0.0134498
826.786	0.0134168
826.864	0.0134982
826.943	0.0135136
827.021	0.0135778
827.099	0.0136506
827.177	0.0138478
827.255	0.0137118
827.333	0.0137709
827.411	0.0138138
827.489	0.0139127
827.568	0.0138413
827.646	0.0139120
827.724	0.0139503
827.802	0.0138914
827.880	0.0140257
827.958	0.0138857
828.036	0.0139726
828.114	0.0138959
828.193	0.0138418
828.271	0.0137865
828.349	0.0136667
828.427	0.0137704
828.505	0.0135338
828.583	0.0135295
828.661	0.0135101
828.739	0.0133183
828.818	0.0132653
828.896	0.0133335
828.974	0.0133517
829.052	0.0131199
829.130	0.0130028
829.208	0.0129523
829.286	0.0128310
829.364	0.0128469
829.443	0.0127597
829.521	0.0127169
829.599	0.0127038
829.677	0.0126202
829.755	0.0126603
829.833	0.0126646
829.911	0.0127271
829.989	0.0127705
830.068	0.0128814
830.146	0.0129082
830.224	0.0127003
830.302	0.0127782
830.380	0.0130360
830.458	0.0130469
830.536	0.0130373
830.614	0.0131963
830.693	0.0132317
830.771	0.0134583
830.849	0.0136082
830.927	0.0135453
831.005	0.0136317
831.083	0.0136639
831.161	0.0138068
831.239	0.0140247
831.318	0.0139883
831.396	0.0140377
831.474	0.0141621
831.552	0.0142561
831.630	0.0141743
831.708	0.0144531
831.786	0.0144082
831.864	0.0143585
831.943	0.0142542
832.021	0.0142749
832.099	0.0141814
832.177	0.0141693
832.255	0.0140104
832.333	0.0139510
832.411	0.0141337
832.489	0.0139236
832.568	0.0139405
832.646	0.0137759
832.724	0.0135534
832.802	0.0136371
832.880	0.0134116
832.958	0.0133411
833.036	0.0132864
833.114	0.0132771
833.193	0.0131009
833.271	0.0132236
833.349	0.0129681
833.427	0.0130003
833.505	0.0129394
833.583	0.0128877
833.661	0.0128562
833.739	0.0128609
833.818	0.0127278
833.896	0.0127116
833.974	0.0126906
834.052	0.0127640
834.130	0.0126622
834.208	0.0125520
834.286	0.0125776
834.364	0.0127296
834.443	0.0127158
834.521	0.0126385
834.599	0.0126672
834.677	0.0129052
834.755	0.0129508
834.833	0.0128419
834.911	0.0130651
834.989	0.0130253
835.068	0.0132710
835.146	0.0133078
835.224	0.0133596
835.302	0.0135061
835.380	0.0137289
835.458	0.0136265
835.536	0.0136897
835.614	0.0138693
835.693	0.0138358
835.771	0.0140643
835.849	0.0140913
835.927	0.0141521
836.005	0.0140952
836.083	0.0142502
836.161	0.0142724
836.239	0.0143800
836.318	0.0143513
836.396	0.0142188
836.474	0.0143251
836.552	0.0142867
836.630	0.0142364
836.708	0.0140334
836.786	0.0140433
836.864	0.0141096
836.943	0.0140169
837.021	0.0139017
837.099	0.0138122
837.177	0.0137385
837.255	0.0136101
837.333	0.0135767
837.411	0.0134341
837.489	0.0133874
837.568	0.0131000
837.646	0.0132409
837.724	0.0132233
837.802	0.0130386
837.880	0.0128832
837.958	0.0129780
838.036	0.0129823
838.114	0.0128390
838.193	0.0128515
838.271	0.0129432
838.349	0.0129612
838.427	0.0127370
838.505	0.0127527
838.583	0.0128997
838.661	0.0129990
838.739	0.0130313
838.818	0.0130384
838.896	0.0131030
838.974	0.0131390
839.052	0.0132314
839.130	0.0131976
839.208	0.0132627
839.286	0.0130832
839.364	0.0131850
839.443	0.0133527
839.521	0.0134634
839.599	0.0134319
839.677	0.0133842
839.755	0.0135263
839.833	0.0133483
839.911	0.0136642
839.989	0.0135496
840.068	0.0135915
840.146	0.0137144
840.224	0.0137552
840.302	0.0137133
840.380	0.0137120
840.458	0.0137321
840.536	0.0136961
840.614	0.0138097
840.693	0.0138213
840.771	0.0138497
840.849	0.0137569
840.927	0.0138163
841.005	0.0138751
841.083	0.0138168
841.161	0.0140659
841.239	0.0138414
841.318	0.0138538
841.396	0.0137778
841.474	0.0137917
841.552	0.0137014
841.630	0.0139753
841.708	0.0137121
841.786	0.0137033
841.864	0.0136648
841.943	0.0137505
842.021	0.0135873
842.099	0.0136691
842.177	0.0134878
842.255	0.0135668
842.333	0.0136241
842.411	0.0135358
842.489	0.0135192
842.568	0.0135740
842.646	0.0134757
842.724	0.0133920
842.802	0.0133598
842.880	0.0133947
842.958	0.0133038
843.036	0.0132841
843.114	0.0133344
843.193	0.0133286
843.271	0.0133226
843.349	0.0132117
843.427	0.0132955
843.505	0.0133125
843.583	0.0131870
843.661	0.0132488
843.739	0.0132611
843.818	0.0132533
843.896	0.0133028
843.974	0.0134691
844.052	0.0133762
844.130	0.0132827
844.208	0.0133528
844.286	0.0131996
844.364	0.0134338
844.443	0.0132407
844.521	0.0133465
844.599	0.0132908
844.677	0.0132737
844.755	0.0132549
844.833	0.0132509
844.911	0.0133658
844.989	0.0132980
845.068	0.0132793
845.146	0.0133719
845.224	0.0133099
845.302	0.0134240
845.380	0.0134634
845.458	0.0132954
845.536	0.0133346
845.614	0.0134846
845.693	0.0134398
845.771	0.0135244
845.849	0.0135720
845.927	0.0137099
846.005	0.0135355
846.083	0.0135881
846.161	0.0136187
846.239	0.0136459
846.318	0.0137032
846.396	0.0137987
846.474	0.0137308
846.552	0.0137875
846.630	0.0137731
846.708	0.0138017
846.786	0.0138490
846.864	0.0138786
846.943	0.0138358
847.021	0.0137926
847.099	0.0137603
847.177	0.0135695
847.255	0.0137206
847.333	0.0136256
847.411	0.0135602
847.489	0.0135114
847.568	0.0135404
847.646	0.0135219
847.724	0.0134367
847.802	0.0134096
847.880	0.0134212
847.958	0.0133485
848.036	0.0134622
848.114	0.0132974
848.193	0.0133160
848.271	0.0133209
848.349	0.0134546
848.427	0.0133961
848.505	0.0133566
848.583	0.0134285
848.661	0.0133247
848.739	0.0132459
848.818	0.0134084
848.896	0.0133235
848.974	0.0133447
849.052	0.0132835
849.130	0.0133275
849.208	0.0132651
849.286	0.0133060
849.364	0.0133475
849.443	0.0134073
849.521	0.0132584
849.599	0.0133543
849.677	0.0133935
849.755	0.0132908
849.833	0.0132590
849.911	0.0133614
849.989	0.0133631
850.068	0.0133283
850.146	0.0135023
850.224	0.0132773
850.302	0.0134404
850.380	0.0136403
850.458	0.0135044
850.536	0.0133836
850.614	0.0133640
850.693	0.0135600
850.771	0.0136343
850.849	0.0135364
850.927	0.0136468
851.005	0.0136238
851.083	0.0136307
851.161	0.0136764
851.239	0.0135555
851.318	0.0135960
851.396	0.0136539
851.474	0.0135516
851.552	0.0135310
851.630	0.0135165
851.708	0.0136416
851.786	0.0136093
851.864	0.0134850
851.943	0.0133154
852.021	0.0133899
852.099	0.0133238
852.177	0.0132721
852.255	0.0133327
852.333	0.0132713
852.411	0.0133252
852.489	0.0132838
852.568	0.0133403
852.646	0.0132896
852.724	0.0135228
852.802	0.0134048
852.880	0.0134623
852.958	0.0133994
853.036	0.0134492
853.114	0.0135817
853.193	0.0134895
853.271	0.0134530
853.349	0.0133280
853.427	0.0136187
853.505	0.0135624
853.583	0.0135442
853.661	0.0136493
853.739	0.0135532
853.818	0.0135128
853.896	0.0134229
853.974	0.0135706
854.052	0.0135386
854.130	0.0136742
854.208	0.0135271
854.286	0.0135353
854.364	0.0135506
854.443	0.0135658
854.521	0.0135848
854.599	0.0135788
854.677	0.0134576
854.755	0.0135126
854.833	0.0135394
854.911	0.0136232
854.989	0.0135650
855.068	0.0134741
855.146	0.0135199
855.224	0.0134569
855.302	0.0133715
855.380	0.0133382
855.458	0.0134357
855.536	0.0132818
855.614	0.0134379
855.693	0.0133617
855.771	0.0133619
855.849	0.0134670
855.927	0.0132928
856.005	0.0132764
856.083	0.0130820
856.161	0.0131390
856.239	0.0132765
856.318	0.0132319
856.396	0.0132271
856.474	0.0132896
856.552	0.0134721
856.630	0.0132589
856.708	0.0133134
856.786	0.0133512
856.864	0.0132636
856.943	0.0134480
857.021	0.0134232
857.099	0.0134454
857.177	0.0134627
857.255	0.0137863
857.333	0.0136314
857.411	0.0133963
857.489	0.0135423
857.568	0.0136011
857.646	0.0136406
857.724	0.0136214
857.802	0.0136017
857.880	0.0135707
857.958	0.0135519
858.036	0.0137867
858.114	0.0135470
858.193	0.0135868
858.271	0.0135675
858.349	0.0136279
858.427	0.0137255
858.505	0.0135906
858.583	0.0135750
858.661	0.0136840
858.739	0.0136708
858.818	0.0135030
858.896	0.0135979
858.974	0.0135766
859.052	0.0135566
859.130	0.0134923
859.208	0.0134853
859.286	0.0136135
859.364	0.0134251
859.443	0.0135187
859.521	0.0136199
859.599	0.0136259
859.677	0.0136562
859.755	0.0135226
859.833	0.0136104
859.911	0.0136179
859.989	0.0135038
860.068	0.0134960
860.146	0.0135479
860.224	0.0134313
860.302	0.0134209
860.380	0.0134653
860.458	0.0133387
860.536	0.0134189
860.614	0.0134132
860.693	0.0133599
860.771	0.0133546
860.849	0.0133225
860.927	0.0133645
861.005	0.0134257
861.083	0.0133849
861.161	0.0133324
861.239	0.0133175
861.318	0.0132742
861.396	0.0131904
861.474	0.0132913
861.552	0.0133094
861.630	0.0132896
861.708	0.0133350
861.786	0.0132471
861.864	0.0133583
861.943	0.0133697
862.021	0.0132230
862.099	0.0134140
862.177	0.0133720
862.255	0.0133752
862.333	0.0135204
862.411	0.0133216
862.489	0.0135226
862.568	0.0134343
862.646	0.0135243
862.724	0.0135007
862.802	0.0135348
862.880	0.0136449
862.958	0.0135809
863.036	0.0135400
863.114	0.0135921
863.193	0.0137166
863.271	0.0137034
863.349	0.0136459
863.427	0.0136366
863.505	0.0136916
863.583	0.0137634
863.661	0.0138957
863.739	0.0136575
863.818	0.0135689
863.896	0.0136328
863.974	0.0136436
864.052	0.0136595
864.130	0.0135788
864.208	0.0134940
864.286	0.0136112
864.364	0.0135452
864.443	0.0133985
864.521	0.0133990
864.599	0.0134052
864.677	0.0133807
864.755	0.0133677
864.833	0.0133080
864.911	0.0132892
864.989	0.0130959
865.068	0.0132348
865.146	0.0133351
865.224	0.0132512
865.302	0.0132967
865.380	0.0132692
865.458	0.0133180
865.536	0.0131974
865.614	0.0132613
865.693	0.0133875
865.771	0.0134341
865.849	0.0133215
865.927	0.0135400
866.005	0.0135702
866.083	0.0135501
866.161	0.0135353
866.239	0.0135790
866.318	0.0136044
866.396	0.0136351
866.474	0.0135880
866.552	0.0136501
866.630	0.0136942
866.708	0.0138982
866.786	0.0136195
866.864	0.0138088
866.943	0.0138319
867.021	0.0137700
867.099	0.0136955
867.177	0.0138206
867.255	0.0140216
867.333	0.0137391
867.411	0.0137083
867.489	0.0137052
867.568	0.0136203
867.646	0.0136809
867.724	0.0137883
867.802	0.0137640
867.880	0.0136441
867.958	0.0135195
868.036	0.0135791
868.114	0.0136068
868.193	0.0134327
868.271	0.0135173
868.349	0.0134399
868.427	0.0134989
868.505	0.0134270
868.583	0.0132513
868.661	0.0134525
868.739	0.0133136
868.818	0.0131751
868.896	0.0133913
868.974	0.0132665
869.052	0.0132807
869.130	0.0133326
869.208	0.0133527
869.286	0.0132339
869.364	0.0133026
869.443	0.0134007
869.521	0.0133090
869.599	0.0133301
869.677	0.0133336
869.755	0.0132789
869.833	0.0133424
869.911	0.0133156
869.989	0.0135917
870.068	0.0136162
870.146	0.0133668
870.224	0.0134287
870.302	0.0135278
870.380	0.0135139
870.458	0.0134930
870.536	0.0134409
870.614	0.0134334
870.693	0.0136834
870.771	0.0134054
870.849	0.0134458
870.927	0.0135426
871.005	0.0134811
871.083	0.0135816
871.161	0.0135754
871.239	0.0134786
871.318	0.0136657
871.396	0.0136021
871.474	0.0136597
871.552	0.0137039
871.630	0.0135593
871.708	0.0136221
871.786	0.0135387
871.864	0.0135381
871.943	0.0134531
872.021	0.0135661
872.099	0.0135057
872.177	0.0136306
872.255	0.0136298
872.333	0.0134733
872.411	0.0134617
872.489	0.0134824
872.568	0.0134090
872.646	0.0134760
872.724	0.0134563
872.802	0.0134017
872.880	0.0134163
872.958	0.0135851
873.036	0.0134582
873.114	0.0133048
873.193	0.0134976
873.271	0.0133761
873.349	0.0132994
873.427	0.0133372
873.505	0.0133738
873.583	0.0134291
873.661	0.0132769
873.739	0.0134401
873.818	0.0133209
873.896	0.0132451
873.974	0.0134235
874.052	0.0134066
874.130	0.0134251
874.208	0.0133322
874.286	0.0132935
874.364	0.0134675
874.443	0.0133916
874.521	0.0134125
874.599	0.0133288
874.677	0.0133714
874.755	0.0133789
874.833	0.0135050
874.911	0.0135022
874.989	0.0133935
875.068	0.0134630
875.146	0.0133835
875.224	0.0133862
875.302	0.0134871
875.380	0.0135480
875.458	0.0135704
875.536	0.0135719
875.614	0.0135803
875.693	0.0133891
875.771	0.0135097
875.849	0.0135937
875.927	0.0134463
876.005	0.0136056
876.083	0.0135413
876.161	0.0135999
876.239	0.0135844
876.318	0.0135458
876.396	0.0134700
876.474	0.0134895
876.552	0.0135268
876.630	0.0134098
876.708	0.0134428
876.786	0.0134953
876.864	0.0134196
876.943	0.0134869
877.021	0.0134898
877.099	0.0135374
877.177	0.0134706
877.255	0.0134757
877.333	0.0134058
877.411	0.0133842
877.489	0.0133575
877.568	0.0133253
877.646	0.0133740
877.724	0.0133043
877.802	0.0133182
877.880	0.0134031
877.958	0.0132678
878.036	0.0133440
878.114	0.0133153
878.193	0.0133549
878.271	0.0133593
878.349	0.0134741
878.427	0.0133562
878.505	0.0134028
878.583	0.0133560
878.661	0.0134406
878.739	0.0134109
878.818	0.0133802
878.896	0.0134189
878.974	0.0135349
879.052	0.0135026
879.130	0.0134766
879.208	0.0135894
879.286	0.0135959
879.364	0.0134228
879.443	0.0135780
879.521	0.0135760
879.599	0.0135585
879.677	0.0135599
879.755	0.0135413
879.833	0.0136294
879.911	0.0136136
879.989	0.0135784
880.068	0.0136248
880.146	0.0135463
880.224	0.0135824
880.302	0.0136500
880.380	0.0135867
880.458	0.0136818
880.536	0.0133521
880.614	0.0135778
880.693	0.0136221
880.771	0.0136119
880.849	0.0135882
880.927	0.0135964
881.005	0.0135683
881.083	0.0134058
881.161	0.0135338
881.239	0.0135092
881.318	0.0134724
881.396	0.0134532
881.474	0.0133458
881.552	0.0132977
881.630	0.0133355
881.708	0.0133688
881.786	0.0132472
881.864	0.0132973
881.943	0.0132693
882.021	0.0132690
882.099	0.0131767
882.177	0.0132433
882.255	0.0133607
882.333	0.0130675
882.411	0.0131973
882.489	0.0133459
882.568	0.0132712
882.646	0.0131843
882.724	0.0133839
882.802	0.0132200
882.880	0.0132697
882.958	0.0133421
883.036	0.0132066
883.114	0.0133408
883.193	0.0134022
883.271	0.0134264
883.349	0.0134100
883.427	0.0134480
883.505	0.0133871
883.583	0.0135340
883.661	0.0135110
883.739	0.0134816
883.818	0.0134325
883.896	0.0135116
883.974	0.0134424
884.052	0.0134073
884.130	0.0135258
884.208	0.0134388
884.286	0.0134088
884.364	0.0133146
884.443	0.0132744
884.521	0.0132614
884.599	0.0134294
884.677	0.0133537
884.755	0.0134727
884.833	0.0135326
884.911	0.0132981
884.989	0.0136737
885.068	0.0136301
885.146	0.0136301
885.224	0.0135745
885.302	0.0137564
885.380	0.0138543
885.458	0.0137616
885.536	0.0138187
885.614	0.0137662
885.693	0.0136894
885.771	0.0137507
885.849	0.0138374
885.927	0.0137772
886.005	0.0137063
886.083	0.0134892
886.161	0.0133894
886.239	0.0135594
886.318	0.0133915
886.396	0.0134731
886.474	0.0133028
886.552	0.0132876
886.630	0.0133179
886.708	0.0134061
886.786	0.0134125
886.864	0.0133532
886.943	0.0133320
887.021	0.0134319
887.099	0.0134596
887.177	0.0134131
887.255	0.0133904
887.333	0.0134322
887.411	0.0135801
887.489	0.0135571
887.568	0.0135342
887.646	0.0135942
887.724	0.0136335
887.802	0.0132764
887.880	0.0133193
887.958	0.0135692
888.036	0.0134888
888.114	0.0133391
888.193	0.0133255
888.271	0.0134377
888.349	0.0133666
888.427	0.0133488
888.505	0.0131597
888.583	0.0132754
888.661	0.0135001
888.739	0.0134175
888.818	0.0132661
888.896	0.0134296
888.974	0.0133876
889.052	0.0133285
889.130	0.0133434
889.208	0.0133497
889.286	0.0134846
889.364	0.0133115
889.443	0.0133905
889.521	0.0133937
889.599	0.0133241
889.677	0.0134012
889.755	0.0135162
889.833	0.0134474
889.911	0.0132712
889.989	0.0134329
890.068	0.0134628
890.146	0.0135691
890.224	0.0134604
890.302	0.0136019
890.380	0.0135707
890.458	0.0134901
890.536	0.0136398
890.614	0.0135794
890.693	0.0135904
890.771	0.0136607
890.849	0.0135935
890.927	0.0135236
891.005	0.0136878
891.083	0.0136933
891.161	0.0136776
891.239	0.0135969
891.318	0.0137123
891.396	0.0137398
891.474	0.0136555
891.552	0.0137586
891.630	0.0138976
891.708	0.0138705
891.786	0.0137782
891.864	0.0138552
891.943	0.0137865
892.021	0.0137037
892.099	0.0137849
892.177	0.0138181
892.255	0.0137873
892.333	0.0136434
892.411	0.0137165
892.489	0.0135708
892.568	0.0135159
892.646	0.0136397
892.724	0.0135189
892.802	0.0132697
892.880	0.0133148
892.958	0.0133805
893.036	0.0132029
893.114	0.0131436
893.193	0.0131332
893.271	0.0130886
893.349	0.0131085
893.427	0.0130013
893.505	0.0131297
893.583	0.0131807
893.661	0.0131210
893.739	0.0131626
893.818	0.0133056
893.896	0.0131246
893.974	0.0132671
894.052	0.0132521
894.130	0.0133557
894.208	0.0133236
894.286	0.0134853
894.364	0.0135313
894.443	0.0135004
894.521	0.0135224
894.599	0.0136143
894.677	0.0135423
894.755	0.0135979
894.833	0.0135405
894.911	0.0135531
894.989	0.0136323
895.068	0.0135004
895.146	0.0134405
895.224	0.0134802
895.302	0.0135766
895.380	0.0134788
895.458	0.0135126
895.536	0.0134428
895.614	0.0136530
895.693	0.0134579
895.771	0.0134643
895.849	0.0135854
895.927	0.0135334
896.005	0.0135818
896.083	0.0135369
896.161	0.0134093
896.239	0.0134648
896.318	0.0134388
896.396	0.0134463
896.474	0.0133846
896.552	0.0133967
896.630	0.0133936
896.708	0.0133009
896.786	0.0135407
896.864	0.0133793
896.943	0.0133361
897.021	0.0134424
897.099	0.0133193
897.177	0.0132624
897.255	0.0132066
897.333	0.0132626
897.411	0.0133444
897.489	0.0133304
897.568	0.0134688
897.646	0.0132126
897.724	0.0131789
897.802	0.0133099
897.880	0.0133733
897.958	0.0132964
898.036	0.0133678
898.114	0.0135020
898.193	0.0133982
898.271	0.0134205
898.349	0.0133266
898.427	0.0134329
898.505	0.0133765
898.583	0.0132856
898.661	0.0133885
898.739	0.0133789
898.818	0.0134858
898.896	0.0135217
898.974	0.0135988
899.052	0.0134649
899.130	0.0134807
899.208	0.0134512
899.286	0.0134621
899.364	0.0135139
899.443	0.0134099
899.521	0.0134362
899.599	0.0135561
899.677	0.0136106
899.755	0.0135200
899.833	0.0135653
899.911	0.0134959
899.989	0.0135387
900.068	0.0137102
900.146	0.0135162
900.224	0.0134029
900.302	0.0135163
900.380	0.0133736
900.458	0.0135049
900.536	0.0134028
900.614	0.0133845
900.693	0.0133132
900.771	0.0132935
900.849	0.0133278
900.927	0.0133547
901.005	0.0131888
901.083	0.0132426
901.161	0.0131514
901.239	0.0130740
901.318	0.0131514
901.396	0.0132312
901.474	0.0130637
901.552	0.0131565
901.630	0.0131030
901.708	0.0130898
901.786	0.0132125
901.864	0.0130519
901.943	0.0130840
902.021	0.0130664
902.099	0.0131232
902.177	0.0131290
902.255	0.0132086
902.333	0.0132796
902.411	0.0134135
902.489	0.0134268
902.568	0.0134331
902.646	0.0134029
902.724	0.0134997
902.802	0.0135742
902.880	0.0135207
902.958	0.0136594
903.036	0.0136811
903.114	0.0137045
903.193	0.0134883
903.271	0.0135368
903.349	0.0137330
903.427	0.0135661
903.505	0.0134647
903.583	0.0134989
903.661	0.0135186
903.739	0.0134372
903.818	0.0134517
903.896	0.0135332
903.974	0.0134736
904.052	0.0134602
904.130	0.0133996
904.208	0.0134666
904.286	0.0135828
904.364	0.0135005
904.443	0.0134946
904.521	0.0136995
904.599	0.0135624
904.677	0.0135412
904.755	0.0136340
904.833	0.0134656
904.911	0.0135101
904.989	0.0133664
905.068	0.0135154
905.146	0.0135641
905.224	0.0135203
905.302	0.0133743
905.380	0.0133884
905.458	0.0131614
905.536	0.0132364
905.614	0.0131776
905.693	0.0131482
905.771	0.0131588
905.849	0.0131560
905.927	0.0130640
906.005	0.0130653
906.083	0.0131372
906.161	0.0130641
906.239	0.0131807
906.318	0.0131137
906.396	0.0131542
906.474	0.0132100
906.552	0.0132442
906.630	0.0132515
906.708	0.0133247
906.786	0.0133240
906.864	0.0134427
906.943	0.0135047
907.021	0.0135938
907.099	0.0136038
907.177	0.0136563
907.255	0.0136752
907.333	0.0135706
907.411	0.0136827
907.489	0.0135140
907.568	0.0136246
907.646	0.0135639
907.724	0.0135612
907.802	0.0133840
907.880	0.0133829
907.958	0.0135014
908.036	0.0133896
908.114	0.0133199
908.193	0.0131750
908.271	0.0131307
908.349	0.0131370
908.427	0.0131298
908.505	0.0131956
908.583	0.0131655
908.661	0.0131915
908.739	0.0133385
908.818	0.0134175
908.896	0.0133634
908.974	0.0134058
909.052	0.0136195
909.130	0.0136212
909.208	0.0136156
909.286	0.0135974
909.364	0.0136761
909.443	0.0137189
909.521	0.0139058
909.599	0.0137194
909.677	0.0138459
909.755	0.0138483
909.833	0.0137274
909.911	0.0137721
909.989	0.0136746
910.068	0.0134711
910.146	0.0134599
910.224	0.0136234
910.302	0.0134491
910.380	0.0135232
910.458	0.0134274
910.536	0.0133498
910.614	0.0133134
910.693	0.0131666
910.771	0.0130677
910.849	0.0131824
910.927	0.0133513
911.005	0.0132030
911.083	0.0131604
911.161	0.0131897
911.239	0.0131486
911.318	0.0131965
911.396	0.0132844
911.474	0.0132905
911.552	0.0133581
911.630	0.0133513
911.708	0.0134069
911.786	0.0134998
911.864	0.0136311
911.943	0.0135538
912.021	0.0135733
912.099	0.0135612
912.177	0.0136544
912.255	0.0137396
912.333	0.0136282
912.411	0.0136671
912.489	0.0135446
912.568	0.0135764
912.646	0.0135423
912.724	0.0135686
912.802	0.0135565
912.880	0.0134173
912.958	0.0133190
913.036	0.0134682
913.114	0.0132570
913.193	0.0134058
913.271	0.0133289
913.349	0.0132713
913.427	0.0131319
913.505	0.0131461
913.583	0.0131915
913.661	0.0131004
913.739	0.0131950
913.818	0.0132922
913.896	0.0133675
913.974	0.0133150
914.052	0.0133276
914.130	0.0132892
914.208	0.0134032
914.286	0.0134771
914.364	0.0135265
914.443	0.0134764
914.521	0.0135635
914.599	0.0136610
914.677	0.0136346
914.755	0.0136730
914.833	0.0135126
914.911	0.0136700
914.989	0.0136543
915.068	0.0136201
915.146	0.0135972
915.224	0.0135621
915.302	0.0135968
915.380	0.0135297
915.458	0.0136443
915.536	0.0135870
915.614	0.0134789
915.693	0.0133118
915.771	0.0133472
915.849	0.0135582
915.927	0.0134232
916.005	0.0133699
916.083	0.0132208
916.161	0.0132507
916.239	0.0132690
916.318	0.0132856
916.396	0.0132312
916.474	0.0129985
916.552	0.0131193
916.630	0.0132699
916.708	0.0133865
916.786	0.0132422
916.864	0.0133013
916.943	0.0132054
917.021	0.0131930
917.099	0.0134006
917.177	0.0131384
917.255	0.0134195
917.333	0.0133537
917.411	0.0135086
917.489	0.0133518
917.568	0.0133341
917.646	0.0134651
917.724	0.0134636
917.802	0.0133376
917.880	0.0134105
917.958	0.0133730
918.036	0.0135023
918.114	0.0133777
918.193	0.0133985
918.271	0.0133307
918.349	0.0135696
918.427	0.0135976
918.505	0.0135168
918.583	0.0134865
918.661	0.0134772
918.739	0.0135448
918.818	0.0134928
918.896	0.0135224
918.974	0.0135806
919.052	0.0135345
919.130	0.0136789
919.208	0.0136059
919.286	0.0134354
919.364	0.0133775
919.443	0.0134277
919.521	0.0136064
919.599	0.0136975
919.677	0.0134210
919.755	0.0135317
919.833	0.0135668
919.911	0.0135033
919.989	0.0134200
920.068	0.0135400
920.146	0.0135294
920.224	0.0135445
920.302	0.0134786
920.380	0.0135911
920.458	0.0134216
920.536	0.0133315
920.614	0.0134023
920.693	0.0133115
920.771	0.0134061
920.849	0.0133691
920.927	0.0135140
921.005	0.0134641
921.083	0.0132755
921.161	0.0134040
921.239	0.0133895
921.318	0.0133619
921.396	0.0133705
921.474	0.0133492
921.552	0.0132990
921.630	0.0132124
921.708	0.0133244
921.786	0.0134550
921.864	0.0134763
921.943	0.0133589
922.021	0.0133121
922.099	0.0133797
922.177	0.0133220
922.255	0.0132207
922.333	0.0131139
922.411	0.0133189
922.489	0.0134467
922.568	0.0132362
922.646	0.0133275
922.724	0.0133630
922.802	0.0133865
922.880	0.0134432
922.958	0.0134064
923.036	0.0134608
923.114	0.0134798
923.193	0.0135800
923.271	0.0135125
923.349	0.0134818
923.427	0.0133451
923.505	0.0133789
923.583	0.0134958
923.661	0.0136134
923.739	0.0136261
923.818	0.0134654
923.896	0.0136381
923.974	0.0135776
924.052	0.0135124
924.130	0.0135194
924.208	0.0135224
924.286	0.0133666
924.364	0.0135912
924.443	0.0136196
924.521	0.0135820
924.599	0.0135136
924.677	0.0135267
924.755	0.0134116
924.833	0.0134595
924.911	0.0134933
924.989	0.0136587
925.068	0.0134784
925.146	0.0135371
925.224	0.0134259
925.302	0.0134270
925.380	0.0134245
925.458	0.0134107
925.536	0.0134492
925.614	0.0135849
925.693	0.0133348
925.771	0.0133932
925.849	0.0134066
925.927	0.0133524
926.005	0.0133693
926.083	0.0132542
926.161	0.0134836
926.239	0.0132903
926.318	0.0133068
926.396	0.0133831
926.474	0.0132863
926.552	0.0133247
926.630	0.0132783
926.708	0.0133124
926.786	0.0132225
926.864	0.0131951
926.943	0.0132273
927.021	0.0132269
927.099	0.0131998
927.177	0.0133147
927.255	0.0134819
927.333	0.0134867
927.411	0.0134142
927.489	0.0134158
927.568	0.0134603
927.646	0.0134571
927.724	0.0134485
927.802	0.0134997
927.880	0.0136752
927.958	0.0136829
928.036	0.0135854
928.114	0.0135713
928.193	0.0134833
928.271	0.0134666
928.349	0.0136002
928.427	0.0135407
928.505	0.0135947
928.583	0.0135974
928.661	0.0135164
928.739	0.0134808
928.818	0.0135213
928.896	0.0135345
928.974	0.0133293
929.052	0.0134573
929.130	0.0135577
929.208	0.0135091
929.286	0.0133816
929.364	0.0135627
929.443	0.0134210
929.521	0.0134023
929.599	0.0133553
929.677	0.0132507
929.755	0.0133059
929.833	0.0134803
929.911	0.0132694
929.989	0.0133707
930.068	0.0133975
930.146	0.0134084
930.224	0.0134440
930.302	0.0133810
930.380	0.0133123
930.458	0.0134853
930.536	0.0133482
930.614	0.0133120
930.693	0.0133286
930.771	0.0133646
930.849	0.0133070
930.927	0.0134536
931.005	0.0134135
931.083	0.0133790
931.161	0.0132447
931.239	0.0133337
931.318	0.0133447
931.396	0.0134261
931.474	0.0133315
931.552	0.0133089
931.630	0.0133837
931.708	0.0134382
931.786	0.0134225
931.864	0.0132842
931.943	0.0132696
932.021	0.0134654
932.099	0.0133759
932.177	0.0134425
932.255	0.0133382
932.333	0.0134528
932.411	0.0135553
932.489	0.0135802
932.568	0.0136561
932.646	0.0135877
932.724	0.0135654
932.802	0.0136569
932.880	0.0137194
932.958	0.0137764
933.036	0.0135819
933.114	0.0137890
933.193	0.0137534
933.271	0.0136842
933.349	0.0137247
933.427	0.0136575
933.505	0.0135949
933.583	0.0136728
933.661	0.0137186
933.739	0.0137351
933.818	0.0136420
933.896	0.0137167
933.974	0.0136639
934.052	0.0135219
934.130	0.0136004
934.208	0.0135002
934.286	0.0135518
934.364	0.0134236
934.443	0.0134931
934.521	0.0133765
934.599	0.0133400
934.677	0.0133450
934.755	0.0134127
934.833	0.0132755
934.911	0.0133594
934.989	0.0134083
935.068	0.0133886
935.146	0.0132407
935.224	0.0135070
935.302	0.0133054
935.380	0.0132580
935.458	0.0133323
935.536	0.0135256
935.614	0.0133998
935.693	0.0135517
935.771	0.0135291
935.849	0.0134778
935.927	0.0134666
936.005	0.0133331
936.083	0.0135828
936.161	0.0134566
936.239	0.0133797
936.318	0.0134620
936.396	0.0134888
936.474	0.0133619
936.552	0.0133805
936.630	0.0134509
936.708	0.0135477
936.786	0.0132105
936.864	0.0133627
936.943	0.0133373
937.021	0.0134380
937.099	0.0134419
937.177	0.0134389
937.255	0.0134682
937.333	0.0135083
937.411	0.0133353
937.489	0.0133877
937.568	0.0135450
937.646	0.0135357
937.724	0.0135056
937.802	0.0135195
937.880	0.0136100
937.958	0.0137143
938.036	0.0136650
938.114	0.0137462
938.193	0.0136694
938.271	0.0137077
938.349	0.0136095
938.427	0.0136321
938.505	0.0136327
938.583	0.0136142
938.661	0.0135616
938.739	0.0134184
938.818	0.0134068
938.896	0.0135374
938.974	0.0133283
939.052	0.0134359
939.130	0.0133540
939.208	0.0134056
939.286	0.0133248
939.364	0.0133157
939.443	0.0134664
939.521	0.0132623
939.599	0.0135767
939.677	0.0134026
939.755	0.0134793
939.833	0.0134362
939.911	0.0134874
939.989	0.0135320
940.068	0.0135142
940.146	0.0135323
940.224	0.0134552
940.302	0.0135878
940.380	0.0134353
940.458	0.0134699
940.536	0.0134792
940.614	0.0134418
940.693	0.0134708
940.771	0.0133959
940.849	0.0133221
940.927	0.0133696
941.005	0.0133796
941.083	0.0131874
941.161	0.0132698
941.239	0.0132713
941.318	0.0132855
941.396	0.0132069
941.474	0.0132195
941.552	0.0132568
941.630	0.0133558
941.708	0.0134009
941.786	0.0133916
941.864	0.0133215
941.943	0.0135114
942.021	0.0135353
942.099	0.0134843
942.177	0.0136716
942.255	0.0135065
942.333	0.0135835
942.411	0.0136825
942.489	0.0135825
942.568	0.0135925
942.646	0.0135864
942.724	0.0136523
942.802	0.0137048
942.880	0.0136037
942.958	0.0136000
943.036	0.0135633
943.114	0.0135989
943.193	0.0135011
943.271	0.0135407
943.349	0.0135786
943.427	0.0134797
943.505	0.0134273
943.583	0.0134191
943.661	0.0135302
943.739	0.0135233
943.818	0.0134547
943.896	0.0134312
943.974	0.0133711
944.052	0.0136333
944.130	0.0134309
944.208	0.0134542
944.286	0.0134482
944.364	0.0135405
944.443	0.0136390
944.521	0.0134479
944.599	0.0133743
944.677	0.0133677
944.755	0.0132846
944.833	0.0134607
944.911	0.0134937
944.989	0.0134309
945.068	0.0134167
945.146	0.0133949
945.224	0.0133804
945.302	0.0134452
945.380	0.0134497
945.458	0.0133791
945.536	0.0132848
945.614	0.0133272
945.693	0.0134912
945.771	0.0133585
945.849	0.0133458
945.927	0.0134434
946.005	0.0134684
946.083	0.0132801
946.161	0.0133421
946.239	0.0132637
946.318	0.0134728
946.396	0.0132599
946.474	0.0133343
946.552	0.0134898
946.630	0.0135751
946.708	0.0133888
946.786	0.0133823
946.864	0.0134952
946.943	0.0133437
947.021	0.0134594
947.099	0.0134168
947.177	0.0135033
947.255	0.0135083
947.333	0.0135773
947.411	0.0135320
947.489	0.0135942
947.568	0.0133851
947.646	0.0134777
947.724	0.0133664
947.802	0.0133763
947.880	0.0135167
947.958	0.0135043
948.036	0.0135683
948.114	0.0134925
948.193	0.0135011
948.271	0.0135500
948.349	0.0135764
948.427	0.0135355
948.505	0.0134890
948.583	0.0134679
948.661	0.0135853
948.739	0.0135078
948.818	0.0134729
948.896	0.0135036
948.974	0.0134679
949.052	0.0133975
949.130	0.0134251
949.208	0.0134483
949.286	0.0134045
949.364	0.0133466
949.443	0.0133975
949.521	0.0136293
949.599	0.0134801
949.677	0.0134257
949.755	0.0135410
949.833	0.0133076
949.911	0.0132651
949.989	0.0133874
950.068	0.0132343
950.146	0.0134219
950.224	0.0134270
950.302	0.0134222
950.380	0.0132826
950.458	0.0133105
950.536	0.0134239
950.614	0.0134473
950.693	0.0134602
950.771	0.0134110
950.849	0.0133981
950.927	0.0134319
951.005	0.0134424
951.083	0.0136652
951.161	0.0134677
951.239	0.0134826
951.318	0.0136939
951.396	0.0135775
951.474	0.0134608
951.552	0.0134526
951.630	0.0135478
951.708	0.0134738
951.786	0.0133732
951.864	0.0135484
951.943	0.0133604
952.021	0.0134081
952.099	0.0135811
952.177	0.0134412
952.255	0.0134403
952.333	0.0134043
952.411	0.0133529
952.489	0.0134668
952.568	0.0135014
952.646	0.0135373
952.724	0.0133830
952.802	0.0134844
952.880	0.0135506
952.958	0.0134460
953.036	0.0134883
953.114	0.0134990
953.193	0.0133907
953.271	0.0133069
953.349	0.0134047
953.427	0.0133093
953.505	0.0135081
953.583	0.0135348
953.661	0.0134646
953.739	0.0135817
953.818	0.0134250
953.896	0.0134016
953.974	0.0134422
954.052	0.0132922
954.130	0.0133887
954.208	0.0134592
954.286	0.0134425
954.364	0.0133659
954.443	0.0132504
954.521	0.0133488
954.599	0.0133905
954.677	0.0134095
954.755	0.0134496
954.833	0.0134370
954.911	0.0132993
954.989	0.0134443
955.068	0.0135136
955.146	0.0134634
955.224	0.0134959
955.302	0.0133354
955.380	0.0134130
955.458	0.0135085
955.536	0.0135477
955.614	0.0134886
955.693	0.0135337
955.771	0.0133836
955.849	0.0134895
955.927	0.0135802
956.005	0.0135315
956.083	0.0134740
956.161	0.0134982
956.239	0.0134682
956.318	0.0135010
956.396	0.0133834
956.474	0.0134823
956.552	0.0135756
956.630	0.0134143
956.708	0.0134826
956.786	0.0135860
956.864	0.0135429
956.943	0.0134750
957.021	0.0135005
957.099	0.0135622
957.177	0.0135972
957.255	0.0135741
957.333	0.0134608
957.411	0.0133424
957.489	0.0134690
957.568	0.0134820
957.646	0.0133955
957.724	0.0134044
957.802	0.0133881
957.880	0.0135403
957.958	0.0134647
958.036	0.0133858
958.114	0.0135357
958.193	0.0134321
958.271	0.0134341
958.349	0.0134085
958.427	0.0134608
958.505	0.0134273
958.583	0.0135123
958.661	0.0135114
958.739	0.0134114
958.818	0.0133179
958.896	0.0134865
958.974	0.0135117
959.052	0.0134251
959.130	0.0133820
959.208	0.0134224
959.286	0.0133372
959.364	0.0134663
959.443	0.0135509
959.521	0.0135075
959.599	0.0135316
959.677	0.0134435
959.755	0.0135720
959.833	0.0134795
959.911	0.0135881
