05/14/2022	16:43:22	Ver.	4.1	UNKNOWN
Optical Delay	639.989416	Delta X		0.078125	Sweeps	1	Scan Rate	0/0
Coordinates	Axis 1	NaN	Axis 2	NaN	Axis 3	NaN	Axis 4	NaN	Axis 5	NaN	Axis 6	0.000000
TX Power	0.000000	RX Power	0.000000

639.989	0.0136923
640.068	0.0136411
640.146	0.0137616
640.224	0.0137395
640.302	0.0136985
640.380	0.0136602
640.458	0.0138202
640.536	0.0136782
640.614	0.0136708
640.693	0.0137074
640.771	0.0137852
640.849	0.0137427
640.927	0.0138653
641.005	0.0137431
641.083	0.0136450
641.161	0.0137639
641.239	0.0136908
641.318	0.0137708
641.396	0.0137484
641.474	0.0137424
641.552	0.0136030
641.630	0.0137197
641.708	0.0137117
641.786	0.0136014
641.864	0.0137567
641.943	0.0136897
642.021	0.0136876
642.099	0.0136946
642.177	0.0136926
642.255	0.0135770
642.333	0.0134431
642.411	0.0136356
642.489	0.0136855
642.568	0.0136894
642.646	0.0135329
642.724	0.0136063
642.802	0.0136641
642.880	0.0137069
642.958	0.0136041
643.036	0.0136314
643.114	0.0137164
643.193	0.0135002
643.271	0.0135867
643.349	0.0135913
643.427	0.0136570
643.505	0.0136437
643.583	0.0135893
643.661	0.0138056
643.739	0.0137291
643.818	0.0138054
643.896	0.0135998
643.974	0.0137698
644.052	0.0138093
644.130	0.0136923
644.208	0.0138235
644.286	0.0137183
644.364	0.0138252
644.443	0.0137969
644.521	0.0136165
644.599	0.0137116
644.677	0.0137086
644.755	0.0138263
644.833	0.0138436
644.911	0.0137637
644.989	0.0135789
645.068	0.0137338
645.146	0.0138088
645.224	0.0136752
645.302	0.0138642
645.380	0.0135864
645.458	0.0137303
645.536	0.0138706
645.614	0.0136913
645.693	0.0136917
645.771	0.0137194
645.849	0.0137289
645.927	0.0138010
646.005	0.0136920
646.083	0.0136781
646.161	0.0136708
646.239	0.0136593
646.318	0.0136572
646.396	0.0136545
646.474	0.0136240
646.552	0.0137070
646.630	0.0136574
646.708	0.0136686
646.786	0.0135593
646.864	0.0135589
646.943	0.0137432
647.021	0.0137335
647.099	0.0136176
647.177	0.0137315
647.255	0.0137114
647.333	0.0137815
647.411	0.0137235
647.489	0.0136083
647.568	0.0136987
647.646	0.0136226
647.724	0.0136355
647.802	0.0136428
647.880	0.0135683
647.958	0.0136649
648.036	0.0136875
648.114	0.0138244
648.193	0.0136184
648.271	0.0136514
648.349	0.0136739
648.427	0.0136024
648.505	0.0136388
648.583	0.0136719
648.661	0.0136237
648.739	0.0137721
648.818	0.0136695
648.896	0.0136282
648.974	0.0136993
649.052	0.0138129
649.130	0.0136951
649.208	0.0137043
649.286	0.0136900
649.364	0.0137155
649.443	0.0136471
649.521	0.0135738
649.599	0.0136320
649.677	0.0137412
649.755	0.0136919
649.833	0.0137436
649.911	0.0136269
649.989	0.0137320
650.068	0.0136736
650.146	0.0137946
650.224	0.0135693
650.302	0.0135683
650.380	0.0136517
650.458	0.0137567
650.536	0.0137440
650.614	0.0137675
650.693	0.0138329
650.771	0.0137916
650.849	0.0136885
650.927	0.0137924
651.005	0.0137289
651.083	0.0137737
651.161	0.0138315
651.239	0.0137215
651.318	0.0138386
651.396	0.0137885
651.474	0.0138367
651.552	0.0137212
651.630	0.0137895
651.708	0.0139015
651.786	0.0138206
651.864	0.0137727
651.943	0.0138902
652.021	0.0137796
652.099	0.0136166
652.177	0.0139057
652.255	0.0137572
652.333	0.0138885
652.411	0.0136520
652.489	0.0136218
652.568	0.0138950
652.646	0.0139780
652.724	0.0136547
652.802	0.0136923
652.880	0.0137413
652.958	0.0138117
653.036	0.0136325
653.114	0.0137524
653.193	0.0138171
653.271	0.0138004
653.349	0.0137302
653.427	0.0137758
653.505	0.0138042
653.583	0.0138233
653.661	0.0137765
653.739	0.0136443
653.818	0.0136835
653.896	0.0138910
653.974	0.0137629
654.052	0.0137595
654.130	0.0137277
654.208	0.0138427
654.286	0.0137294
654.364	0.0137476
654.443	0.0137468
654.521	0.0137206
654.599	0.0137038
654.677	0.0138645
654.755	0.0138217
654.833	0.0136686
654.911	0.0136625
654.989	0.0136450
655.068	0.0137863
655.146	0.0137063
655.224	0.0137965
655.302	0.0137334
655.380	0.0137389
655.458	0.0138023
655.536	0.0137622
655.614	0.0136744
655.693	0.0137408
655.771	0.0137579
655.849	0.0136742
655.927	0.0136658
656.005	0.0137040
656.083	0.0137185
656.161	0.0137290
656.239	0.0136516
656.318	0.0136725
656.396	0.0138183
656.474	0.0137868
656.552	0.0138175
656.630	0.0137666
656.708	0.0136629
656.786	0.0136134
656.864	0.0136120
656.943	0.0136472
657.021	0.0137546
657.099	0.0136552
657.177	0.0136783
657.255	0.0137909
657.333	0.0137109
657.411	0.0136031
657.489	0.0137113
657.568	0.0136714
657.646	0.0137109
657.724	0.0137521
657.802	0.0136764
657.880	0.0136173
657.958	0.0137577
658.036	0.0136730
658.114	0.0135752
658.193	0.0136822
658.271	0.0135296
658.349	0.0135899
658.427	0.0135279
658.505	0.0135297
658.583	0.0136201
658.661	0.0136510
658.739	0.0136774
658.818	0.0136932
658.896	0.0135692
658.974	0.0134977
659.052	0.0136382
659.130	0.0137317
659.208	0.0135840
659.286	0.0136890
659.364	0.0136428
659.443	0.0136261
659.521	0.0135180
659.599	0.0134135
659.677	0.0135918
659.755	0.0135825
659.833	0.0136103
659.911	0.0134320
659.989	0.0135812
660.068	0.0136066
660.146	0.0137289
660.224	0.0135909
660.302	0.0135390
660.380	0.0136439
660.458	0.0135191
660.536	0.0135255
660.614	0.0135530
660.693	0.0136170
660.771	0.0135747
660.849	0.0135619
660.927	0.0136246
661.005	0.0136558
661.083	0.0136225
661.161	0.0135422
661.239	0.0137563
661.318	0.0136373
661.396	0.0134825
661.474	0.0136130
661.552	0.0135742
661.630	0.0136689
661.708	0.0136624
661.786	0.0136588
661.864	0.0136131
661.943	0.0137157
662.021	0.0136672
662.099	0.0136765
662.177	0.0135863
662.255	0.0136631
662.333	0.0135653
662.411	0.0137170
662.489	0.0137325
662.568	0.0135883
662.646	0.0135569
662.724	0.0136323
662.802	0.0136492
662.880	0.0136653
662.958	0.0135794
663.036	0.0136042
663.114	0.0135728
663.193	0.0135313
663.271	0.0135973
663.349	0.0136390
663.427	0.0135627
663.505	0.0137245
663.583	0.0136354
663.661	0.0135208
663.739	0.0135371
663.818	0.0136373
663.896	0.0136558
663.974	0.0137041
664.052	0.0136486
664.130	0.0136127
664.208	0.0134940
664.286	0.0136288
664.364	0.0136651
664.443	0.0137247
664.521	0.0136609
664.599	0.0136224
664.677	0.0136242
664.755	0.0135395
664.833	0.0134312
664.911	0.0136300
664.989	0.0135954
665.068	0.0134718
665.146	0.0136913
665.224	0.0136584
665.302	0.0136880
665.380	0.0135886
665.458	0.0136327
665.536	0.0137518
665.614	0.0136570
665.693	0.0136596
665.771	0.0134985
665.849	0.0136523
665.927	0.0136044
666.005	0.0136040
666.083	0.0136893
666.161	0.0135699
666.239	0.0134062
666.318	0.0135501
666.396	0.0134949
666.474	0.0134705
666.552	0.0134151
666.630	0.0134300
666.708	0.0135105
666.786	0.0133937
666.864	0.0134476
666.943	0.0133868
667.021	0.0134663
667.099	0.0135814
667.177	0.0134515
667.255	0.0133977
667.333	0.0135396
667.411	0.0134747
667.489	0.0136633
667.568	0.0135941
667.646	0.0136435
667.724	0.0136889
667.802	0.0137460
667.880	0.0137120
667.958	0.0138409
668.036	0.0139812
668.114	0.0136317
668.193	0.0137844
668.271	0.0135777
668.349	0.0136098
668.427	0.0137154
668.505	0.0135952
668.583	0.0133659
668.661	0.0135642
668.739	0.0135639
668.818	0.0135567
668.896	0.0134793
668.974	0.0134594
669.052	0.0133842
669.130	0.0134431
669.208	0.0133884
669.286	0.0133262
669.364	0.0133515
669.443	0.0134513
669.521	0.0135614
669.599	0.0135041
669.677	0.0135187
669.755	0.0137137
669.833	0.0137434
669.911	0.0137162
669.989	0.0138101
670.068	0.0139742
670.146	0.0138627
670.224	0.0139296
670.302	0.0140505
670.380	0.0137727
670.458	0.0138197
670.536	0.0138804
670.614	0.0138403
670.693	0.0138165
670.771	0.0136697
670.849	0.0136773
670.927	0.0136067
671.005	0.0133403
671.083	0.0134438
671.161	0.0134478
671.239	0.0132140
671.318	0.0131922
671.396	0.0133027
671.474	0.0132042
671.552	0.0132455
671.630	0.0132380
671.708	0.0133158
671.786	0.0133731
671.864	0.0133492
671.943	0.0136655
672.021	0.0136624
672.099	0.0137135
672.177	0.0139300
672.255	0.0139899
672.333	0.0139684
672.411	0.0141117
672.489	0.0142601
672.568	0.0142434
672.646	0.0143249
672.724	0.0142053
672.802	0.0143434
672.880	0.0143166
672.958	0.0142506
673.036	0.0141616
673.114	0.0140906
673.193	0.0139233
673.271	0.0138042
673.349	0.0135739
673.427	0.0134094
673.505	0.0133539
673.583	0.0134105
673.661	0.0130170
673.739	0.0129016
673.818	0.0129541
673.896	0.0128524
673.974	0.0127718
674.052	0.0127187
674.130	0.0125648
674.208	0.0126651
674.286	0.0127161
674.364	0.0129021
674.443	0.0128056
674.521	0.0130891
674.599	0.0131874
674.677	0.0135361
674.755	0.0135834
674.833	0.0137184
674.911	0.0139986
674.989	0.0140945
675.068	0.0144235
675.146	0.0144901
675.224	0.0146656
675.302	0.0148446
675.380	0.0148814
675.458	0.0149364
675.536	0.0150710
675.614	0.0151780
675.693	0.0152200
675.771	0.0149473
675.849	0.0150931
675.927	0.0150404
676.005	0.0146844
676.083	0.0147041
676.161	0.0146252
676.239	0.0143081
676.318	0.0141560
676.396	0.0139993
676.474	0.0137901
676.552	0.0134654
676.630	0.0132278
676.708	0.0128554
676.786	0.0126995
676.864	0.0124660
676.943	0.0122717
677.021	0.0122516
677.099	0.0120882
677.177	0.0119884
677.255	0.0120435
677.333	0.0121252
677.411	0.0121535
677.489	0.0120736
677.568	0.0120912
677.646	0.0122264
677.724	0.0123897
677.802	0.0124638
677.880	0.0128250
677.958	0.0129166
678.036	0.0131687
678.114	0.0133374
678.193	0.0135686
678.271	0.0137209
678.349	0.0136919
678.427	0.0139880
678.505	0.0140174
678.583	0.0143483
678.661	0.0143620
678.739	0.0144339
678.818	0.0147240
678.896	0.0147739
678.974	0.0149036
679.052	0.0148145
679.130	0.0149312
679.208	0.0150633
679.286	0.0150961
679.364	0.0150367
679.443	0.0150578
679.521	0.0151066
679.599	0.0151396
679.677	0.0150655
679.755	0.0150858
679.833	0.0150156
679.911	0.0149717
679.989	0.0148325
680.068	0.0147735
680.146	0.0145898
680.224	0.0146037
680.302	0.0144337
680.380	0.0142076
680.458	0.0139819
680.536	0.0137521
680.614	0.0133821
680.693	0.0131268
680.771	0.0128245
680.849	0.0126077
680.927	0.0123925
681.005	0.0120062
681.083	0.0116878
681.161	0.0115926
681.239	0.0112418
681.318	0.0111478
681.396	0.0111272
681.474	0.0111065
681.552	0.0110472
681.630	0.0111667
681.708	0.0111807
681.786	0.0112948
681.864	0.0115457
681.943	0.0116458
682.021	0.0118886
682.099	0.0121470
682.177	0.0126539
682.255	0.0127889
682.333	0.0129254
682.411	0.0132587
682.489	0.0137072
682.568	0.0140839
682.646	0.0143093
682.724	0.0147284
682.802	0.0150910
682.880	0.0154893
682.958	0.0158087
683.036	0.0159467
683.114	0.0162888
683.193	0.0165435
683.271	0.0166435
683.349	0.0169215
683.427	0.0169057
683.505	0.0169241
683.583	0.0169327
683.661	0.0168523
683.739	0.0167475
683.818	0.0164390
683.896	0.0162792
683.974	0.0159148
684.052	0.0154398
684.130	0.0152505
684.208	0.0149824
684.286	0.0144733
684.364	0.0140892
684.443	0.0137817
684.521	0.0133618
684.599	0.0127820
684.677	0.0126073
684.755	0.0121790
684.833	0.0119253
684.911	0.0116533
684.989	0.0114091
685.068	0.0111340
685.146	0.0109362
685.224	0.0107188
685.302	0.0106853
685.380	0.0106007
685.458	0.0105983
685.536	0.0108231
685.614	0.0107323
685.693	0.0108408
685.771	0.0110669
685.849	0.0112417
685.927	0.0114291
686.005	0.0117906
686.083	0.0119393
686.161	0.0123128
686.239	0.0126749
686.318	0.0128222
686.396	0.0132922
686.474	0.0135427
686.552	0.0137618
686.630	0.0139990
686.708	0.0144644
686.786	0.0145092
686.864	0.0146801
686.943	0.0149071
687.021	0.0149287
687.099	0.0151817
687.177	0.0152671
687.255	0.0153191
687.333	0.0154155
687.411	0.0154620
687.489	0.0154810
687.568	0.0154963
687.646	0.0153370
687.724	0.0154054
687.802	0.0153753
687.880	0.0154128
687.958	0.0153192
688.036	0.0151427
688.114	0.0151286
688.193	0.0151237
688.271	0.0148952
688.349	0.0148556
688.427	0.0148021
688.505	0.0146860
688.583	0.0145882
688.661	0.0142822
688.739	0.0142076
688.818	0.0142104
688.896	0.0139988
688.974	0.0137491
689.052	0.0135629
689.130	0.0133763
689.208	0.0132916
689.286	0.0131796
689.364	0.0130370
689.443	0.0128402
689.521	0.0127132
689.599	0.0126435
689.677	0.0124662
689.755	0.0123895
689.833	0.0122812
689.911	0.0122416
689.989	0.0118963
690.068	0.0118857
690.146	0.0119691
690.224	0.0119036
690.302	0.0117181
690.380	0.0117831
690.458	0.0118803
690.536	0.0119276
690.614	0.0119522
690.693	0.0120184
690.771	0.0121893
690.849	0.0123260
690.927	0.0123151
691.005	0.0125668
691.083	0.0125250
691.161	0.0126868
691.239	0.0127893
691.318	0.0130183
691.396	0.0131659
691.474	0.0131776
691.552	0.0134596
691.630	0.0134849
691.708	0.0137350
691.786	0.0137843
691.864	0.0139098
691.943	0.0141206
692.021	0.0142643
692.099	0.0143851
692.177	0.0143413
692.255	0.0145069
692.333	0.0147600
692.411	0.0148418
692.489	0.0151098
692.568	0.0150027
692.646	0.0151280
692.724	0.0152576
692.802	0.0154281
692.880	0.0155554
692.958	0.0154424
693.036	0.0155236
693.114	0.0154218
693.193	0.0155502
693.271	0.0154525
693.349	0.0155162
693.427	0.0153425
693.505	0.0152165
693.583	0.0153664
693.661	0.0150697
693.739	0.0150639
693.818	0.0147942
693.896	0.0147398
693.974	0.0145531
694.052	0.0143626
694.130	0.0140891
694.208	0.0139048
694.286	0.0135148
694.364	0.0134560
694.443	0.0132395
694.521	0.0130373
694.599	0.0127336
694.677	0.0124480
694.755	0.0122920
694.833	0.0122133
694.911	0.0120693
694.989	0.0119821
695.068	0.0118583
695.146	0.0117531
695.224	0.0116605
695.302	0.0117406
695.380	0.0118309
695.458	0.0116783
695.536	0.0117467
695.614	0.0117747
695.693	0.0118477
695.771	0.0118186
695.849	0.0118369
695.927	0.0121170
696.005	0.0121028
696.083	0.0121854
696.161	0.0124383
696.239	0.0124225
696.318	0.0125800
696.396	0.0128758
696.474	0.0129547
696.552	0.0131509
696.630	0.0133517
696.708	0.0136690
696.786	0.0138396
696.864	0.0139529
696.943	0.0142770
697.021	0.0143729
697.099	0.0144033
697.177	0.0146915
697.255	0.0148232
697.333	0.0149738
697.411	0.0148550
697.489	0.0150471
697.568	0.0150684
697.646	0.0151530
697.724	0.0151714
697.802	0.0150879
697.880	0.0150894
697.958	0.0150621
698.036	0.0150177
698.114	0.0150737
698.193	0.0150248
698.271	0.0150666
698.349	0.0150140
698.427	0.0150405
698.505	0.0149350
698.583	0.0148826
698.661	0.0149866
698.739	0.0148944
698.818	0.0148988
698.896	0.0148692
698.974	0.0146947
699.052	0.0146391
699.130	0.0145737
699.208	0.0143867
699.286	0.0143397
699.364	0.0142005
699.443	0.0140756
699.521	0.0138911
699.599	0.0138290
699.677	0.0135674
699.755	0.0133932
699.833	0.0131620
699.911	0.0129863
699.989	0.0128634
700.068	0.0128127
700.146	0.0126445
700.224	0.0126737
700.302	0.0126183
700.380	0.0124420
700.458	0.0124311
700.536	0.0125289
700.614	0.0121539
700.693	0.0122806
700.771	0.0122345
700.849	0.0122180
700.927	0.0122558
701.005	0.0121516
701.083	0.0119984
701.161	0.0120942
701.239	0.0121028
701.318	0.0120343
701.396	0.0121794
701.474	0.0120056
701.552	0.0120910
701.630	0.0121034
701.708	0.0119326
701.786	0.0119842
701.864	0.0119540
701.943	0.0120996
702.021	0.0123380
702.099	0.0124992
702.177	0.0125451
702.255	0.0130553
702.333	0.0132290
702.411	0.0135270
702.489	0.0137222
702.568	0.0141398
702.646	0.0145850
702.724	0.0148011
702.802	0.0151218
702.880	0.0154008
702.958	0.0158114
703.036	0.0159386
703.114	0.0160837
703.193	0.0162115
703.271	0.0163611
703.349	0.0164327
703.427	0.0163363
703.505	0.0164982
703.583	0.0163502
703.661	0.0162321
703.739	0.0160915
703.818	0.0160186
703.896	0.0158685
703.974	0.0155346
704.052	0.0152105
704.130	0.0150629
704.208	0.0146933
704.286	0.0142929
704.364	0.0139865
704.443	0.0137438
704.521	0.0135016
704.599	0.0132087
704.677	0.0129610
704.755	0.0127724
704.833	0.0125997
704.911	0.0123742
704.989	0.0122040
705.068	0.0120967
705.146	0.0120337
705.224	0.0120081
705.302	0.0119533
705.380	0.0120427
705.458	0.0118707
705.536	0.0118970
705.614	0.0119530
705.693	0.0121120
705.771	0.0120800
705.849	0.0124206
705.927	0.0125925
706.005	0.0128912
706.083	0.0128930
706.161	0.0131232
706.239	0.0133808
706.318	0.0137407
706.396	0.0139811
706.474	0.0140224
706.552	0.0142218
706.630	0.0143382
706.708	0.0144946
706.786	0.0145226
706.864	0.0143945
706.943	0.0143692
707.021	0.0142560
707.099	0.0140079
707.177	0.0139249
707.255	0.0136122
707.333	0.0136703
707.411	0.0132980
707.489	0.0131233
707.568	0.0131233
707.646	0.0128840
707.724	0.0128407
707.802	0.0125881
707.880	0.0127454
707.958	0.0125563
708.036	0.0125050
708.114	0.0125621
708.193	0.0126324
708.271	0.0127770
708.349	0.0128783
708.427	0.0129734
708.505	0.0130647
708.583	0.0131897
708.661	0.0132121
708.739	0.0133575
708.818	0.0136546
708.896	0.0136874
708.974	0.0139939
709.052	0.0141118
709.130	0.0142542
709.208	0.0142055
709.286	0.0145587
709.364	0.0148028
709.443	0.0149165
709.521	0.0150020
709.599	0.0150813
709.677	0.0152148
709.755	0.0153685
709.833	0.0154913
709.911	0.0156696
709.989	0.0155599
710.068	0.0157758
710.146	0.0157462
710.224	0.0157764
710.302	0.0159359
710.380	0.0157240
710.458	0.0157219
710.536	0.0157603
710.614	0.0155920
710.693	0.0153699
710.771	0.0152442
710.849	0.0151102
710.927	0.0148682
711.005	0.0146729
711.083	0.0143673
711.161	0.0140990
711.239	0.0139775
711.318	0.0136832
711.396	0.0133106
711.474	0.0130357
711.552	0.0128050
711.630	0.0124043
711.708	0.0121748
711.786	0.0121386
711.864	0.0118193
711.943	0.0116412
712.021	0.0116022
712.099	0.0116010
712.177	0.0115592
712.255	0.0115936
712.333	0.0115173
712.411	0.0114808
712.489	0.0115831
712.568	0.0116635
712.646	0.0115948
712.724	0.0117625
712.802	0.0118340
712.880	0.0118598
712.958	0.0119335
713.036	0.0119742
713.114	0.0122323
713.193	0.0123911
713.271	0.0124045
713.349	0.0126720
713.427	0.0127959
713.505	0.0130992
713.583	0.0132552
713.661	0.0133858
713.739	0.0136359
713.818	0.0139967
713.896	0.0142924
713.974	0.0143938
714.052	0.0146851
714.130	0.0149682
714.208	0.0150780
714.286	0.0151619
714.364	0.0154359
714.443	0.0154506
714.521	0.0155595
714.599	0.0155083
714.677	0.0154913
714.755	0.0156472
714.833	0.0155157
714.911	0.0154910
714.989	0.0153118
715.068	0.0152234
715.146	0.0152277
715.224	0.0149414
715.302	0.0148045
715.380	0.0149763
715.458	0.0148076
715.536	0.0148184
715.614	0.0147093
715.693	0.0145168
715.771	0.0144743
715.849	0.0142661
715.927	0.0142681
716.005	0.0143107
716.083	0.0141370
716.161	0.0140948
716.239	0.0138549
716.318	0.0139090
716.396	0.0138152
716.474	0.0134772
716.552	0.0135719
716.630	0.0135976
716.708	0.0134662
716.786	0.0132526
716.864	0.0133059
716.943	0.0132365
717.021	0.0131474
717.099	0.0130447
717.177	0.0130312
717.255	0.0131349
717.333	0.0130809
717.411	0.0129485
717.489	0.0129859
717.568	0.0129382
717.646	0.0129227
717.724	0.0131319
717.802	0.0130657
717.880	0.0129511
717.958	0.0128949
718.036	0.0129053
718.114	0.0127895
718.193	0.0127273
718.271	0.0127936
718.349	0.0126061
718.427	0.0124414
718.505	0.0124847
718.583	0.0122666
718.661	0.0122890
718.739	0.0122170
718.818	0.0121516
718.896	0.0120008
718.974	0.0120734
719.052	0.0120391
719.130	0.0121869
719.208	0.0122361
719.286	0.0123250
719.364	0.0125975
719.443	0.0127672
719.521	0.0128423
719.599	0.0129212
719.677	0.0131726
719.755	0.0132208
719.833	0.0135332
719.911	0.0136208
719.989	0.0138541
720.068	0.0140190
720.146	0.0141058
720.224	0.0143553
720.302	0.0144334
720.380	0.0146483
720.458	0.0147614
720.536	0.0149956
720.614	0.0150812
720.693	0.0151463
720.771	0.0152421
720.849	0.0154198
720.927	0.0154119
721.005	0.0155193
721.083	0.0155664
721.161	0.0155123
721.239	0.0156313
721.318	0.0156322
721.396	0.0155909
721.474	0.0155655
721.552	0.0155714
721.630	0.0155933
721.708	0.0153973
721.786	0.0152120
721.864	0.0151094
721.943	0.0149943
722.021	0.0149086
722.099	0.0146899
722.177	0.0145652
722.255	0.0144317
722.333	0.0141409
722.411	0.0140356
722.489	0.0138765
722.568	0.0137022
722.646	0.0134762
722.724	0.0133849
722.802	0.0132769
722.880	0.0131522
722.958	0.0130761
723.036	0.0129930
723.114	0.0128336
723.193	0.0126940
723.271	0.0125924
723.349	0.0125385
723.427	0.0124392
723.505	0.0122526
723.583	0.0120950
723.661	0.0120382
723.739	0.0118463
723.818	0.0115897
723.896	0.0116058
723.974	0.0113843
724.052	0.0114769
724.130	0.0114284
724.208	0.0114720
724.286	0.0114919
724.364	0.0115877
724.443	0.0117033
724.521	0.0117603
724.599	0.0119455
724.677	0.0121453
724.755	0.0122213
724.833	0.0123532
724.911	0.0126647
724.989	0.0128979
725.068	0.0131667
725.146	0.0133772
725.224	0.0135429
725.302	0.0137323
725.380	0.0139989
725.458	0.0143791
725.536	0.0144671
725.614	0.0146870
725.693	0.0147627
725.771	0.0149543
725.849	0.0150755
725.927	0.0152222
726.005	0.0152536
726.083	0.0152763
726.161	0.0156140
726.239	0.0156041
726.318	0.0156196
726.396	0.0157136
726.474	0.0156457
726.552	0.0156361
726.630	0.0157253
726.708	0.0155605
726.786	0.0155151
726.864	0.0154858
726.943	0.0153750
727.021	0.0153973
727.099	0.0153694
727.177	0.0151708
727.255	0.0149932
727.333	0.0148961
727.411	0.0146470
727.489	0.0145100
727.568	0.0144048
727.646	0.0142828
727.724	0.0142288
727.802	0.0141615
727.880	0.0140482
727.958	0.0138245
728.036	0.0136457
728.114	0.0137468
728.193	0.0136189
728.271	0.0133786
728.349	0.0132156
728.427	0.0131483
728.505	0.0129191
728.583	0.0126405
728.661	0.0126642
728.739	0.0125636
728.818	0.0124594
728.896	0.0121702
728.974	0.0120864
729.052	0.0120006
729.130	0.0119426
729.208	0.0118668
729.286	0.0117706
729.364	0.0115037
729.443	0.0116599
729.521	0.0118530
729.599	0.0116724
729.677	0.0117913
729.755	0.0117781
729.833	0.0117060
729.911	0.0119011
729.989	0.0121371
730.068	0.0124144
730.146	0.0126107
730.224	0.0127668
730.302	0.0128251
730.380	0.0131789
730.458	0.0134960
730.536	0.0136654
730.614	0.0139031
730.693	0.0139922
730.771	0.0142807
730.849	0.0145936
730.927	0.0146399
731.005	0.0147940
731.083	0.0149542
731.161	0.0150446
731.239	0.0150728
731.318	0.0150988
731.396	0.0151527
731.474	0.0152184
731.552	0.0151639
731.630	0.0151642
731.708	0.0152508
731.786	0.0150635
731.864	0.0150715
731.943	0.0149715
732.021	0.0147948
732.099	0.0147216
732.177	0.0146352
732.255	0.0146370
732.333	0.0145325
732.411	0.0144306
732.489	0.0144408
732.568	0.0142823
732.646	0.0139525
732.724	0.0140124
732.802	0.0139624
732.880	0.0140406
732.958	0.0140227
733.036	0.0141252
733.114	0.0138772
733.193	0.0139272
733.271	0.0139590
733.349	0.0139149
733.427	0.0139397
733.505	0.0138555
733.583	0.0137940
733.661	0.0136671
733.739	0.0138315
733.818	0.0135067
733.896	0.0133230
733.974	0.0134105
734.052	0.0133424
734.130	0.0132713
734.208	0.0133589
734.286	0.0130771
734.364	0.0131570
734.443	0.0130392
734.521	0.0130470
734.599	0.0129849
734.677	0.0129474
734.755	0.0128194
734.833	0.0128365
734.911	0.0127192
734.989	0.0127469
735.068	0.0127673
735.146	0.0126980
735.224	0.0126522
735.302	0.0126630
735.380	0.0126967
735.458	0.0127528
735.536	0.0126891
735.614	0.0127666
735.693	0.0127909
735.771	0.0129089
735.849	0.0130482
735.927	0.0129423
736.005	0.0130164
736.083	0.0131303
736.161	0.0133031
736.239	0.0133212
736.318	0.0134211
736.396	0.0137521
736.474	0.0137184
736.552	0.0139977
736.630	0.0140981
736.708	0.0140271
736.786	0.0142769
736.864	0.0142996
736.943	0.0142828
737.021	0.0144823
737.099	0.0144215
737.177	0.0145447
737.255	0.0142737
737.333	0.0142371
737.411	0.0143684
737.489	0.0143266
737.568	0.0140575
737.646	0.0141888
737.724	0.0142435
737.802	0.0140334
737.880	0.0142109
737.958	0.0141128
738.036	0.0140801
738.114	0.0141524
738.193	0.0143270
738.271	0.0142021
738.349	0.0141781
738.427	0.0140540
738.505	0.0141708
738.583	0.0142126
738.661	0.0141714
738.739	0.0140330
738.818	0.0139749
738.896	0.0139989
738.974	0.0139516
739.052	0.0140865
739.130	0.0140589
739.208	0.0140108
739.286	0.0140026
739.364	0.0139880
739.443	0.0139035
739.521	0.0137737
739.599	0.0138618
739.677	0.0138996
739.755	0.0138889
739.833	0.0137772
739.911	0.0136232
739.989	0.0135688
740.068	0.0136221
740.146	0.0135150
740.224	0.0135237
740.302	0.0133435
740.380	0.0132915
740.458	0.0130224
740.536	0.0131269
740.614	0.0131135
740.693	0.0128884
740.771	0.0129581
740.849	0.0128807
740.927	0.0130223
741.005	0.0130682
741.083	0.0129210
741.161	0.0130437
741.239	0.0130813
741.318	0.0130438
741.396	0.0131435
741.474	0.0132758
741.552	0.0132208
741.630	0.0132784
741.708	0.0134585
741.786	0.0135148
741.864	0.0135670
741.943	0.0137208
742.021	0.0135487
742.099	0.0137458
742.177	0.0137209
742.255	0.0137958
742.333	0.0139108
742.411	0.0138133
742.489	0.0138155
742.568	0.0137608
742.646	0.0138044
742.724	0.0138087
742.802	0.0138219
742.880	0.0138511
742.958	0.0137532
743.036	0.0136884
743.114	0.0136365
743.193	0.0137489
743.271	0.0137416
743.349	0.0136072
743.427	0.0138239
743.505	0.0136750
743.583	0.0138566
743.661	0.0139738
743.739	0.0138370
743.818	0.0138946
743.896	0.0138936
743.974	0.0138084
744.052	0.0138792
744.130	0.0140234
744.208	0.0139909
744.286	0.0140083
744.364	0.0141368
744.443	0.0140278
744.521	0.0140656
744.599	0.0141452
744.677	0.0140263
744.755	0.0139919
744.833	0.0141104
744.911	0.0141394
744.989	0.0139151
745.068	0.0140284
745.146	0.0139424
745.224	0.0139505
745.302	0.0138779
745.380	0.0138522
745.458	0.0139389
745.536	0.0139044
745.614	0.0137555
745.693	0.0137638
745.771	0.0138306
745.849	0.0137789
745.927	0.0136890
746.005	0.0136736
746.083	0.0135701
746.161	0.0134604
746.239	0.0133810
746.318	0.0134206
746.396	0.0132607
746.474	0.0130138
746.552	0.0129875
746.630	0.0130096
746.708	0.0129190
746.786	0.0129808
746.864	0.0129231
746.943	0.0128516
747.021	0.0128503
747.099	0.0128243
747.177	0.0127667
747.255	0.0128967
747.333	0.0130799
747.411	0.0131152
747.489	0.0130785
747.568	0.0131383
747.646	0.0132399
747.724	0.0134232
747.802	0.0134264
747.880	0.0135681
747.958	0.0136797
748.036	0.0137206
748.114	0.0137868
748.193	0.0140245
748.271	0.0139518
748.349	0.0140262
748.427	0.0140936
748.505	0.0140075
748.583	0.0140599
748.661	0.0141857
748.739	0.0139425
748.818	0.0138374
748.896	0.0138806
748.974	0.0139298
749.052	0.0138773
749.130	0.0138531
749.208	0.0138732
749.286	0.0137471
749.364	0.0137608
749.443	0.0138815
749.521	0.0138551
749.599	0.0137788
749.677	0.0137384
749.755	0.0136831
749.833	0.0137865
749.911	0.0139397
749.989	0.0139484
750.068	0.0137695
750.146	0.0139216
750.224	0.0138776
750.302	0.0139639
750.380	0.0138994
750.458	0.0138640
750.536	0.0140005
750.614	0.0139583
750.693	0.0139960
750.771	0.0139355
750.849	0.0138284
750.927	0.0141066
751.005	0.0139341
751.083	0.0138159
751.161	0.0138184
751.239	0.0136815
751.318	0.0136458
751.396	0.0137432
751.474	0.0136984
751.552	0.0136724
751.630	0.0136549
751.708	0.0136607
751.786	0.0136372
751.864	0.0137647
751.943	0.0136363
752.021	0.0137083
752.099	0.0137109
752.177	0.0138581
752.255	0.0137274
752.333	0.0138660
752.411	0.0139214
752.489	0.0137543
752.568	0.0137743
752.646	0.0138802
752.724	0.0137448
752.802	0.0136099
752.880	0.0137084
752.958	0.0137346
753.036	0.0137230
753.114	0.0135053
753.193	0.0134984
753.271	0.0134398
753.349	0.0133925
753.427	0.0134205
753.505	0.0133236
753.583	0.0132664
753.661	0.0133179
753.739	0.0131586
753.818	0.0133923
753.896	0.0134156
753.974	0.0134040
754.052	0.0135206
754.130	0.0136157
754.208	0.0136501
754.286	0.0138378
754.364	0.0138834
754.443	0.0137771
754.521	0.0138213
754.599	0.0137889
754.677	0.0138617
754.755	0.0139377
754.833	0.0140049
754.911	0.0139573
754.989	0.0138656
755.068	0.0138487
755.146	0.0138156
755.224	0.0138919
755.302	0.0138819
755.380	0.0138754
755.458	0.0137721
755.536	0.0138905
755.614	0.0139719
755.693	0.0139046
755.771	0.0139532
755.849	0.0139381
755.927	0.0140690
756.005	0.0139482
756.083	0.0139183
756.161	0.0139137
756.239	0.0139622
756.318	0.0138493
756.396	0.0137748
756.474	0.0138689
756.552	0.0139723
756.630	0.0137794
756.708	0.0138321
756.786	0.0137415
756.864	0.0136089
756.943	0.0135824
757.021	0.0135730
757.099	0.0135574
757.177	0.0135110
757.255	0.0133734
757.333	0.0135198
757.411	0.0134814
757.489	0.0133871
757.568	0.0135141
757.646	0.0135440
757.724	0.0133955
757.802	0.0135648
757.880	0.0134430
757.958	0.0134555
758.036	0.0136887
758.114	0.0136352
758.193	0.0137151
758.271	0.0137229
758.349	0.0138738
758.427	0.0137733
758.505	0.0138498
758.583	0.0137887
758.661	0.0139049
758.739	0.0138470
758.818	0.0139838
758.896	0.0137894
758.974	0.0138882
759.052	0.0137331
759.130	0.0137447
759.208	0.0137353
759.286	0.0137141
759.364	0.0136983
759.443	0.0137167
759.521	0.0135100
759.599	0.0134979
759.677	0.0134568
759.755	0.0133901
759.833	0.0132138
759.911	0.0134177
759.989	0.0132267
760.068	0.0131188
760.146	0.0132515
760.224	0.0132062
760.302	0.0131477
760.380	0.0131126
760.458	0.0132019
760.536	0.0132455
760.614	0.0133470
760.693	0.0133246
760.771	0.0132702
760.849	0.0133936
760.927	0.0135023
761.005	0.0134711
761.083	0.0134898
761.161	0.0135930
761.239	0.0136055
761.318	0.0134945
761.396	0.0136624
761.474	0.0136549
761.552	0.0137428
761.630	0.0137120
761.708	0.0136840
761.786	0.0136464
761.864	0.0136523
761.943	0.0138364
762.021	0.0138721
762.099	0.0138747
762.177	0.0137903
762.255	0.0139810
762.333	0.0139420
762.411	0.0138646
762.489	0.0138931
762.568	0.0141375
762.646	0.0138595
762.724	0.0139441
762.802	0.0139074
762.880	0.0138705
762.958	0.0138622
763.036	0.0140409
763.114	0.0139008
763.193	0.0137047
763.271	0.0137529
763.349	0.0138951
763.427	0.0137660
763.505	0.0136434
763.583	0.0135924
763.661	0.0137312
763.739	0.0136804
763.818	0.0137112
763.896	0.0135558
763.974	0.0134380
764.052	0.0136610
764.130	0.0134953
764.208	0.0134204
764.286	0.0134528
764.364	0.0134202
764.443	0.0133201
764.521	0.0132343
764.599	0.0133167
764.677	0.0132435
764.755	0.0131931
764.833	0.0132584
764.911	0.0132144
764.989	0.0131790
765.068	0.0132104
765.146	0.0132245
765.224	0.0130959
765.302	0.0133431
765.380	0.0133658
765.458	0.0132690
765.536	0.0133995
765.614	0.0135921
765.693	0.0135049
765.771	0.0135189
765.849	0.0135209
765.927	0.0135750
766.005	0.0136247
766.083	0.0136414
766.161	0.0135943
766.239	0.0136958
766.318	0.0137159
766.396	0.0136605
766.474	0.0137868
766.552	0.0138489
766.630	0.0136835
766.708	0.0137235
766.786	0.0136666
766.864	0.0137234
766.943	0.0137677
767.021	0.0138711
767.099	0.0135694
767.177	0.0137979
767.255	0.0137093
767.333	0.0135310
767.411	0.0136111
767.489	0.0136102
767.568	0.0135364
767.646	0.0136053
767.724	0.0135870
767.802	0.0134842
767.880	0.0136797
767.958	0.0133842
768.036	0.0135574
768.114	0.0134868
768.193	0.0135052
768.271	0.0135122
768.349	0.0136333
768.427	0.0135989
768.505	0.0135948
768.583	0.0136271
768.661	0.0134997
768.739	0.0135972
768.818	0.0135751
768.896	0.0135786
768.974	0.0135024
769.052	0.0135639
769.130	0.0134863
769.208	0.0136642
769.286	0.0135409
769.364	0.0135457
769.443	0.0135079
769.521	0.0134719
769.599	0.0134067
769.677	0.0133749
769.755	0.0135683
769.833	0.0134046
769.911	0.0133769
769.989	0.0134596
770.068	0.0134126
770.146	0.0134278
770.224	0.0134735
770.302	0.0132776
770.380	0.0133276
770.458	0.0133554
770.536	0.0132941
770.614	0.0133260
770.693	0.0133818
770.771	0.0134502
770.849	0.0133665
770.927	0.0133668
771.005	0.0134988
771.083	0.0133784
771.161	0.0136340
771.239	0.0134992
771.318	0.0136095
771.396	0.0136455
771.474	0.0138181
771.552	0.0138453
771.630	0.0138313
771.708	0.0140212
771.786	0.0140954
771.864	0.0141099
771.943	0.0142292
772.021	0.0142467
772.099	0.0142551
772.177	0.0143185
772.255	0.0143412
772.333	0.0142481
772.411	0.0143221
772.489	0.0142992
772.568	0.0142659
772.646	0.0142937
772.724	0.0140716
772.802	0.0140149
772.880	0.0140096
772.958	0.0139017
773.036	0.0140138
773.114	0.0138000
773.193	0.0136852
773.271	0.0136127
773.349	0.0135242
773.427	0.0134945
773.505	0.0134574
773.583	0.0134509
773.661	0.0133980
773.739	0.0132522
773.818	0.0132877
773.896	0.0133118
773.974	0.0132753
774.052	0.0131395
774.130	0.0131740
774.208	0.0131954
774.286	0.0131978
774.364	0.0131940
774.443	0.0132484
774.521	0.0130196
774.599	0.0130791
774.677	0.0132617
774.755	0.0133366
774.833	0.0133136
774.911	0.0133772
774.989	0.0134633
775.068	0.0134760
775.146	0.0134859
775.224	0.0136019
775.302	0.0137233
775.380	0.0137125
775.458	0.0137049
775.536	0.0139446
775.614	0.0138833
775.693	0.0140969
775.771	0.0141562
775.849	0.0140311
775.927	0.0142004
776.005	0.0141400
776.083	0.0142197
776.161	0.0143227
776.239	0.0142847
776.318	0.0144572
776.396	0.0144653
776.474	0.0142793
776.552	0.0143828
776.630	0.0142525
776.708	0.0142334
776.786	0.0142416
776.864	0.0141224
776.943	0.0140553
777.021	0.0141534
777.099	0.0139212
777.177	0.0139205
777.255	0.0139156
777.333	0.0138990
777.411	0.0137408
777.489	0.0136234
777.568	0.0135513
777.646	0.0134596
777.724	0.0134331
777.802	0.0134318
777.880	0.0132973
777.958	0.0132524
778.036	0.0132110
778.114	0.0132334
778.193	0.0131331
778.271	0.0131908
778.349	0.0132973
778.427	0.0130904
778.505	0.0131614
778.583	0.0132634
778.661	0.0132002
778.739	0.0130889
778.818	0.0132011
778.896	0.0132787
778.974	0.0133342
779.052	0.0134814
779.130	0.0133842
779.208	0.0133960
779.286	0.0134301
779.364	0.0134299
779.443	0.0136659
779.521	0.0138053
779.599	0.0137511
779.677	0.0138603
779.755	0.0139133
779.833	0.0138250
779.911	0.0140260
779.989	0.0139712
780.068	0.0140191
780.146	0.0139836
780.224	0.0141136
780.302	0.0139323
780.380	0.0140578
780.458	0.0139541
780.536	0.0140249
780.614	0.0138687
780.693	0.0139042
780.771	0.0139091
780.849	0.0137041
780.927	0.0137230
781.005	0.0137077
781.083	0.0136701
781.161	0.0135592
781.239	0.0134586
781.318	0.0134892
781.396	0.0134520
781.474	0.0135310
781.552	0.0134486
781.630	0.0134589
781.708	0.0134464
781.786	0.0134406
781.864	0.0134969
781.943	0.0132945
782.021	0.0134885
782.099	0.0133203
782.177	0.0133638
782.255	0.0134045
782.333	0.0134629
782.411	0.0135885
782.489	0.0134860
782.568	0.0135458
782.646	0.0134711
782.724	0.0136131
782.802	0.0136113
782.880	0.0137109
782.958	0.0137550
783.036	0.0136140
783.114	0.0136845
783.193	0.0138150
783.271	0.0136786
783.349	0.0137070
783.427	0.0137919
783.505	0.0136956
783.583	0.0137438
783.661	0.0136297
783.739	0.0136551
783.818	0.0138594
783.896	0.0138464
783.974	0.0137836
784.052	0.0138350
784.130	0.0137264
784.208	0.0138497
784.286	0.0137965
784.364	0.0138892
784.443	0.0139137
784.521	0.0139758
784.599	0.0138697
784.677	0.0140147
784.755	0.0140978
784.833	0.0140669
784.911	0.0141294
784.989	0.0141169
785.068	0.0141608
785.146	0.0141315
785.224	0.0141531
785.302	0.0141010
785.380	0.0140397
785.458	0.0140052
785.536	0.0141344
785.614	0.0139384
785.693	0.0139819
785.771	0.0139304
785.849	0.0137015
785.927	0.0137251
786.005	0.0136330
786.083	0.0135648
786.161	0.0135802
786.239	0.0134225
786.318	0.0135410
786.396	0.0134148
786.474	0.0134484
786.552	0.0133028
786.630	0.0133204
786.708	0.0133257
786.786	0.0133818
786.864	0.0132970
786.943	0.0132568
787.021	0.0132405
787.099	0.0131481
787.177	0.0131198
787.255	0.0131333
787.333	0.0132481
787.411	0.0130532
787.489	0.0132104
787.568	0.0131582
787.646	0.0132894
787.724	0.0131838
787.802	0.0132635
787.880	0.0133306
787.958	0.0132801
788.036	0.0133064
788.114	0.0132597
788.193	0.0133015
788.271	0.0134238
788.349	0.0134940
788.427	0.0132038
788.505	0.0135564
788.583	0.0136045
788.661	0.0136281
788.739	0.0136404
788.818	0.0138206
788.896	0.0138554
788.974	0.0139265
789.052	0.0140781
789.130	0.0141231
789.208	0.0141669
789.286	0.0141006
789.364	0.0143407
789.443	0.0143574
789.521	0.0143956
789.599	0.0143809
789.677	0.0144655
789.755	0.0143235
789.833	0.0144422
789.911	0.0144558
789.989	0.0143663
790.068	0.0143150
790.146	0.0141610
790.224	0.0141788
790.302	0.0142313
790.380	0.0141877
790.458	0.0140440
790.536	0.0139398
790.614	0.0138212
790.693	0.0138361
790.771	0.0136949
790.849	0.0135271
790.927	0.0134735
791.005	0.0135255
791.083	0.0134507
791.161	0.0132856
791.239	0.0132413
791.318	0.0133218
791.396	0.0132993
791.474	0.0131899
791.552	0.0132212
791.630	0.0130531
791.708	0.0129589
791.786	0.0132169
791.864	0.0131255
791.943	0.0131143
792.021	0.0131303
792.099	0.0130182
792.177	0.0130508
792.255	0.0129704
792.333	0.0130259
792.411	0.0130883
792.489	0.0130154
792.568	0.0130682
792.646	0.0130940
792.724	0.0130240
792.802	0.0132436
792.880	0.0132262
792.958	0.0132922
793.036	0.0132915
793.114	0.0132359
793.193	0.0134017
793.271	0.0135032
793.349	0.0136837
793.427	0.0136410
793.505	0.0136620
793.583	0.0138515
793.661	0.0138165
793.739	0.0139272
793.818	0.0141028
793.896	0.0141409
793.974	0.0142354
794.052	0.0142879
794.130	0.0142010
794.208	0.0142236
794.286	0.0140940
794.364	0.0141737
794.443	0.0141312
794.521	0.0140774
794.599	0.0141193
794.677	0.0139002
794.755	0.0139716
794.833	0.0138976
794.911	0.0138432
794.989	0.0138131
795.068	0.0137088
795.146	0.0136622
795.224	0.0136673
795.302	0.0137218
795.380	0.0137054
795.458	0.0136816
795.536	0.0137390
795.614	0.0136974
795.693	0.0137437
795.771	0.0137559
795.849	0.0137716
795.927	0.0138722
796.005	0.0138352
796.083	0.0138084
796.161	0.0138346
796.239	0.0136575
796.318	0.0136763
796.396	0.0138460
796.474	0.0138335
796.552	0.0137796
796.630	0.0135612
796.708	0.0135986
796.786	0.0137769
796.864	0.0136504
796.943	0.0135029
797.021	0.0135433
797.099	0.0135672
797.177	0.0135327
797.255	0.0133729
797.333	0.0132312
797.411	0.0134133
797.489	0.0135387
797.568	0.0133385
797.646	0.0134065
797.724	0.0134071
797.802	0.0134365
797.880	0.0133132
797.958	0.0131310
798.036	0.0132253
798.114	0.0131050
798.193	0.0132095
798.271	0.0134219
798.349	0.0132931
798.427	0.0132648
798.505	0.0133404
798.583	0.0132534
798.661	0.0133396
798.739	0.0134513
798.818	0.0134516
798.896	0.0132806
798.974	0.0135479
799.052	0.0135619
799.130	0.0135622
799.208	0.0135232
799.286	0.0135301
799.364	0.0136239
799.443	0.0137397
799.521	0.0136895
799.599	0.0137778
799.677	0.0138506
799.755	0.0139462
799.833	0.0138546
799.911	0.0138833
799.989	0.0140865
800.068	0.0139410
800.146	0.0142636
800.224	0.0141854
800.302	0.0141205
800.380	0.0142986
800.458	0.0141814
800.536	0.0142421
800.614	0.0141465
800.693	0.0141623
800.771	0.0140787
800.849	0.0141354
800.927	0.0140672
801.005	0.0139740
801.083	0.0139336
801.161	0.0138106
801.239	0.0136242
801.318	0.0137607
801.396	0.0137077
801.474	0.0135281
801.552	0.0135040
801.630	0.0132911
801.708	0.0134611
801.786	0.0134374
801.864	0.0134299
801.943	0.0133839
802.021	0.0134994
802.099	0.0135332
802.177	0.0135267
802.255	0.0134850
802.333	0.0136280
802.411	0.0135403
802.489	0.0135934
802.568	0.0135194
802.646	0.0134953
802.724	0.0135769
802.802	0.0136290
802.880	0.0136361
802.958	0.0135577
803.036	0.0136782
803.114	0.0137455
803.193	0.0136385
803.271	0.0136230
803.349	0.0137078
803.427	0.0136927
803.505	0.0136942
803.583	0.0135360
803.661	0.0137389
803.739	0.0136143
803.818	0.0134932
803.896	0.0136511
803.974	0.0135265
804.052	0.0134173
804.130	0.0134915
804.208	0.0134943
804.286	0.0134116
804.364	0.0134534
804.443	0.0135017
804.521	0.0134745
804.599	0.0135016
804.677	0.0135661
804.755	0.0134345
804.833	0.0136180
804.911	0.0136445
804.989	0.0135338
805.068	0.0135623
805.146	0.0134648
805.224	0.0135652
805.302	0.0136581
805.380	0.0137643
805.458	0.0137579
805.536	0.0137317
805.614	0.0138300
805.693	0.0139259
805.771	0.0139594
805.849	0.0139664
805.927	0.0141065
806.005	0.0142195
806.083	0.0141582
806.161	0.0142374
806.239	0.0142876
806.318	0.0142551
806.396	0.0142541
806.474	0.0144211
806.552	0.0143340
806.630	0.0145574
806.708	0.0145587
806.786	0.0144235
806.864	0.0142699
806.943	0.0143410
807.021	0.0143707
807.099	0.0141871
807.177	0.0140500
807.255	0.0140278
807.333	0.0138914
807.411	0.0137887
807.489	0.0137662
807.568	0.0137363
807.646	0.0135452
807.724	0.0133672
807.802	0.0134627
807.880	0.0133473
807.958	0.0132866
808.036	0.0132157
808.114	0.0132904
808.193	0.0132500
808.271	0.0131609
808.349	0.0131832
808.427	0.0131784
808.505	0.0132648
808.583	0.0133516
808.661	0.0133623
808.739	0.0133208
808.818	0.0133254
808.896	0.0132591
808.974	0.0134277
809.052	0.0134109
809.130	0.0133189
809.208	0.0134428
809.286	0.0133460
809.364	0.0134785
809.443	0.0134875
809.521	0.0135163
809.599	0.0133841
809.677	0.0136201
809.755	0.0135420
809.833	0.0137102
809.911	0.0136162
809.989	0.0136572
810.068	0.0137169
810.146	0.0137894
810.224	0.0139001
810.302	0.0138139
810.380	0.0138111
810.458	0.0140156
810.536	0.0140671
810.614	0.0140781
810.693	0.0140508
810.771	0.0141477
810.849	0.0141095
810.927	0.0142057
811.005	0.0142515
811.083	0.0141727
811.161	0.0141297
811.239	0.0140292
811.318	0.0141403
811.396	0.0141751
811.474	0.0141635
811.552	0.0141434
811.630	0.0141411
811.708	0.0141083
811.786	0.0140308
811.864	0.0140062
811.943	0.0140266
812.021	0.0139086
812.099	0.0139080
812.177	0.0138803
812.255	0.0138543
812.333	0.0138818
812.411	0.0139091
812.489	0.0135756
812.568	0.0137778
812.646	0.0137372
812.724	0.0137335
812.802	0.0137468
812.880	0.0136020
812.958	0.0135895
813.036	0.0136177
813.114	0.0137587
813.193	0.0137419
813.271	0.0136179
813.349	0.0135826
813.427	0.0136373
813.505	0.0135661
813.583	0.0135994
813.661	0.0134867
813.739	0.0134492
813.818	0.0133652
813.896	0.0133899
813.974	0.0133417
814.052	0.0133266
814.130	0.0134180
814.208	0.0133071
814.286	0.0131718
814.364	0.0131725
814.443	0.0132423
814.521	0.0133434
814.599	0.0131888
814.677	0.0132400
814.755	0.0131585
814.833	0.0132273
814.911	0.0134323
814.989	0.0134137
815.068	0.0133689
815.146	0.0135516
815.224	0.0134832
815.302	0.0135695
815.380	0.0135829
815.458	0.0138932
815.536	0.0138367
815.614	0.0138097
815.693	0.0140598
815.771	0.0141196
815.849	0.0141409
815.927	0.0141193
816.005	0.0141412
816.083	0.0141709
816.161	0.0142239
816.239	0.0142375
816.318	0.0142091
816.396	0.0141119
816.474	0.0142850
816.552	0.0142916
816.630	0.0142092
816.708	0.0141216
816.786	0.0142409
816.864	0.0142326
816.943	0.0142027
817.021	0.0141899
817.099	0.0141113
817.177	0.0140687
817.255	0.0140378
817.333	0.0138690
817.411	0.0140351
817.489	0.0140419
817.568	0.0139461
817.646	0.0138350
817.724	0.0137908
817.802	0.0137516
817.880	0.0136854
817.958	0.0137961
818.036	0.0136082
818.114	0.0134960
818.193	0.0136496
818.271	0.0135802
818.349	0.0133316
818.427	0.0134879
818.505	0.0134592
818.583	0.0133614
818.661	0.0134434
818.739	0.0133717
818.818	0.0132907
818.896	0.0132133
818.974	0.0133032
819.052	0.0133078
819.130	0.0134063
819.208	0.0131876
819.286	0.0133961
819.364	0.0134766
819.443	0.0133568
819.521	0.0134184
819.599	0.0132521
819.677	0.0134992
819.755	0.0134340
819.833	0.0133969
819.911	0.0133609
819.989	0.0133047
820.068	0.0133757
820.146	0.0134433
820.224	0.0135247
820.302	0.0134716
820.380	0.0136546
820.458	0.0135828
820.536	0.0136163
820.614	0.0136369
820.693	0.0136547
820.771	0.0136082
820.849	0.0136920
820.927	0.0136320
821.005	0.0135622
821.083	0.0136205
821.161	0.0136818
821.239	0.0135091
821.318	0.0136774
821.396	0.0137036
821.474	0.0136239
821.552	0.0136576
821.630	0.0136305
821.708	0.0138081
821.786	0.0136642
821.864	0.0137165
821.943	0.0136060
822.021	0.0137646
822.099	0.0137402
822.177	0.0136960
822.255	0.0137394
822.333	0.0136662
822.411	0.0136086
822.489	0.0135026
822.568	0.0135175
822.646	0.0136359
822.724	0.0136846
822.802	0.0134805
822.880	0.0133999
822.958	0.0134562
823.036	0.0135731
823.114	0.0136163
823.193	0.0134646
823.271	0.0135015
823.349	0.0135703
823.427	0.0133189
823.505	0.0135459
823.583	0.0136294
823.661	0.0135654
823.739	0.0135609
823.818	0.0136150
823.896	0.0136200
823.974	0.0137212
824.052	0.0135657
824.130	0.0137623
824.208	0.0137404
824.286	0.0138041
824.364	0.0136499
824.443	0.0136564
824.521	0.0135990
824.599	0.0135897
824.677	0.0136597
824.755	0.0135580
824.833	0.0133826
824.911	0.0136221
824.989	0.0135041
825.068	0.0133633
825.146	0.0134392
825.224	0.0135535
825.302	0.0133591
825.380	0.0132693
825.458	0.0132925
825.536	0.0134955
825.614	0.0133255
825.693	0.0134502
825.771	0.0134077
825.849	0.0134031
825.927	0.0135232
826.005	0.0135191
826.083	0.0134438
826.161	0.0135867
826.239	0.0135433
826.318	0.0135320
826.396	0.0135098
826.474	0.0135361
826.552	0.0136769
826.630	0.0135238
826.708	0.0136800
826.786	0.0137256
826.864	0.0137276
826.943	0.0137845
827.021	0.0137702
827.099	0.0137939
827.177	0.0137255
827.255	0.0137506
827.333	0.0139346
827.411	0.0139374
827.489	0.0136630
827.568	0.0137688
827.646	0.0137766
827.724	0.0136903
827.802	0.0137238
827.880	0.0137509
827.958	0.0137478
828.036	0.0136774
828.114	0.0135332
828.193	0.0135744
828.271	0.0135059
828.349	0.0136292
828.427	0.0136623
828.505	0.0135706
828.583	0.0136919
828.661	0.0136127
828.739	0.0136617
828.818	0.0137234
828.896	0.0138230
828.974	0.0137083
829.052	0.0138516
829.130	0.0137623
829.208	0.0137631
829.286	0.0139918
829.364	0.0139703
829.443	0.0139224
829.521	0.0139774
829.599	0.0140617
829.677	0.0139590
829.755	0.0139117
829.833	0.0140185
829.911	0.0140240
829.989	0.0140881
830.068	0.0140002
830.146	0.0139832
830.224	0.0138627
830.302	0.0138148
830.380	0.0139070
830.458	0.0138247
830.536	0.0137967
830.614	0.0137519
830.693	0.0136983
830.771	0.0136281
830.849	0.0137296
830.927	0.0135843
831.005	0.0136689
831.083	0.0135755
831.161	0.0135155
831.239	0.0134156
831.318	0.0135769
831.396	0.0134614
831.474	0.0135129
831.552	0.0133861
831.630	0.0134649
831.708	0.0135709
831.786	0.0135789
831.864	0.0134426
831.943	0.0134957
832.021	0.0135293
832.099	0.0135677
832.177	0.0135331
832.255	0.0136324
832.333	0.0137197
832.411	0.0139093
832.489	0.0136675
832.568	0.0136563
832.646	0.0139960
832.724	0.0138572
832.802	0.0137220
832.880	0.0139149
832.958	0.0137301
833.036	0.0137706
833.114	0.0137650
833.193	0.0137670
833.271	0.0137131
833.349	0.0137460
833.427	0.0136626
833.505	0.0136623
833.583	0.0136528
833.661	0.0136317
833.739	0.0138068
833.818	0.0135963
833.896	0.0137338
833.974	0.0136701
834.052	0.0135744
834.130	0.0135712
834.208	0.0136701
834.286	0.0136493
834.364	0.0137737
834.443	0.0137568
834.521	0.0137418
834.599	0.0137144
834.677	0.0137025
834.755	0.0136937
834.833	0.0138242
834.911	0.0137474
834.989	0.0138258
835.068	0.0136107
835.146	0.0136185
835.224	0.0137155
835.302	0.0137109
835.380	0.0135997
835.458	0.0136717
835.536	0.0137547
835.614	0.0136546
835.693	0.0136248
835.771	0.0136510
835.849	0.0137241
835.927	0.0137563
836.005	0.0136829
836.083	0.0137648
836.161	0.0137844
836.239	0.0138545
836.318	0.0137721
836.396	0.0139500
836.474	0.0138057
836.552	0.0138164
836.630	0.0138914
836.708	0.0138129
836.786	0.0138219
836.864	0.0140147
836.943	0.0140669
837.021	0.0139231
837.099	0.0140558
837.177	0.0139981
837.255	0.0140391
837.333	0.0140009
837.411	0.0139775
837.489	0.0139686
837.568	0.0138115
837.646	0.0138855
837.724	0.0138340
837.802	0.0136890
837.880	0.0136659
837.958	0.0136592
838.036	0.0137244
838.114	0.0135023
838.193	0.0135012
838.271	0.0135112
838.349	0.0135937
838.427	0.0134838
838.505	0.0133899
838.583	0.0134608
838.661	0.0134058
838.739	0.0135886
838.818	0.0135355
838.896	0.0134579
838.974	0.0135413
839.052	0.0134145
839.130	0.0135702
839.208	0.0137245
839.286	0.0135765
839.364	0.0137632
839.443	0.0136871
839.521	0.0139015
839.599	0.0138609
839.677	0.0137508
839.755	0.0138197
839.833	0.0137986
839.911	0.0138390
839.989	0.0138857
840.068	0.0137115
840.146	0.0138197
840.224	0.0137922
840.302	0.0137556
840.380	0.0138291
840.458	0.0137909
840.536	0.0136731
840.614	0.0136782
840.693	0.0136594
840.771	0.0136504
840.849	0.0137029
840.927	0.0136382
841.005	0.0137325
841.083	0.0137495
841.161	0.0136871
841.239	0.0137217
841.318	0.0136578
841.396	0.0137541
841.474	0.0137927
841.552	0.0138426
841.630	0.0137895
841.708	0.0139265
841.786	0.0137741
841.864	0.0138575
841.943	0.0138631
842.021	0.0138979
842.099	0.0139478
842.177	0.0139895
842.255	0.0138442
842.333	0.0138477
842.411	0.0139350
842.489	0.0137698
842.568	0.0138419
842.646	0.0138171
842.724	0.0138747
842.802	0.0137213
842.880	0.0134961
842.958	0.0136423
843.036	0.0136192
843.114	0.0135957
843.193	0.0135291
843.271	0.0135564
843.349	0.0134142
843.427	0.0132986
843.505	0.0134595
843.583	0.0134096
843.661	0.0133038
843.739	0.0132279
843.818	0.0131341
843.896	0.0131197
843.974	0.0132541
844.052	0.0131926
844.130	0.0133732
844.208	0.0133541
844.286	0.0133339
844.364	0.0132812
844.443	0.0133894
844.521	0.0134412
844.599	0.0132475
844.677	0.0133584
844.755	0.0134222
844.833	0.0134799
844.911	0.0134460
844.989	0.0136508
845.068	0.0136942
845.146	0.0136939
845.224	0.0136452
845.302	0.0136449
845.380	0.0138146
845.458	0.0137820
845.536	0.0138066
845.614	0.0138319
845.693	0.0138169
845.771	0.0138387
845.849	0.0138953
845.927	0.0137746
846.005	0.0138013
846.083	0.0137917
846.161	0.0139327
846.239	0.0136810
846.318	0.0137328
846.396	0.0137731
846.474	0.0138195
846.552	0.0136344
846.630	0.0135851
846.708	0.0136650
846.786	0.0136784
846.864	0.0135647
846.943	0.0136423
847.021	0.0137470
847.099	0.0136599
847.177	0.0136652
847.255	0.0135963
847.333	0.0136706
847.411	0.0137250
847.489	0.0135904
847.568	0.0137191
847.646	0.0137211
847.724	0.0136505
847.802	0.0136406
847.880	0.0137069
847.958	0.0134599
848.036	0.0136897
848.114	0.0136836
848.193	0.0136169
848.271	0.0137347
848.349	0.0137094
848.427	0.0137196
848.505	0.0138618
848.583	0.0137607
848.661	0.0137857
848.739	0.0136514
848.818	0.0135829
848.896	0.0135576
848.974	0.0136632
849.052	0.0137468
849.130	0.0136258
849.208	0.0137630
849.286	0.0136405
849.364	0.0136412
849.443	0.0137125
849.521	0.0135775
849.599	0.0135448
849.677	0.0135683
849.755	0.0135995
849.833	0.0135210
849.911	0.0136410
849.989	0.0135714
850.068	0.0135138
850.146	0.0134232
850.224	0.0135215
850.302	0.0135899
850.380	0.0135381
850.458	0.0135202
850.536	0.0135231
850.614	0.0135172
850.693	0.0135710
850.771	0.0136072
850.849	0.0134598
850.927	0.0135027
851.005	0.0136153
851.083	0.0135458
851.161	0.0135059
851.239	0.0136292
851.318	0.0135937
851.396	0.0136833
851.474	0.0136582
851.552	0.0138181
851.630	0.0138715
851.708	0.0138941
851.786	0.0138900
851.864	0.0138037
851.943	0.0138844
852.021	0.0138745
852.099	0.0139098
852.177	0.0139189
852.255	0.0139992
852.333	0.0140215
852.411	0.0139256
852.489	0.0139102
852.568	0.0139806
852.646	0.0138712
852.724	0.0139658
852.802	0.0138476
852.880	0.0137367
852.958	0.0138808
853.036	0.0138717
853.114	0.0137611
853.193	0.0138676
853.271	0.0137271
853.349	0.0136775
853.427	0.0137274
853.505	0.0136722
853.583	0.0136334
853.661	0.0137387
853.739	0.0136954
853.818	0.0136087
853.896	0.0136101
853.974	0.0136987
854.052	0.0135201
854.130	0.0134190
854.208	0.0135989
854.286	0.0136571
854.364	0.0135944
854.443	0.0135370
854.521	0.0135374
854.599	0.0135290
854.677	0.0135210
854.755	0.0136180
854.833	0.0135668
854.911	0.0135204
854.989	0.0136214
855.068	0.0135706
855.146	0.0137483
855.224	0.0138191
855.302	0.0136037
855.380	0.0136705
855.458	0.0136241
855.536	0.0135518
855.614	0.0136028
855.693	0.0135947
855.771	0.0136101
855.849	0.0136009
855.927	0.0136340
856.005	0.0136465
856.083	0.0135003
856.161	0.0134494
856.239	0.0134655
856.318	0.0134620
856.396	0.0134394
856.474	0.0135659
856.552	0.0135018
856.630	0.0134846
856.708	0.0134677
856.786	0.0135456
856.864	0.0135155
856.943	0.0135069
857.021	0.0134348
857.099	0.0136816
857.177	0.0136200
857.255	0.0135612
857.333	0.0135542
857.411	0.0136311
857.489	0.0135780
857.568	0.0135417
857.646	0.0136142
857.724	0.0136069
857.802	0.0137218
857.880	0.0136376
857.958	0.0136512
858.036	0.0135542
858.114	0.0137469
858.193	0.0137437
858.271	0.0134856
858.349	0.0137321
858.427	0.0136725
858.505	0.0136777
858.583	0.0136847
858.661	0.0138573
858.739	0.0138361
858.818	0.0137382
858.896	0.0137962
858.974	0.0137955
859.052	0.0138524
859.130	0.0138957
859.208	0.0141698
859.286	0.0140045
859.364	0.0139771
859.443	0.0139874
859.521	0.0140311
859.599	0.0140443
859.677	0.0140816
859.755	0.0139471
859.833	0.0138802
859.911	0.0140030
859.989	0.0139677
860.068	0.0139026
860.146	0.0138080
860.224	0.0137120
860.302	0.0137150
860.380	0.0138197
860.458	0.0136899
860.536	0.0135341
860.614	0.0136642
860.693	0.0135808
860.771	0.0135844
860.849	0.0135510
860.927	0.0135939
861.005	0.0135671
861.083	0.0133194
861.161	0.0134834
861.239	0.0135788
861.318	0.0135643
861.396	0.0134394
861.474	0.0134990
861.552	0.0135667
861.630	0.0133957
861.708	0.0134416
861.786	0.0136294
861.864	0.0136134
861.943	0.0136266
862.021	0.0135540
862.099	0.0134177
862.177	0.0135281
862.255	0.0136625
862.333	0.0135545
862.411	0.0135121
862.489	0.0136838
862.568	0.0135024
862.646	0.0135380
862.724	0.0135536
862.802	0.0136237
862.880	0.0133794
862.958	0.0135690
863.036	0.0135084
863.114	0.0135780
863.193	0.0135795
863.271	0.0136884
863.349	0.0136382
863.427	0.0135421
863.505	0.0136882
863.583	0.0136131
863.661	0.0137023
863.739	0.0136679
863.818	0.0137861
863.896	0.0138166
863.974	0.0139216
864.052	0.0138890
864.130	0.0138287
864.208	0.0139214
864.286	0.0140749
864.364	0.0139784
864.443	0.0141742
864.521	0.0138686
864.599	0.0139967
864.677	0.0139849
864.755	0.0139741
864.833	0.0141209
864.911	0.0140744
864.989	0.0140401
865.068	0.0140716
865.146	0.0137982
865.224	0.0139587
865.302	0.0138742
865.380	0.0138155
865.458	0.0137461
865.536	0.0136998
865.614	0.0138232
865.693	0.0136808
865.771	0.0136401
865.849	0.0135723
865.927	0.0137387
866.005	0.0136386
866.083	0.0134933
866.161	0.0135341
866.239	0.0135863
866.318	0.0135197
866.396	0.0135093
866.474	0.0134772
866.552	0.0134996
866.630	0.0135240
866.708	0.0134622
866.786	0.0134360
866.864	0.0133928
866.943	0.0135410
867.021	0.0134877
867.099	0.0136301
867.177	0.0136789
867.255	0.0133982
867.333	0.0133765
867.411	0.0134914
867.489	0.0135540
867.568	0.0135320
867.646	0.0134486
867.724	0.0134679
867.802	0.0134776
867.880	0.0133475
867.958	0.0135227
868.036	0.0135188
868.114	0.0136404
868.193	0.0135792
868.271	0.0135658
868.349	0.0136340
868.427	0.0136662
868.505	0.0136135
868.583	0.0137280
868.661	0.0137166
868.739	0.0135947
868.818	0.0135100
868.896	0.0136277
868.974	0.0137579
869.052	0.0137989
869.130	0.0136890
869.208	0.0137286
869.286	0.0137973
869.364	0.0136295
869.443	0.0137090
869.521	0.0139748
869.599	0.0138137
869.677	0.0139156
869.755	0.0138345
869.833	0.0139133
869.911	0.0140136
869.989	0.0139389
870.068	0.0139116
870.146	0.0139403
870.224	0.0140233
870.302	0.0139357
870.380	0.0139291
870.458	0.0139961
870.536	0.0139335
870.614	0.0139510
870.693	0.0139356
870.771	0.0139737
870.849	0.0138366
870.927	0.0138458
871.005	0.0138783
871.083	0.0139120
871.161	0.0137426
871.239	0.0137715
871.318	0.0138497
871.396	0.0137029
871.474	0.0138011
871.552	0.0136353
871.630	0.0136681
871.708	0.0138543
871.786	0.0137596
871.864	0.0137749
871.943	0.0137377
872.021	0.0136388
872.099	0.0136878
872.177	0.0136252
872.255	0.0136395
872.333	0.0136326
872.411	0.0137234
872.489	0.0136714
872.568	0.0136331
872.646	0.0136758
872.724	0.0137186
872.802	0.0135094
872.880	0.0135538
872.958	0.0135442
873.036	0.0135336
873.114	0.0135564
873.193	0.0135461
873.271	0.0135468
873.349	0.0135613
873.427	0.0135804
873.505	0.0136531
873.583	0.0136309
873.661	0.0134998
873.739	0.0136306
873.818	0.0135644
873.896	0.0135377
873.974	0.0136544
874.052	0.0137280
874.130	0.0136794
874.208	0.0136494
874.286	0.0137045
874.364	0.0136771
874.443	0.0136115
874.521	0.0136716
874.599	0.0135452
874.677	0.0136743
874.755	0.0138464
874.833	0.0137592
874.911	0.0137976
874.989	0.0138820
875.068	0.0137801
875.146	0.0137870
875.224	0.0138042
875.302	0.0139144
875.380	0.0137948
875.458	0.0138925
875.536	0.0137854
875.614	0.0139365
875.693	0.0139474
875.771	0.0138437
875.849	0.0138374
875.927	0.0137922
876.005	0.0138708
876.083	0.0138470
876.161	0.0138623
876.239	0.0137649
876.318	0.0136726
876.396	0.0137493
876.474	0.0137167
876.552	0.0135602
876.630	0.0137189
876.708	0.0135658
876.786	0.0136445
876.864	0.0135334
876.943	0.0134720
877.021	0.0135137
877.099	0.0136067
877.177	0.0135790
877.255	0.0136872
877.333	0.0137086
877.411	0.0134785
877.489	0.0134568
877.568	0.0135780
877.646	0.0136743
877.724	0.0136613
877.802	0.0135589
877.880	0.0135219
877.958	0.0136392
878.036	0.0136377
878.114	0.0136165
878.193	0.0137003
878.271	0.0135203
878.349	0.0136697
878.427	0.0138657
878.505	0.0138273
878.583	0.0137277
878.661	0.0136131
878.739	0.0137191
878.818	0.0137494
878.896	0.0135619
878.974	0.0135773
879.052	0.0135573
879.130	0.0136063
879.208	0.0136176
879.286	0.0135996
879.364	0.0136288
879.443	0.0135445
879.521	0.0135162
879.599	0.0136430
879.677	0.0134388
879.755	0.0135766
879.833	0.0135946
879.911	0.0135352
879.989	0.0134904
880.068	0.0135664
880.146	0.0136773
880.224	0.0136533
880.302	0.0136939
880.380	0.0135638
880.458	0.0135310
880.536	0.0135209
880.614	0.0135379
880.693	0.0134587
880.771	0.0135182
880.849	0.0136484
880.927	0.0135333
881.005	0.0135539
881.083	0.0136768
881.161	0.0136186
881.239	0.0136206
881.318	0.0136187
881.396	0.0137071
881.474	0.0136784
881.552	0.0137592
881.630	0.0137083
881.708	0.0137179
881.786	0.0138319
881.864	0.0137341
881.943	0.0135941
882.021	0.0135971
882.099	0.0137841
882.177	0.0137610
882.255	0.0135642
882.333	0.0137228
882.411	0.0137789
882.489	0.0137778
882.568	0.0136596
882.646	0.0136067
882.724	0.0137164
882.802	0.0138036
882.880	0.0138381
882.958	0.0137067
883.036	0.0138301
883.114	0.0137440
883.193	0.0138605
883.271	0.0137885
883.349	0.0137434
883.427	0.0137354
883.505	0.0137469
883.583	0.0137389
883.661	0.0137090
883.739	0.0136686
883.818	0.0136250
883.896	0.0133951
883.974	0.0135905
884.052	0.0135160
884.130	0.0135566
884.208	0.0133959
884.286	0.0133706
884.364	0.0134427
884.443	0.0134871
884.521	0.0134109
884.599	0.0133475
884.677	0.0133302
884.755	0.0135476
884.833	0.0135696
884.911	0.0133556
884.989	0.0134226
885.068	0.0136150
885.146	0.0136272
885.224	0.0136026
885.302	0.0136028
885.380	0.0135960
885.458	0.0137614
885.536	0.0136750
885.614	0.0138020
885.693	0.0136800
885.771	0.0137636
885.849	0.0139878
885.927	0.0139511
886.005	0.0137947
886.083	0.0138776
886.161	0.0139008
886.239	0.0139429
886.318	0.0138440
886.396	0.0139163
886.474	0.0139629
886.552	0.0139473
886.630	0.0139932
886.708	0.0139218
886.786	0.0137982
886.864	0.0139645
886.943	0.0138744
887.021	0.0137886
887.099	0.0137930
887.177	0.0138186
887.255	0.0138315
887.333	0.0139176
887.411	0.0139838
887.489	0.0138339
887.568	0.0139310
887.646	0.0137082
887.724	0.0138179
887.802	0.0138817
887.880	0.0137122
887.958	0.0137543
888.036	0.0137541
888.114	0.0136534
888.193	0.0136747
888.271	0.0137157
888.349	0.0135976
888.427	0.0136979
888.505	0.0137183
888.583	0.0137076
888.661	0.0135396
888.739	0.0135430
888.818	0.0135733
888.896	0.0136186
888.974	0.0135229
889.052	0.0134760
889.130	0.0135616
889.208	0.0136787
889.286	0.0135551
889.364	0.0136016
889.443	0.0135041
889.521	0.0135580
889.599	0.0137680
889.677	0.0135460
889.755	0.0137086
889.833	0.0135757
889.911	0.0135970
889.989	0.0136102
890.068	0.0136293
890.146	0.0137178
890.224	0.0137741
890.302	0.0137865
890.380	0.0138573
890.458	0.0138636
890.536	0.0137764
890.614	0.0138084
890.693	0.0139568
890.771	0.0140157
890.849	0.0140689
890.927	0.0140218
891.005	0.0139311
891.083	0.0138932
891.161	0.0138303
891.239	0.0137336
891.318	0.0137814
891.396	0.0138293
891.474	0.0137609
891.552	0.0137108
891.630	0.0136324
891.708	0.0136566
891.786	0.0137138
891.864	0.0135934
891.943	0.0135486
892.021	0.0138424
892.099	0.0136244
892.177	0.0135538
892.255	0.0136821
892.333	0.0136249
892.411	0.0135948
892.489	0.0135690
892.568	0.0136750
892.646	0.0135813
892.724	0.0136876
892.802	0.0137118
892.880	0.0136299
892.958	0.0136481
893.036	0.0137498
893.114	0.0137011
893.193	0.0137393
893.271	0.0137894
893.349	0.0137750
893.427	0.0137924
893.505	0.0137077
893.583	0.0137354
893.661	0.0138264
893.739	0.0137935
893.818	0.0138288
893.896	0.0137469
893.974	0.0137707
894.052	0.0139851
894.130	0.0138148
894.208	0.0138953
894.286	0.0139448
894.364	0.0139795
894.443	0.0139278
894.521	0.0139247
894.599	0.0140447
894.677	0.0139443
894.755	0.0140683
894.833	0.0140452
894.911	0.0138166
894.989	0.0140329
895.068	0.0141718
895.146	0.0139753
895.224	0.0138869
895.302	0.0140474
895.380	0.0138521
895.458	0.0139224
895.536	0.0138451
895.614	0.0138016
895.693	0.0137230
895.771	0.0137869
895.849	0.0136882
895.927	0.0136691
896.005	0.0135149
896.083	0.0135004
896.161	0.0135131
896.239	0.0135084
896.318	0.0134708
896.396	0.0135427
896.474	0.0134028
896.552	0.0134697
896.630	0.0133925
896.708	0.0134441
896.786	0.0134292
896.864	0.0135185
896.943	0.0134736
897.021	0.0135990
897.099	0.0134947
897.177	0.0134132
897.255	0.0135285
897.333	0.0136927
897.411	0.0135287
897.489	0.0136508
897.568	0.0138582
897.646	0.0137965
897.724	0.0138387
897.802	0.0137669
897.880	0.0138846
897.958	0.0139075
898.036	0.0138285
898.114	0.0139848
898.193	0.0139995
898.271	0.0138758
898.349	0.0140166
898.427	0.0139672
898.505	0.0139011
898.583	0.0139986
898.661	0.0140376
898.739	0.0138628
898.818	0.0138828
898.896	0.0137302
898.974	0.0137622
899.052	0.0136812
899.130	0.0136880
899.208	0.0137028
899.286	0.0136004
899.364	0.0136966
899.443	0.0136047
899.521	0.0137241
899.599	0.0135927
899.677	0.0135414
899.755	0.0134464
899.833	0.0134520
899.911	0.0135619
899.989	0.0136244
900.068	0.0135775
900.146	0.0135882
900.224	0.0135892
900.302	0.0135555
900.380	0.0135152
900.458	0.0135307
900.536	0.0136618
900.614	0.0135943
900.693	0.0136459
900.771	0.0135404
900.849	0.0134698
900.927	0.0135426
901.005	0.0134782
901.083	0.0136094
901.161	0.0136441
901.239	0.0134567
901.318	0.0136748
901.396	0.0136358
901.474	0.0135632
901.552	0.0135839
901.630	0.0136612
901.708	0.0136477
901.786	0.0134759
901.864	0.0137621
901.943	0.0136992
902.021	0.0136206
902.099	0.0136554
902.177	0.0137854
902.255	0.0137360
902.333	0.0137301
902.411	0.0138087
902.489	0.0138910
902.568	0.0137968
902.646	0.0136790
902.724	0.0136003
902.802	0.0137431
902.880	0.0137589
902.958	0.0137408
903.036	0.0139708
903.114	0.0137650
903.193	0.0136825
903.271	0.0137057
903.349	0.0137248
903.427	0.0137965
903.505	0.0137063
903.583	0.0138939
903.661	0.0137925
903.739	0.0137703
903.818	0.0138453
903.896	0.0137080
903.974	0.0137513
904.052	0.0138195
904.130	0.0138007
904.208	0.0137559
904.286	0.0138054
904.364	0.0136929
904.443	0.0137212
904.521	0.0138596
904.599	0.0138213
904.677	0.0137836
904.755	0.0137355
904.833	0.0137297
904.911	0.0137917
904.989	0.0137862
905.068	0.0138534
905.146	0.0137187
905.224	0.0138196
905.302	0.0138616
905.380	0.0138701
905.458	0.0137900
905.536	0.0137246
905.614	0.0139031
905.693	0.0138646
905.771	0.0138307
905.849	0.0136922
905.927	0.0137033
906.005	0.0138854
906.083	0.0137245
906.161	0.0138340
906.239	0.0138489
906.318	0.0137675
906.396	0.0138185
906.474	0.0138912
906.552	0.0138650
906.630	0.0138725
906.708	0.0137121
906.786	0.0136821
906.864	0.0137079
906.943	0.0137684
907.021	0.0136777
907.099	0.0136395
907.177	0.0138840
907.255	0.0138135
907.333	0.0135809
907.411	0.0136702
907.489	0.0136861
907.568	0.0136123
907.646	0.0137643
907.724	0.0136526
907.802	0.0137273
907.880	0.0136530
907.958	0.0137157
908.036	0.0138573
908.114	0.0135960
908.193	0.0135471
908.271	0.0137637
908.349	0.0137177
908.427	0.0137543
908.505	0.0137154
908.583	0.0135625
908.661	0.0136350
908.739	0.0135569
908.818	0.0134908
908.896	0.0135273
908.974	0.0138301
909.052	0.0136114
909.130	0.0136004
909.208	0.0137165
909.286	0.0136852
909.364	0.0136137
909.443	0.0138171
909.521	0.0137255
909.599	0.0137608
909.677	0.0138671
909.755	0.0138245
909.833	0.0138167
909.911	0.0137965
909.989	0.0138130
910.068	0.0138474
910.146	0.0136873
910.224	0.0138955
910.302	0.0138206
910.380	0.0137521
910.458	0.0137019
910.536	0.0137756
910.614	0.0138358
910.693	0.0137881
910.771	0.0137846
910.849	0.0137824
910.927	0.0138138
911.005	0.0137441
911.083	0.0136945
911.161	0.0137746
911.239	0.0136725
911.318	0.0137713
911.396	0.0137656
911.474	0.0136212
911.552	0.0136740
911.630	0.0137357
911.708	0.0136784
911.786	0.0134912
911.864	0.0133685
911.943	0.0135090
912.021	0.0136047
912.099	0.0134406
912.177	0.0134345
912.255	0.0133202
912.333	0.0134644
912.411	0.0136627
912.489	0.0134252
912.568	0.0134454
912.646	0.0135049
912.724	0.0134022
912.802	0.0134844
912.880	0.0134492
912.958	0.0134930
913.036	0.0136063
913.114	0.0135480
913.193	0.0136963
913.271	0.0136003
913.349	0.0136834
913.427	0.0137591
913.505	0.0136256
913.583	0.0138002
913.661	0.0138894
913.739	0.0137572
913.818	0.0137722
913.896	0.0137228
913.974	0.0139039
914.052	0.0138550
914.130	0.0138762
914.208	0.0138473
914.286	0.0139038
914.364	0.0137780
914.443	0.0138521
914.521	0.0140317
914.599	0.0138110
914.677	0.0138583
914.755	0.0138872
914.833	0.0137540
914.911	0.0137735
914.989	0.0137846
915.068	0.0138052
915.146	0.0137589
915.224	0.0136634
915.302	0.0136409
915.380	0.0136538
915.458	0.0137108
915.536	0.0135719
915.614	0.0136332
915.693	0.0136252
915.771	0.0135577
915.849	0.0135409
915.927	0.0135232
916.005	0.0134845
916.083	0.0134507
916.161	0.0134705
916.239	0.0134240
916.318	0.0136483
916.396	0.0135492
916.474	0.0132906
916.552	0.0134585
916.630	0.0135582
916.708	0.0135181
916.786	0.0134547
916.864	0.0135968
916.943	0.0135426
917.021	0.0136970
917.099	0.0135595
917.177	0.0136627
917.255	0.0136430
917.333	0.0135394
917.411	0.0137321
917.489	0.0136331
917.568	0.0136546
917.646	0.0136693
917.724	0.0138224
917.802	0.0137819
917.880	0.0137342
917.958	0.0135903
918.036	0.0137043
918.114	0.0139425
918.193	0.0137659
918.271	0.0138288
918.349	0.0137869
918.427	0.0137971
918.505	0.0137439
918.583	0.0137589
918.661	0.0138041
918.739	0.0136703
918.818	0.0139205
918.896	0.0139220
918.974	0.0136505
919.052	0.0135194
919.130	0.0137054
919.208	0.0137537
919.286	0.0136533
919.364	0.0136138
919.443	0.0136523
919.521	0.0137598
919.599	0.0136795
919.677	0.0138132
919.755	0.0136955
919.833	0.0136576
919.911	0.0136414
919.989	0.0135820
920.068	0.0136298
920.146	0.0136108
920.224	0.0134722
920.302	0.0134754
920.380	0.0135109
920.458	0.0136147
920.536	0.0136350
920.614	0.0134584
920.693	0.0134262
920.771	0.0136515
920.849	0.0134917
920.927	0.0135345
921.005	0.0134814
921.083	0.0135509
921.161	0.0134952
921.239	0.0133809
921.318	0.0136162
921.396	0.0135367
921.474	0.0135014
921.552	0.0135052
921.630	0.0135864
921.708	0.0136414
921.786	0.0136210
921.864	0.0137508
921.943	0.0136442
922.021	0.0136171
922.099	0.0137393
922.177	0.0136646
922.255	0.0137386
922.333	0.0138228
922.411	0.0137991
922.489	0.0138547
922.568	0.0137389
922.646	0.0138374
922.724	0.0136942
922.802	0.0137662
922.880	0.0136404
922.958	0.0136806
923.036	0.0137183
923.114	0.0137450
923.193	0.0135075
923.271	0.0136419
923.349	0.0136205
923.427	0.0136659
923.505	0.0135810
923.583	0.0135385
923.661	0.0136388
923.739	0.0135948
923.818	0.0136171
923.896	0.0136527
923.974	0.0135831
924.052	0.0135432
924.130	0.0136583
924.208	0.0134659
924.286	0.0134996
924.364	0.0134642
924.443	0.0134703
924.521	0.0136691
924.599	0.0135448
924.677	0.0135376
924.755	0.0135999
924.833	0.0133664
924.911	0.0135391
924.989	0.0136304
925.068	0.0135510
925.146	0.0136566
925.224	0.0137129
925.302	0.0137220
925.380	0.0136671
925.458	0.0135573
925.536	0.0135375
925.614	0.0136599
925.693	0.0135035
925.771	0.0135285
925.849	0.0135927
925.927	0.0134859
926.005	0.0135909
926.083	0.0136638
926.161	0.0136602
926.239	0.0135931
926.318	0.0135773
926.396	0.0136660
926.474	0.0135870
926.552	0.0136705
926.630	0.0137487
926.708	0.0137345
926.786	0.0137448
926.864	0.0137421
926.943	0.0136542
927.021	0.0136179
927.099	0.0138586
927.177	0.0137617
927.255	0.0136980
927.333	0.0136818
927.411	0.0136051
927.489	0.0135396
927.568	0.0137882
927.646	0.0136783
927.724	0.0135809
927.802	0.0137408
927.880	0.0136303
927.958	0.0136987
928.036	0.0136080
928.114	0.0135244
928.193	0.0135374
928.271	0.0136299
928.349	0.0136997
928.427	0.0136289
928.505	0.0135065
928.583	0.0135376
928.661	0.0136852
928.739	0.0136111
928.818	0.0135991
928.896	0.0135778
928.974	0.0135099
929.052	0.0135084
929.130	0.0134949
929.208	0.0134802
929.286	0.0135158
929.364	0.0135769
929.443	0.0134663
929.521	0.0135444
929.599	0.0134975
929.677	0.0134614
929.755	0.0135496
929.833	0.0136220
929.911	0.0135033
929.989	0.0136392
930.068	0.0137880
930.146	0.0137267
930.224	0.0136974
930.302	0.0136786
930.380	0.0137575
930.458	0.0136636
930.536	0.0136044
930.614	0.0138132
930.693	0.0138318
930.771	0.0137841
930.849	0.0136777
930.927	0.0137600
931.005	0.0138397
931.083	0.0136740
931.161	0.0137193
931.239	0.0137860
931.318	0.0138162
931.396	0.0136354
931.474	0.0135411
931.552	0.0136653
931.630	0.0136377
931.708	0.0137091
931.786	0.0135476
931.864	0.0136002
931.943	0.0135397
932.021	0.0135435
932.099	0.0134068
932.177	0.0134637
932.255	0.0134086
932.333	0.0136508
932.411	0.0134333
932.489	0.0134856
932.568	0.0135891
932.646	0.0135497
932.724	0.0133958
932.802	0.0135380
932.880	0.0135595
932.958	0.0135836
933.036	0.0136771
933.114	0.0137386
933.193	0.0136729
933.271	0.0136884
933.349	0.0137524
933.427	0.0136533
933.505	0.0138226
933.583	0.0138132
933.661	0.0138161
933.739	0.0138428
933.818	0.0137676
933.896	0.0137192
933.974	0.0138368
934.052	0.0137484
934.130	0.0138165
934.208	0.0137102
934.286	0.0135971
934.364	0.0135796
934.443	0.0136691
934.521	0.0136749
934.599	0.0135808
934.677	0.0134593
934.755	0.0135555
934.833	0.0135059
934.911	0.0135201
934.989	0.0134145
935.068	0.0134724
935.146	0.0133698
935.224	0.0133939
935.302	0.0133932
935.380	0.0134132
935.458	0.0133755
935.536	0.0133579
935.614	0.0134795
935.693	0.0134673
935.771	0.0133696
935.849	0.0135172
935.927	0.0134641
936.005	0.0133665
936.083	0.0134435
936.161	0.0133920
936.239	0.0134608
936.318	0.0136577
936.396	0.0134099
936.474	0.0134046
936.552	0.0137267
936.630	0.0135813
936.708	0.0135094
936.786	0.0136369
936.864	0.0134254
936.943	0.0134757
937.021	0.0136116
937.099	0.0135601
937.177	0.0135990
937.255	0.0135113
937.333	0.0135351
937.411	0.0136635
937.489	0.0136887
937.568	0.0135052
937.646	0.0134585
937.724	0.0135850
937.802	0.0135413
937.880	0.0135288
937.958	0.0135353
938.036	0.0134006
938.114	0.0138079
938.193	0.0138283
938.271	0.0136948
938.349	0.0137021
938.427	0.0136199
938.505	0.0135683
938.583	0.0136345
938.661	0.0136501
938.739	0.0136973
938.818	0.0136953
938.896	0.0135764
938.974	0.0136502
939.052	0.0137260
939.130	0.0135946
939.208	0.0136366
939.286	0.0135974
939.364	0.0134853
939.443	0.0136362
939.521	0.0137228
939.599	0.0137210
939.677	0.0138302
939.755	0.0136275
939.833	0.0136089
939.911	0.0136031
939.989	0.0136066
940.068	0.0136669
940.146	0.0137381
940.224	0.0137699
940.302	0.0135909
940.380	0.0135961
940.458	0.0135904
940.536	0.0135938
940.614	0.0135088
940.693	0.0136461
940.771	0.0136769
940.849	0.0136449
940.927	0.0136398
941.005	0.0136710
941.083	0.0137792
941.161	0.0135256
941.239	0.0135887
941.318	0.0136834
941.396	0.0137167
941.474	0.0137961
941.552	0.0138052
941.630	0.0137453
941.708	0.0138377
941.786	0.0136520
941.864	0.0137309
941.943	0.0138291
942.021	0.0137158
942.099	0.0136730
942.177	0.0138351
942.255	0.0138345
942.333	0.0138572
942.411	0.0138663
942.489	0.0138344
942.568	0.0137216
942.646	0.0136373
942.724	0.0138425
942.802	0.0138126
942.880	0.0134794
942.958	0.0135654
943.036	0.0136149
943.114	0.0135921
943.193	0.0135224
943.271	0.0136073
943.349	0.0135353
943.427	0.0134808
943.505	0.0135982
943.583	0.0135247
943.661	0.0135931
943.739	0.0136205
943.818	0.0135551
943.896	0.0136218
943.974	0.0135788
944.052	0.0135085
944.130	0.0134576
944.208	0.0135129
944.286	0.0135709
944.364	0.0135848
944.443	0.0135339
944.521	0.0135880
944.599	0.0136330
944.677	0.0135269
944.755	0.0135480
944.833	0.0135551
944.911	0.0136514
944.989	0.0136072
945.068	0.0136020
945.146	0.0136192
945.224	0.0135677
945.302	0.0135497
945.380	0.0134976
945.458	0.0134380
945.536	0.0135005
945.614	0.0136031
945.693	0.0135936
945.771	0.0135729
945.849	0.0136272
945.927	0.0136606
946.005	0.0136707
946.083	0.0136735
946.161	0.0135683
946.239	0.0135489
946.318	0.0135470
946.396	0.0134394
946.474	0.0135487
946.552	0.0135774
946.630	0.0136033
946.708	0.0136446
946.786	0.0133965
946.864	0.0134411
946.943	0.0134839
947.021	0.0134436
947.099	0.0134142
947.177	0.0136003
947.255	0.0132814
947.333	0.0134299
947.411	0.0134578
947.489	0.0133781
947.568	0.0134479
947.646	0.0134264
947.724	0.0134017
947.802	0.0133876
947.880	0.0134988
947.958	0.0134850
948.036	0.0135636
948.114	0.0135858
948.193	0.0135976
948.271	0.0134797
948.349	0.0134950
948.427	0.0135269
948.505	0.0137264
948.583	0.0135995
948.661	0.0136675
948.739	0.0137511
948.818	0.0137987
948.896	0.0137536
948.974	0.0138309
949.052	0.0136787
949.130	0.0137900
949.208	0.0138207
949.286	0.0137514
949.364	0.0137189
949.443	0.0137764
949.521	0.0138213
949.599	0.0139452
949.677	0.0139391
949.755	0.0138008
949.833	0.0138751
949.911	0.0138057
949.989	0.0139159
950.068	0.0136383
950.146	0.0139149
950.224	0.0138503
950.302	0.0137569
950.380	0.0136441
950.458	0.0137915
950.536	0.0136427
950.614	0.0136959
950.693	0.0136140
950.771	0.0133721
950.849	0.0135730
950.927	0.0136097
951.005	0.0135406
951.083	0.0135805
951.161	0.0134901
951.239	0.0134562
951.318	0.0135018
951.396	0.0133945
951.474	0.0134199
951.552	0.0136222
951.630	0.0134727
951.708	0.0135455
951.786	0.0135430
951.864	0.0135097
951.943	0.0135188
952.021	0.0133956
952.099	0.0135435
952.177	0.0136082
952.255	0.0135420
952.333	0.0136494
952.411	0.0136105
952.489	0.0136533
952.568	0.0136222
952.646	0.0137051
952.724	0.0137498
952.802	0.0138226
952.880	0.0137868
952.958	0.0137852
953.036	0.0139433
953.114	0.0138647
953.193	0.0137881
953.271	0.0138207
953.349	0.0138811
953.427	0.0138786
953.505	0.0138136
953.583	0.0138448
953.661	0.0140051
953.739	0.0138689
953.818	0.0137170
953.896	0.0138276
953.974	0.0138696
954.052	0.0138296
954.130	0.0138946
954.208	0.0138415
954.286	0.0139560
954.364	0.0138506
954.443	0.0138637
954.521	0.0137781
954.599	0.0138903
954.677	0.0139077
954.755	0.0138210
954.833	0.0138168
954.911	0.0137347
954.989	0.0137959
955.068	0.0137182
955.146	0.0137481
955.224	0.0135806
955.302	0.0136829
955.380	0.0137001
955.458	0.0136967
955.536	0.0136796
955.614	0.0136443
955.693	0.0135805
955.771	0.0136948
955.849	0.0135632
955.927	0.0135416
956.005	0.0134872
956.083	0.0136392
956.161	0.0136594
956.239	0.0134624
956.318	0.0133459
956.396	0.0134566
956.474	0.0135617
956.552	0.0134770
956.630	0.0134094
956.708	0.0134350
956.786	0.0134460
956.864	0.0134650
956.943	0.0134799
957.021	0.0134193
957.099	0.0134930
957.177	0.0135385
957.255	0.0133760
957.333	0.0134660
957.411	0.0134936
957.489	0.0135867
957.568	0.0133905
957.646	0.0134312
957.724	0.0135618
957.802	0.0134201
957.880	0.0134124
957.958	0.0134246
958.036	0.0136024
958.114	0.0135112
958.193	0.0135426
958.271	0.0135708
958.349	0.0134992
958.427	0.0135380
958.505	0.0134695
958.583	0.0135580
958.661	0.0135500
958.739	0.0135712
958.818	0.0135268
958.896	0.0134774
958.974	0.0134119
959.052	0.0135617
959.130	0.0135531
959.208	0.0136592
959.286	0.0136386
959.364	0.0136540
959.443	0.0135464
959.521	0.0137210
959.599	0.0136527
959.677	0.0136556
959.755	0.0137879
959.833	0.0137615
959.911	0.0138141
