05/14/2022	16:44:12	Ver.	4.1	UNKNOWN
Optical Delay	639.989416	Delta X		0.078125	Sweeps	1	Scan Rate	0/0
Coordinates	Axis 1	NaN	Axis 2	NaN	Axis 3	NaN	Axis 4	NaN	Axis 5	NaN	Axis 6	0.000000
TX Power	0.000000	RX Power	0.000000

639.989	0.0140540
640.068	0.0142433
640.146	0.0141592
640.224	0.0142637
640.302	0.0143800
640.380	0.0141967
640.458	0.0141090
640.536	0.0143838
640.614	0.0143668
640.693	0.0142419
640.771	0.0143458
640.849	0.0144072
640.927	0.0143778
641.005	0.0142329
641.083	0.0143118
641.161	0.0143622
641.239	0.0142413
641.318	0.0141423
641.396	0.0141859
641.474	0.0142605
641.552	0.0142978
641.630	0.0141763
641.708	0.0141883
641.786	0.0141010
641.864	0.0141637
641.943	0.0140643
642.021	0.0140799
642.099	0.0141006
642.177	0.0141354
642.255	0.0140972
642.333	0.0140769
642.411	0.0140244
642.489	0.0141205
642.568	0.0140482
642.646	0.0141451
642.724	0.0141845
642.802	0.0141506
642.880	0.0141784
642.958	0.0139456
643.036	0.0139531
643.114	0.0139638
643.193	0.0139449
643.271	0.0139565
643.349	0.0140548
643.427	0.0141128
643.505	0.0139668
643.583	0.0140733
643.661	0.0140771
643.739	0.0140231
643.818	0.0140835
643.896	0.0139001
643.974	0.0138525
644.052	0.0140899
644.130	0.0141128
644.208	0.0139738
644.286	0.0140929
644.364	0.0140870
644.443	0.0140249
644.521	0.0139089
644.599	0.0141026
644.677	0.0140821
644.755	0.0139766
644.833	0.0139656
644.911	0.0139848
644.989	0.0139944
645.068	0.0140327
645.146	0.0139388
645.224	0.0139222
645.302	0.0138169
645.380	0.0140244
645.458	0.0139979
645.536	0.0138600
645.614	0.0138863
645.693	0.0137968
645.771	0.0140269
645.849	0.0139407
645.927	0.0138792
646.005	0.0139827
646.083	0.0140762
646.161	0.0138952
646.239	0.0139608
646.318	0.0138562
646.396	0.0138999
646.474	0.0137923
646.552	0.0139414
646.630	0.0139349
646.708	0.0139425
646.786	0.0139494
646.864	0.0138982
646.943	0.0139017
647.021	0.0138200
647.099	0.0139371
647.177	0.0137984
647.255	0.0138903
647.333	0.0137412
647.411	0.0137203
647.489	0.0138110
647.568	0.0137321
647.646	0.0136716
647.724	0.0138038
647.802	0.0138237
647.880	0.0136978
647.958	0.0138644
648.036	0.0138807
648.114	0.0138483
648.193	0.0137453
648.271	0.0136406
648.349	0.0137723
648.427	0.0138011
648.505	0.0137719
648.583	0.0137673
648.661	0.0137527
648.739	0.0136578
648.818	0.0137843
648.896	0.0137535
648.974	0.0138294
649.052	0.0138012
649.130	0.0137903
649.208	0.0137321
649.286	0.0139318
649.364	0.0137695
649.443	0.0137103
649.521	0.0137926
649.599	0.0137295
649.677	0.0137592
649.755	0.0139078
649.833	0.0138556
649.911	0.0137695
649.989	0.0138188
650.068	0.0138188
650.146	0.0139552
650.224	0.0139007
650.302	0.0138584
650.380	0.0137943
650.458	0.0137681
650.536	0.0139309
650.614	0.0138260
650.693	0.0137272
650.771	0.0138250
650.849	0.0137280
650.927	0.0138523
651.005	0.0138020
651.083	0.0138468
651.161	0.0139796
651.239	0.0137531
651.318	0.0136097
651.396	0.0138098
651.474	0.0137748
651.552	0.0138326
651.630	0.0137285
651.708	0.0138039
651.786	0.0138348
651.864	0.0137739
651.943	0.0139211
652.021	0.0138952
652.099	0.0136584
652.177	0.0137279
652.255	0.0137728
652.333	0.0138460
652.411	0.0138383
652.489	0.0138354
652.568	0.0138425
652.646	0.0138154
652.724	0.0137320
652.802	0.0138554
652.880	0.0139094
652.958	0.0138582
653.036	0.0139297
653.114	0.0136983
653.193	0.0138153
653.271	0.0137969
653.349	0.0137200
653.427	0.0137159
653.505	0.0137449
653.583	0.0136610
653.661	0.0138321
653.739	0.0136537
653.818	0.0137222
653.896	0.0137234
653.974	0.0137158
654.052	0.0138002
654.130	0.0135918
654.208	0.0135624
654.286	0.0136349
654.364	0.0136044
654.443	0.0135435
654.521	0.0135912
654.599	0.0137254
654.677	0.0134744
654.755	0.0135787
654.833	0.0137057
654.911	0.0134987
654.989	0.0136007
655.068	0.0136869
655.146	0.0135835
655.224	0.0137794
655.302	0.0136520
655.380	0.0135112
655.458	0.0137267
655.536	0.0136967
655.614	0.0136147
655.693	0.0136545
655.771	0.0136075
655.849	0.0136625
655.927	0.0137750
656.005	0.0136520
656.083	0.0136199
656.161	0.0135638
656.239	0.0136658
656.318	0.0137669
656.396	0.0136674
656.474	0.0137157
656.552	0.0137192
656.630	0.0137208
656.708	0.0134933
656.786	0.0136807
656.864	0.0136857
656.943	0.0136295
657.021	0.0136381
657.099	0.0137083
657.177	0.0138052
657.255	0.0136192
657.333	0.0136752
657.411	0.0138054
657.489	0.0137287
657.568	0.0138476
657.646	0.0138085
657.724	0.0137189
657.802	0.0137592
657.880	0.0138728
657.958	0.0138915
658.036	0.0137094
658.114	0.0136663
658.193	0.0137963
658.271	0.0138248
658.349	0.0137697
658.427	0.0137322
658.505	0.0140652
658.583	0.0138196
658.661	0.0136328
658.739	0.0137680
658.818	0.0137888
658.896	0.0137459
658.974	0.0137885
659.052	0.0139336
659.130	0.0137772
659.208	0.0137730
659.286	0.0139085
659.364	0.0138692
659.443	0.0138370
659.521	0.0137744
659.599	0.0137726
659.677	0.0139285
659.755	0.0138486
659.833	0.0139170
659.911	0.0138599
659.989	0.0139494
660.068	0.0139748
660.146	0.0138400
660.224	0.0139391
660.302	0.0140448
660.380	0.0140091
660.458	0.0138651
660.536	0.0140220
660.614	0.0138656
660.693	0.0138690
660.771	0.0140382
660.849	0.0139547
660.927	0.0140942
661.005	0.0138628
661.083	0.0139586
661.161	0.0139037
661.239	0.0140172
661.318	0.0139565
661.396	0.0138534
661.474	0.0139542
661.552	0.0141664
661.630	0.0139703
661.708	0.0138915
661.786	0.0139343
661.864	0.0140392
661.943	0.0140083
662.021	0.0139605
662.099	0.0140290
662.177	0.0139321
662.255	0.0139742
662.333	0.0140611
662.411	0.0140769
662.489	0.0138801
662.568	0.0140675
662.646	0.0139727
662.724	0.0138292
662.802	0.0138137
662.880	0.0140859
662.958	0.0141296
663.036	0.0140634
663.114	0.0140633
663.193	0.0140369
663.271	0.0141164
663.349	0.0140424
663.427	0.0140468
663.505	0.0141013
663.583	0.0140234
663.661	0.0140064
663.739	0.0140277
663.818	0.0141276
663.896	0.0141097
663.974	0.0139358
664.052	0.0139747
664.130	0.0140447
664.208	0.0140935
664.286	0.0141642
664.364	0.0141456
664.443	0.0140273
664.521	0.0141528
664.599	0.0140448
664.677	0.0140424
664.755	0.0141030
664.833	0.0140089
664.911	0.0141676
664.989	0.0139517
665.068	0.0139732
665.146	0.0141774
665.224	0.0140591
665.302	0.0139891
665.380	0.0138329
665.458	0.0138213
665.536	0.0139219
665.614	0.0137502
665.693	0.0137086
665.771	0.0137672
665.849	0.0138916
665.927	0.0139246
666.005	0.0137521
666.083	0.0137247
666.161	0.0139270
666.239	0.0138004
666.318	0.0139634
666.396	0.0139741
666.474	0.0139026
666.552	0.0140724
666.630	0.0140320
666.708	0.0141798
666.786	0.0142037
666.864	0.0141602
666.943	0.0142002
667.021	0.0141786
667.099	0.0141685
667.177	0.0142118
667.255	0.0143292
667.333	0.0144969
667.411	0.0142544
667.489	0.0140282
667.568	0.0140549
667.646	0.0140832
667.724	0.0140845
667.802	0.0141204
667.880	0.0139346
667.958	0.0138105
668.036	0.0138954
668.114	0.0139297
668.193	0.0138084
668.271	0.0137196
668.349	0.0137144
668.427	0.0137358
668.505	0.0137533
668.583	0.0138768
668.661	0.0138666
668.739	0.0139426
668.818	0.0139992
668.896	0.0140023
668.974	0.0140527
669.052	0.0141452
669.130	0.0141223
669.208	0.0142210
669.286	0.0143556
669.364	0.0142532
669.443	0.0142583
669.521	0.0143294
669.599	0.0143227
669.677	0.0141953
669.755	0.0141110
669.833	0.0140997
669.911	0.0140377
669.989	0.0140170
670.068	0.0138348
670.146	0.0138351
670.224	0.0137959
670.302	0.0137274
670.380	0.0135592
670.458	0.0135432
670.536	0.0134527
670.614	0.0133864
670.693	0.0133868
670.771	0.0135487
670.849	0.0135540
670.927	0.0134602
671.005	0.0136410
671.083	0.0136410
671.161	0.0137287
671.239	0.0137809
671.318	0.0138268
671.396	0.0140816
671.474	0.0141368
671.552	0.0142563
671.630	0.0144843
671.708	0.0144758
671.786	0.0145785
671.864	0.0145517
671.943	0.0145461
672.021	0.0146597
672.099	0.0145525
672.177	0.0146413
672.255	0.0145160
672.333	0.0144572
672.411	0.0142757
672.489	0.0141782
672.568	0.0139442
672.646	0.0139852
672.724	0.0138497
672.802	0.0134647
672.880	0.0134118
672.958	0.0133128
673.036	0.0131561
673.114	0.0130834
673.193	0.0129168
673.271	0.0129223
673.349	0.0126713
673.427	0.0129694
673.505	0.0128014
673.583	0.0128130
673.661	0.0128768
673.739	0.0129739
673.818	0.0132210
673.896	0.0134139
673.974	0.0133826
674.052	0.0136819
674.130	0.0137347
674.208	0.0140849
674.286	0.0142189
674.364	0.0144791
674.443	0.0144201
674.521	0.0146207
674.599	0.0146791
674.677	0.0149870
674.755	0.0148694
674.833	0.0148095
674.911	0.0150160
674.989	0.0149097
675.068	0.0149814
675.146	0.0146519
675.224	0.0147653
675.302	0.0146027
675.380	0.0144159
675.458	0.0142946
675.536	0.0140311
675.614	0.0137189
675.693	0.0135275
675.771	0.0133667
675.849	0.0131831
675.927	0.0128827
676.005	0.0124964
676.083	0.0124344
676.161	0.0121117
676.239	0.0121210
676.318	0.0119521
676.396	0.0119850
676.474	0.0119463
676.552	0.0119173
676.630	0.0119689
676.708	0.0119056
676.786	0.0120854
676.864	0.0122153
676.943	0.0123215
677.021	0.0126207
677.099	0.0127528
677.177	0.0130188
677.255	0.0131149
677.333	0.0134541
677.411	0.0135738
677.489	0.0138914
677.568	0.0140173
677.646	0.0141716
677.724	0.0144746
677.802	0.0144127
677.880	0.0145419
677.958	0.0146100
678.036	0.0146769
678.114	0.0147761
678.193	0.0147525
678.271	0.0146336
678.349	0.0147970
678.427	0.0146849
678.505	0.0148058
678.583	0.0147874
678.661	0.0144887
678.739	0.0146088
678.818	0.0144760
678.896	0.0144148
678.974	0.0142962
679.052	0.0144386
679.130	0.0143681
679.208	0.0142532
679.286	0.0141064
679.364	0.0140971
679.443	0.0140244
679.521	0.0140121
679.599	0.0138931
679.677	0.0136709
679.755	0.0136183
679.833	0.0135172
679.911	0.0132944
679.989	0.0132919
680.068	0.0129826
680.146	0.0128477
680.224	0.0127927
680.302	0.0127695
680.380	0.0124648
680.458	0.0123926
680.536	0.0123467
680.614	0.0123222
680.693	0.0122269
680.771	0.0122949
680.849	0.0122993
680.927	0.0123387
681.005	0.0124193
681.083	0.0124532
681.161	0.0125818
681.239	0.0126429
681.318	0.0129516
681.396	0.0130298
681.474	0.0134798
681.552	0.0136320
681.630	0.0138251
681.708	0.0142772
681.786	0.0143753
681.864	0.0145279
681.943	0.0147279
682.021	0.0152261
682.099	0.0154650
682.177	0.0155810
682.255	0.0158038
682.333	0.0160973
682.411	0.0159858
682.489	0.0161074
682.568	0.0162559
682.646	0.0163973
682.724	0.0164070
682.802	0.0163473
682.880	0.0161877
682.958	0.0163003
683.036	0.0161696
683.114	0.0160680
683.193	0.0158986
683.271	0.0158182
683.349	0.0157622
683.427	0.0154618
683.505	0.0152687
683.583	0.0149840
683.661	0.0147183
683.739	0.0144865
683.818	0.0143661
683.896	0.0140006
683.974	0.0135625
684.052	0.0135136
684.130	0.0131744
684.208	0.0127106
684.286	0.0124629
684.364	0.0122834
684.443	0.0121532
684.521	0.0118126
684.599	0.0116913
684.677	0.0116457
684.755	0.0113941
684.833	0.0114379
684.911	0.0114347
684.989	0.0114478
685.068	0.0113062
685.146	0.0115047
685.224	0.0116629
685.302	0.0118777
685.380	0.0119074
685.458	0.0121712
685.536	0.0125187
685.614	0.0128111
685.693	0.0130562
685.771	0.0134420
685.849	0.0138789
685.927	0.0140053
686.005	0.0142854
686.083	0.0146938
686.161	0.0148994
686.239	0.0152586
686.318	0.0153850
686.396	0.0155699
686.474	0.0156339
686.552	0.0156868
686.630	0.0158865
686.708	0.0158746
686.786	0.0159469
686.864	0.0158712
686.943	0.0158662
687.021	0.0157744
687.099	0.0157767
687.177	0.0156062
687.255	0.0155938
687.333	0.0153004
687.411	0.0153020
687.489	0.0151558
687.568	0.0150915
687.646	0.0150317
687.724	0.0149686
687.802	0.0148190
687.880	0.0145792
687.958	0.0146574
688.036	0.0144165
688.114	0.0143754
688.193	0.0142317
688.271	0.0138974
688.349	0.0138793
688.427	0.0137209
688.505	0.0136474
688.583	0.0134517
688.661	0.0133413
688.739	0.0133339
688.818	0.0132436
688.896	0.0130408
688.974	0.0130814
689.052	0.0130331
689.130	0.0128844
689.208	0.0127194
689.286	0.0127267
689.364	0.0126057
689.443	0.0125877
689.521	0.0123917
689.599	0.0122041
689.677	0.0121644
689.755	0.0122155
689.833	0.0122358
689.911	0.0122563
689.989	0.0120904
690.068	0.0124002
690.146	0.0126023
690.224	0.0123944
690.302	0.0127427
690.380	0.0129107
690.458	0.0128484
690.536	0.0130766
690.614	0.0132759
690.693	0.0133965
690.771	0.0136935
690.849	0.0135497
690.927	0.0137880
691.005	0.0138791
691.083	0.0139371
691.161	0.0141204
691.239	0.0141706
691.318	0.0140424
691.396	0.0141941
691.474	0.0143471
691.552	0.0144755
691.630	0.0143661
691.708	0.0144347
691.786	0.0145324
691.864	0.0146021
691.943	0.0146597
692.021	0.0146935
692.099	0.0149123
692.177	0.0149835
692.255	0.0150057
692.333	0.0151691
692.411	0.0151723
692.489	0.0153065
692.568	0.0155518
692.646	0.0155627
692.724	0.0156441
692.802	0.0157505
692.880	0.0158093
692.958	0.0158881
693.036	0.0159332
693.114	0.0157851
693.193	0.0158551
693.271	0.0158433
693.349	0.0157178
693.427	0.0156313
693.505	0.0154214
693.583	0.0154445
693.661	0.0150150
693.739	0.0148331
693.818	0.0147461
693.896	0.0144975
693.974	0.0142247
694.052	0.0137797
694.130	0.0135974
694.208	0.0133646
694.286	0.0130644
694.364	0.0126974
694.443	0.0124068
694.521	0.0120934
694.599	0.0117963
694.677	0.0115117
694.755	0.0113991
694.833	0.0112193
694.911	0.0108931
694.989	0.0108051
695.068	0.0108853
695.146	0.0107931
695.224	0.0108386
695.302	0.0108334
695.380	0.0110596
695.458	0.0112725
695.536	0.0113919
695.614	0.0117153
695.693	0.0118186
695.771	0.0120693
695.849	0.0126074
695.927	0.0129443
696.005	0.0133073
696.083	0.0137909
696.161	0.0142435
696.239	0.0146579
696.318	0.0150311
696.396	0.0153316
696.474	0.0156441
696.552	0.0160632
696.630	0.0163192
696.708	0.0164732
696.786	0.0166115
696.864	0.0165863
696.943	0.0167863
697.021	0.0168733
697.099	0.0167365
697.177	0.0168059
697.255	0.0166795
697.333	0.0167516
697.411	0.0163850
697.489	0.0163994
697.568	0.0161723
697.646	0.0161151
697.724	0.0158711
697.802	0.0157565
697.880	0.0156851
697.958	0.0153183
698.036	0.0152735
698.114	0.0150729
698.193	0.0148376
698.271	0.0145815
698.349	0.0145631
698.427	0.0143443
698.505	0.0141711
698.583	0.0140955
698.661	0.0139780
698.739	0.0139686
698.818	0.0137408
698.896	0.0135420
698.974	0.0134274
699.052	0.0133617
699.130	0.0132226
699.208	0.0128381
699.286	0.0129284
699.364	0.0128561
699.443	0.0126487
699.521	0.0124588
699.599	0.0124893
699.677	0.0125642
699.755	0.0125050
699.833	0.0122295
699.911	0.0121563
699.989	0.0123402
700.068	0.0123100
700.146	0.0122014
700.224	0.0122112
700.302	0.0121805
700.380	0.0121143
700.458	0.0120085
700.536	0.0119926
700.614	0.0119957
700.693	0.0120508
700.771	0.0120953
700.849	0.0123299
700.927	0.0122952
701.005	0.0124137
701.083	0.0126059
701.161	0.0129193
701.239	0.0130445
701.318	0.0132397
701.396	0.0134735
701.474	0.0137676
701.552	0.0140688
701.630	0.0142738
701.708	0.0144074
701.786	0.0147815
701.864	0.0149474
701.943	0.0151220
702.021	0.0153592
702.099	0.0155908
702.177	0.0156976
702.255	0.0157854
702.333	0.0158590
702.411	0.0159003
702.489	0.0159064
702.568	0.0160447
702.646	0.0159488
702.724	0.0160509
702.802	0.0160628
702.880	0.0160559
702.958	0.0159315
703.036	0.0158733
703.114	0.0158283
703.193	0.0157421
703.271	0.0155776
703.349	0.0154790
703.427	0.0154285
703.505	0.0153339
703.583	0.0152383
703.661	0.0151442
703.739	0.0150355
703.818	0.0149895
703.896	0.0149629
703.974	0.0147759
704.052	0.0144786
704.130	0.0143753
704.208	0.0142220
704.286	0.0140041
704.364	0.0136086
704.443	0.0135329
704.521	0.0133350
704.599	0.0128545
704.677	0.0126994
704.755	0.0124783
704.833	0.0121906
704.911	0.0119014
704.989	0.0118192
705.068	0.0115545
705.146	0.0114180
705.224	0.0113334
705.302	0.0114413
705.380	0.0114781
705.458	0.0113917
705.536	0.0114916
705.614	0.0116582
705.693	0.0119233
705.771	0.0120275
705.849	0.0122799
705.927	0.0125787
706.005	0.0127950
706.083	0.0127412
706.161	0.0132159
706.239	0.0134731
706.318	0.0136226
706.396	0.0138213
706.474	0.0141263
706.552	0.0142400
706.630	0.0144438
706.708	0.0145534
706.786	0.0146041
706.864	0.0148361
706.943	0.0148783
707.021	0.0151200
707.099	0.0151339
707.177	0.0151543
707.255	0.0150473
707.333	0.0152265
707.411	0.0152666
707.489	0.0150542
707.568	0.0150451
707.646	0.0150156
707.724	0.0148829
707.802	0.0147738
707.880	0.0146606
707.958	0.0145102
708.036	0.0144862
708.114	0.0144106
708.193	0.0142497
708.271	0.0141908
708.349	0.0140992
708.427	0.0139436
708.505	0.0139453
708.583	0.0138422
708.661	0.0138956
708.739	0.0137659
708.818	0.0137435
708.896	0.0136385
708.974	0.0136272
709.052	0.0137227
709.130	0.0136414
709.208	0.0136670
709.286	0.0138219
709.364	0.0138684
709.443	0.0139606
709.521	0.0141177
709.599	0.0141385
709.677	0.0142524
709.755	0.0145296
709.833	0.0144746
709.911	0.0146394
709.989	0.0145501
710.068	0.0145735
710.146	0.0145617
710.224	0.0145343
710.302	0.0143594
710.380	0.0142650
710.458	0.0141032
710.536	0.0140598
710.614	0.0138230
710.693	0.0135981
710.771	0.0134014
710.849	0.0133331
710.927	0.0133211
711.005	0.0131408
711.083	0.0132185
711.161	0.0132176
711.239	0.0131885
711.318	0.0131921
711.396	0.0133601
711.474	0.0134206
711.552	0.0133830
711.630	0.0136294
711.708	0.0135492
711.786	0.0135749
711.864	0.0137217
711.943	0.0135710
712.021	0.0135218
712.099	0.0136886
712.177	0.0134126
712.255	0.0133891
712.333	0.0134454
712.411	0.0131659
712.489	0.0132426
712.568	0.0131510
712.646	0.0129527
712.724	0.0131089
712.802	0.0131024
712.880	0.0130187
712.958	0.0130881
713.036	0.0129906
713.114	0.0130119
713.193	0.0130885
713.271	0.0132010
713.349	0.0132745
713.427	0.0133848
713.505	0.0136572
713.583	0.0138904
713.661	0.0140483
713.739	0.0142570
713.818	0.0144035
713.896	0.0147255
713.974	0.0149104
714.052	0.0149374
714.130	0.0150919
714.208	0.0153199
714.286	0.0154928
714.364	0.0154945
714.443	0.0154871
714.521	0.0156255
714.599	0.0153848
714.677	0.0153980
714.755	0.0154563
714.833	0.0155576
714.911	0.0154700
714.989	0.0154879
715.068	0.0155009
715.146	0.0155058
715.224	0.0152506
715.302	0.0153510
715.380	0.0153247
715.458	0.0153898
715.536	0.0152837
715.614	0.0153761
715.693	0.0153625
715.771	0.0151624
715.849	0.0151080
715.927	0.0152408
716.005	0.0148969
716.083	0.0148985
716.161	0.0148139
716.239	0.0145149
716.318	0.0143121
716.396	0.0140099
716.474	0.0138745
716.552	0.0136279
716.630	0.0134309
716.708	0.0133315
716.786	0.0130939
716.864	0.0129730
716.943	0.0127893
717.021	0.0125844
717.099	0.0124683
717.177	0.0126181
717.255	0.0124744
717.333	0.0123216
717.411	0.0123106
717.489	0.0122942
717.568	0.0122182
717.646	0.0123930
717.724	0.0123989
717.802	0.0123817
717.880	0.0124863
717.958	0.0125279
718.036	0.0124403
718.114	0.0123133
718.193	0.0125240
718.271	0.0126118
718.349	0.0125034
718.427	0.0126077
718.505	0.0127547
718.583	0.0126344
718.661	0.0127782
718.739	0.0129012
718.818	0.0130962
718.896	0.0132298
718.974	0.0134541
719.052	0.0134158
719.130	0.0136663
719.208	0.0139838
719.286	0.0141770
719.364	0.0144247
719.443	0.0146887
719.521	0.0145947
719.599	0.0150342
719.677	0.0150501
719.755	0.0152463
719.833	0.0153574
719.911	0.0155250
719.989	0.0154713
720.068	0.0155939
720.146	0.0156284
720.224	0.0156245
720.302	0.0156145
720.380	0.0155321
720.458	0.0154976
720.536	0.0153713
720.614	0.0153841
720.693	0.0152499
720.771	0.0150761
720.849	0.0150140
720.927	0.0149749
721.005	0.0149173
721.083	0.0146841
721.161	0.0146738
721.239	0.0146947
721.318	0.0144653
721.396	0.0143246
721.474	0.0142746
721.552	0.0142275
721.630	0.0141218
721.708	0.0141303
721.786	0.0139606
721.864	0.0138055
721.943	0.0139231
722.021	0.0137218
722.099	0.0136982
722.177	0.0137192
722.255	0.0137315
722.333	0.0136521
722.411	0.0135534
722.489	0.0135460
722.568	0.0134343
722.646	0.0133417
722.724	0.0132973
722.802	0.0132333
722.880	0.0132625
722.958	0.0131004
723.036	0.0131878
723.114	0.0131954
723.193	0.0130965
723.271	0.0129566
723.349	0.0130171
723.427	0.0130331
723.505	0.0130620
723.583	0.0128602
723.661	0.0128489
723.739	0.0128519
723.818	0.0129099
723.896	0.0126359
723.974	0.0127100
724.052	0.0129131
724.130	0.0127394
724.208	0.0126495
724.286	0.0127233
724.364	0.0128205
724.443	0.0128197
724.521	0.0128812
724.599	0.0129996
724.677	0.0127939
724.755	0.0131631
724.833	0.0131625
724.911	0.0132814
724.989	0.0132620
725.068	0.0136491
725.146	0.0137001
725.224	0.0138163
725.302	0.0140640
725.380	0.0142771
725.458	0.0144109
725.536	0.0145181
725.614	0.0148576
725.693	0.0150416
725.771	0.0151578
725.849	0.0152828
725.927	0.0154208
726.005	0.0154897
726.083	0.0155974
726.161	0.0157034
726.239	0.0157085
726.318	0.0156664
726.396	0.0157822
726.474	0.0159116
726.552	0.0158709
726.630	0.0156219
726.708	0.0157799
726.786	0.0157349
726.864	0.0156696
726.943	0.0155269
727.021	0.0155206
727.099	0.0154000
727.177	0.0152605
727.255	0.0151692
727.333	0.0149777
727.411	0.0149702
727.489	0.0149191
727.568	0.0147339
727.646	0.0145164
727.724	0.0143024
727.802	0.0140813
727.880	0.0139373
727.958	0.0137604
728.036	0.0135739
728.114	0.0134129
728.193	0.0131428
728.271	0.0129263
728.349	0.0127322
728.427	0.0127304
728.505	0.0126284
728.583	0.0126376
728.661	0.0124401
728.739	0.0123421
728.818	0.0122902
728.896	0.0122440
728.974	0.0122507
729.052	0.0123837
729.130	0.0123637
729.208	0.0124297
729.286	0.0123624
729.364	0.0126146
729.443	0.0125963
729.521	0.0125188
729.599	0.0126780
729.677	0.0124734
729.755	0.0126203
729.833	0.0124454
729.911	0.0124500
729.989	0.0126295
730.068	0.0125824
730.146	0.0125455
730.224	0.0126220
730.302	0.0127552
730.380	0.0129040
730.458	0.0129040
730.536	0.0131587
730.614	0.0133735
730.693	0.0134740
730.771	0.0138223
730.849	0.0140941
730.927	0.0142039
731.005	0.0144376
731.083	0.0146475
731.161	0.0149013
731.239	0.0150607
731.318	0.0152781
731.396	0.0152799
731.474	0.0154309
731.552	0.0155276
731.630	0.0154462
731.708	0.0155356
731.786	0.0156214
731.864	0.0155607
731.943	0.0156101
732.021	0.0154845
732.099	0.0152957
732.177	0.0153700
732.255	0.0154766
732.333	0.0153322
732.411	0.0152101
732.489	0.0151285
732.568	0.0151348
732.646	0.0150786
732.724	0.0150976
732.802	0.0148550
732.880	0.0148082
732.958	0.0145508
733.036	0.0145905
733.114	0.0144370
733.193	0.0143967
733.271	0.0141658
733.349	0.0139944
733.427	0.0140041
733.505	0.0138094
733.583	0.0137556
733.661	0.0135376
733.739	0.0133340
733.818	0.0132404
733.896	0.0132227
733.974	0.0130406
734.052	0.0129284
734.130	0.0130275
734.208	0.0128587
734.286	0.0128301
734.364	0.0126780
734.443	0.0129472
734.521	0.0129356
734.599	0.0129027
734.677	0.0129027
734.755	0.0130672
734.833	0.0130286
734.911	0.0130802
734.989	0.0130537
735.068	0.0130752
735.146	0.0130093
735.224	0.0130621
735.302	0.0129874
735.380	0.0128465
735.458	0.0128725
735.536	0.0128461
735.614	0.0128273
735.693	0.0127420
735.771	0.0129134
735.849	0.0128072
735.927	0.0128459
736.005	0.0128896
736.083	0.0130151
736.161	0.0131640
736.239	0.0131871
736.318	0.0132367
736.396	0.0134288
736.474	0.0137603
736.552	0.0139693
736.630	0.0140705
736.708	0.0141218
736.786	0.0143471
736.864	0.0145159
736.943	0.0147154
737.021	0.0148773
737.099	0.0150225
737.177	0.0151794
737.255	0.0153624
737.333	0.0152987
737.411	0.0152715
737.489	0.0153288
737.568	0.0153585
737.646	0.0152974
737.724	0.0154805
737.802	0.0152654
737.880	0.0150136
737.958	0.0150102
738.036	0.0149287
738.114	0.0148734
738.193	0.0147065
738.271	0.0144759
738.349	0.0144582
738.427	0.0145825
738.505	0.0143988
738.583	0.0143019
738.661	0.0144425
738.739	0.0144775
738.818	0.0145244
738.896	0.0142472
738.974	0.0141734
739.052	0.0141501
739.130	0.0142386
739.208	0.0141370
739.286	0.0142098
739.364	0.0141154
739.443	0.0141986
739.521	0.0139720
739.599	0.0138876
739.677	0.0140039
739.755	0.0139423
739.833	0.0137840
739.911	0.0135625
739.989	0.0135761
740.068	0.0135603
740.146	0.0136265
740.224	0.0134985
740.302	0.0134514
740.380	0.0135065
740.458	0.0133009
740.536	0.0133440
740.614	0.0133366
740.693	0.0134138
740.771	0.0132796
740.849	0.0132079
740.927	0.0130389
741.005	0.0129717
741.083	0.0129917
741.161	0.0131424
741.239	0.0130988
741.318	0.0129976
741.396	0.0130685
741.474	0.0130848
741.552	0.0130329
741.630	0.0132011
741.708	0.0132028
741.786	0.0132564
741.864	0.0133360
741.943	0.0133990
742.021	0.0134045
742.099	0.0134872
742.177	0.0136226
742.255	0.0137576
742.333	0.0138752
742.411	0.0138957
742.489	0.0140475
742.568	0.0141004
742.646	0.0141717
742.724	0.0142677
742.802	0.0144513
742.880	0.0144748
742.958	0.0144122
743.036	0.0146017
743.114	0.0146347
743.193	0.0145904
743.271	0.0145793
743.349	0.0146223
743.427	0.0146077
743.505	0.0145586
743.583	0.0145011
743.661	0.0145512
743.739	0.0145738
743.818	0.0146198
743.896	0.0145930
743.974	0.0145065
744.052	0.0145073
744.130	0.0143721
744.208	0.0145779
744.286	0.0144586
744.364	0.0146442
744.443	0.0144539
744.521	0.0146409
744.599	0.0145932
744.677	0.0145815
744.755	0.0147156
744.833	0.0147405
744.911	0.0146399
744.989	0.0145927
745.068	0.0144081
745.146	0.0144424
745.224	0.0143725
745.302	0.0144891
745.380	0.0143173
745.458	0.0140577
745.536	0.0141736
745.614	0.0140670
745.693	0.0141005
745.771	0.0138014
745.849	0.0136599
745.927	0.0136143
746.005	0.0134229
746.083	0.0132217
746.161	0.0132029
746.239	0.0131002
746.318	0.0131432
746.396	0.0128900
746.474	0.0128356
746.552	0.0128680
746.630	0.0128055
746.708	0.0128869
746.786	0.0127259
746.864	0.0127958
746.943	0.0128896
747.021	0.0129812
747.099	0.0129655
747.177	0.0128683
747.255	0.0128059
747.333	0.0129879
747.411	0.0130662
747.489	0.0132132
747.568	0.0130951
747.646	0.0132062
747.724	0.0133444
747.802	0.0133276
747.880	0.0135356
747.958	0.0136266
748.036	0.0135372
748.114	0.0137444
748.193	0.0137674
748.271	0.0139738
748.349	0.0140082
748.427	0.0140582
748.505	0.0141106
748.583	0.0142415
748.661	0.0142348
748.739	0.0143251
748.818	0.0143456
748.896	0.0144792
748.974	0.0144134
749.052	0.0144308
749.130	0.0144622
749.208	0.0145174
749.286	0.0145359
749.364	0.0145075
749.443	0.0145916
749.521	0.0145101
749.599	0.0145279
749.677	0.0144765
749.755	0.0145016
749.833	0.0145352
749.911	0.0145476
749.989	0.0144789
750.068	0.0141978
750.146	0.0141684
750.224	0.0142514
750.302	0.0141525
750.380	0.0139268
750.458	0.0139924
750.536	0.0138797
750.614	0.0138017
750.693	0.0137899
750.771	0.0136958
750.849	0.0136798
750.927	0.0134678
751.005	0.0134877
751.083	0.0134811
751.161	0.0136656
751.239	0.0134597
751.318	0.0134396
751.396	0.0135308
751.474	0.0136398
751.552	0.0133266
751.630	0.0134991
751.708	0.0134853
751.786	0.0136027
751.864	0.0134787
751.943	0.0133904
752.021	0.0134890
752.099	0.0133572
752.177	0.0133743
752.255	0.0134344
752.333	0.0134801
752.411	0.0133251
752.489	0.0132829
752.568	0.0133430
752.646	0.0133956
752.724	0.0134473
752.802	0.0133024
752.880	0.0134890
752.958	0.0134529
753.036	0.0134303
753.114	0.0135527
753.193	0.0135148
753.271	0.0135021
753.349	0.0135432
753.427	0.0137194
753.505	0.0137907
753.583	0.0137550
753.661	0.0136680
753.739	0.0138306
753.818	0.0138735
753.896	0.0140099
753.974	0.0138878
754.052	0.0140369
754.130	0.0139722
754.208	0.0140273
754.286	0.0140874
754.364	0.0140515
754.443	0.0141569
754.521	0.0143039
754.599	0.0142812
754.677	0.0141042
754.755	0.0139639
754.833	0.0142368
754.911	0.0142829
754.989	0.0143661
755.068	0.0142715
755.146	0.0143536
755.224	0.0142921
755.302	0.0142127
755.380	0.0142143
755.458	0.0143042
755.536	0.0143665
755.614	0.0143404
755.693	0.0141902
755.771	0.0141661
755.849	0.0141797
755.927	0.0140976
756.005	0.0139534
756.083	0.0138654
756.161	0.0138190
756.239	0.0136856
756.318	0.0137103
756.396	0.0136814
756.474	0.0136892
756.552	0.0136877
756.630	0.0136548
756.708	0.0134641
756.786	0.0135869
756.864	0.0138871
756.943	0.0138853
757.021	0.0138762
757.099	0.0138494
757.177	0.0139825
757.255	0.0141062
757.333	0.0139948
757.411	0.0141682
757.489	0.0143127
757.568	0.0142918
757.646	0.0142760
757.724	0.0143864
757.802	0.0142563
757.880	0.0141458
757.958	0.0142181
758.036	0.0142171
758.114	0.0141736
758.193	0.0141733
758.271	0.0139782
758.349	0.0140966
758.427	0.0139748
758.505	0.0139265
758.583	0.0140195
758.661	0.0138356
758.739	0.0136871
758.818	0.0136482
758.896	0.0136987
758.974	0.0137809
759.052	0.0137328
759.130	0.0136440
759.208	0.0135571
759.286	0.0134354
759.364	0.0132815
759.443	0.0135228
759.521	0.0134569
759.599	0.0134606
759.677	0.0135988
759.755	0.0134607
759.833	0.0135952
759.911	0.0133717
759.989	0.0134273
760.068	0.0135040
760.146	0.0134941
760.224	0.0135053
760.302	0.0134956
760.380	0.0136046
760.458	0.0136621
760.536	0.0137496
760.614	0.0137095
760.693	0.0137930
760.771	0.0138091
760.849	0.0139393
760.927	0.0140050
761.005	0.0140143
761.083	0.0140218
761.161	0.0142125
761.239	0.0142205
761.318	0.0143074
761.396	0.0142887
761.474	0.0141434
761.552	0.0142932
761.630	0.0143201
761.708	0.0145118
761.786	0.0143975
761.864	0.0142274
761.943	0.0144304
762.021	0.0144462
762.099	0.0143784
762.177	0.0144577
762.255	0.0143372
762.333	0.0142385
762.411	0.0143051
762.489	0.0143227
762.568	0.0142025
762.646	0.0142345
762.724	0.0142335
762.802	0.0141409
762.880	0.0142172
762.958	0.0141383
763.036	0.0141648
763.114	0.0142724
763.193	0.0141019
763.271	0.0141404
763.349	0.0142096
763.427	0.0141622
763.505	0.0138744
763.583	0.0138776
763.661	0.0140007
763.739	0.0139138
763.818	0.0138664
763.896	0.0139011
763.974	0.0137611
764.052	0.0138306
764.130	0.0138929
764.208	0.0138142
764.286	0.0137952
764.364	0.0137920
764.443	0.0137182
764.521	0.0137249
764.599	0.0136890
764.677	0.0137447
764.755	0.0136843
764.833	0.0137730
764.911	0.0136279
764.989	0.0136482
765.068	0.0138210
765.146	0.0138251
765.224	0.0137224
765.302	0.0137007
765.380	0.0139211
765.458	0.0139761
765.536	0.0140675
765.614	0.0140520
765.693	0.0142599
765.771	0.0141011
765.849	0.0140572
765.927	0.0139927
766.005	0.0142252
766.083	0.0142236
766.161	0.0143032
766.239	0.0141702
766.318	0.0142551
766.396	0.0142265
766.474	0.0141163
766.552	0.0140050
766.630	0.0140639
766.708	0.0141027
766.786	0.0141531
766.864	0.0139352
766.943	0.0138982
767.021	0.0140788
767.099	0.0141657
767.177	0.0141469
767.255	0.0138430
767.333	0.0140517
767.411	0.0140686
767.489	0.0141192
767.568	0.0139620
767.646	0.0139370
767.724	0.0140242
767.802	0.0140740
767.880	0.0139174
767.958	0.0138898
768.036	0.0139497
768.114	0.0138483
768.193	0.0138142
768.271	0.0138105
768.349	0.0137511
768.427	0.0136283
768.505	0.0138316
768.583	0.0137924
768.661	0.0137216
768.739	0.0139237
768.818	0.0139338
768.896	0.0138223
768.974	0.0138593
769.052	0.0137587
769.130	0.0137278
769.208	0.0136967
769.286	0.0137321
769.364	0.0136010
769.443	0.0135936
769.521	0.0136943
769.599	0.0137275
769.677	0.0135240
769.755	0.0136617
769.833	0.0134177
769.911	0.0136169
769.989	0.0135893
770.068	0.0135104
770.146	0.0136948
770.224	0.0136734
770.302	0.0136256
770.380	0.0137194
770.458	0.0138072
770.536	0.0137863
770.614	0.0139458
770.693	0.0140522
770.771	0.0140063
770.849	0.0141976
770.927	0.0141842
771.005	0.0141137
771.083	0.0141483
771.161	0.0140681
771.239	0.0141801
771.318	0.0141549
771.396	0.0142656
771.474	0.0143007
771.552	0.0142673
771.630	0.0142384
771.708	0.0143069
771.786	0.0142614
771.864	0.0141751
771.943	0.0141013
772.021	0.0143124
772.099	0.0142922
772.177	0.0142767
772.255	0.0142244
772.333	0.0141602
772.411	0.0141401
772.489	0.0140561
772.568	0.0140306
772.646	0.0139342
772.724	0.0138924
772.802	0.0140768
772.880	0.0137727
772.958	0.0137266
773.036	0.0137507
773.114	0.0136913
773.193	0.0135917
773.271	0.0135703
773.349	0.0133683
773.427	0.0134431
773.505	0.0134723
773.583	0.0135000
773.661	0.0134116
773.739	0.0134891
773.818	0.0135309
773.896	0.0134569
773.974	0.0135652
774.052	0.0135572
774.130	0.0136400
774.208	0.0137531
774.286	0.0137230
774.364	0.0137871
774.443	0.0138492
774.521	0.0139046
774.599	0.0139854
774.677	0.0139594
774.755	0.0140768
774.833	0.0141367
774.911	0.0141392
774.989	0.0142141
775.068	0.0142476
775.146	0.0142726
775.224	0.0142280
775.302	0.0143961
775.380	0.0144246
775.458	0.0144926
775.536	0.0144180
775.614	0.0143678
775.693	0.0142972
775.771	0.0144643
775.849	0.0144888
775.927	0.0144476
776.005	0.0143285
776.083	0.0143006
776.161	0.0143304
776.239	0.0142130
776.318	0.0141558
776.396	0.0142564
776.474	0.0141018
776.552	0.0140179
776.630	0.0139742
776.708	0.0138341
776.786	0.0138648
776.864	0.0137707
776.943	0.0136979
777.021	0.0136327
777.099	0.0136982
777.177	0.0136714
777.255	0.0135175
777.333	0.0132436
777.411	0.0133472
777.489	0.0135654
777.568	0.0134872
777.646	0.0133986
777.724	0.0133580
777.802	0.0132851
777.880	0.0134328
777.958	0.0134174
778.036	0.0133906
778.114	0.0135366
778.193	0.0133880
778.271	0.0135374
778.349	0.0136407
778.427	0.0133778
778.505	0.0135332
778.583	0.0137521
778.661	0.0138441
778.739	0.0138464
778.818	0.0139207
778.896	0.0138206
778.974	0.0137986
779.052	0.0139340
779.130	0.0140958
779.208	0.0140335
779.286	0.0142118
779.364	0.0140090
779.443	0.0140275
779.521	0.0142159
779.599	0.0140814
779.677	0.0140826
779.755	0.0142722
779.833	0.0141422
779.911	0.0141896
779.989	0.0141716
780.068	0.0141733
780.146	0.0141488
780.224	0.0140364
780.302	0.0140422
780.380	0.0140828
780.458	0.0139067
780.536	0.0138335
780.614	0.0138426
780.693	0.0139610
780.771	0.0139874
780.849	0.0138406
780.927	0.0136697
781.005	0.0137050
781.083	0.0136378
781.161	0.0137028
781.239	0.0137247
781.318	0.0136324
781.396	0.0136866
781.474	0.0135640
781.552	0.0135975
781.630	0.0136405
781.708	0.0135950
781.786	0.0135090
781.864	0.0137567
781.943	0.0137730
782.021	0.0136378
782.099	0.0138179
782.177	0.0136404
782.255	0.0136640
782.333	0.0138399
782.411	0.0139027
782.489	0.0140406
782.568	0.0138363
782.646	0.0138226
782.724	0.0138628
782.802	0.0140251
782.880	0.0139359
782.958	0.0139368
783.036	0.0139976
783.114	0.0139362
783.193	0.0139111
783.271	0.0139914
783.349	0.0138477
783.427	0.0138988
783.505	0.0138904
783.583	0.0141748
783.661	0.0141116
783.739	0.0142246
783.818	0.0142024
783.896	0.0141228
783.974	0.0142539
784.052	0.0142074
784.130	0.0143011
784.208	0.0141872
784.286	0.0143536
784.364	0.0143255
784.443	0.0142902
784.521	0.0142967
784.599	0.0143710
784.677	0.0143636
784.755	0.0144489
784.833	0.0141927
784.911	0.0143365
784.989	0.0141496
785.068	0.0140729
785.146	0.0142354
785.224	0.0142381
785.302	0.0141522
785.380	0.0142107
785.458	0.0139899
785.536	0.0138432
785.614	0.0139713
785.693	0.0138060
785.771	0.0140567
785.849	0.0138352
785.927	0.0137415
786.005	0.0137091
786.083	0.0136424
786.161	0.0137295
786.239	0.0136032
786.318	0.0135918
786.396	0.0135898
786.474	0.0135486
786.552	0.0136212
786.630	0.0135150
786.708	0.0134206
786.786	0.0135512
786.864	0.0134399
786.943	0.0134319
787.021	0.0134016
787.099	0.0135449
787.177	0.0135621
787.255	0.0135016
787.333	0.0136346
787.411	0.0135983
787.489	0.0137191
787.568	0.0137794
787.646	0.0137508
787.724	0.0138333
787.802	0.0138779
787.880	0.0137432
787.958	0.0139146
788.036	0.0139706
788.114	0.0139370
788.193	0.0140512
788.271	0.0142211
788.349	0.0141602
788.427	0.0141818
788.505	0.0140563
788.583	0.0142489
788.661	0.0141417
788.739	0.0142772
788.818	0.0141933
788.896	0.0141428
788.974	0.0144022
789.052	0.0143634
789.130	0.0143090
789.208	0.0143245
789.286	0.0143187
789.364	0.0143311
789.443	0.0142400
789.521	0.0144399
789.599	0.0145180
789.677	0.0144286
789.755	0.0143951
789.833	0.0143176
789.911	0.0142455
789.989	0.0141777
790.068	0.0140603
790.146	0.0140910
790.224	0.0139723
790.302	0.0139407
790.380	0.0138190
790.458	0.0138772
790.536	0.0137411
790.614	0.0136929
790.693	0.0137248
790.771	0.0137286
790.849	0.0135502
790.927	0.0135173
791.005	0.0134547
791.083	0.0135576
791.161	0.0135803
791.239	0.0135292
791.318	0.0133761
791.396	0.0132441
791.474	0.0134185
791.552	0.0133848
791.630	0.0133433
791.708	0.0135177
791.786	0.0132333
791.864	0.0133357
791.943	0.0134867
792.021	0.0134548
792.099	0.0133850
792.177	0.0134235
792.255	0.0135719
792.333	0.0136642
792.411	0.0136511
792.489	0.0137922
792.568	0.0138963
792.646	0.0138916
792.724	0.0138688
792.802	0.0140134
792.880	0.0141699
792.958	0.0140301
793.036	0.0140172
793.114	0.0141640
793.193	0.0142635
793.271	0.0143908
793.349	0.0141599
793.427	0.0141793
793.505	0.0142616
793.583	0.0142873
793.661	0.0144479
793.739	0.0143961
793.818	0.0144610
793.896	0.0143476
793.974	0.0143661
794.052	0.0143584
794.130	0.0144550
794.208	0.0145403
794.286	0.0142931
794.364	0.0144463
794.443	0.0143518
794.521	0.0142268
794.599	0.0143780
794.677	0.0143864
794.755	0.0141927
794.833	0.0140793
794.911	0.0141800
794.989	0.0141710
795.068	0.0142473
795.146	0.0139426
795.224	0.0140495
795.302	0.0139035
795.380	0.0138998
795.458	0.0140715
795.536	0.0139571
795.614	0.0138589
795.693	0.0139991
795.771	0.0139140
795.849	0.0137723
795.927	0.0137783
796.005	0.0137886
796.083	0.0139947
796.161	0.0139516
796.239	0.0138493
796.318	0.0138550
796.396	0.0138588
796.474	0.0138735
796.552	0.0136961
796.630	0.0137556
796.708	0.0138290
796.786	0.0136983
796.864	0.0138073
796.943	0.0139046
797.021	0.0136418
797.099	0.0136387
797.177	0.0136829
797.255	0.0137374
797.333	0.0137009
797.411	0.0137013
797.489	0.0138361
797.568	0.0136286
797.646	0.0138248
797.724	0.0137325
797.802	0.0138408
797.880	0.0140848
797.958	0.0139325
798.036	0.0138745
798.114	0.0140195
798.193	0.0139481
798.271	0.0140325
798.349	0.0140680
798.427	0.0141248
798.505	0.0142339
798.583	0.0141431
798.661	0.0141580
798.739	0.0141125
798.818	0.0143003
798.896	0.0144720
798.974	0.0142409
799.052	0.0143458
799.130	0.0142482
799.208	0.0142468
799.286	0.0144310
799.364	0.0143492
799.443	0.0144820
799.521	0.0143681
799.599	0.0143985
799.677	0.0144103
799.755	0.0142371
799.833	0.0142339
799.911	0.0143679
799.989	0.0141788
800.068	0.0140557
800.146	0.0143184
800.224	0.0141961
800.302	0.0140100
800.380	0.0141537
800.458	0.0140324
800.536	0.0140237
800.614	0.0140627
800.693	0.0142517
800.771	0.0138068
800.849	0.0138488
800.927	0.0138631
801.005	0.0138036
801.083	0.0137772
801.161	0.0137962
801.239	0.0137709
801.318	0.0135438
801.396	0.0135297
801.474	0.0134732
801.552	0.0134553
801.630	0.0133946
801.708	0.0133904
801.786	0.0133361
801.864	0.0131928
801.943	0.0132868
802.021	0.0132281
802.099	0.0130824
802.177	0.0131468
802.255	0.0132775
802.333	0.0132821
802.411	0.0133543
802.489	0.0132391
802.568	0.0132172
802.646	0.0133271
802.724	0.0134583
802.802	0.0136001
802.880	0.0135133
802.958	0.0135560
803.036	0.0137283
803.114	0.0136918
803.193	0.0138005
803.271	0.0137891
803.349	0.0138109
803.427	0.0139327
803.505	0.0141930
803.583	0.0141326
803.661	0.0143027
803.739	0.0142642
803.818	0.0142075
803.896	0.0143884
803.974	0.0143307
804.052	0.0144874
804.130	0.0144971
804.208	0.0145116
804.286	0.0144843
804.364	0.0144367
804.443	0.0144213
804.521	0.0145303
804.599	0.0144897
804.677	0.0144495
804.755	0.0144347
804.833	0.0142649
804.911	0.0144067
804.989	0.0142470
805.068	0.0141756
805.146	0.0142064
805.224	0.0140830
805.302	0.0140699
805.380	0.0141286
805.458	0.0141183
805.536	0.0140540
805.614	0.0139637
805.693	0.0139654
805.771	0.0138509
805.849	0.0139932
805.927	0.0139748
806.005	0.0138554
806.083	0.0139119
806.161	0.0140186
806.239	0.0138517
806.318	0.0138655
806.396	0.0140113
806.474	0.0139423
806.552	0.0140112
806.630	0.0139631
806.708	0.0139229
806.786	0.0140834
806.864	0.0140172
806.943	0.0140048
807.021	0.0141870
807.099	0.0140135
807.177	0.0139784
807.255	0.0139540
807.333	0.0139025
807.411	0.0139983
807.489	0.0138646
807.568	0.0139104
807.646	0.0138807
807.724	0.0137507
807.802	0.0137444
807.880	0.0137365
807.958	0.0137065
808.036	0.0136239
808.114	0.0135902
808.193	0.0134867
808.271	0.0135458
808.349	0.0135326
808.427	0.0136073
808.505	0.0134805
808.583	0.0134548
808.661	0.0134075
808.739	0.0133733
808.818	0.0135106
808.896	0.0136249
808.974	0.0134711
809.052	0.0135514
809.130	0.0135903
809.208	0.0136135
809.286	0.0137527
809.364	0.0137379
809.443	0.0137812
809.521	0.0137585
809.599	0.0138732
809.677	0.0138541
809.755	0.0138969
809.833	0.0140174
809.911	0.0140871
809.989	0.0140216
810.068	0.0141682
810.146	0.0142674
810.224	0.0141916
810.302	0.0142068
810.380	0.0142755
810.458	0.0143657
810.536	0.0143717
810.614	0.0142345
810.693	0.0142536
810.771	0.0143268
810.849	0.0142253
810.927	0.0143626
811.005	0.0143676
811.083	0.0141060
811.161	0.0142043
811.239	0.0141799
811.318	0.0141219
811.396	0.0141388
811.474	0.0141154
811.552	0.0139055
811.630	0.0138838
811.708	0.0138757
811.786	0.0138218
811.864	0.0138609
811.943	0.0139539
812.021	0.0134996
812.099	0.0134838
812.177	0.0134748
812.255	0.0137061
812.333	0.0137634
812.411	0.0135069
812.489	0.0135427
812.568	0.0135518
812.646	0.0135247
812.724	0.0134353
812.802	0.0134108
812.880	0.0134483
812.958	0.0135271
813.036	0.0133694
813.114	0.0135115
813.193	0.0135233
813.271	0.0135247
813.349	0.0135982
813.427	0.0137852
813.505	0.0138194
813.583	0.0136372
813.661	0.0138162
813.739	0.0137611
813.818	0.0138691
813.896	0.0138660
813.974	0.0139207
814.052	0.0139053
814.130	0.0139014
814.208	0.0138110
814.286	0.0139257
814.364	0.0139663
814.443	0.0139117
814.521	0.0138992
814.599	0.0138058
814.677	0.0140018
814.755	0.0138481
814.833	0.0138504
814.911	0.0139468
814.989	0.0138042
815.068	0.0137576
815.146	0.0139121
815.224	0.0138581
815.302	0.0138107
815.380	0.0137873
815.458	0.0138665
815.536	0.0138448
815.614	0.0138882
815.693	0.0139518
815.771	0.0139917
815.849	0.0140073
815.927	0.0140900
816.005	0.0141454
816.083	0.0141086
816.161	0.0141611
816.239	0.0143634
816.318	0.0143343
816.396	0.0144093
816.474	0.0144022
816.552	0.0143932
816.630	0.0143360
816.708	0.0144302
816.786	0.0143790
816.864	0.0145058
816.943	0.0144177
817.021	0.0143760
817.099	0.0143579
817.177	0.0142545
817.255	0.0144288
817.333	0.0143610
817.411	0.0143039
817.489	0.0141779
817.568	0.0142326
817.646	0.0141596
817.724	0.0140503
817.802	0.0140047
817.880	0.0140226
817.958	0.0140331
818.036	0.0139615
818.114	0.0139085
818.193	0.0138949
818.271	0.0139668
818.349	0.0138038
818.427	0.0137751
818.505	0.0136692
818.583	0.0136754
818.661	0.0136388
818.739	0.0138699
818.818	0.0138756
818.896	0.0137637
818.974	0.0138442
819.052	0.0138419
819.130	0.0139247
819.208	0.0139426
819.286	0.0138395
819.364	0.0138731
819.443	0.0139105
819.521	0.0139867
819.599	0.0139941
819.677	0.0138692
819.755	0.0139277
819.833	0.0138620
819.911	0.0140432
819.989	0.0140091
820.068	0.0140061
820.146	0.0139874
820.224	0.0138394
820.302	0.0138034
820.380	0.0138167
820.458	0.0137418
820.536	0.0138471
820.614	0.0137465
820.693	0.0137995
820.771	0.0138902
820.849	0.0137125
820.927	0.0137926
821.005	0.0137463
821.083	0.0139101
821.161	0.0136631
821.239	0.0135122
821.318	0.0136073
821.396	0.0135724
821.474	0.0135458
821.552	0.0135161
821.630	0.0134588
821.708	0.0135742
821.786	0.0135597
821.864	0.0135726
821.943	0.0137330
822.021	0.0136917
822.099	0.0136641
822.177	0.0135914
822.255	0.0136763
822.333	0.0136554
822.411	0.0137312
822.489	0.0138132
822.568	0.0137442
822.646	0.0137418
822.724	0.0137884
822.802	0.0138195
822.880	0.0139716
822.958	0.0140192
823.036	0.0139473
823.114	0.0140289
823.193	0.0140078
823.271	0.0140302
823.349	0.0141964
823.427	0.0141528
823.505	0.0141476
823.583	0.0142924
823.661	0.0141817
823.739	0.0139995
823.818	0.0141326
823.896	0.0141004
823.974	0.0140657
824.052	0.0140371
824.130	0.0138523
824.208	0.0140846
824.286	0.0140997
824.364	0.0139286
824.443	0.0139429
824.521	0.0140554
824.599	0.0138178
824.677	0.0139011
824.755	0.0137769
824.833	0.0136600
824.911	0.0136593
824.989	0.0137745
825.068	0.0136339
825.146	0.0137168
825.224	0.0136568
825.302	0.0138009
825.380	0.0136262
825.458	0.0138246
825.536	0.0137957
825.614	0.0137659
825.693	0.0137558
825.771	0.0138653
825.849	0.0137377
825.927	0.0138599
826.005	0.0137091
826.083	0.0137133
826.161	0.0137635
826.239	0.0137266
826.318	0.0138799
826.396	0.0138470
826.474	0.0137990
826.552	0.0138918
826.630	0.0139371
826.708	0.0138597
826.786	0.0138158
826.864	0.0140102
826.943	0.0139631
827.021	0.0140854
827.099	0.0140951
827.177	0.0140511
827.255	0.0141011
827.333	0.0139864
827.411	0.0139462
827.489	0.0140073
827.568	0.0139316
827.646	0.0139487
827.724	0.0140363
827.802	0.0140460
827.880	0.0140752
827.958	0.0139968
828.036	0.0139964
828.114	0.0141445
828.193	0.0140882
828.271	0.0142872
828.349	0.0141990
828.427	0.0142062
828.505	0.0142907
828.583	0.0142126
828.661	0.0143182
828.739	0.0142929
828.818	0.0142545
828.896	0.0140832
828.974	0.0141112
829.052	0.0142638
829.130	0.0143038
829.208	0.0141959
829.286	0.0142651
829.364	0.0142978
829.443	0.0141342
829.521	0.0141235
829.599	0.0140989
829.677	0.0139321
829.755	0.0140403
829.833	0.0140284
829.911	0.0141845
829.989	0.0141584
830.068	0.0140688
830.146	0.0139323
830.224	0.0140924
830.302	0.0139505
830.380	0.0140058
830.458	0.0138992
830.536	0.0139989
830.614	0.0138332
830.693	0.0138840
830.771	0.0139558
830.849	0.0141046
830.927	0.0140118
831.005	0.0138024
831.083	0.0138177
831.161	0.0137801
831.239	0.0138001
831.318	0.0137508
831.396	0.0138396
831.474	0.0137865
831.552	0.0136503
831.630	0.0135101
831.708	0.0134354
831.786	0.0135367
831.864	0.0134809
831.943	0.0133690
832.021	0.0133952
832.099	0.0134239
832.177	0.0132697
832.255	0.0133530
832.333	0.0133218
832.411	0.0134149
832.489	0.0134586
832.568	0.0133421
832.646	0.0133893
832.724	0.0135469
832.802	0.0136442
832.880	0.0135080
832.958	0.0136131
833.036	0.0137227
833.114	0.0135590
833.193	0.0137983
833.271	0.0137883
833.349	0.0139367
833.427	0.0140665
833.505	0.0139777
833.583	0.0142031
833.661	0.0141076
833.739	0.0142495
833.818	0.0143679
833.896	0.0144373
833.974	0.0143497
834.052	0.0144128
834.130	0.0142928
834.208	0.0142124
834.286	0.0144645
834.364	0.0144972
834.443	0.0145338
834.521	0.0144734
834.599	0.0143611
834.677	0.0144441
834.755	0.0145335
834.833	0.0144593
834.911	0.0143528
834.989	0.0142243
835.068	0.0141209
835.146	0.0141806
835.224	0.0141649
835.302	0.0139990
835.380	0.0139607
835.458	0.0140282
835.536	0.0140193
835.614	0.0139413
835.693	0.0139391
835.771	0.0138784
835.849	0.0138925
835.927	0.0139769
836.005	0.0139983
836.083	0.0139787
836.161	0.0138988
836.239	0.0137991
836.318	0.0137450
836.396	0.0140472
836.474	0.0139413
836.552	0.0138348
836.630	0.0138849
836.708	0.0140687
836.786	0.0139977
836.864	0.0139737
836.943	0.0139920
837.021	0.0140498
837.099	0.0139294
837.177	0.0139997
837.255	0.0140242
837.333	0.0139404
837.411	0.0139442
837.489	0.0138569
837.568	0.0139716
837.646	0.0138184
837.724	0.0139865
837.802	0.0137332
837.880	0.0138830
837.958	0.0136691
838.036	0.0135915
838.114	0.0135645
838.193	0.0136618
838.271	0.0136333
838.349	0.0137479
838.427	0.0138087
838.505	0.0136224
838.583	0.0138103
838.661	0.0138644
838.739	0.0139979
838.818	0.0139104
838.896	0.0139954
838.974	0.0140164
839.052	0.0141064
839.130	0.0141527
839.208	0.0141429
839.286	0.0142416
839.364	0.0142837
839.443	0.0142260
839.521	0.0141476
839.599	0.0142310
839.677	0.0143265
839.755	0.0143279
839.833	0.0142905
839.911	0.0141816
839.989	0.0141836
840.068	0.0143239
840.146	0.0142306
840.224	0.0142149
840.302	0.0142774
840.380	0.0140997
840.458	0.0141396
840.536	0.0142691
840.614	0.0142014
840.693	0.0140423
840.771	0.0140556
840.849	0.0141137
840.927	0.0140475
841.005	0.0142007
841.083	0.0139920
841.161	0.0139745
841.239	0.0140615
841.318	0.0141109
841.396	0.0141615
841.474	0.0141348
841.552	0.0139375
841.630	0.0139767
841.708	0.0139130
841.786	0.0140017
841.864	0.0141705
841.943	0.0139267
842.021	0.0138528
842.099	0.0137992
842.177	0.0138554
842.255	0.0138366
842.333	0.0137618
842.411	0.0136106
842.489	0.0137921
842.568	0.0136698
842.646	0.0134608
842.724	0.0134562
842.802	0.0135005
842.880	0.0134959
842.958	0.0133757
843.036	0.0133423
843.114	0.0132516
843.193	0.0133128
843.271	0.0132707
843.349	0.0131966
843.427	0.0131985
843.505	0.0132771
843.583	0.0131293
843.661	0.0131861
843.739	0.0132265
843.818	0.0132457
843.896	0.0134103
843.974	0.0133269
844.052	0.0133546
844.130	0.0134066
844.208	0.0132860
844.286	0.0134800
844.364	0.0135246
844.443	0.0135670
844.521	0.0134991
844.599	0.0135954
844.677	0.0137790
844.755	0.0138347
844.833	0.0138770
844.911	0.0137466
844.989	0.0138605
845.068	0.0139789
845.146	0.0140139
845.224	0.0139007
845.302	0.0140662
845.380	0.0138357
845.458	0.0139782
845.536	0.0138534
845.614	0.0138570
845.693	0.0139246
845.771	0.0137552
845.849	0.0137605
845.927	0.0138338
846.005	0.0136723
846.083	0.0136777
846.161	0.0136105
846.239	0.0135665
846.318	0.0137347
846.396	0.0136127
846.474	0.0138064
846.552	0.0136523
846.630	0.0137378
846.708	0.0137485
846.786	0.0137467
846.864	0.0137267
846.943	0.0138136
847.021	0.0139120
847.099	0.0139413
847.177	0.0139562
847.255	0.0138522
847.333	0.0138142
847.411	0.0139509
847.489	0.0140841
847.568	0.0139220
847.646	0.0139900
847.724	0.0139105
847.802	0.0139137
847.880	0.0139870
847.958	0.0139566
848.036	0.0140275
848.114	0.0140212
848.193	0.0139561
848.271	0.0138184
848.349	0.0138255
848.427	0.0139043
848.505	0.0137281
848.583	0.0139554
848.661	0.0140585
848.739	0.0138055
848.818	0.0137843
848.896	0.0137679
848.974	0.0139049
849.052	0.0139836
849.130	0.0138145
849.208	0.0138159
849.286	0.0137861
849.364	0.0139661
849.443	0.0139394
849.521	0.0139483
849.599	0.0140091
849.677	0.0139687
849.755	0.0140012
849.833	0.0138403
849.911	0.0138792
849.989	0.0138852
850.068	0.0141021
850.146	0.0139991
850.224	0.0139379
850.302	0.0138162
850.380	0.0139112
850.458	0.0138316
850.536	0.0138942
850.614	0.0138456
850.693	0.0138170
850.771	0.0138513
850.849	0.0137347
850.927	0.0138255
851.005	0.0137600
851.083	0.0138326
851.161	0.0139494
851.239	0.0139030
851.318	0.0137670
851.396	0.0139227
851.474	0.0139978
851.552	0.0139609
851.630	0.0139298
851.708	0.0140662
851.786	0.0140638
851.864	0.0140834
851.943	0.0142121
852.021	0.0141611
852.099	0.0141813
852.177	0.0142362
852.255	0.0143744
852.333	0.0143681
852.411	0.0143221
852.489	0.0141125
852.568	0.0142939
852.646	0.0143907
852.724	0.0142689
852.802	0.0142849
852.880	0.0142685
852.958	0.0142317
853.036	0.0141556
853.114	0.0140946
853.193	0.0141032
853.271	0.0142328
853.349	0.0141499
853.427	0.0139995
853.505	0.0141074
853.583	0.0141492
853.661	0.0140589
853.739	0.0140943
853.818	0.0140370
853.896	0.0140901
853.974	0.0141579
854.052	0.0141594
854.130	0.0140733
854.208	0.0141315
854.286	0.0141447
854.364	0.0140932
854.443	0.0142299
854.521	0.0142228
854.599	0.0142443
854.677	0.0141077
854.755	0.0141476
854.833	0.0141856
854.911	0.0139851
854.989	0.0140827
855.068	0.0140961
855.146	0.0140903
855.224	0.0140745
855.302	0.0138825
855.380	0.0138425
855.458	0.0138602
855.536	0.0139094
855.614	0.0138450
855.693	0.0136859
855.771	0.0137750
855.849	0.0137543
855.927	0.0138002
856.005	0.0137778
856.083	0.0138821
856.161	0.0137630
856.239	0.0137631
856.318	0.0138751
856.396	0.0138628
856.474	0.0138530
856.552	0.0139266
856.630	0.0137330
856.708	0.0137852
856.786	0.0138174
856.864	0.0138768
856.943	0.0138771
857.021	0.0138358
857.099	0.0138214
857.177	0.0137473
857.255	0.0138759
857.333	0.0138683
857.411	0.0139023
857.489	0.0139956
857.568	0.0139411
857.646	0.0141076
857.724	0.0141080
857.802	0.0139939
857.880	0.0140793
857.958	0.0141114
858.036	0.0142374
858.114	0.0142625
858.193	0.0142758
858.271	0.0141470
858.349	0.0142245
858.427	0.0142638
858.505	0.0142469
858.583	0.0143700
858.661	0.0143227
858.739	0.0143527
858.818	0.0142655
858.896	0.0141785
858.974	0.0143111
859.052	0.0141232
859.130	0.0141126
859.208	0.0141078
859.286	0.0139414
859.364	0.0141376
859.443	0.0141850
859.521	0.0142188
859.599	0.0140771
859.677	0.0141085
859.755	0.0140143
859.833	0.0140604
859.911	0.0140003
859.989	0.0139055
860.068	0.0137974
860.146	0.0138349
860.224	0.0137365
860.302	0.0138920
860.380	0.0138195
860.458	0.0136913
860.536	0.0139034
860.614	0.0137875
860.693	0.0138350
860.771	0.0137794
860.849	0.0137703
860.927	0.0137824
861.005	0.0139309
861.083	0.0139517
861.161	0.0139075
861.239	0.0138731
861.318	0.0138575
861.396	0.0139232
861.474	0.0138763
861.552	0.0137459
861.630	0.0138401
861.708	0.0139264
861.786	0.0138986
861.864	0.0139340
861.943	0.0139558
862.021	0.0139589
862.099	0.0139160
862.177	0.0138650
862.255	0.0138724
862.333	0.0138351
862.411	0.0137370
862.489	0.0137612
862.568	0.0139505
862.646	0.0138379
862.724	0.0138972
862.802	0.0138454
862.880	0.0137901
862.958	0.0138285
863.036	0.0138846
863.114	0.0140306
863.193	0.0139271
863.271	0.0138301
863.349	0.0139937
863.427	0.0139481
863.505	0.0138161
863.583	0.0139129
863.661	0.0139266
863.739	0.0139413
863.818	0.0139039
863.896	0.0138673
863.974	0.0138831
864.052	0.0138362
864.130	0.0138427
864.208	0.0137843
864.286	0.0137896
864.364	0.0138134
864.443	0.0138316
864.521	0.0138144
864.599	0.0137987
864.677	0.0137875
864.755	0.0137168
864.833	0.0137990
864.911	0.0137091
864.989	0.0136586
865.068	0.0136414
865.146	0.0138063
865.224	0.0137869
865.302	0.0138167
865.380	0.0136637
865.458	0.0136648
865.536	0.0138421
865.614	0.0137910
865.693	0.0138606
865.771	0.0137340
865.849	0.0139106
865.927	0.0137962
866.005	0.0137886
866.083	0.0138185
866.161	0.0138642
866.239	0.0138316
866.318	0.0138873
866.396	0.0139027
866.474	0.0138387
866.552	0.0137004
866.630	0.0138606
866.708	0.0139124
866.786	0.0139106
866.864	0.0138835
866.943	0.0138743
867.021	0.0137846
867.099	0.0137530
867.177	0.0138422
867.255	0.0137750
867.333	0.0137389
867.411	0.0137048
867.489	0.0138406
867.568	0.0138222
867.646	0.0138248
867.724	0.0138036
867.802	0.0137761
867.880	0.0137363
867.958	0.0137971
868.036	0.0137177
868.114	0.0136882
868.193	0.0138117
868.271	0.0138412
868.349	0.0137785
868.427	0.0138799
868.505	0.0138626
868.583	0.0138015
868.661	0.0137448
868.739	0.0137220
868.818	0.0140162
868.896	0.0138802
868.974	0.0140374
869.052	0.0140530
869.130	0.0140456
869.208	0.0140214
869.286	0.0140956
869.364	0.0141868
869.443	0.0142182
869.521	0.0141590
869.599	0.0142889
869.677	0.0141762
869.755	0.0142124
869.833	0.0142833
869.911	0.0143610
869.989	0.0142685
870.068	0.0141756
870.146	0.0142659
870.224	0.0142451
870.302	0.0142043
870.380	0.0143248
870.458	0.0141210
870.536	0.0141059
870.614	0.0140168
870.693	0.0140001
870.771	0.0140047
870.849	0.0140862
870.927	0.0139597
871.005	0.0141083
871.083	0.0139717
871.161	0.0139758
871.239	0.0139236
871.318	0.0138953
871.396	0.0138602
871.474	0.0138211
871.552	0.0138948
871.630	0.0137543
871.708	0.0137273
871.786	0.0136965
871.864	0.0136159
871.943	0.0137215
872.021	0.0136221
872.099	0.0136628
872.177	0.0137154
872.255	0.0135590
872.333	0.0137190
872.411	0.0137041
872.489	0.0135900
872.568	0.0137302
872.646	0.0137862
872.724	0.0137959
872.802	0.0138535
872.880	0.0140102
872.958	0.0139774
873.036	0.0140552
873.114	0.0140499
873.193	0.0138354
873.271	0.0138367
873.349	0.0138374
873.427	0.0137997
873.505	0.0139247
873.583	0.0139501
873.661	0.0139648
873.739	0.0138161
873.818	0.0138676
873.896	0.0137226
873.974	0.0137855
874.052	0.0137828
874.130	0.0140128
874.208	0.0138873
874.286	0.0138558
874.364	0.0139594
874.443	0.0140161
874.521	0.0139657
874.599	0.0139133
874.677	0.0138898
874.755	0.0139272
874.833	0.0140857
874.911	0.0139367
874.989	0.0141296
875.068	0.0140999
875.146	0.0141167
875.224	0.0140903
875.302	0.0140065
875.380	0.0140036
875.458	0.0140938
875.536	0.0141740
875.614	0.0140794
875.693	0.0140531
875.771	0.0140199
875.849	0.0139863
875.927	0.0141174
876.005	0.0141009
876.083	0.0139829
876.161	0.0140543
876.239	0.0140369
876.318	0.0140589
876.396	0.0139699
876.474	0.0140648
876.552	0.0141046
876.630	0.0139691
876.708	0.0139406
876.786	0.0140820
876.864	0.0141203
876.943	0.0141100
877.021	0.0140656
877.099	0.0140181
877.177	0.0141761
877.255	0.0140221
877.333	0.0143524
877.411	0.0142053
877.489	0.0141740
877.568	0.0140823
877.646	0.0142628
877.724	0.0142578
877.802	0.0140498
877.880	0.0140898
877.958	0.0142767
878.036	0.0142474
878.114	0.0142100
878.193	0.0140887
878.271	0.0140334
878.349	0.0140662
878.427	0.0141376
878.505	0.0141528
878.583	0.0140755
878.661	0.0140747
878.739	0.0140646
878.818	0.0140051
878.896	0.0141064
878.974	0.0139093
879.052	0.0139845
879.130	0.0140917
879.208	0.0140382
879.286	0.0139471
879.364	0.0139352
879.443	0.0139639
879.521	0.0140653
879.599	0.0139094
879.677	0.0140939
879.755	0.0140136
879.833	0.0141483
879.911	0.0141086
879.989	0.0141486
880.068	0.0140525
880.146	0.0139285
880.224	0.0141692
880.302	0.0141199
880.380	0.0139397
880.458	0.0140276
880.536	0.0141846
880.614	0.0141525
880.693	0.0141768
880.771	0.0141177
880.849	0.0141898
880.927	0.0140565
881.005	0.0141727
881.083	0.0141927
881.161	0.0142336
881.239	0.0143154
881.318	0.0142468
881.396	0.0141987
881.474	0.0141835
881.552	0.0141064
881.630	0.0141570
881.708	0.0141755
881.786	0.0141203
881.864	0.0142349
881.943	0.0140945
882.021	0.0141258
882.099	0.0142548
882.177	0.0141178
882.255	0.0141319
882.333	0.0140507
882.411	0.0142222
882.489	0.0140195
882.568	0.0140099
882.646	0.0142053
882.724	0.0139191
882.802	0.0139178
882.880	0.0139748
882.958	0.0138886
883.036	0.0138376
883.114	0.0138812
883.193	0.0140270
883.271	0.0140783
883.349	0.0139591
883.427	0.0139863
883.505	0.0138857
883.583	0.0138372
883.661	0.0139333
883.739	0.0139754
883.818	0.0139531
883.896	0.0139035
883.974	0.0139281
884.052	0.0139633
884.130	0.0138441
884.208	0.0138073
884.286	0.0139365
884.364	0.0138335
884.443	0.0139315
884.521	0.0139706
884.599	0.0139816
884.677	0.0139299
884.755	0.0138806
884.833	0.0139906
884.911	0.0139945
884.989	0.0139848
885.068	0.0140552
885.146	0.0140656
885.224	0.0140318
885.302	0.0142750
885.380	0.0141872
885.458	0.0140540
885.536	0.0139957
885.614	0.0141111
885.693	0.0140092
885.771	0.0139244
885.849	0.0140603
885.927	0.0140456
886.005	0.0141309
886.083	0.0139803
886.161	0.0139478
886.239	0.0141203
886.318	0.0139271
886.396	0.0139545
886.474	0.0139416
886.552	0.0138865
886.630	0.0138921
886.708	0.0138665
886.786	0.0140742
886.864	0.0137705
886.943	0.0137852
887.021	0.0139445
887.099	0.0140057
887.177	0.0139236
887.255	0.0139984
887.333	0.0138890
887.411	0.0140667
887.489	0.0140425
887.568	0.0139651
887.646	0.0138996
887.724	0.0139258
887.802	0.0140292
887.880	0.0140440
887.958	0.0141335
888.036	0.0139644
888.114	0.0139992
888.193	0.0140401
888.271	0.0138667
888.349	0.0139932
888.427	0.0141266
888.505	0.0139468
888.583	0.0139381
888.661	0.0139796
888.739	0.0139345
888.818	0.0138425
888.896	0.0138615
888.974	0.0138802
889.052	0.0137474
889.130	0.0136078
889.208	0.0137372
889.286	0.0137837
889.364	0.0136719
889.443	0.0136745
889.521	0.0138142
889.599	0.0137423
889.677	0.0138870
889.755	0.0138420
889.833	0.0138331
889.911	0.0138932
889.989	0.0137666
890.068	0.0138707
890.146	0.0139164
890.224	0.0141190
890.302	0.0140171
890.380	0.0139116
890.458	0.0141988
890.536	0.0140105
890.614	0.0139112
890.693	0.0138993
890.771	0.0139970
890.849	0.0139970
890.927	0.0139890
891.005	0.0140837
891.083	0.0137701
891.161	0.0138844
891.239	0.0139183
891.318	0.0138995
891.396	0.0137445
891.474	0.0137421
891.552	0.0137235
891.630	0.0137945
891.708	0.0138584
891.786	0.0136407
891.864	0.0134520
891.943	0.0135920
892.021	0.0136244
892.099	0.0136575
892.177	0.0137170
892.255	0.0136732
892.333	0.0136282
892.411	0.0138669
892.489	0.0137972
892.568	0.0137751
892.646	0.0138579
892.724	0.0139887
892.802	0.0139512
892.880	0.0139117
892.958	0.0140286
893.036	0.0140249
893.114	0.0141118
893.193	0.0140550
893.271	0.0140215
893.349	0.0140866
893.427	0.0142049
893.505	0.0142239
893.583	0.0141563
893.661	0.0142342
893.739	0.0141563
893.818	0.0141631
893.896	0.0141223
893.974	0.0141542
894.052	0.0139278
894.130	0.0142085
894.208	0.0141655
894.286	0.0140707
894.364	0.0140466
894.443	0.0140209
894.521	0.0140491
894.599	0.0140996
894.677	0.0140908
894.755	0.0141582
894.833	0.0141911
894.911	0.0140400
894.989	0.0140903
895.068	0.0140760
895.146	0.0140167
895.224	0.0140041
895.302	0.0140630
895.380	0.0140945
895.458	0.0140601
895.536	0.0139900
895.614	0.0138658
895.693	0.0139564
895.771	0.0140078
895.849	0.0139487
895.927	0.0140571
896.005	0.0140213
896.083	0.0140604
896.161	0.0139651
896.239	0.0136659
896.318	0.0138396
896.396	0.0138351
896.474	0.0138797
896.552	0.0138776
896.630	0.0138393
896.708	0.0138373
896.786	0.0138122
896.864	0.0137737
896.943	0.0139329
897.021	0.0139290
897.099	0.0138822
897.177	0.0139361
897.255	0.0139764
897.333	0.0138783
897.411	0.0140239
897.489	0.0141635
897.568	0.0140260
897.646	0.0140560
897.724	0.0140400
897.802	0.0141534
897.880	0.0140761
897.958	0.0141096
898.036	0.0142006
898.114	0.0142845
898.193	0.0142661
898.271	0.0141286
898.349	0.0142017
898.427	0.0141947
898.505	0.0142749
898.583	0.0142957
898.661	0.0140535
898.739	0.0142699
898.818	0.0142016
898.896	0.0140552
898.974	0.0141615
899.052	0.0142933
899.130	0.0139607
899.208	0.0139577
899.286	0.0140392
899.364	0.0140341
899.443	0.0141388
899.521	0.0140837
899.599	0.0139735
899.677	0.0140116
899.755	0.0139919
899.833	0.0139213
899.911	0.0139497
899.989	0.0141595
900.068	0.0140649
900.146	0.0141161
900.224	0.0140202
900.302	0.0139485
900.380	0.0138168
900.458	0.0139364
900.536	0.0139018
900.614	0.0140306
900.693	0.0139817
900.771	0.0138306
900.849	0.0138212
900.927	0.0139473
901.005	0.0139921
901.083	0.0139437
901.161	0.0140301
901.239	0.0138998
901.318	0.0140201
901.396	0.0140128
901.474	0.0138449
901.552	0.0138129
901.630	0.0140113
901.708	0.0139542
901.786	0.0138576
901.864	0.0139436
901.943	0.0139814
902.021	0.0139811
902.099	0.0139090
902.177	0.0138997
902.255	0.0138243
902.333	0.0137984
902.411	0.0138664
902.489	0.0137311
902.568	0.0137226
902.646	0.0139148
902.724	0.0139213
902.802	0.0139493
902.880	0.0138914
902.958	0.0140277
903.036	0.0140096
903.114	0.0139617
903.193	0.0139662
903.271	0.0139278
903.349	0.0141135
903.427	0.0140711
903.505	0.0141005
903.583	0.0140659
903.661	0.0141039
903.739	0.0141060
903.818	0.0140703
903.896	0.0140903
903.974	0.0141496
904.052	0.0141613
904.130	0.0140063
904.208	0.0138667
904.286	0.0139607
904.364	0.0139861
904.443	0.0139722
904.521	0.0138590
904.599	0.0139807
904.677	0.0139487
904.755	0.0138649
904.833	0.0136781
904.911	0.0138847
904.989	0.0137894
905.068	0.0136159
905.146	0.0138540
905.224	0.0138011
905.302	0.0138168
905.380	0.0138118
905.458	0.0138623
905.536	0.0136685
905.614	0.0136687
905.693	0.0137989
905.771	0.0138896
905.849	0.0139458
905.927	0.0139320
906.005	0.0137379
906.083	0.0138563
906.161	0.0138714
906.239	0.0138430
906.318	0.0137190
906.396	0.0137537
906.474	0.0137937
906.552	0.0138010
906.630	0.0138687
906.708	0.0137269
906.786	0.0136983
906.864	0.0137303
906.943	0.0138950
907.021	0.0138568
907.099	0.0137887
907.177	0.0138219
907.255	0.0138187
907.333	0.0139577
907.411	0.0139409
907.489	0.0139038
907.568	0.0138452
907.646	0.0139915
907.724	0.0140426
907.802	0.0140555
907.880	0.0138393
907.958	0.0139494
908.036	0.0138996
908.114	0.0137768
908.193	0.0136834
908.271	0.0137718
908.349	0.0137254
908.427	0.0137199
908.505	0.0138201
908.583	0.0137782
908.661	0.0138293
908.739	0.0135390
908.818	0.0136933
908.896	0.0138672
908.974	0.0136964
909.052	0.0136260
909.130	0.0138333
909.208	0.0137425
909.286	0.0138720
909.364	0.0138898
909.443	0.0136502
909.521	0.0137799
909.599	0.0140031
909.677	0.0138564
909.755	0.0138625
909.833	0.0138494
909.911	0.0139094
909.989	0.0138360
910.068	0.0139451
910.146	0.0138959
910.224	0.0140435
910.302	0.0140302
910.380	0.0139474
910.458	0.0140861
910.536	0.0140600
910.614	0.0140585
910.693	0.0140063
910.771	0.0139217
910.849	0.0140353
910.927	0.0140021
911.005	0.0140946
911.083	0.0140405
911.161	0.0140385
911.239	0.0140465
911.318	0.0139687
911.396	0.0140012
911.474	0.0138930
911.552	0.0140025
911.630	0.0140125
911.708	0.0140572
911.786	0.0139989
911.864	0.0140786
911.943	0.0138443
912.021	0.0140210
912.099	0.0139879
912.177	0.0140126
912.255	0.0139915
912.333	0.0140594
912.411	0.0139448
912.489	0.0138690
912.568	0.0139291
912.646	0.0139485
912.724	0.0138041
912.802	0.0138998
912.880	0.0139564
912.958	0.0140112
913.036	0.0140211
913.114	0.0140935
913.193	0.0139392
913.271	0.0139696
913.349	0.0142240
913.427	0.0141058
913.505	0.0141617
913.583	0.0141118
913.661	0.0142025
913.739	0.0141845
913.818	0.0141180
913.896	0.0141117
913.974	0.0142610
914.052	0.0141342
914.130	0.0140907
914.208	0.0141869
914.286	0.0142006
914.364	0.0141791
914.443	0.0140501
914.521	0.0140762
914.599	0.0140330
914.677	0.0139497
914.755	0.0142536
914.833	0.0138898
914.911	0.0139842
914.989	0.0139040
915.068	0.0138162
915.146	0.0138390
915.224	0.0138461
915.302	0.0137937
915.380	0.0136749
915.458	0.0137875
915.536	0.0137301
915.614	0.0136591
915.693	0.0135736
915.771	0.0135265
915.849	0.0135480
915.927	0.0135299
916.005	0.0135937
916.083	0.0135571
916.161	0.0135297
916.239	0.0135600
916.318	0.0134951
916.396	0.0135966
916.474	0.0136169
916.552	0.0136318
916.630	0.0137356
916.708	0.0138142
916.786	0.0137457
916.864	0.0138375
916.943	0.0139082
917.021	0.0137258
917.099	0.0139732
917.177	0.0139655
917.255	0.0138495
917.333	0.0139233
917.411	0.0140469
917.489	0.0139534
917.568	0.0139720
917.646	0.0139088
917.724	0.0139243
917.802	0.0139674
917.880	0.0139871
917.958	0.0140836
918.036	0.0139417
918.114	0.0140527
918.193	0.0140832
918.271	0.0140134
918.349	0.0139629
918.427	0.0139262
918.505	0.0139484
918.583	0.0139950
918.661	0.0139199
918.739	0.0138641
918.818	0.0139642
918.896	0.0138229
918.974	0.0139033
919.052	0.0139102
919.130	0.0138148
919.208	0.0138825
919.286	0.0138992
919.364	0.0138323
919.443	0.0138299
919.521	0.0136499
919.599	0.0137201
919.677	0.0136040
919.755	0.0136829
919.833	0.0135876
919.911	0.0136301
919.989	0.0137020
920.068	0.0137783
920.146	0.0136410
920.224	0.0134605
920.302	0.0135299
920.380	0.0135185
920.458	0.0135816
920.536	0.0136855
920.614	0.0135823
920.693	0.0136072
920.771	0.0135676
920.849	0.0137943
920.927	0.0135478
921.005	0.0136713
921.083	0.0135258
921.161	0.0136637
921.239	0.0136709
921.318	0.0135725
921.396	0.0135653
921.474	0.0137885
921.552	0.0136458
921.630	0.0136795
921.708	0.0135930
921.786	0.0136162
921.864	0.0138081
921.943	0.0137572
922.021	0.0137523
922.099	0.0136232
922.177	0.0136893
922.255	0.0136798
922.333	0.0137614
922.411	0.0138006
922.489	0.0136769
922.568	0.0136790
922.646	0.0138489
922.724	0.0138848
922.802	0.0136843
922.880	0.0137443
922.958	0.0138011
923.036	0.0138354
923.114	0.0139211
923.193	0.0138163
923.271	0.0137653
923.349	0.0138605
923.427	0.0137469
923.505	0.0136511
923.583	0.0137462
923.661	0.0138123
923.739	0.0137206
923.818	0.0137995
923.896	0.0137837
923.974	0.0137023
924.052	0.0137199
924.130	0.0138869
924.208	0.0137914
924.286	0.0138578
924.364	0.0137736
924.443	0.0138195
924.521	0.0139261
924.599	0.0138766
924.677	0.0139027
924.755	0.0138056
924.833	0.0138717
924.911	0.0138519
924.989	0.0139036
925.068	0.0139121
925.146	0.0139851
925.224	0.0139587
925.302	0.0138763
925.380	0.0139383
925.458	0.0139308
925.536	0.0140260
925.614	0.0139806
925.693	0.0138928
925.771	0.0138062
925.849	0.0139776
925.927	0.0139664
926.005	0.0139426
926.083	0.0140742
926.161	0.0140479
926.239	0.0138951
926.318	0.0138706
926.396	0.0139233
926.474	0.0140089
926.552	0.0139414
926.630	0.0137762
926.708	0.0138624
926.786	0.0139365
926.864	0.0138365
926.943	0.0137256
927.021	0.0139378
927.099	0.0137456
927.177	0.0137237
927.255	0.0136221
927.333	0.0137504
927.411	0.0136861
927.489	0.0137702
927.568	0.0137025
927.646	0.0136633
927.724	0.0136914
927.802	0.0137854
927.880	0.0137950
927.958	0.0138204
928.036	0.0137868
928.114	0.0137878
928.193	0.0139230
928.271	0.0139307
928.349	0.0139755
928.427	0.0139090
928.505	0.0140465
928.583	0.0138960
928.661	0.0140194
928.739	0.0139649
928.818	0.0141411
928.896	0.0139946
928.974	0.0140669
929.052	0.0138988
929.130	0.0140151
929.208	0.0140942
929.286	0.0141684
929.364	0.0140673
929.443	0.0141068
929.521	0.0141268
929.599	0.0141703
929.677	0.0141100
929.755	0.0140865
929.833	0.0141487
929.911	0.0141939
929.989	0.0141068
930.068	0.0142896
930.146	0.0141643
930.224	0.0141867
930.302	0.0143277
930.380	0.0142146
930.458	0.0141870
930.536	0.0142125
930.614	0.0141622
930.693	0.0141242
930.771	0.0142485
930.849	0.0141746
930.927	0.0140193
931.005	0.0142104
931.083	0.0141633
931.161	0.0141541
931.239	0.0142567
931.318	0.0141106
931.396	0.0142249
931.474	0.0141052
931.552	0.0139605
931.630	0.0140428
931.708	0.0141331
931.786	0.0140533
931.864	0.0139762
931.943	0.0139545
932.021	0.0139489
932.099	0.0139118
932.177	0.0138972
932.255	0.0139890
932.333	0.0138290
932.411	0.0139494
932.489	0.0140408
932.568	0.0138793
932.646	0.0138482
932.724	0.0138147
932.802	0.0139725
932.880	0.0138845
932.958	0.0137771
933.036	0.0138795
933.114	0.0138727
933.193	0.0138877
933.271	0.0138634
933.349	0.0138425
933.427	0.0137858
933.505	0.0137006
933.583	0.0137254
933.661	0.0138539
933.739	0.0137589
933.818	0.0137309
933.896	0.0137570
933.974	0.0135429
934.052	0.0134932
934.130	0.0137135
934.208	0.0137835
934.286	0.0135890
934.364	0.0135987
934.443	0.0135987
934.521	0.0136406
934.599	0.0136915
934.677	0.0136520
934.755	0.0135372
934.833	0.0137299
934.911	0.0137827
934.989	0.0135989
935.068	0.0136092
935.146	0.0138335
935.224	0.0138114
935.302	0.0137118
935.380	0.0138615
935.458	0.0138171
935.536	0.0137012
935.614	0.0137978
935.693	0.0139178
935.771	0.0138522
935.849	0.0139435
935.927	0.0139493
936.005	0.0138533
936.083	0.0140603
936.161	0.0140018
936.239	0.0139375
936.318	0.0140177
936.396	0.0141290
936.474	0.0142094
936.552	0.0141152
936.630	0.0140089
936.708	0.0141559
936.786	0.0141734
936.864	0.0140487
936.943	0.0140738
937.021	0.0141415
937.099	0.0141521
937.177	0.0142827
937.255	0.0141567
937.333	0.0140048
937.411	0.0140585
937.489	0.0140234
937.568	0.0140749
937.646	0.0140483
937.724	0.0140045
937.802	0.0139860
937.880	0.0140267
937.958	0.0140849
938.036	0.0137910
938.114	0.0139359
938.193	0.0140770
938.271	0.0140288
938.349	0.0138794
938.427	0.0140076
938.505	0.0140699
938.583	0.0139377
938.661	0.0138720
938.739	0.0138936
938.818	0.0138550
938.896	0.0138831
938.974	0.0137899
939.052	0.0137347
939.130	0.0138406
939.208	0.0137343
939.286	0.0136839
939.364	0.0137529
939.443	0.0138058
939.521	0.0137563
939.599	0.0137274
939.677	0.0137724
939.755	0.0138271
939.833	0.0138397
939.911	0.0137760
939.989	0.0136668
940.068	0.0136234
940.146	0.0136941
940.224	0.0137828
940.302	0.0137579
940.380	0.0136285
940.458	0.0137258
940.536	0.0138934
940.614	0.0138952
940.693	0.0138483
940.771	0.0137729
940.849	0.0139023
940.927	0.0138533
941.005	0.0138718
941.083	0.0139745
941.161	0.0140475
941.239	0.0138554
941.318	0.0138567
941.396	0.0140237
941.474	0.0140166
941.552	0.0141091
941.630	0.0140168
941.708	0.0139506
941.786	0.0140241
941.864	0.0140143
941.943	0.0138173
942.021	0.0140009
942.099	0.0140333
942.177	0.0140405
942.255	0.0140012
942.333	0.0139137
942.411	0.0141206
942.489	0.0139635
942.568	0.0139679
942.646	0.0140379
942.724	0.0139994
942.802	0.0140955
942.880	0.0140125
942.958	0.0140681
943.036	0.0140481
943.114	0.0138792
943.193	0.0139421
943.271	0.0139612
943.349	0.0140749
943.427	0.0139887
943.505	0.0140935
943.583	0.0139904
943.661	0.0140910
943.739	0.0140641
943.818	0.0139783
943.896	0.0140237
943.974	0.0142025
944.052	0.0140106
944.130	0.0140086
944.208	0.0140977
944.286	0.0140923
944.364	0.0140521
944.443	0.0139306
944.521	0.0140292
944.599	0.0141663
944.677	0.0140182
944.755	0.0141109
944.833	0.0141119
944.911	0.0139868
944.989	0.0140056
945.068	0.0138813
945.146	0.0138979
945.224	0.0139075
945.302	0.0139515
945.380	0.0140588
945.458	0.0139156
945.536	0.0138903
945.614	0.0140090
945.693	0.0139591
945.771	0.0139076
945.849	0.0140184
945.927	0.0137621
946.005	0.0138475
946.083	0.0139276
946.161	0.0137638
946.239	0.0137475
946.318	0.0137534
946.396	0.0138010
946.474	0.0137759
946.552	0.0137732
946.630	0.0137156
946.708	0.0136594
946.786	0.0136317
946.864	0.0137769
946.943	0.0137579
947.021	0.0136152
947.099	0.0136440
947.177	0.0136403
947.255	0.0136517
947.333	0.0136883
947.411	0.0136391
947.489	0.0135425
947.568	0.0136053
947.646	0.0135540
947.724	0.0136004
947.802	0.0135770
947.880	0.0136947
947.958	0.0135091
948.036	0.0136502
948.114	0.0136425
948.193	0.0136510
948.271	0.0138568
948.349	0.0137138
948.427	0.0138510
948.505	0.0138328
948.583	0.0139050
948.661	0.0140218
948.739	0.0138475
948.818	0.0139504
948.896	0.0139564
948.974	0.0139999
949.052	0.0140544
949.130	0.0141515
949.208	0.0140901
949.286	0.0140040
949.364	0.0140987
949.443	0.0139047
949.521	0.0139380
949.599	0.0140768
949.677	0.0141857
949.755	0.0140959
949.833	0.0140663
949.911	0.0141135
949.989	0.0139391
950.068	0.0141364
950.146	0.0141539
950.224	0.0140657
950.302	0.0140321
950.380	0.0140904
950.458	0.0141544
950.536	0.0141027
950.614	0.0140053
950.693	0.0141064
950.771	0.0140413
950.849	0.0139426
950.927	0.0139693
951.005	0.0139442
951.083	0.0138588
951.161	0.0139664
951.239	0.0139977
951.318	0.0138834
951.396	0.0140517
951.474	0.0140128
951.552	0.0138707
951.630	0.0140389
951.708	0.0140130
951.786	0.0139502
951.864	0.0140098
951.943	0.0140097
952.021	0.0139003
952.099	0.0139658
952.177	0.0139986
952.255	0.0139153
952.333	0.0139874
952.411	0.0139995
952.489	0.0139713
952.568	0.0140081
952.646	0.0140009
952.724	0.0139393
952.802	0.0139112
952.880	0.0138718
952.958	0.0140233
953.036	0.0140138
953.114	0.0138929
953.193	0.0139896
953.271	0.0140027
953.349	0.0140397
953.427	0.0140142
953.505	0.0140625
953.583	0.0140000
953.661	0.0140154
953.739	0.0141025
953.818	0.0140871
953.896	0.0140805
953.974	0.0141072
954.052	0.0140777
954.130	0.0142354
954.208	0.0140739
954.286	0.0141885
954.364	0.0140571
954.443	0.0141702
954.521	0.0141957
954.599	0.0141459
954.677	0.0142005
954.755	0.0141328
954.833	0.0141940
954.911	0.0142195
954.989	0.0141163
955.068	0.0141380
955.146	0.0141478
955.224	0.0140839
955.302	0.0140539
955.380	0.0139850
955.458	0.0139885
955.536	0.0141260
955.614	0.0141917
955.693	0.0141224
955.771	0.0140440
955.849	0.0140341
955.927	0.0139737
956.005	0.0140414
956.083	0.0140987
956.161	0.0140500
956.239	0.0140130
956.318	0.0140150
956.396	0.0139252
956.474	0.0139374
956.552	0.0139986
956.630	0.0140135
956.708	0.0139416
956.786	0.0140383
956.864	0.0139780
956.943	0.0139229
957.021	0.0139758
957.099	0.0140750
957.177	0.0139072
957.255	0.0140658
957.333	0.0140226
957.411	0.0139405
957.489	0.0138448
957.568	0.0138142
957.646	0.0139401
957.724	0.0138563
957.802	0.0139035
957.880	0.0139809
957.958	0.0139570
958.036	0.0138210
958.114	0.0137768
958.193	0.0137658
958.271	0.0138686
958.349	0.0138173
958.427	0.0137925
958.505	0.0138855
958.583	0.0138170
958.661	0.0138578
958.739	0.0138152
958.818	0.0137586
958.896	0.0137946
958.974	0.0137011
959.052	0.0138023
959.130	0.0140116
959.208	0.0138962
959.286	0.0139185
959.364	0.0138443
959.443	0.0138831
959.521	0.0139606
959.599	0.0137841
959.677	0.0137079
959.755	0.0138454
959.833	0.0140710
959.911	0.0139104
