05/14/2022	16:44:57	Ver.	4.1	UNKNOWN
Optical Delay	639.989416	Delta X		0.078125	Sweeps	1	Scan Rate	0/0
Coordinates	Axis 1	NaN	Axis 2	NaN	Axis 3	NaN	Axis 4	NaN	Axis 5	NaN	Axis 6	0.000000
TX Power	0.000000	RX Power	0.000000

639.989	0.0137369
640.068	0.0137240
640.146	0.0136869
640.224	0.0138587
640.302	0.0137312
640.380	0.0138839
640.458	0.0138400
640.536	0.0137011
640.614	0.0137242
640.693	0.0136714
640.771	0.0136873
640.849	0.0137648
640.927	0.0138299
641.005	0.0137202
641.083	0.0136526
641.161	0.0135953
641.239	0.0137010
641.318	0.0137939
641.396	0.0138581
641.474	0.0138647
641.552	0.0137536
641.630	0.0137288
641.708	0.0136454
641.786	0.0137532
641.864	0.0137352
641.943	0.0138581
642.021	0.0136201
642.099	0.0136478
642.177	0.0135840
642.255	0.0136549
642.333	0.0138142
642.411	0.0136237
642.489	0.0137215
642.568	0.0137637
642.646	0.0136504
642.724	0.0136770
642.802	0.0137663
642.880	0.0135934
642.958	0.0136582
643.036	0.0136024
643.114	0.0136206
643.193	0.0136843
643.271	0.0136429
643.349	0.0135684
643.427	0.0137978
643.505	0.0136600
643.583	0.0136349
643.661	0.0136189
643.739	0.0135227
643.818	0.0136813
643.896	0.0136383
643.974	0.0136651
644.052	0.0136987
644.130	0.0135666
644.208	0.0136001
644.286	0.0137035
644.364	0.0135926
644.443	0.0137424
644.521	0.0136143
644.599	0.0136951
644.677	0.0136427
644.755	0.0137099
644.833	0.0136896
644.911	0.0136514
644.989	0.0135706
645.068	0.0135844
645.146	0.0137131
645.224	0.0136015
645.302	0.0137064
645.380	0.0137234
645.458	0.0136283
645.536	0.0135432
645.614	0.0135766
645.693	0.0137294
645.771	0.0137667
645.849	0.0135703
645.927	0.0135902
646.005	0.0135717
646.083	0.0137888
646.161	0.0134551
646.239	0.0136971
646.318	0.0136692
646.396	0.0137491
646.474	0.0137136
646.552	0.0136153
646.630	0.0135764
646.708	0.0136761
646.786	0.0137102
646.864	0.0137951
646.943	0.0136376
647.021	0.0138182
647.099	0.0137386
647.177	0.0138273
647.255	0.0137926
647.333	0.0137670
647.411	0.0136574
647.489	0.0137617
647.568	0.0136744
647.646	0.0137271
647.724	0.0137870
647.802	0.0138747
647.880	0.0137718
647.958	0.0137307
648.036	0.0136759
648.114	0.0137619
648.193	0.0137815
648.271	0.0137777
648.349	0.0138856
648.427	0.0137724
648.505	0.0137990
648.583	0.0139500
648.661	0.0138111
648.739	0.0137612
648.818	0.0139454
648.896	0.0138853
648.974	0.0139566
649.052	0.0137325
649.130	0.0137756
649.208	0.0138300
649.286	0.0138881
649.364	0.0139029
649.443	0.0139703
649.521	0.0138801
649.599	0.0139297
649.677	0.0139409
649.755	0.0137885
649.833	0.0138034
649.911	0.0139413
649.989	0.0138477
650.068	0.0138039
650.146	0.0139766
650.224	0.0140345
650.302	0.0140398
650.380	0.0139468
650.458	0.0140005
650.536	0.0140424
650.614	0.0139474
650.693	0.0139229
650.771	0.0141662
650.849	0.0140744
650.927	0.0140452
651.005	0.0140015
651.083	0.0139645
651.161	0.0138933
651.239	0.0140493
651.318	0.0139975
651.396	0.0139894
651.474	0.0138643
651.552	0.0138877
651.630	0.0139646
651.708	0.0138911
651.786	0.0139767
651.864	0.0140556
651.943	0.0139899
652.021	0.0139244
652.099	0.0139795
652.177	0.0140291
652.255	0.0138000
652.333	0.0140479
652.411	0.0138825
652.489	0.0139995
652.568	0.0138596
652.646	0.0139397
652.724	0.0139945
652.802	0.0140246
652.880	0.0141280
652.958	0.0139950
653.036	0.0138346
653.114	0.0137042
653.193	0.0139652
653.271	0.0139574
653.349	0.0138861
653.427	0.0139287
653.505	0.0138406
653.583	0.0139408
653.661	0.0140689
653.739	0.0139758
653.818	0.0137823
653.896	0.0137477
653.974	0.0138918
654.052	0.0139399
654.130	0.0138374
654.208	0.0139305
654.286	0.0138455
654.364	0.0137576
654.443	0.0139246
654.521	0.0138312
654.599	0.0137618
654.677	0.0139193
654.755	0.0139975
654.833	0.0138403
654.911	0.0139097
654.989	0.0138293
655.068	0.0139008
655.146	0.0140084
655.224	0.0139259
655.302	0.0137535
655.380	0.0139086
655.458	0.0139564
655.536	0.0139194
655.614	0.0138129
655.693	0.0138680
655.771	0.0137725
655.849	0.0138867
655.927	0.0136889
656.005	0.0138157
656.083	0.0138147
656.161	0.0137440
656.239	0.0138304
656.318	0.0139368
656.396	0.0138719
656.474	0.0139054
656.552	0.0138718
656.630	0.0138219
656.708	0.0138929
656.786	0.0138022
656.864	0.0138464
656.943	0.0139384
657.021	0.0138537
657.099	0.0138918
657.177	0.0139021
657.255	0.0140110
657.333	0.0140265
657.411	0.0140244
657.489	0.0137464
657.568	0.0139316
657.646	0.0139729
657.724	0.0139285
657.802	0.0140181
657.880	0.0138567
657.958	0.0137302
658.036	0.0137525
658.114	0.0138580
658.193	0.0139385
658.271	0.0140143
658.349	0.0138064
658.427	0.0138431
658.505	0.0139803
658.583	0.0139567
658.661	0.0138651
658.739	0.0139215
658.818	0.0137661
658.896	0.0137415
658.974	0.0138046
659.052	0.0139153
659.130	0.0137810
659.208	0.0137895
659.286	0.0138684
659.364	0.0137938
659.443	0.0138075
659.521	0.0138403
659.599	0.0137589
659.677	0.0138271
659.755	0.0137910
659.833	0.0137682
659.911	0.0137297
659.989	0.0138657
660.068	0.0138237
660.146	0.0138314
660.224	0.0137570
660.302	0.0137144
660.380	0.0138409
660.458	0.0136715
660.536	0.0137894
660.614	0.0137052
660.693	0.0139005
660.771	0.0138226
660.849	0.0137313
660.927	0.0138118
661.005	0.0137595
661.083	0.0137486
661.161	0.0137642
661.239	0.0138488
661.318	0.0137174
661.396	0.0137679
661.474	0.0136566
661.552	0.0138426
661.630	0.0138734
661.708	0.0137614
661.786	0.0138069
661.864	0.0138837
661.943	0.0138477
662.021	0.0136822
662.099	0.0137828
662.177	0.0137296
662.255	0.0137282
662.333	0.0137397
662.411	0.0138309
662.489	0.0138875
662.568	0.0137910
662.646	0.0136186
662.724	0.0137891
662.802	0.0138979
662.880	0.0138013
662.958	0.0137262
663.036	0.0138176
663.114	0.0136369
663.193	0.0138075
663.271	0.0138025
663.349	0.0137692
663.427	0.0138290
663.505	0.0137943
663.583	0.0136826
663.661	0.0137389
663.739	0.0139779
663.818	0.0136868
663.896	0.0137888
663.974	0.0137658
664.052	0.0137506
664.130	0.0137476
664.208	0.0136703
664.286	0.0136240
664.364	0.0136312
664.443	0.0135564
664.521	0.0135883
664.599	0.0135720
664.677	0.0135767
664.755	0.0135601
664.833	0.0134286
664.911	0.0136982
664.989	0.0135795
665.068	0.0135411
665.146	0.0133847
665.224	0.0133349
665.302	0.0136242
665.380	0.0135928
665.458	0.0135388
665.536	0.0136723
665.614	0.0136085
665.693	0.0136805
665.771	0.0137305
665.849	0.0136796
665.927	0.0136741
666.005	0.0136428
666.083	0.0137135
666.161	0.0137819
666.239	0.0137371
666.318	0.0137514
666.396	0.0135739
666.474	0.0137048
666.552	0.0136221
666.630	0.0135901
666.708	0.0135579
666.786	0.0135207
666.864	0.0135542
666.943	0.0134874
667.021	0.0133904
667.099	0.0134244
667.177	0.0132436
667.255	0.0133479
667.333	0.0132001
667.411	0.0132634
667.489	0.0134099
667.568	0.0134766
667.646	0.0133106
667.724	0.0134862
667.802	0.0135102
667.880	0.0135621
667.958	0.0136539
668.036	0.0137106
668.114	0.0138867
668.193	0.0137775
668.271	0.0139518
668.349	0.0140730
668.427	0.0142235
668.505	0.0141854
668.583	0.0141342
668.661	0.0142132
668.739	0.0142099
668.818	0.0140340
668.896	0.0139759
668.974	0.0140349
669.052	0.0140331
669.130	0.0139637
669.208	0.0139057
669.286	0.0138074
669.364	0.0135974
669.443	0.0135495
669.521	0.0137469
669.599	0.0133985
669.677	0.0134721
669.755	0.0135069
669.833	0.0135326
669.911	0.0134581
669.989	0.0134251
670.068	0.0134211
670.146	0.0135561
670.224	0.0135596
670.302	0.0134654
670.380	0.0137183
670.458	0.0138199
670.536	0.0138734
670.614	0.0139473
670.693	0.0140823
670.771	0.0143980
670.849	0.0143621
670.927	0.0144324
671.005	0.0145269
671.083	0.0146119
671.161	0.0144916
671.239	0.0146555
671.318	0.0147470
671.396	0.0146745
671.474	0.0144895
671.552	0.0146931
671.630	0.0145737
671.708	0.0143661
671.786	0.0143058
671.864	0.0140187
671.943	0.0139240
672.021	0.0137650
672.099	0.0137267
672.177	0.0135865
672.255	0.0134511
672.333	0.0133064
672.411	0.0131266
672.489	0.0132150
672.568	0.0131816
672.646	0.0128294
672.724	0.0128997
672.802	0.0130956
672.880	0.0130083
672.958	0.0131290
673.036	0.0133125
673.114	0.0132363
673.193	0.0135229
673.271	0.0138149
673.349	0.0139388
673.427	0.0141180
673.505	0.0143983
673.583	0.0146649
673.661	0.0149141
673.739	0.0150961
673.818	0.0151646
673.896	0.0153312
673.974	0.0153069
674.052	0.0153741
674.130	0.0154948
674.208	0.0154477
674.286	0.0153808
674.364	0.0152202
674.443	0.0151619
674.521	0.0149214
674.599	0.0146434
674.677	0.0145704
674.755	0.0142868
674.833	0.0140515
674.911	0.0137464
674.989	0.0136257
675.068	0.0133051
675.146	0.0130584
675.224	0.0128864
675.302	0.0126278
675.380	0.0124778
675.458	0.0122603
675.536	0.0122639
675.614	0.0121156
675.693	0.0122860
675.771	0.0119635
675.849	0.0121714
675.927	0.0121169
676.005	0.0123226
676.083	0.0125234
676.161	0.0126405
676.239	0.0129223
676.318	0.0130879
676.396	0.0134454
676.474	0.0135822
676.552	0.0137765
676.630	0.0140890
676.708	0.0143897
676.786	0.0145245
676.864	0.0145164
676.943	0.0148075
677.021	0.0148743
677.099	0.0150516
677.177	0.0151216
677.255	0.0150096
677.333	0.0150031
677.411	0.0151403
677.489	0.0149720
677.568	0.0148933
677.646	0.0148735
677.724	0.0148313
677.802	0.0146941
677.880	0.0146930
677.958	0.0145218
678.036	0.0142958
678.114	0.0141995
678.193	0.0139766
678.271	0.0140233
678.349	0.0138436
678.427	0.0137791
678.505	0.0136682
678.583	0.0135556
678.661	0.0133674
678.739	0.0132730
678.818	0.0130914
678.896	0.0132830
678.974	0.0132095
679.052	0.0131232
679.130	0.0130405
679.208	0.0131122
679.286	0.0128166
679.364	0.0127428
679.443	0.0126966
679.521	0.0126961
679.599	0.0127870
679.677	0.0127178
679.755	0.0128315
679.833	0.0128585
679.911	0.0127081
679.989	0.0128449
680.068	0.0129128
680.146	0.0128512
680.224	0.0130323
680.302	0.0132645
680.380	0.0131950
680.458	0.0132328
680.536	0.0132362
680.614	0.0133794
680.693	0.0134879
680.771	0.0135178
680.849	0.0138255
680.927	0.0139680
681.005	0.0139920
681.083	0.0140335
681.161	0.0143581
681.239	0.0145638
681.318	0.0146397
681.396	0.0149162
681.474	0.0149226
681.552	0.0150511
681.630	0.0153105
681.708	0.0153642
681.786	0.0155978
681.864	0.0156557
681.943	0.0155035
682.021	0.0156787
682.099	0.0154758
682.177	0.0155199
682.255	0.0155058
682.333	0.0154025
682.411	0.0154140
682.489	0.0152703
682.568	0.0152411
682.646	0.0151624
682.724	0.0150084
682.802	0.0148808
682.880	0.0146406
682.958	0.0144739
683.036	0.0142719
683.114	0.0141611
683.193	0.0140245
683.271	0.0137750
683.349	0.0136296
683.427	0.0133061
683.505	0.0131855
683.583	0.0128931
683.661	0.0128603
683.739	0.0127185
683.818	0.0126733
683.896	0.0125587
683.974	0.0122729
684.052	0.0122167
684.130	0.0121844
684.208	0.0120511
684.286	0.0123209
684.364	0.0122639
684.443	0.0122131
684.521	0.0121841
684.599	0.0122509
684.677	0.0124273
684.755	0.0125799
684.833	0.0126398
684.911	0.0128027
684.989	0.0130704
685.068	0.0131700
685.146	0.0134241
685.224	0.0135266
685.302	0.0136640
685.380	0.0138474
685.458	0.0140204
685.536	0.0143281
685.614	0.0145358
685.693	0.0146366
685.771	0.0148642
685.849	0.0150020
685.927	0.0152571
686.005	0.0153945
686.083	0.0156081
686.161	0.0156077
686.239	0.0156326
686.318	0.0158157
686.396	0.0158181
686.474	0.0159718
686.552	0.0158610
686.630	0.0157679
686.708	0.0157060
686.786	0.0156779
686.864	0.0155610
686.943	0.0155066
687.021	0.0153120
687.099	0.0152401
687.177	0.0151183
687.255	0.0148703
687.333	0.0146956
687.411	0.0145308
687.489	0.0143678
687.568	0.0141852
687.646	0.0140280
687.724	0.0137679
687.802	0.0137225
687.880	0.0134560
687.958	0.0132182
688.036	0.0130283
688.114	0.0131184
688.193	0.0128372
688.271	0.0128152
688.349	0.0126434
688.427	0.0126128
688.505	0.0124561
688.583	0.0124760
688.661	0.0125028
688.739	0.0122205
688.818	0.0120528
688.896	0.0121272
688.974	0.0122605
689.052	0.0123320
689.130	0.0122444
689.208	0.0124216
689.286	0.0124348
689.364	0.0126299
689.443	0.0128082
689.521	0.0128643
689.599	0.0131890
689.677	0.0133410
689.755	0.0134676
689.833	0.0135873
689.911	0.0138380
689.989	0.0138826
690.068	0.0139513
690.146	0.0140385
690.224	0.0143032
690.302	0.0142065
690.380	0.0142422
690.458	0.0143192
690.536	0.0144331
690.614	0.0142688
690.693	0.0142606
690.771	0.0144541
690.849	0.0144743
690.927	0.0145042
691.005	0.0144360
691.083	0.0142342
691.161	0.0145065
691.239	0.0142835
691.318	0.0144725
691.396	0.0144714
691.474	0.0143878
691.552	0.0145733
691.630	0.0145160
691.708	0.0146384
691.786	0.0147021
691.864	0.0148199
691.943	0.0148536
692.021	0.0151055
692.099	0.0151896
692.177	0.0152650
692.255	0.0153701
692.333	0.0155809
692.411	0.0155557
692.489	0.0155369
692.568	0.0155962
692.646	0.0156830
692.724	0.0158123
692.802	0.0154679
692.880	0.0154436
692.958	0.0152975
693.036	0.0153009
693.114	0.0150662
693.193	0.0148412
693.271	0.0145921
693.349	0.0145586
693.427	0.0141793
693.505	0.0139832
693.583	0.0135396
693.661	0.0132616
693.739	0.0130942
693.818	0.0126445
693.896	0.0125075
693.974	0.0121930
694.052	0.0118059
694.130	0.0115718
694.208	0.0114967
694.286	0.0112887
694.364	0.0109551
694.443	0.0108825
694.521	0.0107975
694.599	0.0108540
694.677	0.0107627
694.755	0.0107606
694.833	0.0110013
694.911	0.0110781
694.989	0.0111301
695.068	0.0113158
695.146	0.0114806
695.224	0.0115731
695.302	0.0121380
695.380	0.0124268
695.458	0.0128445
695.536	0.0133429
695.614	0.0134854
695.693	0.0139953
695.771	0.0144406
695.849	0.0147198
695.927	0.0151020
696.005	0.0154639
696.083	0.0157059
696.161	0.0160126
696.239	0.0163065
696.318	0.0166011
696.396	0.0167936
696.474	0.0168918
696.552	0.0170207
696.630	0.0171375
696.708	0.0170638
696.786	0.0170354
696.864	0.0170914
696.943	0.0168649
697.021	0.0167539
697.099	0.0165744
697.177	0.0162479
697.255	0.0161307
697.333	0.0157830
697.411	0.0156000
697.489	0.0153627
697.568	0.0151022
697.646	0.0148083
697.724	0.0144331
697.802	0.0141977
697.880	0.0140171
697.958	0.0137402
698.036	0.0135468
698.114	0.0134272
698.193	0.0128687
698.271	0.0127711
698.349	0.0126545
698.427	0.0123534
698.505	0.0121935
698.583	0.0120679
698.661	0.0119139
698.739	0.0117593
698.818	0.0116966
698.896	0.0117227
698.974	0.0118742
699.052	0.0118118
699.130	0.0117867
699.208	0.0117670
699.286	0.0118816
699.364	0.0117262
699.443	0.0118207
699.521	0.0118142
699.599	0.0118095
699.677	0.0117630
699.755	0.0116209
699.833	0.0116439
699.911	0.0116787
699.989	0.0117365
700.068	0.0119035
700.146	0.0119038
700.224	0.0119257
700.302	0.0121521
700.380	0.0125187
700.458	0.0125633
700.536	0.0129767
700.614	0.0133624
700.693	0.0134073
700.771	0.0138743
700.849	0.0142616
700.927	0.0144263
701.005	0.0150153
701.083	0.0152602
701.161	0.0157766
701.239	0.0159629
701.318	0.0161754
701.396	0.0165511
701.474	0.0167228
701.552	0.0167309
701.630	0.0170058
701.708	0.0170861
701.786	0.0171973
701.864	0.0169843
701.943	0.0169011
702.021	0.0167716
702.099	0.0167875
702.177	0.0166855
702.255	0.0162656
702.333	0.0160032
702.411	0.0158183
702.489	0.0155371
702.568	0.0152460
702.646	0.0151955
702.724	0.0148942
702.802	0.0146684
702.880	0.0144708
702.958	0.0142617
703.036	0.0141734
703.114	0.0138274
703.193	0.0138807
703.271	0.0137891
703.349	0.0136614
703.427	0.0134574
703.505	0.0135371
703.583	0.0134002
703.661	0.0133447
703.739	0.0131386
703.818	0.0131129
703.896	0.0130177
703.974	0.0128918
704.052	0.0127715
704.130	0.0127242
704.208	0.0126024
704.286	0.0125571
704.364	0.0126627
704.443	0.0124769
704.521	0.0124181
704.599	0.0124169
704.677	0.0123350
704.755	0.0123882
704.833	0.0124005
704.911	0.0124648
704.989	0.0126553
705.068	0.0126770
705.146	0.0124289
705.224	0.0126189
705.302	0.0126491
705.380	0.0125938
705.458	0.0126836
705.536	0.0126472
705.614	0.0127911
705.693	0.0126527
705.771	0.0128840
705.849	0.0130131
705.927	0.0130612
706.005	0.0133439
706.083	0.0133765
706.161	0.0134506
706.239	0.0136215
706.318	0.0138326
706.396	0.0139832
706.474	0.0144809
706.552	0.0144843
706.630	0.0145435
706.708	0.0147581
706.786	0.0150024
706.864	0.0151857
706.943	0.0153959
707.021	0.0154584
707.099	0.0155708
707.177	0.0157236
707.255	0.0158382
707.333	0.0158297
707.411	0.0159435
707.489	0.0160475
707.568	0.0160698
707.646	0.0159679
707.724	0.0159251
707.802	0.0158389
707.880	0.0156393
707.958	0.0154599
708.036	0.0153697
708.114	0.0151804
708.193	0.0149684
708.271	0.0149517
708.349	0.0147984
708.427	0.0146457
708.505	0.0144148
708.583	0.0143336
708.661	0.0143311
708.739	0.0140948
708.818	0.0139593
708.896	0.0138474
708.974	0.0136913
709.052	0.0135069
709.130	0.0135437
709.208	0.0132157
709.286	0.0130793
709.364	0.0128773
709.443	0.0127680
709.521	0.0125654
709.599	0.0122843
709.677	0.0121646
709.755	0.0119756
709.833	0.0118798
709.911	0.0119942
709.989	0.0117953
710.068	0.0117175
710.146	0.0118876
710.224	0.0120141
710.302	0.0120496
710.380	0.0121744
710.458	0.0121159
710.536	0.0122409
710.614	0.0126151
710.693	0.0125451
710.771	0.0126582
710.849	0.0128658
710.927	0.0129048
711.005	0.0130061
711.083	0.0131780
711.161	0.0133628
711.239	0.0133941
711.318	0.0133659
711.396	0.0135065
711.474	0.0138530
711.552	0.0137530
711.630	0.0137971
711.708	0.0139462
711.786	0.0139230
711.864	0.0141299
711.943	0.0139294
712.021	0.0140686
712.099	0.0141897
712.177	0.0143406
712.255	0.0142872
712.333	0.0144289
712.411	0.0143495
712.489	0.0146220
712.568	0.0148036
712.646	0.0148419
712.724	0.0150349
712.802	0.0150336
712.880	0.0151352
712.958	0.0153271
713.036	0.0153477
713.114	0.0153017
713.193	0.0154436
713.271	0.0152895
713.349	0.0150981
713.427	0.0149947
713.505	0.0151760
713.583	0.0148681
713.661	0.0147967
713.739	0.0146124
713.818	0.0145225
713.896	0.0144833
713.974	0.0143649
714.052	0.0142513
714.130	0.0141060
714.208	0.0140881
714.286	0.0142599
714.364	0.0139024
714.443	0.0138695
714.521	0.0138293
714.599	0.0138073
714.677	0.0137249
714.755	0.0136732
714.833	0.0136758
714.911	0.0136964
714.989	0.0136797
715.068	0.0136726
715.146	0.0135194
715.224	0.0133836
715.302	0.0134464
715.380	0.0133894
715.458	0.0133833
715.536	0.0132733
715.614	0.0133040
715.693	0.0132787
715.771	0.0131776
715.849	0.0132619
715.927	0.0132182
716.005	0.0132729
716.083	0.0132883
716.161	0.0133966
716.239	0.0134155
716.318	0.0133855
716.396	0.0134835
716.474	0.0135974
716.552	0.0135665
716.630	0.0137128
716.708	0.0136583
716.786	0.0137677
716.864	0.0137339
716.943	0.0137720
717.021	0.0138290
717.099	0.0140379
717.177	0.0138594
717.255	0.0137128
717.333	0.0136520
717.411	0.0137006
717.489	0.0135056
717.568	0.0135423
717.646	0.0131848
717.724	0.0130767
717.802	0.0129958
717.880	0.0130386
717.958	0.0127744
718.036	0.0129953
718.114	0.0128799
718.193	0.0129307
718.271	0.0129460
718.349	0.0129891
718.427	0.0131226
718.505	0.0132955
718.583	0.0133329
718.661	0.0134039
718.739	0.0135590
718.818	0.0138355
718.896	0.0139272
718.974	0.0139540
719.052	0.0141531
719.130	0.0144225
719.208	0.0146336
719.286	0.0148223
719.364	0.0149226
719.443	0.0149107
719.521	0.0151730
719.599	0.0152355
719.677	0.0155002
719.755	0.0155704
719.833	0.0155334
719.911	0.0155867
719.989	0.0155724
720.068	0.0153967
720.146	0.0153909
720.224	0.0154207
720.302	0.0153465
720.380	0.0151624
720.458	0.0150864
720.536	0.0149188
720.614	0.0148515
720.693	0.0146268
720.771	0.0145075
720.849	0.0144032
720.927	0.0141634
721.005	0.0141228
721.083	0.0139634
721.161	0.0137804
721.239	0.0136512
721.318	0.0135684
721.396	0.0133344
721.474	0.0133474
721.552	0.0132539
721.630	0.0131465
721.708	0.0129867
721.786	0.0129431
721.864	0.0126983
721.943	0.0128044
722.021	0.0125305
722.099	0.0125557
722.177	0.0126192
722.255	0.0124849
722.333	0.0123599
722.411	0.0124697
722.489	0.0124297
722.568	0.0124463
722.646	0.0124763
722.724	0.0125628
722.802	0.0127649
722.880	0.0127995
722.958	0.0127155
723.036	0.0130157
723.114	0.0130263
723.193	0.0129991
723.271	0.0130652
723.349	0.0131977
723.427	0.0133508
723.505	0.0133552
723.583	0.0133666
723.661	0.0133424
723.739	0.0134425
723.818	0.0133857
723.896	0.0135249
723.974	0.0135221
724.052	0.0135121
724.130	0.0136604
724.208	0.0137054
724.286	0.0137489
724.364	0.0139068
724.443	0.0140094
724.521	0.0139796
724.599	0.0140582
724.677	0.0142516
724.755	0.0143016
724.833	0.0142939
724.911	0.0145921
724.989	0.0147073
725.068	0.0146615
725.146	0.0147694
725.224	0.0149004
725.302	0.0148637
725.380	0.0148791
725.458	0.0149873
725.536	0.0150356
725.614	0.0149006
725.693	0.0149763
725.771	0.0148781
725.849	0.0146941
725.927	0.0146586
726.005	0.0148105
726.083	0.0145588
726.161	0.0145201
726.239	0.0144708
726.318	0.0144278
726.396	0.0143440
726.474	0.0142072
726.552	0.0142068
726.630	0.0142912
726.708	0.0143488
726.786	0.0142685
726.864	0.0143665
726.943	0.0143520
727.021	0.0144357
727.099	0.0144082
727.177	0.0144918
727.255	0.0143760
727.333	0.0142670
727.411	0.0142672
727.489	0.0142190
727.568	0.0141806
727.646	0.0140283
727.724	0.0138794
727.802	0.0139038
727.880	0.0137138
727.958	0.0136226
728.036	0.0135691
728.114	0.0134633
728.193	0.0133008
728.271	0.0133009
728.349	0.0131271
728.427	0.0130836
728.505	0.0131007
728.583	0.0129394
728.661	0.0130278
728.739	0.0129106
728.818	0.0128743
728.896	0.0128007
728.974	0.0128992
729.052	0.0127885
729.130	0.0128282
729.208	0.0127868
729.286	0.0127879
729.364	0.0128222
729.443	0.0128838
729.521	0.0128567
729.599	0.0127309
729.677	0.0129050
729.755	0.0129894
729.833	0.0130587
729.911	0.0129195
729.989	0.0130624
730.068	0.0129430
730.146	0.0130251
730.224	0.0132213
730.302	0.0133352
730.380	0.0134079
730.458	0.0133961
730.536	0.0136240
730.614	0.0138763
730.693	0.0138942
730.771	0.0140860
730.849	0.0140823
730.927	0.0142013
731.005	0.0143352
731.083	0.0145609
731.161	0.0145744
731.239	0.0146430
731.318	0.0147345
731.396	0.0149788
731.474	0.0149950
731.552	0.0151531
731.630	0.0153619
731.708	0.0152964
731.786	0.0151291
731.864	0.0150774
731.943	0.0153149
732.021	0.0151656
732.099	0.0150857
732.177	0.0150533
732.255	0.0148856
732.333	0.0148870
732.411	0.0147769
732.489	0.0145929
732.568	0.0146523
732.646	0.0144646
732.724	0.0145514
732.802	0.0143452
732.880	0.0143262
732.958	0.0143166
733.036	0.0142561
733.114	0.0141735
733.193	0.0140649
733.271	0.0141628
733.349	0.0140363
733.427	0.0138934
733.505	0.0137275
733.583	0.0136291
733.661	0.0135606
733.739	0.0134308
733.818	0.0134052
733.896	0.0133285
733.974	0.0130092
734.052	0.0129418
734.130	0.0128250
734.208	0.0127904
734.286	0.0126191
734.364	0.0124537
734.443	0.0125281
734.521	0.0122250
734.599	0.0123804
734.677	0.0123662
734.755	0.0123889
734.833	0.0124322
734.911	0.0126030
734.989	0.0125552
735.068	0.0125777
735.146	0.0126950
735.224	0.0128072
735.302	0.0128928
735.380	0.0130089
735.458	0.0128526
735.536	0.0129102
735.614	0.0133162
735.693	0.0132146
735.771	0.0131940
735.849	0.0133585
735.927	0.0133493
736.005	0.0134829
736.083	0.0135495
736.161	0.0136239
736.239	0.0136473
736.318	0.0137088
736.396	0.0136993
736.474	0.0138503
736.552	0.0140093
736.630	0.0139569
736.708	0.0142273
736.786	0.0144592
736.864	0.0144202
736.943	0.0145165
737.021	0.0145350
737.099	0.0145948
737.177	0.0147475
737.255	0.0149178
737.333	0.0149707
737.411	0.0149718
737.489	0.0150460
737.568	0.0149065
737.646	0.0149052
737.724	0.0146986
737.802	0.0146302
737.880	0.0146027
737.958	0.0144825
738.036	0.0145020
738.114	0.0144770
738.193	0.0144197
738.271	0.0143304
738.349	0.0143598
738.427	0.0142682
738.505	0.0142659
738.583	0.0141428
738.661	0.0142891
738.739	0.0141415
738.818	0.0141042
738.896	0.0140073
738.974	0.0139075
739.052	0.0140005
739.130	0.0140179
739.208	0.0140861
739.286	0.0139252
739.364	0.0139574
739.443	0.0138559
739.521	0.0137366
739.599	0.0136753
739.677	0.0137441
739.755	0.0138528
739.833	0.0137092
739.911	0.0136267
739.989	0.0135712
740.068	0.0135007
740.146	0.0134773
740.224	0.0133268
740.302	0.0133680
740.380	0.0132967
740.458	0.0132509
740.536	0.0131923
740.614	0.0131356
740.693	0.0131030
740.771	0.0131213
740.849	0.0130231
740.927	0.0130357
741.005	0.0130442
741.083	0.0130615
741.161	0.0132073
741.239	0.0129736
741.318	0.0130369
741.396	0.0130069
741.474	0.0130873
741.552	0.0132019
741.630	0.0129972
741.708	0.0130994
741.786	0.0130769
741.864	0.0130663
741.943	0.0129730
742.021	0.0131483
742.099	0.0131276
742.177	0.0133224
742.255	0.0134537
742.333	0.0132855
742.411	0.0135434
742.489	0.0135015
742.568	0.0136442
742.646	0.0138351
742.724	0.0137611
742.802	0.0138938
742.880	0.0140253
742.958	0.0140345
743.036	0.0141997
743.114	0.0142599
743.193	0.0143506
743.271	0.0143462
743.349	0.0143410
743.427	0.0144150
743.505	0.0144113
743.583	0.0144795
743.661	0.0146279
743.739	0.0144180
743.818	0.0145181
743.896	0.0144967
743.974	0.0145699
744.052	0.0146105
744.130	0.0144796
744.208	0.0145238
744.286	0.0146467
744.364	0.0146503
744.443	0.0145370
744.521	0.0146496
744.599	0.0145740
744.677	0.0145650
744.755	0.0145826
744.833	0.0145499
744.911	0.0145573
744.989	0.0145580
745.068	0.0143115
745.146	0.0143021
745.224	0.0142594
745.302	0.0144276
745.380	0.0141634
745.458	0.0142290
745.536	0.0140401
745.614	0.0139275
745.693	0.0138371
745.771	0.0137544
745.849	0.0137656
745.927	0.0136432
746.005	0.0134718
746.083	0.0135690
746.161	0.0135205
746.239	0.0131403
746.318	0.0133224
746.396	0.0133060
746.474	0.0132175
746.552	0.0130772
746.630	0.0129799
746.708	0.0130803
746.786	0.0130590
746.864	0.0130317
746.943	0.0129153
747.021	0.0128644
747.099	0.0128459
747.177	0.0129501
747.255	0.0129463
747.333	0.0129202
747.411	0.0130692
747.489	0.0131335
747.568	0.0130370
747.646	0.0129608
747.724	0.0129854
747.802	0.0133025
747.880	0.0131535
747.958	0.0131763
748.036	0.0132300
748.114	0.0134212
748.193	0.0134201
748.271	0.0134641
748.349	0.0135785
748.427	0.0136578
748.505	0.0138255
748.583	0.0138904
748.661	0.0139848
748.739	0.0140424
748.818	0.0142702
748.896	0.0142946
748.974	0.0145757
749.052	0.0144888
749.130	0.0146707
749.208	0.0146685
749.286	0.0147277
749.364	0.0148997
749.443	0.0148065
749.521	0.0148828
749.599	0.0147621
749.677	0.0147413
749.755	0.0148433
749.833	0.0148401
749.911	0.0147655
749.989	0.0145993
750.068	0.0146587
750.146	0.0146138
750.224	0.0145982
750.302	0.0144376
750.380	0.0144650
750.458	0.0144888
750.536	0.0144765
750.614	0.0143738
750.693	0.0143214
750.771	0.0142774
750.849	0.0142099
750.927	0.0143071
751.005	0.0141338
751.083	0.0141882
751.161	0.0140323
751.239	0.0138766
751.318	0.0139438
751.396	0.0137466
751.474	0.0136543
751.552	0.0135178
751.630	0.0136829
751.708	0.0134602
751.786	0.0134539
751.864	0.0132954
751.943	0.0131020
752.021	0.0130922
752.099	0.0131236
752.177	0.0130752
752.255	0.0132166
752.333	0.0130434
752.411	0.0130038
752.489	0.0130908
752.568	0.0131633
752.646	0.0130669
752.724	0.0130900
752.802	0.0130802
752.880	0.0132248
752.958	0.0132439
753.036	0.0132099
753.114	0.0131950
753.193	0.0133157
753.271	0.0134419
753.349	0.0134461
753.427	0.0134261
753.505	0.0133750
753.583	0.0136314
753.661	0.0135120
753.739	0.0135769
753.818	0.0136295
753.896	0.0136490
753.974	0.0137312
754.052	0.0138657
754.130	0.0139005
754.208	0.0138444
754.286	0.0138532
754.364	0.0139726
754.443	0.0140263
754.521	0.0141110
754.599	0.0142897
754.677	0.0143015
754.755	0.0141153
754.833	0.0142274
754.911	0.0144865
754.989	0.0143845
755.068	0.0142048
755.146	0.0143069
755.224	0.0142259
755.302	0.0143665
755.380	0.0143176
755.458	0.0141405
755.536	0.0141149
755.614	0.0141065
755.693	0.0140186
755.771	0.0140109
755.849	0.0139769
755.927	0.0139888
756.005	0.0140446
756.083	0.0140746
756.161	0.0140583
756.239	0.0140816
756.318	0.0140397
756.396	0.0140034
756.474	0.0140087
756.552	0.0138934
756.630	0.0140720
756.708	0.0141061
756.786	0.0141233
756.864	0.0139828
756.943	0.0137949
757.021	0.0139684
757.099	0.0139758
757.177	0.0138899
757.255	0.0138567
757.333	0.0140365
757.411	0.0139240
757.489	0.0140066
757.568	0.0140047
757.646	0.0139965
757.724	0.0139098
757.802	0.0139432
757.880	0.0138524
757.958	0.0139489
758.036	0.0138352
758.114	0.0138216
758.193	0.0137813
758.271	0.0137516
758.349	0.0135809
758.427	0.0135797
758.505	0.0134035
758.583	0.0134569
758.661	0.0133663
758.739	0.0132141
758.818	0.0133021
758.896	0.0131036
758.974	0.0131986
759.052	0.0131892
759.130	0.0132384
759.208	0.0131388
759.286	0.0131851
759.364	0.0132668
759.443	0.0134313
759.521	0.0132393
759.599	0.0132872
759.677	0.0133715
759.755	0.0134266
759.833	0.0133695
759.911	0.0134500
759.989	0.0136402
760.068	0.0136242
760.146	0.0136713
760.224	0.0137130
760.302	0.0137612
760.380	0.0136598
760.458	0.0137093
760.536	0.0138418
760.614	0.0138398
760.693	0.0139694
760.771	0.0139529
760.849	0.0141510
760.927	0.0138779
761.005	0.0140639
761.083	0.0140341
761.161	0.0141711
761.239	0.0139778
761.318	0.0139818
761.396	0.0141454
761.474	0.0141312
761.552	0.0140995
761.630	0.0142530
761.708	0.0143043
761.786	0.0142045
761.864	0.0142381
761.943	0.0142123
762.021	0.0141727
762.099	0.0141512
762.177	0.0142419
762.255	0.0141818
762.333	0.0141235
762.411	0.0140573
762.489	0.0141983
762.568	0.0142611
762.646	0.0141501
762.724	0.0141250
762.802	0.0141723
762.880	0.0142264
762.958	0.0138873
763.036	0.0140239
763.114	0.0139349
763.193	0.0140860
763.271	0.0138657
763.349	0.0139394
763.427	0.0139514
763.505	0.0138782
763.583	0.0139442
763.661	0.0137958
763.739	0.0137689
763.818	0.0136359
763.896	0.0137028
763.974	0.0137057
764.052	0.0136797
764.130	0.0138506
764.208	0.0137687
764.286	0.0135746
764.364	0.0135068
764.443	0.0135919
764.521	0.0137338
764.599	0.0136424
764.677	0.0135507
764.755	0.0135522
764.833	0.0135973
764.911	0.0137118
764.989	0.0134765
765.068	0.0135418
765.146	0.0134850
765.224	0.0136243
765.302	0.0137103
765.380	0.0135727
765.458	0.0137038
765.536	0.0137468
765.614	0.0137918
765.693	0.0137122
765.771	0.0138982
765.849	0.0139666
765.927	0.0138824
766.005	0.0138619
766.083	0.0139843
766.161	0.0141657
766.239	0.0139313
766.318	0.0139568
766.396	0.0140116
766.474	0.0142508
766.552	0.0141747
766.630	0.0142295
766.708	0.0142300
766.786	0.0142567
766.864	0.0141630
766.943	0.0141048
767.021	0.0141205
767.099	0.0142094
767.177	0.0142306
767.255	0.0141647
767.333	0.0141740
767.411	0.0140179
767.489	0.0141383
767.568	0.0140167
767.646	0.0140848
767.724	0.0140242
767.802	0.0141303
767.880	0.0139507
767.958	0.0139272
768.036	0.0139349
768.114	0.0139422
768.193	0.0138944
768.271	0.0139252
768.349	0.0138948
768.427	0.0138875
768.505	0.0139458
768.583	0.0138099
768.661	0.0138251
768.739	0.0138142
768.818	0.0138409
768.896	0.0136025
768.974	0.0137309
769.052	0.0136397
769.130	0.0135883
769.208	0.0134926
769.286	0.0133224
769.364	0.0134715
769.443	0.0135832
769.521	0.0135075
769.599	0.0134971
769.677	0.0135738
769.755	0.0135667
769.833	0.0135816
769.911	0.0136285
769.989	0.0136108
770.068	0.0135475
770.146	0.0139668
770.224	0.0138651
770.302	0.0137963
770.380	0.0140022
770.458	0.0141135
770.536	0.0140900
770.614	0.0140373
770.693	0.0142175
770.771	0.0141473
770.849	0.0142281
770.927	0.0143774
771.005	0.0144827
771.083	0.0144090
771.161	0.0143224
771.239	0.0142266
771.318	0.0142131
771.396	0.0141969
771.474	0.0139698
771.552	0.0140535
771.630	0.0138431
771.708	0.0139533
771.786	0.0137997
771.864	0.0136868
771.943	0.0136891
772.021	0.0136423
772.099	0.0135323
772.177	0.0135439
772.255	0.0134523
772.333	0.0134493
772.411	0.0134136
772.489	0.0134419
772.568	0.0134392
772.646	0.0134272
772.724	0.0134410
772.802	0.0135048
772.880	0.0133833
772.958	0.0134216
773.036	0.0134089
773.114	0.0134166
773.193	0.0134128
773.271	0.0134914
773.349	0.0136914
773.427	0.0135242
773.505	0.0135854
773.583	0.0137910
773.661	0.0135943
773.739	0.0135735
773.818	0.0136261
773.896	0.0137383
773.974	0.0138847
774.052	0.0137775
774.130	0.0138173
774.208	0.0138657
774.286	0.0139470
774.364	0.0141724
774.443	0.0140943
774.521	0.0141167
774.599	0.0142620
774.677	0.0142381
774.755	0.0142514
774.833	0.0143008
774.911	0.0144935
774.989	0.0144880
775.068	0.0142831
775.146	0.0144022
775.224	0.0143645
775.302	0.0143096
775.380	0.0141913
775.458	0.0141512
775.536	0.0140411
775.614	0.0141425
775.693	0.0138992
775.771	0.0138863
775.849	0.0138948
775.927	0.0138285
776.005	0.0138123
776.083	0.0136758
776.161	0.0137659
776.239	0.0137431
776.318	0.0135576
776.396	0.0137197
776.474	0.0136844
776.552	0.0137882
776.630	0.0137253
776.708	0.0136806
776.786	0.0136729
776.864	0.0137863
776.943	0.0137526
777.021	0.0137430
777.099	0.0136603
777.177	0.0137094
777.255	0.0137579
777.333	0.0136823
777.411	0.0137730
777.489	0.0136280
777.568	0.0134985
777.646	0.0135352
777.724	0.0135090
777.802	0.0135048
777.880	0.0136520
777.958	0.0136960
778.036	0.0135820
778.114	0.0135362
778.193	0.0137103
778.271	0.0137911
778.349	0.0136372
778.427	0.0137090
778.505	0.0137386
778.583	0.0137350
778.661	0.0139668
778.739	0.0139159
778.818	0.0138760
778.896	0.0139745
778.974	0.0141723
779.052	0.0141190
779.130	0.0139381
779.208	0.0141089
779.286	0.0139752
779.364	0.0141929
779.443	0.0141610
779.521	0.0140456
779.599	0.0139618
779.677	0.0140992
779.755	0.0140247
779.833	0.0140108
779.911	0.0139107
779.989	0.0138831
780.068	0.0139957
780.146	0.0140063
780.224	0.0139758
780.302	0.0140961
780.380	0.0138932
780.458	0.0138643
780.536	0.0139090
780.614	0.0138564
780.693	0.0138954
780.771	0.0139529
780.849	0.0139539
780.927	0.0138943
781.005	0.0136931
781.083	0.0137641
781.161	0.0139231
781.239	0.0137128
781.318	0.0136173
781.396	0.0137620
781.474	0.0135888
781.552	0.0135942
781.630	0.0135153
781.708	0.0138031
781.786	0.0136607
781.864	0.0136430
781.943	0.0138085
782.021	0.0136301
782.099	0.0136594
782.177	0.0136471
782.255	0.0139118
782.333	0.0138539
782.411	0.0136262
782.489	0.0137274
782.568	0.0139310
782.646	0.0139124
782.724	0.0138894
782.802	0.0139219
782.880	0.0140781
782.958	0.0142098
783.036	0.0141906
783.114	0.0141727
783.193	0.0141756
783.271	0.0142106
783.349	0.0141631
783.427	0.0142008
783.505	0.0141959
783.583	0.0142833
783.661	0.0142413
783.739	0.0141774
783.818	0.0142110
783.896	0.0140985
783.974	0.0141744
784.052	0.0140291
784.130	0.0140463
784.208	0.0140118
784.286	0.0139641
784.364	0.0140760
784.443	0.0139461
784.521	0.0137840
784.599	0.0138653
784.677	0.0139339
784.755	0.0138876
784.833	0.0138567
784.911	0.0136090
784.989	0.0136845
785.068	0.0136742
785.146	0.0137475
785.224	0.0137257
785.302	0.0136633
785.380	0.0135977
785.458	0.0136140
785.536	0.0135758
785.614	0.0136196
785.693	0.0136145
785.771	0.0136423
785.849	0.0135165
785.927	0.0135949
786.005	0.0134650
786.083	0.0135506
786.161	0.0136342
786.239	0.0136373
786.318	0.0136211
786.396	0.0136765
786.474	0.0138744
786.552	0.0139966
786.630	0.0139127
786.708	0.0138101
786.786	0.0138409
786.864	0.0138268
786.943	0.0138802
787.021	0.0139799
787.099	0.0140040
787.177	0.0139970
787.255	0.0139789
787.333	0.0138631
787.411	0.0141483
787.489	0.0142381
787.568	0.0141039
787.646	0.0140511
787.724	0.0142074
787.802	0.0140015
787.880	0.0141525
787.958	0.0140622
788.036	0.0143274
788.114	0.0143095
788.193	0.0142808
788.271	0.0141074
788.349	0.0141853
788.427	0.0142058
788.505	0.0140596
788.583	0.0140378
788.661	0.0140187
788.739	0.0140019
788.818	0.0140019
788.896	0.0141700
788.974	0.0138026
789.052	0.0139138
789.130	0.0140503
789.208	0.0140142
789.286	0.0139519
789.364	0.0138483
789.443	0.0138638
789.521	0.0139060
789.599	0.0139846
789.677	0.0139748
789.755	0.0137910
789.833	0.0139192
789.911	0.0137766
789.989	0.0137011
790.068	0.0135727
790.146	0.0136099
790.224	0.0135355
790.302	0.0135414
790.380	0.0134005
790.458	0.0134023
790.536	0.0133707
790.614	0.0132519
790.693	0.0131450
790.771	0.0131985
790.849	0.0131931
790.927	0.0131413
791.005	0.0129854
791.083	0.0131339
791.161	0.0133404
791.239	0.0132395
791.318	0.0132521
791.396	0.0134728
791.474	0.0135149
791.552	0.0133934
791.630	0.0134805
791.708	0.0136100
791.786	0.0137016
791.864	0.0138052
791.943	0.0136576
792.021	0.0138495
792.099	0.0140696
792.177	0.0140929
792.255	0.0140549
792.333	0.0141146
792.411	0.0142763
792.489	0.0143103
792.568	0.0141814
792.646	0.0144450
792.724	0.0143515
792.802	0.0144263
792.880	0.0144877
792.958	0.0143934
793.036	0.0144721
793.114	0.0145930
793.193	0.0145766
793.271	0.0144991
793.349	0.0144774
793.427	0.0145103
793.505	0.0143219
793.583	0.0143603
793.661	0.0143659
793.739	0.0143812
793.818	0.0142875
793.896	0.0143684
793.974	0.0142223
794.052	0.0143442
794.130	0.0142257
794.208	0.0141848
794.286	0.0140344
794.364	0.0139745
794.443	0.0140301
794.521	0.0140057
794.599	0.0140111
794.677	0.0139272
794.755	0.0138606
794.833	0.0139153
794.911	0.0136341
794.989	0.0136501
795.068	0.0136658
795.146	0.0136320
795.224	0.0136745
795.302	0.0135485
795.380	0.0134537
795.458	0.0136247
795.536	0.0136355
795.614	0.0135360
795.693	0.0134488
795.771	0.0134303
795.849	0.0133772
795.927	0.0134305
796.005	0.0133701
796.083	0.0134943
796.161	0.0135108
796.239	0.0135064
796.318	0.0134802
796.396	0.0135835
796.474	0.0134831
796.552	0.0135723
796.630	0.0135994
796.708	0.0136449
796.786	0.0137172
796.864	0.0137049
796.943	0.0137057
797.021	0.0137206
797.099	0.0137697
797.177	0.0138851
797.255	0.0139827
797.333	0.0137006
797.411	0.0138349
797.489	0.0139301
797.568	0.0139936
797.646	0.0140169
797.724	0.0142731
797.802	0.0143343
797.880	0.0143825
797.958	0.0143784
798.036	0.0144997
798.114	0.0144315
798.193	0.0144814
798.271	0.0146830
798.349	0.0148062
798.427	0.0146547
798.505	0.0145310
798.583	0.0145739
798.661	0.0146407
798.739	0.0147421
798.818	0.0145474
798.896	0.0145615
798.974	0.0144419
799.052	0.0144244
799.130	0.0144050
799.208	0.0141159
799.286	0.0140865
799.364	0.0140333
799.443	0.0139443
799.521	0.0137967
799.599	0.0138382
799.677	0.0139219
799.755	0.0137090
799.833	0.0136921
799.911	0.0135721
799.989	0.0135873
800.068	0.0135975
800.146	0.0135446
800.224	0.0135944
800.302	0.0136060
800.380	0.0134013
800.458	0.0134350
800.536	0.0134232
800.614	0.0135870
800.693	0.0132994
800.771	0.0133624
800.849	0.0133244
800.927	0.0133206
801.005	0.0132697
801.083	0.0133392
801.161	0.0132327
801.239	0.0131444
801.318	0.0131208
801.396	0.0132812
801.474	0.0131491
801.552	0.0134052
801.630	0.0131261
801.708	0.0131762
801.786	0.0133619
801.864	0.0133817
801.943	0.0132723
802.021	0.0134836
802.099	0.0134425
802.177	0.0133984
802.255	0.0134137
802.333	0.0135717
802.411	0.0136491
802.489	0.0136150
802.568	0.0136104
802.646	0.0137598
802.724	0.0137393
802.802	0.0137159
802.880	0.0138183
802.958	0.0137939
803.036	0.0139400
803.114	0.0139201
803.193	0.0138711
803.271	0.0139414
803.349	0.0140430
803.427	0.0140221
803.505	0.0140932
803.583	0.0140063
803.661	0.0142262
803.739	0.0141607
803.818	0.0139932
803.896	0.0141885
803.974	0.0141182
804.052	0.0140684
804.130	0.0140708
804.208	0.0141167
804.286	0.0144165
804.364	0.0143627
804.443	0.0142860
804.521	0.0142899
804.599	0.0143396
804.677	0.0143044
804.755	0.0142340
804.833	0.0142616
804.911	0.0143422
804.989	0.0144017
805.068	0.0142801
805.146	0.0142744
805.224	0.0142668
805.302	0.0142198
805.380	0.0140785
805.458	0.0140830
805.536	0.0140861
805.614	0.0140208
805.693	0.0139368
805.771	0.0138505
805.849	0.0138174
805.927	0.0137336
806.005	0.0136939
806.083	0.0137543
806.161	0.0135384
806.239	0.0134500
806.318	0.0134805
806.396	0.0133932
806.474	0.0134663
806.552	0.0134713
806.630	0.0135020
806.708	0.0134267
806.786	0.0135774
806.864	0.0134817
806.943	0.0135104
807.021	0.0134464
807.099	0.0135042
807.177	0.0135045
807.255	0.0135242
807.333	0.0137376
807.411	0.0136763
807.489	0.0136502
807.568	0.0136462
807.646	0.0136793
807.724	0.0137041
807.802	0.0137227
807.880	0.0136674
807.958	0.0138430
808.036	0.0138015
808.114	0.0138985
808.193	0.0139233
808.271	0.0138487
808.349	0.0139820
808.427	0.0139407
808.505	0.0139648
808.583	0.0139161
808.661	0.0140054
808.739	0.0141497
808.818	0.0139952
808.896	0.0140211
808.974	0.0141138
809.052	0.0141256
809.130	0.0140939
809.208	0.0141330
809.286	0.0142015
809.364	0.0141190
809.443	0.0142198
809.521	0.0141928
809.599	0.0141409
809.677	0.0141819
809.755	0.0141328
809.833	0.0141839
809.911	0.0141637
809.989	0.0141035
810.068	0.0139592
810.146	0.0139783
810.224	0.0139435
810.302	0.0140864
810.380	0.0139806
810.458	0.0140175
810.536	0.0140388
810.614	0.0140211
810.693	0.0139489
810.771	0.0139725
810.849	0.0138198
810.927	0.0138847
811.005	0.0137923
811.083	0.0136983
811.161	0.0136720
811.239	0.0137636
811.318	0.0136759
811.396	0.0136555
811.474	0.0134691
811.552	0.0134340
811.630	0.0134817
811.708	0.0133641
811.786	0.0132277
811.864	0.0133714
811.943	0.0134055
812.021	0.0135117
812.099	0.0133662
812.177	0.0132507
812.255	0.0131622
812.333	0.0133778
812.411	0.0134497
812.489	0.0134257
812.568	0.0133601
812.646	0.0134050
812.724	0.0133278
812.802	0.0133422
812.880	0.0134871
812.958	0.0136002
813.036	0.0134612
813.114	0.0134864
813.193	0.0136131
813.271	0.0136308
813.349	0.0136082
813.427	0.0137707
813.505	0.0138168
813.583	0.0138497
813.661	0.0138635
813.739	0.0138333
813.818	0.0137653
813.896	0.0139352
813.974	0.0139077
814.052	0.0139055
814.130	0.0139261
814.208	0.0138631
814.286	0.0138694
814.364	0.0139570
814.443	0.0140059
814.521	0.0139739
814.599	0.0139101
814.677	0.0138953
814.755	0.0139065
814.833	0.0138284
814.911	0.0139430
814.989	0.0140694
815.068	0.0139070
815.146	0.0138480
815.224	0.0138846
815.302	0.0138824
815.380	0.0137807
815.458	0.0138063
815.536	0.0137230
815.614	0.0137060
815.693	0.0137893
815.771	0.0138360
815.849	0.0139368
815.927	0.0139989
816.005	0.0138071
816.083	0.0139703
816.161	0.0139911
816.239	0.0141448
816.318	0.0140273
816.396	0.0140755
816.474	0.0141541
816.552	0.0140645
816.630	0.0142229
816.708	0.0141887
816.786	0.0140751
816.864	0.0141071
816.943	0.0139810
817.021	0.0140489
817.099	0.0140814
817.177	0.0139590
817.255	0.0140782
817.333	0.0139312
817.411	0.0139688
817.489	0.0137653
817.568	0.0139105
817.646	0.0138284
817.724	0.0137391
817.802	0.0137133
817.880	0.0139561
817.958	0.0138356
818.036	0.0136257
818.114	0.0139034
818.193	0.0138100
818.271	0.0136411
818.349	0.0136601
818.427	0.0136910
818.505	0.0138165
818.583	0.0137537
818.661	0.0137844
818.739	0.0138626
818.818	0.0138083
818.896	0.0138655
818.974	0.0139783
819.052	0.0141182
819.130	0.0140669
819.208	0.0140629
819.286	0.0140736
819.364	0.0140920
819.443	0.0141619
819.521	0.0140608
819.599	0.0142254
819.677	0.0140675
819.755	0.0142061
819.833	0.0140926
819.911	0.0141479
819.989	0.0140697
820.068	0.0140833
820.146	0.0139674
820.224	0.0139508
820.302	0.0137635
820.380	0.0137290
820.458	0.0136715
820.536	0.0136996
820.614	0.0138235
820.693	0.0136736
820.771	0.0137054
820.849	0.0136073
820.927	0.0136057
821.005	0.0135899
821.083	0.0136370
821.161	0.0138410
821.239	0.0136391
821.318	0.0135400
821.396	0.0135957
821.474	0.0134657
821.552	0.0135712
821.630	0.0134489
821.708	0.0134972
821.786	0.0136861
821.864	0.0135648
821.943	0.0135992
822.021	0.0137438
822.099	0.0138672
822.177	0.0137577
822.255	0.0137479
822.333	0.0138592
822.411	0.0138584
822.489	0.0139165
822.568	0.0138828
822.646	0.0140343
822.724	0.0142844
822.802	0.0140247
822.880	0.0141561
822.958	0.0141507
823.036	0.0142044
823.114	0.0142329
823.193	0.0141409
823.271	0.0143288
823.349	0.0142723
823.427	0.0142460
823.505	0.0140899
823.583	0.0142274
823.661	0.0142031
823.739	0.0141557
823.818	0.0141680
823.896	0.0142082
823.974	0.0141019
824.052	0.0141592
824.130	0.0141016
824.208	0.0139971
824.286	0.0141253
824.364	0.0141172
824.443	0.0140230
824.521	0.0139334
824.599	0.0139153
824.677	0.0139426
824.755	0.0138258
824.833	0.0138647
824.911	0.0136546
824.989	0.0136283
825.068	0.0136295
825.146	0.0136329
825.224	0.0136283
825.302	0.0136987
825.380	0.0135728
825.458	0.0137296
825.536	0.0138480
825.614	0.0137708
825.693	0.0136106
825.771	0.0137534
825.849	0.0138647
825.927	0.0138858
826.005	0.0138206
826.083	0.0138428
826.161	0.0139972
826.239	0.0139021
826.318	0.0137316
826.396	0.0137921
826.474	0.0139230
826.552	0.0138866
826.630	0.0138226
826.708	0.0138232
826.786	0.0139466
826.864	0.0137555
826.943	0.0138319
827.021	0.0138714
827.099	0.0140111
827.177	0.0139297
827.255	0.0138796
827.333	0.0139000
827.411	0.0140068
827.489	0.0141096
827.568	0.0140630
827.646	0.0141264
827.724	0.0141862
827.802	0.0143452
827.880	0.0142996
827.958	0.0141257
828.036	0.0142528
828.114	0.0143452
828.193	0.0143291
828.271	0.0143090
828.349	0.0143029
828.427	0.0143288
828.505	0.0143028
828.583	0.0143633
828.661	0.0142456
828.739	0.0143074
828.818	0.0142160
828.896	0.0141869
828.974	0.0142893
829.052	0.0139783
829.130	0.0139616
829.208	0.0140999
829.286	0.0140706
829.364	0.0140140
829.443	0.0140711
829.521	0.0138748
829.599	0.0141552
829.677	0.0139874
829.755	0.0139483
829.833	0.0140947
829.911	0.0140716
829.989	0.0140603
830.068	0.0138505
830.146	0.0140222
830.224	0.0139500
830.302	0.0140451
830.380	0.0139254
830.458	0.0138702
830.536	0.0138864
830.614	0.0138848
830.693	0.0137594
830.771	0.0138334
830.849	0.0136623
830.927	0.0138448
831.005	0.0137165
831.083	0.0135728
831.161	0.0136466
831.239	0.0136143
831.318	0.0135388
831.396	0.0134586
831.474	0.0134822
831.552	0.0134436
831.630	0.0134503
831.708	0.0133815
831.786	0.0132400
831.864	0.0132227
831.943	0.0131271
832.021	0.0131577
832.099	0.0131654
832.177	0.0130137
832.255	0.0131367
832.333	0.0130739
832.411	0.0130790
832.489	0.0132738
832.568	0.0132904
832.646	0.0132661
832.724	0.0134366
832.802	0.0134342
832.880	0.0134771
832.958	0.0136351
833.036	0.0137432
833.114	0.0137844
833.193	0.0137797
833.271	0.0138723
833.349	0.0140716
833.427	0.0140520
833.505	0.0141283
833.583	0.0141766
833.661	0.0142253
833.739	0.0142073
833.818	0.0142709
833.896	0.0143088
833.974	0.0142792
834.052	0.0142068
834.130	0.0141521
834.208	0.0143291
834.286	0.0142081
834.364	0.0141965
834.443	0.0142065
834.521	0.0139987
834.599	0.0140206
834.677	0.0141337
834.755	0.0139290
834.833	0.0138364
834.911	0.0138013
834.989	0.0138770
835.068	0.0137933
835.146	0.0137528
835.224	0.0135792
835.302	0.0134852
835.380	0.0135450
835.458	0.0136586
835.536	0.0134917
835.614	0.0134757
835.693	0.0134625
835.771	0.0134325
835.849	0.0132784
835.927	0.0133994
836.005	0.0134409
836.083	0.0134177
836.161	0.0134116
836.239	0.0133207
836.318	0.0133837
836.396	0.0135561
836.474	0.0135031
836.552	0.0135000
836.630	0.0134976
836.708	0.0136912
836.786	0.0135928
836.864	0.0135289
836.943	0.0135543
837.021	0.0136301
837.099	0.0136230
837.177	0.0136741
837.255	0.0136852
837.333	0.0136730
837.411	0.0138573
837.489	0.0137154
837.568	0.0137500
837.646	0.0137768
837.724	0.0138499
837.802	0.0137292
837.880	0.0139195
837.958	0.0139807
838.036	0.0138445
838.114	0.0139429
838.193	0.0138762
838.271	0.0138016
838.349	0.0139629
838.427	0.0139220
838.505	0.0138687
838.583	0.0138027
838.661	0.0139239
838.739	0.0137241
838.818	0.0138634
838.896	0.0136931
838.974	0.0137088
839.052	0.0137086
839.130	0.0138170
839.208	0.0137661
839.286	0.0137917
839.364	0.0136546
839.443	0.0137623
839.521	0.0137922
839.599	0.0139186
839.677	0.0137368
839.755	0.0139317
839.833	0.0139334
839.911	0.0138770
839.989	0.0140065
840.068	0.0140929
840.146	0.0139123
840.224	0.0140541
840.302	0.0140296
840.380	0.0142461
840.458	0.0142720
840.536	0.0142120
840.614	0.0141908
840.693	0.0142120
840.771	0.0144057
840.849	0.0143357
840.927	0.0142887
841.005	0.0144207
841.083	0.0144057
841.161	0.0143428
841.239	0.0142253
841.318	0.0142619
841.396	0.0141077
841.474	0.0140972
841.552	0.0141868
841.630	0.0141331
841.708	0.0140729
841.786	0.0139594
841.864	0.0139175
841.943	0.0139204
842.021	0.0139679
842.099	0.0139304
842.177	0.0136478
842.255	0.0135299
842.333	0.0136880
842.411	0.0136765
842.489	0.0135859
842.568	0.0136375
842.646	0.0136426
842.724	0.0134357
842.802	0.0135143
842.880	0.0135447
842.958	0.0137200
843.036	0.0135625
843.114	0.0136335
843.193	0.0137777
843.271	0.0137019
843.349	0.0136253
843.427	0.0134760
843.505	0.0137251
843.583	0.0138303
843.661	0.0136417
843.739	0.0135543
843.818	0.0139094
843.896	0.0139211
843.974	0.0137774
844.052	0.0139169
844.130	0.0139718
844.208	0.0140034
844.286	0.0139261
844.364	0.0139706
844.443	0.0140339
844.521	0.0139560
844.599	0.0138724
844.677	0.0139167
844.755	0.0140349
844.833	0.0138042
844.911	0.0138392
844.989	0.0139403
845.068	0.0138736
845.146	0.0139109
845.224	0.0139694
845.302	0.0139542
845.380	0.0140073
845.458	0.0139632
845.536	0.0139402
845.614	0.0140582
845.693	0.0139883
845.771	0.0140126
845.849	0.0139409
845.927	0.0142168
846.005	0.0140524
846.083	0.0140305
846.161	0.0140604
846.239	0.0140179
846.318	0.0141004
846.396	0.0139678
846.474	0.0141527
846.552	0.0141124
846.630	0.0140923
846.708	0.0140254
846.786	0.0141752
846.864	0.0141571
846.943	0.0140628
847.021	0.0140777
847.099	0.0141897
847.177	0.0142052
847.255	0.0140460
847.333	0.0139536
847.411	0.0140083
847.489	0.0140057
847.568	0.0140484
847.646	0.0139558
847.724	0.0138332
847.802	0.0138499
847.880	0.0138836
847.958	0.0138102
848.036	0.0136716
848.114	0.0135045
848.193	0.0135247
848.271	0.0134464
848.349	0.0134988
848.427	0.0135655
848.505	0.0135422
848.583	0.0136285
848.661	0.0135106
848.739	0.0134995
848.818	0.0136434
848.896	0.0137076
848.974	0.0136491
849.052	0.0136076
849.130	0.0136880
849.208	0.0136775
849.286	0.0136436
849.364	0.0136283
849.443	0.0136736
849.521	0.0137061
849.599	0.0135910
849.677	0.0137044
849.755	0.0137589
849.833	0.0136700
849.911	0.0136915
849.989	0.0137297
850.068	0.0137640
850.146	0.0137534
850.224	0.0138128
850.302	0.0138747
850.380	0.0138456
850.458	0.0138653
850.536	0.0138352
850.614	0.0139733
850.693	0.0139563
850.771	0.0139621
850.849	0.0137552
850.927	0.0139741
851.005	0.0138990
851.083	0.0139809
851.161	0.0138704
851.239	0.0139673
851.318	0.0140326
851.396	0.0140538
851.474	0.0139430
851.552	0.0140213
851.630	0.0141643
851.708	0.0141847
851.786	0.0141485
851.864	0.0140449
851.943	0.0141325
852.021	0.0140811
852.099	0.0140252
852.177	0.0140835
852.255	0.0141127
852.333	0.0139710
852.411	0.0139822
852.489	0.0140013
852.568	0.0139304
852.646	0.0139243
852.724	0.0139278
852.802	0.0138078
852.880	0.0138165
852.958	0.0138422
853.036	0.0137603
853.114	0.0139240
853.193	0.0137938
853.271	0.0138610
853.349	0.0138625
853.427	0.0138602
853.505	0.0138957
853.583	0.0138073
853.661	0.0138023
853.739	0.0137751
853.818	0.0138082
853.896	0.0138187
853.974	0.0137411
854.052	0.0138823
854.130	0.0138566
854.208	0.0139051
854.286	0.0140065
854.364	0.0139240
854.443	0.0139497
854.521	0.0138291
854.599	0.0139534
854.677	0.0138087
854.755	0.0137959
854.833	0.0137716
854.911	0.0137749
854.989	0.0137206
855.068	0.0134851
855.146	0.0135778
855.224	0.0135222
855.302	0.0134329
855.380	0.0135315
855.458	0.0133688
855.536	0.0134907
855.614	0.0134283
855.693	0.0134505
855.771	0.0134943
855.849	0.0134780
855.927	0.0134868
856.005	0.0134876
856.083	0.0137035
856.161	0.0137318
856.239	0.0137310
856.318	0.0137075
856.396	0.0138296
856.474	0.0138285
856.552	0.0137335
856.630	0.0139608
856.708	0.0140407
856.786	0.0139800
856.864	0.0138776
856.943	0.0139915
857.021	0.0140222
857.099	0.0140436
857.177	0.0140091
857.255	0.0141650
857.333	0.0140829
857.411	0.0139938
857.489	0.0140566
857.568	0.0141067
857.646	0.0141277
857.724	0.0141728
857.802	0.0142141
857.880	0.0142297
857.958	0.0142173
858.036	0.0141273
858.114	0.0141570
858.193	0.0141333
858.271	0.0140936
858.349	0.0142445
858.427	0.0141392
858.505	0.0141619
858.583	0.0141338
858.661	0.0139530
858.739	0.0140687
858.818	0.0141039
858.896	0.0139590
858.974	0.0140632
859.052	0.0141536
859.130	0.0138830
859.208	0.0139856
859.286	0.0140594
859.364	0.0140105
859.443	0.0138676
859.521	0.0137844
859.599	0.0140028
859.677	0.0139443
859.755	0.0137403
859.833	0.0138708
859.911	0.0137766
859.989	0.0136879
860.068	0.0137822
860.146	0.0137099
860.224	0.0136230
860.302	0.0135185
860.380	0.0136617
860.458	0.0136916
860.536	0.0135959
860.614	0.0137809
860.693	0.0136575
860.771	0.0137493
860.849	0.0136939
860.927	0.0136049
861.005	0.0135693
861.083	0.0135947
861.161	0.0135132
861.239	0.0136395
861.318	0.0136317
861.396	0.0134564
861.474	0.0135928
861.552	0.0137124
861.630	0.0136656
861.708	0.0137068
861.786	0.0136503
861.864	0.0137686
861.943	0.0137587
862.021	0.0137434
862.099	0.0137785
862.177	0.0137949
862.255	0.0139464
862.333	0.0140564
862.411	0.0139729
862.489	0.0140932
862.568	0.0140507
862.646	0.0142194
862.724	0.0142740
862.802	0.0140782
862.880	0.0142380
862.958	0.0141935
863.036	0.0142510
863.114	0.0142658
863.193	0.0142814
863.271	0.0141718
863.349	0.0142133
863.427	0.0142812
863.505	0.0142277
863.583	0.0140877
863.661	0.0142332
863.739	0.0140746
863.818	0.0140938
863.896	0.0140529
863.974	0.0138501
864.052	0.0139911
864.130	0.0140974
864.208	0.0139639
864.286	0.0138145
864.364	0.0139589
864.443	0.0139287
864.521	0.0139532
864.599	0.0138638
864.677	0.0138767
864.755	0.0138657
864.833	0.0139362
864.911	0.0139362
864.989	0.0140047
865.068	0.0138455
865.146	0.0138280
865.224	0.0139294
865.302	0.0139399
865.380	0.0139124
865.458	0.0139629
865.536	0.0138134
865.614	0.0138252
865.693	0.0138449
865.771	0.0138487
865.849	0.0138422
865.927	0.0138931
866.005	0.0136878
866.083	0.0136262
866.161	0.0135124
866.239	0.0136033
866.318	0.0135683
866.396	0.0136199
866.474	0.0135651
866.552	0.0135281
866.630	0.0134879
866.708	0.0134665
866.786	0.0135623
866.864	0.0135922
866.943	0.0135597
867.021	0.0135771
867.099	0.0135792
867.177	0.0136129
867.255	0.0136588
867.333	0.0136092
867.411	0.0137419
867.489	0.0139471
867.568	0.0139767
867.646	0.0137980
867.724	0.0138383
867.802	0.0140108
867.880	0.0140231
867.958	0.0140607
868.036	0.0142165
868.114	0.0142744
868.193	0.0142107
868.271	0.0140958
868.349	0.0142381
868.427	0.0143058
868.505	0.0141579
868.583	0.0141943
868.661	0.0141650
868.739	0.0142028
868.818	0.0140935
868.896	0.0141160
868.974	0.0140187
869.052	0.0140839
869.130	0.0142239
869.208	0.0143077
869.286	0.0141403
869.364	0.0141892
869.443	0.0141180
869.521	0.0141605
869.599	0.0141788
869.677	0.0142362
869.755	0.0141258
869.833	0.0142178
869.911	0.0141573
869.989	0.0141037
870.068	0.0140981
870.146	0.0140328
870.224	0.0140533
870.302	0.0141522
870.380	0.0140171
870.458	0.0140238
870.536	0.0140137
870.614	0.0138200
870.693	0.0138249
870.771	0.0139659
870.849	0.0139075
870.927	0.0137587
871.005	0.0139479
871.083	0.0139209
871.161	0.0137017
871.239	0.0137197
871.318	0.0138504
871.396	0.0139370
871.474	0.0139370
871.552	0.0138157
871.630	0.0138521
871.708	0.0138578
871.786	0.0138763
871.864	0.0138264
871.943	0.0138792
872.021	0.0137811
872.099	0.0137232
872.177	0.0139522
872.255	0.0139421
872.333	0.0139605
872.411	0.0139441
872.489	0.0138925
872.568	0.0139468
872.646	0.0139669
872.724	0.0139329
872.802	0.0139103
872.880	0.0138770
872.958	0.0139306
873.036	0.0138902
873.114	0.0138309
873.193	0.0137600
873.271	0.0138957
873.349	0.0137703
873.427	0.0137892
873.505	0.0138622
873.583	0.0137089
873.661	0.0138108
873.739	0.0138763
873.818	0.0137350
873.896	0.0136503
873.974	0.0136163
874.052	0.0137480
874.130	0.0137920
874.208	0.0136111
874.286	0.0138045
874.364	0.0139591
874.443	0.0138762
874.521	0.0137624
874.599	0.0138883
874.677	0.0138504
874.755	0.0137767
874.833	0.0137612
874.911	0.0139274
874.989	0.0138779
875.068	0.0138055
875.146	0.0137185
875.224	0.0139156
875.302	0.0137196
875.380	0.0137436
875.458	0.0138077
875.536	0.0138835
875.614	0.0138357
875.693	0.0136295
875.771	0.0135646
875.849	0.0137971
875.927	0.0137958
876.005	0.0137625
876.083	0.0137461
876.161	0.0137853
876.239	0.0137862
876.318	0.0137946
876.396	0.0138197
876.474	0.0138451
876.552	0.0138158
876.630	0.0139341
876.708	0.0139066
876.786	0.0138364
876.864	0.0137776
876.943	0.0139031
877.021	0.0138591
877.099	0.0138565
877.177	0.0139599
877.255	0.0139148
877.333	0.0138367
877.411	0.0137699
877.489	0.0138344
877.568	0.0139196
877.646	0.0138552
877.724	0.0137904
877.802	0.0138961
877.880	0.0137796
877.958	0.0136917
878.036	0.0137926
878.114	0.0137146
878.193	0.0137205
878.271	0.0137466
878.349	0.0138426
878.427	0.0137348
878.505	0.0137628
878.583	0.0137070
878.661	0.0137855
878.739	0.0138072
878.818	0.0137041
878.896	0.0136522
878.974	0.0137413
879.052	0.0137653
879.130	0.0137271
879.208	0.0137518
879.286	0.0137601
879.364	0.0136814
879.443	0.0137787
879.521	0.0137530
879.599	0.0137056
879.677	0.0138374
879.755	0.0138034
879.833	0.0138163
879.911	0.0137792
879.989	0.0139381
880.068	0.0137875
880.146	0.0138328
880.224	0.0137616
880.302	0.0138649
880.380	0.0139711
880.458	0.0139046
880.536	0.0139824
880.614	0.0141167
880.693	0.0140810
880.771	0.0140837
880.849	0.0140631
880.927	0.0140585
881.005	0.0141357
881.083	0.0140895
881.161	0.0142186
881.239	0.0140741
881.318	0.0141497
881.396	0.0141953
881.474	0.0141719
881.552	0.0141691
881.630	0.0141844
881.708	0.0141976
881.786	0.0141294
881.864	0.0141279
881.943	0.0141584
882.021	0.0141277
882.099	0.0140562
882.177	0.0139737
882.255	0.0141570
882.333	0.0139705
882.411	0.0140704
882.489	0.0139085
882.568	0.0139875
882.646	0.0140394
882.724	0.0138317
882.802	0.0138970
882.880	0.0138250
882.958	0.0138274
883.036	0.0140089
883.114	0.0139966
883.193	0.0138240
883.271	0.0137765
883.349	0.0137937
883.427	0.0138209
883.505	0.0140401
883.583	0.0138821
883.661	0.0139403
883.739	0.0139292
883.818	0.0141679
883.896	0.0141132
883.974	0.0140770
884.052	0.0142188
884.130	0.0140501
884.208	0.0141562
884.286	0.0143044
884.364	0.0142745
884.443	0.0142267
884.521	0.0142145
884.599	0.0142073
884.677	0.0143043
884.755	0.0142915
884.833	0.0141067
884.911	0.0142085
884.989	0.0140826
885.068	0.0141889
885.146	0.0142452
885.224	0.0139632
885.302	0.0139716
885.380	0.0139849
885.458	0.0141148
885.536	0.0138499
885.614	0.0139019
885.693	0.0139372
885.771	0.0137778
885.849	0.0138789
885.927	0.0136416
886.005	0.0136668
886.083	0.0136229
886.161	0.0136339
886.239	0.0135183
886.318	0.0135387
886.396	0.0136993
886.474	0.0136572
886.552	0.0136585
886.630	0.0137732
886.708	0.0136763
886.786	0.0135301
886.864	0.0136189
886.943	0.0138174
887.021	0.0138006
887.099	0.0139065
887.177	0.0139099
887.255	0.0140179
887.333	0.0139342
887.411	0.0140403
887.489	0.0140685
887.568	0.0140565
887.646	0.0141698
887.724	0.0141373
887.802	0.0141685
887.880	0.0141944
887.958	0.0142110
888.036	0.0139524
888.114	0.0141521
888.193	0.0141606
888.271	0.0141389
888.349	0.0140222
888.427	0.0140005
888.505	0.0140639
888.583	0.0140250
888.661	0.0139154
888.739	0.0139971
888.818	0.0138808
888.896	0.0139474
888.974	0.0139704
889.052	0.0139067
889.130	0.0138077
889.208	0.0137592
889.286	0.0138692
889.364	0.0138442
889.443	0.0138682
889.521	0.0138134
889.599	0.0137049
889.677	0.0137338
889.755	0.0137743
889.833	0.0136899
889.911	0.0136802
889.989	0.0135442
890.068	0.0136704
890.146	0.0135847
890.224	0.0134344
890.302	0.0135387
890.380	0.0137014
890.458	0.0136353
890.536	0.0136292
890.614	0.0135229
890.693	0.0136558
890.771	0.0136524
890.849	0.0134564
890.927	0.0135532
891.005	0.0138133
891.083	0.0136019
891.161	0.0136684
891.239	0.0137689
891.318	0.0136601
891.396	0.0136552
891.474	0.0137418
891.552	0.0136806
891.630	0.0136742
891.708	0.0138706
891.786	0.0138018
891.864	0.0136549
891.943	0.0138438
892.021	0.0138336
892.099	0.0138520
892.177	0.0140290
892.255	0.0139140
892.333	0.0139127
892.411	0.0139867
892.489	0.0140783
892.568	0.0140559
892.646	0.0140253
892.724	0.0140484
892.802	0.0141761
892.880	0.0141373
892.958	0.0140991
893.036	0.0140292
893.114	0.0139935
893.193	0.0139828
893.271	0.0141090
893.349	0.0139439
893.427	0.0138775
893.505	0.0139368
893.583	0.0138122
893.661	0.0137686
893.739	0.0138569
893.818	0.0138406
893.896	0.0137540
893.974	0.0137823
894.052	0.0137685
894.130	0.0137282
894.208	0.0137227
894.286	0.0135820
894.364	0.0135781
894.443	0.0136182
894.521	0.0136153
894.599	0.0137482
894.677	0.0136163
894.755	0.0136543
894.833	0.0136388
894.911	0.0135983
894.989	0.0137971
895.068	0.0137628
895.146	0.0136595
895.224	0.0135549
895.302	0.0136446
895.380	0.0137125
895.458	0.0137945
895.536	0.0138683
895.614	0.0137866
895.693	0.0139351
895.771	0.0137724
895.849	0.0136839
895.927	0.0138011
896.005	0.0137846
896.083	0.0138406
896.161	0.0136588
896.239	0.0136913
896.318	0.0136219
896.396	0.0135857
896.474	0.0136555
896.552	0.0136668
896.630	0.0136611
896.708	0.0136779
896.786	0.0137350
896.864	0.0137920
896.943	0.0137843
897.021	0.0137424
897.099	0.0138857
897.177	0.0138747
897.255	0.0139188
897.333	0.0138864
897.411	0.0140282
897.489	0.0139346
897.568	0.0138332
897.646	0.0138896
897.724	0.0139291
897.802	0.0139748
897.880	0.0139317
897.958	0.0139167
898.036	0.0138930
898.114	0.0139013
898.193	0.0140801
898.271	0.0140295
898.349	0.0140273
898.427	0.0139132
898.505	0.0139892
898.583	0.0140159
898.661	0.0138601
898.739	0.0138450
898.818	0.0138255
898.896	0.0139643
898.974	0.0139674
899.052	0.0138188
899.130	0.0139275
899.208	0.0137850
899.286	0.0138555
899.364	0.0138105
899.443	0.0139379
899.521	0.0138781
899.599	0.0138976
899.677	0.0138712
899.755	0.0138464
899.833	0.0139101
899.911	0.0138558
899.989	0.0139574
900.068	0.0139640
900.146	0.0138023
900.224	0.0138604
900.302	0.0138995
900.380	0.0139361
900.458	0.0140347
900.536	0.0140025
900.614	0.0138142
900.693	0.0139277
900.771	0.0138585
900.849	0.0138962
900.927	0.0138764
901.005	0.0138892
901.083	0.0138243
901.161	0.0139113
901.239	0.0138488
901.318	0.0138259
901.396	0.0137653
901.474	0.0138031
901.552	0.0137170
901.630	0.0136039
901.708	0.0137500
901.786	0.0136401
901.864	0.0134638
901.943	0.0138082
902.021	0.0136848
902.099	0.0137006
902.177	0.0137532
902.255	0.0138072
902.333	0.0138061
902.411	0.0138341
902.489	0.0138462
902.568	0.0137803
902.646	0.0139436
902.724	0.0139394
902.802	0.0139634
902.880	0.0140240
902.958	0.0141656
903.036	0.0139372
903.114	0.0139587
903.193	0.0138657
903.271	0.0139508
903.349	0.0139427
903.427	0.0138039
903.505	0.0138162
903.583	0.0138412
903.661	0.0138859
903.739	0.0139268
903.818	0.0138573
903.896	0.0137005
903.974	0.0139139
904.052	0.0139429
904.130	0.0139169
904.208	0.0138622
904.286	0.0137386
904.364	0.0138275
904.443	0.0138400
904.521	0.0138576
904.599	0.0137611
904.677	0.0138186
904.755	0.0137601
904.833	0.0137905
904.911	0.0138673
904.989	0.0138811
905.068	0.0137402
905.146	0.0136485
905.224	0.0137798
905.302	0.0136893
905.380	0.0137428
905.458	0.0137418
905.536	0.0136414
905.614	0.0138210
905.693	0.0136362
905.771	0.0137054
905.849	0.0137891
905.927	0.0137968
906.005	0.0138210
906.083	0.0138670
906.161	0.0136871
906.239	0.0138754
906.318	0.0139412
906.396	0.0138530
906.474	0.0138894
906.552	0.0139257
906.630	0.0137270
906.708	0.0138570
906.786	0.0138481
906.864	0.0138077
906.943	0.0138832
907.021	0.0139108
907.099	0.0138134
907.177	0.0138951
907.255	0.0138712
907.333	0.0138537
907.411	0.0138596
907.489	0.0139499
907.568	0.0139748
907.646	0.0137987
907.724	0.0139513
907.802	0.0139288
907.880	0.0139046
907.958	0.0139573
908.036	0.0140348
908.114	0.0140639
908.193	0.0140102
908.271	0.0138436
908.349	0.0138766
908.427	0.0139935
908.505	0.0138663
908.583	0.0139838
908.661	0.0138634
908.739	0.0139040
908.818	0.0139157
908.896	0.0137443
908.974	0.0137538
909.052	0.0138055
909.130	0.0138460
909.208	0.0137926
909.286	0.0136826
909.364	0.0137645
909.443	0.0137484
909.521	0.0135957
909.599	0.0137952
909.677	0.0136248
909.755	0.0135320
909.833	0.0135735
909.911	0.0134951
909.989	0.0135278
910.068	0.0135001
910.146	0.0135250
910.224	0.0134357
910.302	0.0134765
910.380	0.0135811
910.458	0.0136449
910.536	0.0134980
910.614	0.0135909
910.693	0.0135773
910.771	0.0136008
910.849	0.0135589
910.927	0.0137215
911.005	0.0138748
911.083	0.0137460
911.161	0.0137115
911.239	0.0137907
911.318	0.0137838
911.396	0.0138213
911.474	0.0139208
911.552	0.0139557
911.630	0.0138673
911.708	0.0137801
911.786	0.0136879
911.864	0.0137476
911.943	0.0137473
912.021	0.0137737
912.099	0.0137591
912.177	0.0136655
912.255	0.0136411
912.333	0.0137503
912.411	0.0137029
912.489	0.0136399
912.568	0.0137152
912.646	0.0137946
912.724	0.0138298
912.802	0.0139506
912.880	0.0139526
912.958	0.0140677
913.036	0.0139413
913.114	0.0137813
913.193	0.0139496
913.271	0.0138765
913.349	0.0139153
913.427	0.0138321
913.505	0.0138918
913.583	0.0139655
913.661	0.0139238
913.739	0.0138883
913.818	0.0138238
913.896	0.0138186
913.974	0.0136519
914.052	0.0138219
914.130	0.0136677
914.208	0.0137588
914.286	0.0138054
914.364	0.0136512
914.443	0.0135874
914.521	0.0136179
914.599	0.0137458
914.677	0.0136817
914.755	0.0136034
914.833	0.0135724
914.911	0.0135825
914.989	0.0136833
915.068	0.0136607
915.146	0.0136148
915.224	0.0137273
915.302	0.0135836
915.380	0.0136976
915.458	0.0135551
915.536	0.0136788
915.614	0.0136785
915.693	0.0138851
915.771	0.0137598
915.849	0.0136901
915.927	0.0137875
916.005	0.0139506
916.083	0.0140144
916.161	0.0139317
916.239	0.0140307
916.318	0.0140340
916.396	0.0140591
916.474	0.0140101
916.552	0.0141136
916.630	0.0140826
916.708	0.0140116
916.786	0.0140549
916.864	0.0142383
916.943	0.0141299
917.021	0.0140722
917.099	0.0141751
917.177	0.0141470
917.255	0.0140350
917.333	0.0141542
917.411	0.0140908
917.489	0.0140855
917.568	0.0141310
917.646	0.0141506
917.724	0.0140380
917.802	0.0139990
917.880	0.0140788
917.958	0.0140840
918.036	0.0140463
918.114	0.0140205
918.193	0.0139510
918.271	0.0140600
918.349	0.0139339
918.427	0.0139699
918.505	0.0140611
918.583	0.0139581
918.661	0.0140225
918.739	0.0140820
918.818	0.0139697
918.896	0.0138706
918.974	0.0140108
919.052	0.0139786
919.130	0.0138119
919.208	0.0137840
919.286	0.0139967
919.364	0.0139381
919.443	0.0139510
919.521	0.0139984
919.599	0.0138272
919.677	0.0137482
919.755	0.0138869
919.833	0.0138786
919.911	0.0138731
919.989	0.0137487
920.068	0.0137985
920.146	0.0138934
920.224	0.0137865
920.302	0.0137923
920.380	0.0138260
920.458	0.0137833
920.536	0.0138377
920.614	0.0137202
920.693	0.0138348
920.771	0.0137092
920.849	0.0137063
920.927	0.0137746
921.005	0.0136623
921.083	0.0136614
921.161	0.0138126
921.239	0.0137611
921.318	0.0137332
921.396	0.0139731
921.474	0.0138714
921.552	0.0137101
921.630	0.0136967
921.708	0.0137551
921.786	0.0135914
921.864	0.0137617
921.943	0.0136899
922.021	0.0136357
922.099	0.0135582
922.177	0.0137428
922.255	0.0135400
922.333	0.0136328
922.411	0.0135937
922.489	0.0137988
922.568	0.0135446
922.646	0.0134364
922.724	0.0134889
922.802	0.0135670
922.880	0.0135479
922.958	0.0136204
923.036	0.0135094
923.114	0.0136146
923.193	0.0136472
923.271	0.0136232
923.349	0.0135572
923.427	0.0137118
923.505	0.0136714
923.583	0.0136062
923.661	0.0135823
923.739	0.0136249
923.818	0.0135653
923.896	0.0137311
923.974	0.0135692
924.052	0.0136463
924.130	0.0138826
924.208	0.0136922
924.286	0.0136716
924.364	0.0136941
924.443	0.0137077
924.521	0.0138068
924.599	0.0137696
924.677	0.0137989
924.755	0.0139025
924.833	0.0138638
924.911	0.0139057
924.989	0.0138084
925.068	0.0139219
925.146	0.0139217
925.224	0.0138584
925.302	0.0139442
925.380	0.0139186
925.458	0.0139469
925.536	0.0139642
925.614	0.0140392
925.693	0.0139491
925.771	0.0139325
925.849	0.0140617
925.927	0.0138902
926.005	0.0139337
926.083	0.0140193
926.161	0.0140485
926.239	0.0140372
926.318	0.0140826
926.396	0.0140259
926.474	0.0141200
926.552	0.0139319
926.630	0.0138993
926.708	0.0139337
926.786	0.0139170
926.864	0.0139673
926.943	0.0139312
927.021	0.0139661
927.099	0.0138783
927.177	0.0137894
927.255	0.0137759
927.333	0.0136656
927.411	0.0138342
927.489	0.0138403
927.568	0.0137586
927.646	0.0137707
927.724	0.0137321
927.802	0.0136550
927.880	0.0137944
927.958	0.0138269
928.036	0.0138062
928.114	0.0136340
928.193	0.0137032
928.271	0.0138924
928.349	0.0137601
928.427	0.0137615
928.505	0.0138509
928.583	0.0137959
928.661	0.0139576
928.739	0.0141290
928.818	0.0139435
928.896	0.0139275
928.974	0.0139586
929.052	0.0139231
929.130	0.0140178
929.208	0.0140818
929.286	0.0139203
929.364	0.0139753
929.443	0.0139093
929.521	0.0139671
929.599	0.0139229
929.677	0.0140686
929.755	0.0139395
929.833	0.0139527
929.911	0.0140115
929.989	0.0140719
930.068	0.0140993
930.146	0.0139274
930.224	0.0140959
930.302	0.0139828
930.380	0.0141374
930.458	0.0140648
930.536	0.0139686
930.614	0.0140864
930.693	0.0140205
930.771	0.0142471
930.849	0.0142212
930.927	0.0141830
931.005	0.0140563
931.083	0.0140825
931.161	0.0141815
931.239	0.0140285
931.318	0.0139867
931.396	0.0140021
931.474	0.0139806
931.552	0.0140028
931.630	0.0140455
931.708	0.0140674
931.786	0.0140026
931.864	0.0139949
931.943	0.0140003
932.021	0.0138896
932.099	0.0138669
932.177	0.0139925
932.255	0.0138789
932.333	0.0138615
932.411	0.0139033
932.489	0.0139283
932.568	0.0139969
932.646	0.0139545
932.724	0.0139677
932.802	0.0138763
932.880	0.0137010
932.958	0.0137311
933.036	0.0137090
933.114	0.0136883
933.193	0.0137761
933.271	0.0136626
933.349	0.0137117
933.427	0.0137260
933.505	0.0137317
933.583	0.0138155
933.661	0.0137822
933.739	0.0137193
933.818	0.0137476
933.896	0.0138118
933.974	0.0136880
934.052	0.0137926
934.130	0.0137476
934.208	0.0137841
934.286	0.0136214
934.364	0.0137377
934.443	0.0138823
934.521	0.0138547
934.599	0.0137158
934.677	0.0136993
934.755	0.0137625
934.833	0.0138510
934.911	0.0137476
934.989	0.0137069
935.068	0.0137617
935.146	0.0138074
935.224	0.0138481
935.302	0.0137238
935.380	0.0139480
935.458	0.0138264
935.536	0.0138495
935.614	0.0137949
935.693	0.0138637
935.771	0.0139277
935.849	0.0139447
935.927	0.0138198
936.005	0.0139296
936.083	0.0139420
936.161	0.0139063
936.239	0.0138194
936.318	0.0139333
936.396	0.0138603
936.474	0.0139046
936.552	0.0139042
936.630	0.0138876
936.708	0.0139062
936.786	0.0138288
936.864	0.0139643
936.943	0.0138828
937.021	0.0138680
937.099	0.0137543
937.177	0.0138565
937.255	0.0138678
937.333	0.0138490
937.411	0.0139015
937.489	0.0139986
937.568	0.0137794
937.646	0.0137915
937.724	0.0138589
937.802	0.0139521
937.880	0.0138193
937.958	0.0138904
938.036	0.0138108
938.114	0.0138461
938.193	0.0139434
938.271	0.0139318
938.349	0.0138621
938.427	0.0138448
938.505	0.0138875
938.583	0.0138947
938.661	0.0138474
938.739	0.0139629
938.818	0.0139236
938.896	0.0138331
938.974	0.0137578
939.052	0.0138515
939.130	0.0138750
939.208	0.0138158
939.286	0.0138511
939.364	0.0138538
939.443	0.0138720
939.521	0.0138450
939.599	0.0138811
939.677	0.0138734
939.755	0.0140095
939.833	0.0139500
939.911	0.0138698
939.989	0.0139217
940.068	0.0139536
940.146	0.0139072
940.224	0.0138980
940.302	0.0140982
940.380	0.0141451
940.458	0.0140275
940.536	0.0140311
940.614	0.0140652
940.693	0.0139417
940.771	0.0140206
940.849	0.0140668
940.927	0.0139810
941.005	0.0140413
941.083	0.0141026
941.161	0.0138819
941.239	0.0139420
941.318	0.0140573
941.396	0.0139472
941.474	0.0139838
941.552	0.0138979
941.630	0.0137342
941.708	0.0137865
941.786	0.0139369
941.864	0.0138408
941.943	0.0137516
942.021	0.0138696
942.099	0.0138226
942.177	0.0138398
942.255	0.0137654
942.333	0.0136737
942.411	0.0137634
942.489	0.0138245
942.568	0.0138786
942.646	0.0137551
942.724	0.0139352
942.802	0.0137808
942.880	0.0140329
942.958	0.0139741
943.036	0.0137676
943.114	0.0138350
943.193	0.0139435
943.271	0.0140338
943.349	0.0138370
943.427	0.0139346
943.505	0.0138998
943.583	0.0138540
943.661	0.0137901
943.739	0.0137653
943.818	0.0141100
943.896	0.0138882
943.974	0.0140057
944.052	0.0137463
944.130	0.0138615
944.208	0.0138993
944.286	0.0138210
944.364	0.0138705
944.443	0.0140129
944.521	0.0139524
944.599	0.0139232
944.677	0.0139214
944.755	0.0137391
944.833	0.0138982
944.911	0.0139530
944.989	0.0138498
945.068	0.0139238
945.146	0.0138459
945.224	0.0138801
945.302	0.0139199
945.380	0.0138516
945.458	0.0138651
945.536	0.0138477
945.614	0.0138089
945.693	0.0139628
945.771	0.0138522
945.849	0.0137821
945.927	0.0138012
946.005	0.0139807
946.083	0.0140098
946.161	0.0138957
946.239	0.0139597
946.318	0.0139526
946.396	0.0140212
946.474	0.0139843
946.552	0.0140241
946.630	0.0140338
946.708	0.0141283
946.786	0.0139419
946.864	0.0140168
946.943	0.0140833
947.021	0.0139719
947.099	0.0141528
947.177	0.0140118
947.255	0.0140929
947.333	0.0140369
947.411	0.0140199
947.489	0.0142512
947.568	0.0140029
947.646	0.0140549
947.724	0.0140853
947.802	0.0140688
947.880	0.0140741
947.958	0.0140652
948.036	0.0141228
948.114	0.0140242
948.193	0.0138967
948.271	0.0139846
948.349	0.0139598
948.427	0.0138879
948.505	0.0139635
948.583	0.0137557
948.661	0.0139975
948.739	0.0140143
948.818	0.0138584
948.896	0.0138805
948.974	0.0137545
949.052	0.0138330
949.130	0.0138496
949.208	0.0139784
949.286	0.0137577
949.364	0.0136459
949.443	0.0137200
949.521	0.0136748
949.599	0.0135567
949.677	0.0137472
949.755	0.0138597
949.833	0.0136991
949.911	0.0135944
949.989	0.0138097
950.068	0.0137025
950.146	0.0138074
950.224	0.0136539
950.302	0.0136579
950.380	0.0137251
950.458	0.0136206
950.536	0.0138295
950.614	0.0138469
950.693	0.0138580
950.771	0.0137907
950.849	0.0139597
950.927	0.0138201
951.005	0.0138268
951.083	0.0138666
951.161	0.0139394
951.239	0.0142083
951.318	0.0140679
951.396	0.0139441
951.474	0.0140327
951.552	0.0139771
951.630	0.0139983
951.708	0.0141689
951.786	0.0142177
951.864	0.0140823
951.943	0.0141927
952.021	0.0141595
952.099	0.0142211
952.177	0.0140577
952.255	0.0140063
952.333	0.0141795
952.411	0.0142103
952.489	0.0142894
952.568	0.0141148
952.646	0.0141026
952.724	0.0141702
952.802	0.0141463
952.880	0.0140736
952.958	0.0141040
953.036	0.0140369
953.114	0.0140547
953.193	0.0139931
953.271	0.0139772
953.349	0.0139068
953.427	0.0140090
953.505	0.0139082
953.583	0.0139704
953.661	0.0140311
953.739	0.0139285
953.818	0.0138855
953.896	0.0139027
953.974	0.0139483
954.052	0.0139317
954.130	0.0139727
954.208	0.0139482
954.286	0.0138968
954.364	0.0139718
954.443	0.0139935
954.521	0.0138432
954.599	0.0140034
954.677	0.0141212
954.755	0.0140207
954.833	0.0140314
954.911	0.0140354
954.989	0.0139873
955.068	0.0140907
955.146	0.0139859
955.224	0.0141132
955.302	0.0140121
955.380	0.0140806
955.458	0.0140804
955.536	0.0141682
955.614	0.0141956
955.693	0.0141785
955.771	0.0140604
955.849	0.0140479
955.927	0.0140863
956.005	0.0140882
956.083	0.0141547
956.161	0.0140533
956.239	0.0141813
956.318	0.0141079
956.396	0.0141828
956.474	0.0140262
956.552	0.0141183
956.630	0.0141518
956.708	0.0139706
956.786	0.0139485
956.864	0.0141632
956.943	0.0141965
957.021	0.0139818
957.099	0.0138898
957.177	0.0139764
957.255	0.0139891
957.333	0.0139970
957.411	0.0141065
957.489	0.0140643
957.568	0.0140144
957.646	0.0138901
957.724	0.0140651
957.802	0.0140206
957.880	0.0139891
957.958	0.0140259
958.036	0.0139493
958.114	0.0139842
958.193	0.0139262
958.271	0.0139413
958.349	0.0139700
958.427	0.0139749
958.505	0.0138265
958.583	0.0140157
958.661	0.0140504
958.739	0.0138772
958.818	0.0139140
958.896	0.0140025
958.974	0.0139773
959.052	0.0138769
959.130	0.0139101
959.208	0.0140061
959.286	0.0138738
959.364	0.0140196
959.443	0.0138316
959.521	0.0139157
959.599	0.0139712
959.677	0.0139491
959.755	0.0139354
959.833	0.0138527
959.911	0.0139239
