05/14/2022	16:45:37	Ver.	4.1	UNKNOWN
Optical Delay	639.989416	Delta X		0.078125	Sweeps	1	Scan Rate	0/0
Coordinates	Axis 1	NaN	Axis 2	NaN	Axis 3	NaN	Axis 4	NaN	Axis 5	NaN	Axis 6	0.000000
TX Power	0.000000	RX Power	0.000000

639.989	0.0137009
640.068	0.0137585
640.146	0.0137448
640.224	0.0140132
640.302	0.0137733
640.380	0.0137650
640.458	0.0138470
640.536	0.0138786
640.614	0.0137119
640.693	0.0136874
640.771	0.0137970
640.849	0.0137686
640.927	0.0137727
641.005	0.0138277
641.083	0.0138190
641.161	0.0137636
641.239	0.0137766
641.318	0.0138074
641.396	0.0138640
641.474	0.0137164
641.552	0.0136896
641.630	0.0137151
641.708	0.0136908
641.786	0.0137550
641.864	0.0139345
641.943	0.0138400
642.021	0.0138274
642.099	0.0136899
642.177	0.0135665
642.255	0.0138512
642.333	0.0137020
642.411	0.0137070
642.489	0.0135944
642.568	0.0137343
642.646	0.0138525
642.724	0.0138180
642.802	0.0137311
642.880	0.0136955
642.958	0.0136864
643.036	0.0137366
643.114	0.0137875
643.193	0.0137502
643.271	0.0135593
643.349	0.0136609
643.427	0.0137584
643.505	0.0137154
643.583	0.0136832
643.661	0.0137124
643.739	0.0137109
643.818	0.0136713
643.896	0.0137955
643.974	0.0138254
644.052	0.0138185
644.130	0.0136688
644.208	0.0137497
644.286	0.0137327
644.364	0.0136162
644.443	0.0135662
644.521	0.0136443
644.599	0.0136347
644.677	0.0136479
644.755	0.0136604
644.833	0.0137481
644.911	0.0137234
644.989	0.0136233
645.068	0.0136589
645.146	0.0135388
645.224	0.0135268
645.302	0.0137140
645.380	0.0137042
645.458	0.0136370
645.536	0.0136202
645.614	0.0136501
645.693	0.0136349
645.771	0.0135255
645.849	0.0136064
645.927	0.0136488
646.005	0.0136362
646.083	0.0136565
646.161	0.0135645
646.239	0.0137122
646.318	0.0135629
646.396	0.0136025
646.474	0.0136961
646.552	0.0136420
646.630	0.0135634
646.708	0.0135075
646.786	0.0135620
646.864	0.0135973
646.943	0.0137236
647.021	0.0136443
647.099	0.0136131
647.177	0.0137331
647.255	0.0136883
647.333	0.0138218
647.411	0.0136605
647.489	0.0136616
647.568	0.0137828
647.646	0.0136527
647.724	0.0137213
647.802	0.0137970
647.880	0.0136992
647.958	0.0136854
648.036	0.0137833
648.114	0.0136741
648.193	0.0137131
648.271	0.0136926
648.349	0.0136536
648.427	0.0137389
648.505	0.0138815
648.583	0.0137777
648.661	0.0136592
648.739	0.0136958
648.818	0.0137794
648.896	0.0137431
648.974	0.0136053
649.052	0.0137511
649.130	0.0137862
649.208	0.0136409
649.286	0.0137345
649.364	0.0137483
649.443	0.0137666
649.521	0.0137480
649.599	0.0136671
649.677	0.0136497
649.755	0.0136779
649.833	0.0136339
649.911	0.0137090
649.989	0.0137917
650.068	0.0135851
650.146	0.0137289
650.224	0.0135824
650.302	0.0137283
650.380	0.0137347
650.458	0.0136790
650.536	0.0137119
650.614	0.0135960
650.693	0.0136587
650.771	0.0137012
650.849	0.0136814
650.927	0.0137071
651.005	0.0137973
651.083	0.0136084
651.161	0.0135852
651.239	0.0137177
651.318	0.0138609
651.396	0.0137466
651.474	0.0136827
651.552	0.0137278
651.630	0.0136773
651.708	0.0138079
651.786	0.0136075
651.864	0.0136117
651.943	0.0136422
652.021	0.0136267
652.099	0.0136162
652.177	0.0135778
652.255	0.0134720
652.333	0.0136173
652.411	0.0135838
652.489	0.0135329
652.568	0.0135073
652.646	0.0134729
652.724	0.0135675
652.802	0.0136546
652.880	0.0135066
652.958	0.0135922
653.036	0.0134812
653.114	0.0134505
653.193	0.0134612
653.271	0.0135516
653.349	0.0135198
653.427	0.0135434
653.505	0.0134512
653.583	0.0134647
653.661	0.0135411
653.739	0.0135474
653.818	0.0134855
653.896	0.0135561
653.974	0.0134616
654.052	0.0134717
654.130	0.0135870
654.208	0.0135454
654.286	0.0134876
654.364	0.0134184
654.443	0.0134543
654.521	0.0133773
654.599	0.0134740
654.677	0.0134834
654.755	0.0134300
654.833	0.0134523
654.911	0.0135149
654.989	0.0135055
655.068	0.0134184
655.146	0.0135136
655.224	0.0134704
655.302	0.0134505
655.380	0.0134184
655.458	0.0134272
655.536	0.0135286
655.614	0.0135858
655.693	0.0135175
655.771	0.0134996
655.849	0.0135546
655.927	0.0135585
656.005	0.0133705
656.083	0.0134588
656.161	0.0135075
656.239	0.0134264
656.318	0.0135161
656.396	0.0134556
656.474	0.0134485
656.552	0.0134975
656.630	0.0136140
656.708	0.0134766
656.786	0.0134954
656.864	0.0135730
656.943	0.0133379
657.021	0.0133137
657.099	0.0136266
657.177	0.0134838
657.255	0.0134146
657.333	0.0134179
657.411	0.0134588
657.489	0.0134873
657.568	0.0135096
657.646	0.0134665
657.724	0.0134641
657.802	0.0136037
657.880	0.0134933
657.958	0.0134649
658.036	0.0135829
658.114	0.0135043
658.193	0.0134544
658.271	0.0135952
658.349	0.0135629
658.427	0.0135403
658.505	0.0136241
658.583	0.0134352
658.661	0.0134546
658.739	0.0135165
658.818	0.0134893
658.896	0.0136115
658.974	0.0135677
659.052	0.0135722
659.130	0.0136494
659.208	0.0137032
659.286	0.0135986
659.364	0.0136098
659.443	0.0135843
659.521	0.0136544
659.599	0.0137577
659.677	0.0136845
659.755	0.0136732
659.833	0.0136832
659.911	0.0136237
659.989	0.0136730
660.068	0.0136454
660.146	0.0138032
660.224	0.0139270
660.302	0.0137548
660.380	0.0138477
660.458	0.0138435
660.536	0.0136802
660.614	0.0139016
660.693	0.0137486
660.771	0.0137699
660.849	0.0138155
660.927	0.0138026
661.005	0.0138341
661.083	0.0138251
661.161	0.0138353
661.239	0.0137733
661.318	0.0138365
661.396	0.0137821
661.474	0.0138926
661.552	0.0139168
661.630	0.0138535
661.708	0.0139057
661.786	0.0138689
661.864	0.0140195
661.943	0.0138248
662.021	0.0140463
662.099	0.0139140
662.177	0.0140780
662.255	0.0141114
662.333	0.0140179
662.411	0.0141232
662.489	0.0139461
662.568	0.0139596
662.646	0.0140419
662.724	0.0138700
662.802	0.0138673
662.880	0.0139149
662.958	0.0139185
663.036	0.0138784
663.114	0.0137816
663.193	0.0137475
663.271	0.0137985
663.349	0.0137180
663.427	0.0136861
663.505	0.0136986
663.583	0.0137409
663.661	0.0136550
663.739	0.0136250
663.818	0.0134609
663.896	0.0135490
663.974	0.0135075
664.052	0.0136833
664.130	0.0135107
664.208	0.0135244
664.286	0.0134732
664.364	0.0134400
664.443	0.0135529
664.521	0.0135944
664.599	0.0134580
664.677	0.0135443
664.755	0.0136758
664.833	0.0136660
664.911	0.0136900
664.989	0.0138170
665.068	0.0136585
665.146	0.0137337
665.224	0.0138682
665.302	0.0138336
665.380	0.0138459
665.458	0.0137895
665.536	0.0137753
665.614	0.0138023
665.693	0.0137627
665.771	0.0137942
665.849	0.0136570
665.927	0.0134699
666.005	0.0135394
666.083	0.0133724
666.161	0.0135359
666.239	0.0134308
666.318	0.0134122
666.396	0.0133964
666.474	0.0133868
666.552	0.0132696
666.630	0.0132146
666.708	0.0133578
666.786	0.0134009
666.864	0.0132666
666.943	0.0134364
667.021	0.0133226
667.099	0.0134543
667.177	0.0135393
667.255	0.0136182
667.333	0.0137122
667.411	0.0137145
667.489	0.0137439
667.568	0.0139006
667.646	0.0139189
667.724	0.0139927
667.802	0.0140578
667.880	0.0140141
667.958	0.0139064
668.036	0.0138894
668.114	0.0138100
668.193	0.0138498
668.271	0.0138120
668.349	0.0135479
668.427	0.0136111
668.505	0.0135062
668.583	0.0133426
668.661	0.0132852
668.739	0.0132323
668.818	0.0131381
668.896	0.0130940
668.974	0.0130650
669.052	0.0129764
669.130	0.0130287
669.208	0.0130643
669.286	0.0131573
669.364	0.0131472
669.443	0.0131561
669.521	0.0132894
669.599	0.0134147
669.677	0.0134933
669.755	0.0136304
669.833	0.0138001
669.911	0.0137352
669.989	0.0140504
670.068	0.0139539
670.146	0.0140551
670.224	0.0142056
670.302	0.0143529
670.380	0.0143517
670.458	0.0143624
670.536	0.0145054
670.614	0.0144604
670.693	0.0144199
670.771	0.0143215
670.849	0.0144292
670.927	0.0143415
671.005	0.0143392
671.083	0.0141109
671.161	0.0138749
671.239	0.0137291
671.318	0.0136309
671.396	0.0134016
671.474	0.0133943
671.552	0.0132311
671.630	0.0131811
671.708	0.0129669
671.786	0.0129068
671.864	0.0130344
671.943	0.0129060
672.021	0.0128803
672.099	0.0128606
672.177	0.0130691
672.255	0.0130955
672.333	0.0132228
672.411	0.0133560
672.489	0.0137294
672.568	0.0136991
672.646	0.0137975
672.724	0.0138726
672.802	0.0142921
672.880	0.0145996
672.958	0.0146874
673.036	0.0148650
673.114	0.0149106
673.193	0.0150423
673.271	0.0151583
673.349	0.0152724
673.427	0.0150594
673.505	0.0150793
673.583	0.0150139
673.661	0.0149704
673.739	0.0149194
673.818	0.0146931
673.896	0.0145308
673.974	0.0143903
674.052	0.0142139
674.130	0.0139561
674.208	0.0136942
674.286	0.0135606
674.364	0.0131628
674.443	0.0129099
674.521	0.0130201
674.599	0.0127013
674.677	0.0124747
674.755	0.0122401
674.833	0.0122699
674.911	0.0120644
674.989	0.0120488
675.068	0.0121000
675.146	0.0121924
675.224	0.0123187
675.302	0.0123658
675.380	0.0125885
675.458	0.0128838
675.536	0.0130395
675.614	0.0131255
675.693	0.0135459
675.771	0.0137276
675.849	0.0138145
675.927	0.0140712
676.005	0.0143513
676.083	0.0144765
676.161	0.0147008
676.239	0.0148637
676.318	0.0150837
676.396	0.0151191
676.474	0.0151036
676.552	0.0152054
676.630	0.0152806
676.708	0.0151276
676.786	0.0151352
676.864	0.0151121
676.943	0.0147933
677.021	0.0146544
677.099	0.0147362
677.177	0.0144928
677.255	0.0143807
677.333	0.0141475
677.411	0.0140070
677.489	0.0138849
677.568	0.0134473
677.646	0.0133895
677.724	0.0133455
677.802	0.0131108
677.880	0.0130726
677.958	0.0129414
678.036	0.0127886
678.114	0.0125896
678.193	0.0126505
678.271	0.0125858
678.349	0.0125552
678.427	0.0126398
678.505	0.0125403
678.583	0.0125038
678.661	0.0126527
678.739	0.0126332
678.818	0.0127323
678.896	0.0128009
678.974	0.0128938
679.052	0.0129387
679.130	0.0130755
679.208	0.0131757
679.286	0.0131989
679.364	0.0132723
679.443	0.0132970
679.521	0.0134092
679.599	0.0136572
679.677	0.0136086
679.755	0.0137244
679.833	0.0138720
679.911	0.0136848
679.989	0.0138220
680.068	0.0139206
680.146	0.0139254
680.224	0.0139964
680.302	0.0139810
680.380	0.0139847
680.458	0.0140353
680.536	0.0141363
680.614	0.0141170
680.693	0.0142288
680.771	0.0142775
680.849	0.0142465
680.927	0.0142370
681.005	0.0142516
681.083	0.0143959
681.161	0.0143207
681.239	0.0144717
681.318	0.0144858
681.396	0.0143874
681.474	0.0145415
681.552	0.0145413
681.630	0.0144495
681.708	0.0146217
681.786	0.0146373
681.864	0.0145428
681.943	0.0145252
682.021	0.0146807
682.099	0.0145285
682.177	0.0145020
682.255	0.0144206
682.333	0.0143052
682.411	0.0141368
682.489	0.0140594
682.568	0.0138283
682.646	0.0138945
682.724	0.0136752
682.802	0.0133800
682.880	0.0131920
682.958	0.0130065
683.036	0.0130115
683.114	0.0128372
683.193	0.0127007
683.271	0.0126440
683.349	0.0125959
683.427	0.0125167
683.505	0.0123952
683.583	0.0124270
683.661	0.0124940
683.739	0.0124185
683.818	0.0125456
683.896	0.0125318
683.974	0.0125996
684.052	0.0126093
684.130	0.0127324
684.208	0.0127562
684.286	0.0128437
684.364	0.0129426
684.443	0.0131364
684.521	0.0132653
684.599	0.0133272
684.677	0.0134885
684.755	0.0134535
684.833	0.0136280
684.911	0.0136516
684.989	0.0137367
685.068	0.0139197
685.146	0.0140530
685.224	0.0140155
685.302	0.0141085
685.380	0.0143321
685.458	0.0143422
685.536	0.0143907
685.614	0.0146433
685.693	0.0146215
685.771	0.0147549
685.849	0.0147427
685.927	0.0149150
686.005	0.0149547
686.083	0.0149722
686.161	0.0150188
686.239	0.0150634
686.318	0.0150662
686.396	0.0149781
686.474	0.0151380
686.552	0.0150734
686.630	0.0150456
686.708	0.0150457
686.786	0.0148370
686.864	0.0146474
686.943	0.0144861
687.021	0.0141911
687.099	0.0139612
687.177	0.0137406
687.255	0.0136549
687.333	0.0132352
687.411	0.0129794
687.489	0.0127463
687.568	0.0125739
687.646	0.0122412
687.724	0.0119283
687.802	0.0118942
687.880	0.0117693
687.958	0.0116158
688.036	0.0114413
688.114	0.0113715
688.193	0.0114614
688.271	0.0113959
688.349	0.0114737
688.427	0.0114970
688.505	0.0116751
688.583	0.0118037
688.661	0.0119858
688.739	0.0122011
688.818	0.0125276
688.896	0.0129090
688.974	0.0131336
689.052	0.0134200
689.130	0.0136736
689.208	0.0138352
689.286	0.0140095
689.364	0.0142789
689.443	0.0146016
689.521	0.0146645
689.599	0.0146210
689.677	0.0148122
689.755	0.0149841
689.833	0.0148741
689.911	0.0146532
689.989	0.0149378
690.068	0.0148750
690.146	0.0148232
690.224	0.0145768
690.302	0.0145267
690.380	0.0145152
690.458	0.0145276
690.536	0.0142873
690.614	0.0142850
690.693	0.0141433
690.771	0.0140356
690.849	0.0141175
690.927	0.0139262
691.005	0.0139084
691.083	0.0140254
691.161	0.0142522
691.239	0.0142090
691.318	0.0143051
691.396	0.0144299
691.474	0.0145871
691.552	0.0146361
691.630	0.0147649
691.708	0.0148471
691.786	0.0150315
691.864	0.0150818
691.943	0.0149957
692.021	0.0151701
692.099	0.0152070
692.177	0.0151454
692.255	0.0150085
692.333	0.0149978
692.411	0.0150237
692.489	0.0148249
692.568	0.0145734
692.646	0.0145603
692.724	0.0143604
692.802	0.0142141
692.880	0.0138644
692.958	0.0134316
693.036	0.0132184
693.114	0.0129462
693.193	0.0125854
693.271	0.0123171
693.349	0.0120132
693.427	0.0117121
693.505	0.0115608
693.583	0.0114713
693.661	0.0113103
693.739	0.0111864
693.818	0.0112023
693.896	0.0111139
693.974	0.0110262
694.052	0.0110928
694.130	0.0113255
694.208	0.0114330
694.286	0.0116389
694.364	0.0118293
694.443	0.0119334
694.521	0.0122409
694.599	0.0123998
694.677	0.0126327
694.755	0.0130228
694.833	0.0132684
694.911	0.0134441
694.989	0.0137199
695.068	0.0139973
695.146	0.0142074
695.224	0.0144492
695.302	0.0147286
695.380	0.0148698
695.458	0.0149677
695.536	0.0150175
695.614	0.0152641
695.693	0.0153255
695.771	0.0155745
695.849	0.0158115
695.927	0.0159345
696.005	0.0158908
696.083	0.0160254
696.161	0.0161455
696.239	0.0162407
696.318	0.0163966
696.396	0.0163076
696.474	0.0163580
696.552	0.0165887
696.630	0.0162758
696.708	0.0164007
696.786	0.0163726
696.864	0.0162548
696.943	0.0160451
697.021	0.0160114
697.099	0.0157503
697.177	0.0153642
697.255	0.0150659
697.333	0.0148746
697.411	0.0144901
697.489	0.0141337
697.568	0.0138112
697.646	0.0133822
697.724	0.0130037
697.802	0.0126956
697.880	0.0122746
697.958	0.0121098
698.036	0.0117242
698.114	0.0115355
698.193	0.0112320
698.271	0.0108377
698.349	0.0107712
698.427	0.0106172
698.505	0.0104144
698.583	0.0103011
698.661	0.0103380
698.739	0.0101210
698.818	0.0101557
698.896	0.00996887
698.974	0.0100102
699.052	0.0101154
699.130	0.0102471
699.208	0.0102643
699.286	0.0103849
699.364	0.0106277
699.443	0.0108292
699.521	0.0111112
699.599	0.0113827
699.677	0.0116601
699.755	0.0118751
699.833	0.0122906
699.911	0.0127475
699.989	0.0129185
700.068	0.0133192
700.146	0.0137109
700.224	0.0143134
700.302	0.0144912
700.380	0.0149110
700.458	0.0153375
700.536	0.0158449
700.614	0.0161027
700.693	0.0163086
700.771	0.0166214
700.849	0.0168568
700.927	0.0170568
701.005	0.0173563
701.083	0.0173545
701.161	0.0175420
701.239	0.0174538
701.318	0.0174615
701.396	0.0173704
701.474	0.0171645
701.552	0.0171077
701.630	0.0169321
701.708	0.0167455
701.786	0.0165185
701.864	0.0163355
701.943	0.0160229
702.021	0.0158893
702.099	0.0155247
702.177	0.0150363
702.255	0.0148338
702.333	0.0146809
702.411	0.0143519
702.489	0.0140034
702.568	0.0137366
702.646	0.0133038
702.724	0.0131680
702.802	0.0128616
702.880	0.0125259
702.958	0.0122652
703.036	0.0120780
703.114	0.0119291
703.193	0.0116018
703.271	0.0114852
703.349	0.0113734
703.427	0.0112298
703.505	0.0111280
703.583	0.0109439
703.661	0.0111181
703.739	0.0110322
703.818	0.0110507
703.896	0.0110850
703.974	0.0111910
704.052	0.0111383
704.130	0.0111266
704.208	0.0113967
704.286	0.0114484
704.364	0.0115536
704.443	0.0117329
704.521	0.0119561
704.599	0.0120353
704.677	0.0122273
704.755	0.0122063
704.833	0.0126072
704.911	0.0128472
704.989	0.0130085
705.068	0.0130800
705.146	0.0132395
705.224	0.0136575
705.302	0.0135086
705.380	0.0138625
705.458	0.0139577
705.536	0.0142433
705.614	0.0143822
705.693	0.0145528
705.771	0.0146271
705.849	0.0150083
705.927	0.0152574
706.005	0.0153001
706.083	0.0153123
706.161	0.0156401
706.239	0.0160005
706.318	0.0159103
706.396	0.0159958
706.474	0.0160147
706.552	0.0159573
706.630	0.0160649
706.708	0.0159595
706.786	0.0157789
706.864	0.0159058
706.943	0.0157679
707.021	0.0158628
707.099	0.0154784
707.177	0.0153260
707.255	0.0151468
707.333	0.0150020
707.411	0.0149568
707.489	0.0149436
707.568	0.0147839
707.646	0.0146101
707.724	0.0145343
707.802	0.0143433
707.880	0.0143512
707.958	0.0141853
708.036	0.0142136
708.114	0.0142445
708.193	0.0138752
708.271	0.0138972
708.349	0.0138239
708.427	0.0136272
708.505	0.0133890
708.583	0.0134403
708.661	0.0131036
708.739	0.0128805
708.818	0.0127386
708.896	0.0124245
708.974	0.0122464
709.052	0.0119777
709.130	0.0118195
709.208	0.0116423
709.286	0.0116074
709.364	0.0115143
709.443	0.0113730
709.521	0.0113650
709.599	0.0112851
709.677	0.0112674
709.755	0.0113306
709.833	0.0113886
709.911	0.0113404
709.989	0.0114613
710.068	0.0115923
710.146	0.0115488
710.224	0.0117275
710.302	0.0118758
710.380	0.0120914
710.458	0.0124777
710.536	0.0124039
710.614	0.0127519
710.693	0.0129588
710.771	0.0131224
710.849	0.0134151
710.927	0.0134888
711.005	0.0134927
711.083	0.0135745
711.161	0.0139726
711.239	0.0139802
711.318	0.0141198
711.396	0.0141994
711.474	0.0142128
711.552	0.0143034
711.630	0.0144675
711.708	0.0147596
711.786	0.0147699
711.864	0.0147623
711.943	0.0149809
712.021	0.0151559
712.099	0.0153645
712.177	0.0154556
712.255	0.0154477
712.333	0.0154581
712.411	0.0155096
712.489	0.0154549
712.568	0.0154444
712.646	0.0154890
712.724	0.0154113
712.802	0.0153942
712.880	0.0151702
712.958	0.0150169
713.036	0.0149961
713.114	0.0148438
713.193	0.0148557
713.271	0.0145460
713.349	0.0146033
713.427	0.0143322
713.505	0.0142062
713.583	0.0141602
713.661	0.0140050
713.739	0.0137938
713.818	0.0136596
713.896	0.0135281
713.974	0.0136241
714.052	0.0136533
714.130	0.0133672
714.208	0.0132323
714.286	0.0133392
714.364	0.0131054
714.443	0.0130517
714.521	0.0129279
714.599	0.0128664
714.677	0.0128568
714.755	0.0124762
714.833	0.0124677
714.911	0.0123003
714.989	0.0121117
715.068	0.0118857
715.146	0.0120469
715.224	0.0119385
715.302	0.0118583
715.380	0.0117419
715.458	0.0118857
715.536	0.0117770
715.614	0.0118504
715.693	0.0120184
715.771	0.0120544
715.849	0.0121301
715.927	0.0123587
716.005	0.0124857
716.083	0.0126094
716.161	0.0129402
716.239	0.0130034
716.318	0.0133435
716.396	0.0134583
716.474	0.0135265
716.552	0.0137048
716.630	0.0139376
716.708	0.0139456
716.786	0.0142546
716.864	0.0143541
716.943	0.0144634
717.021	0.0145716
717.099	0.0147166
717.177	0.0148934
717.255	0.0148966
717.333	0.0151163
717.411	0.0151038
717.489	0.0151163
717.568	0.0151737
717.646	0.0151846
717.724	0.0151919
717.802	0.0151070
717.880	0.0150956
717.958	0.0150716
718.036	0.0150528
718.114	0.0148388
718.193	0.0146037
718.271	0.0145807
718.349	0.0145773
718.427	0.0144048
718.505	0.0142611
718.583	0.0142049
718.661	0.0141209
718.739	0.0139591
718.818	0.0140122
718.896	0.0139155
718.974	0.0140026
719.052	0.0137389
719.130	0.0137950
719.208	0.0137026
719.286	0.0136716
719.364	0.0137208
719.443	0.0137193
719.521	0.0136396
719.599	0.0136590
719.677	0.0136136
719.755	0.0137336
719.833	0.0138071
719.911	0.0138206
719.989	0.0137904
720.068	0.0137873
720.146	0.0137875
720.224	0.0138095
720.302	0.0136861
720.380	0.0137122
720.458	0.0135193
720.536	0.0134409
720.614	0.0135964
720.693	0.0133550
720.771	0.0134404
720.849	0.0133284
720.927	0.0130827
721.005	0.0131470
721.083	0.0131184
721.161	0.0131591
721.239	0.0131135
721.318	0.0131831
721.396	0.0131014
721.474	0.0129817
721.552	0.0131728
721.630	0.0133162
721.708	0.0132784
721.786	0.0130300
721.864	0.0130917
721.943	0.0132259
722.021	0.0133275
722.099	0.0132062
722.177	0.0131796
722.255	0.0133354
722.333	0.0132569
722.411	0.0132182
722.489	0.0133928
722.568	0.0135051
722.646	0.0133771
722.724	0.0135265
722.802	0.0135114
722.880	0.0134540
722.958	0.0133740
723.036	0.0133924
723.114	0.0133011
723.193	0.0133099
723.271	0.0133649
723.349	0.0132337
723.427	0.0131796
723.505	0.0133006
723.583	0.0133268
723.661	0.0132369
723.739	0.0132528
723.818	0.0133712
723.896	0.0134821
723.974	0.0135313
724.052	0.0135970
724.130	0.0136438
724.208	0.0138930
724.286	0.0139098
724.364	0.0139786
724.443	0.0141285
724.521	0.0142142
724.599	0.0143608
724.677	0.0145308
724.755	0.0145622
724.833	0.0146459
724.911	0.0145911
724.989	0.0146349
725.068	0.0147601
725.146	0.0147302
725.224	0.0148714
725.302	0.0148354
725.380	0.0148003
725.458	0.0146426
725.536	0.0145442
725.614	0.0146361
725.693	0.0145502
725.771	0.0143177
725.849	0.0142168
725.927	0.0141369
726.005	0.0141005
726.083	0.0137811
726.161	0.0137062
726.239	0.0136277
726.318	0.0134292
726.396	0.0133178
726.474	0.0134135
726.552	0.0131908
726.630	0.0131364
726.708	0.0129958
726.786	0.0130039
726.864	0.0130026
726.943	0.0132010
727.021	0.0129707
727.099	0.0130913
727.177	0.0130804
727.255	0.0131087
727.333	0.0131880
727.411	0.0130709
727.489	0.0131011
727.568	0.0131393
727.646	0.0131929
727.724	0.0133879
727.802	0.0132113
727.880	0.0132340
727.958	0.0131393
728.036	0.0131371
728.114	0.0131216
728.193	0.0132157
728.271	0.0131359
728.349	0.0132033
728.427	0.0132095
728.505	0.0132579
728.583	0.0131059
728.661	0.0132175
728.739	0.0131536
728.818	0.0133002
728.896	0.0133532
728.974	0.0133491
729.052	0.0132242
729.130	0.0133462
729.208	0.0133591
729.286	0.0134760
729.364	0.0133781
729.443	0.0134042
729.521	0.0135448
729.599	0.0136398
729.677	0.0134915
729.755	0.0135889
729.833	0.0135172
729.911	0.0135347
729.989	0.0136156
730.068	0.0136743
730.146	0.0137334
730.224	0.0136339
730.302	0.0136980
730.380	0.0136939
730.458	0.0138734
730.536	0.0140182
730.614	0.0140212
730.693	0.0141288
730.771	0.0141270
730.849	0.0142606
730.927	0.0143955
731.005	0.0142596
731.083	0.0142844
731.161	0.0144528
731.239	0.0144969
731.318	0.0143751
731.396	0.0143244
731.474	0.0144023
731.552	0.0143738
731.630	0.0142686
731.708	0.0141808
731.786	0.0142215
731.864	0.0141052
731.943	0.0140948
732.021	0.0139198
732.099	0.0138831
732.177	0.0138555
732.255	0.0137703
732.333	0.0136239
732.411	0.0137334
732.489	0.0137640
732.568	0.0135683
732.646	0.0136351
732.724	0.0136476
732.802	0.0136642
732.880	0.0136991
732.958	0.0137280
733.036	0.0136236
733.114	0.0138172
733.193	0.0138114
733.271	0.0136494
733.349	0.0137726
733.427	0.0137756
733.505	0.0136617
733.583	0.0137056
733.661	0.0135468
733.739	0.0134119
733.818	0.0133808
733.896	0.0133231
733.974	0.0133546
734.052	0.0132399
734.130	0.0129811
734.208	0.0130093
734.286	0.0131030
734.364	0.0129866
734.443	0.0127772
734.521	0.0128939
734.599	0.0129314
734.677	0.0128404
734.755	0.0129066
734.833	0.0128765
734.911	0.0128796
734.989	0.0127988
735.068	0.0129726
735.146	0.0127864
735.224	0.0128873
735.302	0.0131166
735.380	0.0131467
735.458	0.0130879
735.536	0.0132506
735.614	0.0132721
735.693	0.0132824
735.771	0.0134443
735.849	0.0134804
735.927	0.0136326
736.005	0.0137633
736.083	0.0137999
736.161	0.0138631
736.239	0.0139237
736.318	0.0137659
736.396	0.0141691
736.474	0.0140330
736.552	0.0141298
736.630	0.0140382
736.708	0.0141042
736.786	0.0141061
736.864	0.0142203
736.943	0.0140418
737.021	0.0142091
737.099	0.0142415
737.177	0.0141190
737.255	0.0143571
737.333	0.0144694
737.411	0.0144081
737.489	0.0144281
737.568	0.0144202
737.646	0.0144054
737.724	0.0144182
737.802	0.0143067
737.880	0.0144984
737.958	0.0143266
738.036	0.0142691
738.114	0.0142973
738.193	0.0142963
738.271	0.0143147
738.349	0.0141559
738.427	0.0142637
738.505	0.0141711
738.583	0.0141421
738.661	0.0140409
738.739	0.0138669
738.818	0.0138728
738.896	0.0139588
738.974	0.0139360
739.052	0.0137312
739.130	0.0140176
739.208	0.0139057
739.286	0.0138229
739.364	0.0137466
739.443	0.0134554
739.521	0.0136015
739.599	0.0135352
739.677	0.0134932
739.755	0.0132703
739.833	0.0132721
739.911	0.0132816
739.989	0.0132194
740.068	0.0131704
740.146	0.0131258
740.224	0.0130056
740.302	0.0131109
740.380	0.0129419
740.458	0.0129698
740.536	0.0130322
740.614	0.0129146
740.693	0.0130470
740.771	0.0130977
740.849	0.0129639
740.927	0.0129329
741.005	0.0129891
741.083	0.0131132
741.161	0.0131602
741.239	0.0131431
741.318	0.0132249
741.396	0.0133419
741.474	0.0134035
741.552	0.0134987
741.630	0.0135648
741.708	0.0136427
741.786	0.0136843
741.864	0.0135018
741.943	0.0136890
742.021	0.0136924
742.099	0.0136133
742.177	0.0136313
742.255	0.0134624
742.333	0.0133524
742.411	0.0134296
742.489	0.0134366
742.568	0.0133200
742.646	0.0133374
742.724	0.0132589
742.802	0.0133578
742.880	0.0134522
742.958	0.0134839
743.036	0.0136371
743.114	0.0137852
743.193	0.0137345
743.271	0.0137794
743.349	0.0138769
743.427	0.0139616
743.505	0.0141483
743.583	0.0141494
743.661	0.0141888
743.739	0.0143131
743.818	0.0143761
743.896	0.0143165
743.974	0.0141970
744.052	0.0143265
744.130	0.0143913
744.208	0.0143620
744.286	0.0142929
744.364	0.0141059
744.443	0.0141696
744.521	0.0140282
744.599	0.0140165
744.677	0.0141534
744.755	0.0140767
744.833	0.0139239
744.911	0.0138263
744.989	0.0138410
745.068	0.0137204
745.146	0.0138558
745.224	0.0138737
745.302	0.0138501
745.380	0.0138513
745.458	0.0138649
745.536	0.0138243
745.614	0.0138146
745.693	0.0137296
745.771	0.0136861
745.849	0.0137330
745.927	0.0136478
746.005	0.0135974
746.083	0.0135245
746.161	0.0134521
746.239	0.0134420
746.318	0.0133952
746.396	0.0133379
746.474	0.0131387
746.552	0.0130985
746.630	0.0130541
746.708	0.0132437
746.786	0.0130270
746.864	0.0130626
746.943	0.0130284
747.021	0.0129500
747.099	0.0131049
747.177	0.0130742
747.255	0.0130386
747.333	0.0131110
747.411	0.0132544
747.489	0.0133141
747.568	0.0133737
747.646	0.0133229
747.724	0.0133440
747.802	0.0135176
747.880	0.0133395
747.958	0.0132930
748.036	0.0132892
748.114	0.0134077
748.193	0.0134451
748.271	0.0133533
748.349	0.0133475
748.427	0.0133371
748.505	0.0134396
748.583	0.0132773
748.661	0.0133247
748.739	0.0133749
748.818	0.0133360
748.896	0.0135017
748.974	0.0137334
749.052	0.0134958
749.130	0.0136858
749.208	0.0137311
749.286	0.0137033
749.364	0.0139218
749.443	0.0140800
749.521	0.0141602
749.599	0.0142686
749.677	0.0143398
749.755	0.0142565
749.833	0.0143143
749.911	0.0143859
749.989	0.0142729
750.068	0.0145012
750.146	0.0143890
750.224	0.0144141
750.302	0.0143934
750.380	0.0143272
750.458	0.0141785
750.536	0.0141777
750.614	0.0141886
750.693	0.0141048
750.771	0.0141535
750.849	0.0140611
750.927	0.0139986
751.005	0.0139294
751.083	0.0138279
751.161	0.0137804
751.239	0.0137341
751.318	0.0138276
751.396	0.0136670
751.474	0.0138609
751.552	0.0136061
751.630	0.0135300
751.708	0.0137312
751.786	0.0134990
751.864	0.0136165
751.943	0.0134944
752.021	0.0133087
752.099	0.0134136
752.177	0.0134030
752.255	0.0133991
752.333	0.0133685
752.411	0.0134007
752.489	0.0133091
752.568	0.0132188
752.646	0.0131208
752.724	0.0132415
752.802	0.0133023
752.880	0.0131298
752.958	0.0132767
753.036	0.0133268
753.114	0.0131625
753.193	0.0133209
753.271	0.0131573
753.349	0.0131573
753.427	0.0130909
753.505	0.0133395
753.583	0.0132417
753.661	0.0130824
753.739	0.0131423
753.818	0.0132817
753.896	0.0132200
753.974	0.0132447
754.052	0.0131480
754.130	0.0130173
754.208	0.0132424
754.286	0.0132513
754.364	0.0132826
754.443	0.0131795
754.521	0.0132204
754.599	0.0132885
754.677	0.0131771
754.755	0.0132121
754.833	0.0132866
754.911	0.0134132
754.989	0.0135086
755.068	0.0134492
755.146	0.0135981
755.224	0.0136945
755.302	0.0138528
755.380	0.0139463
755.458	0.0140926
755.536	0.0140025
755.614	0.0141840
755.693	0.0142185
755.771	0.0143995
755.849	0.0143434
755.927	0.0143663
756.005	0.0142574
756.083	0.0143426
756.161	0.0143191
756.239	0.0143104
756.318	0.0144325
756.396	0.0143562
756.474	0.0143736
756.552	0.0143533
756.630	0.0144081
756.708	0.0144474
756.786	0.0143270
756.864	0.0141942
756.943	0.0140446
757.021	0.0143562
757.099	0.0142920
757.177	0.0141711
757.255	0.0140343
757.333	0.0139271
757.411	0.0140276
757.489	0.0139652
757.568	0.0139115
757.646	0.0138378
757.724	0.0138657
757.802	0.0137527
757.880	0.0136667
757.958	0.0136284
758.036	0.0135446
758.114	0.0134083
758.193	0.0134943
758.271	0.0133926
758.349	0.0134716
758.427	0.0134916
758.505	0.0133247
758.583	0.0134872
758.661	0.0133454
758.739	0.0132716
758.818	0.0133408
758.896	0.0133752
758.974	0.0134357
759.052	0.0134596
759.130	0.0132104
759.208	0.0133744
759.286	0.0133560
759.364	0.0133172
759.443	0.0133281
759.521	0.0132607
759.599	0.0133376
759.677	0.0134090
759.755	0.0133691
759.833	0.0133317
759.911	0.0133646
759.989	0.0133376
760.068	0.0132758
760.146	0.0132239
760.224	0.0132620
760.302	0.0133671
760.380	0.0133083
760.458	0.0132941
760.536	0.0133584
760.614	0.0134468
760.693	0.0134624
760.771	0.0134453
760.849	0.0134747
760.927	0.0135512
761.005	0.0137110
761.083	0.0136421
761.161	0.0136484
761.239	0.0137307
761.318	0.0137946
761.396	0.0138313
761.474	0.0139557
761.552	0.0136993
761.630	0.0138329
761.708	0.0139812
761.786	0.0140314
761.864	0.0140910
761.943	0.0141537
762.021	0.0139202
762.099	0.0140248
762.177	0.0141438
762.255	0.0141217
762.333	0.0141107
762.411	0.0140669
762.489	0.0140279
762.568	0.0140846
762.646	0.0139066
762.724	0.0138418
762.802	0.0138401
762.880	0.0139429
762.958	0.0138500
763.036	0.0137814
763.114	0.0138216
763.193	0.0137426
763.271	0.0136684
763.349	0.0135036
763.427	0.0135925
763.505	0.0136023
763.583	0.0135468
763.661	0.0137077
763.739	0.0135313
763.818	0.0135835
763.896	0.0136342
763.974	0.0136203
764.052	0.0135523
764.130	0.0134489
764.208	0.0133630
764.286	0.0135469
764.364	0.0134380
764.443	0.0134460
764.521	0.0135414
764.599	0.0135500
764.677	0.0135069
764.755	0.0132588
764.833	0.0132999
764.911	0.0133619
764.989	0.0132838
765.068	0.0132990
765.146	0.0133158
765.224	0.0133867
765.302	0.0132278
765.380	0.0133038
765.458	0.0130751
765.536	0.0131577
765.614	0.0131186
765.693	0.0132815
765.771	0.0133585
765.849	0.0133246
765.927	0.0132674
766.005	0.0133395
766.083	0.0134727
766.161	0.0134449
766.239	0.0135151
766.318	0.0136102
766.396	0.0135863
766.474	0.0136327
766.552	0.0135692
766.630	0.0136655
766.708	0.0136354
766.786	0.0136704
766.864	0.0138203
766.943	0.0136832
767.021	0.0138342
767.099	0.0137842
767.177	0.0138577
767.255	0.0137245
767.333	0.0138574
767.411	0.0138296
767.489	0.0140239
767.568	0.0137343
767.646	0.0138073
767.724	0.0138221
767.802	0.0138209
767.880	0.0138446
767.958	0.0137806
768.036	0.0137041
768.114	0.0136954
768.193	0.0137186
768.271	0.0138688
768.349	0.0136346
768.427	0.0137067
768.505	0.0137057
768.583	0.0137287
768.661	0.0138571
768.739	0.0137756
768.818	0.0137039
768.896	0.0136776
768.974	0.0135825
769.052	0.0136625
769.130	0.0137298
769.208	0.0137491
769.286	0.0137608
769.364	0.0137782
769.443	0.0138526
769.521	0.0138042
769.599	0.0139161
769.677	0.0138659
769.755	0.0138855
769.833	0.0139074
769.911	0.0140765
769.989	0.0141772
770.068	0.0140568
770.146	0.0138854
770.224	0.0140315
770.302	0.0141428
770.380	0.0141466
770.458	0.0140369
770.536	0.0137777
770.614	0.0139875
770.693	0.0140020
770.771	0.0139709
770.849	0.0136687
770.927	0.0137778
771.005	0.0137172
771.083	0.0136530
771.161	0.0135934
771.239	0.0134832
771.318	0.0135201
771.396	0.0134491
771.474	0.0132951
771.552	0.0132552
771.630	0.0131500
771.708	0.0130994
771.786	0.0131291
771.864	0.0131611
771.943	0.0131042
772.021	0.0131769
772.099	0.0130920
772.177	0.0132524
772.255	0.0131261
772.333	0.0133448
772.411	0.0133413
772.489	0.0133684
772.568	0.0134083
772.646	0.0135565
772.724	0.0134255
772.802	0.0134344
772.880	0.0135270
772.958	0.0136504
773.036	0.0137028
773.114	0.0137722
773.193	0.0137489
773.271	0.0138364
773.349	0.0138976
773.427	0.0139143
773.505	0.0140241
773.583	0.0139029
773.661	0.0140784
773.739	0.0140069
773.818	0.0140774
773.896	0.0139576
773.974	0.0140426
774.052	0.0140514
774.130	0.0139809
774.208	0.0140964
774.286	0.0140040
774.364	0.0139181
774.443	0.0138892
774.521	0.0138337
774.599	0.0137201
774.677	0.0138889
774.755	0.0138081
774.833	0.0137872
774.911	0.0138352
774.989	0.0137737
775.068	0.0137963
775.146	0.0137706
775.224	0.0137992
775.302	0.0138480
775.380	0.0136638
775.458	0.0138322
775.536	0.0136866
775.614	0.0136000
775.693	0.0137137
775.771	0.0136069
775.849	0.0137014
775.927	0.0135884
776.005	0.0135417
776.083	0.0136551
776.161	0.0135966
776.239	0.0135713
776.318	0.0134097
776.396	0.0134520
776.474	0.0135800
776.552	0.0135114
776.630	0.0135098
776.708	0.0134064
776.786	0.0133851
776.864	0.0134972
776.943	0.0134823
777.021	0.0133532
777.099	0.0133234
777.177	0.0133532
777.255	0.0135021
777.333	0.0135800
777.411	0.0135051
777.489	0.0133999
777.568	0.0134665
777.646	0.0135077
777.724	0.0133406
777.802	0.0134453
777.880	0.0134155
777.958	0.0135149
778.036	0.0133356
778.114	0.0136164
778.193	0.0135876
778.271	0.0136906
778.349	0.0137366
778.427	0.0135313
778.505	0.0136423
778.583	0.0135541
778.661	0.0137050
778.739	0.0136820
778.818	0.0138272
778.896	0.0138047
778.974	0.0138308
779.052	0.0138930
779.130	0.0139425
779.208	0.0138023
779.286	0.0137984
779.364	0.0138523
779.443	0.0138087
779.521	0.0138921
779.599	0.0138535
779.677	0.0139845
779.755	0.0139156
779.833	0.0138110
779.911	0.0137641
779.989	0.0138684
780.068	0.0137449
780.146	0.0137149
780.224	0.0138846
780.302	0.0137964
780.380	0.0137897
780.458	0.0137569
780.536	0.0136540
780.614	0.0138262
780.693	0.0136238
780.771	0.0136582
780.849	0.0136666
780.927	0.0135828
781.005	0.0136729
781.083	0.0137221
781.161	0.0135201
781.239	0.0136183
781.318	0.0136887
781.396	0.0137819
781.474	0.0136612
781.552	0.0136817
781.630	0.0139254
781.708	0.0137982
781.786	0.0138039
781.864	0.0139495
781.943	0.0138740
782.021	0.0138039
782.099	0.0138305
782.177	0.0139344
782.255	0.0140428
782.333	0.0140596
782.411	0.0140327
782.489	0.0140913
782.568	0.0139145
782.646	0.0139657
782.724	0.0141014
782.802	0.0140437
782.880	0.0142197
782.958	0.0140430
783.036	0.0140498
783.114	0.0141174
783.193	0.0141571
783.271	0.0139799
783.349	0.0137806
783.427	0.0139224
783.505	0.0139862
783.583	0.0137617
783.661	0.0138507
783.739	0.0137784
783.818	0.0137003
783.896	0.0137218
783.974	0.0136100
784.052	0.0133137
784.130	0.0133588
784.208	0.0134892
784.286	0.0132130
784.364	0.0132190
784.443	0.0132798
784.521	0.0132449
784.599	0.0130357
784.677	0.0132410
784.755	0.0131385
784.833	0.0130824
784.911	0.0132155
784.989	0.0132848
785.068	0.0133137
785.146	0.0132551
785.224	0.0133245
785.302	0.0134232
785.380	0.0133714
785.458	0.0135299
785.536	0.0134857
785.614	0.0135653
785.693	0.0136209
785.771	0.0135813
785.849	0.0136913
785.927	0.0138655
786.005	0.0138284
786.083	0.0137145
786.161	0.0138308
786.239	0.0139205
786.318	0.0138274
786.396	0.0140389
786.474	0.0140335
786.552	0.0140740
786.630	0.0139606
786.708	0.0139948
786.786	0.0141647
786.864	0.0139547
786.943	0.0140356
787.021	0.0140202
787.099	0.0140279
787.177	0.0140099
787.255	0.0139349
787.333	0.0139090
787.411	0.0138789
787.489	0.0137816
787.568	0.0139217
787.646	0.0138180
787.724	0.0138277
787.802	0.0137766
787.880	0.0138520
787.958	0.0138445
788.036	0.0137481
788.114	0.0138406
788.193	0.0137438
788.271	0.0137582
788.349	0.0137463
788.427	0.0137756
788.505	0.0137112
788.583	0.0136764
788.661	0.0138160
788.739	0.0137214
788.818	0.0136256
788.896	0.0135899
788.974	0.0134736
789.052	0.0135198
789.130	0.0134805
789.208	0.0135143
789.286	0.0134440
789.364	0.0133225
789.443	0.0132820
789.521	0.0131218
789.599	0.0132726
789.677	0.0132391
789.755	0.0131714
789.833	0.0131297
789.911	0.0129655
789.989	0.0131187
790.068	0.0130217
790.146	0.0130624
790.224	0.0129444
790.302	0.0129447
790.380	0.0128428
790.458	0.0129971
790.536	0.0129871
790.614	0.0129796
790.693	0.0129462
790.771	0.0130039
790.849	0.0130570
790.927	0.0132602
791.005	0.0132195
791.083	0.0134527
791.161	0.0135784
791.239	0.0135070
791.318	0.0135358
791.396	0.0138102
791.474	0.0137074
791.552	0.0138598
791.630	0.0138602
791.708	0.0139576
791.786	0.0139955
791.864	0.0140043
791.943	0.0140372
792.021	0.0142339
792.099	0.0141327
792.177	0.0142624
792.255	0.0139793
792.333	0.0140140
792.411	0.0141129
792.489	0.0140387
792.568	0.0141528
792.646	0.0139785
792.724	0.0140969
792.802	0.0139841
792.880	0.0139087
792.958	0.0140177
793.036	0.0139832
793.114	0.0138567
793.193	0.0138686
793.271	0.0139323
793.349	0.0139415
793.427	0.0140017
793.505	0.0137296
793.583	0.0138203
793.661	0.0138281
793.739	0.0137441
793.818	0.0136906
793.896	0.0136565
793.974	0.0135843
794.052	0.0135400
794.130	0.0134828
794.208	0.0134479
794.286	0.0132789
794.364	0.0133257
794.443	0.0133176
794.521	0.0131994
794.599	0.0131969
794.677	0.0131951
794.755	0.0132122
794.833	0.0130846
794.911	0.0131411
794.989	0.0130848
795.068	0.0130521
795.146	0.0132671
795.224	0.0131207
795.302	0.0130502
795.380	0.0131435
795.458	0.0131628
795.536	0.0131045
795.614	0.0130437
795.693	0.0130465
795.771	0.0132065
795.849	0.0132584
795.927	0.0130695
796.005	0.0131946
796.083	0.0132098
796.161	0.0133097
796.239	0.0133807
796.318	0.0133440
796.396	0.0134322
796.474	0.0134837
796.552	0.0136220
796.630	0.0137148
796.708	0.0137926
796.786	0.0139536
796.864	0.0137753
796.943	0.0138337
797.021	0.0139518
797.099	0.0141031
797.177	0.0140988
797.255	0.0141704
797.333	0.0140568
797.411	0.0141589
797.489	0.0143813
797.568	0.0142983
797.646	0.0142534
797.724	0.0142240
797.802	0.0142493
797.880	0.0142065
797.958	0.0143969
798.036	0.0144109
798.114	0.0143288
798.193	0.0142998
798.271	0.0144427
798.349	0.0141631
798.427	0.0140916
798.505	0.0142930
798.583	0.0141289
798.661	0.0140710
798.739	0.0141223
798.818	0.0139402
798.896	0.0138701
798.974	0.0138278
799.052	0.0138611
799.130	0.0137459
799.208	0.0137982
799.286	0.0135030
799.364	0.0133942
799.443	0.0133546
799.521	0.0135126
799.599	0.0132819
799.677	0.0133990
799.755	0.0133881
799.833	0.0131934
799.911	0.0131595
799.989	0.0130923
800.068	0.0130143
800.146	0.0129617
800.224	0.0129671
800.302	0.0129632
800.380	0.0129933
800.458	0.0130987
800.536	0.0129404
800.614	0.0129482
800.693	0.0130016
800.771	0.0130486
800.849	0.0130685
800.927	0.0132734
801.005	0.0132455
801.083	0.0132354
801.161	0.0132326
801.239	0.0133158
801.318	0.0133295
801.396	0.0133138
801.474	0.0134420
801.552	0.0133388
801.630	0.0133855
801.708	0.0135010
801.786	0.0136122
801.864	0.0134441
801.943	0.0134797
802.021	0.0136821
802.099	0.0136572
802.177	0.0137244
802.255	0.0137465
802.333	0.0138332
802.411	0.0138316
802.489	0.0139102
802.568	0.0138757
802.646	0.0140125
802.724	0.0142333
802.802	0.0142764
802.880	0.0143446
802.958	0.0143845
803.036	0.0143577
803.114	0.0143098
803.193	0.0143195
803.271	0.0142947
803.349	0.0143640
803.427	0.0143972
803.505	0.0142857
803.583	0.0142421
803.661	0.0142252
803.739	0.0140912
803.818	0.0140299
803.896	0.0139072
803.974	0.0140004
804.052	0.0139141
804.130	0.0139183
804.208	0.0138077
804.286	0.0138498
804.364	0.0138451
804.443	0.0138572
804.521	0.0138255
804.599	0.0138326
804.677	0.0138202
804.755	0.0138176
804.833	0.0137376
804.911	0.0138413
804.989	0.0138506
805.068	0.0137093
805.146	0.0136550
805.224	0.0137314
805.302	0.0137210
805.380	0.0136570
805.458	0.0136134
805.536	0.0136077
805.614	0.0136734
805.693	0.0134891
805.771	0.0134284
805.849	0.0135246
805.927	0.0134232
806.005	0.0133118
806.083	0.0132383
806.161	0.0133382
806.239	0.0131350
806.318	0.0132510
806.396	0.0129339
806.474	0.0129827
806.552	0.0129314
806.630	0.0129231
806.708	0.0129133
806.786	0.0129630
806.864	0.0130562
806.943	0.0131206
807.021	0.0130032
807.099	0.0130457
807.177	0.0132914
807.255	0.0132626
807.333	0.0131893
807.411	0.0132677
807.489	0.0133160
807.568	0.0133804
807.646	0.0134164
807.724	0.0135708
807.802	0.0136608
807.880	0.0138201
807.958	0.0139563
808.036	0.0139866
808.114	0.0139214
808.193	0.0139186
808.271	0.0140923
808.349	0.0141411
808.427	0.0142817
808.505	0.0142092
808.583	0.0142316
808.661	0.0143051
808.739	0.0144157
808.818	0.0144888
808.896	0.0144054
808.974	0.0144273
809.052	0.0142950
809.130	0.0142804
809.208	0.0142586
809.286	0.0142505
809.364	0.0142326
809.443	0.0140194
809.521	0.0140795
809.599	0.0139868
809.677	0.0138739
809.755	0.0137933
809.833	0.0137491
809.911	0.0139066
809.989	0.0138255
810.068	0.0137336
810.146	0.0136366
810.224	0.0137337
810.302	0.0135996
810.380	0.0134485
810.458	0.0136267
810.536	0.0136240
810.614	0.0134021
810.693	0.0133182
810.771	0.0134103
810.849	0.0133524
810.927	0.0133858
811.005	0.0131577
811.083	0.0131278
811.161	0.0130446
811.239	0.0131440
811.318	0.0130992
811.396	0.0129909
811.474	0.0129862
811.552	0.0128989
811.630	0.0129388
811.708	0.0129190
811.786	0.0129804
811.864	0.0129581
811.943	0.0130455
812.021	0.0131910
812.099	0.0132780
812.177	0.0133283
812.255	0.0132738
812.333	0.0134074
812.411	0.0134897
812.489	0.0135146
812.568	0.0135266
812.646	0.0136443
812.724	0.0136909
812.802	0.0137719
812.880	0.0137703
812.958	0.0138472
813.036	0.0138931
813.114	0.0138988
813.193	0.0139474
813.271	0.0141106
813.349	0.0140877
813.427	0.0141187
813.505	0.0141258
813.583	0.0140919
813.661	0.0141118
813.739	0.0142477
813.818	0.0142386
813.896	0.0141962
813.974	0.0141329
814.052	0.0141838
814.130	0.0141158
814.208	0.0140443
814.286	0.0138945
814.364	0.0139639
814.443	0.0139468
814.521	0.0138452
814.599	0.0138298
814.677	0.0136355
814.755	0.0138202
814.833	0.0138674
814.911	0.0138028
814.989	0.0137507
815.068	0.0136174
815.146	0.0135916
815.224	0.0135074
815.302	0.0136073
815.380	0.0136304
815.458	0.0134521
815.536	0.0135937
815.614	0.0135078
815.693	0.0133337
815.771	0.0136162
815.849	0.0136127
815.927	0.0134306
816.005	0.0135191
816.083	0.0134405
816.161	0.0134678
816.239	0.0135370
816.318	0.0136539
816.396	0.0136542
816.474	0.0135196
816.552	0.0136174
816.630	0.0136427
816.708	0.0137349
816.786	0.0135880
816.864	0.0137768
816.943	0.0137772
817.021	0.0137630
817.099	0.0137692
817.177	0.0139101
817.255	0.0138057
817.333	0.0137910
817.411	0.0138242
817.489	0.0138918
817.568	0.0137675
817.646	0.0138302
817.724	0.0137601
817.802	0.0138514
817.880	0.0138534
817.958	0.0138586
818.036	0.0137944
818.114	0.0138701
818.193	0.0137795
818.271	0.0137373
818.349	0.0137695
818.427	0.0136720
818.505	0.0136567
818.583	0.0136394
818.661	0.0136427
818.739	0.0138318
818.818	0.0137099
818.896	0.0137830
818.974	0.0137498
819.052	0.0137225
819.130	0.0137108
819.208	0.0136607
819.286	0.0136169
819.364	0.0135863
819.443	0.0137051
819.521	0.0136623
819.599	0.0137485
819.677	0.0136785
819.755	0.0135595
819.833	0.0136257
819.911	0.0135860
819.989	0.0135447
820.068	0.0135029
820.146	0.0136301
820.224	0.0136844
820.302	0.0136372
820.380	0.0135516
820.458	0.0134948
820.536	0.0136436
820.614	0.0136733
820.693	0.0134723
820.771	0.0135283
820.849	0.0135036
820.927	0.0135338
821.005	0.0136886
821.083	0.0134334
821.161	0.0134435
821.239	0.0134723
821.318	0.0135397
821.396	0.0133829
821.474	0.0133375
821.552	0.0132426
821.630	0.0132227
821.708	0.0133865
821.786	0.0132762
821.864	0.0132613
821.943	0.0132881
822.021	0.0131782
822.099	0.0132423
822.177	0.0133533
822.255	0.0135680
822.333	0.0135402
822.411	0.0135136
822.489	0.0136622
822.568	0.0138297
822.646	0.0136328
822.724	0.0136399
822.802	0.0138055
822.880	0.0139105
822.958	0.0138956
823.036	0.0138110
823.114	0.0139388
823.193	0.0139427
823.271	0.0137247
823.349	0.0138612
823.427	0.0140286
823.505	0.0138306
823.583	0.0138023
823.661	0.0139748
823.739	0.0138380
823.818	0.0138002
823.896	0.0137052
823.974	0.0136459
824.052	0.0137485
824.130	0.0137028
824.208	0.0136822
824.286	0.0135830
824.364	0.0133432
824.443	0.0135440
824.521	0.0135558
824.599	0.0134850
824.677	0.0133916
824.755	0.0133483
824.833	0.0132660
824.911	0.0134257
824.989	0.0133032
825.068	0.0133857
825.146	0.0133604
825.224	0.0133662
825.302	0.0132708
825.380	0.0131625
825.458	0.0133545
825.536	0.0134895
825.614	0.0135609
825.693	0.0135656
825.771	0.0137067
825.849	0.0134511
825.927	0.0134623
826.005	0.0135305
826.083	0.0135403
826.161	0.0136172
826.239	0.0136342
826.318	0.0137025
826.396	0.0137714
826.474	0.0136532
826.552	0.0137148
826.630	0.0136259
826.708	0.0136179
826.786	0.0137253
826.864	0.0135940
826.943	0.0135686
827.021	0.0136004
827.099	0.0137015
827.177	0.0136394
827.255	0.0137380
827.333	0.0136528
827.411	0.0135933
827.489	0.0135513
827.568	0.0137296
827.646	0.0137194
827.724	0.0137999
827.802	0.0135803
827.880	0.0137085
827.958	0.0136608
828.036	0.0136878
828.114	0.0138313
828.193	0.0137232
828.271	0.0136351
828.349	0.0136276
828.427	0.0136910
828.505	0.0136787
828.583	0.0138174
828.661	0.0136708
828.739	0.0137869
828.818	0.0138300
828.896	0.0138137
828.974	0.0137794
829.052	0.0136409
829.130	0.0136777
829.208	0.0136727
829.286	0.0137933
829.364	0.0137151
829.443	0.0138323
829.521	0.0138211
829.599	0.0137621
829.677	0.0136998
829.755	0.0137150
829.833	0.0137582
829.911	0.0138184
829.989	0.0137795
830.068	0.0138351
830.146	0.0138316
830.224	0.0137521
830.302	0.0137324
830.380	0.0137037
830.458	0.0137209
830.536	0.0136431
830.614	0.0136163
830.693	0.0137170
830.771	0.0134910
830.849	0.0134280
830.927	0.0134947
831.005	0.0133883
831.083	0.0133217
831.161	0.0132451
831.239	0.0132035
831.318	0.0132264
831.396	0.0133739
831.474	0.0131027
831.552	0.0131094
831.630	0.0131698
831.708	0.0131348
831.786	0.0130226
831.864	0.0130255
831.943	0.0131322
832.021	0.0132430
832.099	0.0132892
832.177	0.0132803
832.255	0.0133490
832.333	0.0134151
832.411	0.0134332
832.489	0.0134486
832.568	0.0134883
832.646	0.0135589
832.724	0.0137194
832.802	0.0137703
832.880	0.0137115
832.958	0.0137949
833.036	0.0137917
833.114	0.0139215
833.193	0.0141383
833.271	0.0139623
833.349	0.0139491
833.427	0.0140549
833.505	0.0141686
833.583	0.0141415
833.661	0.0142533
833.739	0.0141773
833.818	0.0141607
833.896	0.0142207
833.974	0.0143412
834.052	0.0142522
834.130	0.0143112
834.208	0.0140427
834.286	0.0142265
834.364	0.0142609
834.443	0.0141624
834.521	0.0141090
834.599	0.0138799
834.677	0.0139183
834.755	0.0138615
834.833	0.0139620
834.911	0.0138702
834.989	0.0138004
835.068	0.0136972
835.146	0.0137057
835.224	0.0136057
835.302	0.0137867
835.380	0.0137246
835.458	0.0136400
835.536	0.0134695
835.614	0.0133961
835.693	0.0134815
835.771	0.0136753
835.849	0.0135708
835.927	0.0134668
836.005	0.0135064
836.083	0.0135759
836.161	0.0134699
836.239	0.0135509
836.318	0.0135878
836.396	0.0135858
836.474	0.0135091
836.552	0.0136361
836.630	0.0136304
836.708	0.0136725
836.786	0.0136639
836.864	0.0136863
836.943	0.0135394
837.021	0.0137192
837.099	0.0137525
837.177	0.0135815
837.255	0.0135480
837.333	0.0135949
837.411	0.0134774
837.489	0.0135147
837.568	0.0137035
837.646	0.0136536
837.724	0.0134193
837.802	0.0133050
837.880	0.0133704
837.958	0.0134125
838.036	0.0133987
838.114	0.0135524
838.193	0.0135140
838.271	0.0135609
838.349	0.0135766
838.427	0.0135111
838.505	0.0135773
838.583	0.0137680
838.661	0.0137208
838.739	0.0137495
838.818	0.0136481
838.896	0.0137688
838.974	0.0139065
839.052	0.0138781
839.130	0.0139824
839.208	0.0139132
839.286	0.0139596
839.364	0.0138765
839.443	0.0139583
839.521	0.0140161
839.599	0.0140475
839.677	0.0140528
839.755	0.0140735
839.833	0.0140599
839.911	0.0141814
839.989	0.0141459
840.068	0.0140083
840.146	0.0141305
840.224	0.0139263
840.302	0.0140907
840.380	0.0140685
840.458	0.0139301
840.536	0.0140234
840.614	0.0141358
840.693	0.0140388
840.771	0.0139550
840.849	0.0138860
840.927	0.0137827
841.005	0.0137546
841.083	0.0137367
841.161	0.0135998
841.239	0.0135905
841.318	0.0135947
841.396	0.0134927
841.474	0.0134307
841.552	0.0133414
841.630	0.0132452
841.708	0.0132551
841.786	0.0131262
841.864	0.0131394
841.943	0.0132394
842.021	0.0132186
842.099	0.0132389
842.177	0.0132655
842.255	0.0133169
842.333	0.0133319
842.411	0.0134483
842.489	0.0134447
842.568	0.0134318
842.646	0.0134424
842.724	0.0134927
842.802	0.0136844
842.880	0.0136610
842.958	0.0137923
843.036	0.0138488
843.114	0.0136895
843.193	0.0138766
843.271	0.0137682
843.349	0.0139494
843.427	0.0139998
843.505	0.0137684
843.583	0.0139346
843.661	0.0140222
843.739	0.0138472
843.818	0.0137809
843.896	0.0138126
843.974	0.0137178
844.052	0.0136595
844.130	0.0137433
844.208	0.0135490
844.286	0.0135066
844.364	0.0134708
844.443	0.0135458
844.521	0.0137453
844.599	0.0136423
844.677	0.0135928
844.755	0.0135567
844.833	0.0135497
844.911	0.0136510
844.989	0.0135568
845.068	0.0137596
845.146	0.0136317
845.224	0.0136038
845.302	0.0137535
845.380	0.0136958
845.458	0.0137283
845.536	0.0138192
845.614	0.0137254
845.693	0.0136075
845.771	0.0137411
845.849	0.0137387
845.927	0.0139268
846.005	0.0138854
846.083	0.0138329
846.161	0.0140026
846.239	0.0139584
846.318	0.0140240
846.396	0.0139007
846.474	0.0140200
846.552	0.0139983
846.630	0.0138740
846.708	0.0139491
846.786	0.0139539
846.864	0.0139761
846.943	0.0138605
847.021	0.0137569
847.099	0.0138241
847.177	0.0137915
847.255	0.0138293
847.333	0.0136520
847.411	0.0134978
847.489	0.0136574
847.568	0.0134487
847.646	0.0133983
847.724	0.0133924
847.802	0.0133443
847.880	0.0133816
847.958	0.0133031
848.036	0.0132483
848.114	0.0132010
848.193	0.0132710
848.271	0.0132275
848.349	0.0132082
848.427	0.0132491
848.505	0.0132051
848.583	0.0133020
848.661	0.0133877
848.739	0.0133893
848.818	0.0135065
848.896	0.0135610
848.974	0.0134765
849.052	0.0136719
849.130	0.0136514
849.208	0.0136372
849.286	0.0138194
849.364	0.0137908
849.443	0.0137670
849.521	0.0138955
849.599	0.0138938
849.677	0.0139162
849.755	0.0138202
849.833	0.0138566
849.911	0.0138332
849.989	0.0138972
850.068	0.0137608
850.146	0.0137676
850.224	0.0139513
850.302	0.0139114
850.380	0.0139222
850.458	0.0138842
850.536	0.0137941
850.614	0.0137178
850.693	0.0136779
850.771	0.0138777
850.849	0.0137509
850.927	0.0136987
851.005	0.0138391
851.083	0.0136936
851.161	0.0137127
851.239	0.0136099
851.318	0.0136831
851.396	0.0137811
851.474	0.0136880
851.552	0.0137028
851.630	0.0137824
851.708	0.0137808
851.786	0.0137756
851.864	0.0138306
851.943	0.0136414
852.021	0.0137232
852.099	0.0136127
852.177	0.0135898
852.255	0.0137035
852.333	0.0135097
852.411	0.0136581
852.489	0.0137646
852.568	0.0138466
852.646	0.0136521
852.724	0.0137106
852.802	0.0136590
852.880	0.0134719
852.958	0.0135909
853.036	0.0135964
853.114	0.0134150
853.193	0.0135635
853.271	0.0135558
853.349	0.0135816
853.427	0.0134985
853.505	0.0136468
853.583	0.0136650
853.661	0.0134944
853.739	0.0134786
853.818	0.0135397
853.896	0.0134896
853.974	0.0135005
854.052	0.0135390
854.130	0.0134383
854.208	0.0134046
854.286	0.0134505
854.364	0.0134327
854.443	0.0134814
854.521	0.0134517
854.599	0.0134128
854.677	0.0133617
854.755	0.0132637
854.833	0.0133743
854.911	0.0132868
854.989	0.0132620
855.068	0.0131400
855.146	0.0133598
855.224	0.0134106
855.302	0.0131047
855.380	0.0131551
855.458	0.0132569
855.536	0.0132514
855.614	0.0133371
855.693	0.0132919
855.771	0.0133301
855.849	0.0132528
855.927	0.0132853
856.005	0.0133678
856.083	0.0133582
856.161	0.0134411
856.239	0.0135751
856.318	0.0135593
856.396	0.0136452
856.474	0.0137307
856.552	0.0138090
856.630	0.0138167
856.708	0.0137194
856.786	0.0138938
856.864	0.0139012
856.943	0.0137997
857.021	0.0136995
857.099	0.0137917
857.177	0.0139267
857.255	0.0139139
857.333	0.0136897
857.411	0.0137766
857.489	0.0137148
857.568	0.0139101
857.646	0.0137252
857.724	0.0137383
857.802	0.0138256
857.880	0.0137234
857.958	0.0137384
858.036	0.0137626
858.114	0.0137927
858.193	0.0138582
858.271	0.0138235
858.349	0.0137126
858.427	0.0137136
858.505	0.0138850
858.583	0.0137983
858.661	0.0136815
858.739	0.0136568
858.818	0.0137104
858.896	0.0136325
858.974	0.0137213
859.052	0.0137283
859.130	0.0135805
859.208	0.0138018
859.286	0.0137866
859.364	0.0137566
859.443	0.0138507
859.521	0.0138981
859.599	0.0139253
859.677	0.0138150
859.755	0.0137667
859.833	0.0137634
859.911	0.0136861
859.989	0.0137423
860.068	0.0137823
860.146	0.0136533
860.224	0.0136287
860.302	0.0137175
860.380	0.0137333
860.458	0.0136615
860.536	0.0136172
860.614	0.0134941
860.693	0.0134537
860.771	0.0135545
860.849	0.0134401
860.927	0.0133784
861.005	0.0134992
861.083	0.0135616
861.161	0.0135130
861.239	0.0137001
861.318	0.0137149
861.396	0.0136525
861.474	0.0137565
861.552	0.0136985
861.630	0.0137830
861.708	0.0138661
861.786	0.0138023
861.864	0.0138161
861.943	0.0138538
862.021	0.0139915
862.099	0.0139983
862.177	0.0140881
862.255	0.0138806
862.333	0.0139348
862.411	0.0141783
862.489	0.0139832
862.568	0.0140070
862.646	0.0140224
862.724	0.0139418
862.802	0.0138718
862.880	0.0137473
862.958	0.0138059
863.036	0.0138865
863.114	0.0137126
863.193	0.0137464
863.271	0.0136176
863.349	0.0138419
863.427	0.0137804
863.505	0.0136118
863.583	0.0134679
863.661	0.0137091
863.739	0.0135060
863.818	0.0135696
863.896	0.0134769
863.974	0.0136243
864.052	0.0135604
864.130	0.0135070
864.208	0.0135773
864.286	0.0136261
864.364	0.0137685
864.443	0.0136153
864.521	0.0136523
864.599	0.0137515
864.677	0.0137284
864.755	0.0137341
864.833	0.0137107
864.911	0.0136636
864.989	0.0136327
865.068	0.0135899
865.146	0.0137411
865.224	0.0135682
865.302	0.0135487
865.380	0.0134220
865.458	0.0135612
865.536	0.0135529
865.614	0.0134212
865.693	0.0133794
865.771	0.0133628
865.849	0.0134432
865.927	0.0133311
866.005	0.0131663
866.083	0.0133351
866.161	0.0132957
866.239	0.0132780
866.318	0.0132895
866.396	0.0133604
866.474	0.0133521
866.552	0.0133686
866.630	0.0134117
866.708	0.0134982
866.786	0.0135101
866.864	0.0135660
866.943	0.0134410
867.021	0.0134955
867.099	0.0137399
867.177	0.0137817
867.255	0.0137123
867.333	0.0138889
867.411	0.0137881
867.489	0.0137226
867.568	0.0138534
867.646	0.0137983
867.724	0.0139300
867.802	0.0139121
867.880	0.0139904
867.958	0.0139714
868.036	0.0138493
868.114	0.0139523
868.193	0.0138672
868.271	0.0137363
868.349	0.0138107
868.427	0.0139103
868.505	0.0138483
868.583	0.0138108
868.661	0.0137461
868.739	0.0136578
868.818	0.0138466
868.896	0.0135528
868.974	0.0136889
869.052	0.0137061
869.130	0.0135386
869.208	0.0136548
869.286	0.0135107
869.364	0.0135232
869.443	0.0136501
869.521	0.0135266
869.599	0.0134948
869.677	0.0134599
869.755	0.0136366
869.833	0.0137865
869.911	0.0136715
869.989	0.0135534
870.068	0.0135251
870.146	0.0136514
870.224	0.0135654
870.302	0.0135748
870.380	0.0136506
870.458	0.0137494
870.536	0.0137213
870.614	0.0137001
870.693	0.0137832
870.771	0.0135639
870.849	0.0136116
870.927	0.0137028
871.005	0.0137294
871.083	0.0136940
871.161	0.0135750
871.239	0.0136533
871.318	0.0138632
871.396	0.0136455
871.474	0.0137128
871.552	0.0137044
871.630	0.0136465
871.708	0.0136822
871.786	0.0136656
871.864	0.0137362
871.943	0.0136893
872.021	0.0137659
872.099	0.0137657
872.177	0.0137441
872.255	0.0136471
872.333	0.0136250
872.411	0.0136794
872.489	0.0136134
872.568	0.0136237
872.646	0.0136525
872.724	0.0136110
872.802	0.0137095
872.880	0.0135447
872.958	0.0136688
873.036	0.0136963
873.114	0.0136674
873.193	0.0136346
873.271	0.0136664
873.349	0.0137952
873.427	0.0136618
873.505	0.0137890
873.583	0.0136997
873.661	0.0138490
873.739	0.0138646
873.818	0.0138941
873.896	0.0137560
873.974	0.0137761
874.052	0.0137274
874.130	0.0137909
874.208	0.0137076
874.286	0.0135084
874.364	0.0137515
874.443	0.0136651
874.521	0.0135427
874.599	0.0136540
874.677	0.0134762
874.755	0.0136453
874.833	0.0135943
874.911	0.0134846
874.989	0.0135909
875.068	0.0135532
875.146	0.0136346
875.224	0.0135414
875.302	0.0135169
875.380	0.0134611
875.458	0.0135033
875.536	0.0134474
875.614	0.0134488
875.693	0.0133629
875.771	0.0135098
875.849	0.0134287
875.927	0.0135187
876.005	0.0135576
876.083	0.0134998
876.161	0.0135616
876.239	0.0135468
876.318	0.0136796
876.396	0.0136027
876.474	0.0136834
876.552	0.0135059
876.630	0.0137324
876.708	0.0136668
876.786	0.0137154
876.864	0.0138889
876.943	0.0136266
877.021	0.0136703
877.099	0.0136620
877.177	0.0135455
877.255	0.0136925
877.333	0.0137338
877.411	0.0137337
877.489	0.0137353
877.568	0.0137620
877.646	0.0137405
877.724	0.0138002
877.802	0.0137283
877.880	0.0138070
877.958	0.0136723
878.036	0.0137163
878.114	0.0137623
878.193	0.0137109
878.271	0.0138535
878.349	0.0138066
878.427	0.0136534
878.505	0.0134748
878.583	0.0136671
878.661	0.0135609
878.739	0.0134974
878.818	0.0135201
878.896	0.0135199
878.974	0.0134688
879.052	0.0134485
879.130	0.0133646
879.208	0.0134852
879.286	0.0134669
879.364	0.0134250
879.443	0.0134821
879.521	0.0134537
879.599	0.0135337
879.677	0.0135250
879.755	0.0134648
879.833	0.0136563
879.911	0.0135756
879.989	0.0135796
880.068	0.0135908
880.146	0.0137076
880.224	0.0137638
880.302	0.0136886
880.380	0.0137463
880.458	0.0139208
880.536	0.0137318
880.614	0.0137121
880.693	0.0136588
880.771	0.0137613
880.849	0.0138139
880.927	0.0137112
881.005	0.0136817
881.083	0.0138147
881.161	0.0138940
881.239	0.0138216
881.318	0.0138572
881.396	0.0137511
881.474	0.0135293
881.552	0.0134338
881.630	0.0135815
881.708	0.0135019
881.786	0.0135486
881.864	0.0135735
881.943	0.0134461
882.021	0.0134416
882.099	0.0132674
882.177	0.0133654
882.255	0.0133791
882.333	0.0134692
882.411	0.0133336
882.489	0.0134511
882.568	0.0134144
882.646	0.0134476
882.724	0.0135292
882.802	0.0134498
882.880	0.0134109
882.958	0.0136070
883.036	0.0136189
883.114	0.0136646
883.193	0.0137746
883.271	0.0137061
883.349	0.0137122
883.427	0.0137832
883.505	0.0137978
883.583	0.0138686
883.661	0.0138014
883.739	0.0137939
883.818	0.0137086
883.896	0.0136881
883.974	0.0139417
884.052	0.0137853
884.130	0.0137705
884.208	0.0136976
884.286	0.0137407
884.364	0.0137238
884.443	0.0136155
884.521	0.0135278
884.599	0.0135632
884.677	0.0135116
884.755	0.0135079
884.833	0.0133320
884.911	0.0133132
884.989	0.0134089
885.068	0.0133237
885.146	0.0133308
885.224	0.0132925
885.302	0.0132602
885.380	0.0133630
885.458	0.0132690
885.536	0.0131902
885.614	0.0133226
885.693	0.0134213
885.771	0.0134945
885.849	0.0134117
885.927	0.0134532
886.005	0.0132220
886.083	0.0134512
886.161	0.0136061
886.239	0.0135868
886.318	0.0135115
886.396	0.0132858
886.474	0.0134926
886.552	0.0136204
886.630	0.0135410
886.708	0.0135359
886.786	0.0134628
886.864	0.0134200
886.943	0.0135255
887.021	0.0137406
887.099	0.0137058
887.177	0.0135929
887.255	0.0135598
887.333	0.0136462
887.411	0.0137181
887.489	0.0136312
887.568	0.0137360
887.646	0.0137727
887.724	0.0137313
887.802	0.0137631
887.880	0.0140028
887.958	0.0138834
888.036	0.0138447
888.114	0.0138996
888.193	0.0138918
888.271	0.0139922
888.349	0.0140220
888.427	0.0140002
888.505	0.0139732
888.583	0.0139674
888.661	0.0139736
888.739	0.0139098
888.818	0.0138498
888.896	0.0139403
888.974	0.0138514
889.052	0.0138735
889.130	0.0137454
889.208	0.0138258
889.286	0.0138560
889.364	0.0137537
889.443	0.0136974
889.521	0.0134002
889.599	0.0135263
889.677	0.0135028
889.755	0.0134312
889.833	0.0133588
889.911	0.0133234
889.989	0.0132567
890.068	0.0133519
890.146	0.0132835
890.224	0.0133871
890.302	0.0132899
890.380	0.0133152
890.458	0.0132878
890.536	0.0133244
890.614	0.0133508
890.693	0.0133740
890.771	0.0132072
890.849	0.0133714
890.927	0.0133453
891.005	0.0134204
891.083	0.0134665
891.161	0.0136504
891.239	0.0136543
891.318	0.0136080
891.396	0.0137280
891.474	0.0137737
891.552	0.0136518
891.630	0.0137671
891.708	0.0137679
891.786	0.0138144
891.864	0.0138512
891.943	0.0138933
892.021	0.0139898
892.099	0.0140316
892.177	0.0138056
892.255	0.0137670
892.333	0.0138998
892.411	0.0139318
892.489	0.0140653
892.568	0.0140086
892.646	0.0138602
892.724	0.0138742
892.802	0.0139684
892.880	0.0137753
892.958	0.0138107
893.036	0.0139028
893.114	0.0137569
893.193	0.0137029
893.271	0.0138081
893.349	0.0137651
893.427	0.0135619
893.505	0.0136662
893.583	0.0135203
893.661	0.0134999
893.739	0.0134906
893.818	0.0135263
893.896	0.0134503
893.974	0.0134905
894.052	0.0133099
894.130	0.0133346
894.208	0.0134361
894.286	0.0132839
894.364	0.0133746
894.443	0.0133776
894.521	0.0132449
894.599	0.0133382
894.677	0.0134387
894.755	0.0133178
894.833	0.0134261
894.911	0.0134731
894.989	0.0135748
895.068	0.0135648
895.146	0.0135511
895.224	0.0136301
895.302	0.0135455
895.380	0.0136127
895.458	0.0137292
895.536	0.0137072
895.614	0.0135303
895.693	0.0135130
895.771	0.0135963
895.849	0.0137640
895.927	0.0137171
896.005	0.0136875
896.083	0.0138576
896.161	0.0136279
896.239	0.0137807
896.318	0.0136922
896.396	0.0137919
896.474	0.0136696
896.552	0.0137814
896.630	0.0137126
896.708	0.0137335
896.786	0.0137756
896.864	0.0138329
896.943	0.0137625
897.021	0.0136354
897.099	0.0137775
897.177	0.0139127
897.255	0.0138252
897.333	0.0135664
897.411	0.0137196
897.489	0.0137218
897.568	0.0137286
897.646	0.0136630
897.724	0.0136739
897.802	0.0136701
897.880	0.0137279
897.958	0.0136625
898.036	0.0136394
898.114	0.0135533
898.193	0.0136280
898.271	0.0136803
898.349	0.0135941
898.427	0.0133820
898.505	0.0135491
898.583	0.0136311
898.661	0.0134167
898.739	0.0135728
898.818	0.0134159
898.896	0.0133907
898.974	0.0135062
899.052	0.0134293
899.130	0.0134171
899.208	0.0133916
899.286	0.0135963
899.364	0.0135715
899.443	0.0135403
899.521	0.0135960
899.599	0.0136523
899.677	0.0136902
899.755	0.0138020
899.833	0.0138396
899.911	0.0137508
899.989	0.0137968
900.068	0.0137440
900.146	0.0139280
900.224	0.0138040
900.302	0.0137821
900.380	0.0139153
900.458	0.0137725
900.536	0.0138120
900.614	0.0136938
900.693	0.0136955
900.771	0.0136952
900.849	0.0136172
900.927	0.0136866
901.005	0.0138458
901.083	0.0138433
901.161	0.0136383
901.239	0.0136175
901.318	0.0136065
901.396	0.0135651
901.474	0.0134809
901.552	0.0135595
901.630	0.0135233
901.708	0.0136352
901.786	0.0136536
901.864	0.0136848
901.943	0.0135100
902.021	0.0136744
902.099	0.0136404
902.177	0.0136643
902.255	0.0137312
902.333	0.0136610
902.411	0.0135210
902.489	0.0134483
902.568	0.0137041
902.646	0.0135164
902.724	0.0134490
902.802	0.0135072
902.880	0.0135683
902.958	0.0133976
903.036	0.0133829
903.114	0.0134606
903.193	0.0135899
903.271	0.0134887
903.349	0.0133732
903.427	0.0133514
903.505	0.0135004
903.583	0.0134667
903.661	0.0133376
903.739	0.0135905
903.818	0.0135422
903.896	0.0136425
903.974	0.0136771
904.052	0.0134876
904.130	0.0136766
904.208	0.0134655
904.286	0.0134474
904.364	0.0136474
904.443	0.0136586
904.521	0.0135447
904.599	0.0134451
904.677	0.0135817
904.755	0.0136081
904.833	0.0134759
904.911	0.0134248
904.989	0.0135642
905.068	0.0136144
905.146	0.0137276
905.224	0.0135732
905.302	0.0136561
905.380	0.0135734
905.458	0.0137016
905.536	0.0136745
905.614	0.0137007
905.693	0.0138070
905.771	0.0137257
905.849	0.0139457
905.927	0.0138387
906.005	0.0137183
906.083	0.0139218
906.161	0.0138234
906.239	0.0139013
906.318	0.0138773
906.396	0.0139273
906.474	0.0138089
906.552	0.0139143
906.630	0.0139424
906.708	0.0138770
906.786	0.0137574
906.864	0.0138567
906.943	0.0138023
907.021	0.0136865
907.099	0.0136964
907.177	0.0137950
907.255	0.0136859
907.333	0.0136944
907.411	0.0136896
907.489	0.0138648
907.568	0.0137828
907.646	0.0136285
907.724	0.0136749
907.802	0.0137965
907.880	0.0137322
907.958	0.0136646
908.036	0.0137251
908.114	0.0137486
908.193	0.0138400
908.271	0.0134601
908.349	0.0137138
908.427	0.0138960
908.505	0.0134846
908.583	0.0137405
908.661	0.0138400
908.739	0.0136269
908.818	0.0136859
908.896	0.0136311
908.974	0.0135399
909.052	0.0135290
909.130	0.0136053
909.208	0.0136040
909.286	0.0134242
909.364	0.0135069
909.443	0.0134679
909.521	0.0135795
909.599	0.0134638
909.677	0.0134328
909.755	0.0133353
909.833	0.0135092
909.911	0.0134340
909.989	0.0133483
910.068	0.0134216
910.146	0.0133208
910.224	0.0133379
910.302	0.0133885
910.380	0.0133284
910.458	0.0134771
910.536	0.0133762
910.614	0.0135100
910.693	0.0135329
910.771	0.0135182
910.849	0.0134933
910.927	0.0135434
911.005	0.0134107
911.083	0.0134286
911.161	0.0135489
911.239	0.0136208
911.318	0.0136531
911.396	0.0135889
911.474	0.0134616
911.552	0.0136821
911.630	0.0137655
911.708	0.0137536
911.786	0.0135747
911.864	0.0137614
911.943	0.0136823
912.021	0.0136691
912.099	0.0135629
912.177	0.0136819
912.255	0.0136256
912.333	0.0136687
912.411	0.0138081
912.489	0.0137177
912.568	0.0136439
912.646	0.0136876
912.724	0.0135567
912.802	0.0136205
912.880	0.0137148
912.958	0.0137931
913.036	0.0135385
913.114	0.0136255
913.193	0.0137075
913.271	0.0136092
913.349	0.0136471
913.427	0.0137029
913.505	0.0135207
913.583	0.0136619
913.661	0.0136525
913.739	0.0135858
913.818	0.0137128
913.896	0.0135902
913.974	0.0135120
914.052	0.0134910
914.130	0.0134561
914.208	0.0134194
914.286	0.0133949
914.364	0.0133626
914.443	0.0134229
914.521	0.0133831
914.599	0.0133370
914.677	0.0133408
914.755	0.0133797
914.833	0.0134462
914.911	0.0135301
914.989	0.0134537
915.068	0.0133836
915.146	0.0132999
915.224	0.0134819
915.302	0.0135146
915.380	0.0133509
915.458	0.0133529
915.536	0.0134640
915.614	0.0135044
915.693	0.0133349
915.771	0.0134492
915.849	0.0135911
915.927	0.0135452
916.005	0.0134683
916.083	0.0135961
916.161	0.0135208
916.239	0.0136160
916.318	0.0136683
916.396	0.0136405
916.474	0.0137378
916.552	0.0137293
916.630	0.0137898
916.708	0.0138664
916.786	0.0137189
916.864	0.0137375
916.943	0.0138300
917.021	0.0137238
917.099	0.0137570
917.177	0.0138129
917.255	0.0136932
917.333	0.0137949
917.411	0.0138551
917.489	0.0139451
917.568	0.0138303
917.646	0.0138140
917.724	0.0139651
917.802	0.0139827
917.880	0.0137487
917.958	0.0139549
918.036	0.0137611
918.114	0.0138029
918.193	0.0139543
918.271	0.0138866
918.349	0.0137762
918.427	0.0139942
918.505	0.0139227
918.583	0.0137508
918.661	0.0138840
918.739	0.0138251
918.818	0.0137603
918.896	0.0139339
918.974	0.0138789
919.052	0.0137079
919.130	0.0138448
919.208	0.0138953
919.286	0.0138177
919.364	0.0137800
919.443	0.0138372
919.521	0.0136784
919.599	0.0138042
919.677	0.0138540
919.755	0.0137242
919.833	0.0137590
919.911	0.0139025
919.989	0.0138002
920.068	0.0137089
920.146	0.0137926
920.224	0.0138490
920.302	0.0137427
920.380	0.0137733
920.458	0.0136486
920.536	0.0137386
920.614	0.0137389
920.693	0.0137470
920.771	0.0135488
920.849	0.0136560
920.927	0.0136800
921.005	0.0137160
921.083	0.0135879
921.161	0.0135180
921.239	0.0135355
921.318	0.0136516
921.396	0.0135801
921.474	0.0135600
921.552	0.0133830
921.630	0.0136250
921.708	0.0134992
921.786	0.0136156
921.864	0.0136074
921.943	0.0136552
922.021	0.0136317
922.099	0.0134815
922.177	0.0134294
922.255	0.0135976
922.333	0.0137524
922.411	0.0136921
922.489	0.0136383
922.568	0.0137002
922.646	0.0136752
922.724	0.0136600
922.802	0.0136050
922.880	0.0135741
922.958	0.0135708
923.036	0.0137320
923.114	0.0137386
923.193	0.0136515
923.271	0.0138263
923.349	0.0136408
923.427	0.0136530
923.505	0.0136409
923.583	0.0135846
923.661	0.0137004
923.739	0.0136655
923.818	0.0136199
923.896	0.0135203
923.974	0.0135796
924.052	0.0136246
924.130	0.0136632
924.208	0.0137537
924.286	0.0135792
924.364	0.0135330
924.443	0.0134996
924.521	0.0134929
924.599	0.0134605
924.677	0.0133909
924.755	0.0135452
924.833	0.0135345
924.911	0.0135196
924.989	0.0135331
925.068	0.0133900
925.146	0.0134956
925.224	0.0135159
925.302	0.0135194
925.380	0.0134483
925.458	0.0135245
925.536	0.0135178
925.614	0.0134662
925.693	0.0136212
925.771	0.0135349
925.849	0.0134731
925.927	0.0135211
926.005	0.0137597
926.083	0.0136178
926.161	0.0136459
926.239	0.0135488
926.318	0.0136522
926.396	0.0135612
926.474	0.0138116
926.552	0.0137477
926.630	0.0137366
926.708	0.0137162
926.786	0.0136616
926.864	0.0135657
926.943	0.0137468
927.021	0.0137173
927.099	0.0136499
927.177	0.0136668
927.255	0.0137285
927.333	0.0136729
927.411	0.0136081
927.489	0.0135820
927.568	0.0134962
927.646	0.0134850
927.724	0.0135739
927.802	0.0136131
927.880	0.0136163
927.958	0.0136125
928.036	0.0136898
928.114	0.0135698
928.193	0.0134865
928.271	0.0136208
928.349	0.0137148
928.427	0.0137246
928.505	0.0136978
928.583	0.0137232
928.661	0.0137103
928.739	0.0136858
928.818	0.0136150
928.896	0.0137627
928.974	0.0138085
929.052	0.0136916
929.130	0.0136607
929.208	0.0137318
929.286	0.0137766
929.364	0.0137903
929.443	0.0138033
929.521	0.0139156
929.599	0.0136892
929.677	0.0136681
929.755	0.0136393
929.833	0.0136655
929.911	0.0137993
929.989	0.0137078
930.068	0.0136750
930.146	0.0138885
930.224	0.0136404
930.302	0.0136765
930.380	0.0136028
930.458	0.0137044
930.536	0.0136888
930.614	0.0137434
930.693	0.0137642
930.771	0.0136815
930.849	0.0137378
930.927	0.0137371
931.005	0.0136267
931.083	0.0137372
931.161	0.0136862
931.239	0.0136723
931.318	0.0137262
931.396	0.0137646
931.474	0.0135799
931.552	0.0138111
931.630	0.0137842
931.708	0.0137687
931.786	0.0137373
931.864	0.0137274
931.943	0.0138682
932.021	0.0136985
932.099	0.0137515
932.177	0.0137265
932.255	0.0137016
932.333	0.0136781
932.411	0.0136485
932.489	0.0137059
932.568	0.0135538
932.646	0.0136692
932.724	0.0136514
932.802	0.0137765
932.880	0.0135571
932.958	0.0136726
933.036	0.0134946
933.114	0.0135309
933.193	0.0136422
933.271	0.0136326
933.349	0.0137968
933.427	0.0137033
933.505	0.0135617
933.583	0.0137710
933.661	0.0137359
933.739	0.0136703
933.818	0.0137486
933.896	0.0138084
933.974	0.0137634
934.052	0.0137769
934.130	0.0138618
934.208	0.0137515
934.286	0.0138158
934.364	0.0136746
934.443	0.0137642
934.521	0.0137619
934.599	0.0137746
934.677	0.0137540
934.755	0.0139068
934.833	0.0137506
934.911	0.0138442
934.989	0.0137917
935.068	0.0138235
935.146	0.0137313
935.224	0.0138390
935.302	0.0139138
935.380	0.0138977
935.458	0.0139484
935.536	0.0137561
935.614	0.0139015
935.693	0.0139125
935.771	0.0138047
935.849	0.0138420
935.927	0.0139484
936.005	0.0139453
936.083	0.0137522
936.161	0.0138632
936.239	0.0140121
936.318	0.0139356
936.396	0.0138564
936.474	0.0137292
936.552	0.0138842
936.630	0.0136948
936.708	0.0138325
936.786	0.0137768
936.864	0.0137174
936.943	0.0136131
937.021	0.0135326
937.099	0.0136258
937.177	0.0136459
937.255	0.0135384
937.333	0.0137897
937.411	0.0137414
937.489	0.0136280
937.568	0.0136079
937.646	0.0136433
937.724	0.0135514
937.802	0.0135866
937.880	0.0135462
937.958	0.0136464
938.036	0.0136209
938.114	0.0135642
938.193	0.0134885
938.271	0.0135907
938.349	0.0135236
938.427	0.0135613
938.505	0.0136576
938.583	0.0136289
938.661	0.0135734
938.739	0.0136241
938.818	0.0136929
938.896	0.0137244
938.974	0.0136061
939.052	0.0136758
939.130	0.0138234
939.208	0.0137949
939.286	0.0138259
939.364	0.0138044
939.443	0.0139557
939.521	0.0139542
939.599	0.0138924
939.677	0.0139936
939.755	0.0138772
939.833	0.0139391
939.911	0.0140195
939.989	0.0140877
940.068	0.0140206
940.146	0.0138683
940.224	0.0139754
940.302	0.0140202
940.380	0.0138689
940.458	0.0138257
940.536	0.0139678
940.614	0.0138494
940.693	0.0138501
940.771	0.0138779
940.849	0.0139293
940.927	0.0137215
941.005	0.0138078
941.083	0.0139312
941.161	0.0137235
941.239	0.0137325
941.318	0.0137835
941.396	0.0137848
941.474	0.0135823
941.552	0.0136121
941.630	0.0137635
941.708	0.0137045
941.786	0.0137801
941.864	0.0137138
941.943	0.0136603
942.021	0.0137832
942.099	0.0136542
942.177	0.0136433
942.255	0.0136598
942.333	0.0136737
942.411	0.0135652
942.489	0.0138209
942.568	0.0136161
942.646	0.0135642
942.724	0.0137058
942.802	0.0136398
942.880	0.0135902
942.958	0.0136619
943.036	0.0136087
943.114	0.0136981
943.193	0.0136943
943.271	0.0136249
943.349	0.0136884
943.427	0.0136541
943.505	0.0135970
943.583	0.0135603
943.661	0.0136235
943.739	0.0137117
943.818	0.0136232
943.896	0.0135454
943.974	0.0135059
944.052	0.0137158
944.130	0.0136343
944.208	0.0135867
944.286	0.0137587
944.364	0.0135944
944.443	0.0135619
944.521	0.0137236
944.599	0.0136606
944.677	0.0136967
944.755	0.0137298
944.833	0.0136400
944.911	0.0135857
944.989	0.0136573
945.068	0.0134635
945.146	0.0136414
945.224	0.0136262
945.302	0.0137350
945.380	0.0136341
945.458	0.0136411
945.536	0.0135827
945.614	0.0136861
945.693	0.0137634
945.771	0.0137871
945.849	0.0137664
945.927	0.0138145
946.005	0.0137855
946.083	0.0137620
946.161	0.0138017
946.239	0.0138546
946.318	0.0137518
946.396	0.0139113
946.474	0.0139066
946.552	0.0140757
946.630	0.0139106
946.708	0.0138029
946.786	0.0139371
946.864	0.0139756
946.943	0.0139652
947.021	0.0141837
947.099	0.0139558
947.177	0.0139159
947.255	0.0140876
947.333	0.0138681
947.411	0.0137585
947.489	0.0137185
947.568	0.0139822
947.646	0.0138580
947.724	0.0138521
947.802	0.0138495
947.880	0.0137343
947.958	0.0136317
948.036	0.0137510
948.114	0.0136893
948.193	0.0137316
948.271	0.0137263
948.349	0.0136011
948.427	0.0135249
948.505	0.0135548
948.583	0.0136256
948.661	0.0135634
948.739	0.0135925
948.818	0.0136578
948.896	0.0135169
948.974	0.0134964
949.052	0.0135205
949.130	0.0134782
949.208	0.0135625
949.286	0.0135883
949.364	0.0134501
949.443	0.0133792
949.521	0.0134292
949.599	0.0134916
949.677	0.0133609
949.755	0.0134876
949.833	0.0135686
949.911	0.0134555
949.989	0.0134406
950.068	0.0135348
950.146	0.0135529
950.224	0.0134055
950.302	0.0134747
950.380	0.0135654
950.458	0.0134433
950.536	0.0135994
950.614	0.0134891
950.693	0.0136112
950.771	0.0136007
950.849	0.0136105
950.927	0.0136478
951.005	0.0136539
951.083	0.0137880
951.161	0.0137415
951.239	0.0137539
951.318	0.0138770
951.396	0.0138449
951.474	0.0137579
951.552	0.0136660
951.630	0.0137159
951.708	0.0137886
951.786	0.0138282
951.864	0.0138341
951.943	0.0137817
952.021	0.0138176
952.099	0.0137946
952.177	0.0138268
952.255	0.0138619
952.333	0.0138744
952.411	0.0137841
952.489	0.0138174
952.568	0.0139652
952.646	0.0139502
952.724	0.0139146
952.802	0.0138807
952.880	0.0138520
952.958	0.0138316
953.036	0.0137846
953.114	0.0138676
953.193	0.0139318
953.271	0.0139615
953.349	0.0137570
953.427	0.0138110
953.505	0.0138395
953.583	0.0137278
953.661	0.0138391
953.739	0.0137682
953.818	0.0137167
953.896	0.0137729
953.974	0.0136435
954.052	0.0137308
954.130	0.0138035
954.208	0.0137486
954.286	0.0138269
954.364	0.0138469
954.443	0.0135124
954.521	0.0136943
954.599	0.0137630
954.677	0.0137373
954.755	0.0137148
954.833	0.0135306
954.911	0.0136794
954.989	0.0136723
955.068	0.0136626
955.146	0.0137094
955.224	0.0136982
955.302	0.0136407
955.380	0.0136906
955.458	0.0136415
955.536	0.0136205
955.614	0.0136070
955.693	0.0135296
955.771	0.0136185
955.849	0.0137385
955.927	0.0136032
956.005	0.0136992
956.083	0.0136127
956.161	0.0136719
956.239	0.0136633
956.318	0.0137268
956.396	0.0138251
956.474	0.0137572
956.552	0.0136892
956.630	0.0137888
956.708	0.0136542
956.786	0.0135841
956.864	0.0137271
956.943	0.0137085
957.021	0.0138116
957.099	0.0136063
957.177	0.0137752
957.255	0.0137114
957.333	0.0137093
957.411	0.0136883
957.489	0.0136598
957.568	0.0137268
957.646	0.0137126
957.724	0.0136801
957.802	0.0136490
957.880	0.0138888
957.958	0.0137354
958.036	0.0137326
958.114	0.0137082
958.193	0.0137912
958.271	0.0138810
958.349	0.0137008
958.427	0.0137756
958.505	0.0137338
958.583	0.0137658
958.661	0.0137690
958.739	0.0138154
958.818	0.0137754
958.896	0.0137249
958.974	0.0138226
959.052	0.0138111
959.130	0.0138931
959.208	0.0137134
959.286	0.0137263
959.364	0.0138213
959.443	0.0137295
959.521	0.0136539
959.599	0.0138074
959.677	0.0137388
959.755	0.0137730
959.833	0.0136686
959.911	0.0136813
