05/17/2022	17:06:34	Ver.	4.1	UNKNOWN
Optical Delay	639.982744	Delta X		0.078125	Sweeps	1	Scan Rate	0/0
Coordinates	Axis 1	NaN	Axis 2	NaN	Axis 3	NaN	Axis 4	NaN	Axis 5	NaN	Axis 6	0.000000
TX Power	0.000000	RX Power	0.000000

639.983	0.0165674
640.061	0.0164740
640.139	0.0165396
640.217	0.0165775
640.295	0.0165806
640.373	0.0165527
640.451	0.0165936
640.530	0.0164669
640.608	0.0164459
640.686	0.0166788
640.764	0.0165678
640.842	0.0165798
640.920	0.0165031
640.998	0.0164885
641.076	0.0164993
641.155	0.0164789
641.233	0.0165587
641.311	0.0164951
641.389	0.0162940
641.467	0.0163277
641.545	0.0163836
641.623	0.0163150
641.701	0.0163943
641.780	0.0165833
641.858	0.0164043
641.936	0.0163605
642.014	0.0163773
642.092	0.0164780
642.170	0.0163132
642.248	0.0164854
642.326	0.0163954
642.405	0.0164260
642.483	0.0165010
642.561	0.0164114
642.639	0.0164687
642.717	0.0164198
642.795	0.0164845
642.873	0.0166800
642.951	0.0165051
643.030	0.0165262
643.108	0.0163885
643.186	0.0163383
643.264	0.0163462
643.342	0.0164455
643.420	0.0163928
643.498	0.0164043
643.576	0.0163816
643.655	0.0164305
643.733	0.0162453
643.811	0.0163646
643.889	0.0165021
643.967	0.0164018
644.045	0.0163953
644.123	0.0164057
644.201	0.0164240
644.280	0.0166345
644.358	0.0165868
644.436	0.0163663
644.514	0.0164963
644.592	0.0166200
644.670	0.0164281
644.748	0.0164594
644.826	0.0164028
644.905	0.0164009
644.983	0.0165114
645.061	0.0164240
645.139	0.0164985
645.217	0.0164303
645.295	0.0163914
645.373	0.0162994
645.451	0.0164494
645.530	0.0164648
645.608	0.0162671
645.686	0.0163197
645.764	0.0164389
645.842	0.0163577
645.920	0.0164844
645.998	0.0163002
646.076	0.0163403
646.155	0.0164481
646.233	0.0163297
646.311	0.0162315
646.389	0.0164182
646.467	0.0164106
646.545	0.0162849
646.623	0.0162100
646.701	0.0162409
646.780	0.0162696
646.858	0.0162500
646.936	0.0162988
647.014	0.0163274
647.092	0.0160884
647.170	0.0162595
647.248	0.0163229
647.326	0.0163042
647.405	0.0163129
647.483	0.0162595
647.561	0.0163258
647.639	0.0161717
647.717	0.0162815
647.795	0.0163249
647.873	0.0162573
647.951	0.0163029
648.030	0.0163163
648.108	0.0162679
648.186	0.0161991
648.264	0.0164262
648.342	0.0163333
648.420	0.0161609
648.498	0.0161973
648.576	0.0163387
648.655	0.0162024
648.733	0.0163202
648.811	0.0162273
648.889	0.0162878
648.967	0.0164010
649.045	0.0162127
649.123	0.0162125
649.201	0.0162740
649.280	0.0161733
649.358	0.0163274
649.436	0.0162413
649.514	0.0162597
649.592	0.0161220
649.670	0.0160521
649.748	0.0162398
649.826	0.0162077
649.905	0.0160686
649.983	0.0160118
650.061	0.0161777
650.139	0.0161172
650.217	0.0162119
650.295	0.0160722
650.373	0.0160445
650.451	0.0160664
650.530	0.0161846
650.608	0.0160308
650.686	0.0161990
650.764	0.0161585
650.842	0.0162388
650.920	0.0163814
650.998	0.0162859
651.076	0.0163195
651.155	0.0163696
651.233	0.0162751
651.311	0.0162566
651.389	0.0163094
651.467	0.0164077
651.545	0.0163861
651.623	0.0165040
651.701	0.0164276
651.780	0.0165146
651.858	0.0164609
651.936	0.0164089
652.014	0.0164302
652.092	0.0163743
652.170	0.0163840
652.248	0.0163464
652.326	0.0164057
652.405	0.0163939
652.483	0.0163250
652.561	0.0162561
652.639	0.0163543
652.717	0.0163220
652.795	0.0162167
652.873	0.0162099
652.951	0.0163448
653.030	0.0163043
653.108	0.0161272
653.186	0.0161771
653.264	0.0162288
653.342	0.0163470
653.420	0.0162485
653.498	0.0163236
653.576	0.0162228
653.655	0.0162576
653.733	0.0163716
653.811	0.0163397
653.889	0.0162814
653.967	0.0163129
654.045	0.0162434
654.123	0.0162950
654.201	0.0161887
654.280	0.0162628
654.358	0.0161369
654.436	0.0161781
654.514	0.0161928
654.592	0.0161722
654.670	0.0161722
654.748	0.0161703
654.826	0.0161094
654.905	0.0161176
654.983	0.0161756
655.061	0.0162003
655.139	0.0162540
655.217	0.0162973
655.295	0.0162685
655.373	0.0162312
655.451	0.0162639
655.530	0.0164641
655.608	0.0163963
655.686	0.0162255
655.764	0.0162849
655.842	0.0162936
655.920	0.0163524
655.998	0.0163872
656.076	0.0164400
656.155	0.0165111
656.233	0.0163969
656.311	0.0164780
656.389	0.0165746
656.467	0.0166217
656.545	0.0166576
656.623	0.0166217
656.701	0.0165552
656.780	0.0166056
656.858	0.0165571
656.936	0.0165675
657.014	0.0166834
657.092	0.0166860
657.170	0.0166833
657.248	0.0165378
657.326	0.0167805
657.405	0.0167720
657.483	0.0167548
657.561	0.0168089
657.639	0.0168871
657.717	0.0168373
657.795	0.0167907
657.873	0.0167633
657.951	0.0169357
658.030	0.0168066
658.108	0.0168375
658.186	0.0170426
658.264	0.0167986
658.342	0.0167415
658.420	0.0167271
658.498	0.0167501
658.576	0.0166360
658.655	0.0166093
658.733	0.0164935
658.811	0.0164445
658.889	0.0166122
658.967	0.0166760
659.045	0.0166137
659.123	0.0165028
659.201	0.0165964
659.280	0.0165334
659.358	0.0166084
659.436	0.0167110
659.514	0.0164543
659.592	0.0164976
659.670	0.0165532
659.748	0.0165997
659.826	0.0167057
659.905	0.0167244
659.983	0.0167208
660.061	0.0164559
660.139	0.0166257
660.217	0.0166460
660.295	0.0165598
660.373	0.0163993
660.451	0.0164338
660.530	0.0163574
660.608	0.0164004
660.686	0.0165113
660.764	0.0163033
660.842	0.0162377
660.920	0.0162391
660.998	0.0162041
661.076	0.0163146
661.155	0.0163087
661.233	0.0161849
661.311	0.0162150
661.389	0.0161543
661.467	0.0162133
661.545	0.0162702
661.623	0.0160878
661.701	0.0160300
661.780	0.0161021
661.858	0.0161255
661.936	0.0162023
662.014	0.0161111
662.092	0.0160754
662.170	0.0161358
662.248	0.0161539
662.326	0.0161864
662.405	0.0162463
662.483	0.0162621
662.561	0.0162529
662.639	0.0161916
662.717	0.0163453
662.795	0.0164456
662.873	0.0163909
662.951	0.0164481
663.030	0.0165344
663.108	0.0165047
663.186	0.0165491
663.264	0.0165781
663.342	0.0165319
663.420	0.0165997
663.498	0.0166451
663.576	0.0168653
663.655	0.0167143
663.733	0.0166197
663.811	0.0166026
663.889	0.0168066
663.967	0.0167171
664.045	0.0165721
664.123	0.0166589
664.201	0.0166174
664.280	0.0166219
664.358	0.0164983
664.436	0.0163905
664.514	0.0163756
664.592	0.0165137
664.670	0.0163433
664.748	0.0162087
664.826	0.0161647
664.905	0.0161037
664.983	0.0159797
665.061	0.0159763
665.139	0.0157854
665.217	0.0159196
665.295	0.0159235
665.373	0.0158019
665.451	0.0157699
665.530	0.0156297
665.608	0.0156075
665.686	0.0156642
665.764	0.0157439
665.842	0.0157403
665.920	0.0157076
665.998	0.0158226
666.076	0.0157767
666.155	0.0160178
666.233	0.0158934
666.311	0.0161291
666.389	0.0162126
666.467	0.0162014
666.545	0.0164088
666.623	0.0164756
666.701	0.0165553
666.780	0.0165451
666.858	0.0167528
666.936	0.0168306
667.014	0.0169079
667.092	0.0170959
667.170	0.0171672
667.248	0.0171440
667.326	0.0172309
667.405	0.0172941
667.483	0.0172797
667.561	0.0171834
667.639	0.0171205
667.717	0.0171658
667.795	0.0170780
667.873	0.0169814
667.951	0.0170149
668.030	0.0169155
668.108	0.0167493
668.186	0.0166483
668.264	0.0165395
668.342	0.0163578
668.420	0.0162554
668.498	0.0160757
668.576	0.0161909
668.655	0.0159001
668.733	0.0158823
668.811	0.0156057
668.889	0.0155851
668.967	0.0155812
669.045	0.0156141
669.123	0.0154524
669.201	0.0154855
669.280	0.0155612
669.358	0.0156423
669.436	0.0155390
669.514	0.0158148
669.592	0.0157417
669.670	0.0159392
669.748	0.0160558
669.826	0.0162227
669.905	0.0163924
669.983	0.0163541
670.061	0.0166267
670.139	0.0168924
670.217	0.0170299
670.295	0.0170054
670.373	0.0172088
670.451	0.0172382
670.530	0.0175507
670.608	0.0176754
670.686	0.0177377
670.764	0.0176876
670.842	0.0176567
670.920	0.0176659
670.998	0.0176974
671.076	0.0178425
671.155	0.0176794
671.233	0.0175679
671.311	0.0174539
671.389	0.0173502
671.467	0.0171509
671.545	0.0172444
671.623	0.0170528
671.701	0.0166776
671.780	0.0165166
671.858	0.0164384
671.936	0.0163805
672.014	0.0160921
672.092	0.0160902
672.170	0.0159628
672.248	0.0158384
672.326	0.0157711
672.405	0.0156916
672.483	0.0156297
672.561	0.0155789
672.639	0.0153770
672.717	0.0154431
672.795	0.0154029
672.873	0.0155593
672.951	0.0156448
673.030	0.0155458
673.108	0.0156631
673.186	0.0158766
673.264	0.0157802
673.342	0.0160041
673.420	0.0160728
673.498	0.0163899
673.576	0.0163518
673.655	0.0165776
673.733	0.0165721
673.811	0.0168466
673.889	0.0168039
673.967	0.0169446
674.045	0.0171262
674.123	0.0170793
674.201	0.0170742
674.280	0.0171932
674.358	0.0171711
674.436	0.0172079
674.514	0.0171555
674.592	0.0171397
674.670	0.0170338
674.748	0.0171253
674.826	0.0168424
674.905	0.0168575
674.983	0.0168177
675.061	0.0166804
675.139	0.0165984
675.217	0.0165995
675.295	0.0165008
675.373	0.0164762
675.451	0.0163030
675.530	0.0164202
675.608	0.0163530
675.686	0.0163725
675.764	0.0164035
675.842	0.0163699
675.920	0.0164441
675.998	0.0164069
676.076	0.0165366
676.155	0.0165597
676.233	0.0166110
676.311	0.0164877
676.389	0.0164812
676.467	0.0166296
676.545	0.0165298
676.623	0.0166187
676.701	0.0165659
676.780	0.0165605
676.858	0.0165536
676.936	0.0165070
677.014	0.0164415
677.092	0.0163941
677.170	0.0163771
677.248	0.0163876
677.326	0.0161657
677.405	0.0161727
677.483	0.0162671
677.561	0.0161077
677.639	0.0160246
677.717	0.0160339
677.795	0.0160322
677.873	0.0158838
677.951	0.0158660
678.030	0.0158452
678.108	0.0159304
678.186	0.0161501
678.264	0.0158983
678.342	0.0162213
678.420	0.0160283
678.498	0.0163784
678.576	0.0163551
678.655	0.0163365
678.733	0.0166903
678.811	0.0168402
678.889	0.0168205
678.967	0.0169344
679.045	0.0170023
679.123	0.0170772
679.201	0.0171445
679.280	0.0172964
679.358	0.0173121
679.436	0.0175153
679.514	0.0174092
679.592	0.0173555
679.670	0.0172630
679.748	0.0173666
679.826	0.0173015
679.905	0.0171958
679.983	0.0171967
680.061	0.0169794
680.139	0.0168407
680.217	0.0168539
680.295	0.0166328
680.373	0.0164279
680.451	0.0164382
680.530	0.0163244
680.608	0.0161826
680.686	0.0159322
680.764	0.0158389
680.842	0.0158403
680.920	0.0158736
680.998	0.0157877
681.076	0.0156149
681.155	0.0156296
681.233	0.0155005
681.311	0.0156607
681.389	0.0156483
681.467	0.0157655
681.545	0.0159170
681.623	0.0159081
681.701	0.0158057
681.780	0.0159682
681.858	0.0160696
681.936	0.0161563
682.014	0.0163528
682.092	0.0164719
682.170	0.0164384
682.248	0.0165312
682.326	0.0165977
682.405	0.0167448
682.483	0.0166331
682.561	0.0167610
682.639	0.0165532
682.717	0.0168692
682.795	0.0168118
682.873	0.0168124
682.951	0.0166351
683.030	0.0166749
683.108	0.0165842
683.186	0.0165574
683.264	0.0165189
683.342	0.0164055
683.420	0.0163136
683.498	0.0164803
683.576	0.0164475
683.655	0.0163556
683.733	0.0163825
683.811	0.0163467
683.889	0.0165681
683.967	0.0162720
684.045	0.0162363
684.123	0.0163304
684.201	0.0163985
684.280	0.0163236
684.358	0.0163557
684.436	0.0164169
684.514	0.0163618
684.592	0.0163046
684.670	0.0164024
684.748	0.0162698
684.826	0.0162440
684.905	0.0162891
684.983	0.0163869
685.061	0.0163072
685.139	0.0162234
685.217	0.0163979
685.295	0.0163939
685.373	0.0163707
685.451	0.0161679
685.530	0.0163831
685.608	0.0162751
685.686	0.0162115
685.764	0.0162126
685.842	0.0160781
685.920	0.0160809
685.998	0.0162515
686.076	0.0161881
686.155	0.0162524
686.233	0.0164068
686.311	0.0163557
686.389	0.0165172
686.467	0.0164687
686.545	0.0166328
686.623	0.0167323
686.701	0.0167924
686.780	0.0168753
686.858	0.0171152
686.936	0.0171304
687.014	0.0171757
687.092	0.0171614
687.170	0.0172849
687.248	0.0172878
687.326	0.0173721
687.405	0.0173345
687.483	0.0173974
687.561	0.0173613
687.639	0.0172149
687.717	0.0171478
687.795	0.0173213
687.873	0.0171348
687.951	0.0168263
688.030	0.0166372
688.108	0.0165090
688.186	0.0164124
688.264	0.0162418
688.342	0.0161518
688.420	0.0160069
688.498	0.0159785
688.576	0.0159258
688.655	0.0157462
688.733	0.0156574
688.811	0.0156694
688.889	0.0156704
688.967	0.0154710
689.045	0.0155679
689.123	0.0156373
689.201	0.0156854
689.280	0.0157598
689.358	0.0158730
689.436	0.0159382
689.514	0.0159048
689.592	0.0160880
689.670	0.0162193
689.748	0.0165392
689.826	0.0164828
689.905	0.0167100
689.983	0.0166627
690.061	0.0168938
690.139	0.0169626
690.217	0.0169798
690.295	0.0171614
690.373	0.0172809
690.451	0.0174330
690.530	0.0173430
690.608	0.0174928
690.686	0.0172985
690.764	0.0173525
690.842	0.0173701
690.920	0.0173775
690.998	0.0172361
691.076	0.0173540
691.155	0.0172000
691.233	0.0171570
691.311	0.0170050
691.389	0.0168693
691.467	0.0167653
691.545	0.0166539
691.623	0.0164905
691.701	0.0163934
691.780	0.0162387
691.858	0.0161798
691.936	0.0160594
692.014	0.0159133
692.092	0.0158031
692.170	0.0157139
692.248	0.0157960
692.326	0.0156435
692.405	0.0156385
692.483	0.0154956
692.561	0.0156305
692.639	0.0156184
692.717	0.0155857
692.795	0.0157802
692.873	0.0158553
692.951	0.0157542
693.030	0.0159672
693.108	0.0162276
693.186	0.0160403
693.264	0.0160064
693.342	0.0162612
693.420	0.0162128
693.498	0.0163612
693.576	0.0165015
693.655	0.0165771
693.733	0.0164571
693.811	0.0167170
693.889	0.0168063
693.967	0.0166164
694.045	0.0168399
694.123	0.0168556
694.201	0.0169353
694.280	0.0169839
694.358	0.0170351
694.436	0.0171532
694.514	0.0168967
694.592	0.0170602
694.670	0.0169787
694.748	0.0169644
694.826	0.0170911
694.905	0.0169075
694.983	0.0169534
695.061	0.0168597
695.139	0.0167522
695.217	0.0168134
695.295	0.0168091
695.373	0.0167156
695.451	0.0168513
695.530	0.0167281
695.608	0.0165901
695.686	0.0168065
695.764	0.0166656
695.842	0.0164596
695.920	0.0164238
695.998	0.0163298
696.076	0.0162446
696.155	0.0161362
696.233	0.0160484
696.311	0.0159283
696.389	0.0157426
696.467	0.0155876
696.545	0.0155984
696.623	0.0154176
696.701	0.0152624
696.780	0.0149644
696.858	0.0149909
696.936	0.0149297
697.014	0.0147643
697.092	0.0148100
697.170	0.0147540
697.248	0.0147516
697.326	0.0148021
697.405	0.0149319
697.483	0.0149477
697.561	0.0151437
697.639	0.0152192
697.717	0.0154566
697.795	0.0157986
697.873	0.0159475
697.951	0.0160609
698.030	0.0164022
698.108	0.0167437
698.186	0.0171317
698.264	0.0172807
698.342	0.0173701
698.420	0.0177979
698.498	0.0180117
698.576	0.0181498
698.655	0.0183975
698.733	0.0185365
698.811	0.0186026
698.889	0.0187070
698.967	0.0187128
699.045	0.0185847
699.123	0.0186451
699.201	0.0185588
699.280	0.0185344
699.358	0.0182860
699.436	0.0182190
699.514	0.0182061
699.592	0.0177541
699.670	0.0174618
699.748	0.0172833
699.826	0.0171033
699.905	0.0168022
699.983	0.0166616
700.061	0.0165438
700.139	0.0164201
700.217	0.0161750
700.295	0.0158906
700.373	0.0158027
700.451	0.0158327
700.530	0.0155457
700.608	0.0154898
700.686	0.0154198
700.764	0.0153288
700.842	0.0151914
700.920	0.0152145
700.998	0.0152399
701.076	0.0152348
701.155	0.0152233
701.233	0.0151563
701.311	0.0154417
701.389	0.0156087
701.467	0.0155799
701.545	0.0157477
701.623	0.0158547
701.701	0.0158939
701.780	0.0159679
701.858	0.0161217
701.936	0.0160275
702.014	0.0161195
702.092	0.0162743
702.170	0.0162516
702.248	0.0162019
702.326	0.0163290
702.405	0.0163702
702.483	0.0162961
702.561	0.0163258
702.639	0.0164127
702.717	0.0162929
702.795	0.0162446
702.873	0.0162265
702.951	0.0161459
703.030	0.0162082
703.108	0.0162314
703.186	0.0163498
703.264	0.0160831
703.342	0.0161033
703.420	0.0161697
703.498	0.0161265
703.576	0.0161993
703.655	0.0161459
703.733	0.0162263
703.811	0.0160796
703.889	0.0161923
703.967	0.0164406
704.045	0.0162819
704.123	0.0165527
704.201	0.0165955
704.280	0.0164474
704.358	0.0166805
704.436	0.0167150
704.514	0.0168881
704.592	0.0168743
704.670	0.0169814
704.748	0.0171754
704.826	0.0172179
704.905	0.0172284
704.983	0.0171916
705.061	0.0173342
705.139	0.0172260
705.217	0.0173146
705.295	0.0173641
705.373	0.0173964
705.451	0.0172963
705.530	0.0170249
705.608	0.0171532
705.686	0.0172078
705.764	0.0170058
705.842	0.0169105
705.920	0.0168580
705.998	0.0167118
706.076	0.0166777
706.155	0.0166840
706.233	0.0164632
706.311	0.0162556
706.389	0.0165049
706.467	0.0164365
706.545	0.0162705
706.623	0.0161475
706.701	0.0161932
706.780	0.0160310
706.858	0.0160339
706.936	0.0160363
707.014	0.0159062
707.092	0.0159287
707.170	0.0159742
707.248	0.0160378
707.326	0.0159930
707.405	0.0160670
707.483	0.0159575
707.561	0.0159422
707.639	0.0159519
707.717	0.0158978
707.795	0.0157816
707.873	0.0158324
707.951	0.0158551
708.030	0.0158265
708.108	0.0157006
708.186	0.0154720
708.264	0.0154713
708.342	0.0153525
708.420	0.0153806
708.498	0.0153576
708.576	0.0152091
708.655	0.0152291
708.733	0.0151054
708.811	0.0151576
708.889	0.0152522
708.967	0.0151754
709.045	0.0152871
709.123	0.0153511
709.201	0.0152721
709.280	0.0154873
709.358	0.0157055
709.436	0.0157540
709.514	0.0160224
709.592	0.0161870
709.670	0.0163381
709.748	0.0165965
709.826	0.0166905
709.905	0.0166721
709.983	0.0170259
710.061	0.0172233
710.139	0.0173501
710.217	0.0175035
710.295	0.0174000
710.373	0.0175956
710.451	0.0177036
710.530	0.0176701
710.608	0.0176897
710.686	0.0177026
710.764	0.0176686
710.842	0.0176091
710.920	0.0176935
710.998	0.0176370
711.076	0.0174412
711.155	0.0173269
711.233	0.0173734
711.311	0.0172335
711.389	0.0171799
711.467	0.0170970
711.545	0.0171314
711.623	0.0168911
711.701	0.0168306
711.780	0.0168375
711.858	0.0168409
711.936	0.0167571
712.014	0.0166441
712.092	0.0167742
712.170	0.0166953
712.248	0.0164958
712.326	0.0165338
712.405	0.0163607
712.483	0.0163352
712.561	0.0163857
712.639	0.0166414
712.717	0.0162830
712.795	0.0162498
712.873	0.0164371
712.951	0.0163165
713.030	0.0163029
713.108	0.0161198
713.186	0.0160088
713.264	0.0161848
713.342	0.0160825
713.420	0.0160124
713.498	0.0159881
713.576	0.0159583
713.655	0.0158997
713.733	0.0158546
713.811	0.0159765
713.889	0.0158936
713.967	0.0158759
714.045	0.0158552
714.123	0.0160641
714.201	0.0158220
714.280	0.0158573
714.358	0.0159145
714.436	0.0158521
714.514	0.0158197
714.592	0.0160035
714.670	0.0160238
714.748	0.0160165
714.826	0.0159441
714.905	0.0161720
714.983	0.0160697
715.061	0.0161755
715.139	0.0162752
715.217	0.0163534
715.295	0.0163541
715.373	0.0165466
715.451	0.0165714
715.530	0.0165127
715.608	0.0168527
715.686	0.0169495
715.764	0.0168726
715.842	0.0168909
715.920	0.0169115
715.998	0.0168975
716.076	0.0169521
716.155	0.0171393
716.233	0.0170292
716.311	0.0169203
716.389	0.0171087
716.467	0.0169100
716.545	0.0169255
716.623	0.0167918
716.701	0.0167400
716.780	0.0166045
716.858	0.0167005
716.936	0.0165044
717.014	0.0164261
717.092	0.0164092
717.170	0.0163949
717.248	0.0164037
717.326	0.0163440
717.405	0.0162613
717.483	0.0162925
717.561	0.0161988
717.639	0.0163152
717.717	0.0162170
717.795	0.0162737
717.873	0.0164621
717.951	0.0163976
718.030	0.0163548
718.108	0.0164886
718.186	0.0164668
718.264	0.0163599
718.342	0.0164278
718.420	0.0163487
718.498	0.0165398
718.576	0.0165249
718.655	0.0165179
718.733	0.0164806
718.811	0.0164237
718.889	0.0163722
718.967	0.0164478
719.045	0.0164792
719.123	0.0164643
719.201	0.0164848
719.280	0.0164510
719.358	0.0166011
719.436	0.0164233
719.514	0.0165512
719.592	0.0165036
719.670	0.0166422
719.748	0.0164169
719.826	0.0164653
719.905	0.0165183
719.983	0.0164983
720.061	0.0163909
720.139	0.0166060
720.217	0.0164256
720.295	0.0164314
720.373	0.0164077
720.451	0.0163573
720.530	0.0163557
720.608	0.0162787
720.686	0.0161305
720.764	0.0161985
720.842	0.0160564
720.920	0.0160751
720.998	0.0161684
721.076	0.0160822
721.155	0.0161328
721.233	0.0161113
721.311	0.0160594
721.389	0.0160174
721.467	0.0160125
721.545	0.0160282
721.623	0.0159968
721.701	0.0160806
721.780	0.0160682
721.858	0.0160324
721.936	0.0160770
722.014	0.0159819
722.092	0.0160272
722.170	0.0160696
722.248	0.0161958
722.326	0.0160991
722.405	0.0161848
722.483	0.0162004
722.561	0.0160799
722.639	0.0162493
722.717	0.0162922
722.795	0.0162643
722.873	0.0163171
722.951	0.0164075
723.030	0.0164814
723.108	0.0164124
723.186	0.0165827
723.264	0.0165249
723.342	0.0167068
723.420	0.0166977
723.498	0.0166798
723.576	0.0167822
723.655	0.0167562
723.733	0.0167727
723.811	0.0168873
723.889	0.0168816
723.967	0.0167963
724.045	0.0168402
724.123	0.0168037
724.201	0.0168699
724.280	0.0168210
724.358	0.0169398
724.436	0.0167800
724.514	0.0167962
724.592	0.0167492
724.670	0.0166033
724.748	0.0164673
724.826	0.0164977
724.905	0.0162336
724.983	0.0162617
725.061	0.0161865
725.139	0.0162145
725.217	0.0161102
725.295	0.0161577
725.373	0.0160732
725.451	0.0159369
725.530	0.0159667
725.608	0.0159801
725.686	0.0161385
725.764	0.0161536
725.842	0.0158572
725.920	0.0160020
725.998	0.0160265
726.076	0.0159406
726.155	0.0160528
726.233	0.0160579
726.311	0.0159349
726.389	0.0161305
726.467	0.0162782
726.545	0.0161494
726.623	0.0162021
726.701	0.0162260
726.780	0.0162861
726.858	0.0162086
726.936	0.0160607
727.014	0.0162391
727.092	0.0162747
727.170	0.0161502
727.248	0.0162209
727.326	0.0163074
727.405	0.0162145
727.483	0.0161752
727.561	0.0163299
727.639	0.0163061
727.717	0.0164523
727.795	0.0164148
727.873	0.0163132
727.951	0.0164159
728.030	0.0165308
728.108	0.0164578
728.186	0.0164645
728.264	0.0164721
728.342	0.0163173
728.420	0.0165157
728.498	0.0167184
728.576	0.0167339
728.655	0.0164082
728.733	0.0164181
728.811	0.0164721
728.889	0.0163892
728.967	0.0163316
729.045	0.0165389
729.123	0.0161947
729.201	0.0162461
729.280	0.0162766
729.358	0.0163326
729.436	0.0163847
729.514	0.0162120
729.592	0.0163445
729.670	0.0162653
729.748	0.0162808
729.826	0.0163750
729.905	0.0162429
729.983	0.0162881
730.061	0.0162540
730.139	0.0162794
730.217	0.0162280
730.295	0.0163179
730.373	0.0162556
730.451	0.0163267
730.530	0.0163115
730.608	0.0163162
730.686	0.0163740
730.764	0.0162965
730.842	0.0163670
730.920	0.0163706
730.998	0.0163422
731.076	0.0164944
731.155	0.0162785
731.233	0.0162645
731.311	0.0163589
731.389	0.0163531
731.467	0.0163714
731.545	0.0163643
731.623	0.0163978
731.701	0.0164562
731.780	0.0163158
731.858	0.0162610
731.936	0.0163261
732.014	0.0162612
732.092	0.0162187
732.170	0.0163557
732.248	0.0162259
732.326	0.0163100
732.405	0.0162495
732.483	0.0163756
732.561	0.0163613
732.639	0.0163700
732.717	0.0164481
732.795	0.0165848
732.873	0.0165263
732.951	0.0166453
733.030	0.0166096
733.108	0.0167262
733.186	0.0167511
733.264	0.0169101
733.342	0.0169446
733.420	0.0168245
733.498	0.0169841
733.576	0.0169359
733.655	0.0170093
733.733	0.0167383
733.811	0.0166600
733.889	0.0170002
733.967	0.0168123
734.045	0.0167471
734.123	0.0166870
734.201	0.0165466
734.280	0.0164928
734.358	0.0164237
734.436	0.0164908
734.514	0.0166669
734.592	0.0163788
734.670	0.0163218
734.748	0.0163170
734.826	0.0165431
734.905	0.0163880
734.983	0.0164757
735.061	0.0165535
735.139	0.0165110
735.217	0.0165174
735.295	0.0166411
735.373	0.0166821
735.451	0.0166218
735.530	0.0166946
735.608	0.0167568
735.686	0.0166203
735.764	0.0165987
735.842	0.0168024
735.920	0.0166537
735.998	0.0165016
736.076	0.0165259
736.155	0.0165357
736.233	0.0163219
736.311	0.0164258
736.389	0.0163683
736.467	0.0162881
736.545	0.0161872
736.623	0.0161111
736.701	0.0161671
736.780	0.0160936
736.858	0.0161396
736.936	0.0161394
737.014	0.0160258
737.092	0.0159415
737.170	0.0160196
737.248	0.0160536
737.326	0.0160307
737.405	0.0160687
737.483	0.0161015
737.561	0.0160838
737.639	0.0163692
737.717	0.0162780
737.795	0.0163737
737.873	0.0164803
737.951	0.0164428
738.030	0.0165401
738.108	0.0166013
738.186	0.0166189
738.264	0.0166953
738.342	0.0166582
738.420	0.0166384
738.498	0.0166652
738.576	0.0166698
738.655	0.0165828
738.733	0.0165302
738.811	0.0165264
738.889	0.0164800
738.967	0.0164020
739.045	0.0161849
739.123	0.0163867
739.201	0.0163602
739.280	0.0161429
739.358	0.0161248
739.436	0.0161350
739.514	0.0160425
739.592	0.0160271
739.670	0.0160919
739.748	0.0160202
739.826	0.0160153
739.905	0.0161594
739.983	0.0161935
740.061	0.0163016
740.139	0.0162756
740.217	0.0162778
740.295	0.0162852
740.373	0.0164783
740.451	0.0165606
740.530	0.0165401
740.608	0.0167247
740.686	0.0165273
740.764	0.0166496
740.842	0.0167690
740.920	0.0167309
740.998	0.0166016
741.076	0.0167442
741.155	0.0166775
741.233	0.0166289
741.311	0.0167313
741.389	0.0166101
741.467	0.0167236
741.545	0.0168082
741.623	0.0165479
741.701	0.0165530
741.780	0.0165239
741.858	0.0165405
741.936	0.0166755
742.014	0.0166704
742.092	0.0163879
742.170	0.0164354
742.248	0.0164295
742.326	0.0165290
742.405	0.0164766
742.483	0.0164431
742.561	0.0164354
742.639	0.0164292
742.717	0.0163794
742.795	0.0165292
742.873	0.0164886
742.951	0.0165784
743.030	0.0165913
743.108	0.0165788
743.186	0.0166200
743.264	0.0166633
743.342	0.0165521
743.420	0.0167337
743.498	0.0165770
743.576	0.0165165
743.655	0.0165953
743.733	0.0165308
743.811	0.0165292
743.889	0.0165796
743.967	0.0162933
744.045	0.0163129
744.123	0.0162259
744.201	0.0161212
744.280	0.0161792
744.358	0.0161243
744.436	0.0162067
744.514	0.0161047
744.592	0.0160252
744.670	0.0159496
744.748	0.0160454
744.826	0.0160848
744.905	0.0162183
744.983	0.0161195
745.061	0.0162121
745.139	0.0163358
745.217	0.0162407
745.295	0.0165467
745.373	0.0166202
745.451	0.0165459
745.530	0.0166650
745.608	0.0166820
745.686	0.0166826
745.764	0.0167201
745.842	0.0166975
745.920	0.0166966
745.998	0.0168548
746.076	0.0166387
746.155	0.0165435
746.233	0.0165715
746.311	0.0165862
746.389	0.0163253
746.467	0.0164083
746.545	0.0163264
746.623	0.0161826
746.701	0.0161777
746.780	0.0159705
746.858	0.0161163
746.936	0.0159812
747.014	0.0159272
747.092	0.0160449
747.170	0.0160589
747.248	0.0159560
747.326	0.0159776
747.405	0.0160035
747.483	0.0160397
747.561	0.0161622
747.639	0.0160821
747.717	0.0162396
747.795	0.0162473
747.873	0.0162930
747.951	0.0163718
748.030	0.0164404
748.108	0.0163460
748.186	0.0164132
748.264	0.0162511
748.342	0.0165401
748.420	0.0165353
748.498	0.0165020
748.576	0.0164790
748.655	0.0166915
748.733	0.0166886
748.811	0.0166486
748.889	0.0164555
748.967	0.0166140
749.045	0.0166140
749.123	0.0166892
749.201	0.0167344
749.280	0.0166858
749.358	0.0166956
749.436	0.0166766
749.514	0.0166742
749.592	0.0167323
749.670	0.0166011
749.748	0.0165855
749.826	0.0164140
749.905	0.0164517
749.983	0.0163245
750.061	0.0164230
750.139	0.0163400
750.217	0.0162778
750.295	0.0162456
750.373	0.0162028
750.451	0.0163936
750.530	0.0161026
750.608	0.0160985
750.686	0.0162035
750.764	0.0162937
750.842	0.0163490
750.920	0.0163842
750.998	0.0164886
751.076	0.0163999
751.155	0.0164388
751.233	0.0165588
751.311	0.0165934
751.389	0.0166425
751.467	0.0165839
751.545	0.0165920
751.623	0.0165917
751.701	0.0166004
751.780	0.0165583
751.858	0.0165531
751.936	0.0165336
752.014	0.0165187
752.092	0.0163475
752.170	0.0164035
752.248	0.0161185
752.326	0.0162117
752.405	0.0162426
752.483	0.0161803
752.561	0.0161315
752.639	0.0161856
752.717	0.0162580
752.795	0.0163322
752.873	0.0163661
752.951	0.0163285
753.030	0.0164178
753.108	0.0165218
753.186	0.0165546
753.264	0.0167619
753.342	0.0167387
753.420	0.0166789
753.498	0.0168823
753.576	0.0169399
753.655	0.0169334
753.733	0.0167943
753.811	0.0168494
753.889	0.0168803
753.967	0.0167513
754.045	0.0167809
754.123	0.0167498
754.201	0.0166937
754.280	0.0167686
754.358	0.0166445
754.436	0.0164326
754.514	0.0165418
754.592	0.0163133
754.670	0.0163132
754.748	0.0162760
754.826	0.0161382
754.905	0.0162069
754.983	0.0163113
755.061	0.0161709
755.139	0.0162679
755.217	0.0162467
755.295	0.0163091
755.373	0.0164329
755.451	0.0165759
755.530	0.0165038
755.608	0.0165527
755.686	0.0166182
755.764	0.0165215
755.842	0.0165237
755.920	0.0166905
755.998	0.0166196
756.076	0.0167098
756.155	0.0167574
756.233	0.0166595
756.311	0.0168522
756.389	0.0166673
756.467	0.0168156
756.545	0.0167734
756.623	0.0168227
756.701	0.0167583
756.780	0.0165678
756.858	0.0167861
756.936	0.0167776
757.014	0.0166758
757.092	0.0165739
757.170	0.0165400
757.248	0.0164871
757.326	0.0163834
757.405	0.0166073
757.483	0.0166359
757.561	0.0162789
757.639	0.0162187
757.717	0.0162538
757.795	0.0163544
757.873	0.0162108
757.951	0.0160384
758.030	0.0160584
758.108	0.0160391
758.186	0.0160729
758.264	0.0160831
758.342	0.0160513
758.420	0.0161093
758.498	0.0161037
758.576	0.0160864
758.655	0.0162067
758.733	0.0162141
758.811	0.0163453
758.889	0.0162276
758.967	0.0163074
759.045	0.0163168
759.123	0.0163943
759.201	0.0163178
759.280	0.0164490
759.358	0.0165704
759.436	0.0164168
759.514	0.0164072
759.592	0.0164567
759.670	0.0163421
759.748	0.0162553
759.826	0.0163498
759.905	0.0161566
759.983	0.0160510
760.061	0.0162634
760.139	0.0160494
760.217	0.0159608
760.295	0.0160477
760.373	0.0161365
760.451	0.0160113
760.530	0.0159814
760.608	0.0161290
760.686	0.0162279
760.764	0.0161416
760.842	0.0161884
760.920	0.0162443
760.998	0.0163118
761.076	0.0163683
761.155	0.0165067
761.233	0.0164677
761.311	0.0164839
761.389	0.0164375
761.467	0.0163898
761.545	0.0164234
761.623	0.0164367
761.701	0.0162903
761.780	0.0164104
761.858	0.0163588
761.936	0.0162869
762.014	0.0161374
762.092	0.0160684
762.170	0.0159995
762.248	0.0160585
762.326	0.0159347
762.405	0.0158227
762.483	0.0160474
762.561	0.0159308
762.639	0.0161218
762.717	0.0159679
762.795	0.0160455
762.873	0.0160699
762.951	0.0161473
763.030	0.0162600
763.108	0.0162186
763.186	0.0163316
763.264	0.0163857
763.342	0.0163057
763.420	0.0165249
763.498	0.0165477
763.576	0.0166810
763.655	0.0166735
763.733	0.0165692
763.811	0.0167434
763.889	0.0169054
763.967	0.0168688
764.045	0.0168533
764.123	0.0166769
764.201	0.0167863
764.280	0.0167393
764.358	0.0166392
764.436	0.0167377
764.514	0.0165981
764.592	0.0164458
764.670	0.0165130
764.748	0.0165961
764.826	0.0164882
764.905	0.0164093
764.983	0.0165036
765.061	0.0164662
765.139	0.0162811
765.217	0.0161364
765.295	0.0160778
765.373	0.0162444
765.451	0.0163546
765.530	0.0163467
765.608	0.0163190
765.686	0.0161546
765.764	0.0162495
765.842	0.0161341
765.920	0.0161700
765.998	0.0161121
766.076	0.0161803
766.155	0.0162127
766.233	0.0161948
766.311	0.0162271
766.389	0.0163787
766.467	0.0163391
766.545	0.0164275
766.623	0.0164627
766.701	0.0163604
766.780	0.0166030
766.858	0.0167018
766.936	0.0165840
767.014	0.0166258
767.092	0.0167456
767.170	0.0168159
767.248	0.0167152
767.326	0.0168073
767.405	0.0168843
767.483	0.0168605
767.561	0.0167567
767.639	0.0168660
767.717	0.0169180
767.795	0.0166637
767.873	0.0166109
767.951	0.0167126
768.030	0.0166782
768.108	0.0165011
768.186	0.0164007
768.264	0.0164381
768.342	0.0164948
768.420	0.0163634
768.498	0.0163860
768.576	0.0164530
768.655	0.0163304
768.733	0.0162908
768.811	0.0163813
768.889	0.0163202
768.967	0.0164420
769.045	0.0164551
769.123	0.0163816
769.201	0.0165372
769.280	0.0165338
769.358	0.0163990
769.436	0.0164618
769.514	0.0164297
769.592	0.0165968
769.670	0.0165654
769.748	0.0165307
769.826	0.0165614
769.905	0.0166631
769.983	0.0163949
770.061	0.0164175
770.139	0.0164502
770.217	0.0164205
770.295	0.0164587
770.373	0.0164434
770.451	0.0164695
770.530	0.0162914
770.608	0.0164007
770.686	0.0164527
770.764	0.0163342
770.842	0.0163766
770.920	0.0163914
770.998	0.0166222
771.076	0.0164626
771.155	0.0165559
771.233	0.0165689
771.311	0.0165942
771.389	0.0166013
771.467	0.0166515
771.545	0.0167181
771.623	0.0166952
771.701	0.0166177
771.780	0.0165669
771.858	0.0166153
771.936	0.0164890
772.014	0.0167078
772.092	0.0165820
772.170	0.0165401
772.248	0.0164350
772.326	0.0165709
772.405	0.0164327
772.483	0.0164871
772.561	0.0163622
772.639	0.0163979
772.717	0.0164388
772.795	0.0166036
772.873	0.0164991
772.951	0.0163370
773.030	0.0163279
773.108	0.0163538
773.186	0.0164223
773.264	0.0163086
773.342	0.0163258
773.420	0.0163060
773.498	0.0163766
773.576	0.0163058
773.655	0.0164086
773.733	0.0164250
773.811	0.0164045
773.889	0.0164377
773.967	0.0163891
774.045	0.0163634
774.123	0.0164986
774.201	0.0163762
774.280	0.0164466
774.358	0.0166295
774.436	0.0163961
774.514	0.0165384
774.592	0.0166013
774.670	0.0164889
774.748	0.0165366
774.826	0.0167457
774.905	0.0164252
774.983	0.0167210
775.061	0.0165718
775.139	0.0164798
775.217	0.0166082
775.295	0.0165529
775.373	0.0165243
775.451	0.0163823
775.530	0.0165297
775.608	0.0164257
775.686	0.0163689
775.764	0.0164491
775.842	0.0164519
775.920	0.0163667
775.998	0.0164225
776.076	0.0163274
776.155	0.0164034
776.233	0.0164308
776.311	0.0163408
776.389	0.0165241
776.467	0.0166978
776.545	0.0164546
776.623	0.0165121
776.701	0.0164939
776.780	0.0165511
776.858	0.0165648
776.936	0.0166121
777.014	0.0167688
777.092	0.0166786
777.170	0.0167043
777.248	0.0167922
777.326	0.0166911
777.405	0.0167564
777.483	0.0166606
777.561	0.0168376
777.639	0.0168085
777.717	0.0166552
777.795	0.0166342
777.873	0.0166165
777.951	0.0168166
778.030	0.0165513
778.108	0.0164720
778.186	0.0165529
778.264	0.0165034
778.342	0.0164967
778.420	0.0163770
778.498	0.0164742
778.576	0.0164941
778.655	0.0164143
778.733	0.0165344
778.811	0.0164996
778.889	0.0165192
778.967	0.0163197
779.045	0.0165069
779.123	0.0165032
779.201	0.0164519
779.280	0.0165548
779.358	0.0165180
779.436	0.0165452
779.514	0.0164697
779.592	0.0163915
779.670	0.0163915
779.748	0.0165105
779.826	0.0165407
779.905	0.0164133
779.983	0.0163097
780.061	0.0164313
780.139	0.0164082
780.217	0.0163361
780.295	0.0162891
780.373	0.0163415
780.451	0.0163702
780.530	0.0165033
780.608	0.0163612
780.686	0.0163326
780.764	0.0163923
780.842	0.0163680
780.920	0.0163974
780.998	0.0163364
781.076	0.0162709
781.155	0.0163612
781.233	0.0163323
781.311	0.0163897
781.389	0.0162312
781.467	0.0162621
781.545	0.0163236
781.623	0.0164127
781.701	0.0163799
781.780	0.0163605
781.858	0.0163323
781.936	0.0163644
782.014	0.0164243
782.092	0.0162301
782.170	0.0165482
782.248	0.0163717
782.326	0.0163193
782.405	0.0162271
782.483	0.0163528
782.561	0.0164099
782.639	0.0163281
782.717	0.0163960
782.795	0.0164698
782.873	0.0164060
782.951	0.0163564
783.030	0.0164585
783.108	0.0163747
783.186	0.0163774
783.264	0.0162826
783.342	0.0163943
783.420	0.0164316
783.498	0.0163148
783.576	0.0162526
783.655	0.0163074
783.733	0.0162346
783.811	0.0163371
783.889	0.0162656
783.967	0.0162377
784.045	0.0161530
784.123	0.0162219
784.201	0.0161712
784.280	0.0160936
784.358	0.0162298
784.436	0.0161778
784.514	0.0162249
784.592	0.0162295
784.670	0.0161877
784.748	0.0161469
784.826	0.0162482
784.905	0.0163185
784.983	0.0162293
785.061	0.0162654
785.139	0.0162813
785.217	0.0160318
785.295	0.0161626
785.373	0.0161783
785.451	0.0161075
785.530	0.0162403
785.608	0.0162523
785.686	0.0162979
785.764	0.0162116
785.842	0.0163014
785.920	0.0162041
785.998	0.0162781
786.076	0.0163494
786.155	0.0163536
786.233	0.0164302
786.311	0.0164413
786.389	0.0163699
786.467	0.0166325
786.545	0.0166019
786.623	0.0164005
786.701	0.0164298
786.780	0.0165742
786.858	0.0165359
786.936	0.0163833
787.014	0.0164631
787.092	0.0165073
787.170	0.0164573
787.248	0.0164194
787.326	0.0164049
787.405	0.0163637
787.483	0.0164841
787.561	0.0162823
787.639	0.0163829
787.717	0.0162106
787.795	0.0163042
787.873	0.0163123
787.951	0.0162288
788.030	0.0162482
788.108	0.0163188
788.186	0.0162037
788.264	0.0161996
788.342	0.0161774
788.420	0.0164017
788.498	0.0163783
788.576	0.0162447
788.655	0.0162778
788.733	0.0163403
788.811	0.0161857
788.889	0.0162746
788.967	0.0161279
789.045	0.0161629
789.123	0.0162640
789.201	0.0162347
789.280	0.0161654
789.358	0.0161083
789.436	0.0161040
789.514	0.0161649
789.592	0.0161546
789.670	0.0161496
789.748	0.0162543
789.826	0.0164073
789.905	0.0162823
789.983	0.0164398
790.061	0.0163337
790.139	0.0164490
790.217	0.0164979
790.295	0.0164809
790.373	0.0164745
790.451	0.0165531
790.530	0.0166209
790.608	0.0165744
790.686	0.0165524
790.764	0.0166044
790.842	0.0165555
790.920	0.0166979
790.998	0.0166463
791.076	0.0164908
791.155	0.0164494
791.233	0.0165346
791.311	0.0165074
791.389	0.0163882
791.467	0.0165498
791.545	0.0164754
791.623	0.0165367
791.701	0.0164175
791.780	0.0163901
791.858	0.0165645
791.936	0.0163641
792.014	0.0164432
792.092	0.0165347
792.170	0.0165769
792.248	0.0164075
792.326	0.0165123
792.405	0.0164017
792.483	0.0165662
792.561	0.0165431
792.639	0.0165014
792.717	0.0164564
792.795	0.0164289
792.873	0.0164948
792.951	0.0163947
793.030	0.0162897
793.108	0.0163125
793.186	0.0164022
793.264	0.0162368
793.342	0.0162598
793.420	0.0161382
793.498	0.0161990
793.576	0.0161919
793.655	0.0162353
793.733	0.0161772
793.811	0.0160922
793.889	0.0161817
793.967	0.0161057
794.045	0.0162812
794.123	0.0163393
794.201	0.0164593
794.280	0.0163667
794.358	0.0163183
794.436	0.0163165
794.514	0.0165755
794.592	0.0165649
794.670	0.0165416
794.748	0.0167221
794.826	0.0167110
794.905	0.0167679
794.983	0.0167125
795.061	0.0168590
795.139	0.0167365
795.217	0.0166143
795.295	0.0167140
795.373	0.0168297
795.451	0.0167850
795.530	0.0167262
795.608	0.0168207
795.686	0.0168160
795.764	0.0167941
795.842	0.0165881
795.920	0.0167038
795.998	0.0167294
796.076	0.0166524
796.155	0.0165786
796.233	0.0164937
796.311	0.0165678
796.389	0.0165870
796.467	0.0166149
796.545	0.0165685
796.623	0.0163052
796.701	0.0163802
796.780	0.0164077
796.858	0.0164027
796.936	0.0163252
797.014	0.0163443
797.092	0.0161650
797.170	0.0161247
797.248	0.0162213
797.326	0.0162862
797.405	0.0161836
797.483	0.0161912
797.561	0.0161465
797.639	0.0163159
797.717	0.0161832
797.795	0.0161756
797.873	0.0161934
797.951	0.0161471
798.030	0.0162311
798.108	0.0164058
798.186	0.0163389
798.264	0.0165231
798.342	0.0164090
798.420	0.0165044
798.498	0.0164572
798.576	0.0165106
798.655	0.0164288
798.733	0.0164486
798.811	0.0164256
798.889	0.0163806
798.967	0.0165829
799.045	0.0163636
799.123	0.0164899
799.201	0.0164830
799.280	0.0164790
799.358	0.0163497
799.436	0.0163075
799.514	0.0163259
799.592	0.0161447
799.670	0.0162582
799.748	0.0162726
799.826	0.0163593
799.905	0.0164010
799.983	0.0162701
800.061	0.0163248
800.139	0.0163362
800.217	0.0162768
800.295	0.0163424
800.373	0.0165496
800.451	0.0165463
800.530	0.0165629
800.608	0.0165974
800.686	0.0164954
800.764	0.0164729
800.842	0.0165460
800.920	0.0167390
800.998	0.0166805
801.076	0.0166618
801.155	0.0166250
801.233	0.0166683
801.311	0.0165800
801.389	0.0167270
801.467	0.0166151
801.545	0.0166245
801.623	0.0166219
801.701	0.0166413
801.780	0.0165712
801.858	0.0164583
801.936	0.0165729
802.014	0.0167313
802.092	0.0165813
802.170	0.0165035
802.248	0.0166383
802.326	0.0166389
802.405	0.0165968
802.483	0.0165840
802.561	0.0165733
802.639	0.0164917
802.717	0.0165468
802.795	0.0164703
802.873	0.0165378
802.951	0.0164442
803.030	0.0162964
803.108	0.0163926
803.186	0.0164274
803.264	0.0165089
803.342	0.0162627
803.420	0.0162022
803.498	0.0163851
803.576	0.0162212
803.655	0.0161151
803.733	0.0160998
803.811	0.0163408
803.889	0.0160685
803.967	0.0160547
804.045	0.0161637
804.123	0.0161111
804.201	0.0161362
804.280	0.0161378
804.358	0.0159997
804.436	0.0162185
804.514	0.0161316
804.592	0.0159755
804.670	0.0160229
804.748	0.0162040
804.826	0.0159586
804.905	0.0159624
804.983	0.0160526
805.061	0.0161015
805.139	0.0159660
805.217	0.0160174
805.295	0.0160254
805.373	0.0161101
805.451	0.0161052
805.530	0.0160995
805.608	0.0160583
805.686	0.0161083
805.764	0.0161545
805.842	0.0161590
805.920	0.0161229
805.998	0.0163339
806.076	0.0164471
806.155	0.0166346
806.233	0.0166064
806.311	0.0165430
806.389	0.0167091
806.467	0.0166480
806.545	0.0167813
806.623	0.0168712
806.701	0.0169257
806.780	0.0169624
806.858	0.0168940
806.936	0.0168547
807.014	0.0166969
807.092	0.0168018
807.170	0.0168964
807.248	0.0167072
807.326	0.0167463
807.405	0.0166483
807.483	0.0166628
807.561	0.0166340
807.639	0.0165363
807.717	0.0163981
807.795	0.0163976
807.873	0.0165753
807.951	0.0165908
808.030	0.0163498
808.108	0.0163370
808.186	0.0164842
808.264	0.0164598
808.342	0.0164505
808.420	0.0164458
808.498	0.0164445
808.576	0.0165011
808.655	0.0162565
808.733	0.0164319
808.811	0.0164508
808.889	0.0163692
808.967	0.0164520
809.045	0.0163944
809.123	0.0163165
809.201	0.0163518
809.280	0.0162679
809.358	0.0162674
809.436	0.0163271
809.514	0.0163206
809.592	0.0162878
809.670	0.0161751
809.748	0.0161281
809.826	0.0162913
809.905	0.0161531
809.983	0.0161922
810.061	0.0163100
810.139	0.0163507
810.217	0.0162674
810.295	0.0162302
810.373	0.0162661
810.451	0.0163457
810.530	0.0164324
810.608	0.0164133
810.686	0.0163245
810.764	0.0164566
810.842	0.0163722
810.920	0.0164260
810.998	0.0166413
811.076	0.0165646
811.155	0.0164604
811.233	0.0164546
811.311	0.0166300
811.389	0.0166711
811.467	0.0167345
811.545	0.0166299
811.623	0.0166826
811.701	0.0165916
811.780	0.0166019
811.858	0.0166205
811.936	0.0165936
812.014	0.0167362
812.092	0.0166786
812.170	0.0166092
812.248	0.0166554
812.326	0.0166219
812.405	0.0165550
812.483	0.0167269
812.561	0.0166281
812.639	0.0167392
812.717	0.0167347
812.795	0.0167281
812.873	0.0168072
812.951	0.0167702
813.030	0.0167681
813.108	0.0168250
813.186	0.0168740
813.264	0.0167577
813.342	0.0168312
813.420	0.0166955
813.498	0.0166475
813.576	0.0166667
813.655	0.0167993
813.733	0.0166707
813.811	0.0168030
813.889	0.0167578
813.967	0.0166882
814.045	0.0165849
814.123	0.0165049
814.201	0.0164419
814.280	0.0165586
814.358	0.0166873
814.436	0.0166525
814.514	0.0165706
814.592	0.0166070
814.670	0.0164888
814.748	0.0165122
814.826	0.0164978
814.905	0.0165153
814.983	0.0164541
815.061	0.0165039
815.139	0.0162782
815.217	0.0164314
815.295	0.0163450
815.373	0.0161938
815.451	0.0162969
815.530	0.0162230
815.608	0.0162362
815.686	0.0163641
815.764	0.0162354
815.842	0.0161880
815.920	0.0162029
815.998	0.0162016
816.076	0.0161887
816.155	0.0161591
816.233	0.0162261
816.311	0.0162557
816.389	0.0161951
816.467	0.0161805
816.545	0.0163079
816.623	0.0161844
816.701	0.0162824
816.780	0.0163445
816.858	0.0163482
816.936	0.0162614
817.014	0.0163018
817.092	0.0163568
817.170	0.0162321
817.248	0.0162573
817.326	0.0162304
817.405	0.0163261
817.483	0.0162628
817.561	0.0162509
817.639	0.0162544
817.717	0.0162660
817.795	0.0163234
817.873	0.0162624
817.951	0.0163735
818.030	0.0163792
818.108	0.0163596
818.186	0.0163411
818.264	0.0163005
818.342	0.0163633
818.420	0.0163391
818.498	0.0162975
818.576	0.0163750
818.655	0.0164632
818.733	0.0164033
818.811	0.0164383
818.889	0.0165295
818.967	0.0164274
819.045	0.0164978
819.123	0.0164793
819.201	0.0164159
819.280	0.0165079
819.358	0.0166325
819.436	0.0165340
819.514	0.0165768
819.592	0.0163227
819.670	0.0165085
819.748	0.0164767
819.826	0.0163630
819.905	0.0163755
819.983	0.0164849
820.061	0.0163705
820.139	0.0163169
820.217	0.0163239
820.295	0.0162654
820.373	0.0162428
820.451	0.0162775
820.530	0.0163066
820.608	0.0163274
820.686	0.0162039
820.764	0.0162952
820.842	0.0162748
820.920	0.0163393
820.998	0.0164423
821.076	0.0164827
821.155	0.0163613
821.233	0.0163401
821.311	0.0163898
821.389	0.0164648
821.467	0.0164831
821.545	0.0164822
821.623	0.0164115
821.701	0.0164209
821.780	0.0163694
821.858	0.0163799
821.936	0.0164880
822.014	0.0164153
822.092	0.0163696
822.170	0.0164377
822.248	0.0165871
822.326	0.0163954
822.405	0.0163251
822.483	0.0164610
822.561	0.0164954
822.639	0.0164162
822.717	0.0163786
822.795	0.0162752
822.873	0.0163282
822.951	0.0163678
823.030	0.0164197
823.108	0.0163101
823.186	0.0163574
823.264	0.0162934
823.342	0.0161635
823.420	0.0162245
823.498	0.0162296
823.576	0.0162702
823.655	0.0162538
823.733	0.0163360
823.811	0.0161962
823.889	0.0161265
823.967	0.0161761
824.045	0.0161848
824.123	0.0162396
824.201	0.0161293
824.280	0.0161417
824.358	0.0161488
824.436	0.0162862
824.514	0.0162068
824.592	0.0162139
824.670	0.0162833
824.748	0.0162122
824.826	0.0161776
824.905	0.0163776
824.983	0.0164378
825.061	0.0165225
825.139	0.0163143
825.217	0.0162379
825.295	0.0163845
825.373	0.0164174
825.451	0.0165854
825.530	0.0164941
825.608	0.0163827
825.686	0.0165190
825.764	0.0163606
825.842	0.0165770
825.920	0.0165185
825.998	0.0165825
826.076	0.0164606
826.155	0.0165700
826.233	0.0165273
826.311	0.0165533
826.389	0.0165565
826.467	0.0165923
826.545	0.0166045
826.623	0.0165762
826.701	0.0166753
826.780	0.0164817
826.858	0.0165675
826.936	0.0166574
827.014	0.0164677
827.092	0.0165337
827.170	0.0165211
827.248	0.0166281
827.326	0.0164973
827.405	0.0164764
827.483	0.0164644
827.561	0.0165284
827.639	0.0163806
827.717	0.0164478
827.795	0.0164503
827.873	0.0166099
827.951	0.0164716
828.030	0.0162168
828.108	0.0163123
828.186	0.0163657
828.264	0.0163266
828.342	0.0163090
828.420	0.0162807
828.498	0.0162413
828.576	0.0162041
828.655	0.0161547
828.733	0.0162607
828.811	0.0162015
828.889	0.0162148
828.967	0.0162770
829.045	0.0163253
829.123	0.0162524
829.201	0.0164033
829.280	0.0164910
829.358	0.0163544
829.436	0.0164314
829.514	0.0164928
829.592	0.0163950
829.670	0.0166384
829.748	0.0166283
829.826	0.0166474
829.905	0.0165310
829.983	0.0165887
830.061	0.0166123
830.139	0.0165991
830.217	0.0164661
830.295	0.0165459
830.373	0.0166277
830.451	0.0166562
830.530	0.0165743
830.608	0.0166226
830.686	0.0166212
830.764	0.0164619
830.842	0.0166543
830.920	0.0166075
830.998	0.0164363
831.076	0.0165410
831.155	0.0167204
831.233	0.0166663
831.311	0.0166154
831.389	0.0166836
831.467	0.0166483
831.545	0.0166885
831.623	0.0167201
831.701	0.0166930
831.780	0.0166425
831.858	0.0168182
831.936	0.0166855
832.014	0.0167893
832.092	0.0168178
832.170	0.0166045
832.248	0.0166839
832.326	0.0166798
832.405	0.0165816
832.483	0.0165900
832.561	0.0166868
832.639	0.0165636
832.717	0.0165383
832.795	0.0163976
832.873	0.0164156
832.951	0.0164822
833.030	0.0165968
833.108	0.0165752
833.186	0.0165136
833.264	0.0166537
833.342	0.0165923
833.420	0.0164032
833.498	0.0164793
833.576	0.0165652
833.655	0.0166693
833.733	0.0166217
833.811	0.0166819
833.889	0.0168340
833.967	0.0166677
834.045	0.0168261
834.123	0.0168733
834.201	0.0167490
834.280	0.0166429
834.358	0.0167953
834.436	0.0165649
834.514	0.0166020
834.592	0.0166613
834.670	0.0165347
834.748	0.0165434
834.826	0.0164209
834.905	0.0163796
834.983	0.0163853
835.061	0.0163910
835.139	0.0162060
835.217	0.0164076
835.295	0.0163074
835.373	0.0162543
835.451	0.0161961
835.530	0.0162057
835.608	0.0163506
835.686	0.0163869
835.764	0.0162405
835.842	0.0164402
835.920	0.0164395
835.998	0.0165426
836.076	0.0165700
836.155	0.0164531
836.233	0.0163370
836.311	0.0166545
836.389	0.0164051
836.467	0.0164296
836.545	0.0163711
836.623	0.0165083
836.701	0.0164999
836.780	0.0163921
836.858	0.0164116
836.936	0.0163049
837.014	0.0163400
837.092	0.0163936
837.170	0.0164382
837.248	0.0163151
837.326	0.0163316
837.405	0.0164947
837.483	0.0164993
837.561	0.0163528
837.639	0.0163299
837.717	0.0164634
837.795	0.0163874
837.873	0.0163457
837.951	0.0164554
838.030	0.0164525
838.108	0.0164429
838.186	0.0164703
838.264	0.0164341
838.342	0.0163564
838.420	0.0164664
838.498	0.0164442
838.576	0.0163474
838.655	0.0163963
838.733	0.0163915
838.811	0.0162358
838.889	0.0162646
838.967	0.0162447
839.045	0.0162901
839.123	0.0163721
839.201	0.0162244
839.280	0.0162183
839.358	0.0161076
839.436	0.0162750
839.514	0.0161971
839.592	0.0162333
839.670	0.0163483
839.748	0.0163564
839.826	0.0162164
839.905	0.0161303
839.983	0.0162244
840.061	0.0161691
840.139	0.0161544
840.217	0.0161629
840.295	0.0161305
840.373	0.0161565
840.451	0.0161171
840.530	0.0161411
840.608	0.0163254
840.686	0.0162031
840.764	0.0162189
840.842	0.0162765
840.920	0.0163261
840.998	0.0161867
841.076	0.0162679
841.155	0.0162962
841.233	0.0163265
841.311	0.0162217
841.389	0.0163403
841.467	0.0162491
841.545	0.0163612
841.623	0.0162768
841.701	0.0164671
841.780	0.0164109
841.858	0.0163934
841.936	0.0165226
842.014	0.0165418
842.092	0.0164068
842.170	0.0164917
842.248	0.0165293
842.326	0.0165154
842.405	0.0165919
842.483	0.0165668
842.561	0.0165297
842.639	0.0164502
842.717	0.0164329
842.795	0.0164931
842.873	0.0165182
842.951	0.0164934
843.030	0.0163958
843.108	0.0164083
843.186	0.0164805
843.264	0.0162872
843.342	0.0162496
843.420	0.0164233
843.498	0.0162848
843.576	0.0163429
843.655	0.0162627
843.733	0.0162423
843.811	0.0163700
843.889	0.0162755
843.967	0.0162721
844.045	0.0162874
844.123	0.0163064
844.201	0.0163551
844.280	0.0162217
844.358	0.0163597
844.436	0.0162052
844.514	0.0161821
844.592	0.0162106
844.670	0.0161528
844.748	0.0163556
844.826	0.0162614
844.905	0.0161823
844.983	0.0162330
845.061	0.0163296
845.139	0.0162998
845.217	0.0161806
845.295	0.0162997
845.373	0.0163712
845.451	0.0162503
845.530	0.0163355
845.608	0.0164125
845.686	0.0163946
845.764	0.0163570
845.842	0.0164312
845.920	0.0163012
845.998	0.0163899
846.076	0.0165699
846.155	0.0163595
846.233	0.0165906
846.311	0.0163956
846.389	0.0164546
846.467	0.0165837
846.545	0.0164342
846.623	0.0164326
846.701	0.0165237
846.780	0.0163477
846.858	0.0165645
846.936	0.0164958
847.014	0.0163952
847.092	0.0164167
847.170	0.0165681
847.248	0.0165051
847.326	0.0164754
847.405	0.0164865
847.483	0.0163844
847.561	0.0165070
847.639	0.0165089
847.717	0.0165454
847.795	0.0164085
847.873	0.0164419
847.951	0.0164445
848.030	0.0164507
848.108	0.0164449
848.186	0.0164275
848.264	0.0165379
848.342	0.0163961
848.420	0.0164073
848.498	0.0166306
848.576	0.0163481
848.655	0.0163663
848.733	0.0162605
848.811	0.0163968
848.889	0.0162248
848.967	0.0162086
849.045	0.0162885
849.123	0.0162107
849.201	0.0161736
849.280	0.0163033
849.358	0.0163117
849.436	0.0162532
849.514	0.0160783
849.592	0.0161776
849.670	0.0164060
849.748	0.0164183
849.826	0.0162915
849.905	0.0162624
849.983	0.0162671
850.061	0.0163197
850.139	0.0163053
850.217	0.0162515
850.295	0.0164886
850.373	0.0165002
850.451	0.0163221
850.530	0.0165498
850.608	0.0165381
850.686	0.0164446
850.764	0.0164621
850.842	0.0163853
850.920	0.0163882
850.998	0.0164777
851.076	0.0163926
851.155	0.0162808
851.233	0.0165098
851.311	0.0163931
851.389	0.0162950
851.467	0.0163827
851.545	0.0162630
851.623	0.0164262
851.701	0.0161650
851.780	0.0162379
851.858	0.0161845
851.936	0.0163120
852.014	0.0163120
852.092	0.0162416
852.170	0.0163617
852.248	0.0163184
852.326	0.0162758
852.405	0.0163219
852.483	0.0164275
852.561	0.0162955
852.639	0.0162705
852.717	0.0164101
852.795	0.0165773
852.873	0.0165099
852.951	0.0165659
853.030	0.0164987
853.108	0.0165627
853.186	0.0165043
853.264	0.0165965
853.342	0.0164575
853.420	0.0166101
853.498	0.0167032
853.576	0.0164548
853.655	0.0166540
853.733	0.0166365
853.811	0.0164151
853.889	0.0166064
853.967	0.0168206
854.045	0.0164761
854.123	0.0166106
854.201	0.0165881
854.280	0.0165019
854.358	0.0167014
854.436	0.0166846
854.514	0.0166757
854.592	0.0166186
854.670	0.0165816
854.748	0.0165981
854.826	0.0166405
854.905	0.0167471
854.983	0.0166282
855.061	0.0165666
855.139	0.0166592
855.217	0.0167140
855.295	0.0167187
855.373	0.0166212
855.451	0.0165397
855.530	0.0166501
855.608	0.0166092
855.686	0.0167055
855.764	0.0165964
855.842	0.0165234
855.920	0.0165295
855.998	0.0165298
856.076	0.0164423
856.155	0.0165050
856.233	0.0165655
856.311	0.0164084
856.389	0.0165771
856.467	0.0164251
856.545	0.0164797
856.623	0.0163778
856.701	0.0165198
856.780	0.0164774
856.858	0.0164517
856.936	0.0164889
857.014	0.0163296
857.092	0.0163858
857.170	0.0164170
857.248	0.0164132
857.326	0.0163474
857.405	0.0162971
857.483	0.0164562
857.561	0.0163187
857.639	0.0164427
857.717	0.0164703
857.795	0.0165481
857.873	0.0164336
857.951	0.0164326
858.030	0.0165669
858.108	0.0164796
858.186	0.0166328
858.264	0.0166742
858.342	0.0167765
858.420	0.0167195
858.498	0.0164925
858.576	0.0166787
858.655	0.0167831
858.733	0.0166666
858.811	0.0167023
858.889	0.0166929
858.967	0.0166663
859.045	0.0165511
859.123	0.0165282
859.201	0.0165707
859.280	0.0165588
859.358	0.0165268
859.436	0.0164026
859.514	0.0164390
859.592	0.0163733
859.670	0.0162657
859.748	0.0163406
859.826	0.0163247
859.905	0.0162859
859.983	0.0161840
860.061	0.0161409
860.139	0.0161108
860.217	0.0161806
860.295	0.0160903
860.373	0.0161420
860.451	0.0162637
860.530	0.0161902
860.608	0.0162743
860.686	0.0161392
860.764	0.0161398
860.842	0.0160117
860.920	0.0160886
860.998	0.0162946
861.076	0.0162388
861.155	0.0162033
861.233	0.0162107
861.311	0.0162499
861.389	0.0163551
861.467	0.0163000
861.545	0.0162757
861.623	0.0164516
861.701	0.0163067
861.780	0.0163071
861.858	0.0165041
861.936	0.0164941
862.014	0.0163424
862.092	0.0164313
862.170	0.0163127
862.248	0.0163472
862.326	0.0163596
862.405	0.0162891
862.483	0.0162455
862.561	0.0161008
862.639	0.0162303
862.717	0.0162509
862.795	0.0160881
862.873	0.0161122
862.951	0.0161649
863.030	0.0161506
863.108	0.0162037
863.186	0.0161450
863.264	0.0161821
863.342	0.0161707
863.420	0.0160719
863.498	0.0161973
863.576	0.0162857
863.655	0.0163248
863.733	0.0162669
863.811	0.0162830
863.889	0.0163131
863.967	0.0163957
864.045	0.0163078
864.123	0.0163808
864.201	0.0164207
864.280	0.0162132
864.358	0.0163358
864.436	0.0163240
864.514	0.0162751
864.592	0.0165173
864.670	0.0164326
864.748	0.0163825
864.826	0.0164899
864.905	0.0164990
864.983	0.0165115
865.061	0.0164178
865.139	0.0164190
865.217	0.0166109
865.295	0.0166109
865.373	0.0166785
865.451	0.0166425
865.530	0.0165832
865.608	0.0164932
865.686	0.0165659
865.764	0.0166518
865.842	0.0164531
865.920	0.0166304
865.998	0.0165591
866.076	0.0165028
866.155	0.0165098
866.233	0.0164212
866.311	0.0164352
866.389	0.0164503
866.467	0.0164632
866.545	0.0163195
866.623	0.0164143
866.701	0.0164256
866.780	0.0163699
866.858	0.0163258
866.936	0.0163039
867.014	0.0163286
867.092	0.0163891
867.170	0.0164014
867.248	0.0162891
867.326	0.0162653
867.405	0.0163758
867.483	0.0163554
867.561	0.0164021
867.639	0.0162783
867.717	0.0163638
867.795	0.0163767
867.873	0.0164740
867.951	0.0164700
868.030	0.0164220
868.108	0.0163474
868.186	0.0165634
868.264	0.0165211
868.342	0.0163927
868.420	0.0165134
868.498	0.0164704
868.576	0.0166362
868.655	0.0165513
868.733	0.0165134
868.811	0.0164868
868.889	0.0164830
868.967	0.0167144
869.045	0.0166811
869.123	0.0165694
869.201	0.0164857
869.280	0.0165632
869.358	0.0165539
869.436	0.0164718
869.514	0.0164712
869.592	0.0167189
869.670	0.0167139
869.748	0.0163795
869.826	0.0165663
869.905	0.0166016
869.983	0.0165598
870.061	0.0165961
870.139	0.0165874
870.217	0.0166618
870.295	0.0167015
870.373	0.0166562
870.451	0.0167275
870.530	0.0165824
870.608	0.0166198
870.686	0.0165771
870.764	0.0166344
870.842	0.0166402
870.920	0.0166900
870.998	0.0165930
871.076	0.0165419
871.155	0.0165668
871.233	0.0165071
871.311	0.0164423
871.389	0.0165221
871.467	0.0166142
871.545	0.0165081
871.623	0.0163617
871.701	0.0165067
871.780	0.0164946
871.858	0.0164460
871.936	0.0164492
872.014	0.0163271
872.092	0.0163497
872.170	0.0163120
872.248	0.0163824
872.326	0.0163286
872.405	0.0162729
872.483	0.0163950
872.561	0.0163239
872.639	0.0165028
872.717	0.0163647
872.795	0.0162504
872.873	0.0163042
872.951	0.0164902
873.030	0.0163507
873.108	0.0163831
873.186	0.0165492
873.264	0.0163737
873.342	0.0164202
873.420	0.0164164
873.498	0.0164701
873.576	0.0163639
873.655	0.0164054
873.733	0.0165213
873.811	0.0164946
873.889	0.0166246
873.967	0.0164165
874.045	0.0164249
874.123	0.0164576
874.201	0.0164268
874.280	0.0166535
874.358	0.0164191
874.436	0.0164524
874.514	0.0165103
874.592	0.0165145
874.670	0.0163870
874.748	0.0164371
874.826	0.0164674
874.905	0.0165857
874.983	0.0164427
875.061	0.0164149
875.139	0.0164417
875.217	0.0165011
875.295	0.0163890
875.373	0.0162737
875.451	0.0162465
875.530	0.0163455
875.608	0.0164616
875.686	0.0162908
875.764	0.0163188
875.842	0.0163883
875.920	0.0163506
875.998	0.0162777
876.076	0.0162975
876.155	0.0162358
876.233	0.0163251
876.311	0.0163584
876.389	0.0163778
876.467	0.0162029
876.545	0.0161820
876.623	0.0162731
876.701	0.0162923
876.780	0.0163351
876.858	0.0163733
876.936	0.0163085
877.014	0.0162913
877.092	0.0164552
877.170	0.0162639
877.248	0.0163580
877.326	0.0165125
877.405	0.0165027
877.483	0.0163253
877.561	0.0164769
877.639	0.0163848
877.717	0.0166158
877.795	0.0165674
877.873	0.0165707
877.951	0.0165559
878.030	0.0165556
878.108	0.0165423
878.186	0.0164901
878.264	0.0165557
878.342	0.0164176
878.420	0.0164725
878.498	0.0165714
878.576	0.0166296
878.655	0.0166016
878.733	0.0164219
878.811	0.0162628
878.889	0.0163658
878.967	0.0162915
879.045	0.0163807
879.123	0.0163834
879.201	0.0163515
879.280	0.0162550
879.358	0.0161556
879.436	0.0162845
879.514	0.0162066
879.592	0.0162577
879.670	0.0163093
879.748	0.0162697
879.826	0.0161954
879.905	0.0161525
879.983	0.0161713
880.061	0.0163004
880.139	0.0163222
880.217	0.0163630
880.295	0.0163450
880.373	0.0163142
880.451	0.0162190
880.530	0.0161307
880.608	0.0163429
880.686	0.0163131
880.764	0.0162616
880.842	0.0162502
880.920	0.0164058
880.998	0.0163503
881.076	0.0162732
881.155	0.0163374
881.233	0.0163857
881.311	0.0163009
881.389	0.0163432
881.467	0.0164884
881.545	0.0164082
881.623	0.0164501
881.701	0.0164800
881.780	0.0163161
881.858	0.0165067
881.936	0.0165745
882.014	0.0164099
882.092	0.0163952
882.170	0.0165113
882.248	0.0165378
882.326	0.0163152
882.405	0.0162928
882.483	0.0163590
882.561	0.0164420
882.639	0.0162966
882.717	0.0163451
882.795	0.0163964
882.873	0.0163832
882.951	0.0162395
883.030	0.0162574
883.108	0.0162347
883.186	0.0161951
883.264	0.0162473
883.342	0.0161050
883.420	0.0162781
883.498	0.0162709
883.576	0.0162400
883.655	0.0162686
883.733	0.0162425
883.811	0.0162608
883.889	0.0161723
883.967	0.0162330
884.045	0.0162106
884.123	0.0163708
884.201	0.0161678
884.280	0.0163177
884.358	0.0163548
884.436	0.0164063
884.514	0.0162632
884.592	0.0162362
884.670	0.0163766
884.748	0.0164432
884.826	0.0163689
884.905	0.0165195
884.983	0.0164455
885.061	0.0163818
885.139	0.0163812
885.217	0.0165936
885.295	0.0166141
885.373	0.0164912
885.451	0.0165437
885.530	0.0164098
885.608	0.0165096
885.686	0.0164511
885.764	0.0164748
885.842	0.0164871
885.920	0.0163860
885.998	0.0163635
886.076	0.0164998
886.155	0.0165615
886.233	0.0165611
886.311	0.0165631
886.389	0.0164345
886.467	0.0163871
886.545	0.0165599
886.623	0.0164149
886.701	0.0165737
886.780	0.0165334
886.858	0.0165881
886.936	0.0164389
887.014	0.0164323
887.092	0.0166838
887.170	0.0165627
887.248	0.0165536
887.326	0.0165151
887.405	0.0164079
887.483	0.0165514
887.561	0.0164744
887.639	0.0164257
887.717	0.0164783
887.795	0.0162788
887.873	0.0164274
887.951	0.0165094
888.030	0.0163535
888.108	0.0163480
888.186	0.0164603
888.264	0.0163531
888.342	0.0162177
888.420	0.0164048
888.498	0.0165269
888.576	0.0165443
888.655	0.0162599
888.733	0.0162918
888.811	0.0162505
888.889	0.0162721
888.967	0.0163291
889.045	0.0163942
889.123	0.0163839
889.201	0.0163087
889.280	0.0166187
889.358	0.0165263
889.436	0.0165434
889.514	0.0165347
889.592	0.0164986
889.670	0.0165519
889.748	0.0165260
889.826	0.0164972
889.905	0.0166045
889.983	0.0165786
890.061	0.0164805
890.139	0.0166390
890.217	0.0166527
890.295	0.0166217
890.373	0.0166069
890.451	0.0166448
890.530	0.0166433
890.608	0.0166987
890.686	0.0165422
890.764	0.0166569
890.842	0.0167422
890.920	0.0166103
890.998	0.0165600
891.076	0.0166641
891.155	0.0165075
891.233	0.0165303
891.311	0.0164428
891.389	0.0165236
891.467	0.0163821
891.545	0.0163964
891.623	0.0164679
891.701	0.0164065
891.780	0.0163908
891.858	0.0163147
891.936	0.0164308
892.014	0.0164733
892.092	0.0162594
892.170	0.0162971
892.248	0.0165155
892.326	0.0164257
892.405	0.0164248
892.483	0.0163490
892.561	0.0163660
892.639	0.0163418
892.717	0.0163663
892.795	0.0163559
892.873	0.0164491
892.951	0.0165534
893.030	0.0164931
893.108	0.0165355
893.186	0.0165100
893.264	0.0164520
893.342	0.0164629
893.420	0.0164692
893.498	0.0165372
893.576	0.0166001
893.655	0.0165694
893.733	0.0165780
893.811	0.0164102
893.889	0.0165542
893.967	0.0166206
894.045	0.0164801
894.123	0.0164544
894.201	0.0165744
894.280	0.0164574
894.358	0.0163414
894.436	0.0164150
894.514	0.0161883
894.592	0.0163326
894.670	0.0163998
894.748	0.0164332
894.826	0.0162450
894.905	0.0163367
894.983	0.0163799
895.061	0.0164491
895.139	0.0163893
895.217	0.0163607
895.295	0.0163052
895.373	0.0164783
895.451	0.0164648
895.530	0.0163245
895.608	0.0163990
895.686	0.0164760
895.764	0.0164506
895.842	0.0165012
895.920	0.0163824
895.998	0.0163665
896.076	0.0165117
896.155	0.0165602
896.233	0.0164089
896.311	0.0163288
896.389	0.0163763
896.467	0.0165916
896.545	0.0164247
896.623	0.0163979
896.701	0.0163676
896.780	0.0164347
896.858	0.0163321
896.936	0.0164714
897.014	0.0163870
897.092	0.0164151
897.170	0.0163788
897.248	0.0163585
897.326	0.0163074
897.405	0.0162849
897.483	0.0163519
897.561	0.0164347
897.639	0.0162926
897.717	0.0164491
897.795	0.0162821
897.873	0.0163109
897.951	0.0162188
898.030	0.0163892
898.108	0.0162280
898.186	0.0163183
898.264	0.0162251
898.342	0.0163297
898.420	0.0163501
898.498	0.0163335
898.576	0.0164029
898.655	0.0162991
898.733	0.0164006
898.811	0.0164650
898.889	0.0164310
898.967	0.0164272
899.045	0.0164393
899.123	0.0166590
899.201	0.0165920
899.280	0.0163865
899.358	0.0165254
899.436	0.0163921
899.514	0.0164681
899.592	0.0163973
899.670	0.0163653
899.748	0.0164186
899.826	0.0163483
899.905	0.0163476
899.983	0.0164220
900.061	0.0163456
900.139	0.0162145
900.217	0.0163734
900.295	0.0163647
900.373	0.0161719
900.451	0.0163371
900.530	0.0163096
900.608	0.0162097
900.686	0.0163190
900.764	0.0163723
900.842	0.0164580
900.920	0.0163832
900.998	0.0164572
901.076	0.0164388
901.155	0.0163598
901.233	0.0165406
901.311	0.0166062
901.389	0.0165841
901.467	0.0164668
901.545	0.0165266
901.623	0.0165078
901.701	0.0166215
901.780	0.0163805
901.858	0.0165543
901.936	0.0165501
902.014	0.0165718
902.092	0.0166863
902.170	0.0165284
902.248	0.0165057
902.326	0.0164835
902.405	0.0165202
902.483	0.0166579
902.561	0.0164507
902.639	0.0165629
902.717	0.0165141
902.795	0.0164542
902.873	0.0164388
902.951	0.0164662
903.030	0.0165170
903.108	0.0163813
903.186	0.0165150
903.264	0.0164005
903.342	0.0165934
903.420	0.0163953
903.498	0.0162975
903.576	0.0164093
903.655	0.0164416
903.733	0.0164335
903.811	0.0163654
903.889	0.0164603
903.967	0.0165302
904.045	0.0164091
904.123	0.0163666
904.201	0.0162504
904.280	0.0162873
904.358	0.0162947
904.436	0.0162543
904.514	0.0162708
904.592	0.0162951
904.670	0.0162193
904.748	0.0161542
904.826	0.0161176
904.905	0.0162445
904.983	0.0162295
905.061	0.0161069
905.139	0.0162379
905.217	0.0163117
905.295	0.0162708
905.373	0.0162071
905.451	0.0163462
905.530	0.0163651
905.608	0.0162746
905.686	0.0164214
905.764	0.0163992
905.842	0.0163440
905.920	0.0164535
905.998	0.0162742
906.076	0.0161908
906.155	0.0163371
906.233	0.0162148
906.311	0.0163065
906.389	0.0164142
906.467	0.0163287
906.545	0.0163828
906.623	0.0162993
906.701	0.0162524
906.780	0.0160852
906.858	0.0162869
906.936	0.0163973
907.014	0.0163086
907.092	0.0163407
907.170	0.0162867
907.248	0.0163048
907.326	0.0164449
907.405	0.0161490
907.483	0.0162392
907.561	0.0164709
907.639	0.0163971
907.717	0.0163532
907.795	0.0163130
907.873	0.0163834
907.951	0.0163838
908.030	0.0162425
908.108	0.0163386
908.186	0.0163201
908.264	0.0162798
908.342	0.0162227
908.420	0.0163729
908.498	0.0162988
908.576	0.0162103
908.655	0.0163554
908.733	0.0162543
908.811	0.0160990
908.889	0.0163516
908.967	0.0163950
909.045	0.0163435
909.123	0.0163035
909.201	0.0162666
909.280	0.0164179
909.358	0.0163924
909.436	0.0164461
909.514	0.0164954
909.592	0.0165678
909.670	0.0165604
909.748	0.0165418
909.826	0.0165636
909.905	0.0165599
909.983	0.0164747
910.061	0.0165076
910.139	0.0166052
910.217	0.0164696
910.295	0.0165049
910.373	0.0165336
910.451	0.0165575
910.530	0.0165672
910.608	0.0166376
910.686	0.0165079
910.764	0.0166206
910.842	0.0166182
910.920	0.0165219
910.998	0.0165788
911.076	0.0167222
911.155	0.0164702
911.233	0.0164586
911.311	0.0164854
911.389	0.0168044
911.467	0.0164995
911.545	0.0166148
911.623	0.0166050
911.701	0.0165480
911.780	0.0164943
911.858	0.0163848
911.936	0.0164869
912.014	0.0165307
912.092	0.0163031
912.170	0.0163770
912.248	0.0164362
912.326	0.0163809
912.405	0.0163721
912.483	0.0163167
912.561	0.0163618
912.639	0.0162540
912.717	0.0162286
912.795	0.0162765
912.873	0.0163058
912.951	0.0163392
913.030	0.0163814
913.108	0.0164247
913.186	0.0163802
913.264	0.0163868
913.342	0.0164439
913.420	0.0165472
913.498	0.0164365
913.576	0.0164655
913.655	0.0163824
913.733	0.0164697
913.811	0.0164989
913.889	0.0165424
913.967	0.0164511
914.045	0.0165751
914.123	0.0165812
914.201	0.0164935
914.280	0.0165875
914.358	0.0165989
914.436	0.0165319
914.514	0.0166154
914.592	0.0166499
914.670	0.0166023
914.748	0.0165540
914.826	0.0165854
914.905	0.0165401
914.983	0.0166641
915.061	0.0167062
915.139	0.0166429
915.217	0.0166125
915.295	0.0166103
915.373	0.0165488
915.451	0.0165304
915.530	0.0167229
915.608	0.0165112
915.686	0.0165730
915.764	0.0166180
915.842	0.0165677
915.920	0.0165194
915.998	0.0165058
916.076	0.0164570
916.155	0.0165826
916.233	0.0164307
916.311	0.0164751
916.389	0.0163834
916.467	0.0164487
916.545	0.0165453
916.623	0.0165066
916.701	0.0163894
916.780	0.0164602
916.858	0.0163394
916.936	0.0165234
917.014	0.0163327
917.092	0.0164737
917.170	0.0164135
917.248	0.0163484
917.326	0.0163273
917.405	0.0164276
917.483	0.0164531
917.561	0.0163444
917.639	0.0163987
917.717	0.0165753
917.795	0.0165149
917.873	0.0164616
917.951	0.0163592
918.030	0.0163689
918.108	0.0164102
918.186	0.0165539
918.264	0.0163251
918.342	0.0164558
918.420	0.0165467
918.498	0.0163441
918.576	0.0163027
918.655	0.0163639
918.733	0.0164263
918.811	0.0163954
918.889	0.0162945
918.967	0.0163411
919.045	0.0164296
919.123	0.0163337
919.201	0.0163631
919.280	0.0164822
919.358	0.0163417
919.436	0.0164314
919.514	0.0163647
919.592	0.0163438
919.670	0.0163655
919.748	0.0163427
919.826	0.0164664
919.905	0.0164495
919.983	0.0165495
920.061	0.0164324
920.139	0.0162920
920.217	0.0163419
920.295	0.0162430
920.373	0.0162769
920.451	0.0163859
920.530	0.0163395
920.608	0.0163457
920.686	0.0163882
920.764	0.0163526
920.842	0.0162462
920.920	0.0162464
920.998	0.0163107
921.076	0.0163553
921.155	0.0163684
921.233	0.0163542
921.311	0.0164228
921.389	0.0164056
921.467	0.0164520
921.545	0.0165083
921.623	0.0163531
921.701	0.0164738
921.780	0.0165887
921.858	0.0164405
921.936	0.0164018
922.014	0.0165255
922.092	0.0164257
922.170	0.0164277
922.248	0.0163773
922.326	0.0164499
922.405	0.0163862
922.483	0.0166091
922.561	0.0164454
922.639	0.0163171
922.717	0.0164557
922.795	0.0165503
922.873	0.0163808
922.951	0.0163799
923.030	0.0163863
923.108	0.0164972
923.186	0.0163992
923.264	0.0165032
923.342	0.0164340
923.420	0.0164018
923.498	0.0164919
923.576	0.0163094
923.655	0.0164858
923.733	0.0164952
923.811	0.0165914
923.889	0.0164352
923.967	0.0164746
924.045	0.0165579
924.123	0.0164971
924.201	0.0165408
924.280	0.0165308
924.358	0.0166093
924.436	0.0166177
924.514	0.0166868
924.592	0.0165834
924.670	0.0165049
924.748	0.0165701
924.826	0.0165756
924.905	0.0164857
924.983	0.0165810
925.061	0.0165736
925.139	0.0164433
925.217	0.0163895
925.295	0.0164173
925.373	0.0166131
925.451	0.0163928
925.530	0.0163332
925.608	0.0163879
925.686	0.0162645
925.764	0.0163058
925.842	0.0161568
925.920	0.0162849
925.998	0.0162794
926.076	0.0162998
926.155	0.0163191
926.233	0.0163757
926.311	0.0163570
926.389	0.0162425
926.467	0.0164675
926.545	0.0164841
926.623	0.0164284
926.701	0.0165361
926.780	0.0162604
926.858	0.0163950
926.936	0.0165230
927.014	0.0163812
927.092	0.0165207
927.170	0.0165526
927.248	0.0165643
927.326	0.0163547
927.405	0.0164185
927.483	0.0165319
927.561	0.0164813
927.639	0.0164059
927.717	0.0164864
927.795	0.0166251
927.873	0.0165257
927.951	0.0164459
928.030	0.0165719
928.108	0.0165260
928.186	0.0166329
928.264	0.0165577
928.342	0.0164589
928.420	0.0164938
928.498	0.0165593
928.576	0.0164558
928.655	0.0165344
928.733	0.0165807
928.811	0.0165231
928.889	0.0165793
928.967	0.0167342
929.045	0.0165940
929.123	0.0164237
929.201	0.0164814
929.280	0.0166237
929.358	0.0166126
929.436	0.0164475
929.514	0.0166451
929.592	0.0166311
929.670	0.0165555
929.748	0.0165758
929.826	0.0167339
929.905	0.0165608
929.983	0.0167066
930.061	0.0166842
930.139	0.0165286
930.217	0.0166387
930.295	0.0164675
930.373	0.0165504
930.451	0.0165566
930.530	0.0166089
930.608	0.0166018
930.686	0.0165099
930.764	0.0164462
930.842	0.0164109
930.920	0.0166439
930.998	0.0166028
931.076	0.0166066
931.155	0.0164774
931.233	0.0165103
931.311	0.0165137
931.389	0.0165609
931.467	0.0164758
931.545	0.0164548
931.623	0.0164590
931.701	0.0164611
931.780	0.0164950
931.858	0.0166482
931.936	0.0165420
932.014	0.0165327
932.092	0.0166704
932.170	0.0164217
932.248	0.0164511
932.326	0.0165698
932.405	0.0164967
932.483	0.0165781
932.561	0.0166000
932.639	0.0165733
932.717	0.0165885
932.795	0.0165329
932.873	0.0165549
932.951	0.0165895
933.030	0.0164947
933.108	0.0166499
933.186	0.0165181
933.264	0.0165282
933.342	0.0165062
933.420	0.0164039
933.498	0.0165583
933.576	0.0164532
933.655	0.0165047
933.733	0.0165319
933.811	0.0164989
933.889	0.0164232
933.967	0.0164861
934.045	0.0164231
934.123	0.0164264
934.201	0.0163331
934.280	0.0163916
934.358	0.0164004
934.436	0.0162988
934.514	0.0164341
934.592	0.0163354
934.670	0.0164512
934.748	0.0163786
934.826	0.0164758
934.905	0.0163585
934.983	0.0164270
935.061	0.0164153
935.139	0.0164118
935.217	0.0162744
935.295	0.0163324
935.373	0.0164979
935.451	0.0166555
935.530	0.0164532
935.608	0.0163474
935.686	0.0164233
935.764	0.0162919
935.842	0.0163562
935.920	0.0163152
935.998	0.0164146
936.076	0.0161952
936.155	0.0164954
936.233	0.0161627
936.311	0.0164169
936.389	0.0163696
936.467	0.0164194
936.545	0.0163000
936.623	0.0164400
936.701	0.0164661
936.780	0.0165288
936.858	0.0165076
936.936	0.0163539
937.014	0.0164877
937.092	0.0165855
937.170	0.0164499
937.248	0.0164133
937.326	0.0165311
937.405	0.0165655
937.483	0.0165363
937.561	0.0165653
937.639	0.0165766
937.717	0.0164839
937.795	0.0163450
937.873	0.0164467
937.951	0.0164686
938.030	0.0163156
938.108	0.0164125
938.186	0.0162583
938.264	0.0164208
938.342	0.0162365
938.420	0.0162447
938.498	0.0163274
938.576	0.0162807
938.655	0.0163802
938.733	0.0162605
938.811	0.0163215
938.889	0.0163077
938.967	0.0162680
939.045	0.0162520
939.123	0.0164723
939.201	0.0163966
939.280	0.0164638
939.358	0.0165014
939.436	0.0164169
939.514	0.0164223
939.592	0.0165781
939.670	0.0165172
939.748	0.0164182
939.826	0.0164274
939.905	0.0164655
939.983	0.0164944
940.061	0.0164417
940.139	0.0165129
940.217	0.0165421
940.295	0.0164967
940.373	0.0164075
940.451	0.0165375
940.530	0.0165362
940.608	0.0162893
940.686	0.0164369
940.764	0.0163733
940.842	0.0163476
940.920	0.0163559
940.998	0.0163514
941.076	0.0162788
941.155	0.0163869
941.233	0.0162275
941.311	0.0164146
941.389	0.0162288
941.467	0.0162992
941.545	0.0162764
941.623	0.0163207
941.701	0.0162006
941.780	0.0163251
941.858	0.0162006
941.936	0.0162048
942.014	0.0162817
942.092	0.0162383
942.170	0.0163500
942.248	0.0162597
942.326	0.0164591
942.405	0.0163446
942.483	0.0163792
942.561	0.0163499
942.639	0.0164307
942.717	0.0163770
942.795	0.0162539
942.873	0.0164538
942.951	0.0164710
943.030	0.0165321
943.108	0.0166250
943.186	0.0164279
943.264	0.0164621
943.342	0.0164354
943.420	0.0165862
943.498	0.0165424
943.576	0.0165797
943.655	0.0166714
943.733	0.0167103
943.811	0.0166731
943.889	0.0164822
943.967	0.0165394
944.045	0.0166771
944.123	0.0166740
944.201	0.0165656
944.280	0.0165682
944.358	0.0165692
944.436	0.0167202
944.514	0.0165775
944.592	0.0165375
944.670	0.0166344
944.748	0.0165913
944.826	0.0165704
944.905	0.0166945
944.983	0.0166236
945.061	0.0164951
945.139	0.0166721
945.217	0.0164984
945.295	0.0165552
945.373	0.0165530
945.451	0.0166402
945.530	0.0164084
945.608	0.0164492
945.686	0.0164446
945.764	0.0165276
945.842	0.0163814
945.920	0.0164079
945.998	0.0164165
946.076	0.0164130
946.155	0.0163167
946.233	0.0163802
946.311	0.0163747
946.389	0.0161731
946.467	0.0163565
946.545	0.0161799
946.623	0.0163746
946.701	0.0163152
946.780	0.0162865
946.858	0.0163022
946.936	0.0161584
947.014	0.0162945
947.092	0.0164977
947.170	0.0163087
947.248	0.0163351
947.326	0.0162969
947.405	0.0163993
947.483	0.0164499
947.561	0.0164232
947.639	0.0164259
947.717	0.0163876
947.795	0.0163912
947.873	0.0165189
947.951	0.0164050
948.030	0.0164524
948.108	0.0165527
948.186	0.0164237
948.264	0.0166038
948.342	0.0165672
948.420	0.0164106
948.498	0.0164416
948.576	0.0165485
948.655	0.0165719
948.733	0.0165538
948.811	0.0166328
948.889	0.0165604
948.967	0.0166064
949.045	0.0167265
949.123	0.0166704
949.201	0.0165067
949.280	0.0166247
949.358	0.0164621
949.436	0.0166106
949.514	0.0165060
949.592	0.0164610
949.670	0.0165269
949.748	0.0166646
949.826	0.0165354
949.905	0.0164800
949.983	0.0165112
950.061	0.0165724
950.139	0.0165608
950.217	0.0164819
950.295	0.0164837
950.373	0.0166030
950.451	0.0165743
950.530	0.0164666
950.608	0.0164967
950.686	0.0166521
950.764	0.0166274
950.842	0.0164976
950.920	0.0165069
950.998	0.0165998
951.076	0.0165945
951.155	0.0166720
951.233	0.0166290
951.311	0.0165274
951.389	0.0164462
951.467	0.0165135
951.545	0.0165336
951.623	0.0165683
951.701	0.0165193
951.780	0.0165448
951.858	0.0164078
951.936	0.0165134
952.014	0.0166078
952.092	0.0165178
952.170	0.0164433
952.248	0.0165888
952.326	0.0164713
952.405	0.0165337
952.483	0.0164716
952.561	0.0164802
952.639	0.0165627
952.717	0.0165757
952.795	0.0165675
952.873	0.0163739
952.951	0.0165509
953.030	0.0166356
953.108	0.0164505
953.186	0.0165145
953.264	0.0165083
953.342	0.0165537
953.420	0.0165214
953.498	0.0164867
953.576	0.0164450
953.655	0.0164373
953.733	0.0163552
953.811	0.0165688
953.889	0.0164919
953.967	0.0165031
954.045	0.0163770
954.123	0.0163905
954.201	0.0164285
954.280	0.0164225
954.358	0.0164824
954.436	0.0164408
954.514	0.0164415
954.592	0.0164291
954.670	0.0165784
954.748	0.0165601
954.826	0.0164303
954.905	0.0165103
954.983	0.0165031
955.061	0.0165702
955.139	0.0164881
955.217	0.0165206
955.295	0.0165975
955.373	0.0163981
955.451	0.0163458
955.530	0.0164180
955.608	0.0164773
955.686	0.0164175
955.764	0.0164593
955.842	0.0164657
955.920	0.0162943
955.998	0.0164110
956.076	0.0164380
956.155	0.0164548
956.233	0.0163609
956.311	0.0163774
956.389	0.0163480
956.467	0.0163307
956.545	0.0163478
956.623	0.0163846
956.701	0.0163385
956.780	0.0163848
956.858	0.0165088
956.936	0.0163399
957.014	0.0163765
957.092	0.0165081
957.170	0.0164998
957.248	0.0164899
957.326	0.0165154
957.405	0.0166537
957.483	0.0164273
957.561	0.0164043
957.639	0.0164290
957.717	0.0164449
957.795	0.0165329
957.873	0.0166129
957.951	0.0165931
958.030	0.0165516
958.108	0.0165881
958.186	0.0166750
958.264	0.0165737
958.342	0.0166302
958.420	0.0166282
958.498	0.0165144
958.576	0.0164557
958.655	0.0166499
958.733	0.0165646
958.811	0.0164306
958.889	0.0163676
958.967	0.0165002
959.045	0.0165638
959.123	0.0165786
959.201	0.0165712
959.280	0.0165391
959.358	0.0165794
959.436	0.0165965
959.514	0.0166032
959.592	0.0164858
959.670	0.0165186
959.748	0.0164990
959.826	0.0166235
959.905	0.0166904
