05/17/2022	17:07:24	Ver.	4.1	UNKNOWN
Optical Delay	639.982744	Delta X		0.078125	Sweeps	1	Scan Rate	0/0
Coordinates	Axis 1	NaN	Axis 2	NaN	Axis 3	NaN	Axis 4	NaN	Axis 5	NaN	Axis 6	0.000000
TX Power	0.000000	RX Power	0.000000

639.983	0.0171243
640.061	0.0168899
640.139	0.0169654
640.217	0.0168948
640.295	0.0170318
640.373	0.0170760
640.451	0.0168917
640.530	0.0170290
640.608	0.0169849
640.686	0.0169508
640.764	0.0170911
640.842	0.0168858
640.920	0.0167760
640.998	0.0170241
641.076	0.0170953
641.155	0.0169368
641.233	0.0169869
641.311	0.0169175
641.389	0.0168553
641.467	0.0169366
641.545	0.0169724
641.623	0.0169649
641.701	0.0168694
641.780	0.0168250
641.858	0.0167995
641.936	0.0169858
642.014	0.0169656
642.092	0.0167994
642.170	0.0170502
642.248	0.0170055
642.326	0.0168963
642.405	0.0169543
642.483	0.0169902
642.561	0.0170259
642.639	0.0170950
642.717	0.0171211
642.795	0.0170122
642.873	0.0170883
642.951	0.0170259
643.030	0.0170793
643.108	0.0171017
643.186	0.0170992
643.264	0.0172453
643.342	0.0170860
643.420	0.0171982
643.498	0.0170399
643.576	0.0171508
643.655	0.0170872
643.733	0.0170298
643.811	0.0170388
643.889	0.0170193
643.967	0.0171722
644.045	0.0171960
644.123	0.0172632
644.201	0.0172004
644.280	0.0170553
644.358	0.0171439
644.436	0.0171349
644.514	0.0170571
644.592	0.0171268
644.670	0.0171673
644.748	0.0170396
644.826	0.0171477
644.905	0.0171345
644.983	0.0170784
645.061	0.0169094
645.139	0.0170142
645.217	0.0171118
645.295	0.0170168
645.373	0.0171334
645.451	0.0170973
645.530	0.0170726
645.608	0.0169376
645.686	0.0170214
645.764	0.0169981
645.842	0.0169769
645.920	0.0169158
645.998	0.0168816
646.076	0.0169920
646.155	0.0169435
646.233	0.0170037
646.311	0.0169282
646.389	0.0169836
646.467	0.0169783
646.545	0.0168755
646.623	0.0169842
646.701	0.0169216
646.780	0.0170160
646.858	0.0170599
646.936	0.0171538
647.014	0.0170551
647.092	0.0170683
647.170	0.0171123
647.248	0.0170304
647.326	0.0172415
647.405	0.0171049
647.483	0.0170370
647.561	0.0171728
647.639	0.0172052
647.717	0.0172548
647.795	0.0171597
647.873	0.0172076
647.951	0.0170490
648.030	0.0173185
648.108	0.0172425
648.186	0.0172015
648.264	0.0172532
648.342	0.0173112
648.420	0.0172680
648.498	0.0172702
648.576	0.0174406
648.655	0.0172330
648.733	0.0173679
648.811	0.0174274
648.889	0.0173121
648.967	0.0172958
649.045	0.0174303
649.123	0.0174637
649.201	0.0174014
649.280	0.0173192
649.358	0.0174345
649.436	0.0175188
649.514	0.0174315
649.592	0.0173857
649.670	0.0175693
649.748	0.0175027
649.826	0.0174305
649.905	0.0174073
649.983	0.0174084
650.061	0.0173463
650.139	0.0173912
650.217	0.0173222
650.295	0.0172941
650.373	0.0171963
650.451	0.0171947
650.530	0.0172429
650.608	0.0171957
650.686	0.0170591
650.764	0.0172412
650.842	0.0171635
650.920	0.0169711
650.998	0.0169756
651.076	0.0168510
651.155	0.0169676
651.233	0.0169822
651.311	0.0168693
651.389	0.0170473
651.467	0.0168006
651.545	0.0167877
651.623	0.0169585
651.701	0.0169293
651.780	0.0169820
651.858	0.0168480
651.936	0.0169157
652.014	0.0169459
652.092	0.0168890
652.170	0.0168375
652.248	0.0167726
652.326	0.0168209
652.405	0.0168887
652.483	0.0167544
652.561	0.0168231
652.639	0.0168590
652.717	0.0168235
652.795	0.0169392
652.873	0.0167399
652.951	0.0168192
653.030	0.0170247
653.108	0.0168066
653.186	0.0168733
653.264	0.0169156
653.342	0.0169786
653.420	0.0170324
653.498	0.0169436
653.576	0.0170606
653.655	0.0171162
653.733	0.0169951
653.811	0.0170586
653.889	0.0170657
653.967	0.0170145
654.045	0.0169421
654.123	0.0170467
654.201	0.0170332
654.280	0.0169995
654.358	0.0170812
654.436	0.0170481
654.514	0.0170535
654.592	0.0170900
654.670	0.0170870
654.748	0.0171091
654.826	0.0169981
654.905	0.0171504
654.983	0.0171812
655.061	0.0170466
655.139	0.0170850
655.217	0.0171661
655.295	0.0169727
655.373	0.0171244
655.451	0.0172032
655.530	0.0170903
655.608	0.0171301
655.686	0.0172334
655.764	0.0171359
655.842	0.0172561
655.920	0.0172128
655.998	0.0170591
656.076	0.0170692
656.155	0.0169556
656.233	0.0170802
656.311	0.0170261
656.389	0.0169965
656.467	0.0169444
656.545	0.0169108
656.623	0.0167866
656.701	0.0168427
656.780	0.0168088
656.858	0.0168092
656.936	0.0167527
657.014	0.0168291
657.092	0.0167768
657.170	0.0168739
657.248	0.0169006
657.326	0.0168393
657.405	0.0168858
657.483	0.0169841
657.561	0.0169349
657.639	0.0169061
657.717	0.0169843
657.795	0.0170912
657.873	0.0170747
657.951	0.0170054
658.030	0.0170403
658.108	0.0169502
658.186	0.0171745
658.264	0.0171231
658.342	0.0170876
658.420	0.0173810
658.498	0.0172784
658.576	0.0171632
658.655	0.0170637
658.733	0.0170746
658.811	0.0172082
658.889	0.0173030
658.967	0.0172482
659.045	0.0171446
659.123	0.0170438
659.201	0.0170688
659.280	0.0172453
659.358	0.0172102
659.436	0.0172540
659.514	0.0169469
659.592	0.0169485
659.670	0.0169556
659.748	0.0169536
659.826	0.0169450
659.905	0.0171230
659.983	0.0170719
660.061	0.0170280
660.139	0.0171333
660.217	0.0170905
660.295	0.0170872
660.373	0.0169984
660.451	0.0170618
660.530	0.0171001
660.608	0.0170674
660.686	0.0171284
660.764	0.0171051
660.842	0.0170039
660.920	0.0170930
660.998	0.0170644
661.076	0.0172032
661.155	0.0171376
661.233	0.0172173
661.311	0.0172762
661.389	0.0171865
661.467	0.0172158
661.545	0.0173315
661.623	0.0174113
661.701	0.0173598
661.780	0.0174579
661.858	0.0175232
661.936	0.0174460
662.014	0.0175173
662.092	0.0175344
662.170	0.0176802
662.248	0.0175788
662.326	0.0175595
662.405	0.0175359
662.483	0.0175977
662.561	0.0175986
662.639	0.0176814
662.717	0.0176543
662.795	0.0174736
662.873	0.0175802
662.951	0.0175169
663.030	0.0175138
663.108	0.0175537
663.186	0.0174490
663.264	0.0173798
663.342	0.0173911
663.420	0.0172407
663.498	0.0171674
663.576	0.0170738
663.655	0.0170564
663.733	0.0170264
663.811	0.0169649
663.889	0.0167956
663.967	0.0168793
664.045	0.0167275
664.123	0.0166385
664.201	0.0167052
664.280	0.0166222
664.358	0.0166682
664.436	0.0165849
664.514	0.0166092
664.592	0.0166827
664.670	0.0165289
664.748	0.0166700
664.826	0.0166557
664.905	0.0167117
664.983	0.0166597
665.061	0.0168172
665.139	0.0169087
665.217	0.0170714
665.295	0.0170885
665.373	0.0172517
665.451	0.0173347
665.530	0.0174226
665.608	0.0175120
665.686	0.0175421
665.764	0.0177208
665.842	0.0178238
665.920	0.0178417
665.998	0.0179588
666.076	0.0180296
666.155	0.0180051
666.233	0.0181049
666.311	0.0180426
666.389	0.0182532
666.467	0.0179449
666.545	0.0180249
666.623	0.0179879
666.701	0.0178696
666.780	0.0178998
666.858	0.0176722
666.936	0.0174823
667.014	0.0174593
667.092	0.0173199
667.170	0.0171175
667.248	0.0170111
667.326	0.0168694
667.405	0.0168205
667.483	0.0167344
667.561	0.0165736
667.639	0.0164489
667.717	0.0163866
667.795	0.0163882
667.873	0.0164027
667.951	0.0162473
668.030	0.0162440
668.108	0.0162426
668.186	0.0163236
668.264	0.0164523
668.342	0.0164737
668.420	0.0165282
668.498	0.0166502
668.576	0.0168604
668.655	0.0168673
668.733	0.0170872
668.811	0.0172389
668.889	0.0171354
668.967	0.0174343
669.045	0.0177070
669.123	0.0176482
669.201	0.0178412
669.280	0.0180526
669.358	0.0179988
669.436	0.0181097
669.514	0.0181128
669.592	0.0182504
669.670	0.0183312
669.748	0.0183784
669.826	0.0181911
669.905	0.0182491
669.983	0.0182413
670.061	0.0181516
670.139	0.0180492
670.217	0.0180972
670.295	0.0179441
670.373	0.0177144
670.451	0.0173822
670.530	0.0174000
670.608	0.0172863
670.686	0.0170895
670.764	0.0169186
670.842	0.0167930
670.920	0.0167306
670.998	0.0165935
671.076	0.0165180
671.155	0.0163029
671.233	0.0161307
671.311	0.0161080
671.389	0.0161525
671.467	0.0160365
671.545	0.0159940
671.623	0.0159463
671.701	0.0161777
671.780	0.0159451
671.858	0.0160672
671.936	0.0161809
672.014	0.0163096
672.092	0.0162700
672.170	0.0164421
672.248	0.0165608
672.326	0.0166406
672.405	0.0169203
672.483	0.0171011
672.561	0.0171446
672.639	0.0172774
672.717	0.0174120
672.795	0.0174185
672.873	0.0175700
672.951	0.0175863
673.030	0.0176494
673.108	0.0177452
673.186	0.0177722
673.264	0.0179201
673.342	0.0178770
673.420	0.0176646
673.498	0.0177125
673.576	0.0177154
673.655	0.0176459
673.733	0.0175082
673.811	0.0174070
673.889	0.0174094
673.967	0.0173794
674.045	0.0172556
674.123	0.0172707
674.201	0.0170499
674.280	0.0169219
674.358	0.0169186
674.436	0.0166690
674.514	0.0167722
674.592	0.0168130
674.670	0.0167976
674.748	0.0167519
674.826	0.0168327
674.905	0.0168018
674.983	0.0166708
675.061	0.0168147
675.139	0.0168508
675.217	0.0168557
675.295	0.0169379
675.373	0.0170521
675.451	0.0170892
675.530	0.0171653
675.608	0.0172669
675.686	0.0172693
675.764	0.0173035
675.842	0.0173946
675.920	0.0173320
675.998	0.0170909
676.076	0.0172543
676.155	0.0172019
676.233	0.0171011
676.311	0.0169841
676.389	0.0168424
676.467	0.0169022
676.545	0.0167896
676.623	0.0167173
676.701	0.0165466
676.780	0.0166988
676.858	0.0165903
676.936	0.0164662
677.014	0.0165378
677.092	0.0167773
677.170	0.0167013
677.248	0.0166695
677.326	0.0168508
677.405	0.0169791
677.483	0.0170312
677.561	0.0172134
677.639	0.0171885
677.717	0.0173278
677.795	0.0173621
677.873	0.0175024
677.951	0.0175786
678.030	0.0176656
678.108	0.0178193
678.186	0.0178751
678.264	0.0178989
678.342	0.0178237
678.420	0.0178684
678.498	0.0180094
678.576	0.0178323
678.655	0.0177406
678.733	0.0177135
678.811	0.0176089
678.889	0.0175563
678.967	0.0175472
679.045	0.0175099
679.123	0.0174712
679.201	0.0173515
679.280	0.0173034
679.358	0.0170972
679.436	0.0170687
679.514	0.0169061
679.592	0.0170493
679.670	0.0168005
679.748	0.0166966
679.826	0.0168742
679.905	0.0167117
679.983	0.0165577
680.061	0.0167777
680.139	0.0167885
680.217	0.0168346
680.295	0.0168556
680.373	0.0167545
680.451	0.0169192
680.530	0.0170108
680.608	0.0169544
680.686	0.0170153
680.764	0.0171790
680.842	0.0172733
680.920	0.0171375
680.998	0.0173439
681.076	0.0174171
681.155	0.0174921
681.233	0.0174579
681.311	0.0174774
681.389	0.0175887
681.467	0.0175703
681.545	0.0175359
681.623	0.0175189
681.701	0.0175212
681.780	0.0172837
681.858	0.0173443
681.936	0.0172165
682.014	0.0171517
682.092	0.0170645
682.170	0.0169952
682.248	0.0169593
682.326	0.0170498
682.405	0.0169827
682.483	0.0169916
682.561	0.0170750
682.639	0.0169511
682.717	0.0170194
682.795	0.0170667
682.873	0.0170398
682.951	0.0172393
683.030	0.0171862
683.108	0.0173395
683.186	0.0172076
683.264	0.0173177
683.342	0.0173376
683.420	0.0174348
683.498	0.0174709
683.576	0.0173686
683.655	0.0173991
683.733	0.0175557
683.811	0.0175171
683.889	0.0175350
683.967	0.0175152
684.045	0.0172287
684.123	0.0172659
684.201	0.0173061
684.280	0.0171078
684.358	0.0169605
684.436	0.0170883
684.514	0.0169180
684.592	0.0167844
684.670	0.0167577
684.748	0.0167191
684.826	0.0165786
684.905	0.0166979
684.983	0.0166909
685.061	0.0167123
685.139	0.0166794
685.217	0.0166138
685.295	0.0166035
685.373	0.0167544
685.451	0.0168463
685.530	0.0168982
685.608	0.0168717
685.686	0.0170098
685.764	0.0172429
685.842	0.0171898
685.920	0.0173968
685.998	0.0174256
686.076	0.0177244
686.155	0.0177920
686.233	0.0178980
686.311	0.0178568
686.389	0.0178098
686.467	0.0181447
686.545	0.0179519
686.623	0.0179366
686.701	0.0178413
686.780	0.0179514
686.858	0.0176793
686.936	0.0175985
687.014	0.0175911
687.092	0.0173843
687.170	0.0171801
687.248	0.0168933
687.326	0.0168792
687.405	0.0165677
687.483	0.0163273
687.561	0.0163445
687.639	0.0161709
687.717	0.0160430
687.795	0.0159420
687.873	0.0157870
687.951	0.0158848
688.030	0.0157860
688.108	0.0158537
688.186	0.0158805
688.264	0.0158038
688.342	0.0158700
688.420	0.0161082
688.498	0.0162154
688.576	0.0163072
688.655	0.0165902
688.733	0.0167902
688.811	0.0169117
688.889	0.0170654
688.967	0.0172086
689.045	0.0173570
689.123	0.0176303
689.201	0.0177405
689.280	0.0179692
689.358	0.0181050
689.436	0.0182022
689.514	0.0181530
689.592	0.0184147
689.670	0.0184465
689.748	0.0183263
689.826	0.0184876
689.905	0.0183775
689.983	0.0184338
690.061	0.0182497
690.139	0.0181461
690.217	0.0180576
690.295	0.0179044
690.373	0.0178233
690.451	0.0176828
690.530	0.0174786
690.608	0.0173019
690.686	0.0171070
690.764	0.0169820
690.842	0.0169898
690.920	0.0169158
690.998	0.0167113
691.076	0.0165835
691.155	0.0166245
691.233	0.0165488
691.311	0.0163023
691.389	0.0165561
691.467	0.0164038
691.545	0.0163261
691.623	0.0163613
691.701	0.0164092
691.780	0.0164162
691.858	0.0166617
691.936	0.0166725
692.014	0.0166984
692.092	0.0166753
692.170	0.0167907
692.248	0.0167460
692.326	0.0168156
692.405	0.0169875
692.483	0.0169282
692.561	0.0166698
692.639	0.0171767
692.717	0.0173026
692.795	0.0171577
692.873	0.0172029
692.951	0.0172453
693.030	0.0173441
693.108	0.0174206
693.186	0.0174588
693.264	0.0174763
693.342	0.0174061
693.420	0.0175032
693.498	0.0176891
693.576	0.0176802
693.655	0.0177410
693.733	0.0178191
693.811	0.0177329
693.889	0.0178192
693.967	0.0178482
694.045	0.0178273
694.123	0.0178343
694.201	0.0178359
694.280	0.0177639
694.358	0.0178108
694.436	0.0177782
694.514	0.0176586
694.592	0.0177874
694.670	0.0177012
694.748	0.0176599
694.826	0.0176255
694.905	0.0176788
694.983	0.0175076
695.061	0.0172980
695.139	0.0172694
695.217	0.0172097
695.295	0.0169463
695.373	0.0167873
695.451	0.0168149
695.530	0.0166163
695.608	0.0164584
695.686	0.0164239
695.764	0.0162730
695.842	0.0163088
695.920	0.0159891
695.998	0.0158616
696.076	0.0159093
696.155	0.0159312
696.233	0.0159177
696.311	0.0158546
696.389	0.0157915
696.467	0.0158891
696.545	0.0158248
696.623	0.0160085
696.701	0.0161042
696.780	0.0160735
696.858	0.0162024
696.936	0.0162055
697.014	0.0164572
697.092	0.0166270
697.170	0.0168275
697.248	0.0169378
697.326	0.0171599
697.405	0.0172281
697.483	0.0173985
697.561	0.0176348
697.639	0.0179918
697.717	0.0180374
697.795	0.0182514
697.873	0.0184286
697.951	0.0185232
698.030	0.0186760
698.108	0.0185390
698.186	0.0186336
698.264	0.0187884
698.342	0.0186637
698.420	0.0187390
698.498	0.0186770
698.576	0.0185732
698.655	0.0185064
698.733	0.0183578
698.811	0.0182222
698.889	0.0180688
698.967	0.0181340
699.045	0.0178195
699.123	0.0176961
699.201	0.0174481
699.280	0.0172025
699.358	0.0171647
699.436	0.0168800
699.514	0.0168840
699.592	0.0167570
699.670	0.0165797
699.748	0.0164907
699.826	0.0161903
699.905	0.0162222
699.983	0.0162451
700.061	0.0162293
700.139	0.0160674
700.217	0.0160309
700.295	0.0159805
700.373	0.0159129
700.451	0.0159470
700.530	0.0159318
700.608	0.0159049
700.686	0.0161506
700.764	0.0161001
700.842	0.0162427
700.920	0.0162503
700.998	0.0163342
701.076	0.0163869
701.155	0.0165421
701.233	0.0165990
701.311	0.0166619
701.389	0.0166653
701.467	0.0168466
701.545	0.0169463
701.623	0.0170158
701.701	0.0168668
701.780	0.0169978
701.858	0.0170814
701.936	0.0169570
702.014	0.0170953
702.092	0.0171648
702.170	0.0171258
702.248	0.0171326
702.326	0.0171684
702.405	0.0172205
702.483	0.0172423
702.561	0.0173230
702.639	0.0172781
702.717	0.0173367
702.795	0.0173610
702.873	0.0173224
702.951	0.0174326
703.030	0.0175572
703.108	0.0175795
703.186	0.0177734
703.264	0.0179323
703.342	0.0178192
703.420	0.0179964
703.498	0.0179342
703.576	0.0178712
703.655	0.0179929
703.733	0.0181386
703.811	0.0180769
703.889	0.0179490
703.967	0.0181110
704.045	0.0180790
704.123	0.0180770
704.201	0.0178261
704.280	0.0179419
704.358	0.0178416
704.436	0.0178296
704.514	0.0177182
704.592	0.0176752
704.670	0.0175154
704.748	0.0175829
704.826	0.0175558
704.905	0.0174345
704.983	0.0172603
705.061	0.0172426
705.139	0.0171745
705.217	0.0168972
705.295	0.0169793
705.373	0.0169008
705.451	0.0167687
705.530	0.0167628
705.608	0.0168072
705.686	0.0168167
705.764	0.0167554
705.842	0.0167818
705.920	0.0167390
705.998	0.0167776
706.076	0.0169806
706.155	0.0169492
706.233	0.0169976
706.311	0.0170084
706.389	0.0171114
706.467	0.0170319
706.545	0.0169843
706.623	0.0170736
706.701	0.0169673
706.780	0.0171075
706.858	0.0171053
706.936	0.0169750
707.014	0.0169421
707.092	0.0169682
707.170	0.0169054
707.248	0.0168302
707.326	0.0166075
707.405	0.0165647
707.483	0.0165260
707.561	0.0165510
707.639	0.0162379
707.717	0.0164002
707.795	0.0163245
707.873	0.0162465
707.951	0.0162246
708.030	0.0162730
708.108	0.0162438
708.186	0.0163511
708.264	0.0164101
708.342	0.0164220
708.420	0.0165115
708.498	0.0165747
708.576	0.0166589
708.655	0.0168013
708.733	0.0169910
708.811	0.0170955
708.889	0.0171555
708.967	0.0172292
709.045	0.0174557
709.123	0.0175478
709.201	0.0175764
709.280	0.0176788
709.358	0.0178294
709.436	0.0178434
709.514	0.0179447
709.592	0.0180328
709.670	0.0179047
709.748	0.0180359
709.826	0.0180000
709.905	0.0181898
709.983	0.0181302
710.061	0.0179259
710.139	0.0180125
710.217	0.0180898
710.295	0.0179910
710.373	0.0179329
710.451	0.0178432
710.530	0.0180361
710.608	0.0180575
710.686	0.0178545
710.764	0.0176926
710.842	0.0175718
710.920	0.0176801
710.998	0.0175572
711.076	0.0176162
711.155	0.0176047
711.233	0.0175133
711.311	0.0173621
711.389	0.0173331
711.467	0.0173807
711.545	0.0172512
711.623	0.0171958
711.701	0.0172874
711.780	0.0170866
711.858	0.0170363
711.936	0.0169578
712.014	0.0167305
712.092	0.0166674
712.170	0.0168286
712.248	0.0166841
712.326	0.0166576
712.405	0.0167155
712.483	0.0165684
712.561	0.0164725
712.639	0.0165975
712.717	0.0164664
712.795	0.0164909
712.873	0.0163704
712.951	0.0165138
713.030	0.0163850
713.108	0.0163610
713.186	0.0163064
713.264	0.0162515
713.342	0.0164289
713.420	0.0164086
713.498	0.0162202
713.576	0.0162322
713.655	0.0162956
713.733	0.0163676
713.811	0.0162463
713.889	0.0164621
713.967	0.0163943
714.045	0.0162524
714.123	0.0163775
714.201	0.0166503
714.280	0.0164879
714.358	0.0166662
714.436	0.0168004
714.514	0.0167981
714.592	0.0169440
714.670	0.0172057
714.748	0.0172114
714.826	0.0172811
714.905	0.0174033
714.983	0.0175613
715.061	0.0176440
715.139	0.0175924
715.217	0.0175793
715.295	0.0178146
715.373	0.0179449
715.451	0.0179696
715.530	0.0179263
715.608	0.0178166
715.686	0.0177780
715.764	0.0178099
715.842	0.0178075
715.920	0.0177137
715.998	0.0175804
716.076	0.0176670
716.155	0.0176685
716.233	0.0174826
716.311	0.0175120
716.389	0.0174306
716.467	0.0173571
716.545	0.0171582
716.623	0.0172282
716.701	0.0170294
716.780	0.0170153
716.858	0.0169673
716.936	0.0169685
717.014	0.0168131
717.092	0.0167128
717.170	0.0167504
717.248	0.0167094
717.326	0.0167895
717.405	0.0167666
717.483	0.0167150
717.561	0.0168144
717.639	0.0167703
717.717	0.0169357
717.795	0.0169561
717.873	0.0170608
717.951	0.0169296
718.030	0.0171940
718.108	0.0172116
718.186	0.0171664
718.264	0.0172602
718.342	0.0172978
718.420	0.0174818
718.498	0.0173584
718.576	0.0174741
718.655	0.0175812
718.733	0.0174423
718.811	0.0173376
718.889	0.0173238
718.967	0.0174206
719.045	0.0172665
719.123	0.0173466
719.201	0.0172350
719.280	0.0170381
719.358	0.0170490
719.436	0.0168618
719.514	0.0169101
719.592	0.0166787
719.670	0.0168069
719.748	0.0167520
719.826	0.0165795
719.905	0.0165568
719.983	0.0165437
720.061	0.0164297
720.139	0.0164277
720.217	0.0164286
720.295	0.0164527
720.373	0.0163831
720.451	0.0163844
720.530	0.0164513
720.608	0.0165350
720.686	0.0165958
720.764	0.0166679
720.842	0.0167732
720.920	0.0168767
720.998	0.0168524
721.076	0.0169386
721.155	0.0169702
721.233	0.0170205
721.311	0.0170216
721.389	0.0170166
721.467	0.0171152
721.545	0.0171901
721.623	0.0173064
721.701	0.0171896
721.780	0.0172332
721.858	0.0172165
721.936	0.0172260
722.014	0.0172064
722.092	0.0172599
722.170	0.0172159
722.248	0.0172272
722.326	0.0173614
722.405	0.0172733
722.483	0.0170549
722.561	0.0172169
722.639	0.0172885
722.717	0.0173082
722.795	0.0172459
722.873	0.0173501
722.951	0.0173312
723.030	0.0175063
723.108	0.0175584
723.186	0.0176040
723.264	0.0176064
723.342	0.0177119
723.420	0.0175971
723.498	0.0176584
723.576	0.0178573
723.655	0.0178473
723.733	0.0178639
723.811	0.0178349
723.889	0.0179755
723.967	0.0179095
724.045	0.0177605
724.123	0.0177568
724.201	0.0176935
724.280	0.0177673
724.358	0.0175814
724.436	0.0174161
724.514	0.0173819
724.592	0.0173738
724.670	0.0173411
724.748	0.0170177
724.826	0.0170940
724.905	0.0170744
724.983	0.0170898
725.061	0.0169983
725.139	0.0168435
725.217	0.0168610
725.295	0.0168882
725.373	0.0168659
725.451	0.0167683
725.530	0.0168000
725.608	0.0168513
725.686	0.0169877
725.764	0.0169852
725.842	0.0169014
725.920	0.0167697
725.998	0.0169032
726.076	0.0170167
726.155	0.0169716
726.233	0.0170393
726.311	0.0169920
726.389	0.0171156
726.467	0.0171537
726.545	0.0171468
726.623	0.0171445
726.701	0.0170952
726.780	0.0170881
726.858	0.0171988
726.936	0.0171347
727.014	0.0169985
727.092	0.0170555
727.170	0.0169609
727.248	0.0171873
727.326	0.0173021
727.405	0.0171722
727.483	0.0170235
727.561	0.0170647
727.639	0.0170549
727.717	0.0171477
727.795	0.0171997
727.873	0.0171320
727.951	0.0171258
728.030	0.0171752
728.108	0.0171598
728.186	0.0172156
728.264	0.0173327
728.342	0.0173454
728.420	0.0172003
728.498	0.0172822
728.576	0.0172466
728.655	0.0172228
728.733	0.0175068
728.811	0.0174491
728.889	0.0174651
728.967	0.0173701
729.045	0.0175304
729.123	0.0175025
729.201	0.0173869
729.280	0.0174148
729.358	0.0175121
729.436	0.0174541
729.514	0.0172598
729.592	0.0172705
729.670	0.0172889
729.748	0.0172845
729.826	0.0173390
729.905	0.0172663
729.983	0.0171703
730.061	0.0171150
730.139	0.0169554
730.217	0.0170550
730.295	0.0171792
730.373	0.0168873
730.451	0.0169515
730.530	0.0169227
730.608	0.0169507
730.686	0.0169014
730.764	0.0167432
730.842	0.0167366
730.920	0.0167943
730.998	0.0167416
731.076	0.0166650
731.155	0.0167361
731.233	0.0168475
731.311	0.0167522
731.389	0.0166783
731.467	0.0167152
731.545	0.0168386
731.623	0.0167609
731.701	0.0168697
731.780	0.0168575
731.858	0.0169112
731.936	0.0170982
732.014	0.0170116
732.092	0.0169707
732.170	0.0170761
732.248	0.0172319
732.326	0.0172189
732.405	0.0171866
732.483	0.0173485
732.561	0.0173817
732.639	0.0174424
732.717	0.0174374
732.795	0.0173482
732.873	0.0174109
732.951	0.0175298
733.030	0.0173271
733.108	0.0172773
733.186	0.0174886
733.264	0.0172736
733.342	0.0172557
733.420	0.0172855
733.498	0.0171814
733.576	0.0172311
733.655	0.0172611
733.733	0.0172211
733.811	0.0173404
733.889	0.0174415
733.967	0.0173361
734.045	0.0173877
734.123	0.0173381
734.201	0.0174329
734.280	0.0173141
734.358	0.0174993
734.436	0.0173805
734.514	0.0172341
734.592	0.0172772
734.670	0.0171649
734.748	0.0172826
734.826	0.0171118
734.905	0.0169706
734.983	0.0170327
735.061	0.0170893
735.139	0.0170655
735.217	0.0168891
735.295	0.0168951
735.373	0.0168001
735.451	0.0168027
735.530	0.0167992
735.608	0.0168600
735.686	0.0167396
735.764	0.0167323
735.842	0.0166996
735.920	0.0167718
735.998	0.0167645
736.076	0.0168003
736.155	0.0169155
736.233	0.0168928
736.311	0.0168260
736.389	0.0170132
736.467	0.0171960
736.545	0.0171590
736.623	0.0171336
736.701	0.0170638
736.780	0.0172056
736.858	0.0171702
736.936	0.0172993
737.014	0.0172268
737.092	0.0172707
737.170	0.0174424
737.248	0.0172569
737.326	0.0173133
737.405	0.0174159
737.483	0.0172498
737.561	0.0172776
737.639	0.0173248
737.717	0.0172881
737.795	0.0171976
737.873	0.0171316
737.951	0.0171550
738.030	0.0171141
738.108	0.0170663
738.186	0.0169301
738.264	0.0170177
738.342	0.0171051
738.420	0.0169669
738.498	0.0169534
738.576	0.0169041
738.655	0.0169510
738.733	0.0170396
738.811	0.0171286
738.889	0.0170564
738.967	0.0170718
739.045	0.0170849
739.123	0.0172475
739.201	0.0170792
739.280	0.0170567
739.358	0.0173177
739.436	0.0173352
739.514	0.0170786
739.592	0.0171539
739.670	0.0171979
739.748	0.0175518
739.826	0.0173216
739.905	0.0171461
739.983	0.0171818
740.061	0.0172137
740.139	0.0171784
740.217	0.0171795
740.295	0.0172245
740.373	0.0171226
740.451	0.0170268
740.530	0.0171039
740.608	0.0171088
740.686	0.0169902
740.764	0.0170071
740.842	0.0170356
740.920	0.0170169
740.998	0.0170526
741.076	0.0170542
741.155	0.0171185
741.233	0.0170814
741.311	0.0170093
741.389	0.0171952
741.467	0.0170930
741.545	0.0171011
741.623	0.0171394
741.701	0.0171601
741.780	0.0173817
741.858	0.0172883
741.936	0.0173919
742.014	0.0174295
742.092	0.0174334
742.170	0.0173705
742.248	0.0173186
742.326	0.0173717
742.405	0.0173527
742.483	0.0173359
742.561	0.0173229
742.639	0.0172586
742.717	0.0171134
742.795	0.0171677
742.873	0.0170660
742.951	0.0169924
743.030	0.0169205
743.108	0.0169199
743.186	0.0168597
743.264	0.0166997
743.342	0.0166795
743.420	0.0167029
743.498	0.0166064
743.576	0.0165478
743.655	0.0166814
743.733	0.0167766
743.811	0.0167569
743.889	0.0167129
743.967	0.0168365
744.045	0.0168816
744.123	0.0169382
744.201	0.0171704
744.280	0.0171003
744.358	0.0171340
744.436	0.0172424
744.514	0.0173225
744.592	0.0174897
744.670	0.0174432
744.748	0.0174405
744.826	0.0175007
744.905	0.0175999
744.983	0.0175266
745.061	0.0174969
745.139	0.0174643
745.217	0.0173883
745.295	0.0174931
745.373	0.0175119
745.451	0.0174141
745.530	0.0172355
745.608	0.0173510
745.686	0.0173713
745.764	0.0173270
745.842	0.0172267
745.920	0.0172147
745.998	0.0171767
746.076	0.0172295
746.155	0.0171377
746.233	0.0172366
746.311	0.0169740
746.389	0.0172085
746.467	0.0173565
746.545	0.0171761
746.623	0.0171665
746.701	0.0172185
746.780	0.0171854
746.858	0.0169802
746.936	0.0171597
747.014	0.0171806
747.092	0.0172944
747.170	0.0172784
747.248	0.0172184
747.326	0.0172655
747.405	0.0172493
747.483	0.0172746
747.561	0.0172764
747.639	0.0173629
747.717	0.0174000
747.795	0.0173341
747.873	0.0174410
747.951	0.0173208
748.030	0.0174258
748.108	0.0174105
748.186	0.0173332
748.264	0.0174100
748.342	0.0173306
748.420	0.0173013
748.498	0.0171558
748.576	0.0170840
748.655	0.0171165
748.733	0.0171500
748.811	0.0171052
748.889	0.0170224
748.967	0.0170672
749.045	0.0170406
749.123	0.0169678
749.201	0.0170381
749.280	0.0169446
749.358	0.0169532
749.436	0.0170797
749.514	0.0170746
749.592	0.0168570
749.670	0.0169019
749.748	0.0170501
749.826	0.0169837
749.905	0.0171806
749.983	0.0170148
750.061	0.0170428
750.139	0.0170636
750.217	0.0171419
750.295	0.0170682
750.373	0.0169749
750.451	0.0172018
750.530	0.0169128
750.608	0.0169633
750.686	0.0168244
750.764	0.0168162
750.842	0.0167035
750.920	0.0167912
750.998	0.0165796
751.076	0.0165946
751.155	0.0165820
751.233	0.0164646
751.311	0.0163841
751.389	0.0164832
751.467	0.0164043
751.545	0.0163840
751.623	0.0167166
751.701	0.0167377
751.780	0.0165717
751.858	0.0167942
751.936	0.0169714
752.014	0.0169968
752.092	0.0171365
752.170	0.0172043
752.248	0.0171708
752.326	0.0171923
752.405	0.0174113
752.483	0.0172287
752.561	0.0174008
752.639	0.0173993
752.717	0.0172865
752.795	0.0173195
752.873	0.0172516
752.951	0.0172293
753.030	0.0171125
753.108	0.0171878
753.186	0.0170107
753.264	0.0169624
753.342	0.0169373
753.420	0.0169739
753.498	0.0169692
753.576	0.0169632
753.655	0.0168187
753.733	0.0168039
753.811	0.0167191
753.889	0.0168623
753.967	0.0168243
754.045	0.0167799
754.123	0.0169025
754.201	0.0169370
754.280	0.0168997
754.358	0.0171812
754.436	0.0170445
754.514	0.0170322
754.592	0.0171645
754.670	0.0171092
754.748	0.0170979
754.826	0.0170345
754.905	0.0171171
754.983	0.0171622
755.061	0.0169951
755.139	0.0171438
755.217	0.0172141
755.295	0.0171930
755.373	0.0169589
755.451	0.0170320
755.530	0.0170531
755.608	0.0170493
755.686	0.0171088
755.764	0.0171292
755.842	0.0169356
755.920	0.0170894
755.998	0.0170507
756.076	0.0169849
756.155	0.0169290
756.233	0.0171488
756.311	0.0171808
756.389	0.0170671
756.467	0.0170043
756.545	0.0170007
756.623	0.0169656
756.701	0.0170404
756.780	0.0170574
756.858	0.0169719
756.936	0.0171373
757.014	0.0171443
757.092	0.0170622
757.170	0.0171484
757.248	0.0170758
757.326	0.0171952
757.405	0.0171687
757.483	0.0172549
757.561	0.0173120
757.639	0.0171924
757.717	0.0173981
757.795	0.0173769
757.873	0.0173338
757.951	0.0174315
758.030	0.0173933
758.108	0.0173768
758.186	0.0173182
758.264	0.0172552
758.342	0.0172467
758.420	0.0172247
758.498	0.0171075
758.576	0.0171204
758.655	0.0172816
758.733	0.0171092
758.811	0.0170695
758.889	0.0170074
758.967	0.0170267
759.045	0.0170828
759.123	0.0170899
759.201	0.0169297
759.280	0.0170303
759.358	0.0172354
759.436	0.0169586
759.514	0.0170037
759.592	0.0170568
759.670	0.0170541
759.748	0.0172834
759.826	0.0172007
759.905	0.0171835
759.983	0.0173190
760.061	0.0173724
760.139	0.0175840
760.217	0.0173946
760.295	0.0173270
760.373	0.0175169
760.451	0.0174172
760.530	0.0173267
760.608	0.0174239
760.686	0.0175160
760.764	0.0172774
760.842	0.0171682
760.920	0.0171769
760.998	0.0171051
761.076	0.0171423
761.155	0.0171515
761.233	0.0170326
761.311	0.0168553
761.389	0.0170034
761.467	0.0169085
761.545	0.0167496
761.623	0.0169073
761.701	0.0168645
761.780	0.0168723
761.858	0.0167822
761.936	0.0170805
762.014	0.0170224
762.092	0.0171716
762.170	0.0171780
762.248	0.0170631
762.326	0.0172263
762.405	0.0172884
762.483	0.0172935
762.561	0.0173596
762.639	0.0172862
762.717	0.0173717
762.795	0.0174799
762.873	0.0174653
762.951	0.0174453
763.030	0.0173714
763.108	0.0174442
763.186	0.0175422
763.264	0.0174201
763.342	0.0174554
763.420	0.0174093
763.498	0.0173734
763.576	0.0172919
763.655	0.0174258
763.733	0.0172602
763.811	0.0171781
763.889	0.0170525
763.967	0.0172352
764.045	0.0170737
764.123	0.0171816
764.201	0.0171393
764.280	0.0168953
764.358	0.0169531
764.436	0.0168546
764.514	0.0167761
764.592	0.0168240
764.670	0.0167721
764.748	0.0167706
764.826	0.0166344
764.905	0.0167696
764.983	0.0166842
765.061	0.0166483
765.139	0.0167319
765.217	0.0167987
765.295	0.0168329
765.373	0.0169241
765.451	0.0168731
765.530	0.0169558
765.608	0.0170743
765.686	0.0170996
765.764	0.0171072
765.842	0.0171275
765.920	0.0172859
765.998	0.0172552
766.076	0.0173874
766.155	0.0172933
766.233	0.0173906
766.311	0.0174367
766.389	0.0172628
766.467	0.0173162
766.545	0.0172638
766.623	0.0173248
766.701	0.0172591
766.780	0.0172723
766.858	0.0172075
766.936	0.0172413
767.014	0.0170364
767.092	0.0171301
767.170	0.0171185
767.248	0.0170046
767.326	0.0169635
767.405	0.0170409
767.483	0.0170725
767.561	0.0171178
767.639	0.0169361
767.717	0.0171361
767.795	0.0171548
767.873	0.0171461
767.951	0.0171883
768.030	0.0173197
768.108	0.0173943
768.186	0.0172073
768.264	0.0171889
768.342	0.0173728
768.420	0.0171999
768.498	0.0172112
768.576	0.0172070
768.655	0.0171568
768.733	0.0171417
768.811	0.0171233
768.889	0.0170459
768.967	0.0170163
769.045	0.0170982
769.123	0.0170480
769.201	0.0168818
769.280	0.0169405
769.358	0.0170818
769.436	0.0170531
769.514	0.0170197
769.592	0.0171723
769.670	0.0172449
769.748	0.0170930
769.826	0.0172687
769.905	0.0171902
769.983	0.0174068
770.061	0.0173383
770.139	0.0173008
770.217	0.0174562
770.295	0.0175822
770.373	0.0174069
770.451	0.0173491
770.530	0.0174639
770.608	0.0175615
770.686	0.0175542
770.764	0.0174070
770.842	0.0174707
770.920	0.0174052
770.998	0.0174349
771.076	0.0174772
771.155	0.0171949
771.233	0.0171237
771.311	0.0171638
771.389	0.0172390
771.467	0.0172125
771.545	0.0171989
771.623	0.0171213
771.701	0.0170371
771.780	0.0170523
771.858	0.0170295
771.936	0.0169670
772.014	0.0169594
772.092	0.0170614
772.170	0.0170213
772.248	0.0170029
772.326	0.0169756
772.405	0.0168367
772.483	0.0169929
772.561	0.0170020
772.639	0.0169887
772.717	0.0170122
772.795	0.0170578
772.873	0.0170116
772.951	0.0168871
773.030	0.0168857
773.108	0.0171418
773.186	0.0169116
773.264	0.0170356
773.342	0.0169825
773.420	0.0169596
773.498	0.0169178
773.576	0.0169045
773.655	0.0170124
773.733	0.0169147
773.811	0.0169729
773.889	0.0170097
773.967	0.0168941
774.045	0.0170353
774.123	0.0170187
774.201	0.0170499
774.280	0.0169798
774.358	0.0170753
774.436	0.0170652
774.514	0.0169331
774.592	0.0170514
774.670	0.0170569
774.748	0.0170748
774.826	0.0169921
774.905	0.0170064
774.983	0.0172365
775.061	0.0170288
775.139	0.0170452
775.217	0.0170786
775.295	0.0170181
775.373	0.0169781
775.451	0.0170155
775.530	0.0170854
775.608	0.0170747
775.686	0.0170914
775.764	0.0169613
775.842	0.0170033
775.920	0.0169401
775.998	0.0170599
776.076	0.0168377
776.155	0.0169253
776.233	0.0170766
776.311	0.0170023
776.389	0.0169778
776.467	0.0171772
776.545	0.0172163
776.623	0.0171234
776.701	0.0172291
776.780	0.0170362
776.858	0.0171734
776.936	0.0171870
777.014	0.0170957
777.092	0.0170231
777.170	0.0170128
777.248	0.0171752
777.326	0.0171923
777.405	0.0171288
777.483	0.0169273
777.561	0.0171685
777.639	0.0172310
777.717	0.0172172
777.795	0.0170496
777.873	0.0171002
777.951	0.0172483
778.030	0.0172208
778.108	0.0170914
778.186	0.0173313
778.264	0.0172688
778.342	0.0172628
778.420	0.0171921
778.498	0.0172831
778.576	0.0172854
778.655	0.0170753
778.733	0.0172280
778.811	0.0173373
778.889	0.0172835
778.967	0.0170380
779.045	0.0169921
779.123	0.0170165
779.201	0.0170976
779.280	0.0170217
779.358	0.0169764
779.436	0.0170522
779.514	0.0170142
779.592	0.0171019
779.670	0.0171291
779.748	0.0170670
779.826	0.0170918
779.905	0.0171151
779.983	0.0170950
780.061	0.0170153
780.139	0.0170824
780.217	0.0170119
780.295	0.0172208
780.373	0.0171297
780.451	0.0170809
780.530	0.0169942
780.608	0.0169250
780.686	0.0172500
780.764	0.0169921
780.842	0.0170939
780.920	0.0170284
780.998	0.0171148
781.076	0.0170295
781.155	0.0169186
781.233	0.0171156
781.311	0.0169534
781.389	0.0169648
781.467	0.0170100
781.545	0.0169865
781.623	0.0169218
781.701	0.0170390
781.780	0.0170851
781.858	0.0169289
781.936	0.0169823
782.014	0.0170525
782.092	0.0170836
782.170	0.0171574
782.248	0.0170649
782.326	0.0170672
782.405	0.0170951
782.483	0.0171369
782.561	0.0171426
782.639	0.0173365
782.717	0.0171306
782.795	0.0172552
782.873	0.0172752
782.951	0.0172546
783.030	0.0172204
783.108	0.0173004
783.186	0.0173405
783.264	0.0173070
783.342	0.0172254
783.420	0.0172813
783.498	0.0172285
783.576	0.0171788
783.655	0.0170290
783.733	0.0171825
783.811	0.0171572
783.889	0.0172056
783.967	0.0170907
784.045	0.0171036
784.123	0.0170723
784.201	0.0171414
784.280	0.0170351
784.358	0.0171351
784.436	0.0170374
784.514	0.0170217
784.592	0.0170340
784.670	0.0170423
784.748	0.0171338
784.826	0.0171376
784.905	0.0172948
784.983	0.0168778
785.061	0.0170230
785.139	0.0171156
785.217	0.0171660
785.295	0.0171328
785.373	0.0171033
785.451	0.0172862
785.530	0.0172267
785.608	0.0171565
785.686	0.0171335
785.764	0.0172983
785.842	0.0173591
785.920	0.0172791
785.998	0.0173225
786.076	0.0173426
786.155	0.0172673
786.233	0.0173862
786.311	0.0173701
786.389	0.0174639
786.467	0.0172674
786.545	0.0172995
786.623	0.0174296
786.701	0.0172379
786.780	0.0173108
786.858	0.0172815
786.936	0.0172042
787.014	0.0172163
787.092	0.0172269
787.170	0.0171490
787.248	0.0170644
787.326	0.0170734
787.405	0.0170346
787.483	0.0170930
787.561	0.0170174
787.639	0.0169936
787.717	0.0169681
787.795	0.0169896
787.873	0.0168705
787.951	0.0168980
788.030	0.0169354
788.108	0.0169066
788.186	0.0168655
788.264	0.0169249
788.342	0.0169076
788.420	0.0169593
788.498	0.0170307
788.576	0.0170667
788.655	0.0170474
788.733	0.0171400
788.811	0.0170242
788.889	0.0170084
788.967	0.0171556
789.045	0.0172828
789.123	0.0172617
789.201	0.0171753
789.280	0.0170339
789.358	0.0173376
789.436	0.0171207
789.514	0.0173048
789.592	0.0173774
789.670	0.0173247
789.748	0.0172168
789.826	0.0170412
789.905	0.0171812
789.983	0.0172819
790.061	0.0173773
790.139	0.0171400
790.217	0.0171953
790.295	0.0171596
790.373	0.0172156
790.451	0.0172993
790.530	0.0173415
790.608	0.0171639
790.686	0.0173397
790.764	0.0173051
790.842	0.0173235
790.920	0.0172465
790.998	0.0173045
791.076	0.0174855
791.155	0.0172671
791.233	0.0172112
791.311	0.0173033
791.389	0.0173427
791.467	0.0172365
791.545	0.0172165
791.623	0.0172938
791.701	0.0170701
791.780	0.0170598
791.858	0.0170712
791.936	0.0172267
792.014	0.0172477
792.092	0.0170449
792.170	0.0169975
792.248	0.0171150
792.326	0.0169741
792.405	0.0169656
792.483	0.0169616
792.561	0.0169888
792.639	0.0170167
792.717	0.0171294
792.795	0.0169432
792.873	0.0169848
792.951	0.0170129
793.030	0.0170926
793.108	0.0171414
793.186	0.0171325
793.264	0.0171988
793.342	0.0173592
793.420	0.0173581
793.498	0.0170947
793.576	0.0172269
793.655	0.0172028
793.733	0.0171812
793.811	0.0172405
793.889	0.0172435
793.967	0.0172945
794.045	0.0172491
794.123	0.0172403
794.201	0.0171351
794.280	0.0171768
794.358	0.0172727
794.436	0.0172826
794.514	0.0173579
794.592	0.0173073
794.670	0.0173216
794.748	0.0173016
794.826	0.0171867
794.905	0.0173525
794.983	0.0173829
795.061	0.0173199
795.139	0.0171967
795.217	0.0171032
795.295	0.0172457
795.373	0.0171429
795.451	0.0173414
795.530	0.0170999
795.608	0.0171183
795.686	0.0171237
795.764	0.0171174
795.842	0.0170839
795.920	0.0169697
795.998	0.0169494
796.076	0.0169920
796.155	0.0169823
796.233	0.0169931
796.311	0.0168801
796.389	0.0169965
796.467	0.0169875
796.545	0.0170040
796.623	0.0169046
796.701	0.0168650
796.780	0.0169553
796.858	0.0169615
796.936	0.0170116
797.014	0.0169792
797.092	0.0169784
797.170	0.0170773
797.248	0.0170150
797.326	0.0170481
797.405	0.0171699
797.483	0.0170354
797.561	0.0170047
797.639	0.0170039
797.717	0.0169463
797.795	0.0169794
797.873	0.0170287
797.951	0.0170626
798.030	0.0170000
798.108	0.0169894
798.186	0.0169789
798.264	0.0168753
798.342	0.0168464
798.420	0.0168588
798.498	0.0170424
798.576	0.0171435
798.655	0.0169630
798.733	0.0170107
798.811	0.0169999
798.889	0.0170671
798.967	0.0170973
799.045	0.0171449
799.123	0.0171958
799.201	0.0171255
799.280	0.0172368
799.358	0.0171952
799.436	0.0173177
799.514	0.0172522
799.592	0.0171463
799.670	0.0173414
799.748	0.0174548
799.826	0.0172906
799.905	0.0174000
799.983	0.0173176
800.061	0.0172791
800.139	0.0173742
800.217	0.0173898
800.295	0.0173097
800.373	0.0173326
800.451	0.0174452
800.530	0.0173148
800.608	0.0173715
800.686	0.0174845
800.764	0.0173289
800.842	0.0172495
800.920	0.0174382
800.998	0.0174270
801.076	0.0172929
801.155	0.0175810
801.233	0.0174736
801.311	0.0174710
801.389	0.0174361
801.467	0.0173573
801.545	0.0173952
801.623	0.0173186
801.701	0.0172915
801.780	0.0174221
801.858	0.0172798
801.936	0.0173304
802.014	0.0173766
802.092	0.0172054
802.170	0.0171835
802.248	0.0170260
802.326	0.0170929
802.405	0.0171861
802.483	0.0170274
802.561	0.0171400
802.639	0.0169727
802.717	0.0169151
802.795	0.0170882
802.873	0.0172052
802.951	0.0171307
803.030	0.0171819
803.108	0.0171595
803.186	0.0170203
803.264	0.0172060
803.342	0.0173055
803.420	0.0172347
803.498	0.0171917
803.576	0.0173347
803.655	0.0172553
803.733	0.0172021
803.811	0.0172392
803.889	0.0170733
803.967	0.0171776
804.045	0.0172112
804.123	0.0170621
804.201	0.0171112
804.280	0.0171310
804.358	0.0171368
804.436	0.0172029
804.514	0.0171492
804.592	0.0171555
804.670	0.0172192
804.748	0.0170798
804.826	0.0171313
804.905	0.0172217
804.983	0.0172493
805.061	0.0173428
805.139	0.0172990
805.217	0.0173377
805.295	0.0172329
805.373	0.0171371
805.451	0.0172398
805.530	0.0174620
805.608	0.0174374
805.686	0.0173892
805.764	0.0173351
805.842	0.0173598
805.920	0.0173728
805.998	0.0172321
806.076	0.0173530
806.155	0.0172146
806.233	0.0172115
806.311	0.0173169
806.389	0.0171515
806.467	0.0170986
806.545	0.0172164
806.623	0.0169864
806.701	0.0171263
806.780	0.0171239
806.858	0.0172050
806.936	0.0171878
807.014	0.0170647
807.092	0.0171803
807.170	0.0172331
807.248	0.0171822
807.326	0.0171870
807.405	0.0172956
807.483	0.0172112
807.561	0.0170551
807.639	0.0172034
807.717	0.0172662
807.795	0.0170296
807.873	0.0170207
807.951	0.0170158
808.030	0.0170908
808.108	0.0170617
808.186	0.0170838
808.264	0.0169960
808.342	0.0170415
808.420	0.0169156
808.498	0.0168546
808.576	0.0168684
808.655	0.0168221
808.733	0.0167445
808.811	0.0167851
808.889	0.0167867
808.967	0.0167159
809.045	0.0168790
809.123	0.0168453
809.201	0.0167955
809.280	0.0166202
809.358	0.0168175
809.436	0.0169135
809.514	0.0170456
809.592	0.0168616
809.670	0.0169662
809.748	0.0168814
809.826	0.0168849
809.905	0.0169979
809.983	0.0169943
810.061	0.0171291
810.139	0.0169667
810.217	0.0171419
810.295	0.0169606
810.373	0.0170831
810.451	0.0172181
810.530	0.0169838
810.608	0.0169555
810.686	0.0169939
810.764	0.0170512
810.842	0.0170207
810.920	0.0169955
810.998	0.0170300
811.076	0.0171467
811.155	0.0170869
811.233	0.0170055
811.311	0.0171750
811.389	0.0171000
811.467	0.0172462
811.545	0.0172888
811.623	0.0173496
811.701	0.0172083
811.780	0.0172724
811.858	0.0173436
811.936	0.0172105
812.014	0.0173695
812.092	0.0171961
812.170	0.0172164
812.248	0.0171761
812.326	0.0173347
812.405	0.0172793
812.483	0.0172807
812.561	0.0174393
812.639	0.0172387
812.717	0.0171020
812.795	0.0172905
812.873	0.0172439
812.951	0.0170861
813.030	0.0171111
813.108	0.0170297
813.186	0.0171864
813.264	0.0172393
813.342	0.0171584
813.420	0.0171497
813.498	0.0172382
813.576	0.0170045
813.655	0.0172218
813.733	0.0171216
813.811	0.0171282
813.889	0.0170766
813.967	0.0170800
814.045	0.0169836
814.123	0.0169931
814.201	0.0169476
814.280	0.0169582
814.358	0.0168810
814.436	0.0170766
814.514	0.0169375
814.592	0.0168769
814.670	0.0168966
814.748	0.0168996
814.826	0.0170150
814.905	0.0169991
814.983	0.0170892
815.061	0.0170364
815.139	0.0170263
815.217	0.0170525
815.295	0.0170510
815.373	0.0170819
815.451	0.0170471
815.530	0.0170303
815.608	0.0170946
815.686	0.0172038
815.764	0.0171502
815.842	0.0169873
815.920	0.0170753
815.998	0.0171448
816.076	0.0171015
816.155	0.0169670
816.233	0.0169314
816.311	0.0170574
816.389	0.0171507
816.467	0.0169977
816.545	0.0169406
816.623	0.0170508
816.701	0.0171111
816.780	0.0170393
816.858	0.0170044
816.936	0.0171342
817.014	0.0170457
817.092	0.0171701
817.170	0.0170317
817.248	0.0170488
817.326	0.0171059
817.405	0.0170831
817.483	0.0170071
817.561	0.0171269
817.639	0.0172215
817.717	0.0170856
817.795	0.0170941
817.873	0.0171992
817.951	0.0172942
818.030	0.0172759
818.108	0.0172277
818.186	0.0172392
818.264	0.0172812
818.342	0.0173189
818.420	0.0172437
818.498	0.0172235
818.576	0.0171646
818.655	0.0172459
818.733	0.0172562
818.811	0.0173207
818.889	0.0171695
818.967	0.0171166
819.045	0.0172021
819.123	0.0172749
819.201	0.0171967
819.280	0.0172054
819.358	0.0170393
819.436	0.0170883
819.514	0.0170925
819.592	0.0171033
819.670	0.0173533
819.748	0.0172556
819.826	0.0173219
819.905	0.0172351
819.983	0.0173014
820.061	0.0172879
820.139	0.0173421
820.217	0.0173783
820.295	0.0173887
820.373	0.0172967
820.451	0.0171778
820.530	0.0172295
820.608	0.0172632
820.686	0.0171387
820.764	0.0169583
820.842	0.0172220
820.920	0.0171510
820.998	0.0171011
821.076	0.0170193
821.155	0.0170766
821.233	0.0169677
821.311	0.0172469
821.389	0.0170317
821.467	0.0168750
821.545	0.0169284
821.623	0.0171761
821.701	0.0170446
821.780	0.0169498
821.858	0.0170729
821.936	0.0170452
822.014	0.0171164
822.092	0.0171113
822.170	0.0171238
822.248	0.0171001
822.326	0.0170725
822.405	0.0171339
822.483	0.0171426
822.561	0.0171698
822.639	0.0171392
822.717	0.0169524
822.795	0.0169775
822.873	0.0171268
822.951	0.0170443
823.030	0.0171082
823.108	0.0171576
823.186	0.0171716
823.264	0.0171515
823.342	0.0170405
823.420	0.0172786
823.498	0.0171979
823.576	0.0171922
823.655	0.0172088
823.733	0.0173048
823.811	0.0173355
823.889	0.0172379
823.967	0.0173264
824.045	0.0172874
824.123	0.0173525
824.201	0.0173466
824.280	0.0172377
824.358	0.0172834
824.436	0.0173418
824.514	0.0174167
824.592	0.0174104
824.670	0.0174185
824.748	0.0174431
824.826	0.0173328
824.905	0.0173879
824.983	0.0174914
825.061	0.0175568
825.139	0.0174361
825.217	0.0174843
825.295	0.0174617
825.373	0.0175560
825.451	0.0174912
825.530	0.0175024
825.608	0.0175764
825.686	0.0175597
825.764	0.0176176
825.842	0.0175076
825.920	0.0174545
825.998	0.0174026
826.076	0.0174489
826.155	0.0176716
826.233	0.0174488
826.311	0.0174657
826.389	0.0173534
826.467	0.0174858
826.545	0.0174466
826.623	0.0174564
826.701	0.0173983
826.780	0.0172810
826.858	0.0174027
826.936	0.0174001
827.014	0.0172005
827.092	0.0172861
827.170	0.0171489
827.248	0.0171203
827.326	0.0170860
827.405	0.0171547
827.483	0.0170924
827.561	0.0171218
827.639	0.0170380
827.717	0.0169229
827.795	0.0169594
827.873	0.0168640
827.951	0.0168701
828.030	0.0168700
828.108	0.0169392
828.186	0.0168687
828.264	0.0169810
828.342	0.0168887
828.420	0.0168467
828.498	0.0169840
828.576	0.0169080
828.655	0.0169591
828.733	0.0169642
828.811	0.0169534
828.889	0.0170180
828.967	0.0169159
829.045	0.0169247
829.123	0.0171360
829.201	0.0170509
829.280	0.0171787
829.358	0.0170199
829.436	0.0170250
829.514	0.0170669
829.592	0.0169252
829.670	0.0170078
829.748	0.0167815
829.826	0.0170735
829.905	0.0170876
829.983	0.0169263
830.061	0.0169970
830.139	0.0169648
830.217	0.0170061
830.295	0.0169705
830.373	0.0170682
830.451	0.0169381
830.530	0.0168008
830.608	0.0170350
830.686	0.0169356
830.764	0.0170126
830.842	0.0169234
830.920	0.0168934
830.998	0.0169442
831.076	0.0168514
831.155	0.0169331
831.233	0.0169177
831.311	0.0167918
831.389	0.0168645
831.467	0.0167247
831.545	0.0168666
831.623	0.0168684
831.701	0.0168456
831.780	0.0170063
831.858	0.0169889
831.936	0.0167870
832.014	0.0168137
832.092	0.0168620
832.170	0.0168076
832.248	0.0167579
832.326	0.0167892
832.405	0.0168237
832.483	0.0169127
832.561	0.0169071
832.639	0.0168545
832.717	0.0167500
832.795	0.0167419
832.873	0.0167481
832.951	0.0166752
833.030	0.0167519
833.108	0.0168867
833.186	0.0168018
833.264	0.0170468
833.342	0.0167390
833.420	0.0168194
833.498	0.0168901
833.576	0.0169360
833.655	0.0169669
833.733	0.0169919
833.811	0.0170741
833.889	0.0170872
833.967	0.0169791
834.045	0.0170612
834.123	0.0170565
834.201	0.0169107
834.280	0.0170011
834.358	0.0170010
834.436	0.0170184
834.514	0.0169849
834.592	0.0169717
834.670	0.0169550
834.748	0.0168308
834.826	0.0168879
834.905	0.0171532
834.983	0.0169026
835.061	0.0169748
835.139	0.0169722
835.217	0.0168401
835.295	0.0169228
835.373	0.0169204
835.451	0.0171444
835.530	0.0169570
835.608	0.0170200
835.686	0.0169342
835.764	0.0170033
835.842	0.0171029
835.920	0.0170435
835.998	0.0169022
836.076	0.0169962
836.155	0.0170761
836.233	0.0169727
836.311	0.0169424
836.389	0.0171660
836.467	0.0171435
836.545	0.0169028
836.623	0.0170404
836.701	0.0171671
836.780	0.0172714
836.858	0.0172618
836.936	0.0172366
837.014	0.0172551
837.092	0.0172932
837.170	0.0172367
837.248	0.0172453
837.326	0.0172362
837.405	0.0172303
837.483	0.0172141
837.561	0.0173488
837.639	0.0172974
837.717	0.0171458
837.795	0.0173073
837.873	0.0172619
837.951	0.0172002
838.030	0.0171499
838.108	0.0173291
838.186	0.0172444
838.264	0.0171286
838.342	0.0172836
838.420	0.0170944
838.498	0.0173090
838.576	0.0172039
838.655	0.0172834
838.733	0.0171098
838.811	0.0171135
838.889	0.0171869
838.967	0.0172935
839.045	0.0172889
839.123	0.0172646
839.201	0.0171303
839.280	0.0172094
839.358	0.0173568
839.436	0.0173887
839.514	0.0172412
839.592	0.0172387
839.670	0.0171207
839.748	0.0171779
839.826	0.0169945
839.905	0.0171021
839.983	0.0170109
840.061	0.0169795
840.139	0.0169375
840.217	0.0169733
840.295	0.0170139
840.373	0.0169990
840.451	0.0170393
840.530	0.0169920
840.608	0.0172543
840.686	0.0169807
840.764	0.0170445
840.842	0.0172629
840.920	0.0171933
840.998	0.0171200
841.076	0.0172807
841.155	0.0173103
841.233	0.0172534
841.311	0.0173109
841.389	0.0173024
841.467	0.0173900
841.545	0.0172250
841.623	0.0173420
841.701	0.0172253
841.780	0.0173180
841.858	0.0172334
841.936	0.0173269
842.014	0.0172719
842.092	0.0171687
842.170	0.0171845
842.248	0.0170706
842.326	0.0171616
842.405	0.0171059
842.483	0.0170496
842.561	0.0169308
842.639	0.0170002
842.717	0.0168517
842.795	0.0169669
842.873	0.0170004
842.951	0.0169005
843.030	0.0170127
843.108	0.0169788
843.186	0.0169514
843.264	0.0169460
843.342	0.0170250
843.420	0.0171386
843.498	0.0169785
843.576	0.0170740
843.655	0.0169296
843.733	0.0169625
843.811	0.0170766
843.889	0.0170770
843.967	0.0170935
844.045	0.0170789
844.123	0.0170568
844.201	0.0172150
844.280	0.0171269
844.358	0.0172176
844.436	0.0170606
844.514	0.0172215
844.592	0.0171198
844.670	0.0171950
844.748	0.0172862
844.826	0.0172782
844.905	0.0172700
844.983	0.0172623
845.061	0.0173079
845.139	0.0172291
845.217	0.0173237
845.295	0.0174237
845.373	0.0174288
845.451	0.0172634
845.530	0.0173377
845.608	0.0173069
845.686	0.0173686
845.764	0.0172328
845.842	0.0173653
845.920	0.0173077
845.998	0.0171780
846.076	0.0171362
846.155	0.0170461
846.233	0.0172494
846.311	0.0171350
846.389	0.0171880
846.467	0.0171457
846.545	0.0171295
846.623	0.0172095
846.701	0.0172330
846.780	0.0172013
846.858	0.0171278
846.936	0.0172234
847.014	0.0172370
847.092	0.0172449
847.170	0.0170959
847.248	0.0171777
847.326	0.0171996
847.405	0.0169538
847.483	0.0171605
847.561	0.0172164
847.639	0.0171532
847.717	0.0170781
847.795	0.0170676
847.873	0.0169347
847.951	0.0171487
848.030	0.0171871
848.108	0.0170605
848.186	0.0170959
848.264	0.0172337
848.342	0.0170731
848.420	0.0170899
848.498	0.0171367
848.576	0.0170487
848.655	0.0170281
848.733	0.0172143
848.811	0.0172301
848.889	0.0172920
848.967	0.0173132
849.045	0.0170916
849.123	0.0171530
849.201	0.0173466
849.280	0.0172094
849.358	0.0173386
849.436	0.0172914
849.514	0.0172678
849.592	0.0172394
849.670	0.0173475
849.748	0.0172025
849.826	0.0170872
849.905	0.0171756
849.983	0.0172263
850.061	0.0172688
850.139	0.0171679
850.217	0.0170889
850.295	0.0170895
850.373	0.0170566
850.451	0.0170653
850.530	0.0170278
850.608	0.0170041
850.686	0.0170423
850.764	0.0170842
850.842	0.0171268
850.920	0.0169363
850.998	0.0170441
851.076	0.0169807
851.155	0.0169443
851.233	0.0167587
851.311	0.0169657
851.389	0.0169740
851.467	0.0169236
851.545	0.0167928
851.623	0.0168838
851.701	0.0169656
851.780	0.0170296
851.858	0.0168043
851.936	0.0170284
852.014	0.0169379
852.092	0.0168909
852.170	0.0169337
852.248	0.0169441
852.326	0.0169280
852.405	0.0169624
852.483	0.0169838
852.561	0.0170477
852.639	0.0169374
852.717	0.0168849
852.795	0.0170325
852.873	0.0169205
852.951	0.0170080
853.030	0.0169334
853.108	0.0170033
853.186	0.0168903
853.264	0.0169318
853.342	0.0170193
853.420	0.0168967
853.498	0.0170530
853.576	0.0170738
853.655	0.0169532
853.733	0.0170400
853.811	0.0170844
853.889	0.0170819
853.967	0.0169592
854.045	0.0169864
854.123	0.0169059
854.201	0.0170297
854.280	0.0169727
854.358	0.0168988
854.436	0.0168773
854.514	0.0170004
854.592	0.0170007
854.670	0.0169098
854.748	0.0169556
854.826	0.0170712
854.905	0.0170160
854.983	0.0171483
855.061	0.0169907
855.139	0.0170168
855.217	0.0172219
855.295	0.0170663
855.373	0.0170536
855.451	0.0170108
855.530	0.0169943
855.608	0.0170701
855.686	0.0170750
855.764	0.0171063
855.842	0.0171298
855.920	0.0170943
855.998	0.0170121
856.076	0.0170720
856.155	0.0171545
856.233	0.0171039
856.311	0.0170524
856.389	0.0171054
856.467	0.0170531
856.545	0.0170644
856.623	0.0170502
856.701	0.0171211
856.780	0.0171857
856.858	0.0171474
856.936	0.0171330
857.014	0.0171780
857.092	0.0171543
857.170	0.0172498
857.248	0.0173207
857.326	0.0172054
857.405	0.0173095
857.483	0.0171865
857.561	0.0172266
857.639	0.0171449
857.717	0.0170493
857.795	0.0173139
857.873	0.0171505
857.951	0.0171233
858.030	0.0172211
858.108	0.0170422
858.186	0.0169868
858.264	0.0170553
858.342	0.0170481
858.420	0.0171333
858.498	0.0168579
858.576	0.0167719
858.655	0.0169653
858.733	0.0169073
858.811	0.0168999
858.889	0.0167878
858.967	0.0168676
859.045	0.0169168
859.123	0.0168919
859.201	0.0170596
859.280	0.0169527
859.358	0.0169454
859.436	0.0170587
859.514	0.0170184
859.592	0.0169041
859.670	0.0169825
859.748	0.0170437
859.826	0.0171368
859.905	0.0170750
859.983	0.0170576
860.061	0.0171550
860.139	0.0172269
860.217	0.0172913
860.295	0.0172566
860.373	0.0173771
860.451	0.0173084
860.530	0.0171725
860.608	0.0173238
860.686	0.0173667
860.764	0.0174253
860.842	0.0173641
860.920	0.0174004
860.998	0.0174127
861.076	0.0172931
861.155	0.0173703
861.233	0.0172543
861.311	0.0173219
861.389	0.0173058
861.467	0.0174901
861.545	0.0173635
861.623	0.0173274
861.701	0.0173441
861.780	0.0173809
861.858	0.0172859
861.936	0.0171784
862.014	0.0172557
862.092	0.0172292
862.170	0.0171116
862.248	0.0172247
862.326	0.0172265
862.405	0.0171510
862.483	0.0171835
862.561	0.0170653
862.639	0.0169094
862.717	0.0171764
862.795	0.0170915
862.873	0.0170395
862.951	0.0170453
863.030	0.0171540
863.108	0.0169122
863.186	0.0169939
863.264	0.0171101
863.342	0.0170921
863.420	0.0170847
863.498	0.0171819
863.576	0.0170625
863.655	0.0171894
863.733	0.0172547
863.811	0.0171802
863.889	0.0170259
863.967	0.0172378
864.045	0.0172791
864.123	0.0171643
864.201	0.0173206
864.280	0.0172322
864.358	0.0171658
864.436	0.0173483
864.514	0.0172598
864.592	0.0172198
864.670	0.0171716
864.748	0.0172234
864.826	0.0173376
864.905	0.0171989
864.983	0.0170133
865.061	0.0171428
865.139	0.0170493
865.217	0.0172418
865.295	0.0172581
865.373	0.0170412
865.451	0.0171895
865.530	0.0171692
865.608	0.0171928
865.686	0.0171387
865.764	0.0172306
865.842	0.0171510
865.920	0.0170442
865.998	0.0171063
866.076	0.0173018
866.155	0.0171590
866.233	0.0169924
866.311	0.0172645
866.389	0.0172957
866.467	0.0170837
866.545	0.0171291
866.623	0.0171453
866.701	0.0172559
866.780	0.0171693
866.858	0.0170632
866.936	0.0171218
867.014	0.0171793
867.092	0.0170937
867.170	0.0172075
867.248	0.0172283
867.326	0.0172128
867.405	0.0171574
867.483	0.0171630
867.561	0.0169886
867.639	0.0171330
867.717	0.0170341
867.795	0.0170727
867.873	0.0171826
867.951	0.0170786
868.030	0.0171234
868.108	0.0170412
868.186	0.0170113
868.264	0.0170615
868.342	0.0170992
868.420	0.0171704
868.498	0.0170475
868.576	0.0171471
868.655	0.0171579
868.733	0.0171738
868.811	0.0170992
868.889	0.0170270
868.967	0.0171043
869.045	0.0170979
869.123	0.0170094
869.201	0.0171243
869.280	0.0171883
869.358	0.0170646
869.436	0.0171053
869.514	0.0170550
869.592	0.0171449
869.670	0.0171692
869.748	0.0169930
869.826	0.0170810
869.905	0.0169996
869.983	0.0171699
870.061	0.0169678
870.139	0.0169856
870.217	0.0168101
870.295	0.0168775
870.373	0.0171193
870.451	0.0170695
870.530	0.0170428
870.608	0.0168771
870.686	0.0169212
870.764	0.0170837
870.842	0.0169969
870.920	0.0168874
870.998	0.0170043
871.076	0.0169337
871.155	0.0169392
871.233	0.0169910
871.311	0.0169117
871.389	0.0167979
871.467	0.0168533
871.545	0.0169586
871.623	0.0168313
871.701	0.0167810
871.780	0.0168108
871.858	0.0168891
871.936	0.0168277
872.014	0.0169486
872.092	0.0169682
872.170	0.0168826
872.248	0.0169653
872.326	0.0169350
872.405	0.0170197
872.483	0.0168423
872.561	0.0169458
872.639	0.0170071
872.717	0.0169071
872.795	0.0171013
872.873	0.0172755
872.951	0.0171511
873.030	0.0172317
873.108	0.0171178
873.186	0.0171089
873.264	0.0171450
873.342	0.0171518
873.420	0.0171405
873.498	0.0171626
873.576	0.0172513
873.655	0.0170238
873.733	0.0171761
873.811	0.0172321
873.889	0.0172826
873.967	0.0172940
874.045	0.0170590
874.123	0.0170573
874.201	0.0171046
874.280	0.0171811
874.358	0.0172662
874.436	0.0171696
874.514	0.0171142
874.592	0.0170186
874.670	0.0169966
874.748	0.0171198
874.826	0.0170454
874.905	0.0171233
874.983	0.0170491
875.061	0.0170644
875.139	0.0170036
875.217	0.0171199
875.295	0.0171760
875.373	0.0169070
875.451	0.0170602
875.530	0.0171043
875.608	0.0169763
875.686	0.0172092
875.764	0.0170444
875.842	0.0170946
875.920	0.0171117
875.998	0.0170888
876.076	0.0170996
876.155	0.0170334
876.233	0.0170796
876.311	0.0171017
876.389	0.0170092
876.467	0.0171568
876.545	0.0171781
876.623	0.0170696
876.701	0.0171951
876.780	0.0172462
876.858	0.0171584
876.936	0.0172166
877.014	0.0171858
877.092	0.0172208
877.170	0.0172414
877.248	0.0172410
877.326	0.0171648
877.405	0.0172147
877.483	0.0171361
877.561	0.0172598
877.639	0.0172808
877.717	0.0172389
877.795	0.0172684
877.873	0.0172648
877.951	0.0173037
878.030	0.0171745
878.108	0.0170369
878.186	0.0171607
878.264	0.0170192
878.342	0.0170927
878.420	0.0170890
878.498	0.0170426
878.576	0.0169415
878.655	0.0170114
878.733	0.0170502
878.811	0.0170337
878.889	0.0170856
878.967	0.0170006
879.045	0.0170543
879.123	0.0169738
879.201	0.0169117
879.280	0.0170011
879.358	0.0170263
879.436	0.0170731
879.514	0.0169735
879.592	0.0169273
879.670	0.0171780
879.748	0.0170748
879.826	0.0171616
879.905	0.0172493
879.983	0.0172768
880.061	0.0173512
880.139	0.0171588
880.217	0.0171815
880.295	0.0172533
880.373	0.0173390
880.451	0.0174014
880.530	0.0173045
880.608	0.0173677
880.686	0.0172440
880.764	0.0172909
880.842	0.0172582
880.920	0.0171610
880.998	0.0172795
881.076	0.0173375
881.155	0.0172144
881.233	0.0173380
881.311	0.0171063
881.389	0.0172360
881.467	0.0172446
881.545	0.0171525
881.623	0.0170333
881.701	0.0171206
881.780	0.0171648
881.858	0.0172681
881.936	0.0170733
882.014	0.0171208
882.092	0.0170927
882.170	0.0170393
882.248	0.0170697
882.326	0.0171349
882.405	0.0170589
882.483	0.0169512
882.561	0.0169811
882.639	0.0169973
882.717	0.0170623
882.795	0.0170493
882.873	0.0169222
882.951	0.0170383
883.030	0.0169767
883.108	0.0169856
883.186	0.0171493
883.264	0.0171200
883.342	0.0171266
883.420	0.0170595
883.498	0.0170018
883.576	0.0170945
883.655	0.0170604
883.733	0.0171745
883.811	0.0170618
883.889	0.0170686
883.967	0.0171262
884.045	0.0171361
884.123	0.0171140
884.201	0.0170072
884.280	0.0170836
884.358	0.0171089
884.436	0.0171271
884.514	0.0170665
884.592	0.0171165
884.670	0.0170031
884.748	0.0170148
884.826	0.0170642
884.905	0.0170725
884.983	0.0170991
885.061	0.0171055
885.139	0.0171894
885.217	0.0171373
885.295	0.0170985
885.373	0.0170515
885.451	0.0172608
885.530	0.0171985
885.608	0.0172109
885.686	0.0172778
885.764	0.0171236
885.842	0.0171324
885.920	0.0171661
885.998	0.0171038
886.076	0.0171956
886.155	0.0172189
886.233	0.0171575
886.311	0.0171750
886.389	0.0170886
886.467	0.0170323
886.545	0.0172173
886.623	0.0171523
886.701	0.0170995
886.780	0.0170235
886.858	0.0170170
886.936	0.0170576
887.014	0.0172216
887.092	0.0170410
887.170	0.0170126
887.248	0.0169850
887.326	0.0171552
887.405	0.0169443
887.483	0.0169242
887.561	0.0173029
887.639	0.0171364
887.717	0.0170525
887.795	0.0171872
887.873	0.0169570
887.951	0.0171059
888.030	0.0171407
888.108	0.0170045
888.186	0.0168472
888.264	0.0170595
888.342	0.0170104
888.420	0.0170959
888.498	0.0170170
888.576	0.0171515
888.655	0.0170686
888.733	0.0171689
888.811	0.0171452
888.889	0.0172157
888.967	0.0171635
889.045	0.0170902
889.123	0.0171108
889.201	0.0171775
889.280	0.0171984
889.358	0.0171229
889.436	0.0170700
889.514	0.0171174
889.592	0.0171935
889.670	0.0170896
889.748	0.0171938
889.826	0.0171409
889.905	0.0171653
889.983	0.0170423
890.061	0.0171228
890.139	0.0170509
890.217	0.0170482
890.295	0.0170937
890.373	0.0171517
890.451	0.0170777
890.530	0.0170547
890.608	0.0170592
890.686	0.0169029
890.764	0.0170910
890.842	0.0170310
890.920	0.0170216
890.998	0.0170898
891.076	0.0169942
891.155	0.0170880
891.233	0.0169899
891.311	0.0170089
891.389	0.0170064
891.467	0.0168702
891.545	0.0170670
891.623	0.0172276
891.701	0.0169504
891.780	0.0170392
891.858	0.0171949
891.936	0.0171037
892.014	0.0170824
892.092	0.0171448
892.170	0.0169668
892.248	0.0172069
892.326	0.0171712
892.405	0.0170380
892.483	0.0171205
892.561	0.0173830
892.639	0.0171551
892.717	0.0171606
892.795	0.0171626
892.873	0.0173171
892.951	0.0171632
893.030	0.0172694
893.108	0.0171632
893.186	0.0171458
893.264	0.0172923
893.342	0.0171720
893.420	0.0171561
893.498	0.0173018
893.576	0.0171198
893.655	0.0171191
893.733	0.0172881
893.811	0.0170525
893.889	0.0170889
893.967	0.0172668
894.045	0.0171560
894.123	0.0171825
894.201	0.0171938
894.280	0.0170448
894.358	0.0170788
894.436	0.0171330
894.514	0.0171431
894.592	0.0170922
894.670	0.0170777
894.748	0.0171473
894.826	0.0172282
894.905	0.0170554
894.983	0.0171131
895.061	0.0170295
895.139	0.0171269
895.217	0.0172369
895.295	0.0171391
895.373	0.0171162
895.451	0.0170345
895.530	0.0170034
895.608	0.0171557
895.686	0.0170798
895.764	0.0170583
895.842	0.0170200
895.920	0.0170481
895.998	0.0169996
896.076	0.0170054
896.155	0.0171400
896.233	0.0170826
896.311	0.0168179
896.389	0.0170680
896.467	0.0170548
896.545	0.0169823
896.623	0.0169461
896.701	0.0169492
896.780	0.0171407
896.858	0.0170290
896.936	0.0170324
897.014	0.0169648
897.092	0.0171076
897.170	0.0170018
897.248	0.0170143
897.326	0.0171712
897.405	0.0171298
897.483	0.0170504
897.561	0.0172370
897.639	0.0170747
897.717	0.0171601
897.795	0.0171058
897.873	0.0170997
897.951	0.0171601
898.030	0.0172401
898.108	0.0172245
898.186	0.0171185
898.264	0.0171576
898.342	0.0170596
898.420	0.0170557
898.498	0.0170909
898.576	0.0171149
898.655	0.0171095
898.733	0.0170403
898.811	0.0169749
898.889	0.0169569
898.967	0.0169535
899.045	0.0168926
899.123	0.0167992
899.201	0.0168585
899.280	0.0168542
899.358	0.0169706
899.436	0.0169981
899.514	0.0168918
899.592	0.0169006
899.670	0.0168208
899.748	0.0169215
899.826	0.0169899
899.905	0.0168989
899.983	0.0169356
900.061	0.0170490
900.139	0.0169099
900.217	0.0168829
900.295	0.0170854
900.373	0.0170293
900.451	0.0170146
900.530	0.0170741
900.608	0.0169192
900.686	0.0169809
900.764	0.0171206
900.842	0.0170464
900.920	0.0171242
900.998	0.0169630
901.076	0.0169176
901.155	0.0172790
901.233	0.0171165
901.311	0.0171271
901.389	0.0171376
901.467	0.0172525
901.545	0.0171502
901.623	0.0172498
901.701	0.0170112
901.780	0.0170260
901.858	0.0171286
901.936	0.0171632
902.014	0.0170934
902.092	0.0171944
902.170	0.0172691
902.248	0.0171075
902.326	0.0171625
902.405	0.0172663
902.483	0.0172491
902.561	0.0172506
902.639	0.0171029
902.717	0.0171233
902.795	0.0171062
902.873	0.0172228
902.951	0.0171684
903.030	0.0170892
903.108	0.0172290
903.186	0.0172188
903.264	0.0170641
903.342	0.0170657
903.420	0.0170892
903.498	0.0170632
903.576	0.0172102
903.655	0.0172512
903.733	0.0171339
903.811	0.0170939
903.889	0.0171864
903.967	0.0172361
904.045	0.0171666
904.123	0.0172375
904.201	0.0170168
904.280	0.0172694
904.358	0.0171476
904.436	0.0172053
904.514	0.0172501
904.592	0.0170927
904.670	0.0171484
904.748	0.0172011
904.826	0.0172324
904.905	0.0172404
904.983	0.0172096
905.061	0.0171867
905.139	0.0171777
905.217	0.0171394
905.295	0.0171135
905.373	0.0171608
905.451	0.0170787
905.530	0.0170610
905.608	0.0169757
905.686	0.0172193
905.764	0.0171437
905.842	0.0171815
905.920	0.0171346
905.998	0.0170703
906.076	0.0171559
906.155	0.0171099
906.233	0.0172205
906.311	0.0172875
906.389	0.0172781
906.467	0.0172459
906.545	0.0173132
906.623	0.0171127
906.701	0.0172842
906.780	0.0171808
906.858	0.0172343
906.936	0.0170979
907.014	0.0170297
907.092	0.0172443
907.170	0.0170683
907.248	0.0170928
907.326	0.0171172
907.405	0.0169812
907.483	0.0170027
907.561	0.0171103
907.639	0.0170782
907.717	0.0170329
907.795	0.0169955
907.873	0.0171732
907.951	0.0171726
908.030	0.0171774
908.108	0.0172225
908.186	0.0170753
908.264	0.0171494
908.342	0.0170905
908.420	0.0171664
908.498	0.0173433
908.576	0.0171902
908.655	0.0171613
908.733	0.0170441
908.811	0.0171757
908.889	0.0172231
908.967	0.0171498
909.045	0.0171120
909.123	0.0171474
909.201	0.0171407
909.280	0.0173647
909.358	0.0172049
909.436	0.0172042
909.514	0.0172683
909.592	0.0170726
909.670	0.0172017
909.748	0.0171916
909.826	0.0170230
909.905	0.0171860
909.983	0.0172989
910.061	0.0171311
910.139	0.0170473
910.217	0.0171605
910.295	0.0170643
910.373	0.0169277
910.451	0.0170261
910.530	0.0168804
910.608	0.0169736
910.686	0.0171392
910.764	0.0168723
910.842	0.0169298
910.920	0.0169854
910.998	0.0169415
911.076	0.0171033
911.155	0.0170753
911.233	0.0170535
911.311	0.0169370
911.389	0.0169641
911.467	0.0169976
911.545	0.0169073
911.623	0.0169926
911.701	0.0170753
911.780	0.0170431
911.858	0.0168927
911.936	0.0171454
912.014	0.0170532
912.092	0.0168995
912.170	0.0172377
912.248	0.0169738
912.326	0.0168855
912.405	0.0169855
912.483	0.0168723
912.561	0.0169894
912.639	0.0170234
912.717	0.0169824
912.795	0.0171577
912.873	0.0169959
912.951	0.0170745
913.030	0.0170760
913.108	0.0171638
913.186	0.0170879
913.264	0.0171809
913.342	0.0171370
913.420	0.0171220
913.498	0.0171680
913.576	0.0170842
913.655	0.0171754
913.733	0.0173266
913.811	0.0172038
913.889	0.0171476
913.967	0.0171968
914.045	0.0172524
914.123	0.0171202
914.201	0.0171362
914.280	0.0171008
914.358	0.0171101
914.436	0.0171741
914.514	0.0171741
914.592	0.0170947
914.670	0.0171947
914.748	0.0170894
914.826	0.0172044
914.905	0.0171678
914.983	0.0171006
915.061	0.0171420
915.139	0.0171661
915.217	0.0172402
915.295	0.0171904
915.373	0.0172467
915.451	0.0171663
915.530	0.0171583
915.608	0.0172095
915.686	0.0171398
915.764	0.0172697
915.842	0.0171635
915.920	0.0172399
915.998	0.0171078
916.076	0.0172520
916.155	0.0171675
916.233	0.0172345
916.311	0.0171874
916.389	0.0171609
916.467	0.0172276
916.545	0.0172584
916.623	0.0171230
916.701	0.0171915
916.780	0.0171512
916.858	0.0172704
916.936	0.0172249
917.014	0.0172515
917.092	0.0171900
917.170	0.0171566
917.248	0.0172537
917.326	0.0172852
917.405	0.0171740
917.483	0.0172372
917.561	0.0172133
917.639	0.0172794
917.717	0.0173038
917.795	0.0171746
917.873	0.0174277
917.951	0.0173096
918.030	0.0172337
918.108	0.0170954
918.186	0.0170885
918.264	0.0171139
918.342	0.0171435
918.420	0.0171960
918.498	0.0171127
918.576	0.0171211
918.655	0.0170892
918.733	0.0170892
918.811	0.0171870
918.889	0.0171291
918.967	0.0171311
919.045	0.0169783
919.123	0.0170663
919.201	0.0171042
919.280	0.0170757
919.358	0.0170422
919.436	0.0170064
919.514	0.0169312
919.592	0.0170305
919.670	0.0171024
919.748	0.0171456
919.826	0.0171210
919.905	0.0171056
919.983	0.0171136
920.061	0.0169452
920.139	0.0170000
920.217	0.0170750
920.295	0.0169974
920.373	0.0171323
920.451	0.0171205
920.530	0.0171466
920.608	0.0171642
920.686	0.0170600
920.764	0.0171275
920.842	0.0172733
920.920	0.0172144
920.998	0.0171104
921.076	0.0170772
921.155	0.0170679
921.233	0.0170014
921.311	0.0169777
921.389	0.0170424
921.467	0.0170657
921.545	0.0170196
921.623	0.0171941
921.701	0.0171124
921.780	0.0170388
921.858	0.0171741
921.936	0.0173314
922.014	0.0171558
922.092	0.0171670
922.170	0.0172260
922.248	0.0171505
922.326	0.0171503
922.405	0.0172594
922.483	0.0173090
922.561	0.0172009
922.639	0.0172002
922.717	0.0171775
922.795	0.0173681
922.873	0.0173357
922.951	0.0171231
923.030	0.0172742
923.108	0.0171190
923.186	0.0173507
923.264	0.0172422
923.342	0.0171595
923.420	0.0171205
923.498	0.0171996
923.576	0.0173127
923.655	0.0173925
923.733	0.0172324
923.811	0.0172565
923.889	0.0173039
923.967	0.0172019
924.045	0.0171555
924.123	0.0171813
924.201	0.0172369
924.280	0.0173244
924.358	0.0171299
924.436	0.0172359
924.514	0.0171265
924.592	0.0170742
924.670	0.0171974
924.748	0.0170381
924.826	0.0172221
924.905	0.0172636
924.983	0.0169592
925.061	0.0170434
925.139	0.0171645
925.217	0.0172305
925.295	0.0170888
925.373	0.0171027
925.451	0.0171334
925.530	0.0170666
925.608	0.0170975
925.686	0.0170360
925.764	0.0170627
925.842	0.0170933
925.920	0.0170297
925.998	0.0169725
926.076	0.0171130
926.155	0.0171445
926.233	0.0171426
926.311	0.0170915
926.389	0.0170155
926.467	0.0170419
926.545	0.0171307
926.623	0.0171326
926.701	0.0169933
926.780	0.0171433
926.858	0.0171291
926.936	0.0172295
927.014	0.0173028
927.092	0.0170525
927.170	0.0170660
927.248	0.0171688
927.326	0.0171935
927.405	0.0171812
927.483	0.0170503
927.561	0.0170016
927.639	0.0171193
927.717	0.0171460
927.795	0.0170612
927.873	0.0170207
927.951	0.0171528
928.030	0.0171536
928.108	0.0171011
928.186	0.0171270
928.264	0.0171274
928.342	0.0170955
928.420	0.0171043
928.498	0.0172356
928.576	0.0171358
928.655	0.0171263
928.733	0.0171908
928.811	0.0171472
928.889	0.0172731
928.967	0.0172222
929.045	0.0172674
929.123	0.0174200
929.201	0.0171638
929.280	0.0171692
929.358	0.0170271
929.436	0.0170148
929.514	0.0170101
929.592	0.0170712
929.670	0.0170747
929.748	0.0171765
929.826	0.0171260
929.905	0.0170037
929.983	0.0170038
930.061	0.0171606
930.139	0.0171042
930.217	0.0170854
930.295	0.0170689
930.373	0.0170635
930.451	0.0170662
930.530	0.0171555
930.608	0.0170634
930.686	0.0170551
930.764	0.0171839
930.842	0.0173109
930.920	0.0170148
930.998	0.0171017
931.076	0.0171545
931.155	0.0170840
931.233	0.0171012
931.311	0.0170473
931.389	0.0171579
931.467	0.0170357
931.545	0.0169894
931.623	0.0170261
931.701	0.0169507
931.780	0.0169502
931.858	0.0169397
931.936	0.0168773
932.014	0.0169779
932.092	0.0170166
932.170	0.0169286
932.248	0.0168710
932.326	0.0168961
932.405	0.0170053
932.483	0.0169375
932.561	0.0168732
932.639	0.0169872
932.717	0.0168842
932.795	0.0168566
932.873	0.0169063
932.951	0.0170209
933.030	0.0170924
933.108	0.0171343
933.186	0.0168853
933.264	0.0170083
933.342	0.0171385
933.420	0.0170647
933.498	0.0170939
933.576	0.0170432
933.655	0.0171842
933.733	0.0171684
933.811	0.0171192
933.889	0.0171074
933.967	0.0171644
934.045	0.0170352
934.123	0.0171514
934.201	0.0171104
934.280	0.0171134
934.358	0.0172761
934.436	0.0170988
934.514	0.0171738
934.592	0.0171294
934.670	0.0171032
934.748	0.0171633
934.826	0.0172226
934.905	0.0171833
934.983	0.0171764
935.061	0.0171530
935.139	0.0170344
935.217	0.0172881
935.295	0.0173391
935.373	0.0171364
935.451	0.0172182
935.530	0.0172313
935.608	0.0172523
935.686	0.0173560
935.764	0.0173179
935.842	0.0172372
935.920	0.0172952
935.998	0.0173957
936.076	0.0172885
936.155	0.0173346
936.233	0.0173975
936.311	0.0173657
936.389	0.0172155
936.467	0.0172829
936.545	0.0173209
936.623	0.0173666
936.701	0.0173173
936.780	0.0172888
936.858	0.0171976
936.936	0.0172446
937.014	0.0172222
937.092	0.0172508
937.170	0.0171216
937.248	0.0172060
937.326	0.0171288
937.405	0.0172311
937.483	0.0171288
937.561	0.0172118
937.639	0.0173247
937.717	0.0171368
937.795	0.0170497
937.873	0.0171907
937.951	0.0171574
938.030	0.0170801
938.108	0.0170509
938.186	0.0171053
938.264	0.0170641
938.342	0.0171195
938.420	0.0171426
938.498	0.0172893
938.576	0.0172394
938.655	0.0171786
938.733	0.0171897
938.811	0.0172137
938.889	0.0172636
938.967	0.0172192
939.045	0.0171667
939.123	0.0174043
939.201	0.0173308
939.280	0.0173115
939.358	0.0173383
939.436	0.0172754
939.514	0.0172983
939.592	0.0173067
939.670	0.0172797
939.748	0.0172013
939.826	0.0171928
939.905	0.0172106
939.983	0.0173634
940.061	0.0172266
940.139	0.0172684
940.217	0.0172427
940.295	0.0172148
940.373	0.0171264
940.451	0.0172348
940.530	0.0171556
940.608	0.0171310
940.686	0.0171215
940.764	0.0171764
940.842	0.0172353
940.920	0.0172369
940.998	0.0170747
941.076	0.0170768
941.155	0.0170589
941.233	0.0170644
941.311	0.0170804
941.389	0.0169635
941.467	0.0169928
941.545	0.0170720
941.623	0.0170876
941.701	0.0169351
941.780	0.0170846
941.858	0.0170782
941.936	0.0169614
942.014	0.0169952
942.092	0.0170681
942.170	0.0171703
942.248	0.0171657
942.326	0.0171464
942.405	0.0171587
942.483	0.0171577
942.561	0.0169766
942.639	0.0170440
942.717	0.0170849
942.795	0.0171460
942.873	0.0171763
942.951	0.0171629
943.030	0.0170305
943.108	0.0172441
943.186	0.0172208
943.264	0.0171564
943.342	0.0172926
943.420	0.0173468
943.498	0.0172927
943.576	0.0171152
943.655	0.0173792
943.733	0.0172223
943.811	0.0172814
943.889	0.0171555
943.967	0.0172754
944.045	0.0173186
944.123	0.0172394
944.201	0.0172380
944.280	0.0172352
944.358	0.0171723
944.436	0.0174149
944.514	0.0172243
944.592	0.0172285
944.670	0.0172187
944.748	0.0171383
944.826	0.0172131
944.905	0.0172635
944.983	0.0172430
945.061	0.0172646
945.139	0.0172655
945.217	0.0173066
945.295	0.0172866
945.373	0.0172906
945.451	0.0170577
945.530	0.0172841
945.608	0.0172175
945.686	0.0173008
945.764	0.0172337
945.842	0.0172462
945.920	0.0173576
945.998	0.0171951
946.076	0.0172266
946.155	0.0171598
946.233	0.0170354
946.311	0.0169991
946.389	0.0171259
946.467	0.0171552
946.545	0.0171292
946.623	0.0170931
946.701	0.0170779
946.780	0.0170166
946.858	0.0170622
946.936	0.0170206
947.014	0.0169949
947.092	0.0170224
947.170	0.0171605
947.248	0.0170565
947.326	0.0170443
947.405	0.0170425
947.483	0.0170774
947.561	0.0170956
947.639	0.0171177
947.717	0.0170784
947.795	0.0169861
947.873	0.0171185
947.951	0.0171796
948.030	0.0169418
948.108	0.0171458
948.186	0.0169491
948.264	0.0170146
948.342	0.0170195
948.420	0.0170452
948.498	0.0169044
948.576	0.0169086
948.655	0.0169910
948.733	0.0168605
948.811	0.0169957
948.889	0.0170313
948.967	0.0170327
949.045	0.0168635
949.123	0.0169125
949.201	0.0170773
949.280	0.0170408
949.358	0.0170008
949.436	0.0168180
949.514	0.0171499
949.592	0.0172533
949.670	0.0170261
949.748	0.0169123
949.826	0.0170770
949.905	0.0170094
949.983	0.0170853
950.061	0.0171485
950.139	0.0172645
950.217	0.0171663
950.295	0.0171183
950.373	0.0172266
950.451	0.0170471
950.530	0.0171284
950.608	0.0171896
950.686	0.0172004
950.764	0.0171245
950.842	0.0170171
950.920	0.0171287
950.998	0.0171374
951.076	0.0170920
951.155	0.0172260
951.233	0.0171279
951.311	0.0171596
951.389	0.0172395
951.467	0.0170991
951.545	0.0171522
951.623	0.0172768
951.701	0.0171485
951.780	0.0172214
951.858	0.0170271
951.936	0.0170453
952.014	0.0172409
952.092	0.0170400
952.170	0.0171563
952.248	0.0171417
952.326	0.0171233
952.405	0.0171834
952.483	0.0172510
952.561	0.0171611
952.639	0.0171701
952.717	0.0170422
952.795	0.0170903
952.873	0.0171911
952.951	0.0172318
953.030	0.0171847
953.108	0.0172067
953.186	0.0171380
953.264	0.0170618
953.342	0.0170840
953.420	0.0170444
953.498	0.0170269
953.576	0.0172100
953.655	0.0171899
953.733	0.0171551
953.811	0.0171128
953.889	0.0171806
953.967	0.0171805
954.045	0.0171566
954.123	0.0170251
954.201	0.0170068
954.280	0.0171858
954.358	0.0171116
954.436	0.0170990
954.514	0.0170686
954.592	0.0171670
954.670	0.0170848
954.748	0.0168814
954.826	0.0169490
954.905	0.0168649
954.983	0.0169509
955.061	0.0169292
955.139	0.0168796
955.217	0.0167229
955.295	0.0168703
955.373	0.0169279
955.451	0.0169529
955.530	0.0168992
955.608	0.0168945
955.686	0.0168766
955.764	0.0168679
955.842	0.0167863
955.920	0.0168532
955.998	0.0169726
956.076	0.0169122
956.155	0.0168725
956.233	0.0166924
956.311	0.0169092
956.389	0.0168988
956.467	0.0169539
956.545	0.0168974
956.623	0.0168330
956.701	0.0168858
956.780	0.0169833
956.858	0.0170229
956.936	0.0169350
957.014	0.0169278
957.092	0.0169162
957.170	0.0170580
957.248	0.0170541
957.326	0.0169941
957.405	0.0169830
957.483	0.0169333
957.561	0.0169892
957.639	0.0170464
957.717	0.0171011
957.795	0.0172192
957.873	0.0171048
957.951	0.0171317
958.030	0.0172002
958.108	0.0172795
958.186	0.0172350
958.264	0.0171877
958.342	0.0172385
958.420	0.0172135
958.498	0.0171598
958.576	0.0172340
958.655	0.0172168
958.733	0.0171741
958.811	0.0171603
958.889	0.0172469
958.967	0.0173028
959.045	0.0172205
959.123	0.0171614
959.201	0.0172766
959.280	0.0172563
959.358	0.0172699
959.436	0.0172966
959.514	0.0173824
959.592	0.0173766
959.670	0.0173895
959.748	0.0173533
959.826	0.0173989
959.905	0.0174053
