05/17/2022	17:12:00	Ver.	4.1	UNKNOWN
Optical Delay	639.982744	Delta X		0.078125	Sweeps	1	Scan Rate	0/0
Coordinates	Axis 1	NaN	Axis 2	NaN	Axis 3	NaN	Axis 4	NaN	Axis 5	NaN	Axis 6	0.000000
TX Power	0.000000	RX Power	0.000000

639.983	0.0160469
640.061	0.0160186
640.139	0.0160870
640.217	0.0160607
640.295	0.0159450
640.373	0.0158489
640.451	0.0158805
640.530	0.0160210
640.608	0.0159467
640.686	0.0159129
640.764	0.0159396
640.842	0.0159753
640.920	0.0158514
640.998	0.0158386
641.076	0.0159846
641.155	0.0158578
641.233	0.0157806
641.311	0.0158838
641.389	0.0158792
641.467	0.0157587
641.545	0.0158356
641.623	0.0159228
641.701	0.0159523
641.780	0.0157495
641.858	0.0156337
641.936	0.0158424
642.014	0.0158909
642.092	0.0156537
642.170	0.0158041
642.248	0.0157861
642.326	0.0157912
642.405	0.0158572
642.483	0.0158091
642.561	0.0157478
642.639	0.0156462
642.717	0.0157637
642.795	0.0156974
642.873	0.0158435
642.951	0.0157973
643.030	0.0157590
643.108	0.0158604
643.186	0.0158327
643.264	0.0157716
643.342	0.0157502
643.420	0.0159138
643.498	0.0158521
643.576	0.0159427
643.655	0.0158771
643.733	0.0158713
643.811	0.0158896
643.889	0.0159161
643.967	0.0158839
644.045	0.0158531
644.123	0.0159949
644.201	0.0159258
644.280	0.0158557
644.358	0.0159451
644.436	0.0159374
644.514	0.0160352
644.592	0.0158412
644.670	0.0159583
644.748	0.0159399
644.826	0.0159309
644.905	0.0160134
644.983	0.0159023
645.061	0.0158882
645.139	0.0159493
645.217	0.0158921
645.295	0.0159889
645.373	0.0159626
645.451	0.0160488
645.530	0.0159494
645.608	0.0160788
645.686	0.0160620
645.764	0.0159988
645.842	0.0159708
645.920	0.0161813
645.998	0.0161246
646.076	0.0160067
646.155	0.0161474
646.233	0.0161055
646.311	0.0160711
646.389	0.0161630
646.467	0.0162942
646.545	0.0161615
646.623	0.0161028
646.701	0.0160938
646.780	0.0162009
646.858	0.0162238
646.936	0.0162776
647.014	0.0161603
647.092	0.0161076
647.170	0.0161543
647.248	0.0161427
647.326	0.0163493
647.405	0.0161054
647.483	0.0161604
647.561	0.0162696
647.639	0.0161835
647.717	0.0161884
647.795	0.0162489
647.873	0.0161972
647.951	0.0161938
648.030	0.0162015
648.108	0.0160858
648.186	0.0161115
648.264	0.0162087
648.342	0.0161654
648.420	0.0161048
648.498	0.0162048
648.576	0.0160375
648.655	0.0160431
648.733	0.0161150
648.811	0.0160411
648.889	0.0159840
648.967	0.0160484
649.045	0.0160851
649.123	0.0160178
649.201	0.0160151
649.280	0.0160477
649.358	0.0160624
649.436	0.0160706
649.514	0.0161105
649.592	0.0162270
649.670	0.0162421
649.748	0.0159760
649.826	0.0161198
649.905	0.0161323
649.983	0.0160529
650.061	0.0160967
650.139	0.0161282
650.217	0.0160521
650.295	0.0160549
650.373	0.0161418
650.451	0.0160699
650.530	0.0160598
650.608	0.0160632
650.686	0.0160930
650.764	0.0159167
650.842	0.0158994
650.920	0.0159195
650.998	0.0159784
651.076	0.0159177
651.155	0.0159806
651.233	0.0159222
651.311	0.0158101
651.389	0.0159157
651.467	0.0159542
651.545	0.0158205
651.623	0.0157914
651.701	0.0161042
651.780	0.0160315
651.858	0.0159528
651.936	0.0158691
652.014	0.0160101
652.092	0.0158055
652.170	0.0157406
652.248	0.0157874
652.326	0.0157858
652.405	0.0159425
652.483	0.0158850
652.561	0.0158530
652.639	0.0157890
652.717	0.0156975
652.795	0.0159900
652.873	0.0157757
652.951	0.0157793
653.030	0.0159414
653.108	0.0157525
653.186	0.0157429
653.264	0.0158558
653.342	0.0159000
653.420	0.0158123
653.498	0.0159696
653.576	0.0158983
653.655	0.0157751
653.733	0.0159026
653.811	0.0159784
653.889	0.0158842
653.967	0.0158986
654.045	0.0160291
654.123	0.0160567
654.201	0.0160767
654.280	0.0159769
654.358	0.0159275
654.436	0.0161313
654.514	0.0160594
654.592	0.0158995
654.670	0.0159561
654.748	0.0160284
654.826	0.0159813
654.905	0.0159184
654.983	0.0159302
655.061	0.0158725
655.139	0.0159070
655.217	0.0158346
655.295	0.0158513
655.373	0.0159485
655.451	0.0157990
655.530	0.0159257
655.608	0.0160466
655.686	0.0159351
655.764	0.0159242
655.842	0.0161481
655.920	0.0161858
655.998	0.0161064
656.076	0.0160339
656.155	0.0160883
656.233	0.0162312
656.311	0.0161495
656.389	0.0161376
656.467	0.0161946
656.545	0.0161176
656.623	0.0162191
656.701	0.0161890
656.780	0.0161855
656.858	0.0161980
656.936	0.0160516
657.014	0.0160987
657.092	0.0160519
657.170	0.0160690
657.248	0.0160836
657.326	0.0160599
657.405	0.0161340
657.483	0.0160269
657.561	0.0161088
657.639	0.0159890
657.717	0.0159252
657.795	0.0159697
657.873	0.0159933
657.951	0.0160294
658.030	0.0160020
658.108	0.0158693
658.186	0.0160342
658.264	0.0160068
658.342	0.0158334
658.420	0.0159438
658.498	0.0160487
658.576	0.0157526
658.655	0.0160378
658.733	0.0162063
658.811	0.0159601
658.889	0.0160310
658.967	0.0162225
659.045	0.0161176
659.123	0.0159588
659.201	0.0160603
659.280	0.0161832
659.358	0.0163076
659.436	0.0162103
659.514	0.0162344
659.592	0.0161935
659.670	0.0160691
659.748	0.0162875
659.826	0.0161161
659.905	0.0161081
659.983	0.0160739
660.061	0.0160863
660.139	0.0159896
660.217	0.0161208
660.295	0.0160630
660.373	0.0161300
660.451	0.0162377
660.530	0.0161671
660.608	0.0159872
660.686	0.0160194
660.764	0.0161335
660.842	0.0161100
660.920	0.0161290
660.998	0.0161296
661.076	0.0161957
661.155	0.0162120
661.233	0.0162318
661.311	0.0163020
661.389	0.0162389
661.467	0.0161829
661.545	0.0161495
661.623	0.0161809
661.701	0.0161738
661.780	0.0161744
661.858	0.0159653
661.936	0.0161050
662.014	0.0161187
662.092	0.0159626
662.170	0.0160611
662.248	0.0159345
662.326	0.0158919
662.405	0.0159303
662.483	0.0157626
662.561	0.0156689
662.639	0.0155908
662.717	0.0156725
662.795	0.0155656
662.873	0.0156766
662.951	0.0154379
663.030	0.0154874
663.108	0.0154453
663.186	0.0155180
663.264	0.0154876
663.342	0.0153639
663.420	0.0154287
663.498	0.0155692
663.576	0.0155936
663.655	0.0156316
663.733	0.0154763
663.811	0.0156178
663.889	0.0158000
663.967	0.0157736
664.045	0.0158109
664.123	0.0159468
664.201	0.0159328
664.280	0.0159653
664.358	0.0160325
664.436	0.0161539
664.514	0.0162212
664.592	0.0163220
664.670	0.0163431
664.748	0.0165271
664.826	0.0165298
664.905	0.0165757
664.983	0.0166717
665.061	0.0167802
665.139	0.0166429
665.217	0.0167061
665.295	0.0167648
665.373	0.0167906
665.451	0.0167271
665.530	0.0166447
665.608	0.0165076
665.686	0.0164204
665.764	0.0163776
665.842	0.0162362
665.920	0.0162002
665.998	0.0159751
666.076	0.0159642
666.155	0.0157653
666.233	0.0156798
666.311	0.0156612
666.389	0.0154498
666.467	0.0153654
666.545	0.0151540
666.623	0.0152799
666.701	0.0151832
666.780	0.0150466
666.858	0.0150293
666.936	0.0149432
667.014	0.0149817
667.092	0.0150268
667.170	0.0150670
667.248	0.0151396
667.326	0.0152540
667.405	0.0152926
667.483	0.0152927
667.561	0.0154100
667.639	0.0156311
667.717	0.0156339
667.795	0.0159184
667.873	0.0160418
667.951	0.0160535
668.030	0.0161286
668.108	0.0162675
668.186	0.0163200
668.264	0.0165007
668.342	0.0166481
668.420	0.0169231
668.498	0.0168803
668.576	0.0169350
668.655	0.0170345
668.733	0.0170154
668.811	0.0170538
668.889	0.0171328
668.967	0.0171443
669.045	0.0170083
669.123	0.0171651
669.201	0.0169850
669.280	0.0168602
669.358	0.0168206
669.436	0.0165641
669.514	0.0164278
669.592	0.0163272
669.670	0.0161945
669.748	0.0160285
669.826	0.0160942
669.905	0.0159208
669.983	0.0155775
670.061	0.0157136
670.139	0.0154617
670.217	0.0152121
670.295	0.0152173
670.373	0.0149678
670.451	0.0150708
670.530	0.0149534
670.608	0.0148880
670.686	0.0149360
670.764	0.0148582
670.842	0.0148956
670.920	0.0148580
670.998	0.0149528
671.076	0.0149192
671.155	0.0151408
671.233	0.0150617
671.311	0.0153365
671.389	0.0154930
671.467	0.0155797
671.545	0.0156287
671.623	0.0158849
671.701	0.0159723
671.780	0.0159932
671.858	0.0161940
671.936	0.0164390
672.014	0.0166003
672.092	0.0166194
672.170	0.0166534
672.248	0.0169218
672.326	0.0167962
672.405	0.0167985
672.483	0.0169061
672.561	0.0169855
672.639	0.0170261
672.717	0.0169946
672.795	0.0169795
672.873	0.0168649
672.951	0.0167375
673.030	0.0167577
673.108	0.0167448
673.186	0.0165101
673.264	0.0163805
673.342	0.0162401
673.420	0.0161770
673.498	0.0161200
673.576	0.0160900
673.655	0.0159297
673.733	0.0156692
673.811	0.0158080
673.889	0.0157191
673.967	0.0155316
674.045	0.0154511
674.123	0.0154015
674.201	0.0155287
674.280	0.0154730
674.358	0.0154372
674.436	0.0154816
674.514	0.0155322
674.592	0.0156567
674.670	0.0157693
674.748	0.0156618
674.826	0.0158811
674.905	0.0158702
674.983	0.0159047
675.061	0.0158392
675.139	0.0159827
675.217	0.0161478
675.295	0.0160414
675.373	0.0160488
675.451	0.0160581
675.530	0.0160570
675.608	0.0159860
675.686	0.0162100
675.764	0.0160344
675.842	0.0160438
675.920	0.0159225
675.998	0.0158549
676.076	0.0159826
676.155	0.0158125
676.233	0.0158578
676.311	0.0158518
676.389	0.0156950
676.467	0.0156393
676.545	0.0156574
676.623	0.0156921
676.701	0.0155345
676.780	0.0156393
676.858	0.0155378
676.936	0.0156293
677.014	0.0156366
677.092	0.0156006
677.170	0.0157727
677.248	0.0156608
677.326	0.0158097
677.405	0.0158484
677.483	0.0158913
677.561	0.0162016
677.639	0.0159821
677.717	0.0161958
677.795	0.0163265
677.873	0.0163477
677.951	0.0163374
678.030	0.0163781
678.108	0.0166151
678.186	0.0164767
678.264	0.0164592
678.342	0.0165466
678.420	0.0164684
678.498	0.0164919
678.576	0.0164233
678.655	0.0165104
678.733	0.0164065
678.811	0.0163150
678.889	0.0163904
678.967	0.0163979
679.045	0.0162184
679.123	0.0162799
679.201	0.0163754
679.280	0.0164270
679.358	0.0162900
679.436	0.0161682
679.514	0.0163030
679.592	0.0161478
679.670	0.0161549
679.748	0.0162372
679.826	0.0163970
679.905	0.0161749
679.983	0.0163706
680.061	0.0163160
680.139	0.0162344
680.217	0.0161762
680.295	0.0162188
680.373	0.0162611
680.451	0.0162953
680.530	0.0162093
680.608	0.0160258
680.686	0.0161400
680.764	0.0159076
680.842	0.0157844
680.920	0.0158314
680.998	0.0156778
681.076	0.0157437
681.155	0.0155610
681.233	0.0154731
681.311	0.0155307
681.389	0.0153503
681.467	0.0152854
681.545	0.0153835
681.623	0.0154520
681.701	0.0153668
681.780	0.0153789
681.858	0.0153712
681.936	0.0153510
682.014	0.0156077
682.092	0.0157002
682.170	0.0157629
682.248	0.0156516
682.326	0.0158624
682.405	0.0161185
682.483	0.0161298
682.561	0.0162330
682.639	0.0162608
682.717	0.0165286
682.795	0.0165637
682.873	0.0166458
682.951	0.0168143
683.030	0.0168439
683.108	0.0168972
683.186	0.0170757
683.264	0.0170802
683.342	0.0170004
683.420	0.0169912
683.498	0.0169508
683.576	0.0171365
683.655	0.0170125
683.733	0.0170207
683.811	0.0169855
683.889	0.0168357
683.967	0.0168843
684.045	0.0165718
684.123	0.0165753
684.201	0.0163368
684.280	0.0161208
684.358	0.0160651
684.436	0.0159762
684.514	0.0157253
684.592	0.0155449
684.670	0.0155870
684.748	0.0154008
684.826	0.0152753
684.905	0.0151350
684.983	0.0152104
685.061	0.0150777
685.139	0.0149317
685.217	0.0150819
685.295	0.0151233
685.373	0.0150719
685.451	0.0151569
685.530	0.0151559
685.608	0.0153114
685.686	0.0155152
685.764	0.0155737
685.842	0.0155916
685.920	0.0155990
685.998	0.0157915
686.076	0.0158237
686.155	0.0158255
686.233	0.0161485
686.311	0.0162470
686.389	0.0160474
686.467	0.0162358
686.545	0.0163116
686.623	0.0163904
686.701	0.0163336
686.780	0.0163451
686.858	0.0164091
686.936	0.0163373
687.014	0.0163467
687.092	0.0162037
687.170	0.0162631
687.248	0.0162295
687.326	0.0162572
687.405	0.0161986
687.483	0.0160011
687.561	0.0159815
687.639	0.0159761
687.717	0.0158405
687.795	0.0158666
687.873	0.0158028
687.951	0.0156963
688.030	0.0156300
688.108	0.0157266
688.186	0.0158495
688.264	0.0157976
688.342	0.0156784
688.420	0.0159275
688.498	0.0159129
688.576	0.0158709
688.655	0.0160913
688.733	0.0161909
688.811	0.0162105
688.889	0.0162820
688.967	0.0164046
689.045	0.0164054
689.123	0.0164600
689.201	0.0163966
689.280	0.0165997
689.358	0.0165448
689.436	0.0165314
689.514	0.0165083
689.592	0.0164417
689.670	0.0165417
689.748	0.0164329
689.826	0.0163277
689.905	0.0163288
689.983	0.0161749
690.061	0.0161832
690.139	0.0160709
690.217	0.0160899
690.295	0.0158844
690.373	0.0158150
690.451	0.0158186
690.530	0.0156480
690.608	0.0156575
690.686	0.0154887
690.764	0.0156944
690.842	0.0154571
690.920	0.0155253
690.998	0.0155804
691.076	0.0155936
691.155	0.0155223
691.233	0.0154210
691.311	0.0153676
691.389	0.0155322
691.467	0.0155567
691.545	0.0155203
691.623	0.0156799
691.701	0.0156739
691.780	0.0157512
691.858	0.0158468
691.936	0.0158482
692.014	0.0157723
692.092	0.0159202
692.170	0.0159391
692.248	0.0158172
692.326	0.0160172
692.405	0.0158723
692.483	0.0158471
692.561	0.0159389
692.639	0.0160594
692.717	0.0161389
692.795	0.0161826
692.873	0.0162199
692.951	0.0162675
693.030	0.0163281
693.108	0.0163792
693.186	0.0165547
693.264	0.0165597
693.342	0.0165873
693.420	0.0166689
693.498	0.0167458
693.576	0.0166982
693.655	0.0166997
693.733	0.0168729
693.811	0.0168583
693.889	0.0168497
693.967	0.0167873
694.045	0.0167029
694.123	0.0167212
694.201	0.0166643
694.280	0.0164748
694.358	0.0164775
694.436	0.0162561
694.514	0.0161842
694.592	0.0161758
694.670	0.0159777
694.748	0.0159674
694.826	0.0158546
694.905	0.0156043
694.983	0.0155589
695.061	0.0155550
695.139	0.0155535
695.217	0.0153673
695.295	0.0154864
695.373	0.0153986
695.451	0.0153112
695.530	0.0152520
695.608	0.0152856
695.686	0.0153462
695.764	0.0152340
695.842	0.0152380
695.920	0.0150974
695.998	0.0153400
696.076	0.0153251
696.155	0.0153996
696.233	0.0154295
696.311	0.0155359
696.389	0.0155722
696.467	0.0154964
696.545	0.0157224
696.623	0.0157987
696.701	0.0156190
696.780	0.0157840
696.858	0.0157979
696.936	0.0157826
697.014	0.0158974
697.092	0.0158083
697.170	0.0158337
697.248	0.0158755
697.326	0.0158704
697.405	0.0158340
697.483	0.0159272
697.561	0.0157977
697.639	0.0157004
697.717	0.0156335
697.795	0.0158233
697.873	0.0157606
697.951	0.0157393
698.030	0.0158045
698.108	0.0156188
698.186	0.0157658
698.264	0.0156298
698.342	0.0158704
698.420	0.0158442
698.498	0.0159213
698.576	0.0160295
698.655	0.0161118
698.733	0.0161624
698.811	0.0161343
698.889	0.0163144
698.967	0.0163085
699.045	0.0164227
699.123	0.0163590
699.201	0.0166516
699.280	0.0164567
699.358	0.0166268
699.436	0.0166363
699.514	0.0166696
699.592	0.0166582
699.670	0.0167166
699.748	0.0166702
699.826	0.0165723
699.905	0.0167414
699.983	0.0166938
700.061	0.0165449
700.139	0.0164565
700.217	0.0163541
700.295	0.0163120
700.373	0.0160550
700.451	0.0160740
700.530	0.0158847
700.608	0.0158041
700.686	0.0155296
700.764	0.0155678
700.842	0.0151945
700.920	0.0151791
700.998	0.0150983
701.076	0.0149713
701.155	0.0147843
701.233	0.0147393
701.311	0.0146711
701.389	0.0146181
701.467	0.0146063
701.545	0.0145348
701.623	0.0147005
701.701	0.0147265
701.780	0.0147871
701.858	0.0148245
701.936	0.0150663
702.014	0.0151882
702.092	0.0151965
702.170	0.0155240
702.248	0.0156385
702.326	0.0157886
702.405	0.0159923
702.483	0.0160992
702.561	0.0164407
702.639	0.0163970
702.717	0.0164809
702.795	0.0166444
702.873	0.0167511
702.951	0.0169091
703.030	0.0170439
703.108	0.0168938
703.186	0.0170491
703.264	0.0172301
703.342	0.0171922
703.420	0.0170972
703.498	0.0172957
703.576	0.0171074
703.655	0.0174268
703.733	0.0173148
703.811	0.0171538
703.889	0.0170908
703.967	0.0169286
704.045	0.0170586
704.123	0.0170354
704.201	0.0168774
704.280	0.0167573
704.358	0.0167262
704.436	0.0167172
704.514	0.0164639
704.592	0.0163018
704.670	0.0162840
704.748	0.0162726
704.826	0.0162218
704.905	0.0161913
704.983	0.0160085
705.061	0.0156670
705.139	0.0156887
705.217	0.0157430
705.295	0.0155804
705.373	0.0154911
705.451	0.0153999
705.530	0.0153452
705.608	0.0152679
705.686	0.0153083
705.764	0.0152203
705.842	0.0151938
705.920	0.0151264
705.998	0.0151786
706.076	0.0151725
706.155	0.0152050
706.233	0.0150722
706.311	0.0152706
706.389	0.0153446
706.467	0.0151749
706.545	0.0152962
706.623	0.0153605
706.701	0.0154131
706.780	0.0156110
706.858	0.0154832
706.936	0.0156277
707.014	0.0156764
707.092	0.0155777
707.170	0.0157394
707.248	0.0159869
707.326	0.0158995
707.405	0.0160013
707.483	0.0161184
707.561	0.0160017
707.639	0.0160486
707.717	0.0161871
707.795	0.0161990
707.873	0.0162253
707.951	0.0162568
708.030	0.0163312
708.108	0.0161813
708.186	0.0162202
708.264	0.0163335
708.342	0.0161684
708.420	0.0161267
708.498	0.0161711
708.576	0.0161095
708.655	0.0161060
708.733	0.0160242
708.811	0.0158990
708.889	0.0158594
708.967	0.0158228
709.045	0.0158337
709.123	0.0156783
709.201	0.0157139
709.280	0.0157737
709.358	0.0157445
709.436	0.0158263
709.514	0.0159222
709.592	0.0159259
709.670	0.0160327
709.748	0.0160724
709.826	0.0161732
709.905	0.0162542
709.983	0.0164043
710.061	0.0165614
710.139	0.0166132
710.217	0.0166803
710.295	0.0167506
710.373	0.0168878
710.451	0.0169375
710.530	0.0171640
710.608	0.0170319
710.686	0.0170017
710.764	0.0170747
710.842	0.0171213
710.920	0.0168929
710.998	0.0170026
711.076	0.0168682
711.155	0.0166827
711.233	0.0165981
711.311	0.0165125
711.389	0.0165012
711.467	0.0163199
711.545	0.0161571
711.623	0.0158170
711.701	0.0159161
711.780	0.0157356
711.858	0.0156560
711.936	0.0154182
712.014	0.0153960
712.092	0.0152831
712.170	0.0150053
712.248	0.0151586
712.326	0.0151106
712.405	0.0150403
712.483	0.0151450
712.561	0.0150133
712.639	0.0150901
712.717	0.0150355
712.795	0.0151373
712.873	0.0152065
712.951	0.0152923
713.030	0.0151271
713.108	0.0154021
713.186	0.0154058
713.264	0.0155843
713.342	0.0156633
713.420	0.0156019
713.498	0.0156229
713.576	0.0156980
713.655	0.0157785
713.733	0.0159114
713.811	0.0158315
713.889	0.0158686
713.967	0.0158304
714.045	0.0158950
714.123	0.0159570
714.201	0.0158177
714.280	0.0159702
714.358	0.0159928
714.436	0.0160040
714.514	0.0160571
714.592	0.0160096
714.670	0.0160000
714.748	0.0161424
714.826	0.0162408
714.905	0.0162810
714.983	0.0161626
715.061	0.0161887
715.139	0.0163894
715.217	0.0163702
715.295	0.0163167
715.373	0.0163155
715.451	0.0164609
715.530	0.0163820
715.608	0.0163411
715.686	0.0163533
715.764	0.0162547
715.842	0.0163377
715.920	0.0162722
715.998	0.0161275
716.076	0.0161083
716.155	0.0160948
716.233	0.0160590
716.311	0.0160500
716.389	0.0160239
716.467	0.0158890
716.545	0.0158983
716.623	0.0158544
716.701	0.0158347
716.780	0.0157651
716.858	0.0158321
716.936	0.0158988
717.014	0.0160944
717.092	0.0161134
717.170	0.0161085
717.248	0.0161008
717.326	0.0161131
717.405	0.0162643
717.483	0.0161806
717.561	0.0163273
717.639	0.0163845
717.717	0.0163719
717.795	0.0163367
717.873	0.0162360
717.951	0.0161195
718.030	0.0161715
718.108	0.0161794
718.186	0.0159976
718.264	0.0160100
718.342	0.0158756
718.420	0.0156496
718.498	0.0155846
718.576	0.0156043
718.655	0.0155762
718.733	0.0154983
718.811	0.0154592
718.889	0.0153466
718.967	0.0152694
719.045	0.0152946
719.123	0.0154324
719.201	0.0152626
719.280	0.0153671
719.358	0.0153558
719.436	0.0152678
719.514	0.0154343
719.592	0.0154699
719.670	0.0154428
719.748	0.0154434
719.826	0.0155257
719.905	0.0155191
719.983	0.0155267
720.061	0.0154723
720.139	0.0155196
720.217	0.0157018
720.295	0.0158164
720.373	0.0156844
720.451	0.0157291
720.530	0.0156774
720.608	0.0156348
720.686	0.0157534
720.764	0.0158413
720.842	0.0157825
720.920	0.0157434
720.998	0.0159175
721.076	0.0159069
721.155	0.0159299
721.233	0.0159100
721.311	0.0159467
721.389	0.0160793
721.467	0.0160132
721.545	0.0160268
721.623	0.0160501
721.701	0.0161964
721.780	0.0160896
721.858	0.0162666
721.936	0.0163644
722.014	0.0164377
722.092	0.0165241
722.170	0.0165363
722.248	0.0164873
722.326	0.0165772
722.405	0.0166641
722.483	0.0167217
722.561	0.0168544
722.639	0.0166735
722.717	0.0167773
722.795	0.0168708
722.873	0.0167768
722.951	0.0166890
723.030	0.0167072
723.108	0.0167254
723.186	0.0165316
723.264	0.0165302
723.342	0.0166807
723.420	0.0165549
723.498	0.0163233
723.576	0.0163641
723.655	0.0163339
723.733	0.0162447
723.811	0.0162131
723.889	0.0160741
723.967	0.0160100
724.045	0.0159771
724.123	0.0160974
724.201	0.0159040
724.280	0.0158429
724.358	0.0158456
724.436	0.0157388
724.514	0.0158851
724.592	0.0158181
724.670	0.0158739
724.748	0.0159528
724.826	0.0158978
724.905	0.0157989
724.983	0.0158684
725.061	0.0159221
725.139	0.0159573
725.217	0.0160546
725.295	0.0159447
725.373	0.0158781
725.451	0.0160000
725.530	0.0159212
725.608	0.0161150
725.686	0.0159355
725.764	0.0157107
725.842	0.0157732
725.920	0.0157295
725.998	0.0156705
726.076	0.0155105
726.155	0.0155892
726.233	0.0155526
726.311	0.0153258
726.389	0.0153506
726.467	0.0154002
726.545	0.0151774
726.623	0.0152477
726.701	0.0152809
726.780	0.0150791
726.858	0.0152982
726.936	0.0150913
727.014	0.0151858
727.092	0.0152100
727.170	0.0151231
727.248	0.0152422
727.326	0.0154226
727.405	0.0153790
727.483	0.0154858
727.561	0.0155047
727.639	0.0156963
727.717	0.0157932
727.795	0.0157542
727.873	0.0158755
727.951	0.0159963
728.030	0.0161916
728.108	0.0162119
728.186	0.0161150
728.264	0.0164535
728.342	0.0164782
728.420	0.0163876
728.498	0.0165140
728.576	0.0165114
728.655	0.0165350
728.733	0.0164709
728.811	0.0163293
728.889	0.0164535
728.967	0.0165368
729.045	0.0163290
729.123	0.0164840
729.201	0.0163728
729.280	0.0163810
729.358	0.0162538
729.436	0.0160984
729.514	0.0161629
729.592	0.0161128
729.670	0.0161137
729.748	0.0161356
729.826	0.0162547
729.905	0.0162392
729.983	0.0160283
730.061	0.0161118
730.139	0.0161443
730.217	0.0160849
730.295	0.0161598
730.373	0.0161398
730.451	0.0162110
730.530	0.0161414
730.608	0.0162273
730.686	0.0162682
730.764	0.0163402
730.842	0.0162697
730.920	0.0160824
730.998	0.0161491
731.076	0.0161963
731.155	0.0162774
731.233	0.0160603
731.311	0.0158495
731.389	0.0158677
731.467	0.0159146
731.545	0.0158359
731.623	0.0157391
731.701	0.0157799
731.780	0.0156877
731.858	0.0157038
731.936	0.0157368
732.014	0.0156636
732.092	0.0156550
732.170	0.0156568
732.248	0.0155800
732.326	0.0156182
732.405	0.0155255
732.483	0.0156673
732.561	0.0156931
732.639	0.0156563
732.717	0.0156427
732.795	0.0157848
732.873	0.0158126
732.951	0.0159678
733.030	0.0158039
733.108	0.0158359
733.186	0.0159833
733.264	0.0159340
733.342	0.0160165
733.420	0.0159824
733.498	0.0159579
733.576	0.0160542
733.655	0.0160436
733.733	0.0159270
733.811	0.0159859
733.889	0.0159527
733.967	0.0160625
734.045	0.0157555
734.123	0.0157314
734.201	0.0158212
734.280	0.0156654
734.358	0.0156979
734.436	0.0157304
734.514	0.0156144
734.592	0.0155521
734.670	0.0155933
734.748	0.0154624
734.826	0.0154723
734.905	0.0156088
734.983	0.0156310
735.061	0.0156189
735.139	0.0156192
735.217	0.0156339
735.295	0.0155679
735.373	0.0158689
735.451	0.0159787
735.530	0.0160667
735.608	0.0161396
735.686	0.0161951
735.764	0.0161957
735.842	0.0161443
735.920	0.0162938
735.998	0.0163253
736.076	0.0164208
736.155	0.0163709
736.233	0.0161880
736.311	0.0162762
736.389	0.0164175
736.467	0.0163146
736.545	0.0161968
736.623	0.0161166
736.701	0.0160152
736.780	0.0160248
736.858	0.0158980
736.936	0.0158312
737.014	0.0157146
737.092	0.0157809
737.170	0.0155906
737.248	0.0156203
737.326	0.0155118
737.405	0.0156254
737.483	0.0155419
737.561	0.0155596
737.639	0.0155917
737.717	0.0155802
737.795	0.0156316
737.873	0.0157578
737.951	0.0159408
738.030	0.0157998
738.108	0.0157383
738.186	0.0159892
738.264	0.0158434
738.342	0.0158920
738.420	0.0160166
738.498	0.0160365
738.576	0.0160308
738.655	0.0161433
738.733	0.0161604
738.811	0.0161301
738.889	0.0161201
738.967	0.0159664
739.045	0.0160771
739.123	0.0161355
739.201	0.0161269
739.280	0.0160267
739.358	0.0159552
739.436	0.0160234
739.514	0.0160331
739.592	0.0159637
739.670	0.0159390
739.748	0.0159908
739.826	0.0159428
739.905	0.0158797
739.983	0.0158511
740.061	0.0160123
740.139	0.0158640
740.217	0.0158991
740.295	0.0159670
740.373	0.0160133
740.451	0.0160727
740.530	0.0160154
740.608	0.0159724
740.686	0.0159167
740.764	0.0160445
740.842	0.0159969
740.920	0.0160157
740.998	0.0160650
741.076	0.0161449
741.155	0.0159208
741.233	0.0160751
741.311	0.0161302
741.389	0.0159522
741.467	0.0159257
741.545	0.0157710
741.623	0.0157657
741.701	0.0158997
741.780	0.0156789
741.858	0.0156708
741.936	0.0156441
742.014	0.0156180
742.092	0.0156632
742.170	0.0156079
742.248	0.0157630
742.326	0.0156064
742.405	0.0155756
742.483	0.0156535
742.561	0.0156753
742.639	0.0158411
742.717	0.0158548
742.795	0.0159814
742.873	0.0159636
742.951	0.0159325
743.030	0.0160241
743.108	0.0161758
743.186	0.0160349
743.264	0.0162270
743.342	0.0163112
743.420	0.0163029
743.498	0.0163307
743.576	0.0164002
743.655	0.0164103
743.733	0.0163965
743.811	0.0163511
743.889	0.0164726
743.967	0.0162848
744.045	0.0162735
744.123	0.0162115
744.201	0.0162957
744.280	0.0162383
744.358	0.0160237
744.436	0.0160273
744.514	0.0159717
744.592	0.0159681
744.670	0.0158701
744.748	0.0160287
744.826	0.0158770
744.905	0.0158496
744.983	0.0159028
745.061	0.0158538
745.139	0.0157446
745.217	0.0158233
745.295	0.0159149
745.373	0.0159555
745.451	0.0159471
745.530	0.0159173
745.608	0.0159931
745.686	0.0159976
745.764	0.0161615
745.842	0.0161559
745.920	0.0161875
745.998	0.0161278
746.076	0.0161303
746.155	0.0164149
746.233	0.0162959
746.311	0.0162022
746.389	0.0164664
746.467	0.0163672
746.545	0.0163882
746.623	0.0161826
746.701	0.0162207
746.780	0.0163493
746.858	0.0162576
746.936	0.0162400
747.014	0.0161075
747.092	0.0160493
747.170	0.0161197
747.248	0.0160529
747.326	0.0160161
747.405	0.0159947
747.483	0.0159887
747.561	0.0159537
747.639	0.0159314
747.717	0.0157952
747.795	0.0156805
747.873	0.0158295
747.951	0.0158731
748.030	0.0159872
748.108	0.0160896
748.186	0.0158423
748.264	0.0158574
748.342	0.0161419
748.420	0.0161330
748.498	0.0160574
748.576	0.0161559
748.655	0.0161829
748.733	0.0160300
748.811	0.0161162
748.889	0.0162350
748.967	0.0161455
749.045	0.0161497
749.123	0.0161034
749.201	0.0161497
749.280	0.0160986
749.358	0.0161658
749.436	0.0161410
749.514	0.0160552
749.592	0.0161570
749.670	0.0160349
749.748	0.0159848
749.826	0.0160207
749.905	0.0158673
749.983	0.0159206
750.061	0.0158553
750.139	0.0157860
750.217	0.0157864
750.295	0.0157008
750.373	0.0157479
750.451	0.0157794
750.530	0.0158282
750.608	0.0159805
750.686	0.0159309
750.764	0.0161352
750.842	0.0161293
750.920	0.0161078
750.998	0.0160693
751.076	0.0161350
751.155	0.0161739
751.233	0.0162236
751.311	0.0162804
751.389	0.0161206
751.467	0.0160957
751.545	0.0161404
751.623	0.0161996
751.701	0.0161981
751.780	0.0160796
751.858	0.0160772
751.936	0.0160584
752.014	0.0160444
752.092	0.0160509
752.170	0.0160408
752.248	0.0159728
752.326	0.0159238
752.405	0.0158941
752.483	0.0158096
752.561	0.0159651
752.639	0.0159933
752.717	0.0158408
752.795	0.0158754
752.873	0.0159776
752.951	0.0160074
753.030	0.0158994
753.108	0.0159195
753.186	0.0160257
753.264	0.0160083
753.342	0.0160468
753.420	0.0161038
753.498	0.0161979
753.576	0.0160944
753.655	0.0162220
753.733	0.0163243
753.811	0.0161864
753.889	0.0162196
753.967	0.0162259
754.045	0.0163983
754.123	0.0162459
754.201	0.0161343
754.280	0.0160823
754.358	0.0161319
754.436	0.0161410
754.514	0.0162228
754.592	0.0159901
754.670	0.0159299
754.748	0.0159962
754.826	0.0159395
754.905	0.0159358
754.983	0.0157551
755.061	0.0157822
755.139	0.0156918
755.217	0.0155901
755.295	0.0155492
755.373	0.0156633
755.451	0.0159008
755.530	0.0157645
755.608	0.0156359
755.686	0.0157358
755.764	0.0158019
755.842	0.0160027
755.920	0.0157684
755.998	0.0158514
756.076	0.0158792
756.155	0.0158417
756.233	0.0158801
756.311	0.0158749
756.389	0.0159639
756.467	0.0161681
756.545	0.0160331
756.623	0.0159615
756.701	0.0160847
756.780	0.0161115
756.858	0.0161816
756.936	0.0161618
757.014	0.0159939
757.092	0.0160814
757.170	0.0160410
757.248	0.0159615
757.326	0.0159884
757.405	0.0159454
757.483	0.0159879
757.561	0.0159042
757.639	0.0159243
757.717	0.0158233
757.795	0.0157265
757.873	0.0157108
757.951	0.0157717
758.030	0.0157327
758.108	0.0156197
758.186	0.0156281
758.264	0.0158044
758.342	0.0158052
758.420	0.0157734
758.498	0.0157380
758.576	0.0158922
758.655	0.0157642
758.733	0.0157148
758.811	0.0157128
758.889	0.0158878
758.967	0.0159045
759.045	0.0158955
759.123	0.0158141
759.201	0.0157931
759.280	0.0158748
759.358	0.0160266
759.436	0.0159921
759.514	0.0158140
759.592	0.0158173
759.670	0.0158542
759.748	0.0159669
759.826	0.0159628
759.905	0.0158458
759.983	0.0158717
760.061	0.0160014
760.139	0.0159393
760.217	0.0159502
760.295	0.0158855
760.373	0.0159915
760.451	0.0159296
760.530	0.0159226
760.608	0.0160304
760.686	0.0159702
760.764	0.0159552
760.842	0.0159309
760.920	0.0159756
760.998	0.0159319
761.076	0.0161027
761.155	0.0160137
761.233	0.0161026
761.311	0.0162009
761.389	0.0161121
761.467	0.0161021
761.545	0.0162176
761.623	0.0162196
761.701	0.0162244
761.780	0.0162550
761.858	0.0163451
761.936	0.0162447
762.014	0.0163116
762.092	0.0163003
762.170	0.0163383
762.248	0.0162900
762.326	0.0163179
762.405	0.0163412
762.483	0.0162981
762.561	0.0162542
762.639	0.0162518
762.717	0.0160669
762.795	0.0160165
762.873	0.0161015
762.951	0.0159876
763.030	0.0160925
763.108	0.0160136
763.186	0.0159371
763.264	0.0158764
763.342	0.0158916
763.420	0.0159964
763.498	0.0159785
763.576	0.0159811
763.655	0.0158886
763.733	0.0160042
763.811	0.0159728
763.889	0.0158943
763.967	0.0160110
764.045	0.0159750
764.123	0.0159758
764.201	0.0159721
764.280	0.0160674
764.358	0.0158907
764.436	0.0159914
764.514	0.0161269
764.592	0.0159357
764.670	0.0159765
764.748	0.0161465
764.826	0.0159993
764.905	0.0160625
764.983	0.0159277
765.061	0.0160046
765.139	0.0160793
765.217	0.0160345
765.295	0.0161340
765.373	0.0160472
765.451	0.0161020
765.530	0.0161119
765.608	0.0161549
765.686	0.0162580
765.764	0.0161636
765.842	0.0161375
765.920	0.0161267
765.998	0.0159432
766.076	0.0160917
766.155	0.0160738
766.233	0.0160254
766.311	0.0158950
766.389	0.0161091
766.467	0.0160078
766.545	0.0158733
766.623	0.0157668
766.701	0.0159258
766.780	0.0157895
766.858	0.0157153
766.936	0.0158813
767.014	0.0157735
767.092	0.0156650
767.170	0.0157398
767.248	0.0157720
767.326	0.0156570
767.405	0.0158997
767.483	0.0158905
767.561	0.0158458
767.639	0.0156684
767.717	0.0157719
767.795	0.0157543
767.873	0.0159265
767.951	0.0159164
768.030	0.0159827
768.108	0.0159458
768.186	0.0159660
768.264	0.0160641
768.342	0.0159216
768.420	0.0160662
768.498	0.0159366
768.576	0.0159974
768.655	0.0159902
768.733	0.0160432
768.811	0.0160986
768.889	0.0160670
768.967	0.0161385
769.045	0.0160865
769.123	0.0162683
769.201	0.0161034
769.280	0.0162778
769.358	0.0163412
769.436	0.0161680
769.514	0.0162742
769.592	0.0162768
769.670	0.0160952
769.748	0.0162173
769.826	0.0161819
769.905	0.0161902
769.983	0.0161780
770.061	0.0160645
770.139	0.0160170
770.217	0.0160149
770.295	0.0161808
770.373	0.0160285
770.451	0.0159299
770.530	0.0159464
770.608	0.0158449
770.686	0.0160246
770.764	0.0161469
770.842	0.0161259
770.920	0.0160360
770.998	0.0160617
771.076	0.0160699
771.155	0.0159680
771.233	0.0160769
771.311	0.0160476
771.389	0.0160568
771.467	0.0159615
771.545	0.0160258
771.623	0.0160909
771.701	0.0161208
771.780	0.0162064
771.858	0.0160232
771.936	0.0160192
772.014	0.0162144
772.092	0.0161047
772.170	0.0159538
772.248	0.0159221
772.326	0.0160835
772.405	0.0160303
772.483	0.0159750
772.561	0.0159701
772.639	0.0158986
772.717	0.0159616
772.795	0.0159039
772.873	0.0159396
772.951	0.0159412
773.030	0.0159266
773.108	0.0158905
773.186	0.0159977
773.264	0.0159175
773.342	0.0162015
773.420	0.0160875
773.498	0.0160523
773.576	0.0160252
773.655	0.0160371
773.733	0.0160764
773.811	0.0158997
773.889	0.0160194
773.967	0.0160054
774.045	0.0159562
774.123	0.0158904
774.201	0.0159742
774.280	0.0159198
774.358	0.0158521
774.436	0.0158694
774.514	0.0158713
774.592	0.0158603
774.670	0.0158967
774.748	0.0158704
774.826	0.0159206
774.905	0.0159209
774.983	0.0159160
775.061	0.0159267
775.139	0.0160853
775.217	0.0159567
775.295	0.0159650
775.373	0.0160478
775.451	0.0161577
775.530	0.0162727
775.608	0.0162605
775.686	0.0162881
775.764	0.0162582
775.842	0.0162572
775.920	0.0162990
775.998	0.0162191
776.076	0.0161218
776.155	0.0161536
776.233	0.0160982
776.311	0.0161726
776.389	0.0162225
776.467	0.0160958
776.545	0.0161295
776.623	0.0160419
776.701	0.0159039
776.780	0.0158913
776.858	0.0161854
776.936	0.0160213
777.014	0.0161231
777.092	0.0159554
777.170	0.0160291
777.248	0.0159954
777.326	0.0161510
777.405	0.0162012
777.483	0.0159795
777.561	0.0161021
777.639	0.0160367
777.717	0.0159438
777.795	0.0158221
777.873	0.0160800
777.951	0.0160288
778.030	0.0159599
778.108	0.0159808
778.186	0.0158663
778.264	0.0158803
778.342	0.0158360
778.420	0.0158913
778.498	0.0158220
778.576	0.0158657
778.655	0.0159226
778.733	0.0157252
778.811	0.0157259
778.889	0.0158365
778.967	0.0160457
779.045	0.0159074
779.123	0.0159573
779.201	0.0159464
779.280	0.0159569
779.358	0.0160189
779.436	0.0159814
779.514	0.0159540
779.592	0.0160339
779.670	0.0163054
779.748	0.0161198
779.826	0.0161053
779.905	0.0161772
779.983	0.0161826
780.061	0.0160393
780.139	0.0160899
780.217	0.0161171
780.295	0.0161311
780.373	0.0160412
780.451	0.0159676
780.530	0.0161210
780.608	0.0160397
780.686	0.0160954
780.764	0.0159856
780.842	0.0159818
780.920	0.0160149
780.998	0.0159982
781.076	0.0159656
781.155	0.0160592
781.233	0.0160163
781.311	0.0160016
781.389	0.0160757
781.467	0.0160130
781.545	0.0160474
781.623	0.0161189
781.701	0.0160976
781.780	0.0160509
781.858	0.0160696
781.936	0.0161021
782.014	0.0161153
782.092	0.0161157
782.170	0.0160332
782.248	0.0160958
782.326	0.0158981
782.405	0.0161200
782.483	0.0160912
782.561	0.0159660
782.639	0.0160033
782.717	0.0160413
782.795	0.0159707
782.873	0.0159752
782.951	0.0160027
783.030	0.0161093
783.108	0.0161298
783.186	0.0160355
783.264	0.0161383
783.342	0.0162315
783.420	0.0161472
783.498	0.0162346
783.576	0.0161162
783.655	0.0163035
783.733	0.0162593
783.811	0.0164928
783.889	0.0161720
783.967	0.0162386
784.045	0.0162878
784.123	0.0162520
784.201	0.0161518
784.280	0.0162082
784.358	0.0159799
784.436	0.0159923
784.514	0.0160916
784.592	0.0160107
784.670	0.0160683
784.748	0.0159423
784.826	0.0161204
784.905	0.0159902
784.983	0.0159254
785.061	0.0157941
785.139	0.0158077
785.217	0.0159485
785.295	0.0157383
785.373	0.0158784
785.451	0.0159046
785.530	0.0159264
785.608	0.0158444
785.686	0.0159830
785.764	0.0158980
785.842	0.0159196
785.920	0.0159023
785.998	0.0160392
786.076	0.0159673
786.155	0.0159183
786.233	0.0161208
786.311	0.0160095
786.389	0.0160885
786.467	0.0160959
786.545	0.0159994
786.623	0.0160529
786.701	0.0160987
786.780	0.0161230
786.858	0.0159905
786.936	0.0160647
787.014	0.0160242
787.092	0.0159486
787.170	0.0159157
787.248	0.0159904
787.326	0.0159299
787.405	0.0160311
787.483	0.0159191
787.561	0.0159401
787.639	0.0157706
787.717	0.0157759
787.795	0.0158363
787.873	0.0159184
787.951	0.0158694
788.030	0.0157397
788.108	0.0158154
788.186	0.0157032
788.264	0.0157249
788.342	0.0156793
788.420	0.0157558
788.498	0.0157855
788.576	0.0157366
788.655	0.0158127
788.733	0.0157368
788.811	0.0157965
788.889	0.0157343
788.967	0.0156796
789.045	0.0159014
789.123	0.0159015
789.201	0.0159637
789.280	0.0159948
789.358	0.0160414
789.436	0.0160971
789.514	0.0160894
789.592	0.0160960
789.670	0.0161214
789.748	0.0160583
789.826	0.0162875
789.905	0.0163007
789.983	0.0164371
790.061	0.0162219
790.139	0.0163771
790.217	0.0163390
790.295	0.0163547
790.373	0.0163629
790.451	0.0162890
790.530	0.0162027
790.608	0.0163431
790.686	0.0165038
790.764	0.0160974
790.842	0.0161916
790.920	0.0164223
790.998	0.0162657
791.076	0.0160475
791.155	0.0161506
791.233	0.0161595
791.311	0.0160328
791.389	0.0161120
791.467	0.0160445
791.545	0.0161059
791.623	0.0160225
791.701	0.0160812
791.780	0.0160243
791.858	0.0161047
791.936	0.0159950
792.014	0.0160369
792.092	0.0160017
792.170	0.0159122
792.248	0.0161475
792.326	0.0160780
792.405	0.0159412
792.483	0.0160682
792.561	0.0158647
792.639	0.0159480
792.717	0.0160580
792.795	0.0160518
792.873	0.0159898
792.951	0.0160036
793.030	0.0160300
793.108	0.0159421
793.186	0.0159829
793.264	0.0159866
793.342	0.0159145
793.420	0.0159503
793.498	0.0159637
793.576	0.0160153
793.655	0.0159230
793.733	0.0160216
793.811	0.0161029
793.889	0.0160443
793.967	0.0160140
794.045	0.0161245
794.123	0.0160983
794.201	0.0160133
794.280	0.0161230
794.358	0.0161440
794.436	0.0161413
794.514	0.0160474
794.592	0.0161432
794.670	0.0161295
794.748	0.0159476
794.826	0.0161151
794.905	0.0159828
794.983	0.0160662
795.061	0.0160391
795.139	0.0160086
795.217	0.0161308
795.295	0.0161946
795.373	0.0161522
795.451	0.0161370
795.530	0.0161618
795.608	0.0159559
795.686	0.0160859
795.764	0.0163319
795.842	0.0161043
795.920	0.0160734
795.998	0.0160448
796.076	0.0159631
796.155	0.0159818
796.233	0.0161502
796.311	0.0160416
796.389	0.0159238
796.467	0.0158557
796.545	0.0159776
796.623	0.0159917
796.701	0.0159274
796.780	0.0158691
796.858	0.0158241
796.936	0.0158742
797.014	0.0158381
797.092	0.0157817
797.170	0.0157463
797.248	0.0157241
797.326	0.0157172
797.405	0.0156776
797.483	0.0156176
797.561	0.0156126
797.639	0.0156699
797.717	0.0156063
797.795	0.0156877
797.873	0.0157077
797.951	0.0155344
798.030	0.0157668
798.108	0.0157461
798.186	0.0157708
798.264	0.0156961
798.342	0.0156828
798.420	0.0157555
798.498	0.0156868
798.576	0.0157225
798.655	0.0157735
798.733	0.0158010
798.811	0.0157815
798.889	0.0158965
798.967	0.0158804
799.045	0.0159027
799.123	0.0157677
799.201	0.0160306
799.280	0.0159276
799.358	0.0160114
799.436	0.0159384
799.514	0.0159634
799.592	0.0161536
799.670	0.0160810
799.748	0.0159563
799.826	0.0159956
799.905	0.0161555
799.983	0.0160799
800.061	0.0160584
800.139	0.0160736
800.217	0.0160806
800.295	0.0161561
800.373	0.0161060
800.451	0.0161632
800.530	0.0161830
800.608	0.0161767
800.686	0.0160922
800.764	0.0160771
800.842	0.0160190
800.920	0.0160075
800.998	0.0161363
801.076	0.0160420
801.155	0.0159554
801.233	0.0160062
801.311	0.0160509
801.389	0.0159309
801.467	0.0158276
801.545	0.0159258
801.623	0.0157841
801.701	0.0158985
801.780	0.0158380
801.858	0.0157658
801.936	0.0157865
802.014	0.0158350
802.092	0.0157130
802.170	0.0158063
802.248	0.0157133
802.326	0.0158367
802.405	0.0156962
802.483	0.0157734
802.561	0.0159829
802.639	0.0158573
802.717	0.0160251
802.795	0.0158474
802.873	0.0159171
802.951	0.0159323
803.030	0.0160815
803.108	0.0159124
803.186	0.0159167
803.264	0.0160251
803.342	0.0159525
803.420	0.0157574
803.498	0.0159235
803.576	0.0160388
803.655	0.0158951
803.733	0.0159111
803.811	0.0159616
803.889	0.0159610
803.967	0.0161242
804.045	0.0159798
804.123	0.0161503
804.201	0.0161778
804.280	0.0160094
804.358	0.0161118
804.436	0.0162330
804.514	0.0161414
804.592	0.0161721
804.670	0.0161117
804.748	0.0162708
804.826	0.0162810
804.905	0.0161948
804.983	0.0162336
805.061	0.0161413
805.139	0.0161828
805.217	0.0161121
805.295	0.0161830
805.373	0.0161113
805.451	0.0160851
805.530	0.0160760
805.608	0.0159898
805.686	0.0160742
805.764	0.0160719
805.842	0.0160310
805.920	0.0161342
805.998	0.0160122
806.076	0.0161690
806.155	0.0162379
806.233	0.0161684
806.311	0.0162566
806.389	0.0163251
806.467	0.0163344
806.545	0.0164083
806.623	0.0164635
806.701	0.0162859
806.780	0.0163721
806.858	0.0163977
806.936	0.0162745
807.014	0.0163239
807.092	0.0164001
807.170	0.0162769
807.248	0.0162711
807.326	0.0163126
807.405	0.0163090
807.483	0.0161921
807.561	0.0162064
807.639	0.0161534
807.717	0.0160965
807.795	0.0161532
807.873	0.0162036
807.951	0.0160590
808.030	0.0159901
808.108	0.0160913
808.186	0.0160589
808.264	0.0159000
808.342	0.0159630
808.420	0.0159176
808.498	0.0158878
808.576	0.0159586
808.655	0.0159871
808.733	0.0159184
808.811	0.0160760
808.889	0.0159464
808.967	0.0158206
809.045	0.0158870
809.123	0.0157835
809.201	0.0158086
809.280	0.0156985
809.358	0.0157845
809.436	0.0160760
809.514	0.0158246
809.592	0.0159112
809.670	0.0159194
809.748	0.0157955
809.826	0.0157116
809.905	0.0159140
809.983	0.0157732
810.061	0.0158665
810.139	0.0159396
810.217	0.0159762
810.295	0.0158483
810.373	0.0158978
810.451	0.0159875
810.530	0.0158858
810.608	0.0160625
810.686	0.0160965
810.764	0.0159330
810.842	0.0161461
810.920	0.0160403
810.998	0.0161005
811.076	0.0161813
811.155	0.0160780
811.233	0.0160902
811.311	0.0161989
811.389	0.0159915
811.467	0.0160913
811.545	0.0159798
811.623	0.0159575
811.701	0.0159984
811.780	0.0158712
811.858	0.0158391
811.936	0.0157585
812.014	0.0156946
812.092	0.0156336
812.170	0.0157718
812.248	0.0158500
812.326	0.0157870
812.405	0.0156959
812.483	0.0158263
812.561	0.0157671
812.639	0.0157636
812.717	0.0156868
812.795	0.0157413
812.873	0.0156653
812.951	0.0157566
813.030	0.0159409
813.108	0.0157165
813.186	0.0158797
813.264	0.0157761
813.342	0.0157494
813.420	0.0157278
813.498	0.0156516
813.576	0.0157130
813.655	0.0156093
813.733	0.0155705
813.811	0.0157188
813.889	0.0158194
813.967	0.0156895
814.045	0.0157312
814.123	0.0157125
814.201	0.0157724
814.280	0.0158958
814.358	0.0158151
814.436	0.0158647
814.514	0.0158356
814.592	0.0159216
814.670	0.0158719
814.748	0.0158897
814.826	0.0159589
814.905	0.0159458
814.983	0.0158382
815.061	0.0159008
815.139	0.0160621
815.217	0.0160995
815.295	0.0158466
815.373	0.0159337
815.451	0.0159279
815.530	0.0159573
815.608	0.0159907
815.686	0.0159476
815.764	0.0157704
815.842	0.0158864
815.920	0.0158161
815.998	0.0158042
816.076	0.0160064
816.155	0.0158884
816.233	0.0157962
816.311	0.0159235
816.389	0.0158501
816.467	0.0159145
816.545	0.0159732
816.623	0.0158659
816.701	0.0159635
816.780	0.0159967
816.858	0.0161108
816.936	0.0159872
817.014	0.0159617
817.092	0.0159228
817.170	0.0160783
817.248	0.0161337
817.326	0.0160435
817.405	0.0160800
817.483	0.0159682
817.561	0.0158607
817.639	0.0158827
817.717	0.0158939
817.795	0.0159711
817.873	0.0159505
817.951	0.0157821
818.030	0.0158885
818.108	0.0159790
818.186	0.0159449
818.264	0.0158817
818.342	0.0160323
818.420	0.0160646
818.498	0.0159841
818.576	0.0159708
818.655	0.0160074
818.733	0.0158770
818.811	0.0160079
818.889	0.0160568
818.967	0.0160385
819.045	0.0160532
819.123	0.0159563
819.201	0.0160723
819.280	0.0159325
819.358	0.0161781
819.436	0.0161827
819.514	0.0160229
819.592	0.0159879
819.670	0.0159712
819.748	0.0159196
819.826	0.0159618
819.905	0.0159229
819.983	0.0158456
820.061	0.0156981
820.139	0.0157628
820.217	0.0157545
820.295	0.0158216
820.373	0.0158151
820.451	0.0158431
820.530	0.0158220
820.608	0.0157576
820.686	0.0157733
820.764	0.0158079
820.842	0.0157475
820.920	0.0156248
820.998	0.0158334
821.076	0.0156942
821.155	0.0158263
821.233	0.0159322
821.311	0.0158766
821.389	0.0158713
821.467	0.0157622
821.545	0.0159722
821.623	0.0159724
821.701	0.0157686
821.780	0.0158930
821.858	0.0158714
821.936	0.0159509
822.014	0.0158766
822.092	0.0159055
822.170	0.0159169
822.248	0.0160350
822.326	0.0159422
822.405	0.0159606
822.483	0.0159502
822.561	0.0159338
822.639	0.0159598
822.717	0.0160636
822.795	0.0159824
822.873	0.0160365
822.951	0.0160726
823.030	0.0161168
823.108	0.0161279
823.186	0.0159723
823.264	0.0160379
823.342	0.0161848
823.420	0.0161776
823.498	0.0162567
823.576	0.0161305
823.655	0.0161619
823.733	0.0161294
823.811	0.0161569
823.889	0.0160942
823.967	0.0161258
824.045	0.0160095
824.123	0.0161279
824.201	0.0160740
824.280	0.0160023
824.358	0.0159504
824.436	0.0160683
824.514	0.0160504
824.592	0.0161028
824.670	0.0160403
824.748	0.0160536
824.826	0.0161242
824.905	0.0161117
824.983	0.0161600
825.061	0.0160937
825.139	0.0159464
825.217	0.0160618
825.295	0.0161419
825.373	0.0161282
825.451	0.0161043
825.530	0.0159943
825.608	0.0158774
825.686	0.0160629
825.764	0.0159973
825.842	0.0160413
825.920	0.0160281
825.998	0.0160721
826.076	0.0160196
826.155	0.0158179
826.233	0.0156752
826.311	0.0158377
826.389	0.0157816
826.467	0.0159634
826.545	0.0159019
826.623	0.0158318
826.701	0.0159661
826.780	0.0156284
826.858	0.0157961
826.936	0.0159067
827.014	0.0159469
827.092	0.0158669
827.170	0.0159413
827.248	0.0158801
827.326	0.0159902
827.405	0.0158043
827.483	0.0159807
827.561	0.0158144
827.639	0.0158704
827.717	0.0158723
827.795	0.0158566
827.873	0.0159693
827.951	0.0158195
828.030	0.0158035
828.108	0.0157565
828.186	0.0159092
828.264	0.0159583
828.342	0.0157997
828.420	0.0157482
828.498	0.0158977
828.576	0.0158331
828.655	0.0158220
828.733	0.0158110
828.811	0.0157497
828.889	0.0158723
828.967	0.0157736
829.045	0.0159162
829.123	0.0158759
829.201	0.0159851
829.280	0.0157991
829.358	0.0158976
829.436	0.0158588
829.514	0.0158033
829.592	0.0159389
829.670	0.0158485
829.748	0.0158061
829.826	0.0160487
829.905	0.0159323
829.983	0.0159185
830.061	0.0160667
830.139	0.0159335
830.217	0.0159865
830.295	0.0160272
830.373	0.0159339
830.451	0.0160741
830.530	0.0160027
830.608	0.0159000
830.686	0.0159771
830.764	0.0159471
830.842	0.0160552
830.920	0.0159927
830.998	0.0159253
831.076	0.0159367
831.155	0.0159330
831.233	0.0158701
831.311	0.0159096
831.389	0.0158461
831.467	0.0159579
831.545	0.0158561
831.623	0.0159753
831.701	0.0158871
831.780	0.0159330
831.858	0.0158602
831.936	0.0159604
832.014	0.0159738
832.092	0.0159403
832.170	0.0159155
832.248	0.0159904
832.326	0.0159269
832.405	0.0160296
832.483	0.0159212
832.561	0.0159671
832.639	0.0159225
832.717	0.0159540
832.795	0.0158485
832.873	0.0159991
832.951	0.0158109
833.030	0.0159065
833.108	0.0158547
833.186	0.0159054
833.264	0.0160110
833.342	0.0161231
833.420	0.0159895
833.498	0.0160686
833.576	0.0159245
833.655	0.0159911
833.733	0.0159129
833.811	0.0158802
833.889	0.0158463
833.967	0.0159990
834.045	0.0159124
834.123	0.0160319
834.201	0.0159061
834.280	0.0159596
834.358	0.0158894
834.436	0.0158071
834.514	0.0158301
834.592	0.0158875
834.670	0.0159189
834.748	0.0159038
834.826	0.0158694
834.905	0.0158977
834.983	0.0157755
835.061	0.0156701
835.139	0.0158572
835.217	0.0158540
835.295	0.0158549
835.373	0.0159528
835.451	0.0159129
835.530	0.0158518
835.608	0.0158817
835.686	0.0159852
835.764	0.0161160
835.842	0.0159212
835.920	0.0159106
835.998	0.0159901
836.076	0.0160103
836.155	0.0160544
836.233	0.0161016
836.311	0.0160476
836.389	0.0160709
836.467	0.0159743
836.545	0.0158613
836.623	0.0157915
836.701	0.0158953
836.780	0.0160084
836.858	0.0159259
836.936	0.0158203
837.014	0.0158639
837.092	0.0159978
837.170	0.0159682
837.248	0.0159191
837.326	0.0159589
837.405	0.0159719
837.483	0.0158384
837.561	0.0158485
837.639	0.0159837
837.717	0.0160034
837.795	0.0157284
837.873	0.0160017
837.951	0.0158909
838.030	0.0157761
838.108	0.0157993
838.186	0.0158691
838.264	0.0159440
838.342	0.0157853
838.420	0.0158480
838.498	0.0157195
838.576	0.0159570
838.655	0.0158674
838.733	0.0158975
838.811	0.0158744
838.889	0.0157837
838.967	0.0159307
839.045	0.0159123
839.123	0.0158258
839.201	0.0158553
839.280	0.0159799
839.358	0.0160978
839.436	0.0160226
839.514	0.0159803
839.592	0.0159414
839.670	0.0159718
839.748	0.0161588
839.826	0.0160887
839.905	0.0160709
839.983	0.0159182
840.061	0.0161649
840.139	0.0160772
840.217	0.0160407
840.295	0.0160802
840.373	0.0160239
840.451	0.0160431
840.530	0.0161494
840.608	0.0161075
840.686	0.0161404
840.764	0.0160462
840.842	0.0161449
840.920	0.0161646
840.998	0.0161255
841.076	0.0159259
841.155	0.0160409
841.233	0.0161197
841.311	0.0160377
841.389	0.0159650
841.467	0.0159470
841.545	0.0159447
841.623	0.0159098
841.701	0.0161253
841.780	0.0160065
841.858	0.0159413
841.936	0.0160426
842.014	0.0160379
842.092	0.0158681
842.170	0.0159727
842.248	0.0160200
842.326	0.0159597
842.405	0.0160986
842.483	0.0159536
842.561	0.0160778
842.639	0.0160102
842.717	0.0159692
842.795	0.0161601
842.873	0.0160919
842.951	0.0158907
843.030	0.0159807
843.108	0.0161057
843.186	0.0161665
843.264	0.0158045
843.342	0.0159251
843.420	0.0160062
843.498	0.0160774
843.576	0.0159125
843.655	0.0159558
843.733	0.0160969
843.811	0.0160859
843.889	0.0159038
843.967	0.0159774
844.045	0.0159731
844.123	0.0158472
844.201	0.0160645
844.280	0.0160287
844.358	0.0160719
844.436	0.0159896
844.514	0.0160892
844.592	0.0160964
844.670	0.0160065
844.748	0.0159173
844.826	0.0161668
844.905	0.0161773
844.983	0.0159528
845.061	0.0160813
845.139	0.0160432
845.217	0.0160298
845.295	0.0160371
845.373	0.0160116
845.451	0.0161497
845.530	0.0162394
845.608	0.0161057
845.686	0.0160060
845.764	0.0160136
845.842	0.0161002
845.920	0.0160851
845.998	0.0161817
846.076	0.0161012
846.155	0.0160915
846.233	0.0160480
846.311	0.0161541
846.389	0.0161553
846.467	0.0161476
846.545	0.0161172
846.623	0.0160229
846.701	0.0158665
846.780	0.0160621
846.858	0.0160626
846.936	0.0160100
847.014	0.0159845
847.092	0.0160711
847.170	0.0161024
847.248	0.0160394
847.326	0.0159912
847.405	0.0160268
847.483	0.0159628
847.561	0.0158801
847.639	0.0160605
847.717	0.0158693
847.795	0.0161314
847.873	0.0160928
847.951	0.0160253
848.030	0.0158739
848.108	0.0162070
848.186	0.0162701
848.264	0.0159870
848.342	0.0161031
848.420	0.0162132
848.498	0.0160455
848.576	0.0160534
848.655	0.0161259
848.733	0.0161858
848.811	0.0160867
848.889	0.0161845
848.967	0.0161559
849.045	0.0161436
849.123	0.0160796
849.201	0.0159901
849.280	0.0160271
849.358	0.0160027
849.436	0.0161374
849.514	0.0160717
849.592	0.0159380
849.670	0.0160350
849.748	0.0161124
849.826	0.0160710
849.905	0.0160317
849.983	0.0160670
850.061	0.0160682
850.139	0.0160061
850.217	0.0161172
850.295	0.0160982
850.373	0.0159318
850.451	0.0160573
850.530	0.0159354
850.608	0.0160989
850.686	0.0161552
850.764	0.0161018
850.842	0.0161341
850.920	0.0160268
850.998	0.0159962
851.076	0.0160681
851.155	0.0158330
851.233	0.0159743
851.311	0.0159304
851.389	0.0159131
851.467	0.0159835
851.545	0.0159817
851.623	0.0159431
851.701	0.0158949
851.780	0.0159066
851.858	0.0158781
851.936	0.0159793
852.014	0.0158913
852.092	0.0159785
852.170	0.0159725
852.248	0.0158718
852.326	0.0159728
852.405	0.0160088
852.483	0.0161392
852.561	0.0159091
852.639	0.0159212
852.717	0.0159956
852.795	0.0159308
852.873	0.0160538
852.951	0.0159479
853.030	0.0159630
853.108	0.0160194
853.186	0.0160265
853.264	0.0159853
853.342	0.0158459
853.420	0.0160142
853.498	0.0160098
853.576	0.0159302
853.655	0.0160596
853.733	0.0160007
853.811	0.0159663
853.889	0.0159916
853.967	0.0159975
854.045	0.0159251
854.123	0.0158889
854.201	0.0159296
854.280	0.0159815
854.358	0.0159839
854.436	0.0158224
854.514	0.0158515
854.592	0.0158617
854.670	0.0158477
854.748	0.0159352
854.826	0.0159507
854.905	0.0158904
854.983	0.0160027
855.061	0.0160164
855.139	0.0158599
855.217	0.0159168
855.295	0.0159740
855.373	0.0159122
855.451	0.0160304
855.530	0.0160126
855.608	0.0160006
855.686	0.0160672
855.764	0.0159612
855.842	0.0158386
855.920	0.0159653
855.998	0.0160903
856.076	0.0159031
856.155	0.0159964
856.233	0.0160798
856.311	0.0160799
856.389	0.0160356
856.467	0.0159785
856.545	0.0160634
856.623	0.0159419
856.701	0.0159332
856.780	0.0161061
856.858	0.0160187
856.936	0.0160996
857.014	0.0159879
857.092	0.0159615
857.170	0.0159842
857.248	0.0157974
857.326	0.0159438
857.405	0.0161090
857.483	0.0159254
857.561	0.0159657
857.639	0.0160383
857.717	0.0158987
857.795	0.0159808
857.873	0.0160406
857.951	0.0159596
858.030	0.0159646
858.108	0.0159085
858.186	0.0159369
858.264	0.0158162
858.342	0.0159534
858.420	0.0159129
858.498	0.0158224
858.576	0.0160049
858.655	0.0159886
858.733	0.0160713
858.811	0.0159361
858.889	0.0160569
858.967	0.0159817
859.045	0.0158801
859.123	0.0160905
859.201	0.0160397
859.280	0.0161769
859.358	0.0160535
859.436	0.0159788
859.514	0.0162053
859.592	0.0160487
859.670	0.0161326
859.748	0.0160531
859.826	0.0159466
859.905	0.0161094
859.983	0.0161134
860.061	0.0160298
860.139	0.0159709
860.217	0.0159853
860.295	0.0160289
860.373	0.0159483
860.451	0.0159521
860.530	0.0159618
860.608	0.0158771
860.686	0.0159583
860.764	0.0158537
860.842	0.0158250
860.920	0.0159390
860.998	0.0159262
861.076	0.0158818
861.155	0.0157988
861.233	0.0156648
861.311	0.0158768
861.389	0.0157077
861.467	0.0157559
861.545	0.0157561
861.623	0.0156799
861.701	0.0156947
861.780	0.0156949
861.858	0.0157256
861.936	0.0156837
862.014	0.0157017
862.092	0.0156986
862.170	0.0156504
862.248	0.0157355
862.326	0.0156207
862.405	0.0156928
862.483	0.0156680
862.561	0.0158721
862.639	0.0158066
862.717	0.0157935
862.795	0.0158234
862.873	0.0158402
862.951	0.0159377
863.030	0.0157373
863.108	0.0159261
863.186	0.0157791
863.264	0.0158875
863.342	0.0158978
863.420	0.0160358
863.498	0.0159235
863.576	0.0159929
863.655	0.0159979
863.733	0.0160645
863.811	0.0159893
863.889	0.0160232
863.967	0.0159643
864.045	0.0160472
864.123	0.0160618
864.201	0.0159727
864.280	0.0161469
864.358	0.0160654
864.436	0.0159900
864.514	0.0159689
864.592	0.0159819
864.670	0.0159853
864.748	0.0159554
864.826	0.0160828
864.905	0.0159953
864.983	0.0160452
865.061	0.0160390
865.139	0.0160984
865.217	0.0159122
865.295	0.0160343
865.373	0.0161328
865.451	0.0160200
865.530	0.0160007
865.608	0.0160690
865.686	0.0160217
865.764	0.0161670
865.842	0.0161682
865.920	0.0160602
865.998	0.0161531
866.076	0.0161022
866.155	0.0160111
866.233	0.0159933
866.311	0.0161543
866.389	0.0161713
866.467	0.0159657
866.545	0.0160261
866.623	0.0161349
866.701	0.0162845
866.780	0.0161772
866.858	0.0160368
866.936	0.0161266
867.014	0.0161002
867.092	0.0161034
867.170	0.0161597
867.248	0.0161109
867.326	0.0162584
867.405	0.0161823
867.483	0.0162093
867.561	0.0162155
867.639	0.0160850
867.717	0.0159579
867.795	0.0159786
867.873	0.0160402
867.951	0.0160241
868.030	0.0159306
868.108	0.0159369
868.186	0.0158987
868.264	0.0160778
868.342	0.0160941
868.420	0.0159621
868.498	0.0159116
868.576	0.0160542
868.655	0.0160428
868.733	0.0159758
868.811	0.0159612
868.889	0.0160294
868.967	0.0160786
869.045	0.0159705
869.123	0.0160049
869.201	0.0159965
869.280	0.0160756
869.358	0.0161023
869.436	0.0159750
869.514	0.0161205
869.592	0.0162557
869.670	0.0159896
869.748	0.0161999
869.826	0.0161089
869.905	0.0161743
869.983	0.0160530
870.061	0.0160332
870.139	0.0160236
870.217	0.0162388
870.295	0.0161300
870.373	0.0160504
870.451	0.0159923
870.530	0.0160293
870.608	0.0161129
870.686	0.0159505
870.764	0.0161767
870.842	0.0159174
870.920	0.0161363
870.998	0.0162929
871.076	0.0162257
871.155	0.0159416
871.233	0.0161479
871.311	0.0161263
871.389	0.0161516
871.467	0.0161754
871.545	0.0161726
871.623	0.0161868
871.701	0.0160888
871.780	0.0163398
871.858	0.0162446
871.936	0.0160310
872.014	0.0162481
872.092	0.0161091
872.170	0.0160938
872.248	0.0161517
872.326	0.0161111
872.405	0.0159995
872.483	0.0161577
872.561	0.0161562
872.639	0.0161135
872.717	0.0159263
872.795	0.0160850
872.873	0.0162128
872.951	0.0160303
873.030	0.0160063
873.108	0.0161460
873.186	0.0159834
873.264	0.0159896
873.342	0.0160979
873.420	0.0159995
873.498	0.0161148
873.576	0.0160256
873.655	0.0160741
873.733	0.0160081
873.811	0.0159955
873.889	0.0160558
873.967	0.0160909
874.045	0.0160198
874.123	0.0159696
874.201	0.0160995
874.280	0.0158952
874.358	0.0160213
874.436	0.0159528
874.514	0.0158829
874.592	0.0159679
874.670	0.0160475
874.748	0.0159772
874.826	0.0158805
874.905	0.0159032
874.983	0.0159541
875.061	0.0161049
875.139	0.0159727
875.217	0.0159837
875.295	0.0159377
875.373	0.0159639
875.451	0.0160070
875.530	0.0159234
875.608	0.0160715
875.686	0.0160206
875.764	0.0158368
875.842	0.0159301
875.920	0.0160218
875.998	0.0159461
876.076	0.0159966
876.155	0.0160403
876.233	0.0158067
876.311	0.0158992
876.389	0.0158457
876.467	0.0158350
876.545	0.0158437
876.623	0.0157501
876.701	0.0157502
876.780	0.0158131
876.858	0.0158015
876.936	0.0157877
877.014	0.0157766
877.092	0.0157737
877.170	0.0157233
877.248	0.0156579
877.326	0.0158706
877.405	0.0159968
877.483	0.0159056
877.561	0.0159356
877.639	0.0158501
877.717	0.0158999
877.795	0.0158542
877.873	0.0159830
877.951	0.0159502
878.030	0.0160095
878.108	0.0160299
878.186	0.0159559
878.264	0.0159264
878.342	0.0159386
878.420	0.0161377
878.498	0.0161422
878.576	0.0160836
878.655	0.0161324
878.733	0.0160650
878.811	0.0160712
878.889	0.0161494
878.967	0.0162123
879.045	0.0161691
879.123	0.0161446
879.201	0.0161079
879.280	0.0161834
879.358	0.0161108
879.436	0.0161474
879.514	0.0161665
879.592	0.0162460
879.670	0.0159805
879.748	0.0160997
879.826	0.0162244
879.905	0.0160538
879.983	0.0161014
880.061	0.0161482
880.139	0.0161995
880.217	0.0160600
880.295	0.0160912
880.373	0.0162026
880.451	0.0160857
880.530	0.0161186
880.608	0.0161899
880.686	0.0160500
880.764	0.0160259
880.842	0.0161057
880.920	0.0160091
880.998	0.0160236
881.076	0.0160149
881.155	0.0161548
881.233	0.0158768
881.311	0.0158592
881.389	0.0159785
881.467	0.0159212
881.545	0.0158868
881.623	0.0159611
881.701	0.0158737
881.780	0.0157397
881.858	0.0159089
881.936	0.0158138
882.014	0.0157593
882.092	0.0157132
882.170	0.0158529
882.248	0.0158374
882.326	0.0158192
882.405	0.0157577
882.483	0.0158304
882.561	0.0157893
882.639	0.0158913
882.717	0.0158829
882.795	0.0158817
882.873	0.0158726
882.951	0.0157430
883.030	0.0157999
883.108	0.0158266
883.186	0.0158736
883.264	0.0157768
883.342	0.0158653
883.420	0.0160255
883.498	0.0157988
883.576	0.0158703
883.655	0.0158939
883.733	0.0158561
883.811	0.0158661
883.889	0.0159135
883.967	0.0159767
884.045	0.0159629
884.123	0.0159336
884.201	0.0159528
884.280	0.0158489
884.358	0.0160186
884.436	0.0159979
884.514	0.0159464
884.592	0.0161066
884.670	0.0157902
884.748	0.0158307
884.826	0.0159651
884.905	0.0159005
884.983	0.0158256
885.061	0.0157876
885.139	0.0159815
885.217	0.0159563
885.295	0.0158661
885.373	0.0158298
885.451	0.0160170
885.530	0.0159557
885.608	0.0158642
885.686	0.0158647
885.764	0.0159320
885.842	0.0157600
885.920	0.0158916
885.998	0.0158344
886.076	0.0159473
886.155	0.0159862
886.233	0.0158697
886.311	0.0158586
886.389	0.0158971
886.467	0.0157937
886.545	0.0158440
886.623	0.0158697
886.701	0.0159744
886.780	0.0157909
886.858	0.0158840
886.936	0.0157685
887.014	0.0159415
887.092	0.0159565
887.170	0.0158089
887.248	0.0159147
887.326	0.0158689
887.405	0.0158582
887.483	0.0158712
887.561	0.0158895
887.639	0.0158974
887.717	0.0158366
887.795	0.0156992
887.873	0.0157986
887.951	0.0159277
888.030	0.0158210
888.108	0.0158491
888.186	0.0158311
888.264	0.0158528
888.342	0.0157314
888.420	0.0159949
888.498	0.0158981
888.576	0.0158704
888.655	0.0159456
888.733	0.0158524
888.811	0.0158852
888.889	0.0158142
888.967	0.0158954
889.045	0.0159053
889.123	0.0157948
889.201	0.0159171
889.280	0.0157944
889.358	0.0157839
889.436	0.0157222
889.514	0.0159055
889.592	0.0158326
889.670	0.0158567
889.748	0.0158157
889.826	0.0159001
889.905	0.0158707
889.983	0.0159331
890.061	0.0158924
890.139	0.0158594
890.217	0.0158519
890.295	0.0159336
890.373	0.0159640
890.451	0.0158816
890.530	0.0159617
890.608	0.0159241
890.686	0.0159216
890.764	0.0159315
890.842	0.0158636
890.920	0.0160034
890.998	0.0160394
891.076	0.0159560
891.155	0.0158321
891.233	0.0158630
891.311	0.0159917
891.389	0.0158850
891.467	0.0160841
891.545	0.0158465
891.623	0.0159357
891.701	0.0159657
891.780	0.0159803
891.858	0.0161575
891.936	0.0159914
892.014	0.0159978
892.092	0.0160365
892.170	0.0160308
892.248	0.0160003
892.326	0.0159785
892.405	0.0159955
892.483	0.0160386
892.561	0.0159435
892.639	0.0160027
892.717	0.0159893
892.795	0.0159991
892.873	0.0160513
892.951	0.0160743
893.030	0.0162231
893.108	0.0161050
893.186	0.0161287
893.264	0.0160703
893.342	0.0161034
893.420	0.0161002
893.498	0.0160666
893.576	0.0161088
893.655	0.0161186
893.733	0.0161543
893.811	0.0161263
893.889	0.0160115
893.967	0.0161483
894.045	0.0163783
894.123	0.0162302
894.201	0.0162203
894.280	0.0162183
894.358	0.0161688
894.436	0.0161185
894.514	0.0162373
894.592	0.0161415
894.670	0.0161189
894.748	0.0161459
894.826	0.0162622
894.905	0.0160677
894.983	0.0161789
895.061	0.0162270
895.139	0.0161617
895.217	0.0161804
895.295	0.0161426
895.373	0.0161229
895.451	0.0162697
895.530	0.0161736
895.608	0.0161723
895.686	0.0160088
895.764	0.0160965
895.842	0.0159908
895.920	0.0159737
895.998	0.0160885
896.076	0.0158781
896.155	0.0159881
896.233	0.0160577
896.311	0.0159572
896.389	0.0161016
896.467	0.0158894
896.545	0.0159204
896.623	0.0159081
896.701	0.0160133
896.780	0.0157578
896.858	0.0158243
896.936	0.0159216
897.014	0.0158405
897.092	0.0158747
897.170	0.0159911
897.248	0.0158130
897.326	0.0157987
897.405	0.0158230
897.483	0.0156896
897.561	0.0157555
897.639	0.0158887
897.717	0.0158640
897.795	0.0157713
897.873	0.0158450
897.951	0.0158655
898.030	0.0157887
898.108	0.0158241
898.186	0.0158506
898.264	0.0157367
898.342	0.0159374
898.420	0.0159213
898.498	0.0158636
898.576	0.0159673
898.655	0.0160629
898.733	0.0159981
898.811	0.0160022
898.889	0.0160210
898.967	0.0160507
899.045	0.0161633
899.123	0.0161295
899.201	0.0160066
899.280	0.0160867
899.358	0.0159971
899.436	0.0161816
899.514	0.0160800
899.592	0.0161972
899.670	0.0161476
899.748	0.0160844
899.826	0.0160104
899.905	0.0160876
899.983	0.0162021
900.061	0.0160826
900.139	0.0160535
900.217	0.0160818
900.295	0.0160812
900.373	0.0160433
900.451	0.0160984
900.530	0.0160376
900.608	0.0161394
900.686	0.0159860
900.764	0.0160959
900.842	0.0161607
900.920	0.0160487
900.998	0.0161890
901.076	0.0162103
901.155	0.0161845
901.233	0.0161151
901.311	0.0160700
901.389	0.0162769
901.467	0.0163401
901.545	0.0162868
901.623	0.0161527
901.701	0.0161608
901.780	0.0161885
901.858	0.0161921
901.936	0.0162300
902.014	0.0161623
902.092	0.0162254
902.170	0.0162242
902.248	0.0162057
902.326	0.0162798
902.405	0.0162698
902.483	0.0161319
902.561	0.0161566
902.639	0.0162060
902.717	0.0160756
902.795	0.0160777
902.873	0.0161982
902.951	0.0160966
903.030	0.0159872
903.108	0.0160062
903.186	0.0160797
903.264	0.0160778
903.342	0.0160991
903.420	0.0160568
903.498	0.0160252
903.576	0.0160088
903.655	0.0158739
903.733	0.0159306
903.811	0.0159346
903.889	0.0158398
903.967	0.0158144
904.045	0.0160130
904.123	0.0161079
904.201	0.0160351
904.280	0.0158636
904.358	0.0159391
904.436	0.0159511
904.514	0.0159857
904.592	0.0159066
904.670	0.0160172
904.748	0.0160239
904.826	0.0160077
904.905	0.0158865
904.983	0.0158713
905.061	0.0159801
905.139	0.0158927
905.217	0.0159138
905.295	0.0159428
905.373	0.0159478
905.451	0.0160072
905.530	0.0158779
905.608	0.0160032
905.686	0.0160120
905.764	0.0159418
905.842	0.0158973
905.920	0.0159464
905.998	0.0159956
906.076	0.0160219
906.155	0.0159795
906.233	0.0160051
906.311	0.0160023
906.389	0.0159858
906.467	0.0158509
906.545	0.0159370
906.623	0.0158933
906.701	0.0160511
906.780	0.0160329
906.858	0.0160034
906.936	0.0160636
907.014	0.0160046
907.092	0.0161802
907.170	0.0160154
907.248	0.0159570
907.326	0.0159823
907.405	0.0160621
907.483	0.0159866
907.561	0.0160137
907.639	0.0161382
907.717	0.0160370
907.795	0.0160177
907.873	0.0159362
907.951	0.0159394
908.030	0.0159361
908.108	0.0160074
908.186	0.0158953
908.264	0.0160697
908.342	0.0160381
908.420	0.0161133
908.498	0.0160590
908.576	0.0160629
908.655	0.0158889
908.733	0.0160045
908.811	0.0160917
908.889	0.0160681
908.967	0.0160629
909.045	0.0159686
909.123	0.0160565
909.201	0.0162010
909.280	0.0159544
909.358	0.0160761
909.436	0.0161040
909.514	0.0159634
909.592	0.0160521
909.670	0.0159992
909.748	0.0159146
909.826	0.0160077
909.905	0.0160204
909.983	0.0158831
910.061	0.0159277
910.139	0.0158406
910.217	0.0158867
910.295	0.0159011
910.373	0.0157933
910.451	0.0158976
910.530	0.0159313
910.608	0.0156834
910.686	0.0158059
910.764	0.0159290
910.842	0.0158921
910.920	0.0158427
910.998	0.0158627
911.076	0.0158356
911.155	0.0159444
911.233	0.0158609
911.311	0.0159367
911.389	0.0158015
911.467	0.0159177
911.545	0.0159493
911.623	0.0159780
911.701	0.0161668
911.780	0.0158975
911.858	0.0158430
911.936	0.0159382
912.014	0.0159881
912.092	0.0158694
912.170	0.0159100
912.248	0.0160825
912.326	0.0160188
912.405	0.0160139
912.483	0.0158763
912.561	0.0160830
912.639	0.0158735
912.717	0.0159787
912.795	0.0160309
912.873	0.0159890
912.951	0.0160435
913.030	0.0159457
913.108	0.0159781
913.186	0.0158916
913.264	0.0158743
913.342	0.0158942
913.420	0.0159296
913.498	0.0159317
913.576	0.0159013
913.655	0.0158984
913.733	0.0158639
913.811	0.0158437
913.889	0.0159206
913.967	0.0158001
914.045	0.0156362
914.123	0.0159297
914.201	0.0158416
914.280	0.0157334
914.358	0.0157632
914.436	0.0158649
914.514	0.0159056
914.592	0.0157870
914.670	0.0157757
914.748	0.0157388
914.826	0.0158961
914.905	0.0156593
914.983	0.0156946
915.061	0.0157900
915.139	0.0157008
915.217	0.0157050
915.295	0.0157129
915.373	0.0158469
915.451	0.0158190
915.530	0.0158247
915.608	0.0158674
915.686	0.0157576
915.764	0.0156501
915.842	0.0158201
915.920	0.0159044
915.998	0.0159148
916.076	0.0158569
916.155	0.0158986
916.233	0.0159467
916.311	0.0159013
916.389	0.0159348
916.467	0.0159801
916.545	0.0159463
916.623	0.0157593
916.701	0.0159509
916.780	0.0160698
916.858	0.0158623
916.936	0.0158748
917.014	0.0159296
917.092	0.0158883
917.170	0.0160064
917.248	0.0159193
917.326	0.0159122
917.405	0.0158306
917.483	0.0160400
917.561	0.0160416
917.639	0.0159241
917.717	0.0160405
917.795	0.0159669
917.873	0.0159612
917.951	0.0161105
918.030	0.0158998
918.108	0.0159997
918.186	0.0161884
918.264	0.0159211
918.342	0.0159450
918.420	0.0159274
918.498	0.0160085
918.576	0.0159839
918.655	0.0159328
918.733	0.0160399
918.811	0.0161487
918.889	0.0160944
918.967	0.0161945
919.045	0.0162235
919.123	0.0161820
919.201	0.0160505
919.280	0.0160637
919.358	0.0162798
919.436	0.0161559
919.514	0.0162411
919.592	0.0162119
919.670	0.0161488
919.748	0.0162704
919.826	0.0162058
919.905	0.0160887
919.983	0.0161087
920.061	0.0161528
920.139	0.0162952
920.217	0.0161477
920.295	0.0161559
920.373	0.0161554
920.451	0.0161093
920.530	0.0159187
920.608	0.0161403
920.686	0.0161662
920.764	0.0160995
920.842	0.0159825
920.920	0.0160053
920.998	0.0160155
921.076	0.0160065
921.155	0.0159338
921.233	0.0159887
921.311	0.0160409
921.389	0.0161488
921.467	0.0161319
921.545	0.0160460
921.623	0.0160721
921.701	0.0160291
921.780	0.0160368
921.858	0.0160489
921.936	0.0159948
922.014	0.0160090
922.092	0.0160390
922.170	0.0161037
922.248	0.0161304
922.326	0.0161072
922.405	0.0162162
922.483	0.0160873
922.561	0.0161398
922.639	0.0162183
922.717	0.0160613
922.795	0.0161079
922.873	0.0159145
922.951	0.0161410
923.030	0.0160921
923.108	0.0160651
923.186	0.0161842
923.264	0.0161607
923.342	0.0159385
923.420	0.0160017
923.498	0.0160796
923.576	0.0161326
923.655	0.0161640
923.733	0.0160405
923.811	0.0159801
923.889	0.0160181
923.967	0.0161356
924.045	0.0160973
924.123	0.0157988
924.201	0.0159983
924.280	0.0161742
924.358	0.0160581
924.436	0.0160982
924.514	0.0160381
924.592	0.0160793
924.670	0.0160514
924.748	0.0161398
924.826	0.0160985
924.905	0.0162318
924.983	0.0160588
925.061	0.0160524
925.139	0.0161033
925.217	0.0160213
925.295	0.0160069
925.373	0.0161509
925.451	0.0160433
925.530	0.0161251
925.608	0.0160988
925.686	0.0159756
925.764	0.0161175
925.842	0.0161528
925.920	0.0160275
925.998	0.0159535
926.076	0.0159386
926.155	0.0160381
926.233	0.0159838
926.311	0.0158935
926.389	0.0159917
926.467	0.0159508
926.545	0.0160127
926.623	0.0161564
926.701	0.0160262
926.780	0.0159035
926.858	0.0160184
926.936	0.0160871
927.014	0.0158450
927.092	0.0160558
927.170	0.0158690
927.248	0.0160898
927.326	0.0160071
927.405	0.0161180
927.483	0.0160754
927.561	0.0161274
927.639	0.0162016
927.717	0.0161337
927.795	0.0161828
927.873	0.0160489
927.951	0.0160715
928.030	0.0160877
928.108	0.0160822
928.186	0.0159351
928.264	0.0161826
928.342	0.0161314
928.420	0.0161181
928.498	0.0160444
928.576	0.0160396
928.655	0.0158499
928.733	0.0160137
928.811	0.0157749
928.889	0.0160051
928.967	0.0159859
929.045	0.0160898
929.123	0.0159784
929.201	0.0159401
929.280	0.0158304
929.358	0.0158276
929.436	0.0159698
929.514	0.0159387
929.592	0.0159997
929.670	0.0159897
929.748	0.0159566
929.826	0.0160596
929.905	0.0159995
929.983	0.0159587
930.061	0.0159798
930.139	0.0159569
930.217	0.0160080
930.295	0.0159138
930.373	0.0159415
930.451	0.0161263
930.530	0.0159650
930.608	0.0159615
930.686	0.0160298
930.764	0.0160258
930.842	0.0160675
930.920	0.0159465
930.998	0.0161170
931.076	0.0159072
931.155	0.0160278
931.233	0.0160227
931.311	0.0159061
931.389	0.0160354
931.467	0.0161391
931.545	0.0160536
931.623	0.0160843
931.701	0.0160196
931.780	0.0159848
931.858	0.0160963
931.936	0.0159325
932.014	0.0159842
932.092	0.0160577
932.170	0.0161217
932.248	0.0158744
932.326	0.0159276
932.405	0.0159498
932.483	0.0161549
932.561	0.0160294
932.639	0.0159045
932.717	0.0160163
932.795	0.0160569
932.873	0.0160900
932.951	0.0159214
933.030	0.0159585
933.108	0.0159018
933.186	0.0159167
933.264	0.0160567
933.342	0.0160413
933.420	0.0158858
933.498	0.0159644
933.576	0.0158061
933.655	0.0159219
933.733	0.0160329
933.811	0.0160011
933.889	0.0159012
933.967	0.0159379
934.045	0.0158282
934.123	0.0158541
934.201	0.0159186
934.280	0.0159451
934.358	0.0160352
934.436	0.0158438
934.514	0.0158102
934.592	0.0158955
934.670	0.0158298
934.748	0.0159940
934.826	0.0158201
934.905	0.0158958
934.983	0.0158993
935.061	0.0157596
935.139	0.0159300
935.217	0.0159011
935.295	0.0158614
935.373	0.0157967
935.451	0.0159119
935.530	0.0158733
935.608	0.0158578
935.686	0.0158907
935.764	0.0158501
935.842	0.0159912
935.920	0.0158190
935.998	0.0157950
936.076	0.0160953
936.155	0.0160404
936.233	0.0159551
936.311	0.0157946
936.389	0.0158990
936.467	0.0160638
936.545	0.0158488
936.623	0.0157469
936.701	0.0158909
936.780	0.0158900
936.858	0.0159040
936.936	0.0160048
937.014	0.0159490
937.092	0.0158907
937.170	0.0158972
937.248	0.0159229
937.326	0.0160809
937.405	0.0160676
937.483	0.0159524
937.561	0.0160770
937.639	0.0159763
937.717	0.0159097
937.795	0.0160513
937.873	0.0160606
937.951	0.0159690
938.030	0.0159417
938.108	0.0159273
938.186	0.0159809
938.264	0.0159803
938.342	0.0159911
938.420	0.0159668
938.498	0.0159962
938.576	0.0162296
938.655	0.0160451
938.733	0.0160033
938.811	0.0162236
938.889	0.0161774
938.967	0.0160818
939.045	0.0160925
939.123	0.0160754
939.201	0.0160857
939.280	0.0160193
939.358	0.0159995
939.436	0.0161271
939.514	0.0160809
939.592	0.0160813
939.670	0.0159644
939.748	0.0159975
939.826	0.0158215
939.905	0.0159292
939.983	0.0158769
940.061	0.0158819
940.139	0.0159528
940.217	0.0159158
940.295	0.0157456
940.373	0.0160271
940.451	0.0158310
940.530	0.0158098
940.608	0.0156781
940.686	0.0158892
940.764	0.0161305
940.842	0.0158228
940.920	0.0158240
940.998	0.0159689
941.076	0.0160184
941.155	0.0158784
941.233	0.0157684
941.311	0.0159270
941.389	0.0158649
941.467	0.0158851
941.545	0.0159428
941.623	0.0160247
941.701	0.0159481
941.780	0.0158432
941.858	0.0158866
941.936	0.0158580
942.014	0.0159169
942.092	0.0157569
942.170	0.0159626
942.248	0.0159875
942.326	0.0159863
942.405	0.0159019
942.483	0.0158898
942.561	0.0160536
942.639	0.0160049
942.717	0.0158708
942.795	0.0159364
942.873	0.0159531
942.951	0.0159571
943.030	0.0160674
943.108	0.0160489
943.186	0.0159738
943.264	0.0160342
943.342	0.0161469
943.420	0.0160809
943.498	0.0162037
943.576	0.0161095
943.655	0.0160795
943.733	0.0162378
943.811	0.0160971
943.889	0.0161806
943.967	0.0162565
944.045	0.0161649
944.123	0.0161704
944.201	0.0160911
944.280	0.0161510
944.358	0.0161505
944.436	0.0160847
944.514	0.0160997
944.592	0.0160968
944.670	0.0161147
944.748	0.0160698
944.826	0.0160519
944.905	0.0162661
944.983	0.0159244
945.061	0.0160708
945.139	0.0160970
945.217	0.0160064
945.295	0.0159601
945.373	0.0159258
945.451	0.0159978
945.530	0.0160116
945.608	0.0158851
945.686	0.0158854
945.764	0.0159139
945.842	0.0158647
945.920	0.0159805
945.998	0.0159274
946.076	0.0158675
946.155	0.0158948
946.233	0.0158660
946.311	0.0160068
946.389	0.0158749
946.467	0.0158800
946.545	0.0159456
946.623	0.0158871
946.701	0.0157771
946.780	0.0156439
946.858	0.0157258
946.936	0.0159164
947.014	0.0157999
947.092	0.0158655
947.170	0.0157275
947.248	0.0157629
947.326	0.0158635
947.405	0.0158858
947.483	0.0159209
947.561	0.0159259
947.639	0.0159245
947.717	0.0158324
947.795	0.0159210
947.873	0.0159591
947.951	0.0157231
948.030	0.0159373
948.108	0.0159494
948.186	0.0158514
948.264	0.0159433
948.342	0.0158690
948.420	0.0158398
948.498	0.0159135
948.576	0.0158405
948.655	0.0159501
948.733	0.0160774
948.811	0.0159332
948.889	0.0161037
948.967	0.0160018
949.045	0.0159856
949.123	0.0160964
949.201	0.0160287
949.280	0.0160220
949.358	0.0160506
949.436	0.0161510
949.514	0.0161375
949.592	0.0160815
949.670	0.0161499
949.748	0.0161272
949.826	0.0161926
949.905	0.0161895
949.983	0.0161603
950.061	0.0161359
950.139	0.0161629
950.217	0.0161840
950.295	0.0161985
950.373	0.0161848
950.451	0.0161536
950.530	0.0161010
950.608	0.0159756
950.686	0.0160403
950.764	0.0162571
950.842	0.0161581
950.920	0.0161308
950.998	0.0162097
951.076	0.0161163
951.155	0.0161171
951.233	0.0161156
951.311	0.0160889
951.389	0.0160921
951.467	0.0160066
951.545	0.0161942
951.623	0.0160824
951.701	0.0160889
951.780	0.0161211
951.858	0.0161193
951.936	0.0160211
952.014	0.0161040
952.092	0.0161355
952.170	0.0160965
952.248	0.0160468
952.326	0.0161178
952.405	0.0161871
952.483	0.0161675
952.561	0.0160228
952.639	0.0160863
952.717	0.0160329
952.795	0.0161598
952.873	0.0161523
952.951	0.0160262
953.030	0.0160735
953.108	0.0160986
953.186	0.0160924
953.264	0.0159677
953.342	0.0158982
953.420	0.0160380
953.498	0.0160442
953.576	0.0158619
953.655	0.0160796
953.733	0.0160127
953.811	0.0158802
953.889	0.0159074
953.967	0.0159828
954.045	0.0159634
954.123	0.0158617
954.201	0.0159014
954.280	0.0159042
954.358	0.0158563
954.436	0.0157885
954.514	0.0158678
954.592	0.0159772
954.670	0.0158192
954.748	0.0158596
954.826	0.0158073
954.905	0.0157030
954.983	0.0158434
955.061	0.0159288
955.139	0.0159234
955.217	0.0158825
955.295	0.0158381
955.373	0.0159061
955.451	0.0158300
955.530	0.0159604
955.608	0.0158649
955.686	0.0158157
955.764	0.0159113
955.842	0.0158867
955.920	0.0158579
955.998	0.0157863
956.076	0.0158727
956.155	0.0158729
956.233	0.0158748
956.311	0.0160345
956.389	0.0157964
956.467	0.0159703
956.545	0.0159911
956.623	0.0159332
956.701	0.0160503
956.780	0.0160227
956.858	0.0160464
956.936	0.0159335
957.014	0.0158997
957.092	0.0159900
957.170	0.0159539
957.248	0.0160468
957.326	0.0159844
957.405	0.0159935
957.483	0.0161104
957.561	0.0160226
957.639	0.0160895
957.717	0.0160122
957.795	0.0160130
957.873	0.0161728
957.951	0.0160516
958.030	0.0160796
958.108	0.0160397
958.186	0.0159258
958.264	0.0159855
958.342	0.0159546
958.420	0.0160374
958.498	0.0159943
958.576	0.0159377
958.655	0.0160069
958.733	0.0159177
958.811	0.0158797
958.889	0.0160422
958.967	0.0160169
959.045	0.0159390
959.123	0.0160367
959.201	0.0158582
959.280	0.0159421
959.358	0.0159712
959.436	0.0159782
959.514	0.0158955
959.592	0.0158788
959.670	0.0160734
959.748	0.0159399
959.826	0.0160428
959.905	0.0160571
