05/17/2022	17:12:55	Ver.	4.1	UNKNOWN
Optical Delay	639.982744	Delta X		0.078125	Sweeps	1	Scan Rate	0/0
Coordinates	Axis 1	NaN	Axis 2	NaN	Axis 3	NaN	Axis 4	NaN	Axis 5	NaN	Axis 6	0.000000
TX Power	0.000000	RX Power	0.000000

639.983	0.0155191
640.061	0.0154505
640.139	0.0155360
640.217	0.0156279
640.295	0.0154597
640.373	0.0154736
640.451	0.0156146
640.530	0.0154407
640.608	0.0153816
640.686	0.0154861
640.764	0.0154756
640.842	0.0154967
640.920	0.0154529
640.998	0.0155455
641.076	0.0154935
641.155	0.0155151
641.233	0.0155702
641.311	0.0155083
641.389	0.0153738
641.467	0.0153742
641.545	0.0154478
641.623	0.0154455
641.701	0.0154286
641.780	0.0154945
641.858	0.0155921
641.936	0.0154600
642.014	0.0154982
642.092	0.0154269
642.170	0.0156413
642.248	0.0154561
642.326	0.0156507
642.405	0.0156350
642.483	0.0156664
642.561	0.0156131
642.639	0.0155391
642.717	0.0154818
642.795	0.0155555
642.873	0.0156392
642.951	0.0157682
643.030	0.0155569
643.108	0.0155777
643.186	0.0156068
643.264	0.0154457
643.342	0.0153919
643.420	0.0155688
643.498	0.0155827
643.576	0.0156506
643.655	0.0156207
643.733	0.0155918
643.811	0.0155267
643.889	0.0156764
643.967	0.0154910
644.045	0.0155779
644.123	0.0155727
644.201	0.0155933
644.280	0.0157277
644.358	0.0156322
644.436	0.0156262
644.514	0.0154919
644.592	0.0157173
644.670	0.0156823
644.748	0.0156202
644.826	0.0155433
644.905	0.0156229
644.983	0.0155199
645.061	0.0155679
645.139	0.0155110
645.217	0.0155963
645.295	0.0156873
645.373	0.0155953
645.451	0.0155655
645.530	0.0156515
645.608	0.0155438
645.686	0.0155885
645.764	0.0156045
645.842	0.0156652
645.920	0.0156467
645.998	0.0156776
646.076	0.0156529
646.155	0.0156762
646.233	0.0155009
646.311	0.0155956
646.389	0.0156194
646.467	0.0156548
646.545	0.0155647
646.623	0.0155495
646.701	0.0157179
646.780	0.0156842
646.858	0.0155116
646.936	0.0156379
647.014	0.0155042
647.092	0.0155175
647.170	0.0155266
647.248	0.0156217
647.326	0.0155765
647.405	0.0154965
647.483	0.0155769
647.561	0.0155497
647.639	0.0155103
647.717	0.0155457
647.795	0.0155519
647.873	0.0154851
647.951	0.0156332
648.030	0.0155807
648.108	0.0155379
648.186	0.0155528
648.264	0.0156990
648.342	0.0155508
648.420	0.0155822
648.498	0.0157722
648.576	0.0156878
648.655	0.0157650
648.733	0.0156025
648.811	0.0157510
648.889	0.0156839
648.967	0.0156596
649.045	0.0157271
649.123	0.0157214
649.201	0.0156481
649.280	0.0157572
649.358	0.0157639
649.436	0.0156157
649.514	0.0156980
649.592	0.0157877
649.670	0.0156758
649.748	0.0156194
649.826	0.0155528
649.905	0.0157840
649.983	0.0156473
650.061	0.0156522
650.139	0.0156223
650.217	0.0154321
650.295	0.0154683
650.373	0.0155168
650.451	0.0154348
650.530	0.0154678
650.608	0.0155288
650.686	0.0154370
650.764	0.0154074
650.842	0.0154266
650.920	0.0154934
650.998	0.0154566
651.076	0.0153114
651.155	0.0155444
651.233	0.0154275
651.311	0.0155161
651.389	0.0154110
651.467	0.0152324
651.545	0.0153758
651.623	0.0154621
651.701	0.0154572
651.780	0.0154395
651.858	0.0153101
651.936	0.0153624
652.014	0.0155395
652.092	0.0155217
652.170	0.0153614
652.248	0.0154601
652.326	0.0155086
652.405	0.0154216
652.483	0.0155116
652.561	0.0155710
652.639	0.0155885
652.717	0.0155777
652.795	0.0155275
652.873	0.0154665
652.951	0.0154210
653.030	0.0155289
653.108	0.0154619
653.186	0.0155050
653.264	0.0155089
653.342	0.0155905
653.420	0.0155894
653.498	0.0153534
653.576	0.0153744
653.655	0.0154758
653.733	0.0154729
653.811	0.0154111
653.889	0.0154348
653.967	0.0152971
654.045	0.0153990
654.123	0.0154507
654.201	0.0154015
654.280	0.0152645
654.358	0.0152573
654.436	0.0153255
654.514	0.0154883
654.592	0.0154479
654.670	0.0155370
654.748	0.0155337
654.826	0.0153894
654.905	0.0154849
654.983	0.0156107
655.061	0.0156683
655.139	0.0156396
655.217	0.0154295
655.295	0.0155116
655.373	0.0157175
655.451	0.0156225
655.530	0.0155201
655.608	0.0156375
655.686	0.0155878
655.764	0.0156559
655.842	0.0154631
655.920	0.0155018
655.998	0.0155300
656.076	0.0155219
656.155	0.0155891
656.233	0.0154961
656.311	0.0154248
656.389	0.0155489
656.467	0.0154890
656.545	0.0154413
656.623	0.0153301
656.701	0.0154797
656.780	0.0154349
656.858	0.0153366
656.936	0.0152169
657.014	0.0153849
657.092	0.0153531
657.170	0.0154765
657.248	0.0154272
657.326	0.0152203
657.405	0.0153631
657.483	0.0154469
657.561	0.0154337
657.639	0.0153944
657.717	0.0154156
657.795	0.0155061
657.873	0.0154628
657.951	0.0154180
658.030	0.0154216
658.108	0.0154469
658.186	0.0155465
658.264	0.0154514
658.342	0.0155851
658.420	0.0156030
658.498	0.0155295
658.576	0.0154679
658.655	0.0154568
658.733	0.0155336
658.811	0.0154435
658.889	0.0154771
658.967	0.0155315
659.045	0.0155088
659.123	0.0154099
659.201	0.0155682
659.280	0.0155663
659.358	0.0154898
659.436	0.0154166
659.514	0.0152643
659.592	0.0154602
659.670	0.0155455
659.748	0.0153780
659.826	0.0154033
659.905	0.0156249
659.983	0.0157272
660.061	0.0155585
660.139	0.0154211
660.217	0.0156843
660.295	0.0155724
660.373	0.0156502
660.451	0.0156383
660.530	0.0155761
660.608	0.0156033
660.686	0.0157215
660.764	0.0156127
660.842	0.0155586
660.920	0.0155191
660.998	0.0154067
661.076	0.0154330
661.155	0.0155223
661.233	0.0154823
661.311	0.0153858
661.389	0.0153674
661.467	0.0153975
661.545	0.0152726
661.623	0.0153545
661.701	0.0153581
661.780	0.0152298
661.858	0.0152808
661.936	0.0154496
662.014	0.0152265
662.092	0.0151955
662.170	0.0151818
662.248	0.0152441
662.326	0.0151746
662.405	0.0151869
662.483	0.0152084
662.561	0.0151250
662.639	0.0152116
662.717	0.0153197
662.795	0.0152697
662.873	0.0152884
662.951	0.0153628
663.030	0.0151955
663.108	0.0153998
663.186	0.0155396
663.264	0.0153373
663.342	0.0154686
663.420	0.0155994
663.498	0.0156871
663.576	0.0156895
663.655	0.0157999
663.733	0.0157687
663.811	0.0158876
663.889	0.0159898
663.967	0.0160934
664.045	0.0161234
664.123	0.0161107
664.201	0.0161712
664.280	0.0162727
664.358	0.0161743
664.436	0.0161749
664.514	0.0161576
664.592	0.0160875
664.670	0.0159690
664.748	0.0159306
664.826	0.0157924
664.905	0.0158263
664.983	0.0157180
665.061	0.0156171
665.139	0.0154390
665.217	0.0154625
665.295	0.0154265
665.373	0.0152355
665.451	0.0151146
665.530	0.0151238
665.608	0.0149316
665.686	0.0149666
665.764	0.0148473
665.842	0.0147339
665.920	0.0145516
665.998	0.0146563
666.076	0.0146321
666.155	0.0146185
666.233	0.0144883
666.311	0.0145299
666.389	0.0144949
666.467	0.0144995
666.545	0.0148033
666.623	0.0148755
666.701	0.0148430
666.780	0.0148560
666.858	0.0151097
666.936	0.0152856
667.014	0.0152753
667.092	0.0154892
667.170	0.0156513
667.248	0.0158099
667.326	0.0159200
667.405	0.0160904
667.483	0.0162331
667.561	0.0162684
667.639	0.0163474
667.717	0.0165169
667.795	0.0166745
667.873	0.0167406
667.951	0.0166904
668.030	0.0167015
668.108	0.0168633
668.186	0.0166418
668.264	0.0166766
668.342	0.0166813
668.420	0.0166071
668.498	0.0165661
668.576	0.0164497
668.655	0.0163364
668.733	0.0162759
668.811	0.0161044
668.889	0.0159254
668.967	0.0158159
669.045	0.0157384
669.123	0.0154932
669.201	0.0152670
669.280	0.0152100
669.358	0.0151295
669.436	0.0148643
669.514	0.0147696
669.592	0.0147546
669.670	0.0145591
669.748	0.0146492
669.826	0.0144792
669.905	0.0144412
669.983	0.0144208
670.061	0.0145197
670.139	0.0144228
670.217	0.0145252
670.295	0.0147588
670.373	0.0146777
670.451	0.0149523
670.530	0.0149780
670.608	0.0150066
670.686	0.0151739
670.764	0.0152782
670.842	0.0154145
670.920	0.0155641
670.998	0.0156475
671.076	0.0156065
671.155	0.0157772
671.233	0.0157854
671.311	0.0159893
671.389	0.0162498
671.467	0.0162438
671.545	0.0163138
671.623	0.0163462
671.701	0.0165339
671.780	0.0163838
671.858	0.0163958
671.936	0.0164840
672.014	0.0164926
672.092	0.0165178
672.170	0.0165176
672.248	0.0165119
672.326	0.0164408
672.405	0.0163400
672.483	0.0161810
672.561	0.0161514
672.639	0.0161731
672.717	0.0159776
672.795	0.0158999
672.873	0.0157691
672.951	0.0155547
673.030	0.0155429
673.108	0.0154627
673.186	0.0153168
673.264	0.0152585
673.342	0.0150985
673.420	0.0151761
673.498	0.0151920
673.576	0.0150169
673.655	0.0150091
673.733	0.0150201
673.811	0.0150095
673.889	0.0149347
673.967	0.0149830
674.045	0.0151038
674.123	0.0151313
674.201	0.0151970
674.280	0.0153660
674.358	0.0153188
674.436	0.0153381
674.514	0.0154012
674.592	0.0154636
674.670	0.0155208
674.748	0.0155627
674.826	0.0154786
674.905	0.0155499
674.983	0.0154740
675.061	0.0155510
675.139	0.0156097
675.217	0.0156074
675.295	0.0155519
675.373	0.0157518
675.451	0.0154835
675.530	0.0154593
675.608	0.0154321
675.686	0.0154488
675.764	0.0153881
675.842	0.0153363
675.920	0.0153598
675.998	0.0151839
676.076	0.0151754
676.155	0.0150344
676.233	0.0152308
676.311	0.0151714
676.389	0.0151019
676.467	0.0150143
676.545	0.0151128
676.623	0.0151996
676.701	0.0150051
676.780	0.0152101
676.858	0.0154012
676.936	0.0153452
677.014	0.0154845
677.092	0.0156035
677.170	0.0156822
677.248	0.0156612
677.326	0.0157806
677.405	0.0157352
677.483	0.0158179
677.561	0.0159570
677.639	0.0160533
677.717	0.0160406
677.795	0.0160310
677.873	0.0159595
677.951	0.0160640
678.030	0.0159584
678.108	0.0160112
678.186	0.0159321
678.264	0.0161040
678.342	0.0160999
678.420	0.0160364
678.498	0.0158913
678.576	0.0160327
678.655	0.0160522
678.733	0.0159356
678.811	0.0160081
678.889	0.0159026
678.967	0.0160514
679.045	0.0159699
679.123	0.0157903
679.201	0.0158471
679.280	0.0157491
679.358	0.0156539
679.436	0.0154231
679.514	0.0154910
679.592	0.0155155
679.670	0.0152375
679.748	0.0151226
679.826	0.0151352
679.905	0.0150051
679.983	0.0148638
680.061	0.0147752
680.139	0.0147394
680.217	0.0148198
680.295	0.0146564
680.373	0.0145609
680.451	0.0145731
680.530	0.0145755
680.608	0.0144930
680.686	0.0143958
680.764	0.0145984
680.842	0.0145673
680.920	0.0145705
680.998	0.0145569
681.076	0.0145966
681.155	0.0147110
681.233	0.0148698
681.311	0.0150397
681.389	0.0151429
681.467	0.0151746
681.545	0.0152892
681.623	0.0153953
681.701	0.0156057
681.780	0.0157986
681.858	0.0156779
681.936	0.0157814
682.014	0.0159092
682.092	0.0161935
682.170	0.0163340
682.248	0.0162585
682.326	0.0161587
682.405	0.0162897
682.483	0.0163250
682.561	0.0163338
682.639	0.0163657
682.717	0.0163430
682.795	0.0164663
682.873	0.0164243
682.951	0.0162383
683.030	0.0163868
683.108	0.0164841
683.186	0.0163456
683.264	0.0163435
683.342	0.0165819
683.420	0.0163521
683.498	0.0161742
683.576	0.0161256
683.655	0.0160239
683.733	0.0158994
683.811	0.0158068
683.889	0.0157568
683.967	0.0155436
684.045	0.0153874
684.123	0.0153484
684.201	0.0150505
684.280	0.0149917
684.358	0.0150729
684.436	0.0148178
684.514	0.0147191
684.592	0.0146956
684.670	0.0145753
684.748	0.0143887
684.826	0.0144891
684.905	0.0144540
684.983	0.0144637
685.061	0.0142889
685.139	0.0144678
685.217	0.0143201
685.295	0.0144666
685.373	0.0146233
685.451	0.0144090
685.530	0.0145615
685.608	0.0146141
685.686	0.0147980
685.764	0.0149418
685.842	0.0149867
685.920	0.0150975
685.998	0.0152471
686.076	0.0152117
686.155	0.0154400
686.233	0.0155484
686.311	0.0156726
686.389	0.0157300
686.467	0.0157941
686.545	0.0156778
686.623	0.0158752
686.701	0.0159406
686.780	0.0158883
686.858	0.0157967
686.936	0.0159633
687.014	0.0159939
687.092	0.0159547
687.170	0.0159370
687.248	0.0159675
687.326	0.0159515
687.405	0.0159221
687.483	0.0158705
687.561	0.0159616
687.639	0.0157952
687.717	0.0158562
687.795	0.0159308
687.873	0.0158198
687.951	0.0158519
688.030	0.0157694
688.108	0.0157945
688.186	0.0158091
688.264	0.0158241
688.342	0.0156451
688.420	0.0156850
688.498	0.0156351
688.576	0.0155077
688.655	0.0154843
688.733	0.0155264
688.811	0.0154222
688.889	0.0153098
688.967	0.0152547
689.045	0.0151230
689.123	0.0151941
689.201	0.0151093
689.280	0.0151024
689.358	0.0151110
689.436	0.0149960
689.514	0.0149480
689.592	0.0150382
689.670	0.0149760
689.748	0.0148055
689.826	0.0148283
689.905	0.0149329
689.983	0.0148833
690.061	0.0149812
690.139	0.0150313
690.217	0.0150178
690.295	0.0150871
690.373	0.0150726
690.451	0.0151728
690.530	0.0152040
690.608	0.0153690
690.686	0.0154165
690.764	0.0152960
690.842	0.0155399
690.920	0.0154492
690.998	0.0156443
691.076	0.0156966
691.155	0.0157326
691.233	0.0156911
691.311	0.0157497
691.389	0.0157668
691.467	0.0157121
691.545	0.0157298
691.623	0.0157682
691.701	0.0156869
691.780	0.0158707
691.858	0.0157672
691.936	0.0156256
692.014	0.0156709
692.092	0.0156352
692.170	0.0155884
692.248	0.0155369
692.326	0.0154362
692.405	0.0154975
692.483	0.0155998
692.561	0.0155822
692.639	0.0155596
692.717	0.0155472
692.795	0.0154668
692.873	0.0155931
692.951	0.0155437
693.030	0.0155449
693.108	0.0156750
693.186	0.0156281
693.264	0.0157327
693.342	0.0157938
693.420	0.0158310
693.498	0.0157238
693.576	0.0158865
693.655	0.0160699
693.733	0.0158502
693.811	0.0159546
693.889	0.0159630
693.967	0.0158465
694.045	0.0158438
694.123	0.0157004
694.201	0.0158686
694.280	0.0157080
694.358	0.0157940
694.436	0.0157013
694.514	0.0156700
694.592	0.0155747
694.670	0.0154108
694.748	0.0155064
694.826	0.0153915
694.905	0.0152596
694.983	0.0150858
695.061	0.0151360
695.139	0.0150925
695.217	0.0148549
695.295	0.0149736
695.373	0.0148812
695.451	0.0148511
695.530	0.0149989
695.608	0.0149625
695.686	0.0147993
695.764	0.0147537
695.842	0.0147983
695.920	0.0148696
695.998	0.0150121
696.076	0.0148886
696.155	0.0149193
696.233	0.0149414
696.311	0.0149842
696.389	0.0151776
696.467	0.0151331
696.545	0.0149400
696.623	0.0151798
696.701	0.0152517
696.780	0.0152749
696.858	0.0152576
696.936	0.0154659
697.014	0.0154478
697.092	0.0154750
697.170	0.0155062
697.248	0.0156601
697.326	0.0155450
697.405	0.0155223
697.483	0.0155690
697.561	0.0155293
697.639	0.0157012
697.717	0.0157350
697.795	0.0155893
697.873	0.0155180
697.951	0.0156179
698.030	0.0156753
698.108	0.0156971
698.186	0.0158092
698.264	0.0157395
698.342	0.0157745
698.420	0.0158071
698.498	0.0157608
698.576	0.0159763
698.655	0.0158942
698.733	0.0159270
698.811	0.0160463
698.889	0.0160505
698.967	0.0162121
699.045	0.0161466
699.123	0.0159592
699.201	0.0160915
699.280	0.0160323
699.358	0.0160620
699.436	0.0158855
699.514	0.0158871
699.592	0.0159260
699.670	0.0158363
699.748	0.0157589
699.826	0.0156503
699.905	0.0155138
699.983	0.0154607
700.061	0.0156416
700.139	0.0153499
700.217	0.0153323
700.295	0.0153522
700.373	0.0153316
700.451	0.0151327
700.530	0.0151212
700.608	0.0150448
700.686	0.0149625
700.764	0.0149874
700.842	0.0148954
700.920	0.0149004
700.998	0.0147813
701.076	0.0147890
701.155	0.0149040
701.233	0.0147507
701.311	0.0147619
701.389	0.0149456
701.467	0.0150707
701.545	0.0149541
701.623	0.0151245
701.701	0.0151249
701.780	0.0151846
701.858	0.0152545
701.936	0.0152605
702.014	0.0153586
702.092	0.0154728
702.170	0.0155216
702.248	0.0156470
702.326	0.0155531
702.405	0.0156243
702.483	0.0157800
702.561	0.0159459
702.639	0.0158878
702.717	0.0159461
702.795	0.0160574
702.873	0.0160173
702.951	0.0161700
703.030	0.0161990
703.108	0.0160734
703.186	0.0161534
703.264	0.0160491
703.342	0.0162524
703.420	0.0161821
703.498	0.0159815
703.576	0.0159698
703.655	0.0160696
703.733	0.0159915
703.811	0.0159003
703.889	0.0159788
703.967	0.0159666
704.045	0.0158350
704.123	0.0158074
704.201	0.0157743
704.280	0.0157621
704.358	0.0156214
704.436	0.0155862
704.514	0.0154883
704.592	0.0155861
704.670	0.0155834
704.748	0.0155163
704.826	0.0154093
704.905	0.0154556
704.983	0.0153215
705.061	0.0152962
705.139	0.0152093
705.217	0.0151668
705.295	0.0150518
705.373	0.0150423
705.451	0.0148376
705.530	0.0148975
705.608	0.0149641
705.686	0.0149557
705.764	0.0148721
705.842	0.0147261
705.920	0.0146087
705.998	0.0147485
706.076	0.0148194
706.155	0.0148473
706.233	0.0147218
706.311	0.0149223
706.389	0.0149552
706.467	0.0150665
706.545	0.0151809
706.623	0.0150285
706.701	0.0152039
706.780	0.0151875
706.858	0.0151375
706.936	0.0153240
707.014	0.0155295
707.092	0.0155282
707.170	0.0153995
707.248	0.0153777
707.326	0.0155106
707.405	0.0156803
707.483	0.0155376
707.561	0.0154707
707.639	0.0154759
707.717	0.0154501
707.795	0.0154577
707.873	0.0154093
707.951	0.0155661
708.030	0.0154615
708.108	0.0154719
708.186	0.0153883
708.264	0.0152885
708.342	0.0152732
708.420	0.0153059
708.498	0.0151325
708.576	0.0151791
708.655	0.0151294
708.733	0.0152026
708.811	0.0152736
708.889	0.0152340
708.967	0.0150686
709.045	0.0152953
709.123	0.0152470
709.201	0.0154932
709.280	0.0154781
709.358	0.0155592
709.436	0.0155348
709.514	0.0155425
709.592	0.0157050
709.670	0.0158456
709.748	0.0159196
709.826	0.0161761
709.905	0.0159937
709.983	0.0161214
710.061	0.0162574
710.139	0.0162905
710.217	0.0162308
710.295	0.0162510
710.373	0.0162164
710.451	0.0163072
710.530	0.0161624
710.608	0.0161169
710.686	0.0159594
710.764	0.0158546
710.842	0.0159582
710.920	0.0157321
710.998	0.0156675
711.076	0.0155962
711.155	0.0154478
711.233	0.0153484
711.311	0.0153252
711.389	0.0153761
711.467	0.0151979
711.545	0.0151871
711.623	0.0151070
711.701	0.0150591
711.780	0.0149049
711.858	0.0149496
711.936	0.0147859
712.014	0.0148042
712.092	0.0148380
712.170	0.0149432
712.248	0.0149996
712.326	0.0148582
712.405	0.0147864
712.483	0.0148109
712.561	0.0150592
712.639	0.0150097
712.717	0.0150746
712.795	0.0151173
712.873	0.0150172
712.951	0.0150747
713.030	0.0151363
713.108	0.0151119
713.186	0.0151624
713.264	0.0152853
713.342	0.0151956
713.420	0.0151520
713.498	0.0150975
713.576	0.0151924
713.655	0.0152984
713.733	0.0153428
713.811	0.0152084
713.889	0.0153094
713.967	0.0154210
714.045	0.0154399
714.123	0.0154328
714.201	0.0154451
714.280	0.0156635
714.358	0.0156532
714.436	0.0156126
714.514	0.0158968
714.592	0.0158804
714.670	0.0159403
714.748	0.0160318
714.826	0.0160523
714.905	0.0159623
714.983	0.0161361
715.061	0.0161948
715.139	0.0161335
715.217	0.0160724
715.295	0.0160649
715.373	0.0159979
715.451	0.0158967
715.530	0.0156955
715.608	0.0155823
715.686	0.0156248
715.764	0.0156386
715.842	0.0153809
715.920	0.0153531
715.998	0.0154833
716.076	0.0153660
716.155	0.0154093
716.233	0.0154057
716.311	0.0153201
716.389	0.0151458
716.467	0.0152731
716.545	0.0153415
716.623	0.0152894
716.701	0.0153830
716.780	0.0152869
716.858	0.0153927
716.936	0.0154745
717.014	0.0155942
717.092	0.0154785
717.170	0.0154111
717.248	0.0155083
717.326	0.0155714
717.405	0.0156126
717.483	0.0156615
717.561	0.0154388
717.639	0.0153309
717.717	0.0153367
717.795	0.0154524
717.873	0.0152102
717.951	0.0151440
718.030	0.0151434
718.108	0.0151958
718.186	0.0150533
718.264	0.0148780
718.342	0.0148695
718.420	0.0148155
718.498	0.0147136
718.576	0.0147539
718.655	0.0146177
718.733	0.0145934
718.811	0.0147041
718.889	0.0147253
718.967	0.0149232
719.045	0.0146709
719.123	0.0147883
719.201	0.0147787
719.280	0.0148727
719.358	0.0149670
719.436	0.0149032
719.514	0.0151427
719.592	0.0151008
719.670	0.0151696
719.748	0.0153167
719.826	0.0152607
719.905	0.0154526
719.983	0.0154747
720.061	0.0154053
720.139	0.0155493
720.217	0.0154954
720.295	0.0156575
720.373	0.0155070
720.451	0.0154569
720.530	0.0156554
720.608	0.0156022
720.686	0.0156517
720.764	0.0157925
720.842	0.0156790
720.920	0.0156266
720.998	0.0157353
721.076	0.0156530
721.155	0.0156683
721.233	0.0157128
721.311	0.0157784
721.389	0.0157233
721.467	0.0157225
721.545	0.0156568
721.623	0.0156939
721.701	0.0155386
721.780	0.0157433
721.858	0.0157570
721.936	0.0158488
722.014	0.0157732
722.092	0.0157161
722.170	0.0158456
722.248	0.0159288
722.326	0.0157904
722.405	0.0158128
722.483	0.0156472
722.561	0.0155644
722.639	0.0156747
722.717	0.0156050
722.795	0.0156785
722.873	0.0155500
722.951	0.0154700
723.030	0.0155214
723.108	0.0156193
723.186	0.0156042
723.264	0.0154967
723.342	0.0155461
723.420	0.0155387
723.498	0.0156059
723.576	0.0156947
723.655	0.0155641
723.733	0.0156475
723.811	0.0157987
723.889	0.0156638
723.967	0.0157466
724.045	0.0157077
724.123	0.0158440
724.201	0.0157285
724.280	0.0158431
724.358	0.0158965
724.436	0.0157767
724.514	0.0159027
724.592	0.0158739
724.670	0.0157540
724.748	0.0155582
724.826	0.0156901
724.905	0.0156755
724.983	0.0154829
725.061	0.0155981
725.139	0.0155044
725.217	0.0154237
725.295	0.0152800
725.373	0.0152923
725.451	0.0151418
725.530	0.0151048
725.608	0.0151317
725.686	0.0150829
725.764	0.0149871
725.842	0.0149464
725.920	0.0149323
725.998	0.0148180
726.076	0.0149636
726.155	0.0148389
726.233	0.0148643
726.311	0.0148602
726.389	0.0148178
726.467	0.0149010
726.545	0.0149595
726.623	0.0149531
726.701	0.0150031
726.780	0.0150261
726.858	0.0150449
726.936	0.0152416
727.014	0.0152087
727.092	0.0152505
727.170	0.0153974
727.248	0.0153597
727.326	0.0154729
727.405	0.0154546
727.483	0.0156122
727.561	0.0155853
727.639	0.0156184
727.717	0.0156367
727.795	0.0156300
727.873	0.0156761
727.951	0.0156443
728.030	0.0157169
728.108	0.0156866
728.186	0.0156084
728.264	0.0156546
728.342	0.0157500
728.420	0.0158462
728.498	0.0157475
728.576	0.0156727
728.655	0.0157737
728.733	0.0157420
728.811	0.0158698
728.889	0.0158834
728.967	0.0158272
729.045	0.0157973
729.123	0.0158848
729.201	0.0157637
729.280	0.0159103
729.358	0.0159549
729.436	0.0159912
729.514	0.0160819
729.592	0.0160677
729.670	0.0159241
729.748	0.0160165
729.826	0.0159962
729.905	0.0158535
729.983	0.0158690
730.061	0.0158979
730.139	0.0158319
730.217	0.0159386
730.295	0.0157759
730.373	0.0157679
730.451	0.0156294
730.530	0.0155019
730.608	0.0154897
730.686	0.0153447
730.764	0.0154327
730.842	0.0153011
730.920	0.0151450
730.998	0.0150076
731.076	0.0150861
731.155	0.0150137
731.233	0.0149679
731.311	0.0149050
731.389	0.0148244
731.467	0.0148447
731.545	0.0150084
731.623	0.0151039
731.701	0.0148947
731.780	0.0149786
731.858	0.0150273
731.936	0.0150867
732.014	0.0152818
732.092	0.0152621
732.170	0.0152006
732.248	0.0152966
732.326	0.0154942
732.405	0.0154636
732.483	0.0154556
732.561	0.0155808
732.639	0.0154355
732.717	0.0156492
732.795	0.0155048
732.873	0.0155800
732.951	0.0154166
733.030	0.0154711
733.108	0.0155354
733.186	0.0155206
733.264	0.0154058
733.342	0.0152687
733.420	0.0152452
733.498	0.0153790
733.576	0.0152017
733.655	0.0152010
733.733	0.0151160
733.811	0.0151686
733.889	0.0153476
733.967	0.0151786
734.045	0.0150398
734.123	0.0151702
734.201	0.0152107
734.280	0.0152873
734.358	0.0154164
734.436	0.0154060
734.514	0.0153529
734.592	0.0154727
734.670	0.0154833
734.748	0.0155585
734.826	0.0156557
734.905	0.0156097
734.983	0.0157133
735.061	0.0158978
735.139	0.0158661
735.217	0.0160460
735.295	0.0158894
735.373	0.0159856
735.451	0.0160540
735.530	0.0159756
735.608	0.0160237
735.686	0.0161025
735.764	0.0160998
735.842	0.0160964
735.920	0.0160117
735.998	0.0159070
736.076	0.0158774
736.155	0.0158610
736.233	0.0158001
736.311	0.0158002
736.389	0.0158018
736.467	0.0156052
736.545	0.0156708
736.623	0.0156863
736.701	0.0154043
736.780	0.0152908
736.858	0.0152623
736.936	0.0153677
737.014	0.0154290
737.092	0.0152367
737.170	0.0152162
737.248	0.0151942
737.326	0.0152946
737.405	0.0152918
737.483	0.0152734
737.561	0.0153432
737.639	0.0154178
737.717	0.0153983
737.795	0.0153217
737.873	0.0154395
737.951	0.0155526
738.030	0.0155685
738.108	0.0154939
738.186	0.0155209
738.264	0.0154221
738.342	0.0154996
738.420	0.0154296
738.498	0.0155396
738.576	0.0154226
738.655	0.0154807
738.733	0.0154872
738.811	0.0153742
738.889	0.0154633
738.967	0.0152431
739.045	0.0154205
739.123	0.0153275
739.201	0.0152367
739.280	0.0152782
739.358	0.0154411
739.436	0.0154237
739.514	0.0154469
739.592	0.0155507
739.670	0.0154778
739.748	0.0153889
739.826	0.0154930
739.905	0.0155228
739.983	0.0156091
740.061	0.0156721
740.139	0.0155972
740.217	0.0157395
740.295	0.0156815
740.373	0.0155473
740.451	0.0155379
740.530	0.0155859
740.608	0.0154779
740.686	0.0154996
740.764	0.0153804
740.842	0.0154044
740.920	0.0155000
740.998	0.0153448
741.076	0.0154073
741.155	0.0152930
741.233	0.0152125
741.311	0.0152567
741.389	0.0151564
741.467	0.0152052
741.545	0.0152068
741.623	0.0152097
741.701	0.0151756
741.780	0.0152111
741.858	0.0153065
741.936	0.0152428
742.014	0.0152332
742.092	0.0154563
742.170	0.0153490
742.248	0.0154530
742.326	0.0156063
742.405	0.0155288
742.483	0.0156149
742.561	0.0156824
742.639	0.0156431
742.717	0.0157898
742.795	0.0158668
742.873	0.0158762
742.951	0.0158044
743.030	0.0159799
743.108	0.0159830
743.186	0.0159151
743.264	0.0160661
743.342	0.0160957
743.420	0.0159043
743.498	0.0158714
743.576	0.0158866
743.655	0.0158155
743.733	0.0158585
743.811	0.0158755
743.889	0.0158728
743.967	0.0156995
744.045	0.0155769
744.123	0.0156064
744.201	0.0154864
744.280	0.0155310
744.358	0.0156274
744.436	0.0155235
744.514	0.0155416
744.592	0.0156129
744.670	0.0156626
744.748	0.0156422
744.826	0.0156661
744.905	0.0155907
744.983	0.0156580
745.061	0.0156229
745.139	0.0155983
745.217	0.0155763
745.295	0.0155965
745.373	0.0157468
745.451	0.0156483
745.530	0.0156553
745.608	0.0155615
745.686	0.0155776
745.764	0.0158004
745.842	0.0154909
745.920	0.0155215
745.998	0.0155058
746.076	0.0154966
746.155	0.0154134
746.233	0.0155183
746.311	0.0153558
746.389	0.0154128
746.467	0.0153045
746.545	0.0153352
746.623	0.0153256
746.701	0.0152390
746.780	0.0152623
746.858	0.0153268
746.936	0.0151743
747.014	0.0152659
747.092	0.0152831
747.170	0.0153571
747.248	0.0154160
747.326	0.0153017
747.405	0.0154913
747.483	0.0155296
747.561	0.0154939
747.639	0.0155006
747.717	0.0155616
747.795	0.0156573
747.873	0.0154987
747.951	0.0155072
748.030	0.0155992
748.108	0.0155527
748.186	0.0153737
748.264	0.0155930
748.342	0.0153947
748.420	0.0154764
748.498	0.0155233
748.576	0.0154637
748.655	0.0153622
748.733	0.0153455
748.811	0.0154256
748.889	0.0152676
748.967	0.0153381
749.045	0.0153183
749.123	0.0153757
749.201	0.0152389
749.280	0.0151563
749.358	0.0153581
749.436	0.0153941
749.514	0.0153026
749.592	0.0152370
749.670	0.0154145
749.748	0.0153343
749.826	0.0152976
749.905	0.0152937
749.983	0.0154214
750.061	0.0155044
750.139	0.0154611
750.217	0.0154842
750.295	0.0154634
750.373	0.0155296
750.451	0.0156660
750.530	0.0157084
750.608	0.0156606
750.686	0.0156568
750.764	0.0157445
750.842	0.0157143
750.920	0.0158683
750.998	0.0158422
751.076	0.0158036
751.155	0.0157906
751.233	0.0158772
751.311	0.0157346
751.389	0.0158278
751.467	0.0158692
751.545	0.0158004
751.623	0.0158351
751.701	0.0156505
751.780	0.0157712
751.858	0.0155259
751.936	0.0156536
752.014	0.0155556
752.092	0.0156435
752.170	0.0156831
752.248	0.0154821
752.326	0.0155498
752.405	0.0154972
752.483	0.0155506
752.561	0.0154441
752.639	0.0154494
752.717	0.0155407
752.795	0.0155909
752.873	0.0154807
752.951	0.0156414
753.030	0.0155776
753.108	0.0156095
753.186	0.0157622
753.264	0.0156521
753.342	0.0157197
753.420	0.0158332
753.498	0.0158127
753.576	0.0158205
753.655	0.0156937
753.733	0.0157241
753.811	0.0155930
753.889	0.0156915
753.967	0.0156633
754.045	0.0157207
754.123	0.0155835
754.201	0.0155630
754.280	0.0154383
754.358	0.0155549
754.436	0.0155089
754.514	0.0154034
754.592	0.0154928
754.670	0.0153687
754.748	0.0151048
754.826	0.0153498
754.905	0.0151932
754.983	0.0153181
755.061	0.0152991
755.139	0.0153759
755.217	0.0153816
755.295	0.0152122
755.373	0.0152651
755.451	0.0154769
755.530	0.0153633
755.608	0.0153642
755.686	0.0155607
755.764	0.0154894
755.842	0.0156821
755.920	0.0155470
755.998	0.0156308
756.076	0.0156387
756.155	0.0155511
756.233	0.0156471
756.311	0.0153838
756.389	0.0154446
756.467	0.0155656
756.545	0.0153764
756.623	0.0154304
756.701	0.0154603
756.780	0.0153361
756.858	0.0153213
756.936	0.0153385
757.014	0.0153465
757.092	0.0152959
757.170	0.0153112
757.248	0.0153191
757.326	0.0153795
757.405	0.0155135
757.483	0.0154739
757.561	0.0154877
757.639	0.0155159
757.717	0.0153864
757.795	0.0155664
757.873	0.0155921
757.951	0.0155845
758.030	0.0155453
758.108	0.0156635
758.186	0.0158872
758.264	0.0157585
758.342	0.0157325
758.420	0.0157742
758.498	0.0158878
758.576	0.0158282
758.655	0.0157713
758.733	0.0159380
758.811	0.0158080
758.889	0.0160155
758.967	0.0157388
759.045	0.0157528
759.123	0.0156758
759.201	0.0157137
759.280	0.0156688
759.358	0.0157660
759.436	0.0155750
759.514	0.0154936
759.592	0.0153599
759.670	0.0155959
759.748	0.0155113
759.826	0.0154958
759.905	0.0156138
759.983	0.0154576
760.061	0.0154523
760.139	0.0154042
760.217	0.0154371
760.295	0.0154807
760.373	0.0154394
760.451	0.0155369
760.530	0.0154726
760.608	0.0155212
760.686	0.0156464
760.764	0.0155753
760.842	0.0156213
760.920	0.0156884
760.998	0.0156209
761.076	0.0156758
761.155	0.0156746
761.233	0.0158092
761.311	0.0158443
761.389	0.0157367
761.467	0.0156139
761.545	0.0159113
761.623	0.0157832
761.701	0.0156944
761.780	0.0156454
761.858	0.0157233
761.936	0.0155750
762.014	0.0154720
762.092	0.0155212
762.170	0.0155268
762.248	0.0154423
762.326	0.0151831
762.405	0.0153851
762.483	0.0153584
762.561	0.0152991
762.639	0.0153369
762.717	0.0152952
762.795	0.0153136
762.873	0.0152454
762.951	0.0152820
763.030	0.0152111
763.108	0.0152058
763.186	0.0153561
763.264	0.0153941
763.342	0.0154099
763.420	0.0154747
763.498	0.0153572
763.576	0.0154820
763.655	0.0154806
763.733	0.0155975
763.811	0.0156540
763.889	0.0155670
763.967	0.0155684
764.045	0.0155946
764.123	0.0156616
764.201	0.0158111
764.280	0.0158327
764.358	0.0157365
764.436	0.0157883
764.514	0.0157569
764.592	0.0157838
764.670	0.0157852
764.748	0.0157551
764.826	0.0157773
764.905	0.0157919
764.983	0.0157850
765.061	0.0155934
765.139	0.0156899
765.217	0.0156600
765.295	0.0156673
765.373	0.0156644
765.451	0.0157212
765.530	0.0156250
765.608	0.0155438
765.686	0.0155692
765.764	0.0157241
765.842	0.0154589
765.920	0.0156691
765.998	0.0156557
766.076	0.0156093
766.155	0.0154942
766.233	0.0154311
766.311	0.0156046
766.389	0.0155634
766.467	0.0154252
766.545	0.0154755
766.623	0.0155762
766.701	0.0155164
766.780	0.0155599
766.858	0.0155917
766.936	0.0156304
767.014	0.0157333
767.092	0.0156387
767.170	0.0156535
767.248	0.0155984
767.326	0.0156798
767.405	0.0158073
767.483	0.0157290
767.561	0.0156531
767.639	0.0155769
767.717	0.0158400
767.795	0.0156870
767.873	0.0157240
767.951	0.0156551
768.030	0.0157809
768.108	0.0157085
768.186	0.0157333
768.264	0.0157948
768.342	0.0157687
768.420	0.0157300
768.498	0.0157353
768.576	0.0157314
768.655	0.0157648
768.733	0.0157462
768.811	0.0158119
768.889	0.0157558
768.967	0.0157533
769.045	0.0156619
769.123	0.0158073
769.201	0.0157220
769.280	0.0157605
769.358	0.0157484
769.436	0.0156573
769.514	0.0156786
769.592	0.0157114
769.670	0.0155624
769.748	0.0154652
769.826	0.0154325
769.905	0.0155466
769.983	0.0154393
770.061	0.0153346
770.139	0.0153444
770.217	0.0153024
770.295	0.0152977
770.373	0.0152179
770.451	0.0151805
770.530	0.0150889
770.608	0.0152089
770.686	0.0153048
770.764	0.0151752
770.842	0.0153920
770.920	0.0152766
770.998	0.0152191
771.076	0.0153507
771.155	0.0154355
771.233	0.0154316
771.311	0.0153954
771.389	0.0154325
771.467	0.0154855
771.545	0.0155681
771.623	0.0155058
771.701	0.0154092
771.780	0.0155315
771.858	0.0156691
771.936	0.0156740
772.014	0.0155514
772.092	0.0155603
772.170	0.0156629
772.248	0.0155516
772.326	0.0155573
772.405	0.0155731
772.483	0.0154924
772.561	0.0154977
772.639	0.0155979
772.717	0.0155155
772.795	0.0155708
772.873	0.0155942
772.951	0.0154924
773.030	0.0155967
773.108	0.0155621
773.186	0.0154134
773.264	0.0153903
773.342	0.0153194
773.420	0.0154407
773.498	0.0154167
773.576	0.0153847
773.655	0.0153925
773.733	0.0153842
773.811	0.0153252
773.889	0.0152694
773.967	0.0153147
774.045	0.0153163
774.123	0.0154358
774.201	0.0153743
774.280	0.0154195
774.358	0.0153543
774.436	0.0154765
774.514	0.0155228
774.592	0.0154330
774.670	0.0156119
774.748	0.0154397
774.826	0.0154349
774.905	0.0154806
774.983	0.0154270
775.061	0.0155669
775.139	0.0156995
775.217	0.0155657
775.295	0.0154650
775.373	0.0155296
775.451	0.0154839
775.530	0.0154856
775.608	0.0153812
775.686	0.0155175
775.764	0.0153578
775.842	0.0154098
775.920	0.0154606
775.998	0.0153439
776.076	0.0153120
776.155	0.0153163
776.233	0.0154108
776.311	0.0153096
776.389	0.0154462
776.467	0.0153826
776.545	0.0155449
776.623	0.0153658
776.701	0.0155275
776.780	0.0156224
776.858	0.0154478
776.936	0.0154469
777.014	0.0154732
777.092	0.0154352
777.170	0.0155791
777.248	0.0154871
777.326	0.0154639
777.405	0.0155756
777.483	0.0154849
777.561	0.0152552
777.639	0.0154130
777.717	0.0155405
777.795	0.0153124
777.873	0.0153831
777.951	0.0152846
778.030	0.0153426
778.108	0.0153022
778.186	0.0152859
778.264	0.0153218
778.342	0.0152812
778.420	0.0153746
778.498	0.0153899
778.576	0.0153208
778.655	0.0153925
778.733	0.0153720
778.811	0.0154831
778.889	0.0153548
778.967	0.0155349
779.045	0.0156008
779.123	0.0154610
779.201	0.0156690
779.280	0.0157052
779.358	0.0157278
779.436	0.0158092
779.514	0.0157159
779.592	0.0156937
779.670	0.0156909
779.748	0.0157594
779.826	0.0157549
779.905	0.0157414
779.983	0.0157854
780.061	0.0156782
780.139	0.0157476
780.217	0.0157476
780.295	0.0157243
780.373	0.0155273
780.451	0.0156101
780.530	0.0156451
780.608	0.0156383
780.686	0.0155972
780.764	0.0156279
780.842	0.0156160
780.920	0.0156215
780.998	0.0156198
781.076	0.0154008
781.155	0.0154456
781.233	0.0153687
781.311	0.0156025
781.389	0.0155010
781.467	0.0153740
781.545	0.0154576
781.623	0.0154298
781.701	0.0153704
781.780	0.0154242
781.858	0.0153960
781.936	0.0153226
782.014	0.0153922
782.092	0.0156290
782.170	0.0154859
782.248	0.0155196
782.326	0.0154511
782.405	0.0155241
782.483	0.0156095
782.561	0.0155917
782.639	0.0156006
782.717	0.0154284
782.795	0.0155865
782.873	0.0156055
782.951	0.0156945
783.030	0.0156503
783.108	0.0156964
783.186	0.0157246
783.264	0.0156852
783.342	0.0157022
783.420	0.0158317
783.498	0.0158350
783.576	0.0157703
783.655	0.0157214
783.733	0.0157945
783.811	0.0158136
783.889	0.0157774
783.967	0.0158549
784.045	0.0158097
784.123	0.0157889
784.201	0.0157898
784.280	0.0158649
784.358	0.0159872
784.436	0.0157983
784.514	0.0158975
784.592	0.0158837
784.670	0.0159579
784.748	0.0158629
784.826	0.0157016
784.905	0.0157072
784.983	0.0159280
785.061	0.0157473
785.139	0.0157456
785.217	0.0157562
785.295	0.0156100
785.373	0.0155691
785.451	0.0156094
785.530	0.0156644
785.608	0.0156747
785.686	0.0156328
785.764	0.0154798
785.842	0.0155666
785.920	0.0155289
785.998	0.0153740
786.076	0.0153723
786.155	0.0153236
786.233	0.0153846
786.311	0.0153460
786.389	0.0152911
786.467	0.0152800
786.545	0.0152981
786.623	0.0153608
786.701	0.0153214
786.780	0.0152501
786.858	0.0153790
786.936	0.0152802
787.014	0.0153273
787.092	0.0153902
787.170	0.0153421
787.248	0.0152383
787.326	0.0153877
787.405	0.0153462
787.483	0.0153842
787.561	0.0154617
787.639	0.0154678
787.717	0.0154391
787.795	0.0152688
787.873	0.0152694
787.951	0.0154622
788.030	0.0152872
788.108	0.0153261
788.186	0.0154481
788.264	0.0155280
788.342	0.0154865
788.420	0.0152944
788.498	0.0155522
788.576	0.0155141
788.655	0.0154661
788.733	0.0155186
788.811	0.0154795
788.889	0.0154742
788.967	0.0154431
789.045	0.0154455
789.123	0.0156313
789.201	0.0156626
789.280	0.0156699
789.358	0.0157121
789.436	0.0156618
789.514	0.0155248
789.592	0.0157468
789.670	0.0155763
789.748	0.0155954
789.826	0.0156299
789.905	0.0155319
789.983	0.0155548
790.061	0.0154977
790.139	0.0154597
790.217	0.0156294
790.295	0.0155979
790.373	0.0155044
790.451	0.0155267
790.530	0.0154746
790.608	0.0155599
790.686	0.0155614
790.764	0.0154579
790.842	0.0155437
790.920	0.0154684
790.998	0.0156178
791.076	0.0155450
791.155	0.0152763
791.233	0.0154075
791.311	0.0155255
791.389	0.0154437
791.467	0.0154655
791.545	0.0153616
791.623	0.0154871
791.701	0.0154271
791.780	0.0154992
791.858	0.0153830
791.936	0.0152534
792.014	0.0153850
792.092	0.0153518
792.170	0.0152029
792.248	0.0153059
792.326	0.0153637
792.405	0.0153129
792.483	0.0153648
792.561	0.0153906
792.639	0.0154322
792.717	0.0153447
792.795	0.0153880
792.873	0.0152213
792.951	0.0153629
793.030	0.0153565
793.108	0.0152338
793.186	0.0153301
793.264	0.0154236
793.342	0.0153435
793.420	0.0152124
793.498	0.0152319
793.576	0.0154256
793.655	0.0155230
793.733	0.0153932
793.811	0.0153792
793.889	0.0153766
793.967	0.0154517
794.045	0.0154967
794.123	0.0154552
794.201	0.0154914
794.280	0.0155858
794.358	0.0155358
794.436	0.0155895
794.514	0.0156422
794.592	0.0154945
794.670	0.0156863
794.748	0.0156759
794.826	0.0156849
794.905	0.0157517
794.983	0.0157041
795.061	0.0158060
795.139	0.0156244
795.217	0.0156887
795.295	0.0156973
795.373	0.0157734
795.451	0.0158065
795.530	0.0156940
795.608	0.0156298
795.686	0.0155729
795.764	0.0155602
795.842	0.0156828
795.920	0.0156826
795.998	0.0156596
796.076	0.0154591
796.155	0.0154807
796.233	0.0153857
796.311	0.0153484
796.389	0.0152262
796.467	0.0153432
796.545	0.0153075
796.623	0.0151699
796.701	0.0151743
796.780	0.0153551
796.858	0.0151497
796.936	0.0152587
797.014	0.0152623
797.092	0.0150814
797.170	0.0150848
797.248	0.0152599
797.326	0.0151349
797.405	0.0152110
797.483	0.0153750
797.561	0.0152248
797.639	0.0152570
797.717	0.0151854
797.795	0.0153393
797.873	0.0152894
797.951	0.0153843
798.030	0.0153817
798.108	0.0153596
798.186	0.0154127
798.264	0.0154364
798.342	0.0155671
798.420	0.0154118
798.498	0.0155405
798.576	0.0154713
798.655	0.0154183
798.733	0.0154957
798.811	0.0156294
798.889	0.0156049
798.967	0.0155268
799.045	0.0156222
799.123	0.0155227
799.201	0.0156264
799.280	0.0156734
799.358	0.0157732
799.436	0.0156396
799.514	0.0156264
799.592	0.0156126
799.670	0.0156826
799.748	0.0156852
799.826	0.0156800
799.905	0.0155901
799.983	0.0157772
800.061	0.0155777
800.139	0.0155533
800.217	0.0156170
800.295	0.0155769
800.373	0.0155025
800.451	0.0154999
800.530	0.0155732
800.608	0.0154734
800.686	0.0155855
800.764	0.0153910
800.842	0.0152477
800.920	0.0154269
800.998	0.0154296
801.076	0.0153371
801.155	0.0152724
801.233	0.0153419
801.311	0.0152480
801.389	0.0152905
801.467	0.0152164
801.545	0.0152404
801.623	0.0152277
801.701	0.0152164
801.780	0.0151608
801.858	0.0152239
801.936	0.0152639
802.014	0.0153078
802.092	0.0153108
802.170	0.0152708
802.248	0.0152609
802.326	0.0151893
802.405	0.0152569
802.483	0.0154533
802.561	0.0154354
802.639	0.0153832
802.717	0.0153773
802.795	0.0152878
802.873	0.0153262
802.951	0.0155489
803.030	0.0154047
803.108	0.0152809
803.186	0.0153482
803.264	0.0155658
803.342	0.0153799
803.420	0.0153798
803.498	0.0153018
803.576	0.0153736
803.655	0.0152290
803.733	0.0153838
803.811	0.0151689
803.889	0.0152744
803.967	0.0153621
804.045	0.0154125
804.123	0.0153167
804.201	0.0153665
804.280	0.0155300
804.358	0.0154829
804.436	0.0153942
804.514	0.0154538
804.592	0.0154183
804.670	0.0154647
804.748	0.0154762
804.826	0.0156132
804.905	0.0156373
804.983	0.0155858
805.061	0.0155785
805.139	0.0155410
805.217	0.0154653
805.295	0.0156423
805.373	0.0157825
805.451	0.0156407
805.530	0.0154489
805.608	0.0156430
805.686	0.0157064
805.764	0.0155625
805.842	0.0156916
805.920	0.0156727
805.998	0.0155526
806.076	0.0155373
806.155	0.0156041
806.233	0.0155647
806.311	0.0155217
806.389	0.0154292
806.467	0.0156287
806.545	0.0155230
806.623	0.0155106
806.701	0.0154994
806.780	0.0156121
806.858	0.0155037
806.936	0.0153152
807.014	0.0153968
807.092	0.0153429
807.170	0.0154836
807.248	0.0154454
807.326	0.0153247
807.405	0.0153596
807.483	0.0154606
807.561	0.0153081
807.639	0.0154100
807.717	0.0155291
807.795	0.0153500
807.873	0.0152542
807.951	0.0153525
808.030	0.0153165
808.108	0.0152981
808.186	0.0153084
808.264	0.0153268
808.342	0.0153929
808.420	0.0152358
808.498	0.0154079
808.576	0.0153696
808.655	0.0151855
808.733	0.0153210
808.811	0.0153140
808.889	0.0151750
808.967	0.0151963
809.045	0.0151019
809.123	0.0151272
809.201	0.0153717
809.280	0.0152154
809.358	0.0152433
809.436	0.0153141
809.514	0.0154016
809.592	0.0154019
809.670	0.0153784
809.748	0.0152930
809.826	0.0154482
809.905	0.0155142
809.983	0.0156116
810.061	0.0155021
810.139	0.0156960
810.217	0.0157037
810.295	0.0155886
810.373	0.0156935
810.451	0.0157510
810.530	0.0157304
810.608	0.0157708
810.686	0.0158248
810.764	0.0157527
810.842	0.0157575
810.920	0.0157462
810.998	0.0156419
811.076	0.0155732
811.155	0.0157169
811.233	0.0156831
811.311	0.0155393
811.389	0.0155693
811.467	0.0156052
811.545	0.0156004
811.623	0.0154247
811.701	0.0154626
811.780	0.0153762
811.858	0.0154236
811.936	0.0155775
812.014	0.0153632
812.092	0.0153181
812.170	0.0154900
812.248	0.0153108
812.326	0.0152581
812.405	0.0153467
812.483	0.0152435
812.561	0.0154222
812.639	0.0152171
812.717	0.0153392
812.795	0.0153241
812.873	0.0153457
812.951	0.0151656
813.030	0.0153168
813.108	0.0154110
813.186	0.0154350
813.264	0.0154542
813.342	0.0155280
813.420	0.0153889
813.498	0.0154771
813.576	0.0155936
813.655	0.0155072
813.733	0.0155647
813.811	0.0155688
813.889	0.0154963
813.967	0.0156530
814.045	0.0155772
814.123	0.0155602
814.201	0.0155425
814.280	0.0155583
814.358	0.0154810
814.436	0.0155974
814.514	0.0155807
814.592	0.0155801
814.670	0.0155135
814.748	0.0155612
814.826	0.0156250
814.905	0.0156551
814.983	0.0155418
815.061	0.0154895
815.139	0.0153934
815.217	0.0153869
815.295	0.0154063
815.373	0.0153294
815.451	0.0154243
815.530	0.0153478
815.608	0.0153876
815.686	0.0154369
815.764	0.0152619
815.842	0.0155174
815.920	0.0155337
815.998	0.0153307
816.076	0.0154005
816.155	0.0154953
816.233	0.0154941
816.311	0.0155049
816.389	0.0155208
816.467	0.0154128
816.545	0.0154076
816.623	0.0153867
816.701	0.0154774
816.780	0.0155006
816.858	0.0154507
816.936	0.0153342
817.014	0.0153502
817.092	0.0154890
817.170	0.0154813
817.248	0.0152202
817.326	0.0152629
817.405	0.0153407
817.483	0.0152836
817.561	0.0152840
817.639	0.0152641
817.717	0.0152291
817.795	0.0151947
817.873	0.0153379
817.951	0.0153645
818.030	0.0154063
818.108	0.0154031
818.186	0.0153777
818.264	0.0152223
818.342	0.0153105
818.420	0.0155556
818.498	0.0155300
818.576	0.0154398
818.655	0.0154768
818.733	0.0155008
818.811	0.0155744
818.889	0.0154683
818.967	0.0154398
819.045	0.0156114
819.123	0.0154625
819.201	0.0153999
819.280	0.0154187
819.358	0.0153886
819.436	0.0154530
819.514	0.0154694
819.592	0.0154607
819.670	0.0153111
819.748	0.0153710
819.826	0.0153822
819.905	0.0153735
819.983	0.0153097
820.061	0.0153702
820.139	0.0154929
820.217	0.0153934
820.295	0.0154795
820.373	0.0153218
820.451	0.0155151
820.530	0.0154759
820.608	0.0155145
820.686	0.0154935
820.764	0.0155829
820.842	0.0154293
820.920	0.0155560
820.998	0.0154686
821.076	0.0154096
821.155	0.0155444
821.233	0.0155401
821.311	0.0155051
821.389	0.0154540
821.467	0.0155341
821.545	0.0153808
821.623	0.0155203
821.701	0.0153523
821.780	0.0153923
821.858	0.0155030
821.936	0.0154963
822.014	0.0154955
822.092	0.0153073
822.170	0.0154767
822.248	0.0154327
822.326	0.0152898
822.405	0.0153662
822.483	0.0154609
822.561	0.0154203
822.639	0.0152669
822.717	0.0152879
822.795	0.0154025
822.873	0.0154040
822.951	0.0153949
823.030	0.0153506
823.108	0.0154768
823.186	0.0153802
823.264	0.0153186
823.342	0.0153561
823.420	0.0152956
823.498	0.0155021
823.576	0.0155780
823.655	0.0154655
823.733	0.0154967
823.811	0.0154115
823.889	0.0153954
823.967	0.0154842
824.045	0.0156374
824.123	0.0155494
824.201	0.0155020
824.280	0.0154774
824.358	0.0155820
824.436	0.0154893
824.514	0.0156019
824.592	0.0156496
824.670	0.0154922
824.748	0.0156253
824.826	0.0156784
824.905	0.0154910
824.983	0.0156747
825.061	0.0156653
825.139	0.0156709
825.217	0.0157066
825.295	0.0156806
825.373	0.0156837
825.451	0.0156732
825.530	0.0155098
825.608	0.0157230
825.686	0.0155518
825.764	0.0156184
825.842	0.0156446
825.920	0.0155388
825.998	0.0155536
826.076	0.0156712
826.155	0.0156635
826.233	0.0156501
826.311	0.0156596
826.389	0.0156474
826.467	0.0156435
826.545	0.0157092
826.623	0.0156828
826.701	0.0156272
826.780	0.0156586
826.858	0.0155818
826.936	0.0155238
827.014	0.0155939
827.092	0.0155406
827.170	0.0155254
827.248	0.0155922
827.326	0.0155267
827.405	0.0155397
827.483	0.0153807
827.561	0.0154429
827.639	0.0155391
827.717	0.0153526
827.795	0.0153912
827.873	0.0155007
827.951	0.0152956
828.030	0.0153310
828.108	0.0153915
828.186	0.0154520
828.264	0.0154784
828.342	0.0153157
828.420	0.0152234
828.498	0.0152859
828.576	0.0153725
828.655	0.0155754
828.733	0.0153053
828.811	0.0154601
828.889	0.0153298
828.967	0.0153715
829.045	0.0154885
829.123	0.0153933
829.201	0.0154823
829.280	0.0154267
829.358	0.0154758
829.436	0.0154911
829.514	0.0154205
829.592	0.0155520
829.670	0.0154375
829.748	0.0155330
829.826	0.0153806
829.905	0.0155695
829.983	0.0153992
830.061	0.0154149
830.139	0.0154641
830.217	0.0154865
830.295	0.0154834
830.373	0.0155169
830.451	0.0155247
830.530	0.0155502
830.608	0.0154913
830.686	0.0153699
830.764	0.0154256
830.842	0.0154942
830.920	0.0154987
830.998	0.0154371
831.076	0.0153802
831.155	0.0155849
831.233	0.0155562
831.311	0.0153356
831.389	0.0154861
831.467	0.0155210
831.545	0.0154993
831.623	0.0155843
831.701	0.0156647
831.780	0.0155625
831.858	0.0154209
831.936	0.0154645
832.014	0.0155675
832.092	0.0154630
832.170	0.0154900
832.248	0.0155403
832.326	0.0155238
832.405	0.0155530
832.483	0.0154736
832.561	0.0156188
832.639	0.0155624
832.717	0.0157352
832.795	0.0154884
832.873	0.0155333
832.951	0.0156079
833.030	0.0155050
833.108	0.0154821
833.186	0.0154455
833.264	0.0155028
833.342	0.0154832
833.420	0.0154965
833.498	0.0154403
833.576	0.0154124
833.655	0.0155227
833.733	0.0156165
833.811	0.0156408
833.889	0.0153946
833.967	0.0153749
834.045	0.0154738
834.123	0.0154738
834.201	0.0154359
834.280	0.0154336
834.358	0.0154988
834.436	0.0155583
834.514	0.0155539
834.592	0.0155839
834.670	0.0156791
834.748	0.0156341
834.826	0.0156231
834.905	0.0155399
834.983	0.0155672
835.061	0.0156043
835.139	0.0155763
835.217	0.0155386
835.295	0.0155640
835.373	0.0154763
835.451	0.0155977
835.530	0.0155865
835.608	0.0155685
835.686	0.0154640
835.764	0.0153601
835.842	0.0155260
835.920	0.0155606
835.998	0.0152987
836.076	0.0154091
836.155	0.0153886
836.233	0.0154643
836.311	0.0155708
836.389	0.0155958
836.467	0.0155717
836.545	0.0154396
836.623	0.0154570
836.701	0.0154573
836.780	0.0155717
836.858	0.0157516
836.936	0.0155439
837.014	0.0156296
837.092	0.0155372
837.170	0.0155560
837.248	0.0155572
837.326	0.0155511
837.405	0.0156271
837.483	0.0155083
837.561	0.0154047
837.639	0.0155785
837.717	0.0156182
837.795	0.0154683
837.873	0.0156535
837.951	0.0154810
838.030	0.0155331
838.108	0.0154752
838.186	0.0154660
838.264	0.0155022
838.342	0.0153409
838.420	0.0154764
838.498	0.0153918
838.576	0.0156145
838.655	0.0156023
838.733	0.0154909
838.811	0.0155227
838.889	0.0155898
838.967	0.0156348
839.045	0.0155849
839.123	0.0156486
839.201	0.0155875
839.280	0.0155982
839.358	0.0156751
839.436	0.0155692
839.514	0.0157144
839.592	0.0156580
839.670	0.0156406
839.748	0.0156524
839.826	0.0156837
839.905	0.0157305
839.983	0.0156224
840.061	0.0156634
840.139	0.0156200
840.217	0.0155547
840.295	0.0157101
840.373	0.0157659
840.451	0.0156159
840.530	0.0155193
840.608	0.0157079
840.686	0.0156474
840.764	0.0156726
840.842	0.0156621
840.920	0.0156828
840.998	0.0155019
841.076	0.0155863
841.155	0.0155827
841.233	0.0156287
841.311	0.0155962
841.389	0.0157632
841.467	0.0156178
841.545	0.0156462
841.623	0.0155415
841.701	0.0156602
841.780	0.0155425
841.858	0.0154948
841.936	0.0155458
842.014	0.0155895
842.092	0.0156193
842.170	0.0156271
842.248	0.0155532
842.326	0.0154986
842.405	0.0153873
842.483	0.0155291
842.561	0.0155450
842.639	0.0155819
842.717	0.0154665
842.795	0.0154137
842.873	0.0153516
842.951	0.0153643
843.030	0.0153818
843.108	0.0154553
843.186	0.0155198
843.264	0.0155273
843.342	0.0155090
843.420	0.0155784
843.498	0.0155460
843.576	0.0155788
843.655	0.0154087
843.733	0.0155348
843.811	0.0155003
843.889	0.0156255
843.967	0.0154898
844.045	0.0154370
844.123	0.0154784
844.201	0.0154118
844.280	0.0153933
844.358	0.0154685
844.436	0.0156348
844.514	0.0154144
844.592	0.0153112
844.670	0.0155437
844.748	0.0154913
844.826	0.0152402
844.905	0.0153445
844.983	0.0153239
845.061	0.0155424
845.139	0.0155148
845.217	0.0154601
845.295	0.0154562
845.373	0.0154681
845.451	0.0154855
845.530	0.0154697
845.608	0.0153841
845.686	0.0153771
845.764	0.0154277
845.842	0.0153886
845.920	0.0155184
845.998	0.0155207
846.076	0.0154808
846.155	0.0154044
846.233	0.0155601
846.311	0.0154585
846.389	0.0153502
846.467	0.0155637
846.545	0.0154516
846.623	0.0154193
846.701	0.0155078
846.780	0.0154907
846.858	0.0155371
846.936	0.0155441
847.014	0.0154145
847.092	0.0154982
847.170	0.0155647
847.248	0.0155287
847.326	0.0155531
847.405	0.0154597
847.483	0.0154281
847.561	0.0155359
847.639	0.0154817
847.717	0.0156590
847.795	0.0156648
847.873	0.0155301
847.951	0.0156432
848.030	0.0156594
848.108	0.0156207
848.186	0.0154542
848.264	0.0154256
848.342	0.0156521
848.420	0.0156117
848.498	0.0156290
848.576	0.0155686
848.655	0.0156286
848.733	0.0155895
848.811	0.0155637
848.889	0.0156020
848.967	0.0157053
849.045	0.0155155
849.123	0.0155069
849.201	0.0155631
849.280	0.0153864
849.358	0.0154555
849.436	0.0155054
849.514	0.0154681
849.592	0.0155444
849.670	0.0154861
849.748	0.0155248
849.826	0.0154514
849.905	0.0154099
849.983	0.0156386
850.061	0.0155338
850.139	0.0156606
850.217	0.0155187
850.295	0.0154827
850.373	0.0155084
850.451	0.0155878
850.530	0.0155323
850.608	0.0154927
850.686	0.0154568
850.764	0.0154290
850.842	0.0154470
850.920	0.0155384
850.998	0.0153370
851.076	0.0154304
851.155	0.0153751
851.233	0.0154992
851.311	0.0153555
851.389	0.0152776
851.467	0.0151809
851.545	0.0153330
851.623	0.0152546
851.701	0.0153288
851.780	0.0152430
851.858	0.0152534
851.936	0.0152953
852.014	0.0152792
852.092	0.0153995
852.170	0.0153869
852.248	0.0153512
852.326	0.0152348
852.405	0.0152545
852.483	0.0153321
852.561	0.0152573
852.639	0.0152055
852.717	0.0153560
852.795	0.0152888
852.873	0.0152287
852.951	0.0153653
853.030	0.0152921
853.108	0.0152646
853.186	0.0152987
853.264	0.0151984
853.342	0.0152300
853.420	0.0153815
853.498	0.0153796
853.576	0.0153963
853.655	0.0152468
853.733	0.0152630
853.811	0.0153476
853.889	0.0152669
853.967	0.0153716
854.045	0.0152935
854.123	0.0154536
854.201	0.0154002
854.280	0.0154951
854.358	0.0153477
854.436	0.0155174
854.514	0.0155368
854.592	0.0155228
854.670	0.0155148
854.748	0.0154348
854.826	0.0154364
854.905	0.0155968
854.983	0.0155083
855.061	0.0156413
855.139	0.0155897
855.217	0.0156851
855.295	0.0156664
855.373	0.0156845
855.451	0.0155443
855.530	0.0155481
855.608	0.0157320
855.686	0.0157732
855.764	0.0156139
855.842	0.0157262
855.920	0.0157263
855.998	0.0156595
856.076	0.0155508
856.155	0.0155970
856.233	0.0154922
856.311	0.0154985
856.389	0.0155978
856.467	0.0156036
856.545	0.0155846
856.623	0.0155383
856.701	0.0156064
856.780	0.0154952
856.858	0.0154751
856.936	0.0154758
857.014	0.0156165
857.092	0.0155702
857.170	0.0155014
857.248	0.0154628
857.326	0.0155346
857.405	0.0155566
857.483	0.0156476
857.561	0.0156760
857.639	0.0154986
857.717	0.0156161
857.795	0.0155458
857.873	0.0154729
857.951	0.0155864
858.030	0.0156221
858.108	0.0156985
858.186	0.0156053
858.264	0.0156656
858.342	0.0157274
858.420	0.0156049
858.498	0.0155293
858.576	0.0157642
858.655	0.0155820
858.733	0.0156720
858.811	0.0156923
858.889	0.0155599
858.967	0.0157421
859.045	0.0156849
859.123	0.0156726
859.201	0.0156822
859.280	0.0157000
859.358	0.0155434
859.436	0.0157065
859.514	0.0156358
859.592	0.0156776
859.670	0.0154316
859.748	0.0155867
859.826	0.0156606
859.905	0.0155752
859.983	0.0157084
860.061	0.0155076
860.139	0.0156286
860.217	0.0155122
860.295	0.0155246
860.373	0.0155548
860.451	0.0156410
860.530	0.0156163
860.608	0.0156870
860.686	0.0155832
860.764	0.0156712
860.842	0.0155310
860.920	0.0155443
860.998	0.0156155
861.076	0.0156695
861.155	0.0157691
861.233	0.0157867
861.311	0.0156023
861.389	0.0156468
861.467	0.0157112
861.545	0.0156692
861.623	0.0155923
861.701	0.0157081
861.780	0.0155390
861.858	0.0156744
861.936	0.0157122
862.014	0.0157260
862.092	0.0155941
862.170	0.0156231
862.248	0.0156712
862.326	0.0156334
862.405	0.0156847
862.483	0.0157558
862.561	0.0156774
862.639	0.0157218
862.717	0.0156705
862.795	0.0156483
862.873	0.0157185
862.951	0.0156374
863.030	0.0157442
863.108	0.0158651
863.186	0.0156374
863.264	0.0156027
863.342	0.0156519
863.420	0.0155674
863.498	0.0156168
863.576	0.0155131
863.655	0.0155531
863.733	0.0155672
863.811	0.0155579
863.889	0.0156274
863.967	0.0156071
864.045	0.0155688
864.123	0.0154514
864.201	0.0155461
864.280	0.0155026
864.358	0.0156144
864.436	0.0155067
864.514	0.0155443
864.592	0.0154693
864.670	0.0154523
864.748	0.0154790
864.826	0.0154534
864.905	0.0154391
864.983	0.0153573
865.061	0.0155399
865.139	0.0154642
865.217	0.0153893
865.295	0.0154346
865.373	0.0155996
865.451	0.0155375
865.530	0.0155532
865.608	0.0154964
865.686	0.0155722
865.764	0.0155734
865.842	0.0154568
865.920	0.0156062
865.998	0.0157071
866.076	0.0156676
866.155	0.0154358
866.233	0.0155564
866.311	0.0155801
866.389	0.0156516
866.467	0.0156445
866.545	0.0156390
866.623	0.0155367
866.701	0.0156335
866.780	0.0154448
866.858	0.0154233
866.936	0.0155144
867.014	0.0155945
867.092	0.0153837
867.170	0.0153748
867.248	0.0155093
867.326	0.0153783
867.405	0.0155856
867.483	0.0154078
867.561	0.0152527
867.639	0.0153184
867.717	0.0153734
867.795	0.0154251
867.873	0.0154895
867.951	0.0153944
868.030	0.0153230
868.108	0.0154718
868.186	0.0155281
868.264	0.0153504
868.342	0.0154575
868.420	0.0153947
868.498	0.0153558
868.576	0.0154275
868.655	0.0154274
868.733	0.0155647
868.811	0.0155908
868.889	0.0155627
868.967	0.0154547
869.045	0.0154675
869.123	0.0155345
869.201	0.0154553
869.280	0.0155460
869.358	0.0155662
869.436	0.0155717
869.514	0.0156280
869.592	0.0156237
869.670	0.0154914
869.748	0.0155414
869.826	0.0156161
869.905	0.0155015
869.983	0.0155163
870.061	0.0154314
870.139	0.0154991
870.217	0.0155598
870.295	0.0155775
870.373	0.0155570
870.451	0.0156108
870.530	0.0155491
870.608	0.0154690
870.686	0.0154213
870.764	0.0154837
870.842	0.0155245
870.920	0.0156326
870.998	0.0156721
871.076	0.0156042
871.155	0.0155591
871.233	0.0155854
871.311	0.0155405
871.389	0.0155537
871.467	0.0155232
871.545	0.0155887
871.623	0.0155073
871.701	0.0155268
871.780	0.0155050
871.858	0.0155312
871.936	0.0154671
872.014	0.0154101
872.092	0.0154054
872.170	0.0154850
872.248	0.0153408
872.326	0.0154742
872.405	0.0154839
872.483	0.0154978
872.561	0.0154165
872.639	0.0154466
872.717	0.0153709
872.795	0.0154289
872.873	0.0153513
872.951	0.0152465
873.030	0.0154416
873.108	0.0155033
873.186	0.0154566
873.264	0.0156085
873.342	0.0155894
873.420	0.0153767
873.498	0.0154002
873.576	0.0155460
873.655	0.0154391
873.733	0.0153785
873.811	0.0154582
873.889	0.0154492
873.967	0.0155362
874.045	0.0154646
874.123	0.0155535
874.201	0.0154440
874.280	0.0153655
874.358	0.0154093
874.436	0.0153729
874.514	0.0153372
874.592	0.0154731
874.670	0.0155119
874.748	0.0153887
874.826	0.0153676
874.905	0.0153270
874.983	0.0153184
875.061	0.0153616
875.139	0.0154524
875.217	0.0154309
875.295	0.0153828
875.373	0.0154862
875.451	0.0154429
875.530	0.0153510
875.608	0.0153246
875.686	0.0153558
875.764	0.0154136
875.842	0.0153950
875.920	0.0153003
875.998	0.0151745
876.076	0.0153798
876.155	0.0153679
876.233	0.0152072
876.311	0.0153060
876.389	0.0151851
876.467	0.0152076
876.545	0.0152601
876.623	0.0152698
876.701	0.0153111
876.780	0.0152309
876.858	0.0154317
876.936	0.0153065
877.014	0.0152777
877.092	0.0153661
877.170	0.0153941
877.248	0.0153646
877.326	0.0154267
877.405	0.0154253
877.483	0.0155190
877.561	0.0154643
877.639	0.0154015
877.717	0.0154054
877.795	0.0152901
877.873	0.0152657
877.951	0.0154465
878.030	0.0156157
878.108	0.0154803
878.186	0.0154535
878.264	0.0154889
878.342	0.0154508
878.420	0.0154047
878.498	0.0155088
878.576	0.0154467
878.655	0.0154868
878.733	0.0153578
878.811	0.0153989
878.889	0.0153184
878.967	0.0152658
879.045	0.0155077
879.123	0.0154934
879.201	0.0154393
879.280	0.0153703
879.358	0.0153638
879.436	0.0154783
879.514	0.0154662
879.592	0.0154734
879.670	0.0153253
879.748	0.0153993
879.826	0.0155244
879.905	0.0155779
879.983	0.0155365
880.061	0.0154235
880.139	0.0154182
880.217	0.0153584
880.295	0.0153987
880.373	0.0154692
880.451	0.0156140
880.530	0.0154223
880.608	0.0155138
880.686	0.0155077
880.764	0.0154780
880.842	0.0155173
880.920	0.0154990
880.998	0.0154610
881.076	0.0155956
881.155	0.0154374
881.233	0.0157068
881.311	0.0155781
881.389	0.0155633
881.467	0.0155411
881.545	0.0156413
881.623	0.0156352
881.701	0.0154477
881.780	0.0155981
881.858	0.0155157
881.936	0.0156192
882.014	0.0156164
882.092	0.0155602
882.170	0.0158060
882.248	0.0157024
882.326	0.0155994
882.405	0.0156427
882.483	0.0155501
882.561	0.0155900
882.639	0.0157039
882.717	0.0154185
882.795	0.0154516
882.873	0.0156781
882.951	0.0155388
883.030	0.0156908
883.108	0.0156620
883.186	0.0157200
883.264	0.0157478
883.342	0.0156894
883.420	0.0156220
883.498	0.0155981
883.576	0.0156240
883.655	0.0155736
883.733	0.0156640
883.811	0.0155796
883.889	0.0156120
883.967	0.0154465
884.045	0.0155736
884.123	0.0155354
884.201	0.0156834
884.280	0.0156042
884.358	0.0154906
884.436	0.0155117
884.514	0.0154549
884.592	0.0155431
884.670	0.0156984
884.748	0.0156071
884.826	0.0155606
884.905	0.0155312
884.983	0.0156364
885.061	0.0156616
885.139	0.0155646
885.217	0.0154811
885.295	0.0155550
885.373	0.0155375
885.451	0.0155122
885.530	0.0154240
885.608	0.0155756
885.686	0.0155563
885.764	0.0155534
885.842	0.0155315
885.920	0.0155283
885.998	0.0156206
886.076	0.0156677
886.155	0.0154642
886.233	0.0154614
886.311	0.0155272
886.389	0.0157190
886.467	0.0155403
886.545	0.0154925
886.623	0.0155231
886.701	0.0154870
886.780	0.0155453
886.858	0.0155387
886.936	0.0155805
887.014	0.0153955
887.092	0.0154380
887.170	0.0155372
887.248	0.0156353
887.326	0.0154826
887.405	0.0155096
887.483	0.0156638
887.561	0.0157375
887.639	0.0155605
887.717	0.0154671
887.795	0.0154919
887.873	0.0156272
887.951	0.0156467
888.030	0.0155318
888.108	0.0155002
888.186	0.0154794
888.264	0.0154916
888.342	0.0155056
888.420	0.0156319
888.498	0.0155986
888.576	0.0155655
888.655	0.0156960
888.733	0.0156007
888.811	0.0155518
888.889	0.0154954
888.967	0.0155570
889.045	0.0154832
889.123	0.0153757
889.201	0.0156754
889.280	0.0154516
889.358	0.0154699
889.436	0.0155872
889.514	0.0154462
889.592	0.0154598
889.670	0.0153794
889.748	0.0155415
889.826	0.0155145
889.905	0.0156010
889.983	0.0155160
890.061	0.0153996
890.139	0.0156065
890.217	0.0156139
890.295	0.0154841
890.373	0.0154920
890.451	0.0154603
890.530	0.0155298
890.608	0.0154414
890.686	0.0156222
890.764	0.0154853
890.842	0.0155635
890.920	0.0156122
890.998	0.0156322
891.076	0.0155669
891.155	0.0155054
891.233	0.0155484
891.311	0.0154595
891.389	0.0154793
891.467	0.0154820
891.545	0.0154915
891.623	0.0154473
891.701	0.0154812
891.780	0.0155228
891.858	0.0155517
891.936	0.0155513
892.014	0.0156368
892.092	0.0155161
892.170	0.0156127
892.248	0.0153886
892.326	0.0154981
892.405	0.0155474
892.483	0.0155038
892.561	0.0154992
892.639	0.0156470
892.717	0.0154836
892.795	0.0154662
892.873	0.0155080
892.951	0.0156416
893.030	0.0155833
893.108	0.0156718
893.186	0.0154959
893.264	0.0156025
893.342	0.0155521
893.420	0.0153307
893.498	0.0155181
893.576	0.0155992
893.655	0.0155123
893.733	0.0156216
893.811	0.0154052
893.889	0.0154145
893.967	0.0155826
894.045	0.0154684
894.123	0.0154662
894.201	0.0155232
894.280	0.0154438
894.358	0.0154755
894.436	0.0153163
894.514	0.0154613
894.592	0.0155183
894.670	0.0155389
894.748	0.0155100
894.826	0.0155065
894.905	0.0154125
894.983	0.0152883
895.061	0.0154060
895.139	0.0155412
895.217	0.0155500
895.295	0.0154159
895.373	0.0154826
895.451	0.0155222
895.530	0.0154879
895.608	0.0154374
895.686	0.0154330
895.764	0.0153624
895.842	0.0153979
895.920	0.0155348
895.998	0.0154961
896.076	0.0154796
896.155	0.0154771
896.233	0.0154321
896.311	0.0154396
896.389	0.0155299
896.467	0.0154330
896.545	0.0154074
896.623	0.0152907
896.701	0.0155148
896.780	0.0153702
896.858	0.0154004
896.936	0.0154105
897.014	0.0153850
897.092	0.0153684
897.170	0.0153622
897.248	0.0152918
897.326	0.0154404
897.405	0.0153594
897.483	0.0153737
897.561	0.0153080
897.639	0.0153591
897.717	0.0154077
897.795	0.0153288
897.873	0.0153142
897.951	0.0153199
898.030	0.0154393
898.108	0.0154073
898.186	0.0153748
898.264	0.0154049
898.342	0.0152294
898.420	0.0154111
898.498	0.0154065
898.576	0.0153426
898.655	0.0154684
898.733	0.0153651
898.811	0.0154777
898.889	0.0155032
898.967	0.0153728
899.045	0.0154854
899.123	0.0153248
899.201	0.0155026
899.280	0.0155079
899.358	0.0154391
899.436	0.0155309
899.514	0.0155123
899.592	0.0154315
899.670	0.0154243
899.748	0.0154899
899.826	0.0155777
899.905	0.0154523
899.983	0.0154917
900.061	0.0155941
900.139	0.0154742
900.217	0.0156035
900.295	0.0154850
900.373	0.0154030
900.451	0.0155487
900.530	0.0155738
900.608	0.0155290
900.686	0.0154686
900.764	0.0154815
900.842	0.0155391
900.920	0.0155614
900.998	0.0155117
901.076	0.0156335
901.155	0.0155560
901.233	0.0154546
901.311	0.0156981
901.389	0.0154810
901.467	0.0155830
901.545	0.0156330
901.623	0.0155092
901.701	0.0155570
901.780	0.0156750
901.858	0.0156027
901.936	0.0154820
902.014	0.0155061
902.092	0.0154327
902.170	0.0154846
902.248	0.0155246
902.326	0.0155543
902.405	0.0154990
902.483	0.0155347
902.561	0.0155434
902.639	0.0154100
902.717	0.0155145
902.795	0.0154762
902.873	0.0154610
902.951	0.0155271
903.030	0.0153934
903.108	0.0154628
903.186	0.0154163
903.264	0.0155085
903.342	0.0154998
903.420	0.0155133
903.498	0.0155945
903.576	0.0153944
903.655	0.0153341
903.733	0.0155525
903.811	0.0154478
903.889	0.0154385
903.967	0.0154419
904.045	0.0153954
904.123	0.0154920
904.201	0.0153995
904.280	0.0156779
904.358	0.0156007
904.436	0.0155994
904.514	0.0156281
904.592	0.0154320
904.670	0.0155345
904.748	0.0155579
904.826	0.0155408
904.905	0.0155109
904.983	0.0154066
905.061	0.0154529
905.139	0.0154062
905.217	0.0154831
905.295	0.0154390
905.373	0.0154399
905.451	0.0155103
905.530	0.0153896
905.608	0.0152624
905.686	0.0153511
905.764	0.0154292
905.842	0.0153518
905.920	0.0153639
905.998	0.0153574
906.076	0.0153819
906.155	0.0154221
906.233	0.0154253
906.311	0.0155415
906.389	0.0154163
906.467	0.0154595
906.545	0.0153941
906.623	0.0153904
906.701	0.0154121
906.780	0.0152143
906.858	0.0153436
906.936	0.0154659
907.014	0.0155842
907.092	0.0154226
907.170	0.0154694
907.248	0.0154605
907.326	0.0153941
907.405	0.0153321
907.483	0.0154475
907.561	0.0155559
907.639	0.0154922
907.717	0.0155594
907.795	0.0155196
907.873	0.0153374
907.951	0.0153701
908.030	0.0155350
908.108	0.0154301
908.186	0.0154779
908.264	0.0155060
908.342	0.0155063
908.420	0.0155065
908.498	0.0156359
908.576	0.0155639
908.655	0.0154485
908.733	0.0156161
908.811	0.0155423
908.889	0.0154890
908.967	0.0154628
909.045	0.0155541
909.123	0.0154811
909.201	0.0156730
909.280	0.0156088
909.358	0.0155338
909.436	0.0155065
909.514	0.0155653
909.592	0.0154793
909.670	0.0154974
909.748	0.0156789
909.826	0.0153913
909.905	0.0155139
909.983	0.0155242
910.061	0.0154655
910.139	0.0155317
910.217	0.0155237
910.295	0.0156049
910.373	0.0155328
910.451	0.0154626
910.530	0.0155302
910.608	0.0155954
910.686	0.0155863
910.764	0.0154684
910.842	0.0155515
910.920	0.0156355
910.998	0.0155610
911.076	0.0155985
911.155	0.0156567
911.233	0.0156315
911.311	0.0157406
911.389	0.0157371
911.467	0.0157180
911.545	0.0157620
911.623	0.0157169
911.701	0.0155889
911.780	0.0157476
911.858	0.0158247
911.936	0.0156435
912.014	0.0156262
912.092	0.0157201
912.170	0.0156737
912.248	0.0155792
912.326	0.0155856
912.405	0.0156272
912.483	0.0156181
912.561	0.0157170
912.639	0.0156390
912.717	0.0156654
912.795	0.0157176
912.873	0.0156340
912.951	0.0155515
913.030	0.0155216
913.108	0.0157050
913.186	0.0156513
913.264	0.0155978
913.342	0.0157175
913.420	0.0155607
913.498	0.0155906
913.576	0.0154900
913.655	0.0155253
913.733	0.0156035
913.811	0.0155833
913.889	0.0155329
913.967	0.0154750
914.045	0.0155426
914.123	0.0155339
914.201	0.0153503
914.280	0.0154115
914.358	0.0155296
914.436	0.0155176
914.514	0.0152799
914.592	0.0153508
914.670	0.0154900
914.748	0.0153745
914.826	0.0155474
914.905	0.0155301
914.983	0.0154565
915.061	0.0154968
915.139	0.0154471
915.217	0.0155270
915.295	0.0154990
915.373	0.0155483
915.451	0.0155704
915.530	0.0155569
915.608	0.0155296
915.686	0.0155775
915.764	0.0156255
915.842	0.0154975
915.920	0.0154932
915.998	0.0154991
916.076	0.0156116
916.155	0.0154819
916.233	0.0154265
916.311	0.0154721
916.389	0.0155296
916.467	0.0154971
916.545	0.0154380
916.623	0.0154157
916.701	0.0153507
916.780	0.0154388
916.858	0.0155922
916.936	0.0154800
917.014	0.0154685
917.092	0.0153249
917.170	0.0155584
917.248	0.0154977
917.326	0.0154556
917.405	0.0152883
917.483	0.0154846
917.561	0.0153516
917.639	0.0155064
917.717	0.0154910
917.795	0.0154673
917.873	0.0155356
917.951	0.0155589
918.030	0.0154090
918.108	0.0153597
918.186	0.0155539
918.264	0.0155359
918.342	0.0154812
918.420	0.0154941
918.498	0.0155515
918.576	0.0156113
918.655	0.0154554
918.733	0.0155766
918.811	0.0155602
918.889	0.0154708
918.967	0.0157358
919.045	0.0156156
919.123	0.0156965
919.201	0.0155925
919.280	0.0155109
919.358	0.0155991
919.436	0.0155820
919.514	0.0156049
919.592	0.0156412
919.670	0.0157439
919.748	0.0154380
919.826	0.0154851
919.905	0.0155549
919.983	0.0155235
920.061	0.0154205
920.139	0.0155334
920.217	0.0155434
920.295	0.0155449
920.373	0.0154582
920.451	0.0155318
920.530	0.0154649
920.608	0.0153545
920.686	0.0154374
920.764	0.0156167
920.842	0.0154770
920.920	0.0154257
920.998	0.0154295
921.076	0.0154641
921.155	0.0153880
921.233	0.0154440
921.311	0.0155244
921.389	0.0155927
921.467	0.0154949
921.545	0.0155289
921.623	0.0156992
921.701	0.0154738
921.780	0.0154147
921.858	0.0155301
921.936	0.0155164
922.014	0.0154451
922.092	0.0155397
922.170	0.0154681
922.248	0.0155153
922.326	0.0154789
922.405	0.0155299
922.483	0.0155072
922.561	0.0155194
922.639	0.0153590
922.717	0.0155844
922.795	0.0155165
922.873	0.0155755
922.951	0.0154509
923.030	0.0154855
923.108	0.0154990
923.186	0.0154441
923.264	0.0154601
923.342	0.0154224
923.420	0.0155040
923.498	0.0154601
923.576	0.0153437
923.655	0.0153716
923.733	0.0155371
923.811	0.0156683
923.889	0.0154628
923.967	0.0154021
924.045	0.0153825
924.123	0.0153973
924.201	0.0154855
924.280	0.0154778
924.358	0.0155540
924.436	0.0154534
924.514	0.0154871
924.592	0.0154054
924.670	0.0155353
924.748	0.0153658
924.826	0.0153761
924.905	0.0154465
924.983	0.0154385
925.061	0.0154711
925.139	0.0154116
925.217	0.0154893
925.295	0.0154613
925.373	0.0154430
925.451	0.0154096
925.530	0.0155000
925.608	0.0156079
925.686	0.0154247
925.764	0.0154701
925.842	0.0155650
925.920	0.0154351
925.998	0.0155115
926.076	0.0154102
926.155	0.0154775
926.233	0.0155289
926.311	0.0155345
926.389	0.0154764
926.467	0.0156334
926.545	0.0156339
926.623	0.0155862
926.701	0.0154960
926.780	0.0155376
926.858	0.0156533
926.936	0.0157091
927.014	0.0156358
927.092	0.0156487
927.170	0.0155995
927.248	0.0156802
927.326	0.0155747
927.405	0.0155720
927.483	0.0156608
927.561	0.0154581
927.639	0.0156355
927.717	0.0155141
927.795	0.0157095
927.873	0.0155331
927.951	0.0154218
928.030	0.0155435
928.108	0.0155206
928.186	0.0154595
928.264	0.0155039
928.342	0.0154153
928.420	0.0154520
928.498	0.0152999
928.576	0.0154125
928.655	0.0152213
928.733	0.0153584
928.811	0.0153974
928.889	0.0154086
928.967	0.0151983
929.045	0.0154473
929.123	0.0153771
929.201	0.0152870
929.280	0.0152532
929.358	0.0153036
929.436	0.0154467
929.514	0.0153538
929.592	0.0154339
929.670	0.0153833
929.748	0.0153508
929.826	0.0155110
929.905	0.0155075
929.983	0.0154110
930.061	0.0153945
930.139	0.0155254
930.217	0.0153967
930.295	0.0156171
930.373	0.0153627
930.451	0.0154313
930.530	0.0155592
930.608	0.0155392
930.686	0.0154391
930.764	0.0153848
930.842	0.0155733
930.920	0.0155323
930.998	0.0155025
931.076	0.0153561
931.155	0.0155445
931.233	0.0154803
931.311	0.0153830
931.389	0.0154213
931.467	0.0153923
931.545	0.0154712
931.623	0.0155341
931.701	0.0153493
931.780	0.0153692
931.858	0.0154459
931.936	0.0156536
932.014	0.0154437
932.092	0.0156311
932.170	0.0155666
932.248	0.0155148
932.326	0.0156662
932.405	0.0153853
932.483	0.0154565
932.561	0.0155711
932.639	0.0156239
932.717	0.0155746
932.795	0.0156794
932.873	0.0155764
932.951	0.0156923
933.030	0.0156827
933.108	0.0157549
933.186	0.0157109
933.264	0.0156197
933.342	0.0155556
933.420	0.0155641
933.498	0.0156493
933.576	0.0155798
933.655	0.0155563
933.733	0.0157614
933.811	0.0155930
933.889	0.0154237
933.967	0.0156017
934.045	0.0156097
934.123	0.0156144
934.201	0.0156075
934.280	0.0154755
934.358	0.0156194
934.436	0.0155474
934.514	0.0155020
934.592	0.0155885
934.670	0.0153777
934.748	0.0155083
934.826	0.0153191
934.905	0.0155564
934.983	0.0155886
935.061	0.0155096
935.139	0.0155176
935.217	0.0154049
935.295	0.0152286
935.373	0.0154331
935.451	0.0154159
935.530	0.0152742
935.608	0.0154021
935.686	0.0154185
935.764	0.0152682
935.842	0.0154127
935.920	0.0153489
935.998	0.0153568
936.076	0.0153036
936.155	0.0153387
936.233	0.0154388
936.311	0.0154239
936.389	0.0153605
936.467	0.0154399
936.545	0.0154733
936.623	0.0155638
936.701	0.0153980
936.780	0.0154601
936.858	0.0154394
936.936	0.0155107
937.014	0.0154874
937.092	0.0154838
937.170	0.0154597
937.248	0.0155978
937.326	0.0154041
937.405	0.0154302
937.483	0.0155443
937.561	0.0155730
937.639	0.0155009
937.717	0.0155139
937.795	0.0155654
937.873	0.0155683
937.951	0.0153902
938.030	0.0156252
938.108	0.0155945
938.186	0.0155135
938.264	0.0155656
938.342	0.0154926
938.420	0.0154252
938.498	0.0154811
938.576	0.0156026
938.655	0.0155483
938.733	0.0155119
938.811	0.0154755
938.889	0.0155421
938.967	0.0154935
939.045	0.0154678
939.123	0.0154428
939.201	0.0154544
939.280	0.0154920
939.358	0.0154781
939.436	0.0155735
939.514	0.0154864
939.592	0.0154314
939.670	0.0154692
939.748	0.0155739
939.826	0.0156210
939.905	0.0154680
939.983	0.0154554
940.061	0.0154414
940.139	0.0155809
940.217	0.0155750
940.295	0.0155257
940.373	0.0155135
940.451	0.0154311
940.530	0.0155312
940.608	0.0154543
940.686	0.0155706
940.764	0.0154473
940.842	0.0155355
940.920	0.0155210
940.998	0.0155325
941.076	0.0155245
941.155	0.0153909
941.233	0.0155614
941.311	0.0156364
941.389	0.0156304
941.467	0.0156043
941.545	0.0155236
941.623	0.0154726
941.701	0.0155595
941.780	0.0155447
941.858	0.0156145
941.936	0.0155481
942.014	0.0154608
942.092	0.0154432
942.170	0.0153849
942.248	0.0155080
942.326	0.0155872
942.405	0.0155155
942.483	0.0155122
942.561	0.0155009
942.639	0.0155331
942.717	0.0154291
942.795	0.0155246
942.873	0.0155048
942.951	0.0154072
943.030	0.0154663
943.108	0.0156216
943.186	0.0155781
943.264	0.0156699
943.342	0.0156203
943.420	0.0155683
943.498	0.0155668
943.576	0.0155798
943.655	0.0154349
943.733	0.0156271
943.811	0.0154506
943.889	0.0154799
943.967	0.0155041
944.045	0.0154532
944.123	0.0154523
944.201	0.0154897
944.280	0.0155049
944.358	0.0155062
944.436	0.0154680
944.514	0.0155547
944.592	0.0154679
944.670	0.0154014
944.748	0.0154126
944.826	0.0155173
944.905	0.0156019
944.983	0.0155150
945.061	0.0153689
945.139	0.0154865
945.217	0.0155382
945.295	0.0154140
945.373	0.0154439
945.451	0.0154227
945.530	0.0155286
945.608	0.0153413
945.686	0.0153889
945.764	0.0154685
945.842	0.0154715
945.920	0.0154861
945.998	0.0153494
946.076	0.0153811
946.155	0.0152550
946.233	0.0155191
946.311	0.0153352
946.389	0.0154362
946.467	0.0154614
946.545	0.0154330
946.623	0.0154810
946.701	0.0155161
946.780	0.0155428
946.858	0.0153922
946.936	0.0154704
947.014	0.0154487
947.092	0.0155380
947.170	0.0155648
947.248	0.0155573
947.326	0.0155553
947.405	0.0153436
947.483	0.0154565
947.561	0.0155994
947.639	0.0153476
947.717	0.0153799
947.795	0.0154011
947.873	0.0155640
947.951	0.0156021
948.030	0.0155063
948.108	0.0155279
948.186	0.0156705
948.264	0.0156689
948.342	0.0154520
948.420	0.0154557
948.498	0.0155327
948.576	0.0155917
948.655	0.0154979
948.733	0.0154395
948.811	0.0156126
948.889	0.0156493
948.967	0.0156315
949.045	0.0156235
949.123	0.0156084
949.201	0.0155619
949.280	0.0155779
949.358	0.0156363
949.436	0.0155328
949.514	0.0154617
949.592	0.0156675
949.670	0.0156119
949.748	0.0154398
949.826	0.0154934
949.905	0.0154653
949.983	0.0154548
950.061	0.0154737
950.139	0.0155935
950.217	0.0153947
950.295	0.0154803
950.373	0.0153482
950.451	0.0154288
950.530	0.0153722
950.608	0.0152319
950.686	0.0152955
950.764	0.0153708
950.842	0.0152888
950.920	0.0152190
950.998	0.0152893
951.076	0.0153856
951.155	0.0155318
951.233	0.0153465
951.311	0.0152484
951.389	0.0152946
951.467	0.0154003
951.545	0.0154176
951.623	0.0154239
951.701	0.0152734
951.780	0.0154982
951.858	0.0155269
951.936	0.0154556
952.014	0.0154311
952.092	0.0154633
952.170	0.0157091
952.248	0.0154525
952.326	0.0153992
952.405	0.0155359
952.483	0.0155245
952.561	0.0154651
952.639	0.0154600
952.717	0.0155087
952.795	0.0155115
952.873	0.0154587
952.951	0.0154675
953.030	0.0153864
953.108	0.0154877
953.186	0.0155763
953.264	0.0153632
953.342	0.0155433
953.420	0.0154700
953.498	0.0154169
953.576	0.0156059
953.655	0.0154295
953.733	0.0155239
953.811	0.0154037
953.889	0.0155162
953.967	0.0153276
954.045	0.0154565
954.123	0.0153573
954.201	0.0152701
954.280	0.0154522
954.358	0.0152783
954.436	0.0154038
954.514	0.0153352
954.592	0.0152914
954.670	0.0153577
954.748	0.0152982
954.826	0.0153211
954.905	0.0153675
954.983	0.0152621
955.061	0.0154877
955.139	0.0153769
955.217	0.0152406
955.295	0.0153808
955.373	0.0154216
955.451	0.0152669
955.530	0.0153814
955.608	0.0153899
955.686	0.0153447
955.764	0.0153045
955.842	0.0154285
955.920	0.0154575
955.998	0.0152905
956.076	0.0153562
956.155	0.0155743
956.233	0.0153782
956.311	0.0154357
956.389	0.0154382
956.467	0.0153553
956.545	0.0154559
956.623	0.0153519
956.701	0.0153936
956.780	0.0153538
956.858	0.0153918
956.936	0.0155368
957.014	0.0152393
957.092	0.0152831
957.170	0.0154369
957.248	0.0152606
957.326	0.0152978
957.405	0.0153389
957.483	0.0154024
957.561	0.0154379
957.639	0.0154381
957.717	0.0153214
957.795	0.0152883
957.873	0.0153076
957.951	0.0153034
958.030	0.0153136
958.108	0.0155667
958.186	0.0152587
958.264	0.0153505
958.342	0.0153169
958.420	0.0153037
958.498	0.0153148
958.576	0.0153017
958.655	0.0153083
958.733	0.0153568
958.811	0.0154542
958.889	0.0152975
958.967	0.0155183
959.045	0.0152792
959.123	0.0153983
959.201	0.0154735
959.280	0.0154386
959.358	0.0154496
959.436	0.0153487
959.514	0.0153445
959.592	0.0155457
959.670	0.0154301
959.748	0.0153889
959.826	0.0155570
959.905	0.0155234
