05/17/2022	17:14:00	Ver.	4.1	UNKNOWN
Optical Delay	639.982744	Delta X		0.078125	Sweeps	1	Scan Rate	0/0
Coordinates	Axis 1	NaN	Axis 2	NaN	Axis 3	NaN	Axis 4	NaN	Axis 5	NaN	Axis 6	0.000000
TX Power	0.000000	RX Power	0.000000

639.983	0.0162277
640.061	0.0162658
640.139	0.0163406
640.217	0.0161823
640.295	0.0161340
640.373	0.0162987
640.451	0.0160483
640.530	0.0162236
640.608	0.0162708
640.686	0.0163274
640.764	0.0161421
640.842	0.0161905
640.920	0.0162374
640.998	0.0162700
641.076	0.0162661
641.155	0.0161707
641.233	0.0162641
641.311	0.0161109
641.389	0.0161109
641.467	0.0162830
641.545	0.0162677
641.623	0.0161748
641.701	0.0161258
641.780	0.0162457
641.858	0.0161939
641.936	0.0160287
642.014	0.0160638
642.092	0.0162209
642.170	0.0161695
642.248	0.0161665
642.326	0.0162476
642.405	0.0161578
642.483	0.0161066
642.561	0.0161315
642.639	0.0161729
642.717	0.0161134
642.795	0.0161209
642.873	0.0159303
642.951	0.0161674
643.030	0.0160924
643.108	0.0161074
643.186	0.0161446
643.264	0.0159831
643.342	0.0161427
643.420	0.0160206
643.498	0.0161362
643.576	0.0162069
643.655	0.0161462
643.733	0.0161856
643.811	0.0161728
643.889	0.0161416
643.967	0.0161177
644.045	0.0161013
644.123	0.0160597
644.201	0.0160481
644.280	0.0161758
644.358	0.0159428
644.436	0.0160872
644.514	0.0161497
644.592	0.0160837
644.670	0.0160806
644.748	0.0160333
644.826	0.0159525
644.905	0.0159879
644.983	0.0160625
645.061	0.0160658
645.139	0.0158693
645.217	0.0159608
645.295	0.0159787
645.373	0.0159415
645.451	0.0160580
645.530	0.0160299
645.608	0.0160218
645.686	0.0159012
645.764	0.0160421
645.842	0.0159628
645.920	0.0160725
645.998	0.0160298
646.076	0.0160149
646.155	0.0160490
646.233	0.0160049
646.311	0.0160896
646.389	0.0161145
646.467	0.0161557
646.545	0.0161790
646.623	0.0160139
646.701	0.0161829
646.780	0.0163211
646.858	0.0162245
646.936	0.0162662
647.014	0.0160984
647.092	0.0161886
647.170	0.0162151
647.248	0.0161154
647.326	0.0161957
647.405	0.0162175
647.483	0.0161927
647.561	0.0161794
647.639	0.0162506
647.717	0.0163689
647.795	0.0162154
647.873	0.0161243
647.951	0.0161425
648.030	0.0162190
648.108	0.0162598
648.186	0.0161652
648.264	0.0160773
648.342	0.0162286
648.420	0.0162196
648.498	0.0160867
648.576	0.0161439
648.655	0.0160572
648.733	0.0160012
648.811	0.0161832
648.889	0.0159949
648.967	0.0160578
649.045	0.0159203
649.123	0.0160056
649.201	0.0162178
649.280	0.0160173
649.358	0.0159629
649.436	0.0160460
649.514	0.0160535
649.592	0.0160166
649.670	0.0160210
649.748	0.0160342
649.826	0.0160710
649.905	0.0160642
649.983	0.0161462
650.061	0.0160604
650.139	0.0160003
650.217	0.0160414
650.295	0.0162759
650.373	0.0161675
650.451	0.0161908
650.530	0.0161079
650.608	0.0160438
650.686	0.0161701
650.764	0.0162510
650.842	0.0162170
650.920	0.0161784
650.998	0.0161952
651.076	0.0161877
651.155	0.0161895
651.233	0.0161821
651.311	0.0160198
651.389	0.0161547
651.467	0.0161067
651.545	0.0161025
651.623	0.0162717
651.701	0.0160501
651.780	0.0161560
651.858	0.0159950
651.936	0.0160442
652.014	0.0160322
652.092	0.0160044
652.170	0.0159405
652.248	0.0160058
652.326	0.0159489
652.405	0.0160680
652.483	0.0160802
652.561	0.0160120
652.639	0.0158645
652.717	0.0160472
652.795	0.0160831
652.873	0.0162378
652.951	0.0160909
653.030	0.0161395
653.108	0.0161195
653.186	0.0161120
653.264	0.0161724
653.342	0.0162955
653.420	0.0162199
653.498	0.0160527
653.576	0.0161995
653.655	0.0162242
653.733	0.0163225
653.811	0.0162914
653.889	0.0163081
653.967	0.0162020
654.045	0.0161703
654.123	0.0160444
654.201	0.0161387
654.280	0.0161105
654.358	0.0160131
654.436	0.0161024
654.514	0.0160921
654.592	0.0158946
654.670	0.0160162
654.748	0.0159623
654.826	0.0159463
654.905	0.0159468
654.983	0.0159021
655.061	0.0161102
655.139	0.0160756
655.217	0.0159798
655.295	0.0160462
655.373	0.0161124
655.451	0.0159187
655.530	0.0160043
655.608	0.0160344
655.686	0.0161064
655.764	0.0160825
655.842	0.0162063
655.920	0.0162182
655.998	0.0160313
656.076	0.0160343
656.155	0.0162019
656.233	0.0161205
656.311	0.0160513
656.389	0.0160901
656.467	0.0160635
656.545	0.0160970
656.623	0.0161517
656.701	0.0161563
656.780	0.0162270
656.858	0.0160428
656.936	0.0160547
657.014	0.0162493
657.092	0.0161094
657.170	0.0162948
657.248	0.0162774
657.326	0.0162535
657.405	0.0161251
657.483	0.0162499
657.561	0.0161223
657.639	0.0160969
657.717	0.0162161
657.795	0.0161914
657.873	0.0163005
657.951	0.0161897
658.030	0.0161111
658.108	0.0160952
658.186	0.0161543
658.264	0.0161768
658.342	0.0163271
658.420	0.0163534
658.498	0.0162134
658.576	0.0162318
658.655	0.0163100
658.733	0.0163023
658.811	0.0162816
658.889	0.0162998
658.967	0.0163235
659.045	0.0164397
659.123	0.0163885
659.201	0.0162058
659.280	0.0162789
659.358	0.0162313
659.436	0.0162525
659.514	0.0162646
659.592	0.0161243
659.670	0.0161122
659.748	0.0160754
659.826	0.0163164
659.905	0.0160512
659.983	0.0159912
660.061	0.0160054
660.139	0.0160033
660.217	0.0161204
660.295	0.0159914
660.373	0.0158858
660.451	0.0159658
660.530	0.0159942
660.608	0.0159274
660.686	0.0158954
660.764	0.0157520
660.842	0.0157499
660.920	0.0160110
660.998	0.0159578
661.076	0.0159267
661.155	0.0160366
661.233	0.0160085
661.311	0.0160548
661.389	0.0162243
661.467	0.0161826
661.545	0.0162077
661.623	0.0162485
661.701	0.0163676
661.780	0.0164502
661.858	0.0165455
661.936	0.0165268
662.014	0.0166312
662.092	0.0166710
662.170	0.0167174
662.248	0.0166601
662.326	0.0167051
662.405	0.0168253
662.483	0.0169519
662.561	0.0168575
662.639	0.0168456
662.717	0.0168842
662.795	0.0167728
662.873	0.0167195
662.951	0.0168493
663.030	0.0168316
663.108	0.0167960
663.186	0.0166898
663.264	0.0165974
663.342	0.0165901
663.420	0.0164696
663.498	0.0162275
663.576	0.0163308
663.655	0.0162564
663.733	0.0158524
663.811	0.0160075
663.889	0.0158331
663.967	0.0156966
664.045	0.0156274
664.123	0.0155089
664.201	0.0153905
664.280	0.0153895
664.358	0.0153046
664.436	0.0153154
664.514	0.0152500
664.592	0.0153248
664.670	0.0153517
664.748	0.0153175
664.826	0.0152666
664.905	0.0155145
664.983	0.0153899
665.061	0.0153082
665.139	0.0154770
665.217	0.0157304
665.295	0.0158377
665.373	0.0158556
665.451	0.0159692
665.530	0.0161501
665.608	0.0163334
665.686	0.0164125
665.764	0.0165670
665.842	0.0164213
665.920	0.0167570
665.998	0.0169903
666.076	0.0169633
666.155	0.0170609
666.233	0.0170956
666.311	0.0171572
666.389	0.0173148
666.467	0.0173466
666.545	0.0172588
666.623	0.0172826
666.701	0.0172148
666.780	0.0171581
666.858	0.0171147
666.936	0.0170643
667.014	0.0168552
667.092	0.0168582
667.170	0.0166499
667.248	0.0166398
667.326	0.0164748
667.405	0.0162209
667.483	0.0160806
667.561	0.0159048
667.639	0.0158598
667.717	0.0157178
667.795	0.0154840
667.873	0.0153969
667.951	0.0153978
668.030	0.0151717
668.108	0.0151206
668.186	0.0152284
668.264	0.0150620
668.342	0.0149796
668.420	0.0150547
668.498	0.0150958
668.576	0.0150377
668.655	0.0151129
668.733	0.0152084
668.811	0.0153824
668.889	0.0153738
668.967	0.0154655
669.045	0.0155131
669.123	0.0154707
669.201	0.0156544
669.280	0.0158222
669.358	0.0159388
669.436	0.0159494
669.514	0.0160151
669.592	0.0162508
669.670	0.0162999
669.748	0.0165549
669.826	0.0165007
669.905	0.0166109
669.983	0.0167419
670.061	0.0168124
670.139	0.0168555
670.217	0.0168880
670.295	0.0170135
670.373	0.0171790
670.451	0.0171144
670.530	0.0171600
670.608	0.0171194
670.686	0.0170918
670.764	0.0171342
670.842	0.0170255
670.920	0.0169255
670.998	0.0170293
671.076	0.0169470
671.155	0.0168752
671.233	0.0168011
671.311	0.0165572
671.389	0.0164907
671.467	0.0164679
671.545	0.0162777
671.623	0.0161668
671.701	0.0159191
671.780	0.0160474
671.858	0.0159399
671.936	0.0158587
672.014	0.0157686
672.092	0.0157729
672.170	0.0157215
672.248	0.0155724
672.326	0.0154681
672.405	0.0155809
672.483	0.0155348
672.561	0.0154990
672.639	0.0156797
672.717	0.0156765
672.795	0.0157132
672.873	0.0156816
672.951	0.0157478
673.030	0.0157628
673.108	0.0157980
673.186	0.0158638
673.264	0.0158131
673.342	0.0158981
673.420	0.0160081
673.498	0.0160124
673.576	0.0160858
673.655	0.0159282
673.733	0.0160813
673.811	0.0160735
673.889	0.0160460
673.967	0.0160820
674.045	0.0160471
674.123	0.0159754
674.201	0.0160250
674.280	0.0159338
674.358	0.0159306
674.436	0.0158675
674.514	0.0159238
674.592	0.0159293
674.670	0.0157985
674.748	0.0159541
674.826	0.0158081
674.905	0.0157599
674.983	0.0157481
675.061	0.0158688
675.139	0.0157781
675.217	0.0157719
675.295	0.0159476
675.373	0.0158880
675.451	0.0161049
675.530	0.0160434
675.608	0.0160516
675.686	0.0160565
675.764	0.0161627
675.842	0.0162666
675.920	0.0161972
675.998	0.0163912
676.076	0.0165398
676.155	0.0165119
676.233	0.0164794
676.311	0.0165601
676.389	0.0165327
676.467	0.0167251
676.545	0.0168046
676.623	0.0167628
676.701	0.0169227
676.780	0.0168192
676.858	0.0167636
676.936	0.0167937
677.014	0.0167023
677.092	0.0168967
677.170	0.0167559
677.248	0.0167078
677.326	0.0167194
677.405	0.0166890
677.483	0.0166289
677.561	0.0165154
677.639	0.0165107
677.717	0.0163499
677.795	0.0162699
677.873	0.0162629
677.951	0.0160885
678.030	0.0159174
678.108	0.0159846
678.186	0.0157069
678.264	0.0156907
678.342	0.0155349
678.420	0.0154546
678.498	0.0153079
678.576	0.0152488
678.655	0.0152849
678.733	0.0151193
678.811	0.0150945
678.889	0.0150503
678.967	0.0151215
679.045	0.0150415
679.123	0.0150177
679.201	0.0149577
679.280	0.0150244
679.358	0.0150729
679.436	0.0151069
679.514	0.0152838
679.592	0.0152394
679.670	0.0153108
679.748	0.0154124
679.826	0.0154904
679.905	0.0157056
679.983	0.0157771
680.061	0.0159849
680.139	0.0159613
680.217	0.0160865
680.295	0.0163029
680.373	0.0165378
680.451	0.0164206
680.530	0.0166787
680.608	0.0167146
680.686	0.0166127
680.764	0.0168116
680.842	0.0168848
680.920	0.0168846
680.998	0.0171357
681.076	0.0170941
681.155	0.0170693
681.233	0.0171429
681.311	0.0169811
681.389	0.0171007
681.467	0.0170361
681.545	0.0169404
681.623	0.0169474
681.701	0.0168636
681.780	0.0169407
681.858	0.0168298
681.936	0.0166895
682.014	0.0166371
682.092	0.0164674
682.170	0.0165477
682.248	0.0162764
682.326	0.0162006
682.405	0.0161949
682.483	0.0160224
682.561	0.0160399
682.639	0.0159965
682.717	0.0159457
682.795	0.0158427
682.873	0.0158598
682.951	0.0156754
683.030	0.0155913
683.108	0.0155328
683.186	0.0154105
683.264	0.0153568
683.342	0.0152917
683.420	0.0153777
683.498	0.0152649
683.576	0.0152871
683.655	0.0152011
683.733	0.0152510
683.811	0.0151520
683.889	0.0151814
683.967	0.0151775
684.045	0.0152387
684.123	0.0152731
684.201	0.0153867
684.280	0.0152251
684.358	0.0154942
684.436	0.0155882
684.514	0.0154494
684.592	0.0154840
684.670	0.0155730
684.748	0.0157473
684.826	0.0159502
684.905	0.0159897
684.983	0.0160081
685.061	0.0160530
685.139	0.0161697
685.217	0.0163600
685.295	0.0164061
685.373	0.0164317
685.451	0.0164522
685.530	0.0166919
685.608	0.0166384
685.686	0.0166640
685.764	0.0167211
685.842	0.0168759
685.920	0.0168628
685.998	0.0167512
686.076	0.0169102
686.155	0.0169863
686.233	0.0170440
686.311	0.0171636
686.389	0.0170046
686.467	0.0171204
686.545	0.0170402
686.623	0.0169717
686.701	0.0169525
686.780	0.0168629
686.858	0.0168607
686.936	0.0166823
687.014	0.0168304
687.092	0.0166180
687.170	0.0163583
687.248	0.0163130
687.326	0.0161868
687.405	0.0160233
687.483	0.0158504
687.561	0.0158172
687.639	0.0157694
687.717	0.0156337
687.795	0.0154362
687.873	0.0152604
687.951	0.0152654
688.030	0.0151015
688.108	0.0150023
688.186	0.0151385
688.264	0.0150018
688.342	0.0150091
688.420	0.0150157
688.498	0.0151238
688.576	0.0150082
688.655	0.0150631
688.733	0.0151223
688.811	0.0153268
688.889	0.0154271
688.967	0.0155510
689.045	0.0153638
689.123	0.0156088
689.201	0.0158691
689.280	0.0159422
689.358	0.0159884
689.436	0.0160336
689.514	0.0162952
689.592	0.0163558
689.670	0.0165453
689.748	0.0165733
689.826	0.0167410
689.905	0.0166185
689.983	0.0166248
690.061	0.0166869
690.139	0.0167610
690.217	0.0168916
690.295	0.0167608
690.373	0.0167990
690.451	0.0166911
690.530	0.0165244
690.608	0.0165541
690.686	0.0164890
690.764	0.0164757
690.842	0.0165156
690.920	0.0164008
690.998	0.0162670
691.076	0.0161835
691.155	0.0161805
691.233	0.0160273
691.311	0.0160603
691.389	0.0160115
691.467	0.0159885
691.545	0.0159087
691.623	0.0159711
691.701	0.0161394
691.780	0.0161005
691.858	0.0160497
691.936	0.0160410
692.014	0.0161578
692.092	0.0162749
692.170	0.0164407
692.248	0.0163200
692.326	0.0164745
692.405	0.0164755
692.483	0.0164732
692.561	0.0165525
692.639	0.0165536
692.717	0.0166754
692.795	0.0166158
692.873	0.0166336
692.951	0.0167381
693.030	0.0166503
693.108	0.0165819
693.186	0.0166405
693.264	0.0165862
693.342	0.0166147
693.420	0.0165021
693.498	0.0164597
693.576	0.0164645
693.655	0.0162993
693.733	0.0163291
693.811	0.0161450
693.889	0.0160355
693.967	0.0159021
694.045	0.0158297
694.123	0.0157426
694.201	0.0157144
694.280	0.0155624
694.358	0.0154184
694.436	0.0153545
694.514	0.0153956
694.592	0.0152041
694.670	0.0151675
694.748	0.0149831
694.826	0.0152351
694.905	0.0151914
694.983	0.0152278
695.061	0.0152721
695.139	0.0152610
695.217	0.0153628
695.295	0.0154716
695.373	0.0155882
695.451	0.0156167
695.530	0.0156645
695.608	0.0157984
695.686	0.0159315
695.764	0.0160027
695.842	0.0162166
695.920	0.0161614
695.998	0.0162730
696.076	0.0164114
696.155	0.0165164
696.233	0.0165243
696.311	0.0166441
696.389	0.0166579
696.467	0.0166945
696.545	0.0165861
696.623	0.0167303
696.701	0.0168327
696.780	0.0167922
696.858	0.0167596
696.936	0.0166910
697.014	0.0167542
697.092	0.0166381
697.170	0.0166090
697.248	0.0165208
697.326	0.0164231
697.405	0.0164224
697.483	0.0164681
697.561	0.0164676
697.639	0.0163126
697.717	0.0164725
697.795	0.0162348
697.873	0.0162305
697.951	0.0162829
698.030	0.0162363
698.108	0.0161095
698.186	0.0160544
698.264	0.0161068
698.342	0.0159900
698.420	0.0160147
698.498	0.0159815
698.576	0.0159255
698.655	0.0157639
698.733	0.0155797
698.811	0.0156931
698.889	0.0156227
698.967	0.0155780
699.045	0.0155546
699.123	0.0154488
699.201	0.0153941
699.280	0.0153152
699.358	0.0153178
699.436	0.0153307
699.514	0.0152217
699.592	0.0154013
699.670	0.0154227
699.748	0.0154929
699.826	0.0153643
699.905	0.0153697
699.983	0.0155832
700.061	0.0155286
700.139	0.0155882
700.217	0.0156444
700.295	0.0157398
700.373	0.0159029
700.451	0.0160079
700.530	0.0160685
700.608	0.0161660
700.686	0.0162482
700.764	0.0161467
700.842	0.0162737
700.920	0.0162153
700.998	0.0161828
701.076	0.0163923
701.155	0.0162847
701.233	0.0162455
701.311	0.0163100
701.389	0.0163582
701.467	0.0163080
701.545	0.0163262
701.623	0.0161061
701.701	0.0162818
701.780	0.0161949
701.858	0.0161895
701.936	0.0162698
702.014	0.0162066
702.092	0.0161599
702.170	0.0161578
702.248	0.0161584
702.326	0.0160690
702.405	0.0161759
702.483	0.0162729
702.561	0.0161859
702.639	0.0161298
702.717	0.0161203
702.795	0.0161186
702.873	0.0161381
702.951	0.0161279
703.030	0.0162000
703.108	0.0161783
703.186	0.0160701
703.264	0.0161294
703.342	0.0160746
703.420	0.0160815
703.498	0.0160536
703.576	0.0160394
703.655	0.0161082
703.733	0.0160312
703.811	0.0162459
703.889	0.0161711
703.967	0.0161345
704.045	0.0161551
704.123	0.0161482
704.201	0.0161378
704.280	0.0160562
704.358	0.0160587
704.436	0.0162833
704.514	0.0160133
704.592	0.0161118
704.670	0.0160179
704.748	0.0160819
704.826	0.0160664
704.905	0.0162209
704.983	0.0160403
705.061	0.0160298
705.139	0.0160932
705.217	0.0161136
705.295	0.0160865
705.373	0.0160032
705.451	0.0159314
705.530	0.0158440
705.608	0.0158577
705.686	0.0160382
705.764	0.0159133
705.842	0.0158829
705.920	0.0156762
705.998	0.0156750
706.076	0.0159302
706.155	0.0158898
706.233	0.0156849
706.311	0.0157691
706.389	0.0156104
706.467	0.0157951
706.545	0.0159179
706.623	0.0157877
706.701	0.0157880
706.780	0.0158858
706.858	0.0157928
706.936	0.0157831
707.014	0.0157134
707.092	0.0158306
707.170	0.0158588
707.248	0.0158306
707.326	0.0159225
707.405	0.0158408
707.483	0.0158597
707.561	0.0158903
707.639	0.0158729
707.717	0.0157912
707.795	0.0159103
707.873	0.0160268
707.951	0.0159331
708.030	0.0161850
708.108	0.0162384
708.186	0.0161695
708.264	0.0161391
708.342	0.0163438
708.420	0.0163989
708.498	0.0165267
708.576	0.0165204
708.655	0.0166353
708.733	0.0167931
708.811	0.0165977
708.889	0.0165894
708.967	0.0167479
709.045	0.0167999
709.123	0.0167664
709.201	0.0166963
709.280	0.0167627
709.358	0.0167178
709.436	0.0166473
709.514	0.0164307
709.592	0.0163573
709.670	0.0162782
709.748	0.0163332
709.826	0.0161884
709.905	0.0159264
709.983	0.0158212
710.061	0.0157617
710.139	0.0155988
710.217	0.0155062
710.295	0.0153284
710.373	0.0152949
710.451	0.0154188
710.530	0.0152799
710.608	0.0151805
710.686	0.0151663
710.764	0.0151572
710.842	0.0153490
710.920	0.0152843
710.998	0.0151879
711.076	0.0152753
711.155	0.0152657
711.233	0.0154639
711.311	0.0155184
711.389	0.0155550
711.467	0.0156403
711.545	0.0156777
711.623	0.0157340
711.701	0.0157422
711.780	0.0157903
711.858	0.0158166
711.936	0.0158279
712.014	0.0159119
712.092	0.0158849
712.170	0.0159875
712.248	0.0159709
712.326	0.0160575
712.405	0.0161097
712.483	0.0160291
712.561	0.0160896
712.639	0.0161279
712.717	0.0162977
712.795	0.0161136
712.873	0.0161403
712.951	0.0159855
713.030	0.0161388
713.108	0.0161382
713.186	0.0162324
713.264	0.0162246
713.342	0.0164648
713.420	0.0163612
713.498	0.0164578
713.576	0.0163527
713.655	0.0162962
713.733	0.0164271
713.811	0.0164468
713.889	0.0164002
713.967	0.0165009
714.045	0.0166315
714.123	0.0164678
714.201	0.0164586
714.280	0.0163387
714.358	0.0162794
714.436	0.0163163
714.514	0.0164421
714.592	0.0164030
714.670	0.0162933
714.748	0.0162431
714.826	0.0163573
714.905	0.0161404
714.983	0.0162550
715.061	0.0162787
715.139	0.0162913
715.217	0.0163765
715.295	0.0163376
715.373	0.0164536
715.451	0.0164487
715.530	0.0164329
715.608	0.0163336
715.686	0.0165154
715.764	0.0166203
715.842	0.0164768
715.920	0.0165000
715.998	0.0165207
716.076	0.0164189
716.155	0.0163730
716.233	0.0164508
716.311	0.0162489
716.389	0.0162841
716.467	0.0162004
716.545	0.0160313
716.623	0.0160669
716.701	0.0159710
716.780	0.0159854
716.858	0.0159043
716.936	0.0157605
717.014	0.0157713
717.092	0.0156489
717.170	0.0157186
717.248	0.0157457
717.326	0.0156140
717.405	0.0153952
717.483	0.0154636
717.561	0.0156487
717.639	0.0156033
717.717	0.0154827
717.795	0.0155185
717.873	0.0155302
717.951	0.0156929
718.030	0.0157633
718.108	0.0157369
718.186	0.0159330
718.264	0.0158308
718.342	0.0158968
718.420	0.0159872
718.498	0.0161143
718.576	0.0161658
718.655	0.0161969
718.733	0.0162822
718.811	0.0163414
718.889	0.0162407
718.967	0.0163480
719.045	0.0162309
719.123	0.0163425
719.201	0.0163294
719.280	0.0164510
719.358	0.0164005
719.436	0.0164162
719.514	0.0164066
719.592	0.0162540
719.670	0.0163338
719.748	0.0164471
719.826	0.0163870
719.905	0.0161942
719.983	0.0163774
720.061	0.0164414
720.139	0.0163586
720.217	0.0164140
720.295	0.0164374
720.373	0.0165337
720.451	0.0165475
720.530	0.0165168
720.608	0.0162704
720.686	0.0162673
720.764	0.0162753
720.842	0.0161788
720.920	0.0161815
720.998	0.0160742
721.076	0.0159710
721.155	0.0159828
721.233	0.0158562
721.311	0.0158200
721.389	0.0156819
721.467	0.0156794
721.545	0.0157066
721.623	0.0155594
721.701	0.0155356
721.780	0.0154462
721.858	0.0155205
721.936	0.0155509
722.014	0.0157157
722.092	0.0156319
722.170	0.0157557
722.248	0.0157648
722.326	0.0157104
722.405	0.0158275
722.483	0.0159000
722.561	0.0160066
722.639	0.0160712
722.717	0.0162466
722.795	0.0163691
722.873	0.0163383
722.951	0.0164522
723.030	0.0165256
723.108	0.0163851
723.186	0.0164890
723.264	0.0164211
723.342	0.0164544
723.420	0.0164931
723.498	0.0165536
723.576	0.0164477
723.655	0.0162728
723.733	0.0162248
723.811	0.0161379
723.889	0.0161729
723.967	0.0160114
724.045	0.0159467
724.123	0.0158548
724.201	0.0159350
724.280	0.0159174
724.358	0.0157809
724.436	0.0156808
724.514	0.0155105
724.592	0.0157444
724.670	0.0156664
724.748	0.0156295
724.826	0.0156537
724.905	0.0156438
724.983	0.0154877
725.061	0.0154932
725.139	0.0155874
725.217	0.0158169
725.295	0.0156618
725.373	0.0157545
725.451	0.0158716
725.530	0.0159858
725.608	0.0158449
725.686	0.0160423
725.764	0.0160218
725.842	0.0161787
725.920	0.0160607
725.998	0.0161266
726.076	0.0162892
726.155	0.0160583
726.233	0.0160211
726.311	0.0161050
726.389	0.0161583
726.467	0.0159880
726.545	0.0160095
726.623	0.0162088
726.701	0.0160347
726.780	0.0161143
726.858	0.0160815
726.936	0.0159959
727.014	0.0161273
727.092	0.0161979
727.170	0.0161749
727.248	0.0162357
727.326	0.0163567
727.405	0.0163460
727.483	0.0165169
727.561	0.0163602
727.639	0.0166193
727.717	0.0165054
727.795	0.0167387
727.873	0.0166541
727.951	0.0166298
728.030	0.0166389
728.108	0.0167686
728.186	0.0168278
728.264	0.0165665
728.342	0.0167519
728.420	0.0166503
728.498	0.0166671
728.576	0.0165707
728.655	0.0165895
728.733	0.0166232
728.811	0.0165994
728.889	0.0165907
728.967	0.0163852
729.045	0.0163961
729.123	0.0165562
729.201	0.0163320
729.280	0.0163389
729.358	0.0162695
729.436	0.0163095
729.514	0.0160969
729.592	0.0160503
729.670	0.0161593
729.748	0.0161354
729.826	0.0160222
729.905	0.0158801
729.983	0.0158238
730.061	0.0158569
730.139	0.0157733
730.217	0.0156954
730.295	0.0157175
730.373	0.0157569
730.451	0.0157851
730.530	0.0156083
730.608	0.0158257
730.686	0.0158060
730.764	0.0158430
730.842	0.0157056
730.920	0.0156645
730.998	0.0159167
731.076	0.0159028
731.155	0.0159143
731.233	0.0158688
731.311	0.0157768
731.389	0.0158993
731.467	0.0158785
731.545	0.0156949
731.623	0.0159410
731.701	0.0157800
731.780	0.0156252
731.858	0.0158134
731.936	0.0158506
732.014	0.0156787
732.092	0.0157144
732.170	0.0157446
732.248	0.0156711
732.326	0.0157571
732.405	0.0157917
732.483	0.0158492
732.561	0.0158234
732.639	0.0159410
732.717	0.0159154
732.795	0.0160477
732.873	0.0160190
732.951	0.0159648
733.030	0.0160027
733.108	0.0161572
733.186	0.0163690
733.264	0.0162975
733.342	0.0162514
733.420	0.0164588
733.498	0.0164235
733.576	0.0165279
733.655	0.0165577
733.733	0.0164056
733.811	0.0166078
733.889	0.0166611
733.967	0.0166793
734.045	0.0166698
734.123	0.0165892
734.201	0.0167454
734.280	0.0167044
734.358	0.0168166
734.436	0.0165546
734.514	0.0165354
734.592	0.0164790
734.670	0.0165919
734.748	0.0164299
734.826	0.0163630
734.905	0.0164186
734.983	0.0163132
735.061	0.0164493
735.139	0.0163986
735.217	0.0163445
735.295	0.0162968
735.373	0.0162681
735.451	0.0161872
735.530	0.0160989
735.608	0.0162539
735.686	0.0162372
735.764	0.0162141
735.842	0.0162628
735.920	0.0161664
735.998	0.0161255
736.076	0.0161073
736.155	0.0162407
736.233	0.0161558
736.311	0.0161417
736.389	0.0162077
736.467	0.0163161
736.545	0.0162193
736.623	0.0161356
736.701	0.0162395
736.780	0.0161808
736.858	0.0161439
736.936	0.0160812
737.014	0.0160970
737.092	0.0160420
737.170	0.0159996
737.248	0.0160448
737.326	0.0160144
737.405	0.0160236
737.483	0.0159509
737.561	0.0159666
737.639	0.0160017
737.717	0.0158929
737.795	0.0158467
737.873	0.0157667
737.951	0.0160437
738.030	0.0161433
738.108	0.0161909
738.186	0.0162729
738.264	0.0163629
738.342	0.0163354
738.420	0.0163843
738.498	0.0164400
738.576	0.0164222
738.655	0.0165636
738.733	0.0164946
738.811	0.0162593
738.889	0.0163659
738.967	0.0163184
739.045	0.0162300
739.123	0.0161150
739.201	0.0161971
739.280	0.0159962
739.358	0.0159222
739.436	0.0160429
739.514	0.0158076
739.592	0.0157531
739.670	0.0157032
739.748	0.0157426
739.826	0.0157391
739.905	0.0156340
739.983	0.0156991
740.061	0.0156565
740.139	0.0157154
740.217	0.0157520
740.295	0.0156766
740.373	0.0157700
740.451	0.0156739
740.530	0.0157124
740.608	0.0157992
740.686	0.0160956
740.764	0.0160337
740.842	0.0159766
740.920	0.0162060
740.998	0.0161685
741.076	0.0162709
741.155	0.0163344
741.233	0.0163232
741.311	0.0163611
741.389	0.0165052
741.467	0.0164581
741.545	0.0163422
741.623	0.0165931
741.701	0.0164909
741.780	0.0165535
741.858	0.0164014
741.936	0.0163158
742.014	0.0165021
742.092	0.0163821
742.170	0.0163794
742.248	0.0163572
742.326	0.0162017
742.405	0.0164352
742.483	0.0163012
742.561	0.0161676
742.639	0.0161544
742.717	0.0162671
742.795	0.0162353
742.873	0.0161879
742.951	0.0162018
743.030	0.0163867
743.108	0.0164075
743.186	0.0162537
743.264	0.0161835
743.342	0.0161602
743.420	0.0163291
743.498	0.0164118
743.576	0.0163041
743.655	0.0162178
743.733	0.0162678
743.811	0.0161184
743.889	0.0163316
743.967	0.0164443
744.045	0.0162872
744.123	0.0160807
744.201	0.0161671
744.280	0.0160659
744.358	0.0160520
744.436	0.0160347
744.514	0.0160576
744.592	0.0160986
744.670	0.0158499
744.748	0.0158635
744.826	0.0158090
744.905	0.0158544
744.983	0.0158521
745.061	0.0157134
745.139	0.0156553
745.217	0.0158177
745.295	0.0158273
745.373	0.0158275
745.451	0.0157976
745.530	0.0158660
745.608	0.0159061
745.686	0.0159401
745.764	0.0159100
745.842	0.0161702
745.920	0.0161351
745.998	0.0163060
746.076	0.0163611
746.155	0.0163155
746.233	0.0162170
746.311	0.0164143
746.389	0.0163924
746.467	0.0164123
746.545	0.0165033
746.623	0.0164021
746.701	0.0164320
746.780	0.0162947
746.858	0.0162716
746.936	0.0164221
747.014	0.0162574
747.092	0.0160792
747.170	0.0160977
747.248	0.0161173
747.326	0.0160970
747.405	0.0159431
747.483	0.0159980
747.561	0.0160766
747.639	0.0160160
747.717	0.0159872
747.795	0.0159394
747.873	0.0159794
747.951	0.0159061
748.030	0.0158929
748.108	0.0160389
748.186	0.0161461
748.264	0.0160826
748.342	0.0159688
748.420	0.0161557
748.498	0.0160794
748.576	0.0161085
748.655	0.0162667
748.733	0.0161310
748.811	0.0161950
748.889	0.0163510
748.967	0.0163207
749.045	0.0164182
749.123	0.0164092
749.201	0.0164879
749.280	0.0164381
749.358	0.0164864
749.436	0.0163116
749.514	0.0164514
749.592	0.0165678
749.670	0.0165585
749.748	0.0164001
749.826	0.0165381
749.905	0.0164005
749.983	0.0162490
750.061	0.0163971
750.139	0.0162859
750.217	0.0162725
750.295	0.0163902
750.373	0.0162376
750.451	0.0161223
750.530	0.0163036
750.608	0.0161757
750.686	0.0160819
750.764	0.0161753
750.842	0.0160873
750.920	0.0162283
750.998	0.0160825
751.076	0.0159349
751.155	0.0160665
751.233	0.0159859
751.311	0.0159747
751.389	0.0159956
751.467	0.0160908
751.545	0.0159808
751.623	0.0160013
751.701	0.0160620
751.780	0.0161392
751.858	0.0161504
751.936	0.0161566
752.014	0.0164079
752.092	0.0162234
752.170	0.0162843
752.248	0.0162228
752.326	0.0163288
752.405	0.0164113
752.483	0.0163528
752.561	0.0163237
752.639	0.0161656
752.717	0.0163666
752.795	0.0162292
752.873	0.0160915
752.951	0.0162183
753.030	0.0161553
753.108	0.0161477
753.186	0.0161028
753.264	0.0161378
753.342	0.0159667
753.420	0.0160216
753.498	0.0159588
753.576	0.0159392
753.655	0.0160925
753.733	0.0161075
753.811	0.0160175
753.889	0.0161134
753.967	0.0161730
754.045	0.0162582
754.123	0.0161715
754.201	0.0161435
754.280	0.0161794
754.358	0.0161023
754.436	0.0161923
754.514	0.0160672
754.592	0.0160186
754.670	0.0160753
754.748	0.0161138
754.826	0.0158843
754.905	0.0160080
754.983	0.0157879
755.061	0.0157527
755.139	0.0159602
755.217	0.0158601
755.295	0.0160204
755.373	0.0159566
755.451	0.0158910
755.530	0.0159467
755.608	0.0159785
755.686	0.0159195
755.764	0.0159644
755.842	0.0160508
755.920	0.0159230
755.998	0.0160134
756.076	0.0160347
756.155	0.0161761
756.233	0.0161301
756.311	0.0162378
756.389	0.0160491
756.467	0.0160616
756.545	0.0161791
756.623	0.0161251
756.701	0.0163319
756.780	0.0162727
756.858	0.0161835
756.936	0.0162155
757.014	0.0162328
757.092	0.0163213
757.170	0.0163486
757.248	0.0162393
757.326	0.0163400
757.405	0.0163775
757.483	0.0162792
757.561	0.0163847
757.639	0.0163008
757.717	0.0162661
757.795	0.0163520
757.873	0.0163937
757.951	0.0163042
758.030	0.0164095
758.108	0.0162543
758.186	0.0163589
758.264	0.0163390
758.342	0.0161456
758.420	0.0163767
758.498	0.0162093
758.576	0.0161143
758.655	0.0162840
758.733	0.0161836
758.811	0.0162038
758.889	0.0162013
758.967	0.0161898
759.045	0.0160306
759.123	0.0161802
759.201	0.0162534
759.280	0.0160910
759.358	0.0160335
759.436	0.0161890
759.514	0.0161759
759.592	0.0161851
759.670	0.0160489
759.748	0.0161012
759.826	0.0161487
759.905	0.0161821
759.983	0.0162231
760.061	0.0163893
760.139	0.0162624
760.217	0.0163293
760.295	0.0162760
760.373	0.0162576
760.451	0.0162627
760.530	0.0162476
760.608	0.0163133
760.686	0.0162553
760.764	0.0161922
760.842	0.0160732
760.920	0.0161391
760.998	0.0161421
761.076	0.0160261
761.155	0.0160607
761.233	0.0160218
761.311	0.0159881
761.389	0.0160788
761.467	0.0160608
761.545	0.0160307
761.623	0.0160729
761.701	0.0161107
761.780	0.0160252
761.858	0.0162776
761.936	0.0160613
762.014	0.0161893
762.092	0.0161441
762.170	0.0162313
762.248	0.0161075
762.326	0.0160759
762.405	0.0162029
762.483	0.0162685
762.561	0.0161063
762.639	0.0161935
762.717	0.0161546
762.795	0.0161145
762.873	0.0160958
762.951	0.0161020
763.030	0.0163074
763.108	0.0161838
763.186	0.0161585
763.264	0.0161990
763.342	0.0161559
763.420	0.0162479
763.498	0.0162433
763.576	0.0162012
763.655	0.0161845
763.733	0.0161086
763.811	0.0160951
763.889	0.0160827
763.967	0.0162264
764.045	0.0160844
764.123	0.0162058
764.201	0.0161742
764.280	0.0161540
764.358	0.0161824
764.436	0.0159998
764.514	0.0161778
764.592	0.0160663
764.670	0.0160091
764.748	0.0160677
764.826	0.0159525
764.905	0.0159914
764.983	0.0160218
765.061	0.0158442
765.139	0.0157911
765.217	0.0158156
765.295	0.0159940
765.373	0.0158896
765.451	0.0157040
765.530	0.0158134
765.608	0.0158221
765.686	0.0159206
765.764	0.0159152
765.842	0.0157897
765.920	0.0159585
765.998	0.0160553
766.076	0.0161292
766.155	0.0160270
766.233	0.0160200
766.311	0.0160028
766.389	0.0161160
766.467	0.0161520
766.545	0.0161619
766.623	0.0160236
766.701	0.0160684
766.780	0.0162362
766.858	0.0160909
766.936	0.0161015
767.014	0.0160921
767.092	0.0162027
767.170	0.0161913
767.248	0.0162599
767.326	0.0162370
767.405	0.0160974
767.483	0.0161755
767.561	0.0162891
767.639	0.0163282
767.717	0.0163659
767.795	0.0161795
767.873	0.0163749
767.951	0.0163038
768.030	0.0162955
768.108	0.0162678
768.186	0.0163638
768.264	0.0163395
768.342	0.0161424
768.420	0.0163036
768.498	0.0161076
768.576	0.0160768
768.655	0.0161436
768.733	0.0160882
768.811	0.0160049
768.889	0.0159869
768.967	0.0160439
769.045	0.0159479
769.123	0.0159763
769.201	0.0159355
769.280	0.0158173
769.358	0.0158060
769.436	0.0158190
769.514	0.0157472
769.592	0.0159007
769.670	0.0159172
769.748	0.0159036
769.826	0.0158470
769.905	0.0157996
769.983	0.0160409
770.061	0.0160213
770.139	0.0158425
770.217	0.0158353
770.295	0.0159948
770.373	0.0160123
770.451	0.0159431
770.530	0.0160331
770.608	0.0160267
770.686	0.0161222
770.764	0.0159330
770.842	0.0160841
770.920	0.0160088
770.998	0.0159393
771.076	0.0161255
771.155	0.0161098
771.233	0.0161548
771.311	0.0162899
771.389	0.0161961
771.467	0.0161674
771.545	0.0162078
771.623	0.0163490
771.701	0.0163566
771.780	0.0163591
771.858	0.0163198
771.936	0.0163351
772.014	0.0163984
772.092	0.0163733
772.170	0.0162788
772.248	0.0162569
772.326	0.0162643
772.405	0.0163696
772.483	0.0162505
772.561	0.0162440
772.639	0.0161966
772.717	0.0162343
772.795	0.0161482
772.873	0.0162423
772.951	0.0162766
773.030	0.0161532
773.108	0.0161416
773.186	0.0162185
773.264	0.0162110
773.342	0.0162303
773.420	0.0162817
773.498	0.0162647
773.576	0.0162370
773.655	0.0163203
773.733	0.0162491
773.811	0.0162549
773.889	0.0162266
773.967	0.0162226
774.045	0.0164539
774.123	0.0163153
774.201	0.0162301
774.280	0.0162583
774.358	0.0162336
774.436	0.0162251
774.514	0.0161548
774.592	0.0160432
774.670	0.0162315
774.748	0.0161618
774.826	0.0160498
774.905	0.0161514
774.983	0.0161253
775.061	0.0160843
775.139	0.0160137
775.217	0.0161364
775.295	0.0160526
775.373	0.0161167
775.451	0.0161800
775.530	0.0162460
775.608	0.0161828
775.686	0.0160996
775.764	0.0162050
775.842	0.0162335
775.920	0.0162083
775.998	0.0162897
776.076	0.0162888
776.155	0.0161969
776.233	0.0162329
776.311	0.0163537
776.389	0.0161703
776.467	0.0161710
776.545	0.0161572
776.623	0.0162009
776.701	0.0162422
776.780	0.0162479
776.858	0.0161858
776.936	0.0161339
777.014	0.0161643
777.092	0.0162017
777.170	0.0160777
777.248	0.0160892
777.326	0.0161054
777.405	0.0162775
777.483	0.0162097
777.561	0.0164069
777.639	0.0162187
777.717	0.0162203
777.795	0.0162624
777.873	0.0162569
777.951	0.0162990
778.030	0.0163790
778.108	0.0162949
778.186	0.0164636
778.264	0.0162866
778.342	0.0163092
778.420	0.0161467
778.498	0.0163223
778.576	0.0163357
778.655	0.0161961
778.733	0.0162808
778.811	0.0162698
778.889	0.0161366
778.967	0.0161959
779.045	0.0163466
779.123	0.0161546
779.201	0.0161019
779.280	0.0160787
779.358	0.0158659
779.436	0.0160944
779.514	0.0160239
779.592	0.0160458
779.670	0.0159400
779.748	0.0158477
779.826	0.0158863
779.905	0.0158001
779.983	0.0155914
780.061	0.0158208
780.139	0.0155838
780.217	0.0156308
780.295	0.0156791
780.373	0.0157565
780.451	0.0156782
780.530	0.0157676
780.608	0.0156881
780.686	0.0158049
780.764	0.0158214
780.842	0.0156763
780.920	0.0156912
780.998	0.0158057
781.076	0.0158013
781.155	0.0157813
781.233	0.0157439
781.311	0.0157941
781.389	0.0158692
781.467	0.0159283
781.545	0.0159421
781.623	0.0159492
781.701	0.0159357
781.780	0.0159714
781.858	0.0160117
781.936	0.0160413
782.014	0.0161285
782.092	0.0161456
782.170	0.0162346
782.248	0.0161698
782.326	0.0161905
782.405	0.0161272
782.483	0.0162324
782.561	0.0161716
782.639	0.0162564
782.717	0.0163443
782.795	0.0162841
782.873	0.0162232
782.951	0.0162608
783.030	0.0164223
783.108	0.0162471
783.186	0.0162532
783.264	0.0163747
783.342	0.0163113
783.420	0.0162703
783.498	0.0163013
783.576	0.0163029
783.655	0.0164021
783.733	0.0162046
783.811	0.0162824
783.889	0.0164205
783.967	0.0164087
784.045	0.0161148
784.123	0.0161176
784.201	0.0160299
784.280	0.0162517
784.358	0.0160997
784.436	0.0159360
784.514	0.0161258
784.592	0.0160432
784.670	0.0158098
784.748	0.0157106
784.826	0.0159038
784.905	0.0158762
784.983	0.0158604
785.061	0.0156694
785.139	0.0158524
785.217	0.0158273
785.295	0.0157792
785.373	0.0156853
785.451	0.0157676
785.530	0.0158279
785.608	0.0156662
785.686	0.0158092
785.764	0.0157886
785.842	0.0157792
785.920	0.0157741
785.998	0.0157294
786.076	0.0158665
786.155	0.0160080
786.233	0.0158781
786.311	0.0157505
786.389	0.0159528
786.467	0.0160997
786.545	0.0160683
786.623	0.0159866
786.701	0.0160189
786.780	0.0161431
786.858	0.0161173
786.936	0.0160847
787.014	0.0161792
787.092	0.0162669
787.170	0.0162981
787.248	0.0161502
787.326	0.0161574
787.405	0.0162397
787.483	0.0162676
787.561	0.0161378
787.639	0.0161370
787.717	0.0161549
787.795	0.0160763
787.873	0.0161119
787.951	0.0162638
788.030	0.0161618
788.108	0.0160374
788.186	0.0161981
788.264	0.0161913
788.342	0.0161402
788.420	0.0162738
788.498	0.0160875
788.576	0.0162098
788.655	0.0161244
788.733	0.0161513
788.811	0.0161452
788.889	0.0161357
788.967	0.0161045
789.045	0.0160752
789.123	0.0161609
789.201	0.0161279
789.280	0.0161678
789.358	0.0160354
789.436	0.0161226
789.514	0.0161467
789.592	0.0162328
789.670	0.0160596
789.748	0.0161127
789.826	0.0162012
789.905	0.0161835
789.983	0.0159471
790.061	0.0160648
790.139	0.0160799
790.217	0.0159047
790.295	0.0160011
790.373	0.0159566
790.451	0.0159164
790.530	0.0159539
790.608	0.0158878
790.686	0.0158289
790.764	0.0158308
790.842	0.0158076
790.920	0.0158754
790.998	0.0158388
791.076	0.0157809
791.155	0.0157315
791.233	0.0158132
791.311	0.0157890
791.389	0.0158067
791.467	0.0159180
791.545	0.0158837
791.623	0.0158051
791.701	0.0157913
791.780	0.0158778
791.858	0.0158237
791.936	0.0158759
792.014	0.0160042
792.092	0.0160280
792.170	0.0159812
792.248	0.0159754
792.326	0.0160741
792.405	0.0161959
792.483	0.0161745
792.561	0.0160809
792.639	0.0161008
792.717	0.0161200
792.795	0.0160792
792.873	0.0161449
792.951	0.0163353
793.030	0.0164109
793.108	0.0162891
793.186	0.0162083
793.264	0.0163113
793.342	0.0163371
793.420	0.0163102
793.498	0.0163775
793.576	0.0164619
793.655	0.0163832
793.733	0.0164785
793.811	0.0163853
793.889	0.0163374
793.967	0.0164728
794.045	0.0164443
794.123	0.0163214
794.201	0.0163499
794.280	0.0163110
794.358	0.0161822
794.436	0.0163846
794.514	0.0162501
794.592	0.0162418
794.670	0.0162637
794.748	0.0162495
794.826	0.0161801
794.905	0.0162103
794.983	0.0163030
795.061	0.0162112
795.139	0.0161882
795.217	0.0161028
795.295	0.0160060
795.373	0.0160695
795.451	0.0160715
795.530	0.0160840
795.608	0.0159278
795.686	0.0159068
795.764	0.0159142
795.842	0.0157882
795.920	0.0158727
795.998	0.0158797
796.076	0.0158405
796.155	0.0158749
796.233	0.0158540
796.311	0.0158585
796.389	0.0158618
796.467	0.0157865
796.545	0.0158124
796.623	0.0158624
796.701	0.0157935
796.780	0.0157764
796.858	0.0159875
796.936	0.0159846
797.014	0.0157298
797.092	0.0159840
797.170	0.0159206
797.248	0.0158865
797.326	0.0159296
797.405	0.0160052
797.483	0.0159875
797.561	0.0160840
797.639	0.0161500
797.717	0.0161606
797.795	0.0160471
797.873	0.0160900
797.951	0.0162639
798.030	0.0162012
798.108	0.0161639
798.186	0.0163203
798.264	0.0162949
798.342	0.0161692
798.420	0.0161470
798.498	0.0162114
798.576	0.0162033
798.655	0.0162707
798.733	0.0162813
798.811	0.0161498
798.889	0.0162833
798.967	0.0160001
799.045	0.0161862
799.123	0.0160385
799.201	0.0159403
799.280	0.0160114
799.358	0.0160485
799.436	0.0159983
799.514	0.0159867
799.592	0.0159706
799.670	0.0159492
799.748	0.0158232
799.826	0.0158889
799.905	0.0158245
799.983	0.0158611
800.061	0.0158999
800.139	0.0159424
800.217	0.0159761
800.295	0.0159225
800.373	0.0158232
800.451	0.0159956
800.530	0.0159142
800.608	0.0160870
800.686	0.0159763
800.764	0.0160690
800.842	0.0159916
800.920	0.0158540
800.998	0.0160209
801.076	0.0160147
801.155	0.0159548
801.233	0.0160114
801.311	0.0159251
801.389	0.0160616
801.467	0.0158951
801.545	0.0159652
801.623	0.0159010
801.701	0.0160053
801.780	0.0159850
801.858	0.0160197
801.936	0.0159941
802.014	0.0160477
802.092	0.0159138
802.170	0.0158624
802.248	0.0160492
802.326	0.0160214
802.405	0.0160046
802.483	0.0160291
802.561	0.0160378
802.639	0.0160339
802.717	0.0159739
802.795	0.0162251
802.873	0.0162232
802.951	0.0160368
803.030	0.0160283
803.108	0.0160694
803.186	0.0161040
803.264	0.0161288
803.342	0.0161379
803.420	0.0160434
803.498	0.0161009
803.576	0.0160625
803.655	0.0161842
803.733	0.0162001
803.811	0.0162441
803.889	0.0161073
803.967	0.0161166
804.045	0.0161704
804.123	0.0162875
804.201	0.0162177
804.280	0.0162209
804.358	0.0162019
804.436	0.0161428
804.514	0.0161643
804.592	0.0160557
804.670	0.0159995
804.748	0.0161134
804.826	0.0161577
804.905	0.0159489
804.983	0.0160679
805.061	0.0160601
805.139	0.0160727
805.217	0.0161693
805.295	0.0160441
805.373	0.0159850
805.451	0.0160387
805.530	0.0159673
805.608	0.0160929
805.686	0.0160321
805.764	0.0160690
805.842	0.0159065
805.920	0.0158906
805.998	0.0158679
806.076	0.0158949
806.155	0.0159084
806.233	0.0159507
806.311	0.0159091
806.389	0.0160683
806.467	0.0160017
806.545	0.0160117
806.623	0.0159298
806.701	0.0159058
806.780	0.0159483
806.858	0.0159658
806.936	0.0159177
807.014	0.0160129
807.092	0.0160185
807.170	0.0159452
807.248	0.0159827
807.326	0.0160109
807.405	0.0160630
807.483	0.0160538
807.561	0.0159638
807.639	0.0159228
807.717	0.0160172
807.795	0.0159954
807.873	0.0159928
807.951	0.0161239
808.030	0.0160989
808.108	0.0160975
808.186	0.0160339
808.264	0.0161518
808.342	0.0160853
808.420	0.0161069
808.498	0.0161269
808.576	0.0162578
808.655	0.0162712
808.733	0.0163998
808.811	0.0162521
808.889	0.0163118
808.967	0.0163245
809.045	0.0163908
809.123	0.0163124
809.201	0.0162228
809.280	0.0163229
809.358	0.0163437
809.436	0.0163171
809.514	0.0163462
809.592	0.0163324
809.670	0.0163138
809.748	0.0163061
809.826	0.0162191
809.905	0.0161613
809.983	0.0162410
810.061	0.0161949
810.139	0.0162276
810.217	0.0161468
810.295	0.0161079
810.373	0.0161366
810.451	0.0161440
810.530	0.0160337
810.608	0.0160960
810.686	0.0160078
810.764	0.0158585
810.842	0.0159352
810.920	0.0159595
810.998	0.0159654
811.076	0.0159810
811.155	0.0159728
811.233	0.0158064
811.311	0.0159797
811.389	0.0158366
811.467	0.0158344
811.545	0.0158304
811.623	0.0158099
811.701	0.0158302
811.780	0.0159038
811.858	0.0158461
811.936	0.0159527
812.014	0.0158289
812.092	0.0159074
812.170	0.0159423
812.248	0.0159517
812.326	0.0159251
812.405	0.0160863
812.483	0.0160819
812.561	0.0160494
812.639	0.0159507
812.717	0.0161678
812.795	0.0160774
812.873	0.0159566
812.951	0.0159576
813.030	0.0161286
813.108	0.0161107
813.186	0.0161165
813.264	0.0160600
813.342	0.0160947
813.420	0.0161396
813.498	0.0160461
813.576	0.0160237
813.655	0.0159901
813.733	0.0160587
813.811	0.0160587
813.889	0.0160734
813.967	0.0160007
814.045	0.0160252
814.123	0.0159618
814.201	0.0160267
814.280	0.0161108
814.358	0.0161681
814.436	0.0160465
814.514	0.0158749
814.592	0.0161489
814.670	0.0161452
814.748	0.0159772
814.826	0.0159712
814.905	0.0160109
814.983	0.0160509
815.061	0.0161903
815.139	0.0160843
815.217	0.0161679
815.295	0.0161745
815.373	0.0161440
815.451	0.0161440
815.530	0.0160746
815.608	0.0160462
815.686	0.0161743
815.764	0.0160748
815.842	0.0161235
815.920	0.0160852
815.998	0.0160583
816.076	0.0159626
816.155	0.0159798
816.233	0.0160800
816.311	0.0159896
816.389	0.0160298
816.467	0.0162366
816.545	0.0162607
816.623	0.0161013
816.701	0.0160731
816.780	0.0161165
816.858	0.0161264
816.936	0.0162489
817.014	0.0161431
817.092	0.0161576
817.170	0.0162521
817.248	0.0160684
817.326	0.0162155
817.405	0.0162932
817.483	0.0162771
817.561	0.0162544
817.639	0.0162601
817.717	0.0163184
817.795	0.0162139
817.873	0.0162033
817.951	0.0160770
818.030	0.0162338
818.108	0.0162454
818.186	0.0161441
818.264	0.0161974
818.342	0.0162252
818.420	0.0161178
818.498	0.0162538
818.576	0.0162493
818.655	0.0161483
818.733	0.0161654
818.811	0.0160663
818.889	0.0161796
818.967	0.0162200
819.045	0.0163003
819.123	0.0163065
819.201	0.0162970
819.280	0.0161286
819.358	0.0161315
819.436	0.0162666
819.514	0.0160544
819.592	0.0162637
819.670	0.0163927
819.748	0.0162305
819.826	0.0162640
819.905	0.0161540
819.983	0.0162495
820.061	0.0160914
820.139	0.0159568
820.217	0.0161059
820.295	0.0160851
820.373	0.0160254
820.451	0.0161465
820.530	0.0162219
820.608	0.0160954
820.686	0.0160796
820.764	0.0161518
820.842	0.0161742
820.920	0.0160846
820.998	0.0161097
821.076	0.0161416
821.155	0.0161090
821.233	0.0160041
821.311	0.0160089
821.389	0.0159821
821.467	0.0160366
821.545	0.0160040
821.623	0.0159834
821.701	0.0159843
821.780	0.0159503
821.858	0.0159475
821.936	0.0160687
822.014	0.0159151
822.092	0.0159225
822.170	0.0158630
822.248	0.0158703
822.326	0.0158346
822.405	0.0158788
822.483	0.0159315
822.561	0.0158570
822.639	0.0160138
822.717	0.0159016
822.795	0.0159418
822.873	0.0159516
822.951	0.0160678
823.030	0.0159953
823.108	0.0159728
823.186	0.0159473
823.264	0.0160394
823.342	0.0162062
823.420	0.0161941
823.498	0.0160214
823.576	0.0161286
823.655	0.0161794
823.733	0.0160258
823.811	0.0160988
823.889	0.0162341
823.967	0.0161459
824.045	0.0162480
824.123	0.0160278
824.201	0.0161612
824.280	0.0162995
824.358	0.0161069
824.436	0.0161221
824.514	0.0161752
824.592	0.0161565
824.670	0.0161847
824.748	0.0162228
824.826	0.0162817
824.905	0.0161243
824.983	0.0161790
825.061	0.0161672
825.139	0.0162544
825.217	0.0163026
825.295	0.0162579
825.373	0.0162995
825.451	0.0163916
825.530	0.0163059
825.608	0.0161190
825.686	0.0163120
825.764	0.0162826
825.842	0.0161493
825.920	0.0161320
825.998	0.0161657
826.076	0.0161287
826.155	0.0162105
826.233	0.0160329
826.311	0.0160377
826.389	0.0160654
826.467	0.0162067
826.545	0.0161540
826.623	0.0160188
826.701	0.0160151
826.780	0.0159990
826.858	0.0159821
826.936	0.0159966
827.014	0.0160579
827.092	0.0160315
827.170	0.0159853
827.248	0.0160024
827.326	0.0160545
827.405	0.0161508
827.483	0.0159249
827.561	0.0161465
827.639	0.0160596
827.717	0.0160238
827.795	0.0160181
827.873	0.0161974
827.951	0.0161207
828.030	0.0159820
828.108	0.0161046
828.186	0.0161386
828.264	0.0161639
828.342	0.0160522
828.420	0.0160682
828.498	0.0162222
828.576	0.0160896
828.655	0.0161539
828.733	0.0161703
828.811	0.0162045
828.889	0.0161745
828.967	0.0159753
829.045	0.0162588
829.123	0.0162395
829.201	0.0162926
829.280	0.0162205
829.358	0.0162215
829.436	0.0161876
829.514	0.0162339
829.592	0.0162016
829.670	0.0163693
829.748	0.0162902
829.826	0.0161812
829.905	0.0161851
829.983	0.0161906
830.061	0.0162348
830.139	0.0162244
830.217	0.0161532
830.295	0.0161959
830.373	0.0162442
830.451	0.0162914
830.530	0.0162619
830.608	0.0163268
830.686	0.0163506
830.764	0.0162292
830.842	0.0164053
830.920	0.0164934
830.998	0.0161958
831.076	0.0163675
831.155	0.0162736
831.233	0.0162946
831.311	0.0163136
831.389	0.0163968
831.467	0.0163602
831.545	0.0162662
831.623	0.0163012
831.701	0.0162679
831.780	0.0161745
831.858	0.0162320
831.936	0.0163017
832.014	0.0164040
832.092	0.0162334
832.170	0.0162543
832.248	0.0162105
832.326	0.0161949
832.405	0.0161457
832.483	0.0162708
832.561	0.0162647
832.639	0.0162291
832.717	0.0162463
832.795	0.0164070
832.873	0.0162746
832.951	0.0162740
833.030	0.0163783
833.108	0.0163350
833.186	0.0163771
833.264	0.0162061
833.342	0.0163788
833.420	0.0163679
833.498	0.0161991
833.576	0.0161932
833.655	0.0163065
833.733	0.0162749
833.811	0.0162419
833.889	0.0162276
833.967	0.0163287
834.045	0.0162416
834.123	0.0163306
834.201	0.0162981
834.280	0.0160597
834.358	0.0161453
834.436	0.0162222
834.514	0.0161696
834.592	0.0162932
834.670	0.0161374
834.748	0.0162394
834.826	0.0162261
834.905	0.0162218
834.983	0.0163401
835.061	0.0162582
835.139	0.0161563
835.217	0.0164207
835.295	0.0162170
835.373	0.0162052
835.451	0.0162844
835.530	0.0161982
835.608	0.0162757
835.686	0.0162144
835.764	0.0161862
835.842	0.0161734
835.920	0.0162814
835.998	0.0160942
836.076	0.0161340
836.155	0.0162004
836.233	0.0161517
836.311	0.0161014
836.389	0.0159254
836.467	0.0159108
836.545	0.0160824
836.623	0.0160188
836.701	0.0160925
836.780	0.0161334
836.858	0.0160325
836.936	0.0159590
837.014	0.0159478
837.092	0.0160403
837.170	0.0159734
837.248	0.0159612
837.326	0.0160780
837.405	0.0159278
837.483	0.0157646
837.561	0.0159800
837.639	0.0160841
837.717	0.0160722
837.795	0.0161329
837.873	0.0159589
837.951	0.0161367
838.030	0.0161134
838.108	0.0160818
838.186	0.0161600
838.264	0.0161901
838.342	0.0160738
838.420	0.0161582
838.498	0.0160555
838.576	0.0161327
838.655	0.0161226
838.733	0.0161568
838.811	0.0161361
838.889	0.0161200
838.967	0.0162541
839.045	0.0161951
839.123	0.0160603
839.201	0.0160239
839.280	0.0161195
839.358	0.0161054
839.436	0.0160941
839.514	0.0161239
839.592	0.0161577
839.670	0.0161696
839.748	0.0160655
839.826	0.0160560
839.905	0.0159613
839.983	0.0161124
840.061	0.0159139
840.139	0.0160531
840.217	0.0162194
840.295	0.0160490
840.373	0.0160811
840.451	0.0160390
840.530	0.0160955
840.608	0.0160155
840.686	0.0160226
840.764	0.0160339
840.842	0.0162028
840.920	0.0162199
840.998	0.0160869
841.076	0.0160804
841.155	0.0161642
841.233	0.0161729
841.311	0.0162426
841.389	0.0160320
841.467	0.0161136
841.545	0.0161725
841.623	0.0161166
841.701	0.0161703
841.780	0.0161330
841.858	0.0160683
841.936	0.0160852
842.014	0.0161839
842.092	0.0162053
842.170	0.0160649
842.248	0.0160026
842.326	0.0161133
842.405	0.0158591
842.483	0.0158923
842.561	0.0163062
842.639	0.0160654
842.717	0.0160717
842.795	0.0160015
842.873	0.0159280
842.951	0.0160522
843.030	0.0161250
843.108	0.0159468
843.186	0.0160665
843.264	0.0159906
843.342	0.0158704
843.420	0.0159121
843.498	0.0159824
843.576	0.0159027
843.655	0.0159547
843.733	0.0158149
843.811	0.0160023
843.889	0.0160680
843.967	0.0159048
844.045	0.0159799
844.123	0.0159841
844.201	0.0158588
844.280	0.0158882
844.358	0.0159333
844.436	0.0160628
844.514	0.0159378
844.592	0.0160609
844.670	0.0158401
844.748	0.0158390
844.826	0.0159084
844.905	0.0159706
844.983	0.0160317
845.061	0.0159723
845.139	0.0158965
845.217	0.0159341
845.295	0.0160442
845.373	0.0160469
845.451	0.0159612
845.530	0.0159537
845.608	0.0159959
845.686	0.0159599
845.764	0.0160660
845.842	0.0158492
845.920	0.0161503
845.998	0.0160234
846.076	0.0160757
846.155	0.0162501
846.233	0.0161335
846.311	0.0161205
846.389	0.0161673
846.467	0.0163189
846.545	0.0161420
846.623	0.0161284
846.701	0.0160477
846.780	0.0161314
846.858	0.0162291
846.936	0.0161243
847.014	0.0161865
847.092	0.0160752
847.170	0.0161831
847.248	0.0161909
847.326	0.0161253
847.405	0.0161831
847.483	0.0159708
847.561	0.0161163
847.639	0.0160075
847.717	0.0160194
847.795	0.0161505
847.873	0.0162017
847.951	0.0161619
848.030	0.0161096
848.108	0.0162107
848.186	0.0162714
848.264	0.0162185
848.342	0.0161975
848.420	0.0161182
848.498	0.0161330
848.576	0.0162460
848.655	0.0162961
848.733	0.0161611
848.811	0.0162085
848.889	0.0161324
848.967	0.0161986
849.045	0.0162662
849.123	0.0163290
849.201	0.0162769
849.280	0.0161461
849.358	0.0163396
849.436	0.0162774
849.514	0.0161222
849.592	0.0162184
849.670	0.0162511
849.748	0.0161485
849.826	0.0159620
849.905	0.0161678
849.983	0.0162075
850.061	0.0159738
850.139	0.0160616
850.217	0.0161168
850.295	0.0162231
850.373	0.0160233
850.451	0.0162355
850.530	0.0159452
850.608	0.0160371
850.686	0.0160882
850.764	0.0159824
850.842	0.0160175
850.920	0.0160886
850.998	0.0160811
851.076	0.0161362
851.155	0.0160489
851.233	0.0161115
851.311	0.0161932
851.389	0.0161838
851.467	0.0160777
851.545	0.0160070
851.623	0.0160271
851.701	0.0160634
851.780	0.0162067
851.858	0.0162640
851.936	0.0162591
852.014	0.0160722
852.092	0.0161180
852.170	0.0162674
852.248	0.0161060
852.326	0.0161479
852.405	0.0163090
852.483	0.0162108
852.561	0.0160671
852.639	0.0161953
852.717	0.0162325
852.795	0.0163396
852.873	0.0162249
852.951	0.0162185
853.030	0.0162361
853.108	0.0163200
853.186	0.0163325
853.264	0.0163360
853.342	0.0164152
853.420	0.0163214
853.498	0.0162449
853.576	0.0163118
853.655	0.0162790
853.733	0.0162694
853.811	0.0162955
853.889	0.0162457
853.967	0.0163615
854.045	0.0165024
854.123	0.0163583
854.201	0.0163350
854.280	0.0162539
854.358	0.0163010
854.436	0.0164412
854.514	0.0163363
854.592	0.0163667
854.670	0.0162657
854.748	0.0161243
854.826	0.0161851
854.905	0.0162486
854.983	0.0162820
855.061	0.0160941
855.139	0.0161908
855.217	0.0159874
855.295	0.0160543
855.373	0.0161060
855.451	0.0161584
855.530	0.0159386
855.608	0.0160253
855.686	0.0161470
855.764	0.0160196
855.842	0.0159262
855.920	0.0160502
855.998	0.0160757
856.076	0.0158974
856.155	0.0160606
856.233	0.0160559
856.311	0.0159718
856.389	0.0160584
856.467	0.0160404
856.545	0.0161507
856.623	0.0161696
856.701	0.0161604
856.780	0.0160217
856.858	0.0161219
856.936	0.0162790
857.014	0.0162142
857.092	0.0161417
857.170	0.0162331
857.248	0.0162866
857.326	0.0162534
857.405	0.0161901
857.483	0.0162555
857.561	0.0162154
857.639	0.0163129
857.717	0.0162435
857.795	0.0161870
857.873	0.0161190
857.951	0.0161851
858.030	0.0162514
858.108	0.0161292
858.186	0.0161345
858.264	0.0161178
858.342	0.0160369
858.420	0.0160837
858.498	0.0161510
858.576	0.0160737
858.655	0.0160484
858.733	0.0159560
858.811	0.0161034
858.889	0.0160908
858.967	0.0159954
859.045	0.0161546
859.123	0.0161204
859.201	0.0162930
859.280	0.0161739
859.358	0.0159959
859.436	0.0162264
859.514	0.0161063
859.592	0.0162267
859.670	0.0161156
859.748	0.0161931
859.826	0.0161525
859.905	0.0161839
859.983	0.0161449
860.061	0.0161350
860.139	0.0162273
860.217	0.0161647
860.295	0.0160459
860.373	0.0162893
860.451	0.0161554
860.530	0.0163084
860.608	0.0162534
860.686	0.0162468
860.764	0.0161602
860.842	0.0162150
860.920	0.0161649
860.998	0.0162337
861.076	0.0162564
861.155	0.0162289
861.233	0.0162886
861.311	0.0162559
861.389	0.0160260
861.467	0.0160594
861.545	0.0161645
861.623	0.0161996
861.701	0.0161515
861.780	0.0159895
861.858	0.0161429
861.936	0.0160974
862.014	0.0160235
862.092	0.0161310
862.170	0.0161712
862.248	0.0160571
862.326	0.0160641
862.405	0.0160293
862.483	0.0162627
862.561	0.0161063
862.639	0.0160400
862.717	0.0161351
862.795	0.0160574
862.873	0.0160037
862.951	0.0160507
863.030	0.0160046
863.108	0.0161741
863.186	0.0160475
863.264	0.0160020
863.342	0.0157934
863.420	0.0159846
863.498	0.0159569
863.576	0.0159909
863.655	0.0160808
863.733	0.0159923
863.811	0.0159558
863.889	0.0159820
863.967	0.0159505
864.045	0.0159530
864.123	0.0160268
864.201	0.0161275
864.280	0.0159985
864.358	0.0162109
864.436	0.0161198
864.514	0.0160514
864.592	0.0161008
864.670	0.0162119
864.748	0.0162569
864.826	0.0163055
864.905	0.0163831
864.983	0.0162262
865.061	0.0161660
865.139	0.0161388
865.217	0.0162988
865.295	0.0163856
865.373	0.0161328
865.451	0.0161755
865.530	0.0163309
865.608	0.0161871
865.686	0.0161871
865.764	0.0161108
865.842	0.0161657
865.920	0.0162244
865.998	0.0160801
866.076	0.0160896
866.155	0.0160520
866.233	0.0160004
866.311	0.0160947
866.389	0.0159805
866.467	0.0160168
866.545	0.0159410
866.623	0.0160933
866.701	0.0161726
866.780	0.0159446
866.858	0.0159276
866.936	0.0160008
867.014	0.0159621
867.092	0.0159161
867.170	0.0159219
867.248	0.0160289
867.326	0.0159555
867.405	0.0160662
867.483	0.0160812
867.561	0.0159447
867.639	0.0160472
867.717	0.0161585
867.795	0.0160901
867.873	0.0161317
867.951	0.0160297
868.030	0.0160821
868.108	0.0161707
868.186	0.0162122
868.264	0.0161413
868.342	0.0161782
868.420	0.0161137
868.498	0.0162534
868.576	0.0162344
868.655	0.0162244
868.733	0.0161202
868.811	0.0162180
868.889	0.0160276
868.967	0.0160912
869.045	0.0161854
869.123	0.0159991
869.201	0.0159564
869.280	0.0160283
869.358	0.0159836
869.436	0.0160088
869.514	0.0161172
869.592	0.0159183
869.670	0.0159860
869.748	0.0159871
869.826	0.0159958
869.905	0.0159895
869.983	0.0158377
870.061	0.0159727
870.139	0.0160391
870.217	0.0159890
870.295	0.0160617
870.373	0.0159482
870.451	0.0159656
870.530	0.0159203
870.608	0.0160544
870.686	0.0159356
870.764	0.0159014
870.842	0.0160014
870.920	0.0160809
870.998	0.0160782
871.076	0.0159838
871.155	0.0160283
871.233	0.0159022
871.311	0.0160291
871.389	0.0160165
871.467	0.0158099
871.545	0.0161458
871.623	0.0159209
871.701	0.0159424
871.780	0.0159643
871.858	0.0159218
871.936	0.0159890
872.014	0.0161126
872.092	0.0160555
872.170	0.0160700
872.248	0.0160615
872.326	0.0161738
872.405	0.0158981
872.483	0.0160946
872.561	0.0161858
872.639	0.0160929
872.717	0.0160885
872.795	0.0160934
872.873	0.0162240
872.951	0.0160456
873.030	0.0161880
873.108	0.0161961
873.186	0.0162228
873.264	0.0162646
873.342	0.0159947
873.420	0.0161897
873.498	0.0160882
873.576	0.0162272
873.655	0.0161369
873.733	0.0160426
873.811	0.0160629
873.889	0.0160616
873.967	0.0159660
874.045	0.0160885
874.123	0.0161999
874.201	0.0161944
874.280	0.0160023
874.358	0.0161134
874.436	0.0161374
874.514	0.0161253
874.592	0.0161271
874.670	0.0160394
874.748	0.0162289
874.826	0.0160896
874.905	0.0160056
874.983	0.0161092
875.061	0.0161668
875.139	0.0161448
875.217	0.0159492
875.295	0.0161174
875.373	0.0162463
875.451	0.0161745
875.530	0.0161678
875.608	0.0161074
875.686	0.0163039
875.764	0.0161607
875.842	0.0161381
875.920	0.0161654
875.998	0.0160973
876.076	0.0160364
876.155	0.0162144
876.233	0.0162183
876.311	0.0162105
876.389	0.0160801
876.467	0.0162148
876.545	0.0162086
876.623	0.0161709
876.701	0.0162574
876.780	0.0162139
876.858	0.0162556
876.936	0.0163438
877.014	0.0161919
877.092	0.0162563
877.170	0.0161657
877.248	0.0162796
877.326	0.0162950
877.405	0.0161504
877.483	0.0162617
877.561	0.0162269
877.639	0.0161909
877.717	0.0162163
877.795	0.0162364
877.873	0.0161256
877.951	0.0162273
878.030	0.0162360
878.108	0.0160663
878.186	0.0161945
878.264	0.0162677
878.342	0.0162096
878.420	0.0160690
878.498	0.0160613
878.576	0.0161221
878.655	0.0161441
878.733	0.0161170
878.811	0.0161367
878.889	0.0162251
878.967	0.0161437
879.045	0.0161707
879.123	0.0160251
879.201	0.0158938
879.280	0.0159906
879.358	0.0160323
879.436	0.0161336
879.514	0.0161478
879.592	0.0159625
879.670	0.0162003
879.748	0.0161179
879.826	0.0161327
879.905	0.0160433
879.983	0.0159231
880.061	0.0161867
880.139	0.0162096
880.217	0.0160973
880.295	0.0161758
880.373	0.0161330
880.451	0.0162559
880.530	0.0162132
880.608	0.0161082
880.686	0.0162826
880.764	0.0162081
880.842	0.0161915
880.920	0.0162134
880.998	0.0160737
881.076	0.0161680
881.155	0.0162071
881.233	0.0161333
881.311	0.0162020
881.389	0.0161349
881.467	0.0161948
881.545	0.0162651
881.623	0.0162143
881.701	0.0160492
881.780	0.0161420
881.858	0.0159989
881.936	0.0162005
882.014	0.0160791
882.092	0.0161114
882.170	0.0161375
882.248	0.0161351
882.326	0.0161132
882.405	0.0160297
882.483	0.0160780
882.561	0.0159016
882.639	0.0161279
882.717	0.0161094
882.795	0.0159705
882.873	0.0160162
882.951	0.0160706
883.030	0.0160558
883.108	0.0160503
883.186	0.0160332
883.264	0.0159945
883.342	0.0159216
883.420	0.0160532
883.498	0.0160567
883.576	0.0161127
883.655	0.0161913
883.733	0.0161713
883.811	0.0161097
883.889	0.0161805
883.967	0.0161009
884.045	0.0161678
884.123	0.0162264
884.201	0.0162184
884.280	0.0161735
884.358	0.0162253
884.436	0.0162585
884.514	0.0162926
884.592	0.0162990
884.670	0.0161819
884.748	0.0163376
884.826	0.0161894
884.905	0.0163345
884.983	0.0163019
885.061	0.0164133
885.139	0.0163551
885.217	0.0163866
885.295	0.0160368
885.373	0.0161488
885.451	0.0162090
885.530	0.0161743
885.608	0.0161909
885.686	0.0162409
885.764	0.0163318
885.842	0.0162439
885.920	0.0160672
885.998	0.0162300
886.076	0.0162137
886.155	0.0160542
886.233	0.0159958
886.311	0.0161431
886.389	0.0162280
886.467	0.0162663
886.545	0.0162601
886.623	0.0161791
886.701	0.0161258
886.780	0.0162423
886.858	0.0161662
886.936	0.0160931
887.014	0.0162295
887.092	0.0162325
887.170	0.0163463
887.248	0.0162218
887.326	0.0162699
887.405	0.0163206
887.483	0.0161990
887.561	0.0161707
887.639	0.0163580
887.717	0.0163252
887.795	0.0162497
887.873	0.0161588
887.951	0.0161948
888.030	0.0162294
888.108	0.0162193
888.186	0.0161697
888.264	0.0160835
888.342	0.0161793
888.420	0.0162825
888.498	0.0161946
888.576	0.0160379
888.655	0.0160393
888.733	0.0160400
888.811	0.0160229
888.889	0.0160314
888.967	0.0158735
889.045	0.0160272
889.123	0.0160387
889.201	0.0159397
889.280	0.0159781
889.358	0.0158366
889.436	0.0159074
889.514	0.0159420
889.592	0.0158555
889.670	0.0159003
889.748	0.0159895
889.826	0.0159286
889.905	0.0159525
889.983	0.0159401
890.061	0.0159592
890.139	0.0158759
890.217	0.0159353
890.295	0.0159350
890.373	0.0159113
890.451	0.0160921
890.530	0.0159236
890.608	0.0159243
890.686	0.0160055
890.764	0.0160643
890.842	0.0161571
890.920	0.0163293
890.998	0.0161675
891.076	0.0160698
891.155	0.0161381
891.233	0.0162021
891.311	0.0160674
891.389	0.0160373
891.467	0.0163045
891.545	0.0163085
891.623	0.0161775
891.701	0.0162428
891.780	0.0163271
891.858	0.0162364
891.936	0.0162936
892.014	0.0161684
892.092	0.0161613
892.170	0.0161907
892.248	0.0162352
892.326	0.0161767
892.405	0.0162759
892.483	0.0162347
892.561	0.0161002
892.639	0.0160838
892.717	0.0161889
892.795	0.0161523
892.873	0.0161753
892.951	0.0162482
893.030	0.0160040
893.108	0.0161018
893.186	0.0160942
893.264	0.0159958
893.342	0.0160912
893.420	0.0160431
893.498	0.0161640
893.576	0.0160912
893.655	0.0161086
893.733	0.0161053
893.811	0.0162904
893.889	0.0161821
893.967	0.0161591
894.045	0.0161339
894.123	0.0160841
894.201	0.0161922
894.280	0.0162782
894.358	0.0162398
894.436	0.0160418
894.514	0.0162522
894.592	0.0161557
894.670	0.0161099
894.748	0.0159224
894.826	0.0160466
894.905	0.0162524
894.983	0.0162565
895.061	0.0162852
895.139	0.0160987
895.217	0.0160739
895.295	0.0161179
895.373	0.0159512
895.451	0.0160703
895.530	0.0161987
895.608	0.0160513
895.686	0.0161236
895.764	0.0159054
895.842	0.0160393
895.920	0.0161441
895.998	0.0161623
896.076	0.0161182
896.155	0.0160373
896.233	0.0159966
896.311	0.0162168
896.389	0.0161062
896.467	0.0160214
896.545	0.0160129
896.623	0.0159637
896.701	0.0159058
896.780	0.0159748
896.858	0.0160574
896.936	0.0159908
897.014	0.0160580
897.092	0.0159307
897.170	0.0161916
897.248	0.0160538
897.326	0.0161566
897.405	0.0158949
897.483	0.0160646
897.561	0.0160378
897.639	0.0159832
897.717	0.0159348
897.795	0.0160967
897.873	0.0160774
897.951	0.0160900
898.030	0.0160870
898.108	0.0161553
898.186	0.0160678
898.264	0.0160464
898.342	0.0160513
898.420	0.0160776
898.498	0.0159938
898.576	0.0160613
898.655	0.0160646
898.733	0.0160392
898.811	0.0160312
898.889	0.0160382
898.967	0.0160559
899.045	0.0160868
899.123	0.0159967
899.201	0.0159883
899.280	0.0160017
899.358	0.0160210
899.436	0.0158892
899.514	0.0159248
899.592	0.0159722
899.670	0.0160414
899.748	0.0160861
899.826	0.0161322
899.905	0.0160170
899.983	0.0159667
900.061	0.0161360
900.139	0.0160242
900.217	0.0160378
900.295	0.0160807
900.373	0.0160728
900.451	0.0159304
900.530	0.0160019
900.608	0.0161194
900.686	0.0160243
900.764	0.0161066
900.842	0.0160333
900.920	0.0160493
900.998	0.0160974
901.076	0.0160620
901.155	0.0161887
901.233	0.0160133
901.311	0.0161059
901.389	0.0161134
901.467	0.0160014
901.545	0.0161038
901.623	0.0160190
901.701	0.0161104
901.780	0.0162982
901.858	0.0161198
901.936	0.0162424
902.014	0.0162744
902.092	0.0161259
902.170	0.0162215
902.248	0.0161269
902.326	0.0161143
902.405	0.0161449
902.483	0.0162299
902.561	0.0162202
902.639	0.0162009
902.717	0.0160442
902.795	0.0161749
902.873	0.0162100
902.951	0.0161393
903.030	0.0162331
903.108	0.0161420
903.186	0.0162466
903.264	0.0161543
903.342	0.0161028
903.420	0.0163053
903.498	0.0161625
903.576	0.0161021
903.655	0.0161731
903.733	0.0162196
903.811	0.0163967
903.889	0.0161603
903.967	0.0162117
904.045	0.0161530
904.123	0.0162226
904.201	0.0161578
904.280	0.0160960
904.358	0.0161939
904.436	0.0162071
904.514	0.0161454
904.592	0.0162981
904.670	0.0164191
904.748	0.0163261
904.826	0.0161481
904.905	0.0163244
904.983	0.0163834
905.061	0.0162406
905.139	0.0163406
905.217	0.0163772
905.295	0.0163330
905.373	0.0161725
905.451	0.0162371
905.530	0.0162289
905.608	0.0163533
905.686	0.0162614
905.764	0.0162823
905.842	0.0162931
905.920	0.0162467
905.998	0.0162887
906.076	0.0163384
906.155	0.0161982
906.233	0.0162270
906.311	0.0162556
906.389	0.0162064
906.467	0.0163142
906.545	0.0163423
906.623	0.0161034
906.701	0.0161692
906.780	0.0161822
906.858	0.0161038
906.936	0.0162084
907.014	0.0161887
907.092	0.0163190
907.170	0.0160667
907.248	0.0162103
907.326	0.0162739
907.405	0.0162029
907.483	0.0162154
907.561	0.0162434
907.639	0.0161681
907.717	0.0161385
907.795	0.0161591
907.873	0.0162158
907.951	0.0160977
908.030	0.0160562
908.108	0.0161716
908.186	0.0160903
908.264	0.0160973
908.342	0.0160435
908.420	0.0162634
908.498	0.0161577
908.576	0.0159975
908.655	0.0160113
908.733	0.0161030
908.811	0.0160174
908.889	0.0160963
908.967	0.0161662
909.045	0.0160456
909.123	0.0160320
909.201	0.0161673
909.280	0.0160754
909.358	0.0160180
909.436	0.0161537
909.514	0.0161299
909.592	0.0161469
909.670	0.0161863
909.748	0.0162041
909.826	0.0160767
909.905	0.0162756
909.983	0.0162148
910.061	0.0161522
910.139	0.0162383
910.217	0.0161832
910.295	0.0163060
910.373	0.0162927
910.451	0.0162828
910.530	0.0163505
910.608	0.0163496
910.686	0.0162577
910.764	0.0163140
910.842	0.0163396
910.920	0.0162268
910.998	0.0162303
911.076	0.0162575
911.155	0.0163345
911.233	0.0163493
911.311	0.0162004
911.389	0.0161261
911.467	0.0162581
911.545	0.0163958
911.623	0.0163058
911.701	0.0163929
911.780	0.0162753
911.858	0.0163375
911.936	0.0160748
912.014	0.0162775
912.092	0.0164045
912.170	0.0163208
912.248	0.0163228
912.326	0.0161982
912.405	0.0162749
912.483	0.0161960
912.561	0.0161925
912.639	0.0162058
912.717	0.0161622
912.795	0.0161697
912.873	0.0161002
912.951	0.0161448
913.030	0.0162851
913.108	0.0162442
913.186	0.0161446
913.264	0.0161312
913.342	0.0161645
913.420	0.0162072
913.498	0.0161121
913.576	0.0162135
913.655	0.0160946
913.733	0.0162122
913.811	0.0161942
913.889	0.0160278
913.967	0.0163731
914.045	0.0161468
914.123	0.0161860
914.201	0.0163127
914.280	0.0161565
914.358	0.0161790
914.436	0.0162061
914.514	0.0161519
914.592	0.0163100
914.670	0.0161781
914.748	0.0161571
914.826	0.0161348
914.905	0.0161850
914.983	0.0161045
915.061	0.0160667
915.139	0.0160497
915.217	0.0160600
915.295	0.0161514
915.373	0.0159859
915.451	0.0161053
915.530	0.0161186
915.608	0.0159145
915.686	0.0161345
915.764	0.0161053
915.842	0.0159455
915.920	0.0159511
915.998	0.0160544
916.076	0.0160036
916.155	0.0160796
916.233	0.0160897
916.311	0.0158897
916.389	0.0161162
916.467	0.0160143
916.545	0.0160603
916.623	0.0160099
916.701	0.0161147
916.780	0.0159480
916.858	0.0159345
916.936	0.0159389
917.014	0.0161074
917.092	0.0161008
917.170	0.0160083
917.248	0.0159761
917.326	0.0161126
917.405	0.0161023
917.483	0.0161587
917.561	0.0160719
917.639	0.0161266
917.717	0.0160589
917.795	0.0161788
917.873	0.0160939
917.951	0.0161320
918.030	0.0162213
918.108	0.0160702
918.186	0.0160152
918.264	0.0160530
918.342	0.0162116
918.420	0.0160574
918.498	0.0161320
918.576	0.0162538
918.655	0.0160479
918.733	0.0159541
918.811	0.0162595
918.889	0.0160725
918.967	0.0162419
919.045	0.0161986
919.123	0.0161105
919.201	0.0161253
919.280	0.0161496
919.358	0.0161294
919.436	0.0161143
919.514	0.0161398
919.592	0.0159907
919.670	0.0160403
919.748	0.0160684
919.826	0.0160528
919.905	0.0161155
919.983	0.0159830
920.061	0.0161891
920.139	0.0160288
920.217	0.0160384
920.295	0.0160922
920.373	0.0161755
920.451	0.0160461
920.530	0.0161484
920.608	0.0160349
920.686	0.0159190
920.764	0.0161714
920.842	0.0161716
920.920	0.0161516
920.998	0.0161087
921.076	0.0161386
921.155	0.0160813
921.233	0.0160352
921.311	0.0160858
921.389	0.0159826
921.467	0.0161044
921.545	0.0160323
921.623	0.0160295
921.701	0.0159237
921.780	0.0159274
921.858	0.0159875
921.936	0.0158836
922.014	0.0160480
922.092	0.0158745
922.170	0.0159560
922.248	0.0158468
922.326	0.0159608
922.405	0.0159536
922.483	0.0159492
922.561	0.0159411
922.639	0.0159780
922.717	0.0159125
922.795	0.0159730
922.873	0.0160776
922.951	0.0158612
923.030	0.0159026
923.108	0.0158722
923.186	0.0159354
923.264	0.0160468
923.342	0.0159605
923.420	0.0158681
923.498	0.0160137
923.576	0.0159126
923.655	0.0161203
923.733	0.0160988
923.811	0.0160888
923.889	0.0160563
923.967	0.0159761
924.045	0.0158861
924.123	0.0160294
924.201	0.0160866
924.280	0.0161115
924.358	0.0161362
924.436	0.0160223
924.514	0.0159846
924.592	0.0160670
924.670	0.0161516
924.748	0.0161181
924.826	0.0160954
924.905	0.0160622
924.983	0.0162180
925.061	0.0161922
925.139	0.0162577
925.217	0.0161320
925.295	0.0162340
925.373	0.0163634
925.451	0.0162923
925.530	0.0162778
925.608	0.0162251
925.686	0.0161662
925.764	0.0163285
925.842	0.0163006
925.920	0.0162650
925.998	0.0162619
926.076	0.0163681
926.155	0.0163716
926.233	0.0161779
926.311	0.0161684
926.389	0.0160958
926.467	0.0162892
926.545	0.0163352
926.623	0.0161020
926.701	0.0162628
926.780	0.0162637
926.858	0.0161311
926.936	0.0162537
927.014	0.0161872
927.092	0.0160928
927.170	0.0160839
927.248	0.0161990
927.326	0.0163036
927.405	0.0160954
927.483	0.0160390
927.561	0.0160829
927.639	0.0160352
927.717	0.0161047
927.795	0.0160455
927.873	0.0159685
927.951	0.0161440
928.030	0.0162047
928.108	0.0160416
928.186	0.0163505
928.264	0.0161561
928.342	0.0159074
928.420	0.0160183
928.498	0.0161642
928.576	0.0160309
928.655	0.0161268
928.733	0.0160875
928.811	0.0160968
928.889	0.0161377
928.967	0.0160027
929.045	0.0159727
929.123	0.0161323
929.201	0.0160325
929.280	0.0160450
929.358	0.0161681
929.436	0.0161351
929.514	0.0161239
929.592	0.0161011
929.670	0.0161675
929.748	0.0160625
929.826	0.0162202
929.905	0.0160883
929.983	0.0160979
930.061	0.0161404
930.139	0.0161387
930.217	0.0160875
930.295	0.0161042
930.373	0.0160058
930.451	0.0161025
930.530	0.0159347
930.608	0.0160866
930.686	0.0161294
930.764	0.0159086
930.842	0.0160516
930.920	0.0161594
930.998	0.0161708
931.076	0.0160979
931.155	0.0161204
931.233	0.0161474
931.311	0.0160050
931.389	0.0161254
931.467	0.0162012
931.545	0.0161601
931.623	0.0161375
931.701	0.0163094
931.780	0.0161806
931.858	0.0162102
931.936	0.0162585
932.014	0.0163285
932.092	0.0162294
932.170	0.0162995
932.248	0.0162289
932.326	0.0162247
932.405	0.0162388
932.483	0.0163228
932.561	0.0162571
932.639	0.0161520
932.717	0.0163019
932.795	0.0161456
932.873	0.0161441
932.951	0.0161989
933.030	0.0162534
933.108	0.0162872
933.186	0.0161365
933.264	0.0161615
933.342	0.0162817
933.420	0.0161608
933.498	0.0161935
933.576	0.0161755
933.655	0.0161185
933.733	0.0161485
933.811	0.0161431
933.889	0.0160110
933.967	0.0160367
934.045	0.0160216
934.123	0.0160390
934.201	0.0160488
934.280	0.0159921
934.358	0.0159884
934.436	0.0160717
934.514	0.0159074
934.592	0.0160456
934.670	0.0160052
934.748	0.0160392
934.826	0.0160246
934.905	0.0159861
934.983	0.0161134
935.061	0.0160010
935.139	0.0160796
935.217	0.0158853
935.295	0.0160085
935.373	0.0161300
935.451	0.0161948
935.530	0.0159685
935.608	0.0161900
935.686	0.0161189
935.764	0.0162247
935.842	0.0162981
935.920	0.0162808
935.998	0.0161911
936.076	0.0162291
936.155	0.0161483
936.233	0.0163776
936.311	0.0163284
936.389	0.0161263
936.467	0.0161618
936.545	0.0162467
936.623	0.0162679
936.701	0.0162077
936.780	0.0162430
936.858	0.0163722
936.936	0.0162357
937.014	0.0162133
937.092	0.0164951
937.170	0.0162672
937.248	0.0161094
937.326	0.0162040
937.405	0.0162273
937.483	0.0161987
937.561	0.0161696
937.639	0.0161417
937.717	0.0160423
937.795	0.0161984
937.873	0.0162003
937.951	0.0161602
938.030	0.0161328
938.108	0.0159876
938.186	0.0159650
938.264	0.0161176
938.342	0.0160229
938.420	0.0159344
938.498	0.0160726
938.576	0.0159413
938.655	0.0159795
938.733	0.0159735
938.811	0.0159895
938.889	0.0159635
938.967	0.0161112
939.045	0.0161439
939.123	0.0160883
939.201	0.0160255
939.280	0.0160623
939.358	0.0160928
939.436	0.0161647
939.514	0.0161299
939.592	0.0161121
939.670	0.0161236
939.748	0.0160941
939.826	0.0161581
939.905	0.0161084
939.983	0.0162070
940.061	0.0160503
940.139	0.0161841
940.217	0.0161568
940.295	0.0162120
940.373	0.0160929
940.451	0.0162880
940.530	0.0163277
940.608	0.0162148
940.686	0.0161714
940.764	0.0163525
940.842	0.0161769
940.920	0.0163763
940.998	0.0163447
941.076	0.0162987
941.155	0.0163329
941.233	0.0162952
941.311	0.0162432
941.389	0.0162560
941.467	0.0162341
941.545	0.0162645
941.623	0.0162969
941.701	0.0161726
941.780	0.0161689
941.858	0.0162031
941.936	0.0162019
942.014	0.0161456
942.092	0.0161369
942.170	0.0160880
942.248	0.0160886
942.326	0.0160201
942.405	0.0160035
942.483	0.0161303
942.561	0.0161263
942.639	0.0161876
942.717	0.0160004
942.795	0.0160088
942.873	0.0161234
942.951	0.0161122
943.030	0.0159208
943.108	0.0158566
943.186	0.0159439
943.264	0.0160312
943.342	0.0161041
943.420	0.0159986
943.498	0.0159298
943.576	0.0160485
943.655	0.0159812
943.733	0.0160180
943.811	0.0160880
943.889	0.0158951
943.967	0.0160556
944.045	0.0159588
944.123	0.0159776
944.201	0.0161578
944.280	0.0160665
944.358	0.0159666
944.436	0.0159668
944.514	0.0159142
944.592	0.0159354
944.670	0.0159945
944.748	0.0159711
944.826	0.0159959
944.905	0.0160044
944.983	0.0159031
945.061	0.0159767
945.139	0.0159226
945.217	0.0157960
945.295	0.0159489
945.373	0.0159163
945.451	0.0159447
945.530	0.0159953
945.608	0.0159943
945.686	0.0158927
945.764	0.0158917
945.842	0.0159047
945.920	0.0159459
945.998	0.0160007
946.076	0.0160379
946.155	0.0161587
946.233	0.0159342
946.311	0.0157838
946.389	0.0160963
946.467	0.0161600
946.545	0.0160313
946.623	0.0160193
946.701	0.0159824
946.780	0.0158730
946.858	0.0160583
946.936	0.0161015
947.014	0.0161549
947.092	0.0159996
947.170	0.0159431
947.248	0.0161370
947.326	0.0160636
947.405	0.0160218
947.483	0.0159724
947.561	0.0160422
947.639	0.0161246
947.717	0.0161684
947.795	0.0161378
947.873	0.0160226
947.951	0.0160458
948.030	0.0160265
948.108	0.0160306
948.186	0.0160984
948.264	0.0159478
948.342	0.0161048
948.420	0.0159736
948.498	0.0161731
948.576	0.0160195
948.655	0.0160561
948.733	0.0159305
948.811	0.0159781
948.889	0.0159332
948.967	0.0158734
949.045	0.0159029
949.123	0.0159544
949.201	0.0159736
949.280	0.0158785
949.358	0.0158997
949.436	0.0158588
949.514	0.0158858
949.592	0.0157918
949.670	0.0157946
949.748	0.0159185
949.826	0.0157580
949.905	0.0158312
949.983	0.0158883
950.061	0.0157858
950.139	0.0158199
950.217	0.0159175
950.295	0.0158912
950.373	0.0157598
950.451	0.0158127
950.530	0.0160445
950.608	0.0158721
950.686	0.0160200
950.764	0.0160540
950.842	0.0158398
950.920	0.0160690
950.998	0.0161143
951.076	0.0160293
951.155	0.0160680
951.233	0.0159900
951.311	0.0160263
951.389	0.0160239
951.467	0.0159776
951.545	0.0161152
951.623	0.0160587
951.701	0.0160364
951.780	0.0161071
951.858	0.0161665
951.936	0.0161565
952.014	0.0159702
952.092	0.0160486
952.170	0.0160960
952.248	0.0161055
952.326	0.0160636
952.405	0.0162702
952.483	0.0161432
952.561	0.0162474
952.639	0.0161780
952.717	0.0161595
952.795	0.0161386
952.873	0.0161302
952.951	0.0161562
953.030	0.0162207
953.108	0.0160935
953.186	0.0160786
953.264	0.0160151
953.342	0.0160107
953.420	0.0160188
953.498	0.0161488
953.576	0.0161466
953.655	0.0160779
953.733	0.0161252
953.811	0.0162822
953.889	0.0160201
953.967	0.0160489
954.045	0.0162198
954.123	0.0162588
954.201	0.0162631
954.280	0.0161684
954.358	0.0161013
954.436	0.0161794
954.514	0.0161917
954.592	0.0161150
954.670	0.0161431
954.748	0.0162888
954.826	0.0162142
954.905	0.0162256
954.983	0.0162495
955.061	0.0161507
955.139	0.0162968
955.217	0.0162089
955.295	0.0162288
955.373	0.0162264
955.451	0.0161677
955.530	0.0162340
955.608	0.0161246
955.686	0.0162011
955.764	0.0162234
955.842	0.0160498
955.920	0.0161394
955.998	0.0160716
956.076	0.0160668
956.155	0.0160753
956.233	0.0161028
956.311	0.0160737
956.389	0.0161475
956.467	0.0160754
956.545	0.0160181
956.623	0.0159281
956.701	0.0161034
956.780	0.0161932
956.858	0.0160722
956.936	0.0160860
957.014	0.0161089
957.092	0.0160760
957.170	0.0159435
957.248	0.0160797
957.326	0.0161385
957.405	0.0160899
957.483	0.0160624
957.561	0.0160728
957.639	0.0161745
957.717	0.0161209
957.795	0.0159767
957.873	0.0160917
957.951	0.0160341
958.030	0.0159238
958.108	0.0160996
958.186	0.0160684
958.264	0.0159287
958.342	0.0159738
958.420	0.0160727
958.498	0.0160307
958.576	0.0160448
958.655	0.0160761
958.733	0.0159140
958.811	0.0158732
958.889	0.0160951
958.967	0.0160092
959.045	0.0159811
959.123	0.0160305
959.201	0.0161825
959.280	0.0161771
959.358	0.0158758
959.436	0.0161789
959.514	0.0161226
959.592	0.0160542
959.670	0.0160098
959.748	0.0160573
959.826	0.0161595
959.905	0.0162311
