05/17/2022	17:18:40	Ver.	4.1	UNKNOWN
Optical Delay	639.982744	Delta X		0.078125	Sweeps	1	Scan Rate	0/0
Coordinates	Axis 1	NaN	Axis 2	NaN	Axis 3	NaN	Axis 4	NaN	Axis 5	NaN	Axis 6	0.000000
TX Power	0.000000	RX Power	0.000000

639.983	0.0166740
640.061	0.0167532
640.139	0.0167477
640.217	0.0166357
640.295	0.0166118
640.373	0.0166443
640.451	0.0166795
640.530	0.0169145
640.608	0.0167045
640.686	0.0167213
640.764	0.0166458
640.842	0.0167789
640.920	0.0168640
640.998	0.0168824
641.076	0.0167425
641.155	0.0166564
641.233	0.0166867
641.311	0.0166897
641.389	0.0167860
641.467	0.0168530
641.545	0.0167196
641.623	0.0166310
641.701	0.0167410
641.780	0.0167142
641.858	0.0166800
641.936	0.0165939
642.014	0.0165219
642.092	0.0166510
642.170	0.0166696
642.248	0.0165725
642.326	0.0165446
642.405	0.0166113
642.483	0.0166219
642.561	0.0165959
642.639	0.0166309
642.717	0.0166248
642.795	0.0164550
642.873	0.0165768
642.951	0.0166437
643.030	0.0166389
643.108	0.0166376
643.186	0.0166189
643.264	0.0165955
643.342	0.0166118
643.420	0.0166361
643.498	0.0165546
643.576	0.0166764
643.655	0.0166664
643.733	0.0165849
643.811	0.0166309
643.889	0.0165693
643.967	0.0167738
644.045	0.0166173
644.123	0.0165545
644.201	0.0165872
644.280	0.0165820
644.358	0.0166389
644.436	0.0166885
644.514	0.0166791
644.592	0.0164799
644.670	0.0165666
644.748	0.0166972
644.826	0.0165689
644.905	0.0165749
644.983	0.0166401
645.061	0.0164966
645.139	0.0164423
645.217	0.0165813
645.295	0.0164439
645.373	0.0166151
645.451	0.0164618
645.530	0.0165253
645.608	0.0167226
645.686	0.0166209
645.764	0.0164988
645.842	0.0164779
645.920	0.0164367
645.998	0.0164308
646.076	0.0166579
646.155	0.0167602
646.233	0.0167937
646.311	0.0168240
646.389	0.0166679
646.467	0.0167841
646.545	0.0167733
646.623	0.0168484
646.701	0.0167953
646.780	0.0168990
646.858	0.0169204
646.936	0.0168355
647.014	0.0168232
647.092	0.0168465
647.170	0.0169346
647.248	0.0168965
647.326	0.0167407
647.405	0.0168221
647.483	0.0167616
647.561	0.0168206
647.639	0.0167353
647.717	0.0167753
647.795	0.0166067
647.873	0.0166571
647.951	0.0166807
648.030	0.0166580
648.108	0.0165953
648.186	0.0165871
648.264	0.0166240
648.342	0.0166091
648.420	0.0165163
648.498	0.0166464
648.576	0.0165905
648.655	0.0166060
648.733	0.0166402
648.811	0.0165621
648.889	0.0166588
648.967	0.0166125
649.045	0.0164714
649.123	0.0166579
649.201	0.0167831
649.280	0.0165430
649.358	0.0165938
649.436	0.0167957
649.514	0.0166118
649.592	0.0166255
649.670	0.0166873
649.748	0.0167062
649.826	0.0166348
649.905	0.0165743
649.983	0.0166985
650.061	0.0167529
650.139	0.0166963
650.217	0.0167040
650.295	0.0167372
650.373	0.0167118
650.451	0.0167550
650.530	0.0166918
650.608	0.0167214
650.686	0.0166034
650.764	0.0165743
650.842	0.0166390
650.920	0.0166179
650.998	0.0165847
651.076	0.0166027
651.155	0.0165334
651.233	0.0167178
651.311	0.0165801
651.389	0.0166749
651.467	0.0166889
651.545	0.0166019
651.623	0.0165841
651.701	0.0166026
651.780	0.0165631
651.858	0.0165130
651.936	0.0165607
652.014	0.0165347
652.092	0.0166056
652.170	0.0166328
652.248	0.0165747
652.326	0.0166103
652.405	0.0165756
652.483	0.0166622
652.561	0.0166404
652.639	0.0166565
652.717	0.0165752
652.795	0.0167308
652.873	0.0166932
652.951	0.0165326
653.030	0.0167369
653.108	0.0166670
653.186	0.0166331
653.264	0.0167767
653.342	0.0166940
653.420	0.0167068
653.498	0.0168566
653.576	0.0166784
653.655	0.0167113
653.733	0.0166447
653.811	0.0166333
653.889	0.0167439
653.967	0.0166585
654.045	0.0166629
654.123	0.0166096
654.201	0.0167795
654.280	0.0166536
654.358	0.0166542
654.436	0.0168003
654.514	0.0167555
654.592	0.0167348
654.670	0.0165425
654.748	0.0166467
654.826	0.0167770
654.905	0.0167788
654.983	0.0168294
655.061	0.0168107
655.139	0.0167892
655.217	0.0168259
655.295	0.0168063
655.373	0.0166785
655.451	0.0168647
655.530	0.0165443
655.608	0.0166628
655.686	0.0165553
655.764	0.0166294
655.842	0.0166788
655.920	0.0165597
655.998	0.0166962
656.076	0.0164991
656.155	0.0166463
656.233	0.0167122
656.311	0.0166480
656.389	0.0167048
656.467	0.0166862
656.545	0.0167741
656.623	0.0167698
656.701	0.0165725
656.780	0.0167915
656.858	0.0167065
656.936	0.0167213
657.014	0.0169074
657.092	0.0168999
657.170	0.0168375
657.248	0.0169343
657.326	0.0169250
657.405	0.0168264
657.483	0.0169495
657.561	0.0167873
657.639	0.0169444
657.717	0.0169756
657.795	0.0168040
657.873	0.0167801
657.951	0.0167534
658.030	0.0169860
658.108	0.0168507
658.186	0.0167723
658.264	0.0168221
658.342	0.0169073
658.420	0.0167193
658.498	0.0168105
658.576	0.0167815
658.655	0.0165750
658.733	0.0167817
658.811	0.0166781
658.889	0.0165858
658.967	0.0166051
659.045	0.0166909
659.123	0.0166314
659.201	0.0166312
659.280	0.0167740
659.358	0.0166309
659.436	0.0166653
659.514	0.0166087
659.592	0.0166930
659.670	0.0168491
659.748	0.0167950
659.826	0.0169258
659.905	0.0167529
659.983	0.0170505
660.061	0.0168539
660.139	0.0169409
660.217	0.0170475
660.295	0.0170090
660.373	0.0169157
660.451	0.0170495
660.530	0.0169824
660.608	0.0171259
660.686	0.0169653
660.764	0.0169846
660.842	0.0168144
660.920	0.0168929
660.998	0.0167856
661.076	0.0165982
661.155	0.0168391
661.233	0.0166985
661.311	0.0166092
661.389	0.0164680
661.467	0.0165475
661.545	0.0165133
661.623	0.0163290
661.701	0.0162992
661.780	0.0161739
661.858	0.0161763
661.936	0.0162609
662.014	0.0160986
662.092	0.0159846
662.170	0.0160072
662.248	0.0160206
662.326	0.0161143
662.405	0.0160901
662.483	0.0161779
662.561	0.0161623
662.639	0.0162451
662.717	0.0162025
662.795	0.0162022
662.873	0.0162804
662.951	0.0164906
663.030	0.0164720
663.108	0.0164604
663.186	0.0166234
663.264	0.0167148
663.342	0.0166362
663.420	0.0168139
663.498	0.0167506
663.576	0.0169367
663.655	0.0169432
663.733	0.0169077
663.811	0.0169628
663.889	0.0170018
663.967	0.0171086
664.045	0.0169595
664.123	0.0171676
664.201	0.0172474
664.280	0.0170372
664.358	0.0171259
664.436	0.0171441
664.514	0.0171474
664.592	0.0169978
664.670	0.0170630
664.748	0.0170570
664.826	0.0171507
664.905	0.0169801
664.983	0.0170398
665.061	0.0171979
665.139	0.0170486
665.217	0.0170490
665.295	0.0168559
665.373	0.0168449
665.451	0.0167870
665.530	0.0168150
665.608	0.0167717
665.686	0.0165916
665.764	0.0164719
665.842	0.0163920
665.920	0.0163581
665.998	0.0162392
666.076	0.0163405
666.155	0.0161454
666.233	0.0160337
666.311	0.0158085
666.389	0.0158039
666.467	0.0158764
666.545	0.0158035
666.623	0.0158305
666.701	0.0158161
666.780	0.0157363
666.858	0.0158243
666.936	0.0159138
667.014	0.0158398
667.092	0.0158752
667.170	0.0158636
667.248	0.0160854
667.326	0.0159987
667.405	0.0162305
667.483	0.0162076
667.561	0.0161545
667.639	0.0164566
667.717	0.0165234
667.795	0.0163438
667.873	0.0166281
667.951	0.0166708
668.030	0.0167788
668.108	0.0168087
668.186	0.0169303
668.264	0.0169664
668.342	0.0171842
668.420	0.0172491
668.498	0.0172737
668.576	0.0173673
668.655	0.0174123
668.733	0.0174991
668.811	0.0176537
668.889	0.0175380
668.967	0.0175405
669.045	0.0175439
669.123	0.0175444
669.201	0.0174442
669.280	0.0175316
669.358	0.0174697
669.436	0.0174001
669.514	0.0174321
669.592	0.0174043
669.670	0.0172584
669.748	0.0171523
669.826	0.0172989
669.905	0.0170771
669.983	0.0169706
670.061	0.0169801
670.139	0.0168520
670.217	0.0167879
670.295	0.0167170
670.373	0.0165587
670.451	0.0166702
670.530	0.0164734
670.608	0.0164156
670.686	0.0163089
670.764	0.0161856
670.842	0.0162277
670.920	0.0160820
670.998	0.0160955
671.076	0.0159529
671.155	0.0158523
671.233	0.0158854
671.311	0.0158391
671.389	0.0156680
671.467	0.0156950
671.545	0.0157568
671.623	0.0158347
671.701	0.0156784
671.780	0.0156690
671.858	0.0157002
671.936	0.0158100
672.014	0.0158697
672.092	0.0160902
672.170	0.0160842
672.248	0.0160390
672.326	0.0161346
672.405	0.0162287
672.483	0.0162877
672.561	0.0162346
672.639	0.0164211
672.717	0.0166473
672.795	0.0167011
672.873	0.0168107
672.951	0.0169283
673.030	0.0169809
673.108	0.0171838
673.186	0.0172836
673.264	0.0173251
673.342	0.0174117
673.420	0.0175160
673.498	0.0175128
673.576	0.0176728
673.655	0.0175449
673.733	0.0176685
673.811	0.0176897
673.889	0.0177133
673.967	0.0177152
674.045	0.0177630
674.123	0.0174498
674.201	0.0175105
674.280	0.0174748
674.358	0.0174301
674.436	0.0172842
674.514	0.0173595
674.592	0.0171813
674.670	0.0170903
674.748	0.0170246
674.826	0.0169888
674.905	0.0169050
674.983	0.0168111
675.061	0.0166825
675.139	0.0165773
675.217	0.0166089
675.295	0.0164175
675.373	0.0163530
675.451	0.0162151
675.530	0.0161938
675.608	0.0160661
675.686	0.0161202
675.764	0.0160342
675.842	0.0159402
675.920	0.0160010
675.998	0.0158220
676.076	0.0158363
676.155	0.0159142
676.233	0.0159075
676.311	0.0158633
676.389	0.0159138
676.467	0.0160281
676.545	0.0159591
676.623	0.0161647
676.701	0.0161104
676.780	0.0162186
676.858	0.0163303
676.936	0.0164461
677.014	0.0163017
677.092	0.0164294
677.170	0.0164729
677.248	0.0164720
677.326	0.0165223
677.405	0.0166846
677.483	0.0166220
677.561	0.0167835
677.639	0.0169023
677.717	0.0168504
677.795	0.0167184
677.873	0.0167230
677.951	0.0169417
678.030	0.0168774
678.108	0.0167558
678.186	0.0167780
678.264	0.0168506
678.342	0.0169285
678.420	0.0169116
678.498	0.0169065
678.576	0.0169334
678.655	0.0169038
678.733	0.0169537
678.811	0.0171182
678.889	0.0170455
678.967	0.0171220
679.045	0.0172517
679.123	0.0171898
679.201	0.0172453
679.280	0.0174482
679.358	0.0172502
679.436	0.0173671
679.514	0.0173789
679.592	0.0174426
679.670	0.0173579
679.748	0.0176490
679.826	0.0172947
679.905	0.0173871
679.983	0.0173383
680.061	0.0173615
680.139	0.0172314
680.217	0.0172092
680.295	0.0171338
680.373	0.0170605
680.451	0.0170126
680.530	0.0169042
680.608	0.0169359
680.686	0.0168453
680.764	0.0165436
680.842	0.0166074
680.920	0.0164722
680.998	0.0164234
681.076	0.0163618
681.155	0.0164258
681.233	0.0163326
681.311	0.0162967
681.389	0.0161762
681.467	0.0161510
681.545	0.0161842
681.623	0.0162419
681.701	0.0162161
681.780	0.0160564
681.858	0.0162360
681.936	0.0162491
682.014	0.0162395
682.092	0.0162511
682.170	0.0162849
682.248	0.0162318
682.326	0.0161450
682.405	0.0161274
682.483	0.0160779
682.561	0.0161520
682.639	0.0162516
682.717	0.0162567
682.795	0.0163584
682.873	0.0162046
682.951	0.0162582
683.030	0.0162657
683.108	0.0163206
683.186	0.0162430
683.264	0.0164201
683.342	0.0164471
683.420	0.0163424
683.498	0.0163197
683.576	0.0166164
683.655	0.0164778
683.733	0.0164536
683.811	0.0165485
683.889	0.0166157
683.967	0.0166527
684.045	0.0167054
684.123	0.0168109
684.201	0.0167611
684.280	0.0168888
684.358	0.0169701
684.436	0.0170280
684.514	0.0170850
684.592	0.0170831
684.670	0.0173508
684.748	0.0172216
684.826	0.0171851
684.905	0.0173576
684.983	0.0173730
685.061	0.0175114
685.139	0.0176484
685.217	0.0173713
685.295	0.0176514
685.373	0.0174854
685.451	0.0175061
685.530	0.0174430
685.608	0.0176374
685.686	0.0174112
685.764	0.0174955
685.842	0.0173220
685.920	0.0173474
685.998	0.0172164
686.076	0.0173157
686.155	0.0172205
686.233	0.0168862
686.311	0.0167267
686.389	0.0169098
686.467	0.0167032
686.545	0.0164785
686.623	0.0165263
686.701	0.0163022
686.780	0.0161971
686.858	0.0162008
686.936	0.0161533
687.014	0.0160323
687.092	0.0160504
687.170	0.0159536
687.248	0.0160407
687.326	0.0159452
687.405	0.0158421
687.483	0.0157936
687.561	0.0159662
687.639	0.0159003
687.717	0.0159406
687.795	0.0158614
687.873	0.0158719
687.951	0.0159283
688.030	0.0160645
688.108	0.0160168
688.186	0.0159919
688.264	0.0160120
688.342	0.0160893
688.420	0.0161172
688.498	0.0161428
688.576	0.0159476
688.655	0.0162013
688.733	0.0162846
688.811	0.0161318
688.889	0.0162856
688.967	0.0162911
689.045	0.0163437
689.123	0.0163374
689.201	0.0164764
689.280	0.0166028
689.358	0.0165550
689.436	0.0166520
689.514	0.0168414
689.592	0.0168587
689.670	0.0171121
689.748	0.0172329
689.826	0.0172823
689.905	0.0174670
689.983	0.0175806
690.061	0.0176816
690.139	0.0179047
690.217	0.0180244
690.295	0.0180137
690.373	0.0180151
690.451	0.0180530
690.530	0.0181066
690.608	0.0180899
690.686	0.0180783
690.764	0.0180219
690.842	0.0179807
690.920	0.0178553
690.998	0.0178975
691.076	0.0178929
691.155	0.0177100
691.233	0.0175384
691.311	0.0175729
691.389	0.0173981
691.467	0.0173325
691.545	0.0171024
691.623	0.0168056
691.701	0.0168586
691.780	0.0167987
691.858	0.0166628
691.936	0.0163916
692.014	0.0164737
692.092	0.0162651
692.170	0.0160120
692.248	0.0161250
692.326	0.0160535
692.405	0.0157911
692.483	0.0157568
692.561	0.0155532
692.639	0.0156850
692.717	0.0154501
692.795	0.0153896
692.873	0.0154012
692.951	0.0154202
693.030	0.0154140
693.108	0.0152370
693.186	0.0153274
693.264	0.0154616
693.342	0.0154505
693.420	0.0154105
693.498	0.0156438
693.576	0.0156409
693.655	0.0157629
693.733	0.0156878
693.811	0.0159553
693.889	0.0159349
693.967	0.0160567
694.045	0.0163187
694.123	0.0162793
694.201	0.0164027
694.280	0.0166435
694.358	0.0165996
694.436	0.0167793
694.514	0.0168069
694.592	0.0169087
694.670	0.0169604
694.748	0.0169830
694.826	0.0171976
694.905	0.0172543
694.983	0.0173557
695.061	0.0172991
695.139	0.0173866
695.217	0.0173193
695.295	0.0174651
695.373	0.0175359
695.451	0.0175001
695.530	0.0174548
695.608	0.0177035
695.686	0.0178516
695.764	0.0177907
695.842	0.0176729
695.920	0.0177274
695.998	0.0177271
696.076	0.0176562
696.155	0.0176715
696.233	0.0178055
696.311	0.0175322
696.389	0.0176202
696.467	0.0175313
696.545	0.0173035
696.623	0.0172785
696.701	0.0171981
696.780	0.0169111
696.858	0.0167954
696.936	0.0166921
697.014	0.0165734
697.092	0.0163715
697.170	0.0163014
697.248	0.0161584
697.326	0.0163259
697.405	0.0159775
697.483	0.0159813
697.561	0.0159853
697.639	0.0160621
697.717	0.0158325
697.795	0.0159038
697.873	0.0158759
697.951	0.0158647
698.030	0.0157750
698.108	0.0159106
698.186	0.0159287
698.264	0.0159373
698.342	0.0159538
698.420	0.0160488
698.498	0.0161819
698.576	0.0160882
698.655	0.0162627
698.733	0.0161811
698.811	0.0161691
698.889	0.0161129
698.967	0.0161735
699.045	0.0162765
699.123	0.0162871
699.201	0.0163331
699.280	0.0162734
699.358	0.0163806
699.436	0.0164724
699.514	0.0163905
699.592	0.0165154
699.670	0.0166296
699.748	0.0165858
699.826	0.0166914
699.905	0.0167438
699.983	0.0168678
700.061	0.0167430
700.139	0.0167121
700.217	0.0169137
700.295	0.0169776
700.373	0.0168660
700.451	0.0169728
700.530	0.0168680
700.608	0.0170245
700.686	0.0169420
700.764	0.0171384
700.842	0.0172300
700.920	0.0170802
700.998	0.0170647
701.076	0.0171289
701.155	0.0171316
701.233	0.0172141
701.311	0.0171828
701.389	0.0170923
701.467	0.0171725
701.545	0.0169631
701.623	0.0170710
701.701	0.0172398
701.780	0.0171518
701.858	0.0169666
701.936	0.0170433
702.014	0.0171375
702.092	0.0171657
702.170	0.0170941
702.248	0.0170747
702.326	0.0170604
702.405	0.0171481
702.483	0.0170476
702.561	0.0170261
702.639	0.0171693
702.717	0.0172537
702.795	0.0171046
702.873	0.0170732
702.951	0.0169664
703.030	0.0170690
703.108	0.0169656
703.186	0.0170133
703.264	0.0168329
703.342	0.0168237
703.420	0.0166119
703.498	0.0165550
703.576	0.0165185
703.655	0.0164814
703.733	0.0163833
703.811	0.0163794
703.889	0.0162694
703.967	0.0162105
704.045	0.0162366
704.123	0.0162881
704.201	0.0160249
704.280	0.0160852
704.358	0.0161160
704.436	0.0161315
704.514	0.0161658
704.592	0.0161935
704.670	0.0161278
704.748	0.0162997
704.826	0.0163027
704.905	0.0163930
704.983	0.0164308
705.061	0.0163008
705.139	0.0165807
705.217	0.0166718
705.295	0.0167264
705.373	0.0167331
705.451	0.0167172
705.530	0.0169285
705.608	0.0168993
705.686	0.0169610
705.764	0.0170464
705.842	0.0169745
705.920	0.0170995
705.998	0.0169674
706.076	0.0170747
706.155	0.0171870
706.233	0.0171190
706.311	0.0170460
706.389	0.0172028
706.467	0.0172765
706.545	0.0171283
706.623	0.0171371
706.701	0.0170523
706.780	0.0171101
706.858	0.0171516
706.936	0.0169830
707.014	0.0169376
707.092	0.0170905
707.170	0.0171015
707.248	0.0169971
707.326	0.0169817
707.405	0.0168636
707.483	0.0170685
707.561	0.0170190
707.639	0.0168946
707.717	0.0169063
707.795	0.0168152
707.873	0.0168533
707.951	0.0169023
708.030	0.0167458
708.108	0.0167072
708.186	0.0166325
708.264	0.0165304
708.342	0.0165626
708.420	0.0165118
708.498	0.0164042
708.576	0.0162523
708.655	0.0161792
708.733	0.0162687
708.811	0.0160750
708.889	0.0159617
708.967	0.0160698
709.045	0.0159983
709.123	0.0160690
709.201	0.0159082
709.280	0.0159097
709.358	0.0159940
709.436	0.0160332
709.514	0.0160459
709.592	0.0161968
709.670	0.0163659
709.748	0.0161960
709.826	0.0162781
709.905	0.0165267
709.983	0.0163307
710.061	0.0166473
710.139	0.0167580
710.217	0.0168996
710.295	0.0169675
710.373	0.0169551
710.451	0.0169504
710.530	0.0170313
710.608	0.0171108
710.686	0.0170974
710.764	0.0170806
710.842	0.0170685
710.920	0.0169735
710.998	0.0169641
711.076	0.0169814
711.155	0.0170113
711.233	0.0169913
711.311	0.0169186
711.389	0.0168759
711.467	0.0168274
711.545	0.0167934
711.623	0.0166173
711.701	0.0166393
711.780	0.0166442
711.858	0.0166733
711.936	0.0167677
712.014	0.0166946
712.092	0.0166080
712.170	0.0166675
712.248	0.0166714
712.326	0.0164992
712.405	0.0165401
712.483	0.0166071
712.561	0.0165795
712.639	0.0164057
712.717	0.0163030
712.795	0.0165508
712.873	0.0164535
712.951	0.0164788
713.030	0.0165461
713.108	0.0165491
713.186	0.0166066
713.264	0.0166850
713.342	0.0167354
713.420	0.0167142
713.498	0.0166681
713.576	0.0166718
713.655	0.0167600
713.733	0.0168864
713.811	0.0168372
713.889	0.0168060
713.967	0.0169168
714.045	0.0169028
714.123	0.0167895
714.201	0.0169338
714.280	0.0169553
714.358	0.0170103
714.436	0.0169987
714.514	0.0169966
714.592	0.0168979
714.670	0.0170912
714.748	0.0168887
714.826	0.0169734
714.905	0.0169713
714.983	0.0171883
715.061	0.0170351
715.139	0.0169656
715.217	0.0170454
715.295	0.0169440
715.373	0.0167311
715.451	0.0170382
715.530	0.0170087
715.608	0.0169191
715.686	0.0168661
715.764	0.0168591
715.842	0.0169174
715.920	0.0170168
715.998	0.0168624
716.076	0.0168964
716.155	0.0168613
716.233	0.0168169
716.311	0.0168387
716.389	0.0168890
716.467	0.0168754
716.545	0.0171022
716.623	0.0170775
716.701	0.0168151
716.780	0.0169070
716.858	0.0170976
716.936	0.0169289
717.014	0.0168412
717.092	0.0168831
717.170	0.0169916
717.248	0.0169307
717.326	0.0169992
717.405	0.0168154
717.483	0.0167558
717.561	0.0165787
717.639	0.0168083
717.717	0.0167206
717.795	0.0166720
717.873	0.0165392
717.951	0.0163988
718.030	0.0164570
718.108	0.0161944
718.186	0.0163098
718.264	0.0162383
718.342	0.0161679
718.420	0.0161259
718.498	0.0160152
718.576	0.0158778
718.655	0.0159634
718.733	0.0159128
718.811	0.0157397
718.889	0.0158984
718.967	0.0159663
719.045	0.0157553
719.123	0.0160098
719.201	0.0159418
719.280	0.0159957
719.358	0.0159850
719.436	0.0161483
719.514	0.0163908
719.592	0.0164537
719.670	0.0164700
719.748	0.0165372
719.826	0.0166805
719.905	0.0167176
719.983	0.0168789
720.061	0.0170644
720.139	0.0170623
720.217	0.0171901
720.295	0.0171606
720.373	0.0172871
720.451	0.0174378
720.530	0.0172536
720.608	0.0172971
720.686	0.0174159
720.764	0.0175049
720.842	0.0174174
720.920	0.0174421
720.998	0.0175124
721.076	0.0174722
721.155	0.0174672
721.233	0.0174276
721.311	0.0173711
721.389	0.0173573
721.467	0.0171964
721.545	0.0171554
721.623	0.0171245
721.701	0.0170625
721.780	0.0170902
721.858	0.0169823
721.936	0.0168437
722.014	0.0168037
722.092	0.0167505
722.170	0.0165635
722.248	0.0164646
722.326	0.0163139
722.405	0.0164522
722.483	0.0163548
722.561	0.0163510
722.639	0.0163789
722.717	0.0162436
722.795	0.0162940
722.873	0.0162294
722.951	0.0162984
723.030	0.0161877
723.108	0.0163196
723.186	0.0161402
723.264	0.0162292
723.342	0.0160336
723.420	0.0160477
723.498	0.0161433
723.576	0.0162783
723.655	0.0162315
723.733	0.0162328
723.811	0.0161417
723.889	0.0163525
723.967	0.0164108
724.045	0.0161760
724.123	0.0163245
724.201	0.0164378
724.280	0.0164247
724.358	0.0164015
724.436	0.0164357
724.514	0.0166264
724.592	0.0165709
724.670	0.0164467
724.748	0.0165957
724.826	0.0166528
724.905	0.0165664
724.983	0.0165012
725.061	0.0167448
725.139	0.0166788
725.217	0.0166280
725.295	0.0166453
725.373	0.0167500
725.451	0.0168525
725.530	0.0167619
725.608	0.0167668
725.686	0.0168453
725.764	0.0168645
725.842	0.0169297
725.920	0.0169040
725.998	0.0168982
726.076	0.0170111
726.155	0.0170496
726.233	0.0170155
726.311	0.0171299
726.389	0.0170363
726.467	0.0170552
726.545	0.0172076
726.623	0.0171024
726.701	0.0171925
726.780	0.0172667
726.858	0.0171922
726.936	0.0170932
727.014	0.0171620
727.092	0.0169423
727.170	0.0169597
727.248	0.0169684
727.326	0.0168251
727.405	0.0167721
727.483	0.0167734
727.561	0.0166653
727.639	0.0166888
727.717	0.0166110
727.795	0.0165042
727.873	0.0166166
727.951	0.0165585
728.030	0.0164766
728.108	0.0164869
728.186	0.0164698
728.264	0.0164047
728.342	0.0166892
728.420	0.0165935
728.498	0.0165626
728.576	0.0166638
728.655	0.0166092
728.733	0.0167361
728.811	0.0166689
728.889	0.0167087
728.967	0.0169606
729.045	0.0167446
729.123	0.0170124
729.201	0.0169147
729.280	0.0168787
729.358	0.0167904
729.436	0.0168862
729.514	0.0170934
729.592	0.0170130
729.670	0.0169960
729.748	0.0170101
729.826	0.0169525
729.905	0.0169036
729.983	0.0168753
730.061	0.0168774
730.139	0.0168842
730.217	0.0166584
730.295	0.0166972
730.373	0.0168053
730.451	0.0167754
730.530	0.0167325
730.608	0.0167087
730.686	0.0165810
730.764	0.0166347
730.842	0.0165942
730.920	0.0168119
730.998	0.0166114
731.076	0.0165586
731.155	0.0166513
731.233	0.0166505
731.311	0.0166203
731.389	0.0164837
731.467	0.0166460
731.545	0.0166802
731.623	0.0164642
731.701	0.0166184
731.780	0.0166780
731.858	0.0166586
731.936	0.0167671
732.014	0.0166846
732.092	0.0167854
732.170	0.0167963
732.248	0.0167098
732.326	0.0167666
732.405	0.0168628
732.483	0.0167403
732.561	0.0169184
732.639	0.0167870
732.717	0.0167469
732.795	0.0167931
732.873	0.0168299
732.951	0.0166498
733.030	0.0165459
733.108	0.0167996
733.186	0.0167719
733.264	0.0165871
733.342	0.0166295
733.420	0.0164783
733.498	0.0166381
733.576	0.0166167
733.655	0.0165339
733.733	0.0166010
733.811	0.0165128
733.889	0.0164950
733.967	0.0166697
734.045	0.0165160
734.123	0.0165347
734.201	0.0164580
734.280	0.0163885
734.358	0.0164449
734.436	0.0164153
734.514	0.0166045
734.592	0.0165951
734.670	0.0166154
734.748	0.0165872
734.826	0.0165968
734.905	0.0166198
734.983	0.0166549
735.061	0.0166840
735.139	0.0166176
735.217	0.0168348
735.295	0.0166584
735.373	0.0167898
735.451	0.0167961
735.530	0.0167352
735.608	0.0168172
735.686	0.0166320
735.764	0.0168568
735.842	0.0166094
735.920	0.0167049
735.998	0.0166280
736.076	0.0166733
736.155	0.0166054
736.233	0.0166989
736.311	0.0167164
736.389	0.0165282
736.467	0.0166463
736.545	0.0167258
736.623	0.0167075
736.701	0.0165609
736.780	0.0166093
736.858	0.0166390
736.936	0.0165910
737.014	0.0166109
737.092	0.0165363
737.170	0.0165540
737.248	0.0165501
737.326	0.0166154
737.405	0.0165561
737.483	0.0166679
737.561	0.0167093
737.639	0.0165712
737.717	0.0166674
737.795	0.0166965
737.873	0.0167175
737.951	0.0167036
738.030	0.0165083
738.108	0.0167126
738.186	0.0168393
738.264	0.0166382
738.342	0.0166625
738.420	0.0165685
738.498	0.0166852
738.576	0.0165842
738.655	0.0165695
738.733	0.0167551
738.811	0.0168142
738.889	0.0164771
738.967	0.0166493
739.045	0.0166440
739.123	0.0166370
739.201	0.0167462
739.280	0.0165936
739.358	0.0167213
739.436	0.0166345
739.514	0.0167165
739.592	0.0168053
739.670	0.0168732
739.748	0.0167572
739.826	0.0167735
739.905	0.0168156
739.983	0.0166999
740.061	0.0168582
740.139	0.0166099
740.217	0.0167057
740.295	0.0168262
740.373	0.0167471
740.451	0.0165465
740.530	0.0166215
740.608	0.0166360
740.686	0.0165623
740.764	0.0166003
740.842	0.0166347
740.920	0.0165903
740.998	0.0167104
741.076	0.0167049
741.155	0.0166868
741.233	0.0168887
741.311	0.0167563
741.389	0.0167355
741.467	0.0168278
741.545	0.0168670
741.623	0.0169354
741.701	0.0169636
741.780	0.0169600
741.858	0.0168970
741.936	0.0168860
742.014	0.0171027
742.092	0.0170470
742.170	0.0169570
742.248	0.0168745
742.326	0.0170264
742.405	0.0170689
742.483	0.0170587
742.561	0.0169765
742.639	0.0171607
742.717	0.0171329
742.795	0.0171098
742.873	0.0169514
742.951	0.0170256
743.030	0.0171444
743.108	0.0171518
743.186	0.0170983
743.264	0.0170724
743.342	0.0169444
743.420	0.0169975
743.498	0.0169959
743.576	0.0168968
743.655	0.0168246
743.733	0.0168279
743.811	0.0167545
743.889	0.0168063
743.967	0.0167188
744.045	0.0166608
744.123	0.0166846
744.201	0.0165532
744.280	0.0166974
744.358	0.0166302
744.436	0.0165515
744.514	0.0166556
744.592	0.0165003
744.670	0.0165990
744.748	0.0165872
744.826	0.0165857
744.905	0.0166205
744.983	0.0165467
745.061	0.0164893
745.139	0.0164291
745.217	0.0165665
745.295	0.0164864
745.373	0.0165103
745.451	0.0165599
745.530	0.0165913
745.608	0.0164896
745.686	0.0164770
745.764	0.0166108
745.842	0.0165514
745.920	0.0165942
745.998	0.0166383
746.076	0.0165150
746.155	0.0163060
746.233	0.0163651
746.311	0.0164726
746.389	0.0164095
746.467	0.0162965
746.545	0.0161578
746.623	0.0161217
746.701	0.0162352
746.780	0.0162062
746.858	0.0161243
746.936	0.0160201
747.014	0.0160048
747.092	0.0161840
747.170	0.0160916
747.248	0.0160154
747.326	0.0161063
747.405	0.0160912
747.483	0.0161442
747.561	0.0162480
747.639	0.0162260
747.717	0.0162646
747.795	0.0163834
747.873	0.0163590
747.951	0.0163466
748.030	0.0166142
748.108	0.0164434
748.186	0.0166416
748.264	0.0165296
748.342	0.0166009
748.420	0.0166877
748.498	0.0166066
748.576	0.0166564
748.655	0.0166669
748.733	0.0166334
748.811	0.0166779
748.889	0.0167722
748.967	0.0168394
749.045	0.0166916
749.123	0.0168841
749.201	0.0168002
749.280	0.0168303
749.358	0.0167239
749.436	0.0167764
749.514	0.0167340
749.592	0.0168050
749.670	0.0168140
749.748	0.0167208
749.826	0.0168218
749.905	0.0167677
749.983	0.0167457
750.061	0.0167238
750.139	0.0168272
750.217	0.0168091
750.295	0.0169115
750.373	0.0168441
750.451	0.0168970
750.530	0.0168002
750.608	0.0166191
750.686	0.0168767
750.764	0.0167649
750.842	0.0168352
750.920	0.0167056
750.998	0.0167203
751.076	0.0166940
751.155	0.0168070
751.233	0.0166228
751.311	0.0165402
751.389	0.0166039
751.467	0.0165505
751.545	0.0166445
751.623	0.0165125
751.701	0.0165186
751.780	0.0164444
751.858	0.0166106
751.936	0.0165507
752.014	0.0167968
752.092	0.0166304
752.170	0.0165585
752.248	0.0165661
752.326	0.0166228
752.405	0.0167591
752.483	0.0166697
752.561	0.0168481
752.639	0.0166867
752.717	0.0168901
752.795	0.0168635
752.873	0.0166776
752.951	0.0168269
753.030	0.0168895
753.108	0.0169568
753.186	0.0167921
753.264	0.0167466
753.342	0.0168301
753.420	0.0168063
753.498	0.0167638
753.576	0.0168678
753.655	0.0167076
753.733	0.0167341
753.811	0.0168769
753.889	0.0167603
753.967	0.0168018
754.045	0.0167586
754.123	0.0169321
754.201	0.0168033
754.280	0.0168935
754.358	0.0165638
754.436	0.0166984
754.514	0.0166609
754.592	0.0168094
754.670	0.0167817
754.748	0.0165984
754.826	0.0166483
754.905	0.0166859
754.983	0.0166814
755.061	0.0167293
755.139	0.0166256
755.217	0.0168007
755.295	0.0165366
755.373	0.0167588
755.451	0.0166582
755.530	0.0167626
755.608	0.0167924
755.686	0.0168518
755.764	0.0168233
755.842	0.0169901
755.920	0.0170237
755.998	0.0169250
756.076	0.0169444
756.155	0.0169240
756.233	0.0169185
756.311	0.0170070
756.389	0.0168612
756.467	0.0169142
756.545	0.0168736
756.623	0.0168386
756.701	0.0168044
756.780	0.0167633
756.858	0.0166608
756.936	0.0166743
757.014	0.0166397
757.092	0.0165376
757.170	0.0167329
757.248	0.0167599
757.326	0.0166537
757.405	0.0167416
757.483	0.0164837
757.561	0.0165612
757.639	0.0166072
757.717	0.0166628
757.795	0.0165759
757.873	0.0167165
757.951	0.0166415
758.030	0.0166753
758.108	0.0165823
758.186	0.0166625
758.264	0.0167361
758.342	0.0165855
758.420	0.0164954
758.498	0.0165076
758.576	0.0166138
758.655	0.0165551
758.733	0.0165730
758.811	0.0165079
758.889	0.0165604
758.967	0.0165485
759.045	0.0164464
759.123	0.0165022
759.201	0.0165228
759.280	0.0164652
759.358	0.0165782
759.436	0.0165848
759.514	0.0166540
759.592	0.0165058
759.670	0.0165198
759.748	0.0165152
759.826	0.0166418
759.905	0.0165605
759.983	0.0166293
760.061	0.0167591
760.139	0.0167137
760.217	0.0167526
760.295	0.0166318
760.373	0.0167737
760.451	0.0167458
760.530	0.0167953
760.608	0.0167855
760.686	0.0168723
760.764	0.0169830
760.842	0.0169205
760.920	0.0167828
760.998	0.0167802
761.076	0.0168766
761.155	0.0170474
761.233	0.0168755
761.311	0.0168635
761.389	0.0168137
761.467	0.0167654
761.545	0.0168039
761.623	0.0167873
761.701	0.0167394
761.780	0.0165904
761.858	0.0167075
761.936	0.0166637
762.014	0.0166738
762.092	0.0167509
762.170	0.0166889
762.248	0.0165572
762.326	0.0167223
762.405	0.0167085
762.483	0.0167478
762.561	0.0167129
762.639	0.0168475
762.717	0.0167643
762.795	0.0167168
762.873	0.0168468
762.951	0.0169135
763.030	0.0166695
763.108	0.0168314
763.186	0.0169102
763.264	0.0168439
763.342	0.0167548
763.420	0.0167354
763.498	0.0169082
763.576	0.0168533
763.655	0.0168791
763.733	0.0169907
763.811	0.0168492
763.889	0.0168501
763.967	0.0167113
764.045	0.0169283
764.123	0.0169711
764.201	0.0168732
764.280	0.0168625
764.358	0.0169354
764.436	0.0168720
764.514	0.0168692
764.592	0.0168954
764.670	0.0168398
764.748	0.0167375
764.826	0.0167351
764.905	0.0167137
764.983	0.0167704
765.061	0.0168198
765.139	0.0168086
765.217	0.0166829
765.295	0.0166347
765.373	0.0166705
765.451	0.0166006
765.530	0.0166754
765.608	0.0166335
765.686	0.0166055
765.764	0.0165667
765.842	0.0166360
765.920	0.0165967
765.998	0.0165475
766.076	0.0165578
766.155	0.0164317
766.233	0.0164205
766.311	0.0164066
766.389	0.0166399
766.467	0.0166245
766.545	0.0165761
766.623	0.0165105
766.701	0.0166312
766.780	0.0165102
766.858	0.0165545
766.936	0.0164893
767.014	0.0165029
767.092	0.0164951
767.170	0.0165186
767.248	0.0166129
767.326	0.0166012
767.405	0.0165650
767.483	0.0165287
767.561	0.0165822
767.639	0.0166178
767.717	0.0166022
767.795	0.0165189
767.873	0.0164341
767.951	0.0165110
768.030	0.0163621
768.108	0.0165359
768.186	0.0164758
768.264	0.0163892
768.342	0.0164934
768.420	0.0165285
768.498	0.0164003
768.576	0.0165098
768.655	0.0164361
768.733	0.0164476
768.811	0.0165524
768.889	0.0163123
768.967	0.0163371
769.045	0.0164364
769.123	0.0164542
769.201	0.0165318
769.280	0.0164658
769.358	0.0164083
769.436	0.0164937
769.514	0.0166455
769.592	0.0166701
769.670	0.0166612
769.748	0.0166069
769.826	0.0168027
769.905	0.0167490
769.983	0.0167206
770.061	0.0168636
770.139	0.0167384
770.217	0.0169675
770.295	0.0169695
770.373	0.0168220
770.451	0.0168450
770.530	0.0170933
770.608	0.0169122
770.686	0.0167811
770.764	0.0168743
770.842	0.0170495
770.920	0.0170211
770.998	0.0168336
771.076	0.0168722
771.155	0.0166625
771.233	0.0167336
771.311	0.0167343
771.389	0.0168503
771.467	0.0167921
771.545	0.0166483
771.623	0.0167449
771.701	0.0165918
771.780	0.0166086
771.858	0.0166763
771.936	0.0167142
772.014	0.0166515
772.092	0.0165386
772.170	0.0164989
772.248	0.0167290
772.326	0.0165944
772.405	0.0165106
772.483	0.0166016
772.561	0.0164973
772.639	0.0164562
772.717	0.0165079
772.795	0.0164848
772.873	0.0166286
772.951	0.0164809
773.030	0.0164091
773.108	0.0164504
773.186	0.0164644
773.264	0.0163409
773.342	0.0164365
773.420	0.0166676
773.498	0.0166187
773.576	0.0166061
773.655	0.0166087
773.733	0.0166277
773.811	0.0166921
773.889	0.0167638
773.967	0.0168858
774.045	0.0168227
774.123	0.0169588
774.201	0.0169980
774.280	0.0171107
774.358	0.0171799
774.436	0.0170055
774.514	0.0170715
774.592	0.0170216
774.670	0.0170924
774.748	0.0170978
774.826	0.0170528
774.905	0.0170800
774.983	0.0170842
775.061	0.0170039
775.139	0.0169654
775.217	0.0171386
775.295	0.0170000
775.373	0.0168423
775.451	0.0169420
775.530	0.0169408
775.608	0.0168179
775.686	0.0168138
775.764	0.0169337
775.842	0.0168645
775.920	0.0168073
775.998	0.0165816
776.076	0.0167750
776.155	0.0166079
776.233	0.0168221
776.311	0.0167893
776.389	0.0167751
776.467	0.0166106
776.545	0.0165850
776.623	0.0166353
776.701	0.0166820
776.780	0.0166283
776.858	0.0165723
776.936	0.0165856
777.014	0.0164661
777.092	0.0164992
777.170	0.0166396
777.248	0.0166103
777.326	0.0164899
777.405	0.0165656
777.483	0.0166297
777.561	0.0165139
777.639	0.0164809
777.717	0.0165460
777.795	0.0164248
777.873	0.0164954
777.951	0.0165377
778.030	0.0164990
778.108	0.0164719
778.186	0.0162946
778.264	0.0162801
778.342	0.0162811
778.420	0.0163251
778.498	0.0163528
778.576	0.0164139
778.655	0.0163894
778.733	0.0163232
778.811	0.0164275
778.889	0.0163572
778.967	0.0164854
779.045	0.0163054
779.123	0.0164179
779.201	0.0166103
779.280	0.0163820
779.358	0.0164249
779.436	0.0164989
779.514	0.0165296
779.592	0.0166032
779.670	0.0163830
779.748	0.0164261
779.826	0.0164558
779.905	0.0165510
779.983	0.0166774
780.061	0.0166411
780.139	0.0165962
780.217	0.0166946
780.295	0.0167350
780.373	0.0167305
780.451	0.0166529
780.530	0.0167431
780.608	0.0169121
780.686	0.0168399
780.764	0.0168437
780.842	0.0167461
780.920	0.0168062
780.998	0.0168510
781.076	0.0169930
781.155	0.0168114
781.233	0.0168536
781.311	0.0169449
781.389	0.0169630
781.467	0.0170119
781.545	0.0169371
781.623	0.0170445
781.701	0.0170137
781.780	0.0168745
781.858	0.0171422
781.936	0.0169299
782.014	0.0170139
782.092	0.0170207
782.170	0.0170970
782.248	0.0168990
782.326	0.0169569
782.405	0.0170226
782.483	0.0169170
782.561	0.0169836
782.639	0.0169361
782.717	0.0170327
782.795	0.0169345
782.873	0.0169680
782.951	0.0169540
783.030	0.0167860
783.108	0.0167300
783.186	0.0167255
783.264	0.0167062
783.342	0.0166787
783.420	0.0167363
783.498	0.0166290
783.576	0.0165912
783.655	0.0166171
783.733	0.0164413
783.811	0.0163796
783.889	0.0166437
783.967	0.0165913
784.045	0.0165745
784.123	0.0165074
784.201	0.0164449
784.280	0.0166495
784.358	0.0165792
784.436	0.0165522
784.514	0.0166851
784.592	0.0166591
784.670	0.0166607
784.748	0.0166522
784.826	0.0168158
784.905	0.0167699
784.983	0.0166956
785.061	0.0167590
785.139	0.0168172
785.217	0.0169011
785.295	0.0169147
785.373	0.0168533
785.451	0.0168149
785.530	0.0169456
785.608	0.0168819
785.686	0.0169972
785.764	0.0170747
785.842	0.0168678
785.920	0.0169326
785.998	0.0171658
786.076	0.0170837
786.155	0.0170416
786.233	0.0170892
786.311	0.0169403
786.389	0.0171254
786.467	0.0171793
786.545	0.0170041
786.623	0.0170866
786.701	0.0170454
786.780	0.0170996
786.858	0.0172368
786.936	0.0171204
787.014	0.0170981
787.092	0.0171513
787.170	0.0170905
787.248	0.0170502
787.326	0.0170879
787.405	0.0170538
787.483	0.0170065
787.561	0.0170088
787.639	0.0168871
787.717	0.0169971
787.795	0.0168919
787.873	0.0168963
787.951	0.0168572
788.030	0.0167303
788.108	0.0168274
788.186	0.0168148
788.264	0.0167086
788.342	0.0165882
788.420	0.0166371
788.498	0.0167932
788.576	0.0166728
788.655	0.0166087
788.733	0.0164565
788.811	0.0164700
788.889	0.0163906
788.967	0.0163342
789.045	0.0164657
789.123	0.0163423
789.201	0.0163824
789.280	0.0162067
789.358	0.0163290
789.436	0.0163515
789.514	0.0162525
789.592	0.0163010
789.670	0.0162337
789.748	0.0163133
789.826	0.0162911
789.905	0.0163110
789.983	0.0163734
790.061	0.0162618
790.139	0.0164693
790.217	0.0162880
790.295	0.0162051
790.373	0.0165530
790.451	0.0164442
790.530	0.0164452
790.608	0.0164989
790.686	0.0166099
790.764	0.0165128
790.842	0.0166815
790.920	0.0168344
790.998	0.0168312
791.076	0.0167443
791.155	0.0167630
791.233	0.0168388
791.311	0.0169598
791.389	0.0167527
791.467	0.0169119
791.545	0.0168266
791.623	0.0168064
791.701	0.0169570
791.780	0.0169680
791.858	0.0170676
791.936	0.0168994
792.014	0.0169264
792.092	0.0169289
792.170	0.0168777
792.248	0.0168326
792.326	0.0169618
792.405	0.0168987
792.483	0.0169517
792.561	0.0169051
792.639	0.0168757
792.717	0.0169538
792.795	0.0169509
792.873	0.0169680
792.951	0.0168459
793.030	0.0168856
793.108	0.0168683
793.186	0.0168282
793.264	0.0169031
793.342	0.0169213
793.420	0.0167554
793.498	0.0167420
793.576	0.0167506
793.655	0.0166295
793.733	0.0166191
793.811	0.0166869
793.889	0.0166298
793.967	0.0167168
794.045	0.0166077
794.123	0.0165384
794.201	0.0166467
794.280	0.0164820
794.358	0.0165247
794.436	0.0165961
794.514	0.0164481
794.592	0.0163692
794.670	0.0165514
794.748	0.0165466
794.826	0.0166651
794.905	0.0165140
794.983	0.0165569
795.061	0.0167553
795.139	0.0166112
795.217	0.0165747
795.295	0.0167366
795.373	0.0165762
795.451	0.0166859
795.530	0.0165571
795.608	0.0167323
795.686	0.0165588
795.764	0.0165452
795.842	0.0166194
795.920	0.0167339
795.998	0.0167687
796.076	0.0166660
796.155	0.0166650
796.233	0.0168741
796.311	0.0167147
796.389	0.0167199
796.467	0.0167729
796.545	0.0167529
796.623	0.0166446
796.701	0.0166533
796.780	0.0168344
796.858	0.0168055
796.936	0.0167774
797.014	0.0167697
797.092	0.0166831
797.170	0.0167155
797.248	0.0167496
797.326	0.0168195
797.405	0.0167195
797.483	0.0167113
797.561	0.0167841
797.639	0.0167750
797.717	0.0168485
797.795	0.0168332
797.873	0.0167205
797.951	0.0168407
798.030	0.0168266
798.108	0.0168521
798.186	0.0167676
798.264	0.0168037
798.342	0.0166780
798.420	0.0168063
798.498	0.0168147
798.576	0.0168779
798.655	0.0167113
798.733	0.0167069
798.811	0.0167566
798.889	0.0167019
798.967	0.0166764
799.045	0.0165980
799.123	0.0166361
799.201	0.0166590
799.280	0.0167997
799.358	0.0167012
799.436	0.0167630
799.514	0.0167814
799.592	0.0168064
799.670	0.0166722
799.748	0.0167390
799.826	0.0166592
799.905	0.0166541
799.983	0.0165868
800.061	0.0166568
800.139	0.0166309
800.217	0.0166527
800.295	0.0165399
800.373	0.0165598
800.451	0.0165446
800.530	0.0165916
800.608	0.0166682
800.686	0.0166201
800.764	0.0166978
800.842	0.0167643
800.920	0.0166888
800.998	0.0165980
801.076	0.0167464
801.155	0.0165851
801.233	0.0164285
801.311	0.0168224
801.389	0.0166250
801.467	0.0167375
801.545	0.0167656
801.623	0.0166547
801.701	0.0167165
801.780	0.0168027
801.858	0.0167495
801.936	0.0169141
802.014	0.0167194
802.092	0.0166965
802.170	0.0169193
802.248	0.0170164
802.326	0.0168407
802.405	0.0167433
802.483	0.0168298
802.561	0.0169418
802.639	0.0169553
802.717	0.0170026
802.795	0.0169334
802.873	0.0169676
802.951	0.0169965
803.030	0.0170187
803.108	0.0169102
803.186	0.0171129
803.264	0.0171341
803.342	0.0169981
803.420	0.0169308
803.498	0.0169745
803.576	0.0170470
803.655	0.0170198
803.733	0.0169968
803.811	0.0167734
803.889	0.0169004
803.967	0.0168967
804.045	0.0168660
804.123	0.0169353
804.201	0.0168719
804.280	0.0168860
804.358	0.0168511
804.436	0.0167860
804.514	0.0167309
804.592	0.0168422
804.670	0.0167149
804.748	0.0166863
804.826	0.0166309
804.905	0.0166389
804.983	0.0166643
805.061	0.0166341
805.139	0.0164097
805.217	0.0166518
805.295	0.0166576
805.373	0.0166060
805.451	0.0163656
805.530	0.0166093
805.608	0.0167095
805.686	0.0164936
805.764	0.0164393
805.842	0.0166289
805.920	0.0165852
805.998	0.0164748
806.076	0.0166831
806.155	0.0167444
806.233	0.0166590
806.311	0.0167542
806.389	0.0165872
806.467	0.0167018
806.545	0.0165173
806.623	0.0165699
806.701	0.0166581
806.780	0.0167464
806.858	0.0167301
806.936	0.0167440
807.014	0.0167095
807.092	0.0166476
807.170	0.0167619
807.248	0.0165657
807.326	0.0166546
807.405	0.0167948
807.483	0.0168633
807.561	0.0167689
807.639	0.0166496
807.717	0.0166847
807.795	0.0168704
807.873	0.0167348
807.951	0.0166592
808.030	0.0167343
808.108	0.0166875
808.186	0.0166609
808.264	0.0166879
808.342	0.0166871
808.420	0.0166515
808.498	0.0167407
808.576	0.0166508
808.655	0.0166426
808.733	0.0166397
808.811	0.0166285
808.889	0.0165861
808.967	0.0165556
809.045	0.0166193
809.123	0.0165121
809.201	0.0165008
809.280	0.0165073
809.358	0.0165421
809.436	0.0163794
809.514	0.0165792
809.592	0.0164265
809.670	0.0163370
809.748	0.0164156
809.826	0.0164088
809.905	0.0163608
809.983	0.0163829
810.061	0.0165317
810.139	0.0164150
810.217	0.0164191
810.295	0.0164587
810.373	0.0164528
810.451	0.0167047
810.530	0.0163971
810.608	0.0165961
810.686	0.0166711
810.764	0.0165647
810.842	0.0166782
810.920	0.0166293
810.998	0.0167994
811.076	0.0167367
811.155	0.0167276
811.233	0.0167525
811.311	0.0167696
811.389	0.0167336
811.467	0.0167261
811.545	0.0167455
811.623	0.0166125
811.701	0.0167118
811.780	0.0168198
811.858	0.0168550
811.936	0.0168031
812.014	0.0167846
812.092	0.0167725
812.170	0.0168201
812.248	0.0168994
812.326	0.0167481
812.405	0.0167941
812.483	0.0168912
812.561	0.0166948
812.639	0.0167901
812.717	0.0168092
812.795	0.0168226
812.873	0.0167799
812.951	0.0167476
813.030	0.0167599
813.108	0.0168019
813.186	0.0168121
813.264	0.0167455
813.342	0.0167125
813.420	0.0167162
813.498	0.0168299
813.576	0.0167701
813.655	0.0166922
813.733	0.0168546
813.811	0.0167789
813.889	0.0166838
813.967	0.0166132
814.045	0.0166779
814.123	0.0166767
814.201	0.0168030
814.280	0.0166874
814.358	0.0168066
814.436	0.0167757
814.514	0.0167451
814.592	0.0165417
814.670	0.0165757
814.748	0.0166251
814.826	0.0166500
814.905	0.0166216
814.983	0.0166078
815.061	0.0166636
815.139	0.0166550
815.217	0.0166182
815.295	0.0165469
815.373	0.0164913
815.451	0.0166680
815.530	0.0164336
815.608	0.0165788
815.686	0.0167442
815.764	0.0167304
815.842	0.0166055
815.920	0.0166805
815.998	0.0168338
816.076	0.0166173
816.155	0.0167468
816.233	0.0167648
816.311	0.0167945
816.389	0.0168618
816.467	0.0168242
816.545	0.0167722
816.623	0.0169387
816.701	0.0168861
816.780	0.0167613
816.858	0.0167783
816.936	0.0168078
817.014	0.0169595
817.092	0.0167976
817.170	0.0169223
817.248	0.0169566
817.326	0.0167805
817.405	0.0167477
817.483	0.0168474
817.561	0.0168822
817.639	0.0168030
817.717	0.0168900
817.795	0.0169138
817.873	0.0167991
817.951	0.0167989
818.030	0.0168817
818.108	0.0169036
818.186	0.0168063
818.264	0.0168311
818.342	0.0169880
818.420	0.0168057
818.498	0.0167590
818.576	0.0169106
818.655	0.0169461
818.733	0.0168983
818.811	0.0169567
818.889	0.0169311
818.967	0.0169716
819.045	0.0168263
819.123	0.0169082
819.201	0.0168758
819.280	0.0169573
819.358	0.0168242
819.436	0.0166715
819.514	0.0166425
819.592	0.0166118
819.670	0.0166702
819.748	0.0167538
819.826	0.0166874
819.905	0.0165604
819.983	0.0165631
820.061	0.0165310
820.139	0.0165448
820.217	0.0165181
820.295	0.0164729
820.373	0.0165062
820.451	0.0165681
820.530	0.0163091
820.608	0.0164244
820.686	0.0165382
820.764	0.0164559
820.842	0.0164942
820.920	0.0164037
820.998	0.0165114
821.076	0.0165349
821.155	0.0166386
821.233	0.0165425
821.311	0.0165452
821.389	0.0165210
821.467	0.0167467
821.545	0.0166715
821.623	0.0165228
821.701	0.0166419
821.780	0.0166119
821.858	0.0166841
821.936	0.0168047
822.014	0.0166579
822.092	0.0166209
822.170	0.0167915
822.248	0.0166567
822.326	0.0168928
822.405	0.0167733
822.483	0.0167361
822.561	0.0167886
822.639	0.0167447
822.717	0.0168116
822.795	0.0166678
822.873	0.0166592
822.951	0.0167762
823.030	0.0167735
823.108	0.0168616
823.186	0.0167221
823.264	0.0166730
823.342	0.0168192
823.420	0.0166060
823.498	0.0168102
823.576	0.0168267
823.655	0.0167721
823.733	0.0167446
823.811	0.0166737
823.889	0.0168195
823.967	0.0167406
824.045	0.0167975
824.123	0.0168327
824.201	0.0168135
824.280	0.0167126
824.358	0.0167319
824.436	0.0166357
824.514	0.0166501
824.592	0.0167291
824.670	0.0167451
824.748	0.0166596
824.826	0.0166918
824.905	0.0167067
824.983	0.0165080
825.061	0.0165643
825.139	0.0165831
825.217	0.0165720
825.295	0.0162579
825.373	0.0163912
825.451	0.0165249
825.530	0.0165043
825.608	0.0163328
825.686	0.0163265
825.764	0.0163454
825.842	0.0164820
825.920	0.0163794
825.998	0.0163172
826.076	0.0165543
826.155	0.0164488
826.233	0.0165232
826.311	0.0164070
826.389	0.0165408
826.467	0.0165712
826.545	0.0165916
826.623	0.0165881
826.701	0.0165285
826.780	0.0166721
826.858	0.0165949
826.936	0.0166755
827.014	0.0167658
827.092	0.0166589
827.170	0.0168063
827.248	0.0167869
827.326	0.0167188
827.405	0.0167233
827.483	0.0167422
827.561	0.0167713
827.639	0.0167101
827.717	0.0168956
827.795	0.0168234
827.873	0.0168171
827.951	0.0167057
828.030	0.0167715
828.108	0.0167619
828.186	0.0168929
828.264	0.0167857
828.342	0.0167971
828.420	0.0168408
828.498	0.0167104
828.576	0.0167610
828.655	0.0168470
828.733	0.0169939
828.811	0.0169134
828.889	0.0167426
828.967	0.0170023
829.045	0.0169623
829.123	0.0167545
829.201	0.0169267
829.280	0.0169918
829.358	0.0169428
829.436	0.0169074
829.514	0.0168841
829.592	0.0168763
829.670	0.0167558
829.748	0.0166597
829.826	0.0168758
829.905	0.0166521
829.983	0.0166538
830.061	0.0166750
830.139	0.0167568
830.217	0.0167695
830.295	0.0165672
830.373	0.0166134
830.451	0.0166180
830.530	0.0165674
830.608	0.0166598
830.686	0.0166866
830.764	0.0166577
830.842	0.0167267
830.920	0.0165154
830.998	0.0166251
831.076	0.0166962
831.155	0.0166478
831.233	0.0166000
831.311	0.0166157
831.389	0.0164146
831.467	0.0166310
831.545	0.0166257
831.623	0.0165755
831.701	0.0165295
831.780	0.0165463
831.858	0.0165609
831.936	0.0165785
832.014	0.0167141
832.092	0.0166673
832.170	0.0166044
832.248	0.0166650
832.326	0.0164397
832.405	0.0165202
832.483	0.0166175
832.561	0.0164752
832.639	0.0165421
832.717	0.0165033
832.795	0.0165280
832.873	0.0165166
832.951	0.0165422
833.030	0.0166662
833.108	0.0165604
833.186	0.0164742
833.264	0.0165960
833.342	0.0165009
833.420	0.0163467
833.498	0.0164986
833.576	0.0165531
833.655	0.0165379
833.733	0.0164064
833.811	0.0165227
833.889	0.0165413
833.967	0.0165700
834.045	0.0163885
834.123	0.0164806
834.201	0.0165842
834.280	0.0165746
834.358	0.0166109
834.436	0.0166577
834.514	0.0166476
834.592	0.0166832
834.670	0.0167905
834.748	0.0166455
834.826	0.0167680
834.905	0.0167118
834.983	0.0167915
835.061	0.0166032
835.139	0.0167705
835.217	0.0167570
835.295	0.0168113
835.373	0.0167107
835.451	0.0167094
835.530	0.0167091
835.608	0.0167337
835.686	0.0167967
835.764	0.0167938
835.842	0.0168164
835.920	0.0166425
835.998	0.0168802
836.076	0.0166548
836.155	0.0166742
836.233	0.0166090
836.311	0.0165141
836.389	0.0165962
836.467	0.0165046
836.545	0.0164262
836.623	0.0164259
836.701	0.0165479
836.780	0.0165808
836.858	0.0163342
836.936	0.0163695
837.014	0.0165417
837.092	0.0164704
837.170	0.0165188
837.248	0.0163939
837.326	0.0165251
837.405	0.0166560
837.483	0.0165489
837.561	0.0163729
837.639	0.0162492
837.717	0.0165228
837.795	0.0164951
837.873	0.0165363
837.951	0.0165716
838.030	0.0165992
838.108	0.0166383
838.186	0.0165956
838.264	0.0165235
838.342	0.0165627
838.420	0.0166232
838.498	0.0164075
838.576	0.0163556
838.655	0.0164577
838.733	0.0164363
838.811	0.0164332
838.889	0.0165527
838.967	0.0166060
839.045	0.0166938
839.123	0.0166248
839.201	0.0166151
839.280	0.0166689
839.358	0.0166564
839.436	0.0167728
839.514	0.0167798
839.592	0.0166758
839.670	0.0167844
839.748	0.0168398
839.826	0.0169498
839.905	0.0168862
839.983	0.0166718
840.061	0.0169186
840.139	0.0168100
840.217	0.0168487
840.295	0.0168727
840.373	0.0169878
840.451	0.0168879
840.530	0.0168762
840.608	0.0169334
840.686	0.0168874
840.764	0.0169635
840.842	0.0168156
840.920	0.0167870
840.998	0.0168035
841.076	0.0168676
841.155	0.0169140
841.233	0.0167999
841.311	0.0168337
841.389	0.0168494
841.467	0.0168523
841.545	0.0167837
841.623	0.0167123
841.701	0.0167649
841.780	0.0168189
841.858	0.0167783
841.936	0.0167185
842.014	0.0166891
842.092	0.0168530
842.170	0.0167104
842.248	0.0168129
842.326	0.0167746
842.405	0.0166850
842.483	0.0166908
842.561	0.0167777
842.639	0.0166505
842.717	0.0167257
842.795	0.0168709
842.873	0.0166576
842.951	0.0168407
843.030	0.0166637
843.108	0.0165730
843.186	0.0165656
843.264	0.0167468
843.342	0.0166755
843.420	0.0166875
843.498	0.0166500
843.576	0.0165934
843.655	0.0166605
843.733	0.0165855
843.811	0.0167640
843.889	0.0167319
843.967	0.0167275
844.045	0.0166138
844.123	0.0166885
844.201	0.0167758
844.280	0.0167625
844.358	0.0167779
844.436	0.0167549
844.514	0.0166606
844.592	0.0168777
844.670	0.0168761
844.748	0.0167864
844.826	0.0168679
844.905	0.0168839
844.983	0.0168357
845.061	0.0168587
845.139	0.0168753
845.217	0.0168806
845.295	0.0168289
845.373	0.0170280
845.451	0.0168644
845.530	0.0168675
845.608	0.0168779
845.686	0.0167365
845.764	0.0166219
845.842	0.0167513
845.920	0.0168583
845.998	0.0166906
846.076	0.0165625
846.155	0.0165953
846.233	0.0164841
846.311	0.0166329
846.389	0.0167121
846.467	0.0166213
846.545	0.0166948
846.623	0.0167329
846.701	0.0166862
846.780	0.0167690
846.858	0.0167287
846.936	0.0166891
847.014	0.0165615
847.092	0.0165903
847.170	0.0166176
847.248	0.0165355
847.326	0.0165435
847.405	0.0164769
847.483	0.0166158
847.561	0.0166860
847.639	0.0165958
847.717	0.0164024
847.795	0.0166296
847.873	0.0166042
847.951	0.0165141
848.030	0.0165662
848.108	0.0165506
848.186	0.0166513
848.264	0.0165311
848.342	0.0165337
848.420	0.0164919
848.498	0.0165880
848.576	0.0165472
848.655	0.0165555
848.733	0.0163821
848.811	0.0164802
848.889	0.0165178
848.967	0.0165228
849.045	0.0166022
849.123	0.0163894
849.201	0.0164494
849.280	0.0166422
849.358	0.0165079
849.436	0.0164701
849.514	0.0166906
849.592	0.0166907
849.670	0.0164348
849.748	0.0165862
849.826	0.0163831
849.905	0.0165298
849.983	0.0166330
850.061	0.0166862
850.139	0.0166550
850.217	0.0165800
850.295	0.0167094
850.373	0.0167290
850.451	0.0166147
850.530	0.0165131
850.608	0.0166193
850.686	0.0167107
850.764	0.0167154
850.842	0.0167467
850.920	0.0167946
850.998	0.0167604
851.076	0.0167384
851.155	0.0165940
851.233	0.0167216
851.311	0.0168189
851.389	0.0168834
851.467	0.0169012
851.545	0.0167714
851.623	0.0167170
851.701	0.0168956
851.780	0.0167970
851.858	0.0168052
851.936	0.0168409
852.014	0.0169037
852.092	0.0168020
852.170	0.0168029
852.248	0.0166933
852.326	0.0168090
852.405	0.0168431
852.483	0.0167479
852.561	0.0169244
852.639	0.0167949
852.717	0.0167017
852.795	0.0165833
852.873	0.0166245
852.951	0.0167222
853.030	0.0167585
853.108	0.0166486
853.186	0.0166806
853.264	0.0165909
853.342	0.0166456
853.420	0.0165377
853.498	0.0164021
853.576	0.0164195
853.655	0.0165585
853.733	0.0165515
853.811	0.0165639
853.889	0.0165728
853.967	0.0165223
854.045	0.0164959
854.123	0.0163139
854.201	0.0163898
854.280	0.0163653
854.358	0.0166765
854.436	0.0165251
854.514	0.0165707
854.592	0.0165176
854.670	0.0165360
854.748	0.0166656
854.826	0.0166177
854.905	0.0166816
854.983	0.0165016
855.061	0.0165985
855.139	0.0166981
855.217	0.0166411
855.295	0.0166324
855.373	0.0167808
855.451	0.0168219
855.530	0.0165884
855.608	0.0167598
855.686	0.0168786
855.764	0.0166914
855.842	0.0167055
855.920	0.0165775
855.998	0.0167773
856.076	0.0168717
856.155	0.0168440
856.233	0.0168280
856.311	0.0167557
856.389	0.0169388
856.467	0.0168790
856.545	0.0167965
856.623	0.0168664
856.701	0.0169123
856.780	0.0168105
856.858	0.0166897
856.936	0.0167611
857.014	0.0168786
857.092	0.0168597
857.170	0.0168085
857.248	0.0166563
857.326	0.0168639
857.405	0.0169010
857.483	0.0166413
857.561	0.0167091
857.639	0.0167387
857.717	0.0167738
857.795	0.0166938
857.873	0.0168075
857.951	0.0166344
858.030	0.0167165
858.108	0.0166928
858.186	0.0166814
858.264	0.0166666
858.342	0.0167178
858.420	0.0168228
858.498	0.0167535
858.576	0.0166929
858.655	0.0167187
858.733	0.0168622
858.811	0.0168259
858.889	0.0167690
858.967	0.0167686
859.045	0.0167733
859.123	0.0168301
859.201	0.0166315
859.280	0.0167017
859.358	0.0167133
859.436	0.0168964
859.514	0.0167865
859.592	0.0168643
859.670	0.0168890
859.748	0.0167744
859.826	0.0169142
859.905	0.0168217
859.983	0.0167766
860.061	0.0166367
860.139	0.0167714
860.217	0.0167242
860.295	0.0167399
860.373	0.0167542
860.451	0.0166021
860.530	0.0167810
860.608	0.0166379
860.686	0.0166142
860.764	0.0167017
860.842	0.0167387
860.920	0.0165639
860.998	0.0166333
861.076	0.0166769
861.155	0.0166846
861.233	0.0166250
861.311	0.0166196
861.389	0.0167414
861.467	0.0167114
861.545	0.0166282
861.623	0.0167089
861.701	0.0165824
861.780	0.0166241
861.858	0.0166390
861.936	0.0165062
862.014	0.0165195
862.092	0.0167123
862.170	0.0164129
862.248	0.0164818
862.326	0.0166264
862.405	0.0165013
862.483	0.0165334
862.561	0.0165997
862.639	0.0165313
862.717	0.0166005
862.795	0.0165469
862.873	0.0165955
862.951	0.0165192
863.030	0.0166348
863.108	0.0167146
863.186	0.0165674
863.264	0.0166548
863.342	0.0166386
863.420	0.0167302
863.498	0.0166964
863.576	0.0167202
863.655	0.0166156
863.733	0.0167419
863.811	0.0167202
863.889	0.0166398
863.967	0.0167377
864.045	0.0167426
864.123	0.0168907
864.201	0.0167514
864.280	0.0168051
864.358	0.0168772
864.436	0.0169056
864.514	0.0166855
864.592	0.0166900
864.670	0.0167491
864.748	0.0167892
864.826	0.0167738
864.905	0.0168269
864.983	0.0167409
865.061	0.0167653
865.139	0.0168252
865.217	0.0166866
865.295	0.0167464
865.373	0.0166563
865.451	0.0165784
865.530	0.0166258
865.608	0.0165751
865.686	0.0168365
865.764	0.0167522
865.842	0.0166367
865.920	0.0166116
865.998	0.0167021
866.076	0.0165291
866.155	0.0165861
866.233	0.0166579
866.311	0.0166788
866.389	0.0167077
866.467	0.0166464
866.545	0.0167081
866.623	0.0166288
866.701	0.0165668
866.780	0.0167213
866.858	0.0165959
866.936	0.0165105
867.014	0.0166022
867.092	0.0167833
867.170	0.0167313
867.248	0.0166631
867.326	0.0167201
867.405	0.0167561
867.483	0.0167341
867.561	0.0167664
867.639	0.0167770
867.717	0.0167349
867.795	0.0167694
867.873	0.0167413
867.951	0.0167242
868.030	0.0168928
868.108	0.0168112
868.186	0.0167661
868.264	0.0168473
868.342	0.0168517
868.420	0.0166962
868.498	0.0166283
868.576	0.0168314
868.655	0.0167722
868.733	0.0169253
868.811	0.0166705
868.889	0.0167796
868.967	0.0168719
869.045	0.0168026
869.123	0.0168738
869.201	0.0167789
869.280	0.0168707
869.358	0.0166955
869.436	0.0168031
869.514	0.0167957
869.592	0.0167212
869.670	0.0166986
869.748	0.0167263
869.826	0.0167754
869.905	0.0168256
869.983	0.0167139
870.061	0.0166939
870.139	0.0167033
870.217	0.0167066
870.295	0.0167631
870.373	0.0167633
870.451	0.0167055
870.530	0.0166774
870.608	0.0168250
870.686	0.0167464
870.764	0.0167926
870.842	0.0168152
870.920	0.0168261
870.998	0.0168938
871.076	0.0167199
871.155	0.0167544
871.233	0.0168090
871.311	0.0167862
871.389	0.0166562
871.467	0.0167135
871.545	0.0167464
871.623	0.0166232
871.701	0.0167833
871.780	0.0167912
871.858	0.0166920
871.936	0.0166565
872.014	0.0167170
872.092	0.0167344
872.170	0.0166796
872.248	0.0166592
872.326	0.0167055
872.405	0.0165583
872.483	0.0166874
872.561	0.0167430
872.639	0.0166876
872.717	0.0165140
872.795	0.0165424
872.873	0.0167403
872.951	0.0164848
873.030	0.0165660
873.108	0.0167631
873.186	0.0166320
873.264	0.0164937
873.342	0.0165320
873.420	0.0166100
873.498	0.0166110
873.576	0.0165395
873.655	0.0164804
873.733	0.0166900
873.811	0.0165531
873.889	0.0165173
873.967	0.0166486
874.045	0.0166618
874.123	0.0165569
874.201	0.0166296
874.280	0.0167881
874.358	0.0167426
874.436	0.0165655
874.514	0.0167283
874.592	0.0167319
874.670	0.0167462
874.748	0.0169580
874.826	0.0169090
874.905	0.0168906
874.983	0.0169390
875.061	0.0168218
875.139	0.0166865
875.217	0.0169618
875.295	0.0169462
875.373	0.0168318
875.451	0.0167513
875.530	0.0168282
875.608	0.0168888
875.686	0.0168533
875.764	0.0169527
875.842	0.0169228
875.920	0.0167704
875.998	0.0167656
876.076	0.0168090
876.155	0.0168111
876.233	0.0167266
876.311	0.0166951
876.389	0.0168147
876.467	0.0167122
876.545	0.0167287
876.623	0.0166772
876.701	0.0167666
876.780	0.0168275
876.858	0.0167373
876.936	0.0166418
877.014	0.0167101
877.092	0.0168938
877.170	0.0167213
877.248	0.0167631
877.326	0.0167342
877.405	0.0167756
877.483	0.0166646
877.561	0.0167278
877.639	0.0167088
877.717	0.0167150
877.795	0.0167760
877.873	0.0166515
877.951	0.0167254
878.030	0.0168969
878.108	0.0166677
878.186	0.0167113
878.264	0.0168162
878.342	0.0167834
878.420	0.0168382
878.498	0.0166833
878.576	0.0167381
878.655	0.0168888
878.733	0.0166872
878.811	0.0168988
878.889	0.0169014
878.967	0.0168434
879.045	0.0167989
879.123	0.0166902
879.201	0.0168068
879.280	0.0167309
879.358	0.0167597
879.436	0.0167325
879.514	0.0168002
879.592	0.0167107
879.670	0.0167740
879.748	0.0168274
879.826	0.0167381
879.905	0.0166790
879.983	0.0168602
880.061	0.0167381
880.139	0.0166947
880.217	0.0167461
880.295	0.0165552
880.373	0.0167420
880.451	0.0168298
880.530	0.0167336
880.608	0.0167918
880.686	0.0165930
880.764	0.0168687
880.842	0.0167728
880.920	0.0166564
880.998	0.0165530
881.076	0.0166368
881.155	0.0166823
881.233	0.0165691
881.311	0.0165954
881.389	0.0166305
881.467	0.0166194
881.545	0.0164877
881.623	0.0165212
881.701	0.0166245
881.780	0.0163657
881.858	0.0163161
881.936	0.0164329
882.014	0.0165816
882.092	0.0163735
882.170	0.0164092
882.248	0.0163310
882.326	0.0164280
882.405	0.0163818
882.483	0.0164828
882.561	0.0164634
882.639	0.0163737
882.717	0.0163699
882.795	0.0165292
882.873	0.0163865
882.951	0.0165292
883.030	0.0164517
883.108	0.0165047
883.186	0.0166558
883.264	0.0166823
883.342	0.0166241
883.420	0.0167281
883.498	0.0166302
883.576	0.0165452
883.655	0.0167362
883.733	0.0167472
883.811	0.0166969
883.889	0.0167770
883.967	0.0167114
884.045	0.0167490
884.123	0.0168193
884.201	0.0166814
884.280	0.0168416
884.358	0.0167410
884.436	0.0168002
884.514	0.0168755
884.592	0.0167793
884.670	0.0169320
884.748	0.0168819
884.826	0.0169162
884.905	0.0168849
884.983	0.0168323
885.061	0.0169117
885.139	0.0168340
885.217	0.0169418
885.295	0.0168045
885.373	0.0167770
885.451	0.0169851
885.530	0.0169043
885.608	0.0168391
885.686	0.0168387
885.764	0.0167824
885.842	0.0169711
885.920	0.0168392
885.998	0.0167533
886.076	0.0167651
886.155	0.0169307
886.233	0.0167622
886.311	0.0166304
886.389	0.0167387
886.467	0.0166414
886.545	0.0166201
886.623	0.0166440
886.701	0.0166902
886.780	0.0164656
886.858	0.0166063
886.936	0.0164851
887.014	0.0165347
887.092	0.0164829
887.170	0.0163742
887.248	0.0166262
887.326	0.0163881
887.405	0.0164713
887.483	0.0164882
887.561	0.0166190
887.639	0.0165821
887.717	0.0164048
887.795	0.0165823
887.873	0.0164692
887.951	0.0166342
888.030	0.0166419
888.108	0.0166552
888.186	0.0165466
888.264	0.0165436
888.342	0.0166821
888.420	0.0167506
888.498	0.0166886
888.576	0.0167491
888.655	0.0167197
888.733	0.0167494
888.811	0.0166734
888.889	0.0166317
888.967	0.0166209
889.045	0.0167249
889.123	0.0166415
889.201	0.0166932
889.280	0.0166147
889.358	0.0168097
889.436	0.0167400
889.514	0.0167976
889.592	0.0167236
889.670	0.0166685
889.748	0.0166918
889.826	0.0167475
889.905	0.0166033
889.983	0.0167397
890.061	0.0167316
890.139	0.0167779
890.217	0.0166682
890.295	0.0165451
890.373	0.0166344
890.451	0.0167078
890.530	0.0165217
890.608	0.0165647
890.686	0.0166574
890.764	0.0167856
890.842	0.0166997
890.920	0.0167177
890.998	0.0167532
891.076	0.0166975
891.155	0.0166844
891.233	0.0165842
891.311	0.0167590
891.389	0.0167329
891.467	0.0167216
891.545	0.0166931
891.623	0.0166262
891.701	0.0167052
891.780	0.0168237
891.858	0.0166580
891.936	0.0167321
892.014	0.0168069
892.092	0.0166971
892.170	0.0167652
892.248	0.0167078
892.326	0.0167872
892.405	0.0166466
892.483	0.0166041
892.561	0.0167407
892.639	0.0166629
892.717	0.0166241
892.795	0.0167178
892.873	0.0166266
892.951	0.0165026
893.030	0.0165520
893.108	0.0166817
893.186	0.0166093
893.264	0.0164970
893.342	0.0166862
893.420	0.0165488
893.498	0.0165749
893.576	0.0166171
893.655	0.0165393
893.733	0.0165811
893.811	0.0165843
893.889	0.0167164
893.967	0.0167910
894.045	0.0166539
894.123	0.0166944
894.201	0.0165401
894.280	0.0165913
894.358	0.0168119
894.436	0.0167636
894.514	0.0165825
894.592	0.0165356
894.670	0.0165591
894.748	0.0166619
894.826	0.0166223
894.905	0.0166697
894.983	0.0165424
895.061	0.0166369
895.139	0.0166756
895.217	0.0165522
895.295	0.0166825
895.373	0.0166264
895.451	0.0166381
895.530	0.0165724
895.608	0.0166740
895.686	0.0166922
895.764	0.0166713
895.842	0.0166358
895.920	0.0167281
895.998	0.0167483
896.076	0.0167207
896.155	0.0168892
896.233	0.0167596
896.311	0.0167972
896.389	0.0167229
896.467	0.0167667
896.545	0.0168951
896.623	0.0169334
896.701	0.0169477
896.780	0.0168660
896.858	0.0169639
896.936	0.0169052
897.014	0.0169154
897.092	0.0169551
897.170	0.0168263
897.248	0.0169055
897.326	0.0168092
897.405	0.0167677
897.483	0.0167670
897.561	0.0167862
897.639	0.0168315
897.717	0.0168694
897.795	0.0167319
897.873	0.0167678
897.951	0.0168764
898.030	0.0168431
898.108	0.0167360
898.186	0.0168867
898.264	0.0168597
898.342	0.0168194
898.420	0.0166627
898.498	0.0167186
898.576	0.0167590
898.655	0.0168803
898.733	0.0166541
898.811	0.0168499
898.889	0.0168539
898.967	0.0168482
899.045	0.0168195
899.123	0.0167512
899.201	0.0168420
899.280	0.0168804
899.358	0.0170238
899.436	0.0168706
899.514	0.0167905
899.592	0.0168406
899.670	0.0168934
899.748	0.0168918
899.826	0.0167813
899.905	0.0167984
899.983	0.0168347
900.061	0.0166893
900.139	0.0168349
900.217	0.0168156
900.295	0.0167174
900.373	0.0168145
900.451	0.0168237
900.530	0.0167284
900.608	0.0166842
900.686	0.0167850
900.764	0.0167589
900.842	0.0168029
900.920	0.0167062
900.998	0.0166264
901.076	0.0166673
901.155	0.0168111
901.233	0.0168179
901.311	0.0168823
901.389	0.0167616
901.467	0.0167040
901.545	0.0167023
901.623	0.0168167
901.701	0.0167439
901.780	0.0167928
901.858	0.0167146
901.936	0.0166721
902.014	0.0166291
902.092	0.0167975
902.170	0.0167565
902.248	0.0166010
902.326	0.0167127
902.405	0.0167650
902.483	0.0168220
902.561	0.0168023
902.639	0.0167003
902.717	0.0167202
902.795	0.0168114
902.873	0.0168089
902.951	0.0167812
903.030	0.0168993
903.108	0.0168690
903.186	0.0167632
903.264	0.0166833
903.342	0.0168844
903.420	0.0168816
903.498	0.0168635
903.576	0.0167841
903.655	0.0168172
903.733	0.0169039
903.811	0.0166418
903.889	0.0166213
903.967	0.0167289
904.045	0.0167461
904.123	0.0166402
904.201	0.0166354
904.280	0.0168373
904.358	0.0167548
904.436	0.0167507
904.514	0.0166698
904.592	0.0166848
904.670	0.0165718
904.748	0.0167790
904.826	0.0166367
904.905	0.0164535
904.983	0.0166241
905.061	0.0166988
905.139	0.0166713
905.217	0.0166938
905.295	0.0166642
905.373	0.0165246
905.451	0.0167437
905.530	0.0166547
905.608	0.0164154
905.686	0.0165274
905.764	0.0164577
905.842	0.0164933
905.920	0.0165758
905.998	0.0165197
906.076	0.0165643
906.155	0.0165704
906.233	0.0164555
906.311	0.0164820
906.389	0.0165561
906.467	0.0165855
906.545	0.0165294
906.623	0.0165269
906.701	0.0165171
906.780	0.0165833
906.858	0.0165533
906.936	0.0165028
907.014	0.0165771
907.092	0.0165491
907.170	0.0166412
907.248	0.0166174
907.326	0.0166079
907.405	0.0165649
907.483	0.0165440
907.561	0.0165108
907.639	0.0165128
907.717	0.0166621
907.795	0.0167332
907.873	0.0165606
907.951	0.0165899
908.030	0.0166306
908.108	0.0166564
908.186	0.0167171
908.264	0.0166520
908.342	0.0168162
908.420	0.0166920
908.498	0.0167889
908.576	0.0167332
908.655	0.0168298
908.733	0.0167646
908.811	0.0167965
908.889	0.0167125
908.967	0.0168542
909.045	0.0167823
909.123	0.0168483
909.201	0.0167192
909.280	0.0167792
909.358	0.0167773
909.436	0.0167745
909.514	0.0168430
909.592	0.0168636
909.670	0.0166238
909.748	0.0167936
909.826	0.0168646
909.905	0.0167504
909.983	0.0167533
910.061	0.0167031
910.139	0.0165629
910.217	0.0167767
910.295	0.0167887
910.373	0.0168093
910.451	0.0167873
910.530	0.0167982
910.608	0.0167216
910.686	0.0167315
910.764	0.0166730
910.842	0.0166402
910.920	0.0166763
910.998	0.0167554
911.076	0.0167369
911.155	0.0167203
911.233	0.0166394
911.311	0.0167307
911.389	0.0165071
911.467	0.0165630
911.545	0.0168020
911.623	0.0167970
911.701	0.0167224
911.780	0.0166574
911.858	0.0167533
911.936	0.0165682
912.014	0.0166238
912.092	0.0167049
912.170	0.0166577
912.248	0.0165747
912.326	0.0166924
912.405	0.0166639
912.483	0.0167917
912.561	0.0164959
912.639	0.0166445
912.717	0.0166190
912.795	0.0166540
912.873	0.0165961
912.951	0.0165247
913.030	0.0164914
913.108	0.0164915
913.186	0.0164761
913.264	0.0164555
913.342	0.0166943
913.420	0.0164983
913.498	0.0165135
913.576	0.0164117
913.655	0.0164068
913.733	0.0164018
913.811	0.0165456
913.889	0.0165295
913.967	0.0164620
914.045	0.0165237
914.123	0.0164048
914.201	0.0163792
914.280	0.0165410
914.358	0.0165070
914.436	0.0165336
914.514	0.0164822
914.592	0.0163368
914.670	0.0165194
914.748	0.0165537
914.826	0.0165209
914.905	0.0165420
914.983	0.0165701
915.061	0.0166206
915.139	0.0164229
915.217	0.0165070
915.295	0.0166053
915.373	0.0164896
915.451	0.0165289
915.530	0.0165800
915.608	0.0165249
915.686	0.0165547
915.764	0.0166089
915.842	0.0166000
915.920	0.0165054
915.998	0.0164788
916.076	0.0167103
916.155	0.0166314
916.233	0.0166790
916.311	0.0166559
916.389	0.0168131
916.467	0.0167329
916.545	0.0167126
916.623	0.0167245
916.701	0.0167587
916.780	0.0168433
916.858	0.0167786
916.936	0.0169233
917.014	0.0169067
917.092	0.0167704
917.170	0.0167278
917.248	0.0168302
917.326	0.0167683
917.405	0.0168996
917.483	0.0169811
917.561	0.0168201
917.639	0.0167643
917.717	0.0168493
917.795	0.0169171
917.873	0.0169288
917.951	0.0166613
918.030	0.0167418
918.108	0.0168283
918.186	0.0168544
918.264	0.0167065
918.342	0.0166540
918.420	0.0167307
918.498	0.0169002
918.576	0.0167809
918.655	0.0167445
918.733	0.0168098
918.811	0.0166893
918.889	0.0168544
918.967	0.0167934
919.045	0.0168016
919.123	0.0166973
919.201	0.0167404
919.280	0.0168172
919.358	0.0167483
919.436	0.0168519
919.514	0.0168060
919.592	0.0168650
919.670	0.0168575
919.748	0.0167875
919.826	0.0168034
919.905	0.0166270
919.983	0.0167747
920.061	0.0169292
920.139	0.0167728
920.217	0.0166814
920.295	0.0167667
920.373	0.0167685
920.451	0.0166887
920.530	0.0167056
920.608	0.0167560
920.686	0.0167598
920.764	0.0166230
920.842	0.0166998
920.920	0.0167069
920.998	0.0166380
921.076	0.0166381
921.155	0.0165387
921.233	0.0165968
921.311	0.0166273
921.389	0.0165617
921.467	0.0165161
921.545	0.0167559
921.623	0.0166194
921.701	0.0166993
921.780	0.0167078
921.858	0.0166662
921.936	0.0166570
922.014	0.0166415
922.092	0.0166674
922.170	0.0166711
922.248	0.0165489
922.326	0.0167407
922.405	0.0166510
922.483	0.0166808
922.561	0.0167525
922.639	0.0166211
922.717	0.0165621
922.795	0.0167588
922.873	0.0167052
922.951	0.0167994
923.030	0.0167172
923.108	0.0167206
923.186	0.0165646
923.264	0.0166270
923.342	0.0167224
923.420	0.0167039
923.498	0.0165517
923.576	0.0166340
923.655	0.0167908
923.733	0.0166913
923.811	0.0166786
923.889	0.0166988
923.967	0.0166730
924.045	0.0167322
924.123	0.0167494
924.201	0.0168447
924.280	0.0167624
924.358	0.0168062
924.436	0.0167809
924.514	0.0167883
924.592	0.0168116
924.670	0.0169204
924.748	0.0169225
924.826	0.0168159
924.905	0.0166776
924.983	0.0167878
925.061	0.0165842
925.139	0.0168123
925.217	0.0167821
925.295	0.0167570
925.373	0.0167149
925.451	0.0165125
925.530	0.0166324
925.608	0.0165460
925.686	0.0165331
925.764	0.0165804
925.842	0.0165992
925.920	0.0166741
925.998	0.0165370
926.076	0.0164568
926.155	0.0165479
926.233	0.0165914
926.311	0.0164484
926.389	0.0166011
926.467	0.0164687
926.545	0.0165841
926.623	0.0165853
926.701	0.0164420
926.780	0.0165967
926.858	0.0164756
926.936	0.0164685
927.014	0.0166463
927.092	0.0165782
927.170	0.0165706
927.248	0.0165942
927.326	0.0166502
927.405	0.0166689
927.483	0.0165714
927.561	0.0165545
927.639	0.0166655
927.717	0.0169633
927.795	0.0168455
927.873	0.0166938
927.951	0.0167468
928.030	0.0167504
928.108	0.0166659
928.186	0.0168212
928.264	0.0167502
928.342	0.0167534
928.420	0.0167905
928.498	0.0167957
928.576	0.0166965
928.655	0.0167271
928.733	0.0168253
928.811	0.0169792
928.889	0.0168794
928.967	0.0168873
929.045	0.0169290
929.123	0.0168138
929.201	0.0168603
929.280	0.0169002
929.358	0.0168098
929.436	0.0169189
929.514	0.0169416
929.592	0.0168221
929.670	0.0168321
929.748	0.0167934
929.826	0.0169667
929.905	0.0169196
929.983	0.0168559
930.061	0.0168171
930.139	0.0168782
930.217	0.0167472
930.295	0.0167448
930.373	0.0168821
930.451	0.0168978
930.530	0.0168499
930.608	0.0167692
930.686	0.0169372
930.764	0.0168829
930.842	0.0167809
930.920	0.0166751
930.998	0.0168638
931.076	0.0169101
931.155	0.0167964
931.233	0.0166513
931.311	0.0168650
931.389	0.0166908
931.467	0.0166221
931.545	0.0167277
931.623	0.0166774
931.701	0.0165601
931.780	0.0168046
931.858	0.0167072
931.936	0.0167015
932.014	0.0167450
932.092	0.0167939
932.170	0.0166913
932.248	0.0166275
932.326	0.0168001
932.405	0.0168466
932.483	0.0166921
932.561	0.0166966
932.639	0.0167108
932.717	0.0166456
932.795	0.0167084
932.873	0.0166472
932.951	0.0167932
933.030	0.0167078
933.108	0.0167854
933.186	0.0166998
933.264	0.0166210
933.342	0.0164980
933.420	0.0166758
933.498	0.0165800
933.576	0.0168512
933.655	0.0166753
933.733	0.0166677
933.811	0.0164821
933.889	0.0166012
933.967	0.0165726
934.045	0.0166865
934.123	0.0165566
934.201	0.0164568
934.280	0.0166006
934.358	0.0165937
934.436	0.0165618
934.514	0.0165977
934.592	0.0165565
934.670	0.0165751
934.748	0.0165062
934.826	0.0165993
934.905	0.0165599
934.983	0.0166588
935.061	0.0166224
935.139	0.0167216
935.217	0.0165802
935.295	0.0163983
935.373	0.0165714
935.451	0.0166995
935.530	0.0164941
935.608	0.0167081
935.686	0.0165751
935.764	0.0166142
935.842	0.0166771
935.920	0.0167033
935.998	0.0165150
936.076	0.0165491
936.155	0.0166093
936.233	0.0166546
936.311	0.0166988
936.389	0.0166214
936.467	0.0165087
936.545	0.0165793
936.623	0.0165673
936.701	0.0166243
936.780	0.0164571
936.858	0.0165045
936.936	0.0166626
937.014	0.0166664
937.092	0.0165120
937.170	0.0165952
937.248	0.0166042
937.326	0.0165506
937.405	0.0165624
937.483	0.0165717
937.561	0.0165151
937.639	0.0165191
937.717	0.0166286
937.795	0.0166772
937.873	0.0166344
937.951	0.0165893
938.030	0.0167168
938.108	0.0167738
938.186	0.0166852
938.264	0.0167554
938.342	0.0166331
938.420	0.0166978
938.498	0.0166322
938.576	0.0166933
938.655	0.0167188
938.733	0.0166780
938.811	0.0167263
938.889	0.0166347
938.967	0.0165773
939.045	0.0166147
939.123	0.0166386
939.201	0.0167402
939.280	0.0165367
939.358	0.0166734
939.436	0.0167890
939.514	0.0168550
939.592	0.0167430
939.670	0.0169110
939.748	0.0169913
939.826	0.0168567
939.905	0.0168158
939.983	0.0168356
940.061	0.0168114
940.139	0.0168436
940.217	0.0169578
940.295	0.0168324
940.373	0.0168618
940.451	0.0168395
940.530	0.0168562
940.608	0.0169748
940.686	0.0168243
940.764	0.0167411
940.842	0.0167950
940.920	0.0168665
940.998	0.0169259
941.076	0.0168173
941.155	0.0167404
941.233	0.0167301
941.311	0.0168437
941.389	0.0167746
941.467	0.0167770
941.545	0.0168653
941.623	0.0168513
941.701	0.0167423
941.780	0.0167569
941.858	0.0167654
941.936	0.0167202
942.014	0.0167683
942.092	0.0167067
942.170	0.0166420
942.248	0.0166175
942.326	0.0166922
942.405	0.0167984
942.483	0.0165588
942.561	0.0166485
942.639	0.0168201
942.717	0.0166943
942.795	0.0167050
942.873	0.0166257
942.951	0.0166891
943.030	0.0166896
943.108	0.0167098
943.186	0.0167845
943.264	0.0168116
943.342	0.0166930
943.420	0.0167085
943.498	0.0167661
943.576	0.0167690
943.655	0.0168642
943.733	0.0167326
943.811	0.0165505
943.889	0.0167175
943.967	0.0167255
944.045	0.0166673
944.123	0.0168296
944.201	0.0167172
944.280	0.0167295
944.358	0.0168557
944.436	0.0168046
944.514	0.0167761
944.592	0.0167554
944.670	0.0167919
944.748	0.0169184
944.826	0.0167496
944.905	0.0167042
944.983	0.0167963
945.061	0.0168594
945.139	0.0169111
945.217	0.0167168
945.295	0.0167363
945.373	0.0167923
945.451	0.0167010
945.530	0.0167168
945.608	0.0165993
945.686	0.0166507
945.764	0.0166081
945.842	0.0167110
945.920	0.0167734
945.998	0.0165884
946.076	0.0166408
946.155	0.0166630
946.233	0.0165692
946.311	0.0164620
946.389	0.0165752
946.467	0.0166521
946.545	0.0165464
946.623	0.0164322
946.701	0.0166057
946.780	0.0166154
946.858	0.0164871
946.936	0.0165042
947.014	0.0165755
947.092	0.0165440
947.170	0.0166853
947.248	0.0165502
947.326	0.0165188
947.405	0.0167186
947.483	0.0165684
947.561	0.0165460
947.639	0.0165643
947.717	0.0166038
947.795	0.0165981
947.873	0.0166466
947.951	0.0164925
948.030	0.0166157
948.108	0.0165440
948.186	0.0164719
948.264	0.0166453
948.342	0.0166496
948.420	0.0167345
948.498	0.0166560
948.576	0.0167107
948.655	0.0167628
948.733	0.0167206
948.811	0.0165432
948.889	0.0166915
948.967	0.0166752
949.045	0.0165649
949.123	0.0167329
949.201	0.0167313
949.280	0.0166502
949.358	0.0166868
949.436	0.0167928
949.514	0.0165908
949.592	0.0165747
949.670	0.0167501
949.748	0.0166460
949.826	0.0167590
949.905	0.0166580
949.983	0.0167616
950.061	0.0167380
950.139	0.0166689
950.217	0.0167961
950.295	0.0169413
950.373	0.0166309
950.451	0.0167149
950.530	0.0167773
950.608	0.0167471
950.686	0.0167118
950.764	0.0167622
950.842	0.0166413
950.920	0.0166178
950.998	0.0165961
951.076	0.0165754
951.155	0.0165731
951.233	0.0167693
951.311	0.0167060
951.389	0.0166106
951.467	0.0166787
951.545	0.0166994
951.623	0.0165585
951.701	0.0165488
951.780	0.0166888
951.858	0.0166537
951.936	0.0165945
952.014	0.0167380
952.092	0.0166349
952.170	0.0167760
952.248	0.0167893
952.326	0.0167620
952.405	0.0167899
952.483	0.0167056
952.561	0.0167277
952.639	0.0167954
952.717	0.0168894
952.795	0.0168949
952.873	0.0168377
952.951	0.0168472
953.030	0.0169543
953.108	0.0167364
953.186	0.0167883
953.264	0.0168227
953.342	0.0166478
953.420	0.0167083
953.498	0.0168351
953.576	0.0167636
953.655	0.0169243
953.733	0.0168846
953.811	0.0167503
953.889	0.0167369
953.967	0.0169560
954.045	0.0167426
954.123	0.0167090
954.201	0.0167416
954.280	0.0167853
954.358	0.0166378
954.436	0.0169115
954.514	0.0169322
954.592	0.0167582
954.670	0.0166813
954.748	0.0166963
954.826	0.0167259
954.905	0.0166641
954.983	0.0167276
955.061	0.0166955
955.139	0.0168250
955.217	0.0167148
955.295	0.0166633
955.373	0.0167571
955.451	0.0166721
955.530	0.0166724
955.608	0.0166096
955.686	0.0167862
955.764	0.0167152
955.842	0.0167754
955.920	0.0167461
955.998	0.0166432
956.076	0.0166882
956.155	0.0167611
956.233	0.0168589
956.311	0.0168058
956.389	0.0167258
956.467	0.0168185
956.545	0.0167971
956.623	0.0167995
956.701	0.0167070
956.780	0.0168493
956.858	0.0168121
956.936	0.0167932
957.014	0.0168096
957.092	0.0166904
957.170	0.0168346
957.248	0.0169127
957.326	0.0169769
957.405	0.0167409
957.483	0.0169116
957.561	0.0168774
957.639	0.0168415
957.717	0.0168599
957.795	0.0167862
957.873	0.0169724
957.951	0.0167966
958.030	0.0169007
958.108	0.0168612
958.186	0.0167661
958.264	0.0168989
958.342	0.0168524
958.420	0.0168478
958.498	0.0166745
958.576	0.0167564
958.655	0.0168943
958.733	0.0167773
958.811	0.0166753
958.889	0.0167559
958.967	0.0168078
959.045	0.0167130
959.123	0.0167459
959.201	0.0168037
959.280	0.0166368
959.358	0.0166946
959.436	0.0166600
959.514	0.0166769
959.592	0.0166297
959.670	0.0167657
959.748	0.0168294
959.826	0.0166804
959.905	0.0167244
