05/17/2022	17:19:50	Ver.	4.1	UNKNOWN
Optical Delay	639.982744	Delta X		0.078125	Sweeps	1	Scan Rate	0/0
Coordinates	Axis 1	NaN	Axis 2	NaN	Axis 3	NaN	Axis 4	NaN	Axis 5	NaN	Axis 6	0.000000
TX Power	0.000000	RX Power	0.000000

639.983	0.0166406
640.061	0.0167052
640.139	0.0166554
640.217	0.0166205
640.295	0.0166506
640.373	0.0166730
640.451	0.0167390
640.530	0.0167371
640.608	0.0165639
640.686	0.0165495
640.764	0.0165820
640.842	0.0165224
640.920	0.0166930
640.998	0.0166868
641.076	0.0165408
641.155	0.0166013
641.233	0.0166718
641.311	0.0165104
641.389	0.0166177
641.467	0.0166951
641.545	0.0164201
641.623	0.0166071
641.701	0.0165240
641.780	0.0165990
641.858	0.0165573
641.936	0.0166441
642.014	0.0166076
642.092	0.0167178
642.170	0.0168013
642.248	0.0165952
642.326	0.0165723
642.405	0.0167451
642.483	0.0167172
642.561	0.0166936
642.639	0.0166782
642.717	0.0167254
642.795	0.0167329
642.873	0.0167233
642.951	0.0169253
643.030	0.0168508
643.108	0.0167199
643.186	0.0167477
643.264	0.0166887
643.342	0.0168114
643.420	0.0167789
643.498	0.0166579
643.576	0.0166634
643.655	0.0166255
643.733	0.0167133
643.811	0.0165897
643.889	0.0165968
643.967	0.0166312
644.045	0.0166067
644.123	0.0165805
644.201	0.0165450
644.280	0.0165291
644.358	0.0166286
644.436	0.0166724
644.514	0.0166461
644.592	0.0166716
644.670	0.0165799
644.748	0.0165446
644.826	0.0168149
644.905	0.0167333
644.983	0.0166881
645.061	0.0167262
645.139	0.0168861
645.217	0.0167422
645.295	0.0168527
645.373	0.0168759
645.451	0.0168089
645.530	0.0170124
645.608	0.0170136
645.686	0.0170176
645.764	0.0169321
645.842	0.0170276
645.920	0.0170002
645.998	0.0168754
646.076	0.0169306
646.155	0.0168945
646.233	0.0169241
646.311	0.0168143
646.389	0.0167432
646.467	0.0169984
646.545	0.0167619
646.623	0.0166530
646.701	0.0166224
646.780	0.0168221
646.858	0.0167155
646.936	0.0167428
647.014	0.0166515
647.092	0.0165850
647.170	0.0165797
647.248	0.0165897
647.326	0.0165892
647.405	0.0167065
647.483	0.0166685
647.561	0.0166201
647.639	0.0165945
647.717	0.0167294
647.795	0.0166515
647.873	0.0166055
647.951	0.0166248
648.030	0.0166576
648.108	0.0166510
648.186	0.0167587
648.264	0.0167876
648.342	0.0166591
648.420	0.0166285
648.498	0.0168185
648.576	0.0167741
648.655	0.0168269
648.733	0.0168364
648.811	0.0167886
648.889	0.0167435
648.967	0.0169215
649.045	0.0167889
649.123	0.0167751
649.201	0.0166749
649.280	0.0166041
649.358	0.0166586
649.436	0.0166197
649.514	0.0166518
649.592	0.0166206
649.670	0.0166779
649.748	0.0165792
649.826	0.0165982
649.905	0.0165350
649.983	0.0164365
650.061	0.0166559
650.139	0.0166499
650.217	0.0165414
650.295	0.0166266
650.373	0.0165997
650.451	0.0165372
650.530	0.0165633
650.608	0.0165450
650.686	0.0166825
650.764	0.0166398
650.842	0.0165700
650.920	0.0166764
650.998	0.0166367
651.076	0.0167287
651.155	0.0167087
651.233	0.0165083
651.311	0.0164999
651.389	0.0165014
651.467	0.0166313
651.545	0.0166602
651.623	0.0165481
651.701	0.0166285
651.780	0.0165785
651.858	0.0165060
651.936	0.0167085
652.014	0.0165979
652.092	0.0165914
652.170	0.0167628
652.248	0.0168053
652.326	0.0166660
652.405	0.0165972
652.483	0.0166576
652.561	0.0169218
652.639	0.0167252
652.717	0.0166728
652.795	0.0167118
652.873	0.0168144
652.951	0.0168342
653.030	0.0168060
653.108	0.0167700
653.186	0.0166987
653.264	0.0167890
653.342	0.0168011
653.420	0.0168122
653.498	0.0168003
653.576	0.0167145
653.655	0.0168407
653.733	0.0168860
653.811	0.0166884
653.889	0.0167390
653.967	0.0168586
654.045	0.0168601
654.123	0.0167342
654.201	0.0168114
654.280	0.0165730
654.358	0.0166651
654.436	0.0165894
654.514	0.0166101
654.592	0.0166510
654.670	0.0165266
654.748	0.0165219
654.826	0.0165110
654.905	0.0165431
654.983	0.0165685
655.061	0.0166252
655.139	0.0165932
655.217	0.0165150
655.295	0.0164114
655.373	0.0165125
655.451	0.0164381
655.530	0.0165159
655.608	0.0166005
655.686	0.0164868
655.764	0.0166331
655.842	0.0165170
655.920	0.0165862
655.998	0.0165881
656.076	0.0165921
656.155	0.0166119
656.233	0.0166007
656.311	0.0165170
656.389	0.0164915
656.467	0.0166275
656.545	0.0165813
656.623	0.0165720
656.701	0.0166947
656.780	0.0165694
656.858	0.0165221
656.936	0.0165056
657.014	0.0166291
657.092	0.0166154
657.170	0.0166306
657.248	0.0166873
657.326	0.0166602
657.405	0.0165745
657.483	0.0165838
657.561	0.0166560
657.639	0.0167086
657.717	0.0166045
657.795	0.0167090
657.873	0.0165724
657.951	0.0166689
658.030	0.0165918
658.108	0.0166422
658.186	0.0165120
658.264	0.0164832
658.342	0.0165806
658.420	0.0164458
658.498	0.0165022
658.576	0.0165087
658.655	0.0164902
658.733	0.0165639
658.811	0.0164392
658.889	0.0165590
658.967	0.0165506
659.045	0.0164822
659.123	0.0167162
659.201	0.0166984
659.280	0.0165081
659.358	0.0165865
659.436	0.0167078
659.514	0.0166259
659.592	0.0166341
659.670	0.0167974
659.748	0.0168205
659.826	0.0168815
659.905	0.0169837
659.983	0.0168426
660.061	0.0168608
660.139	0.0169017
660.217	0.0168776
660.295	0.0168695
660.373	0.0168386
660.451	0.0167773
660.530	0.0167367
660.608	0.0167373
660.686	0.0165032
660.764	0.0164453
660.842	0.0164114
660.920	0.0164851
660.998	0.0163380
661.076	0.0161875
661.155	0.0162014
661.233	0.0162164
661.311	0.0161924
661.389	0.0162675
661.467	0.0162274
661.545	0.0161578
661.623	0.0162284
661.701	0.0163422
661.780	0.0161820
661.858	0.0162337
661.936	0.0162476
662.014	0.0164148
662.092	0.0165292
662.170	0.0162642
662.248	0.0165163
662.326	0.0165711
662.405	0.0166797
662.483	0.0166185
662.561	0.0167419
662.639	0.0168207
662.717	0.0168797
662.795	0.0171380
662.873	0.0170766
662.951	0.0169901
663.030	0.0170106
663.108	0.0170306
663.186	0.0171159
663.264	0.0170658
663.342	0.0171321
663.420	0.0171598
663.498	0.0171331
663.576	0.0171056
663.655	0.0171304
663.733	0.0170792
663.811	0.0170694
663.889	0.0170303
663.967	0.0170967
664.045	0.0170578
664.123	0.0171018
664.201	0.0171046
664.280	0.0169642
664.358	0.0168993
664.436	0.0170762
664.514	0.0168932
664.592	0.0168905
664.670	0.0169745
664.748	0.0169440
664.826	0.0170232
664.905	0.0170047
664.983	0.0169789
665.061	0.0168247
665.139	0.0168071
665.217	0.0167283
665.295	0.0166948
665.373	0.0165969
665.451	0.0164542
665.530	0.0164989
665.608	0.0163058
665.686	0.0162431
665.764	0.0162585
665.842	0.0161744
665.920	0.0161718
665.998	0.0161437
666.076	0.0160970
666.155	0.0160580
666.233	0.0159082
666.311	0.0160516
666.389	0.0160936
666.467	0.0158936
666.545	0.0161044
666.623	0.0160046
666.701	0.0160087
666.780	0.0160590
666.858	0.0161433
666.936	0.0163225
667.014	0.0162572
667.092	0.0164517
667.170	0.0164875
667.248	0.0164629
667.326	0.0165914
667.405	0.0167466
667.483	0.0168774
667.561	0.0168421
667.639	0.0170071
667.717	0.0169022
667.795	0.0171761
667.873	0.0171931
667.951	0.0172227
668.030	0.0172546
668.108	0.0174339
668.186	0.0173575
668.264	0.0175528
668.342	0.0175065
668.420	0.0174867
668.498	0.0172998
668.576	0.0173264
668.655	0.0174097
668.733	0.0174078
668.811	0.0174701
668.889	0.0173554
668.967	0.0173932
669.045	0.0173920
669.123	0.0172436
669.201	0.0172771
669.280	0.0173265
669.358	0.0170419
669.436	0.0172259
669.514	0.0171049
669.592	0.0170743
669.670	0.0168298
669.748	0.0168057
669.826	0.0167831
669.905	0.0166288
669.983	0.0166550
670.061	0.0163383
670.139	0.0163183
670.217	0.0163343
670.295	0.0164816
670.373	0.0161916
670.451	0.0161309
670.530	0.0159235
670.608	0.0158026
670.686	0.0158006
670.764	0.0158824
670.842	0.0158080
670.920	0.0156037
670.998	0.0156232
671.076	0.0157407
671.155	0.0158083
671.233	0.0156821
671.311	0.0156955
671.389	0.0158057
671.467	0.0159071
671.545	0.0158676
671.623	0.0160007
671.701	0.0160128
671.780	0.0160751
671.858	0.0161674
671.936	0.0162513
672.014	0.0163263
672.092	0.0164559
672.170	0.0164409
672.248	0.0166214
672.326	0.0168052
672.405	0.0169919
672.483	0.0169308
672.561	0.0170984
672.639	0.0171452
672.717	0.0172438
672.795	0.0173917
672.873	0.0174271
672.951	0.0174481
673.030	0.0175217
673.108	0.0175443
673.186	0.0175803
673.264	0.0177036
673.342	0.0177289
673.420	0.0176897
673.498	0.0175922
673.576	0.0176640
673.655	0.0175575
673.733	0.0175746
673.811	0.0175772
673.889	0.0174229
673.967	0.0174866
674.045	0.0173418
674.123	0.0174194
674.201	0.0173331
674.280	0.0172496
674.358	0.0172115
674.436	0.0171587
674.514	0.0168409
674.592	0.0168334
674.670	0.0166833
674.748	0.0165065
674.826	0.0163783
674.905	0.0162842
674.983	0.0161929
675.061	0.0161467
675.139	0.0159736
675.217	0.0158887
675.295	0.0156753
675.373	0.0157863
675.451	0.0156377
675.530	0.0156896
675.608	0.0156017
675.686	0.0155089
675.764	0.0155833
675.842	0.0158121
675.920	0.0157706
675.998	0.0158134
676.076	0.0158524
676.155	0.0159307
676.233	0.0159621
676.311	0.0160880
676.389	0.0161191
676.467	0.0162181
676.545	0.0163055
676.623	0.0164326
676.701	0.0163944
676.780	0.0166108
676.858	0.0166695
676.936	0.0167466
677.014	0.0168362
677.092	0.0168560
677.170	0.0168534
677.248	0.0169914
677.326	0.0168716
677.405	0.0169719
677.483	0.0170290
677.561	0.0169525
677.639	0.0170140
677.717	0.0170488
677.795	0.0170808
677.873	0.0169605
677.951	0.0170438
678.030	0.0169617
678.108	0.0170165
678.186	0.0169711
678.264	0.0169598
678.342	0.0171129
678.420	0.0170235
678.498	0.0170901
678.576	0.0170680
678.655	0.0170924
678.733	0.0171246
678.811	0.0172452
678.889	0.0171082
678.967	0.0170581
679.045	0.0170982
679.123	0.0171048
679.201	0.0171073
679.280	0.0170674
679.358	0.0171243
679.436	0.0171069
679.514	0.0169048
679.592	0.0169933
679.670	0.0169148
679.748	0.0167880
679.826	0.0167885
679.905	0.0167223
679.983	0.0166072
680.061	0.0168076
680.139	0.0168423
680.217	0.0165206
680.295	0.0166033
680.373	0.0167777
680.451	0.0166606
680.530	0.0165935
680.608	0.0166389
680.686	0.0165993
680.764	0.0166057
680.842	0.0166097
680.920	0.0166200
680.998	0.0165182
681.076	0.0165649
681.155	0.0163373
681.233	0.0164017
681.311	0.0164291
681.389	0.0163754
681.467	0.0162813
681.545	0.0163068
681.623	0.0163043
681.701	0.0161327
681.780	0.0161076
681.858	0.0161090
681.936	0.0160849
682.014	0.0161002
682.092	0.0161124
682.170	0.0161191
682.248	0.0160297
682.326	0.0162393
682.405	0.0162372
682.483	0.0160523
682.561	0.0161143
682.639	0.0161578
682.717	0.0162247
682.795	0.0161590
682.873	0.0161580
682.951	0.0162023
683.030	0.0162946
683.108	0.0162305
683.186	0.0161374
683.264	0.0164320
683.342	0.0163694
683.420	0.0163068
683.498	0.0165613
683.576	0.0166039
683.655	0.0166281
683.733	0.0167204
683.811	0.0169131
683.889	0.0169602
683.967	0.0170773
684.045	0.0170798
684.123	0.0170194
684.201	0.0171877
684.280	0.0171179
684.358	0.0171932
684.436	0.0174628
684.514	0.0173626
684.592	0.0175320
684.670	0.0174561
684.748	0.0173672
684.826	0.0176123
684.905	0.0176228
684.983	0.0176215
685.061	0.0175640
685.139	0.0176447
685.217	0.0175959
685.295	0.0175095
685.373	0.0174074
685.451	0.0173549
685.530	0.0173537
685.608	0.0172639
685.686	0.0171216
685.764	0.0170070
685.842	0.0169056
685.920	0.0167962
685.998	0.0166810
686.076	0.0166589
686.155	0.0164920
686.233	0.0165174
686.311	0.0165067
686.389	0.0163610
686.467	0.0161478
686.545	0.0161872
686.623	0.0161098
686.701	0.0160896
686.780	0.0162104
686.858	0.0159625
686.936	0.0159309
687.014	0.0160674
687.092	0.0161418
687.170	0.0160421
687.248	0.0160009
687.326	0.0160991
687.405	0.0161650
687.483	0.0161225
687.561	0.0163519
687.639	0.0161871
687.717	0.0163341
687.795	0.0162648
687.873	0.0162139
687.951	0.0163844
688.030	0.0164899
688.108	0.0162812
688.186	0.0163079
688.264	0.0162620
688.342	0.0162629
688.420	0.0161425
688.498	0.0162266
688.576	0.0161990
688.655	0.0162952
688.733	0.0161736
688.811	0.0161170
688.889	0.0161280
688.967	0.0162177
689.045	0.0162839
689.123	0.0163334
689.201	0.0163609
689.280	0.0163474
689.358	0.0164752
689.436	0.0164745
689.514	0.0165348
689.592	0.0167593
689.670	0.0169221
689.748	0.0170348
689.826	0.0170850
689.905	0.0172149
689.983	0.0172693
690.061	0.0173100
690.139	0.0173824
690.217	0.0175343
690.295	0.0176478
690.373	0.0175417
690.451	0.0176438
690.530	0.0178529
690.608	0.0178534
690.686	0.0178806
690.764	0.0178889
690.842	0.0177280
690.920	0.0177325
690.998	0.0175632
691.076	0.0176272
691.155	0.0175362
691.233	0.0175270
691.311	0.0173779
691.389	0.0173251
691.467	0.0172525
691.545	0.0171186
691.623	0.0170802
691.701	0.0169527
691.780	0.0169048
691.858	0.0167580
691.936	0.0165618
692.014	0.0165833
692.092	0.0164531
692.170	0.0165289
692.248	0.0162511
692.326	0.0161772
692.405	0.0162151
692.483	0.0161174
692.561	0.0159804
692.639	0.0158775
692.717	0.0158407
692.795	0.0157093
692.873	0.0155626
692.951	0.0156590
693.030	0.0157665
693.108	0.0155430
693.186	0.0155505
693.264	0.0155606
693.342	0.0156707
693.420	0.0159032
693.498	0.0158968
693.576	0.0159055
693.655	0.0159484
693.733	0.0160175
693.811	0.0161195
693.889	0.0162476
693.967	0.0163676
694.045	0.0164425
694.123	0.0163519
694.201	0.0165155
694.280	0.0167901
694.358	0.0168850
694.436	0.0168012
694.514	0.0168284
694.592	0.0168981
694.670	0.0171214
694.748	0.0171284
694.826	0.0171042
694.905	0.0173700
694.983	0.0172636
695.061	0.0172472
695.139	0.0172756
695.217	0.0173415
695.295	0.0174499
695.373	0.0175488
695.451	0.0175241
695.530	0.0176544
695.608	0.0176147
695.686	0.0177905
695.764	0.0177084
695.842	0.0177132
695.920	0.0177155
695.998	0.0177415
696.076	0.0177167
696.155	0.0178309
696.233	0.0175977
696.311	0.0175935
696.389	0.0173897
696.467	0.0173534
696.545	0.0172915
696.623	0.0172504
696.701	0.0171092
696.780	0.0169175
696.858	0.0167384
696.936	0.0166116
697.014	0.0166472
697.092	0.0163944
697.170	0.0162749
697.248	0.0161599
697.326	0.0160286
697.405	0.0159988
697.483	0.0158778
697.561	0.0158411
697.639	0.0156646
697.717	0.0157582
697.795	0.0156027
697.873	0.0156524
697.951	0.0156633
698.030	0.0156921
698.108	0.0155898
698.186	0.0157575
698.264	0.0159032
698.342	0.0158858
698.420	0.0158984
698.498	0.0159382
698.576	0.0159380
698.655	0.0159351
698.733	0.0160943
698.811	0.0161080
698.889	0.0162536
698.967	0.0161827
699.045	0.0162621
699.123	0.0162133
699.201	0.0163250
699.280	0.0162994
699.358	0.0162877
699.436	0.0163863
699.514	0.0165079
699.592	0.0164233
699.670	0.0167069
699.748	0.0167482
699.826	0.0167500
699.905	0.0167601
699.983	0.0167670
700.061	0.0168623
700.139	0.0168468
700.217	0.0169336
700.295	0.0171203
700.373	0.0170517
700.451	0.0170230
700.530	0.0171181
700.608	0.0170296
700.686	0.0171161
700.764	0.0170803
700.842	0.0171533
700.920	0.0171322
700.998	0.0172049
701.076	0.0170756
701.155	0.0169508
701.233	0.0170497
701.311	0.0170795
701.389	0.0169642
701.467	0.0170541
701.545	0.0170589
701.623	0.0168398
701.701	0.0170431
701.780	0.0171571
701.858	0.0169719
701.936	0.0171656
702.014	0.0171082
702.092	0.0169630
702.170	0.0170013
702.248	0.0170152
702.326	0.0170280
702.405	0.0170029
702.483	0.0169771
702.561	0.0169203
702.639	0.0168983
702.717	0.0169186
702.795	0.0166131
702.873	0.0166948
702.951	0.0167580
703.030	0.0165057
703.108	0.0164134
703.186	0.0164945
703.264	0.0164461
703.342	0.0162806
703.420	0.0162537
703.498	0.0161313
703.576	0.0162846
703.655	0.0161333
703.733	0.0161309
703.811	0.0161214
703.889	0.0161266
703.967	0.0160329
704.045	0.0161329
704.123	0.0162183
704.201	0.0162550
704.280	0.0162359
704.358	0.0162685
704.436	0.0162811
704.514	0.0163304
704.592	0.0164172
704.670	0.0163252
704.748	0.0165177
704.826	0.0165762
704.905	0.0165607
704.983	0.0165677
705.061	0.0169097
705.139	0.0168411
705.217	0.0170026
705.295	0.0169986
705.373	0.0169907
705.451	0.0170579
705.530	0.0170276
705.608	0.0171962
705.686	0.0171947
705.764	0.0172710
705.842	0.0170550
705.920	0.0171674
705.998	0.0172337
706.076	0.0172749
706.155	0.0171442
706.233	0.0170386
706.311	0.0171284
706.389	0.0171489
706.467	0.0170375
706.545	0.0171291
706.623	0.0170635
706.701	0.0170222
706.780	0.0168947
706.858	0.0170345
706.936	0.0169511
707.014	0.0169686
707.092	0.0168602
707.170	0.0168389
707.248	0.0167308
707.326	0.0167013
707.405	0.0168246
707.483	0.0168444
707.561	0.0166850
707.639	0.0166033
707.717	0.0164008
707.795	0.0165224
707.873	0.0164787
707.951	0.0163998
708.030	0.0164715
708.108	0.0165038
708.186	0.0162539
708.264	0.0162889
708.342	0.0162993
708.420	0.0162173
708.498	0.0162255
708.576	0.0161577
708.655	0.0162553
708.733	0.0161050
708.811	0.0161384
708.889	0.0161639
708.967	0.0161777
709.045	0.0161853
709.123	0.0162345
709.201	0.0162128
709.280	0.0160400
709.358	0.0161712
709.436	0.0163503
709.514	0.0162411
709.592	0.0161864
709.670	0.0163421
709.748	0.0163805
709.826	0.0163608
709.905	0.0164346
709.983	0.0162831
710.061	0.0163487
710.139	0.0163101
710.217	0.0161961
710.295	0.0163014
710.373	0.0164548
710.451	0.0164574
710.530	0.0165038
710.608	0.0165408
710.686	0.0166055
710.764	0.0166720
710.842	0.0166728
710.920	0.0168382
710.998	0.0168924
711.076	0.0169523
711.155	0.0171268
711.233	0.0170565
711.311	0.0171352
711.389	0.0171716
711.467	0.0171643
711.545	0.0173260
711.623	0.0172417
711.701	0.0171659
711.780	0.0173095
711.858	0.0173270
711.936	0.0171686
712.014	0.0171351
712.092	0.0170218
712.170	0.0170078
712.248	0.0170686
712.326	0.0169682
712.405	0.0168008
712.483	0.0167751
712.561	0.0168025
712.639	0.0167600
712.717	0.0166644
712.795	0.0166661
712.873	0.0164854
712.951	0.0163560
713.030	0.0163681
713.108	0.0165843
713.186	0.0165223
713.264	0.0163587
713.342	0.0165504
713.420	0.0165905
713.498	0.0164121
713.576	0.0164951
713.655	0.0165024
713.733	0.0166772
713.811	0.0165987
713.889	0.0163869
713.967	0.0164178
714.045	0.0164678
714.123	0.0165532
714.201	0.0164677
714.280	0.0163277
714.358	0.0163009
714.436	0.0163141
714.514	0.0162754
714.592	0.0161827
714.670	0.0162940
714.748	0.0161292
714.826	0.0161709
714.905	0.0160992
714.983	0.0161662
715.061	0.0160249
715.139	0.0161400
715.217	0.0161765
715.295	0.0161903
715.373	0.0162520
715.451	0.0162459
715.530	0.0163255
715.608	0.0164404
715.686	0.0165260
715.764	0.0165536
715.842	0.0167419
715.920	0.0166512
715.998	0.0167863
716.076	0.0169546
716.155	0.0169991
716.233	0.0171034
716.311	0.0171735
716.389	0.0171802
716.467	0.0173238
716.545	0.0173285
716.623	0.0172269
716.701	0.0174116
716.780	0.0172857
716.858	0.0171921
716.936	0.0172955
717.014	0.0174830
717.092	0.0173257
717.170	0.0172451
717.248	0.0171865
717.326	0.0172179
717.405	0.0173431
717.483	0.0171924
717.561	0.0171378
717.639	0.0172089
717.717	0.0170166
717.795	0.0170847
717.873	0.0170430
717.951	0.0168607
718.030	0.0169484
718.108	0.0168598
718.186	0.0168576
718.264	0.0168802
718.342	0.0166152
718.420	0.0165277
718.498	0.0165787
718.576	0.0163560
718.655	0.0163144
718.733	0.0164115
718.811	0.0162321
718.889	0.0163469
718.967	0.0162347
719.045	0.0160118
719.123	0.0160360
719.201	0.0161585
719.280	0.0159865
719.358	0.0158996
719.436	0.0159913
719.514	0.0160041
719.592	0.0159226
719.670	0.0158260
719.748	0.0159840
719.826	0.0161790
719.905	0.0161159
719.983	0.0162266
720.061	0.0163117
720.139	0.0164153
720.217	0.0166361
720.295	0.0167666
720.373	0.0167757
720.451	0.0169718
720.530	0.0169401
720.608	0.0169573
720.686	0.0171174
720.764	0.0171810
720.842	0.0170998
720.920	0.0173766
720.998	0.0174695
721.076	0.0173986
721.155	0.0174107
721.233	0.0173840
721.311	0.0174872
721.389	0.0174995
721.467	0.0174177
721.545	0.0174029
721.623	0.0174267
721.701	0.0172396
721.780	0.0170520
721.858	0.0170122
721.936	0.0172148
722.014	0.0169897
722.092	0.0168781
722.170	0.0168044
722.248	0.0167296
722.326	0.0166221
722.405	0.0165298
722.483	0.0165791
722.561	0.0165192
722.639	0.0164966
722.717	0.0164473
722.795	0.0163486
722.873	0.0163234
722.951	0.0162050
723.030	0.0162032
723.108	0.0160482
723.186	0.0161890
723.264	0.0161362
723.342	0.0161190
723.420	0.0162061
723.498	0.0160694
723.576	0.0160651
723.655	0.0161586
723.733	0.0162305
723.811	0.0162365
723.889	0.0162993
723.967	0.0162999
724.045	0.0164941
724.123	0.0165327
724.201	0.0164620
724.280	0.0165748
724.358	0.0166360
724.436	0.0167940
724.514	0.0167133
724.592	0.0168223
724.670	0.0167835
724.748	0.0169058
724.826	0.0170526
724.905	0.0169458
724.983	0.0168909
725.061	0.0170197
725.139	0.0169660
725.217	0.0168368
725.295	0.0168449
725.373	0.0168971
725.451	0.0168392
725.530	0.0167140
725.608	0.0166686
725.686	0.0165928
725.764	0.0165371
725.842	0.0164384
725.920	0.0165536
725.998	0.0165130
726.076	0.0163619
726.155	0.0163561
726.233	0.0162435
726.311	0.0163039
726.389	0.0163876
726.467	0.0162572
726.545	0.0163474
726.623	0.0164417
726.701	0.0163206
726.780	0.0164131
726.858	0.0164421
726.936	0.0165260
727.014	0.0163794
727.092	0.0165784
727.170	0.0166440
727.248	0.0167195
727.326	0.0167118
727.405	0.0166830
727.483	0.0168676
727.561	0.0168117
727.639	0.0169411
727.717	0.0169521
727.795	0.0170605
727.873	0.0170515
727.951	0.0171745
728.030	0.0171227
728.108	0.0169703
728.186	0.0170181
728.264	0.0169982
728.342	0.0170173
728.420	0.0171147
728.498	0.0169183
728.576	0.0169470
728.655	0.0169104
728.733	0.0168687
728.811	0.0168384
728.889	0.0167284
728.967	0.0166901
729.045	0.0167455
729.123	0.0165643
729.201	0.0167176
729.280	0.0166982
729.358	0.0166911
729.436	0.0167010
729.514	0.0164549
729.592	0.0166882
729.670	0.0165449
729.748	0.0165058
729.826	0.0165139
729.905	0.0166393
729.983	0.0165572
730.061	0.0164391
730.139	0.0165578
730.217	0.0165392
730.295	0.0165480
730.373	0.0164681
730.451	0.0165307
730.530	0.0165470
730.608	0.0165063
730.686	0.0165356
730.764	0.0165135
730.842	0.0164658
730.920	0.0164817
730.998	0.0164777
731.076	0.0164942
731.155	0.0166077
731.233	0.0166371
731.311	0.0166187
731.389	0.0165787
731.467	0.0167352
731.545	0.0166722
731.623	0.0167314
731.701	0.0168177
731.780	0.0167533
731.858	0.0169255
731.936	0.0167142
732.014	0.0170451
732.092	0.0169791
732.170	0.0168669
732.248	0.0169657
732.326	0.0169736
732.405	0.0168652
732.483	0.0169738
732.561	0.0169284
732.639	0.0170599
732.717	0.0170869
732.795	0.0169376
732.873	0.0170879
732.951	0.0170467
733.030	0.0170691
733.108	0.0171439
733.186	0.0169196
733.264	0.0169196
733.342	0.0170613
733.420	0.0170104
733.498	0.0167451
733.576	0.0168061
733.655	0.0167305
733.733	0.0167821
733.811	0.0167889
733.889	0.0166216
733.967	0.0167242
734.045	0.0166293
734.123	0.0166883
734.201	0.0166306
734.280	0.0165411
734.358	0.0166682
734.436	0.0165984
734.514	0.0166205
734.592	0.0165951
734.670	0.0167008
734.748	0.0165903
734.826	0.0163308
734.905	0.0165084
734.983	0.0164922
735.061	0.0163824
735.139	0.0165017
735.217	0.0165341
735.295	0.0164397
735.373	0.0163972
735.451	0.0164568
735.530	0.0164737
735.608	0.0163926
735.686	0.0164700
735.764	0.0163280
735.842	0.0164836
735.920	0.0164451
735.998	0.0164156
736.076	0.0163811
736.155	0.0164513
736.233	0.0164429
736.311	0.0164351
736.389	0.0164104
736.467	0.0164011
736.545	0.0164159
736.623	0.0165104
736.701	0.0165308
736.780	0.0164633
736.858	0.0166071
736.936	0.0167002
737.014	0.0167670
737.092	0.0166212
737.170	0.0165791
737.248	0.0165892
737.326	0.0166555
737.405	0.0167406
737.483	0.0165873
737.561	0.0165561
737.639	0.0166002
737.717	0.0165848
737.795	0.0165707
737.873	0.0164167
737.951	0.0165274
738.030	0.0164230
738.108	0.0163992
738.186	0.0162459
738.264	0.0163713
738.342	0.0163098
738.420	0.0162305
738.498	0.0162215
738.576	0.0161210
738.655	0.0162144
738.733	0.0163782
738.811	0.0162936
738.889	0.0162462
738.967	0.0164291
739.045	0.0164092
739.123	0.0162925
739.201	0.0164429
739.280	0.0164240
739.358	0.0164746
739.436	0.0165082
739.514	0.0165372
739.592	0.0166018
739.670	0.0166125
739.748	0.0169003
739.826	0.0167271
739.905	0.0167311
739.983	0.0168877
740.061	0.0168101
740.139	0.0168575
740.217	0.0167905
740.295	0.0169675
740.373	0.0167731
740.451	0.0168075
740.530	0.0168126
740.608	0.0167805
740.686	0.0166897
740.764	0.0166877
740.842	0.0167517
740.920	0.0165178
740.998	0.0165046
741.076	0.0166322
741.155	0.0164856
741.233	0.0165271
741.311	0.0164788
741.389	0.0166212
741.467	0.0165063
741.545	0.0165848
741.623	0.0164637
741.701	0.0163503
741.780	0.0165833
741.858	0.0166511
741.936	0.0165762
742.014	0.0168531
742.092	0.0166549
742.170	0.0167098
742.248	0.0167456
742.326	0.0167448
742.405	0.0169259
742.483	0.0169321
742.561	0.0169688
742.639	0.0171071
742.717	0.0170081
742.795	0.0169276
742.873	0.0169109
742.951	0.0169810
743.030	0.0169785
743.108	0.0170106
743.186	0.0168939
743.264	0.0169550
743.342	0.0170075
743.420	0.0169373
743.498	0.0168306
743.576	0.0168192
743.655	0.0168822
743.733	0.0167469
743.811	0.0167627
743.889	0.0167741
743.967	0.0168472
744.045	0.0168507
744.123	0.0167694
744.201	0.0168443
744.280	0.0168279
744.358	0.0169075
744.436	0.0169891
744.514	0.0168250
744.592	0.0168593
744.670	0.0168784
744.748	0.0169997
744.826	0.0170355
744.905	0.0171146
744.983	0.0169455
745.061	0.0169863
745.139	0.0171400
745.217	0.0169243
745.295	0.0170475
745.373	0.0170224
745.451	0.0169091
745.530	0.0169073
745.608	0.0167669
745.686	0.0168079
745.764	0.0166624
745.842	0.0166631
745.920	0.0166341
745.998	0.0166989
746.076	0.0164941
746.155	0.0164872
746.233	0.0164120
746.311	0.0164705
746.389	0.0165034
746.467	0.0164492
746.545	0.0164951
746.623	0.0165541
746.701	0.0164220
746.780	0.0164922
746.858	0.0167168
746.936	0.0166090
747.014	0.0166084
747.092	0.0164737
747.170	0.0165723
747.248	0.0165585
747.326	0.0166460
747.405	0.0166935
747.483	0.0166041
747.561	0.0165229
747.639	0.0166050
747.717	0.0166742
747.795	0.0166122
747.873	0.0166953
747.951	0.0164825
748.030	0.0166402
748.108	0.0165666
748.186	0.0165713
748.264	0.0165612
748.342	0.0164055
748.420	0.0164931
748.498	0.0163190
748.576	0.0162654
748.655	0.0163570
748.733	0.0164070
748.811	0.0163982
748.889	0.0164423
748.967	0.0164601
749.045	0.0165819
749.123	0.0163963
749.201	0.0164568
749.280	0.0165094
749.358	0.0165921
749.436	0.0165320
749.514	0.0167107
749.592	0.0167144
749.670	0.0166001
749.748	0.0165985
749.826	0.0166124
749.905	0.0166192
749.983	0.0167576
750.061	0.0167212
750.139	0.0166031
750.217	0.0166541
750.295	0.0166694
750.373	0.0167120
750.451	0.0167633
750.530	0.0168604
750.608	0.0168002
750.686	0.0168355
750.764	0.0169512
750.842	0.0168176
750.920	0.0169070
750.998	0.0170422
751.076	0.0169636
751.155	0.0170819
751.233	0.0167991
751.311	0.0169701
751.389	0.0171507
751.467	0.0169190
751.545	0.0169152
751.623	0.0170503
751.701	0.0169623
751.780	0.0169707
751.858	0.0169205
751.936	0.0168134
752.014	0.0169565
752.092	0.0167914
752.170	0.0168763
752.248	0.0169971
752.326	0.0167579
752.405	0.0167098
752.483	0.0167583
752.561	0.0167822
752.639	0.0166099
752.717	0.0166389
752.795	0.0166800
752.873	0.0165762
752.951	0.0165607
753.030	0.0166682
753.108	0.0166921
753.186	0.0166498
753.264	0.0166592
753.342	0.0166603
753.420	0.0166265
753.498	0.0165568
753.576	0.0165456
753.655	0.0165926
753.733	0.0167325
753.811	0.0165634
753.889	0.0165278
753.967	0.0165237
754.045	0.0164765
754.123	0.0164306
754.201	0.0165094
754.280	0.0165768
754.358	0.0164339
754.436	0.0162466
754.514	0.0165353
754.592	0.0164637
754.670	0.0165022
754.748	0.0165194
754.826	0.0166548
754.905	0.0166150
754.983	0.0166122
755.061	0.0166311
755.139	0.0166625
755.217	0.0166197
755.295	0.0167722
755.373	0.0166701
755.451	0.0168408
755.530	0.0167907
755.608	0.0168364
755.686	0.0166169
755.764	0.0168326
755.842	0.0168446
755.920	0.0167947
755.998	0.0168297
756.076	0.0168746
756.155	0.0168322
756.233	0.0167715
756.311	0.0167567
756.389	0.0169143
756.467	0.0168526
756.545	0.0167492
756.623	0.0166782
756.701	0.0167737
756.780	0.0167326
756.858	0.0167754
756.936	0.0167242
757.014	0.0167032
757.092	0.0166951
757.170	0.0166464
757.248	0.0166829
757.326	0.0166376
757.405	0.0167003
757.483	0.0168833
757.561	0.0166740
757.639	0.0167482
757.717	0.0165729
757.795	0.0166750
757.873	0.0166434
757.951	0.0166894
758.030	0.0166450
758.108	0.0165636
758.186	0.0167073
758.264	0.0166322
758.342	0.0165269
758.420	0.0165310
758.498	0.0163927
758.576	0.0163956
758.655	0.0164074
758.733	0.0165010
758.811	0.0162939
758.889	0.0165144
758.967	0.0163094
759.045	0.0161047
759.123	0.0162651
759.201	0.0162512
759.280	0.0162653
759.358	0.0162735
759.436	0.0161901
759.514	0.0163147
759.592	0.0163620
759.670	0.0162003
759.748	0.0162408
759.826	0.0163231
759.905	0.0163741
759.983	0.0163641
760.061	0.0163992
760.139	0.0165687
760.217	0.0164600
760.295	0.0164703
760.373	0.0166107
760.451	0.0166569
760.530	0.0167547
760.608	0.0167454
760.686	0.0167081
760.764	0.0167208
760.842	0.0168319
760.920	0.0167765
760.998	0.0169273
761.076	0.0167467
761.155	0.0167451
761.233	0.0167225
761.311	0.0167841
761.389	0.0169411
761.467	0.0166877
761.545	0.0166868
761.623	0.0165524
761.701	0.0167207
761.780	0.0165929
761.858	0.0165657
761.936	0.0166331
762.014	0.0164741
762.092	0.0164007
762.170	0.0164816
762.248	0.0165082
762.326	0.0165317
762.405	0.0164648
762.483	0.0164923
762.561	0.0163557
762.639	0.0165202
762.717	0.0166036
762.795	0.0164665
762.873	0.0165454
762.951	0.0166360
763.030	0.0166270
763.108	0.0166755
763.186	0.0167899
763.264	0.0166553
763.342	0.0166252
763.420	0.0165944
763.498	0.0169454
763.576	0.0169517
763.655	0.0168913
763.733	0.0169894
763.811	0.0170757
763.889	0.0170620
763.967	0.0169496
764.045	0.0168773
764.123	0.0169527
764.201	0.0170340
764.280	0.0171426
764.358	0.0170003
764.436	0.0167732
764.514	0.0169585
764.592	0.0168557
764.670	0.0168594
764.748	0.0168869
764.826	0.0167477
764.905	0.0169044
764.983	0.0169904
765.061	0.0167619
765.139	0.0168616
765.217	0.0170691
765.295	0.0167390
765.373	0.0169077
765.451	0.0167616
765.530	0.0168298
765.608	0.0168359
765.686	0.0167165
765.764	0.0167698
765.842	0.0168944
765.920	0.0167634
765.998	0.0167601
766.076	0.0167403
766.155	0.0166837
766.233	0.0166714
766.311	0.0165851
766.389	0.0166561
766.467	0.0166183
766.545	0.0166509
766.623	0.0164991
766.701	0.0164723
766.780	0.0163355
766.858	0.0164317
766.936	0.0165687
767.014	0.0164589
767.092	0.0163979
767.170	0.0163110
767.248	0.0163630
767.326	0.0163460
767.405	0.0163621
767.483	0.0162332
767.561	0.0161862
767.639	0.0162034
767.717	0.0163436
767.795	0.0162797
767.873	0.0162707
767.951	0.0162542
768.030	0.0163363
768.108	0.0164210
768.186	0.0163482
768.264	0.0163257
768.342	0.0164275
768.420	0.0166003
768.498	0.0164223
768.576	0.0165656
768.655	0.0165882
768.733	0.0164080
768.811	0.0163776
768.889	0.0166524
768.967	0.0165715
769.045	0.0165812
769.123	0.0166013
769.201	0.0166222
769.280	0.0167503
769.358	0.0166953
769.436	0.0165884
769.514	0.0164575
769.592	0.0167440
769.670	0.0166669
769.748	0.0167019
769.826	0.0167184
769.905	0.0167328
769.983	0.0168181
770.061	0.0167285
770.139	0.0167010
770.217	0.0167780
770.295	0.0166348
770.373	0.0166565
770.451	0.0166788
770.530	0.0167197
770.608	0.0166856
770.686	0.0168299
770.764	0.0167179
770.842	0.0167153
770.920	0.0166753
770.998	0.0167645
771.076	0.0166791
771.155	0.0168198
771.233	0.0167501
771.311	0.0166996
771.389	0.0166016
771.467	0.0165836
771.545	0.0166916
771.623	0.0167845
771.701	0.0165969
771.780	0.0166428
771.858	0.0167278
771.936	0.0166136
772.014	0.0166209
772.092	0.0167220
772.170	0.0166254
772.248	0.0167573
772.326	0.0167609
772.405	0.0165824
772.483	0.0165872
772.561	0.0166153
772.639	0.0165650
772.717	0.0166126
772.795	0.0165822
772.873	0.0166830
772.951	0.0166526
773.030	0.0166113
773.108	0.0164781
773.186	0.0166994
773.264	0.0165312
773.342	0.0165421
773.420	0.0164886
773.498	0.0165205
773.576	0.0165013
773.655	0.0164396
773.733	0.0166225
773.811	0.0166231
773.889	0.0167204
773.967	0.0167533
774.045	0.0167393
774.123	0.0167382
774.201	0.0167519
774.280	0.0168440
774.358	0.0169604
774.436	0.0169312
774.514	0.0167649
774.592	0.0168214
774.670	0.0170021
774.748	0.0171239
774.826	0.0168024
774.905	0.0168339
774.983	0.0169233
775.061	0.0169524
775.139	0.0171456
775.217	0.0171429
775.295	0.0171063
775.373	0.0170587
775.451	0.0171414
775.530	0.0170314
775.608	0.0170675
775.686	0.0170263
775.764	0.0170022
775.842	0.0169347
775.920	0.0169875
775.998	0.0168603
776.076	0.0169047
776.155	0.0169556
776.233	0.0169602
776.311	0.0168947
776.389	0.0168484
776.467	0.0168837
776.545	0.0167776
776.623	0.0167534
776.701	0.0167911
776.780	0.0165351
776.858	0.0165653
776.936	0.0164661
777.014	0.0165824
777.092	0.0165224
777.170	0.0165667
777.248	0.0164340
777.326	0.0165700
777.405	0.0164695
777.483	0.0164814
777.561	0.0165361
777.639	0.0164075
777.717	0.0165417
777.795	0.0165395
777.873	0.0165996
777.951	0.0166101
778.030	0.0164175
778.108	0.0163117
778.186	0.0165098
778.264	0.0164765
778.342	0.0164383
778.420	0.0164410
778.498	0.0164899
778.576	0.0164960
778.655	0.0164137
778.733	0.0163940
778.811	0.0165514
778.889	0.0164278
778.967	0.0163829
779.045	0.0165404
779.123	0.0165215
779.201	0.0164249
779.280	0.0164793
779.358	0.0166464
779.436	0.0166029
779.514	0.0164135
779.592	0.0165572
779.670	0.0166119
779.748	0.0165424
779.826	0.0165514
779.905	0.0167506
779.983	0.0167355
780.061	0.0166912
780.139	0.0167101
780.217	0.0167250
780.295	0.0168240
780.373	0.0169483
780.451	0.0167737
780.530	0.0169813
780.608	0.0167937
780.686	0.0169231
780.764	0.0168960
780.842	0.0168958
780.920	0.0167629
780.998	0.0168557
781.076	0.0167837
781.155	0.0169333
781.233	0.0169046
781.311	0.0168611
781.389	0.0168205
781.467	0.0167878
781.545	0.0169074
781.623	0.0168896
781.701	0.0168539
781.780	0.0169523
781.858	0.0167766
781.936	0.0167065
782.014	0.0168246
782.092	0.0168401
782.170	0.0167661
782.248	0.0166477
782.326	0.0166041
782.405	0.0167068
782.483	0.0167413
782.561	0.0166752
782.639	0.0166138
782.717	0.0164349
782.795	0.0164405
782.873	0.0165934
782.951	0.0165131
783.030	0.0165136
783.108	0.0164879
783.186	0.0163930
783.264	0.0163744
783.342	0.0164027
783.420	0.0164324
783.498	0.0164395
783.576	0.0164894
783.655	0.0164520
783.733	0.0162447
783.811	0.0162569
783.889	0.0165220
783.967	0.0164524
784.045	0.0163628
784.123	0.0163603
784.201	0.0164459
784.280	0.0164769
784.358	0.0165032
784.436	0.0164454
784.514	0.0163654
784.592	0.0165412
784.670	0.0165178
784.748	0.0164048
784.826	0.0166884
784.905	0.0166048
784.983	0.0166219
785.061	0.0165795
785.139	0.0166788
785.217	0.0165438
785.295	0.0166689
785.373	0.0167929
785.451	0.0167443
785.530	0.0166090
785.608	0.0168037
785.686	0.0166695
785.764	0.0168243
785.842	0.0167833
785.920	0.0167606
785.998	0.0168043
786.076	0.0168565
786.155	0.0168087
786.233	0.0168256
786.311	0.0169331
786.389	0.0169373
786.467	0.0170029
786.545	0.0169971
786.623	0.0169250
786.701	0.0169496
786.780	0.0169480
786.858	0.0170127
786.936	0.0170168
787.014	0.0169511
787.092	0.0169427
787.170	0.0168114
787.248	0.0169043
787.326	0.0167005
787.405	0.0167328
787.483	0.0168203
787.561	0.0168254
787.639	0.0167419
787.717	0.0168021
787.795	0.0166461
787.873	0.0165240
787.951	0.0166560
788.030	0.0166102
788.108	0.0167205
788.186	0.0166176
788.264	0.0166119
788.342	0.0164102
788.420	0.0164605
788.498	0.0165229
788.576	0.0163806
788.655	0.0163231
788.733	0.0163815
788.811	0.0164626
788.889	0.0163723
788.967	0.0164589
789.045	0.0162876
789.123	0.0163770
789.201	0.0164863
789.280	0.0164353
789.358	0.0162587
789.436	0.0162155
789.514	0.0164734
789.592	0.0164606
789.670	0.0164130
789.748	0.0164072
789.826	0.0165031
789.905	0.0165253
789.983	0.0165359
790.061	0.0165675
790.139	0.0165804
790.217	0.0164635
790.295	0.0166698
790.373	0.0166513
790.451	0.0168092
790.530	0.0166953
790.608	0.0167064
790.686	0.0168694
790.764	0.0168375
790.842	0.0167867
790.920	0.0170786
790.998	0.0169918
791.076	0.0169247
791.155	0.0168210
791.233	0.0169551
791.311	0.0168872
791.389	0.0170174
791.467	0.0170874
791.545	0.0170379
791.623	0.0170775
791.701	0.0170389
791.780	0.0170184
791.858	0.0170631
791.936	0.0170264
792.014	0.0170369
792.092	0.0170698
792.170	0.0169578
792.248	0.0170762
792.326	0.0170860
792.405	0.0169579
792.483	0.0170229
792.561	0.0170633
792.639	0.0169644
792.717	0.0168095
792.795	0.0168460
792.873	0.0168646
792.951	0.0167192
793.030	0.0168041
793.108	0.0166552
793.186	0.0166895
793.264	0.0166885
793.342	0.0167089
793.420	0.0165515
793.498	0.0165983
793.576	0.0165885
793.655	0.0166824
793.733	0.0166860
793.811	0.0165249
793.889	0.0165318
793.967	0.0166260
794.045	0.0166305
794.123	0.0165816
794.201	0.0164838
794.280	0.0165041
794.358	0.0164919
794.436	0.0164091
794.514	0.0165478
794.592	0.0164503
794.670	0.0166254
794.748	0.0164243
794.826	0.0165395
794.905	0.0164483
794.983	0.0164379
795.061	0.0165503
795.139	0.0164273
795.217	0.0164789
795.295	0.0164630
795.373	0.0165153
795.451	0.0164910
795.530	0.0164491
795.608	0.0164911
795.686	0.0165294
795.764	0.0163914
795.842	0.0165250
795.920	0.0166138
795.998	0.0165480
796.076	0.0167132
796.155	0.0166821
796.233	0.0166869
796.311	0.0168036
796.389	0.0168418
796.467	0.0167407
796.545	0.0167671
796.623	0.0168768
796.701	0.0169107
796.780	0.0168575
796.858	0.0166856
796.936	0.0169116
797.014	0.0168463
797.092	0.0168031
797.170	0.0168392
797.248	0.0168653
797.326	0.0169001
797.405	0.0168400
797.483	0.0168619
797.561	0.0169169
797.639	0.0167596
797.717	0.0166711
797.795	0.0166972
797.873	0.0168796
797.951	0.0166608
798.030	0.0166934
798.108	0.0167499
798.186	0.0166882
798.264	0.0166508
798.342	0.0167662
798.420	0.0166631
798.498	0.0165969
798.576	0.0167211
798.655	0.0166711
798.733	0.0168098
798.811	0.0166711
798.889	0.0167941
798.967	0.0167874
799.045	0.0168079
799.123	0.0167585
799.201	0.0167738
799.280	0.0167260
799.358	0.0167321
799.436	0.0167002
799.514	0.0167399
799.592	0.0167093
799.670	0.0165018
799.748	0.0166279
799.826	0.0165569
799.905	0.0165754
799.983	0.0166884
800.061	0.0165288
800.139	0.0164243
800.217	0.0165416
800.295	0.0167199
800.373	0.0164942
800.451	0.0163046
800.530	0.0164483
800.608	0.0164816
800.686	0.0165447
800.764	0.0165057
800.842	0.0165575
800.920	0.0165619
800.998	0.0167085
801.076	0.0164561
801.155	0.0165807
801.233	0.0166429
801.311	0.0165791
801.389	0.0165701
801.467	0.0167572
801.545	0.0168186
801.623	0.0167400
801.701	0.0168324
801.780	0.0167573
801.858	0.0166419
801.936	0.0166920
802.014	0.0168182
802.092	0.0167549
802.170	0.0169524
802.248	0.0167853
802.326	0.0169283
802.405	0.0171250
802.483	0.0167646
802.561	0.0168272
802.639	0.0167992
802.717	0.0167883
802.795	0.0167249
802.873	0.0167715
802.951	0.0168214
803.030	0.0168127
803.108	0.0168710
803.186	0.0168009
803.264	0.0168307
803.342	0.0167744
803.420	0.0166328
803.498	0.0167310
803.576	0.0166714
803.655	0.0166266
803.733	0.0168340
803.811	0.0167239
803.889	0.0167306
803.967	0.0166167
804.045	0.0165836
804.123	0.0166498
804.201	0.0166373
804.280	0.0166327
804.358	0.0165055
804.436	0.0165620
804.514	0.0164414
804.592	0.0165228
804.670	0.0165642
804.748	0.0164279
804.826	0.0165971
804.905	0.0164190
804.983	0.0164729
805.061	0.0165924
805.139	0.0164882
805.217	0.0163945
805.295	0.0164845
805.373	0.0164265
805.451	0.0163895
805.530	0.0164617
805.608	0.0164999
805.686	0.0164846
805.764	0.0165263
805.842	0.0165080
805.920	0.0163533
805.998	0.0165656
806.076	0.0165182
806.155	0.0164757
806.233	0.0167040
806.311	0.0166696
806.389	0.0166531
806.467	0.0165940
806.545	0.0166308
806.623	0.0166824
806.701	0.0167941
806.780	0.0168672
806.858	0.0167517
806.936	0.0166930
807.014	0.0167350
807.092	0.0167696
807.170	0.0167676
807.248	0.0168529
807.326	0.0167584
807.405	0.0169596
807.483	0.0170289
807.561	0.0168232
807.639	0.0168951
807.717	0.0167609
807.795	0.0168769
807.873	0.0167097
807.951	0.0167741
808.030	0.0167787
808.108	0.0167947
808.186	0.0168105
808.264	0.0168367
808.342	0.0167779
808.420	0.0165977
808.498	0.0164984
808.576	0.0167848
808.655	0.0166100
808.733	0.0165501
808.811	0.0165341
808.889	0.0166246
808.967	0.0165279
809.045	0.0165503
809.123	0.0166473
809.201	0.0165514
809.280	0.0165320
809.358	0.0164997
809.436	0.0165997
809.514	0.0165458
809.592	0.0164834
809.670	0.0165347
809.748	0.0165372
809.826	0.0165596
809.905	0.0165963
809.983	0.0165681
810.061	0.0167287
810.139	0.0168095
810.217	0.0167712
810.295	0.0167208
810.373	0.0166068
810.451	0.0165987
810.530	0.0166753
810.608	0.0165395
810.686	0.0167709
810.764	0.0167403
810.842	0.0167082
810.920	0.0167707
810.998	0.0166767
811.076	0.0167190
811.155	0.0167018
811.233	0.0166926
811.311	0.0167864
811.389	0.0167104
811.467	0.0167923
811.545	0.0168244
811.623	0.0166744
811.701	0.0166742
811.780	0.0167253
811.858	0.0167159
811.936	0.0168654
812.014	0.0166872
812.092	0.0166752
812.170	0.0167117
812.248	0.0167921
812.326	0.0167521
812.405	0.0167168
812.483	0.0167373
812.561	0.0167484
812.639	0.0167860
812.717	0.0167026
812.795	0.0168575
812.873	0.0167496
812.951	0.0168204
813.030	0.0166024
813.108	0.0168537
813.186	0.0166845
813.264	0.0167658
813.342	0.0168681
813.420	0.0167749
813.498	0.0166937
813.576	0.0167709
813.655	0.0167600
813.733	0.0169380
813.811	0.0167614
813.889	0.0166286
813.967	0.0168350
814.045	0.0166698
814.123	0.0165917
814.201	0.0165994
814.280	0.0166833
814.358	0.0167645
814.436	0.0166820
814.514	0.0165855
814.592	0.0164988
814.670	0.0166102
814.748	0.0164616
814.826	0.0165498
814.905	0.0165679
814.983	0.0165314
815.061	0.0165718
815.139	0.0164195
815.217	0.0166145
815.295	0.0165066
815.373	0.0163480
815.451	0.0164877
815.530	0.0165293
815.608	0.0164541
815.686	0.0163936
815.764	0.0164101
815.842	0.0163345
815.920	0.0163560
815.998	0.0163942
816.076	0.0164893
816.155	0.0163585
816.233	0.0164722
816.311	0.0164495
816.389	0.0164355
816.467	0.0164109
816.545	0.0164458
816.623	0.0164937
816.701	0.0166180
816.780	0.0164793
816.858	0.0165509
816.936	0.0166749
817.014	0.0165385
817.092	0.0165101
817.170	0.0165223
817.248	0.0167046
817.326	0.0167562
817.405	0.0165899
817.483	0.0166191
817.561	0.0167110
817.639	0.0166716
817.717	0.0168065
817.795	0.0169619
817.873	0.0168561
817.951	0.0168155
818.030	0.0166855
818.108	0.0167657
818.186	0.0168160
818.264	0.0167937
818.342	0.0168069
818.420	0.0168887
818.498	0.0168226
818.576	0.0168630
818.655	0.0169254
818.733	0.0168508
818.811	0.0168013
818.889	0.0168349
818.967	0.0168301
819.045	0.0168301
819.123	0.0167951
819.201	0.0166398
819.280	0.0166972
819.358	0.0168742
819.436	0.0166576
819.514	0.0165781
819.592	0.0166780
819.670	0.0165896
819.748	0.0165556
819.826	0.0163765
819.905	0.0165070
819.983	0.0166766
820.061	0.0165218
820.139	0.0165702
820.217	0.0165603
820.295	0.0164971
820.373	0.0166390
820.451	0.0165807
820.530	0.0166309
820.608	0.0166567
820.686	0.0166042
820.764	0.0166521
820.842	0.0166483
820.920	0.0166616
820.998	0.0166472
821.076	0.0166023
821.155	0.0165647
821.233	0.0166760
821.311	0.0167204
821.389	0.0166726
821.467	0.0167688
821.545	0.0166735
821.623	0.0164863
821.701	0.0165421
821.780	0.0167345
821.858	0.0167219
821.936	0.0167643
822.014	0.0166210
822.092	0.0166602
822.170	0.0166012
822.248	0.0165510
822.326	0.0166689
822.405	0.0165742
822.483	0.0166080
822.561	0.0166409
822.639	0.0166647
822.717	0.0165821
822.795	0.0166975
822.873	0.0166982
822.951	0.0166711
823.030	0.0166231
823.108	0.0168434
823.186	0.0166750
823.264	0.0165809
823.342	0.0165742
823.420	0.0166230
823.498	0.0166795
823.576	0.0166064
823.655	0.0166118
823.733	0.0166743
823.811	0.0166836
823.889	0.0165831
823.967	0.0166135
824.045	0.0167036
824.123	0.0165707
824.201	0.0167184
824.280	0.0168145
824.358	0.0165479
824.436	0.0167142
824.514	0.0167715
824.592	0.0167137
824.670	0.0167104
824.748	0.0167586
824.826	0.0167032
824.905	0.0166582
824.983	0.0167314
825.061	0.0166403
825.139	0.0165393
825.217	0.0167083
825.295	0.0165560
825.373	0.0166813
825.451	0.0165715
825.530	0.0165522
825.608	0.0165599
825.686	0.0165293
825.764	0.0165443
825.842	0.0165376
825.920	0.0163623
825.998	0.0166479
826.076	0.0165657
826.155	0.0167094
826.233	0.0164808
826.311	0.0165948
826.389	0.0165916
826.467	0.0165617
826.545	0.0167384
826.623	0.0166428
826.701	0.0165777
826.780	0.0166504
826.858	0.0165915
826.936	0.0165256
827.014	0.0166833
827.092	0.0166899
827.170	0.0166789
827.248	0.0166933
827.326	0.0165968
827.405	0.0166154
827.483	0.0167413
827.561	0.0166299
827.639	0.0165900
827.717	0.0166145
827.795	0.0166949
827.873	0.0166137
827.951	0.0165088
828.030	0.0166492
828.108	0.0166584
828.186	0.0167807
828.264	0.0166099
828.342	0.0166784
828.420	0.0166391
828.498	0.0166373
828.576	0.0166647
828.655	0.0167418
828.733	0.0167001
828.811	0.0164801
828.889	0.0165747
828.967	0.0165997
829.045	0.0166209
829.123	0.0165749
829.201	0.0166264
829.280	0.0165170
829.358	0.0165767
829.436	0.0166416
829.514	0.0165270
829.592	0.0165952
829.670	0.0165899
829.748	0.0166878
829.826	0.0165255
829.905	0.0164742
829.983	0.0164972
830.061	0.0165018
830.139	0.0164863
830.217	0.0166132
830.295	0.0165748
830.373	0.0166055
830.451	0.0165621
830.530	0.0164720
830.608	0.0164640
830.686	0.0165559
830.764	0.0165302
830.842	0.0165295
830.920	0.0164349
830.998	0.0165664
831.076	0.0165845
831.155	0.0165118
831.233	0.0165778
831.311	0.0166104
831.389	0.0165999
831.467	0.0166663
831.545	0.0166824
831.623	0.0166817
831.701	0.0167178
831.780	0.0167725
831.858	0.0167100
831.936	0.0167654
832.014	0.0167841
832.092	0.0167729
832.170	0.0166469
832.248	0.0166751
832.326	0.0167331
832.405	0.0167390
832.483	0.0168340
832.561	0.0168784
832.639	0.0167204
832.717	0.0168119
832.795	0.0169119
832.873	0.0167882
832.951	0.0168224
833.030	0.0168077
833.108	0.0167097
833.186	0.0167870
833.264	0.0168546
833.342	0.0168871
833.420	0.0167887
833.498	0.0167956
833.576	0.0167476
833.655	0.0167517
833.733	0.0167956
833.811	0.0166846
833.889	0.0167480
833.967	0.0168708
834.045	0.0166523
834.123	0.0167193
834.201	0.0166459
834.280	0.0168018
834.358	0.0166662
834.436	0.0168685
834.514	0.0168488
834.592	0.0168040
834.670	0.0169057
834.748	0.0168589
834.826	0.0166412
834.905	0.0168558
834.983	0.0168123
835.061	0.0167007
835.139	0.0169392
835.217	0.0167116
835.295	0.0166856
835.373	0.0168357
835.451	0.0168411
835.530	0.0168615
835.608	0.0168065
835.686	0.0168509
835.764	0.0167785
835.842	0.0167215
835.920	0.0167944
835.998	0.0167876
836.076	0.0168021
836.155	0.0167780
836.233	0.0167281
836.311	0.0168507
836.389	0.0166579
836.467	0.0165107
836.545	0.0167350
836.623	0.0165389
836.701	0.0165565
836.780	0.0165747
836.858	0.0164765
836.936	0.0165564
837.014	0.0165875
837.092	0.0164060
837.170	0.0165607
837.248	0.0165736
837.326	0.0165319
837.405	0.0165041
837.483	0.0165532
837.561	0.0166326
837.639	0.0166390
837.717	0.0165193
837.795	0.0164968
837.873	0.0165481
837.951	0.0165195
838.030	0.0165481
838.108	0.0164777
838.186	0.0164822
838.264	0.0165097
838.342	0.0166544
838.420	0.0164877
838.498	0.0165645
838.576	0.0165090
838.655	0.0164573
838.733	0.0165470
838.811	0.0164618
838.889	0.0164686
838.967	0.0165281
839.045	0.0164328
839.123	0.0166032
839.201	0.0166122
839.280	0.0165352
839.358	0.0165246
839.436	0.0165187
839.514	0.0165163
839.592	0.0165913
839.670	0.0164838
839.748	0.0164502
839.826	0.0165520
839.905	0.0165425
839.983	0.0165670
840.061	0.0165734
840.139	0.0165545
840.217	0.0166247
840.295	0.0165424
840.373	0.0167849
840.451	0.0166608
840.530	0.0166065
840.608	0.0165646
840.686	0.0166029
840.764	0.0166688
840.842	0.0166133
840.920	0.0168356
840.998	0.0166806
841.076	0.0166464
841.155	0.0166888
841.233	0.0166685
841.311	0.0164590
841.389	0.0165690
841.467	0.0166392
841.545	0.0168476
841.623	0.0167834
841.701	0.0166219
841.780	0.0166028
841.858	0.0166624
841.936	0.0164996
842.014	0.0164875
842.092	0.0165295
842.170	0.0166003
842.248	0.0165948
842.326	0.0166418
842.405	0.0165668
842.483	0.0165228
842.561	0.0164905
842.639	0.0165775
842.717	0.0167443
842.795	0.0166734
842.873	0.0165855
842.951	0.0165860
843.030	0.0167067
843.108	0.0166360
843.186	0.0167244
843.264	0.0165165
843.342	0.0166590
843.420	0.0166108
843.498	0.0165590
843.576	0.0165989
843.655	0.0165974
843.733	0.0167132
843.811	0.0167234
843.889	0.0166158
843.967	0.0165532
844.045	0.0165006
844.123	0.0165738
844.201	0.0165549
844.280	0.0167072
844.358	0.0165407
844.436	0.0167097
844.514	0.0165996
844.592	0.0166487
844.670	0.0166410
844.748	0.0165580
844.826	0.0167490
844.905	0.0166122
844.983	0.0165270
845.061	0.0166846
845.139	0.0167780
845.217	0.0166932
845.295	0.0167413
845.373	0.0166455
845.451	0.0167108
845.530	0.0166529
845.608	0.0166208
845.686	0.0166405
845.764	0.0166566
845.842	0.0167055
845.920	0.0167867
845.998	0.0167728
846.076	0.0166602
846.155	0.0167908
846.233	0.0167514
846.311	0.0167012
846.389	0.0166955
846.467	0.0166912
846.545	0.0166573
846.623	0.0167717
846.701	0.0165945
846.780	0.0165537
846.858	0.0166889
846.936	0.0168681
847.014	0.0165533
847.092	0.0166536
847.170	0.0166997
847.248	0.0167562
847.326	0.0168917
847.405	0.0165894
847.483	0.0167083
847.561	0.0166565
847.639	0.0165804
847.717	0.0167640
847.795	0.0166622
847.873	0.0165703
847.951	0.0168657
848.030	0.0166430
848.108	0.0166383
848.186	0.0166206
848.264	0.0165443
848.342	0.0166848
848.420	0.0166914
848.498	0.0166161
848.576	0.0168404
848.655	0.0167348
848.733	0.0166119
848.811	0.0166373
848.889	0.0166476
848.967	0.0167966
849.045	0.0168042
849.123	0.0168980
849.201	0.0169207
849.280	0.0167374
849.358	0.0167625
849.436	0.0166755
849.514	0.0165533
849.592	0.0167006
849.670	0.0168204
849.748	0.0167372
849.826	0.0166372
849.905	0.0167359
849.983	0.0166772
850.061	0.0166335
850.139	0.0167086
850.217	0.0166422
850.295	0.0168647
850.373	0.0168741
850.451	0.0167564
850.530	0.0168588
850.608	0.0165765
850.686	0.0167721
850.764	0.0166015
850.842	0.0165536
850.920	0.0167665
850.998	0.0166873
851.076	0.0164822
851.155	0.0166837
851.233	0.0167365
851.311	0.0166964
851.389	0.0166023
851.467	0.0166116
851.545	0.0167029
851.623	0.0166767
851.701	0.0166307
851.780	0.0166618
851.858	0.0166536
851.936	0.0165702
852.014	0.0165225
852.092	0.0166472
852.170	0.0167533
852.248	0.0166701
852.326	0.0167406
852.405	0.0166962
852.483	0.0166140
852.561	0.0165398
852.639	0.0165790
852.717	0.0167072
852.795	0.0166038
852.873	0.0167071
852.951	0.0166353
853.030	0.0168060
853.108	0.0167967
853.186	0.0166681
853.264	0.0166582
853.342	0.0166256
853.420	0.0165738
853.498	0.0167712
853.576	0.0166562
853.655	0.0166180
853.733	0.0167430
853.811	0.0167759
853.889	0.0167591
853.967	0.0167109
854.045	0.0166758
854.123	0.0167487
854.201	0.0166109
854.280	0.0166627
854.358	0.0166697
854.436	0.0168807
854.514	0.0167637
854.592	0.0167258
854.670	0.0167524
854.748	0.0166892
854.826	0.0166428
854.905	0.0168201
854.983	0.0166171
855.061	0.0168087
855.139	0.0168259
855.217	0.0166329
855.295	0.0165579
855.373	0.0167130
855.451	0.0166805
855.530	0.0166112
855.608	0.0166890
855.686	0.0168197
855.764	0.0166956
855.842	0.0167678
855.920	0.0165825
855.998	0.0167483
856.076	0.0168053
856.155	0.0167446
856.233	0.0168038
856.311	0.0166212
856.389	0.0166737
856.467	0.0167451
856.545	0.0167370
856.623	0.0167066
856.701	0.0166615
856.780	0.0166881
856.858	0.0167764
856.936	0.0168013
857.014	0.0166958
857.092	0.0166415
857.170	0.0165704
857.248	0.0167068
857.326	0.0166984
857.405	0.0166228
857.483	0.0165041
857.561	0.0166528
857.639	0.0166332
857.717	0.0166680
857.795	0.0165887
857.873	0.0166793
857.951	0.0167775
858.030	0.0167355
858.108	0.0166876
858.186	0.0167097
858.264	0.0166586
858.342	0.0167072
858.420	0.0167027
858.498	0.0166008
858.576	0.0168433
858.655	0.0167252
858.733	0.0167254
858.811	0.0167467
858.889	0.0166505
858.967	0.0167337
859.045	0.0167046
859.123	0.0167968
859.201	0.0167861
859.280	0.0168465
859.358	0.0167558
859.436	0.0168481
859.514	0.0168114
859.592	0.0167960
859.670	0.0167217
859.748	0.0167985
859.826	0.0166152
859.905	0.0166896
859.983	0.0167899
860.061	0.0167415
860.139	0.0167589
860.217	0.0167313
860.295	0.0166021
860.373	0.0166596
860.451	0.0165793
860.530	0.0166770
860.608	0.0165791
860.686	0.0166921
860.764	0.0165394
860.842	0.0165548
860.920	0.0165783
860.998	0.0166434
861.076	0.0166181
861.155	0.0165842
861.233	0.0165324
861.311	0.0166078
861.389	0.0165206
861.467	0.0164864
861.545	0.0166193
861.623	0.0167096
861.701	0.0166070
861.780	0.0167137
861.858	0.0166409
861.936	0.0165522
862.014	0.0166889
862.092	0.0166585
862.170	0.0166396
862.248	0.0166587
862.326	0.0166778
862.405	0.0164666
862.483	0.0165818
862.561	0.0166853
862.639	0.0167059
862.717	0.0166628
862.795	0.0166804
862.873	0.0166018
862.951	0.0164738
863.030	0.0165170
863.108	0.0166615
863.186	0.0166992
863.264	0.0166240
863.342	0.0165796
863.420	0.0167117
863.498	0.0164828
863.576	0.0165280
863.655	0.0165002
863.733	0.0166407
863.811	0.0165499
863.889	0.0166335
863.967	0.0165841
864.045	0.0165644
864.123	0.0165269
864.201	0.0166824
864.280	0.0165762
864.358	0.0165655
864.436	0.0166692
864.514	0.0167010
864.592	0.0165267
864.670	0.0165915
864.748	0.0166456
864.826	0.0166385
864.905	0.0165819
864.983	0.0165627
865.061	0.0165561
865.139	0.0167690
865.217	0.0166940
865.295	0.0166687
865.373	0.0166410
865.451	0.0165187
865.530	0.0166023
865.608	0.0166281
865.686	0.0166435
865.764	0.0166246
865.842	0.0166695
865.920	0.0165398
865.998	0.0166564
866.076	0.0166484
866.155	0.0167194
866.233	0.0167220
866.311	0.0167461
866.389	0.0167576
866.467	0.0167751
866.545	0.0166164
866.623	0.0166941
866.701	0.0167861
866.780	0.0166692
866.858	0.0167390
866.936	0.0167352
867.014	0.0166212
867.092	0.0167660
867.170	0.0166494
867.248	0.0165166
867.326	0.0165807
867.405	0.0165515
867.483	0.0167371
867.561	0.0165784
867.639	0.0166511
867.717	0.0165852
867.795	0.0167957
867.873	0.0166177
867.951	0.0166013
868.030	0.0167611
868.108	0.0167230
868.186	0.0166660
868.264	0.0166670
868.342	0.0167401
868.420	0.0166000
868.498	0.0166496
868.576	0.0167856
868.655	0.0165197
868.733	0.0166921
868.811	0.0166430
868.889	0.0166608
868.967	0.0165331
869.045	0.0165414
869.123	0.0165793
869.201	0.0165396
869.280	0.0166028
869.358	0.0166013
869.436	0.0164716
869.514	0.0167945
869.592	0.0167091
869.670	0.0166434
869.748	0.0166227
869.826	0.0166853
869.905	0.0168475
869.983	0.0168015
870.061	0.0168790
870.139	0.0168761
870.217	0.0168214
870.295	0.0167804
870.373	0.0168020
870.451	0.0168607
870.530	0.0166603
870.608	0.0166969
870.686	0.0168401
870.764	0.0168801
870.842	0.0168433
870.920	0.0167873
870.998	0.0167347
871.076	0.0168356
871.155	0.0167828
871.233	0.0167615
871.311	0.0168280
871.389	0.0166895
871.467	0.0167495
871.545	0.0168387
871.623	0.0166899
871.701	0.0167406
871.780	0.0167247
871.858	0.0167637
871.936	0.0166851
872.014	0.0166007
872.092	0.0164783
872.170	0.0164665
872.248	0.0163951
872.326	0.0164322
872.405	0.0163918
872.483	0.0163880
872.561	0.0163786
872.639	0.0163988
872.717	0.0164173
872.795	0.0163280
872.873	0.0163426
872.951	0.0163258
873.030	0.0162546
873.108	0.0163733
873.186	0.0162855
873.264	0.0162512
873.342	0.0164307
873.420	0.0164261
873.498	0.0163730
873.576	0.0165394
873.655	0.0164888
873.733	0.0164522
873.811	0.0164622
873.889	0.0165971
873.967	0.0164828
874.045	0.0166940
874.123	0.0166510
874.201	0.0167080
874.280	0.0166665
874.358	0.0166968
874.436	0.0167534
874.514	0.0167287
874.592	0.0167271
874.670	0.0167458
874.748	0.0167368
874.826	0.0168253
874.905	0.0166970
874.983	0.0169170
875.061	0.0168417
875.139	0.0168932
875.217	0.0169315
875.295	0.0169530
875.373	0.0168693
875.451	0.0168047
875.530	0.0168899
875.608	0.0170010
875.686	0.0169287
875.764	0.0168723
875.842	0.0168361
875.920	0.0168764
875.998	0.0167724
876.076	0.0170042
876.155	0.0168771
876.233	0.0168539
876.311	0.0167670
876.389	0.0167762
876.467	0.0168637
876.545	0.0166677
876.623	0.0168405
876.701	0.0167423
876.780	0.0168356
876.858	0.0167836
876.936	0.0166463
877.014	0.0168089
877.092	0.0166494
877.170	0.0166398
877.248	0.0166319
877.326	0.0166397
877.405	0.0165813
877.483	0.0165971
877.561	0.0166110
877.639	0.0165296
877.717	0.0165494
877.795	0.0166899
877.873	0.0164726
877.951	0.0164704
878.030	0.0164767
878.108	0.0165131
878.186	0.0164869
878.264	0.0165788
878.342	0.0164725
878.420	0.0165109
878.498	0.0166583
878.576	0.0165905
878.655	0.0165829
878.733	0.0166841
878.811	0.0167206
878.889	0.0167114
878.967	0.0166911
879.045	0.0167776
879.123	0.0168060
879.201	0.0166978
879.280	0.0166217
879.358	0.0167937
879.436	0.0166821
879.514	0.0167660
879.592	0.0166664
879.670	0.0167303
879.748	0.0167313
879.826	0.0167372
879.905	0.0166130
879.983	0.0166212
880.061	0.0167396
880.139	0.0168088
880.217	0.0167910
880.295	0.0167127
880.373	0.0166110
880.451	0.0167816
880.530	0.0166387
880.608	0.0167896
880.686	0.0165652
880.764	0.0166110
880.842	0.0167120
880.920	0.0166537
880.998	0.0165530
881.076	0.0166759
881.155	0.0166712
881.233	0.0166720
881.311	0.0166663
881.389	0.0167112
881.467	0.0167203
881.545	0.0166122
881.623	0.0167336
881.701	0.0166833
881.780	0.0166254
881.858	0.0166741
881.936	0.0167404
882.014	0.0166500
882.092	0.0166023
882.170	0.0165428
882.248	0.0166971
882.326	0.0166709
882.405	0.0166319
882.483	0.0168046
882.561	0.0166399
882.639	0.0165242
882.717	0.0166962
882.795	0.0167182
882.873	0.0165716
882.951	0.0166602
883.030	0.0167237
883.108	0.0166256
883.186	0.0166864
883.264	0.0167486
883.342	0.0165299
883.420	0.0167200
883.498	0.0165515
883.576	0.0164849
883.655	0.0166946
883.733	0.0165979
883.811	0.0165421
883.889	0.0164906
883.967	0.0164705
884.045	0.0165281
884.123	0.0164452
884.201	0.0165214
884.280	0.0165142
884.358	0.0165863
884.436	0.0165865
884.514	0.0164635
884.592	0.0166228
884.670	0.0167043
884.748	0.0167217
884.826	0.0166485
884.905	0.0166974
884.983	0.0167265
885.061	0.0166150
885.139	0.0166176
885.217	0.0166876
885.295	0.0166639
885.373	0.0166571
885.451	0.0166830
885.530	0.0167419
885.608	0.0167643
885.686	0.0166220
885.764	0.0165739
885.842	0.0166588
885.920	0.0166128
885.998	0.0166494
886.076	0.0166771
886.155	0.0165619
886.233	0.0167001
886.311	0.0165534
886.389	0.0165771
886.467	0.0166689
886.545	0.0167181
886.623	0.0166830
886.701	0.0165529
886.780	0.0166089
886.858	0.0166904
886.936	0.0166235
887.014	0.0165986
887.092	0.0166339
887.170	0.0166261
887.248	0.0167020
887.326	0.0165262
887.405	0.0166574
887.483	0.0166428
887.561	0.0165849
887.639	0.0166616
887.717	0.0166293
887.795	0.0166792
887.873	0.0166770
887.951	0.0166988
888.030	0.0166368
888.108	0.0166120
888.186	0.0167046
888.264	0.0166792
888.342	0.0165890
888.420	0.0165442
888.498	0.0167756
888.576	0.0166897
888.655	0.0166208
888.733	0.0167132
888.811	0.0168136
888.889	0.0166934
888.967	0.0166996
889.045	0.0167120
889.123	0.0168195
889.201	0.0167050
889.280	0.0165824
889.358	0.0168037
889.436	0.0168327
889.514	0.0166422
889.592	0.0167181
889.670	0.0166711
889.748	0.0166851
889.826	0.0167859
889.905	0.0166821
889.983	0.0166730
890.061	0.0166405
890.139	0.0167555
890.217	0.0166243
890.295	0.0166696
890.373	0.0168143
890.451	0.0167832
890.530	0.0167413
890.608	0.0166850
890.686	0.0166312
890.764	0.0165990
890.842	0.0166126
890.920	0.0166714
890.998	0.0165875
891.076	0.0167076
891.155	0.0166145
891.233	0.0166271
891.311	0.0167474
891.389	0.0166115
891.467	0.0166260
891.545	0.0165795
891.623	0.0167066
891.701	0.0168475
891.780	0.0166173
891.858	0.0168163
891.936	0.0167649
892.014	0.0166563
892.092	0.0167343
892.170	0.0168114
892.248	0.0167747
892.326	0.0167645
892.405	0.0167162
892.483	0.0168102
892.561	0.0166914
892.639	0.0166627
892.717	0.0166030
892.795	0.0167284
892.873	0.0167620
892.951	0.0166676
893.030	0.0166955
893.108	0.0169318
893.186	0.0168716
893.264	0.0167844
893.342	0.0167150
893.420	0.0166618
893.498	0.0166138
893.576	0.0167502
893.655	0.0167023
893.733	0.0167953
893.811	0.0167783
893.889	0.0167238
893.967	0.0166976
894.045	0.0167009
894.123	0.0166668
894.201	0.0167735
894.280	0.0167336
894.358	0.0167295
894.436	0.0167766
894.514	0.0166366
894.592	0.0167868
894.670	0.0168345
894.748	0.0168017
894.826	0.0166633
894.905	0.0166018
894.983	0.0165945
895.061	0.0165633
895.139	0.0166846
895.217	0.0166544
895.295	0.0166080
895.373	0.0166156
895.451	0.0166029
895.530	0.0165543
895.608	0.0166615
895.686	0.0164540
895.764	0.0165800
895.842	0.0166547
895.920	0.0165938
895.998	0.0165412
896.076	0.0166634
896.155	0.0164455
896.233	0.0164457
896.311	0.0165377
896.389	0.0165858
896.467	0.0165706
896.545	0.0164787
896.623	0.0165174
896.701	0.0164772
896.780	0.0165147
896.858	0.0164300
896.936	0.0164594
897.014	0.0164774
897.092	0.0165690
897.170	0.0164619
897.248	0.0164381
897.326	0.0165391
897.405	0.0164292
897.483	0.0164247
897.561	0.0164067
897.639	0.0165376
897.717	0.0164597
897.795	0.0164442
897.873	0.0165174
897.951	0.0165530
898.030	0.0165768
898.108	0.0164797
898.186	0.0165645
898.264	0.0165502
898.342	0.0165494
898.420	0.0165763
898.498	0.0164629
898.576	0.0164552
898.655	0.0166425
898.733	0.0165685
898.811	0.0166556
898.889	0.0167165
898.967	0.0166368
899.045	0.0165454
899.123	0.0167134
899.201	0.0165945
899.280	0.0165961
899.358	0.0166364
899.436	0.0166148
899.514	0.0167531
899.592	0.0166840
899.670	0.0167136
899.748	0.0165585
899.826	0.0165075
899.905	0.0168310
899.983	0.0168465
900.061	0.0166544
900.139	0.0166845
900.217	0.0167439
900.295	0.0166307
900.373	0.0167144
900.451	0.0167734
900.530	0.0167146
900.608	0.0167653
900.686	0.0168752
900.764	0.0166616
900.842	0.0167331
900.920	0.0166560
900.998	0.0167359
901.076	0.0166309
901.155	0.0166949
901.233	0.0167326
901.311	0.0166341
901.389	0.0167612
901.467	0.0167591
901.545	0.0167524
901.623	0.0165897
901.701	0.0167448
901.780	0.0166336
901.858	0.0166151
901.936	0.0167121
902.014	0.0166688
902.092	0.0166758
902.170	0.0168079
902.248	0.0166787
902.326	0.0165264
902.405	0.0168990
902.483	0.0167403
902.561	0.0167520
902.639	0.0167276
902.717	0.0167194
902.795	0.0166752
902.873	0.0167818
902.951	0.0165829
903.030	0.0167118
903.108	0.0166420
903.186	0.0166469
903.264	0.0167472
903.342	0.0166564
903.420	0.0165324
903.498	0.0165567
903.576	0.0166003
903.655	0.0167313
903.733	0.0165798
903.811	0.0165747
903.889	0.0166059
903.967	0.0164590
904.045	0.0164825
904.123	0.0164249
904.201	0.0165639
904.280	0.0166195
904.358	0.0164864
904.436	0.0164446
904.514	0.0164832
904.592	0.0164769
904.670	0.0164342
904.748	0.0165313
904.826	0.0164252
904.905	0.0163860
904.983	0.0166747
905.061	0.0165617
905.139	0.0164956
905.217	0.0166000
905.295	0.0166254
905.373	0.0166636
905.451	0.0165338
905.530	0.0166794
905.608	0.0166386
905.686	0.0166848
905.764	0.0166183
905.842	0.0166980
905.920	0.0166335
905.998	0.0167135
906.076	0.0165347
906.155	0.0165340
906.233	0.0165841
906.311	0.0165972
906.389	0.0167233
906.467	0.0166560
906.545	0.0166539
906.623	0.0166309
906.701	0.0166624
906.780	0.0167592
906.858	0.0167227
906.936	0.0166637
907.014	0.0166605
907.092	0.0165538
907.170	0.0165611
907.248	0.0168736
907.326	0.0167285
907.405	0.0165745
907.483	0.0167957
907.561	0.0167666
907.639	0.0167254
907.717	0.0167853
907.795	0.0168702
907.873	0.0169292
907.951	0.0168457
908.030	0.0167666
908.108	0.0167905
908.186	0.0166895
908.264	0.0168678
908.342	0.0168011
908.420	0.0166924
908.498	0.0167738
908.576	0.0166754
908.655	0.0167332
908.733	0.0168720
908.811	0.0167926
908.889	0.0166219
908.967	0.0165512
909.045	0.0167358
909.123	0.0167335
909.201	0.0167131
909.280	0.0167155
909.358	0.0166566
909.436	0.0167685
909.514	0.0167303
909.592	0.0167371
909.670	0.0165628
909.748	0.0165323
909.826	0.0165681
909.905	0.0166524
909.983	0.0165971
910.061	0.0166193
910.139	0.0167517
910.217	0.0166008
910.295	0.0166512
910.373	0.0166356
910.451	0.0167265
910.530	0.0166145
910.608	0.0167368
910.686	0.0166970
910.764	0.0165816
910.842	0.0165728
910.920	0.0166550
910.998	0.0166775
911.076	0.0166776
911.155	0.0166705
911.233	0.0165799
911.311	0.0167464
911.389	0.0165008
911.467	0.0165079
911.545	0.0166476
911.623	0.0165382
911.701	0.0166348
911.780	0.0166143
911.858	0.0165475
911.936	0.0167417
912.014	0.0165822
912.092	0.0165443
912.170	0.0165459
912.248	0.0165900
912.326	0.0167079
912.405	0.0166940
912.483	0.0167742
912.561	0.0168081
912.639	0.0166018
912.717	0.0166885
912.795	0.0166437
912.873	0.0166356
912.951	0.0167058
913.030	0.0166959
913.108	0.0166667
913.186	0.0166753
913.264	0.0167747
913.342	0.0167041
913.420	0.0165332
913.498	0.0165110
913.576	0.0166046
913.655	0.0165746
913.733	0.0166399
913.811	0.0166413
913.889	0.0164647
913.967	0.0164186
914.045	0.0165761
914.123	0.0166656
914.201	0.0166605
914.280	0.0165720
914.358	0.0165950
914.436	0.0166994
914.514	0.0165048
914.592	0.0165363
914.670	0.0165321
914.748	0.0165957
914.826	0.0165600
914.905	0.0166852
914.983	0.0165488
915.061	0.0165627
915.139	0.0167092
915.217	0.0166222
915.295	0.0166597
915.373	0.0165295
915.451	0.0166624
915.530	0.0166870
915.608	0.0165779
915.686	0.0166799
915.764	0.0167709
915.842	0.0166424
915.920	0.0166933
915.998	0.0167525
916.076	0.0167175
916.155	0.0166133
916.233	0.0167318
916.311	0.0166261
916.389	0.0166013
916.467	0.0165893
916.545	0.0166003
916.623	0.0165903
916.701	0.0166332
916.780	0.0166441
916.858	0.0166621
916.936	0.0164583
917.014	0.0165063
917.092	0.0165335
917.170	0.0166097
917.248	0.0164806
917.326	0.0165631
917.405	0.0166129
917.483	0.0165199
917.561	0.0166405
917.639	0.0165411
917.717	0.0164182
917.795	0.0165701
917.873	0.0167824
917.951	0.0165703
918.030	0.0165383
918.108	0.0166885
918.186	0.0166767
918.264	0.0167866
918.342	0.0166174
918.420	0.0166969
918.498	0.0168011
918.576	0.0167786
918.655	0.0168269
918.733	0.0168865
918.811	0.0168658
918.889	0.0168501
918.967	0.0168514
919.045	0.0169624
919.123	0.0169008
919.201	0.0168956
919.280	0.0168961
919.358	0.0168388
919.436	0.0167468
919.514	0.0168580
919.592	0.0168213
919.670	0.0169382
919.748	0.0167883
919.826	0.0168497
919.905	0.0168729
919.983	0.0168562
920.061	0.0168020
920.139	0.0167876
920.217	0.0167799
920.295	0.0167432
920.373	0.0169305
920.451	0.0167573
920.530	0.0166942
920.608	0.0167118
920.686	0.0168026
920.764	0.0166240
920.842	0.0166498
920.920	0.0166103
920.998	0.0165985
921.076	0.0166261
921.155	0.0168066
921.233	0.0165242
921.311	0.0167822
921.389	0.0166547
921.467	0.0167256
921.545	0.0166921
921.623	0.0166200
921.701	0.0166779
921.780	0.0167135
921.858	0.0165623
921.936	0.0165353
922.014	0.0167239
922.092	0.0166183
922.170	0.0166984
922.248	0.0165675
922.326	0.0166810
922.405	0.0165425
922.483	0.0165835
922.561	0.0168559
922.639	0.0168027
922.717	0.0166928
922.795	0.0167803
922.873	0.0167241
922.951	0.0165920
923.030	0.0166113
923.108	0.0167248
923.186	0.0166251
923.264	0.0167090
923.342	0.0167626
923.420	0.0168775
923.498	0.0167567
923.576	0.0167467
923.655	0.0167062
923.733	0.0167264
923.811	0.0167759
923.889	0.0167198
923.967	0.0167897
924.045	0.0165926
924.123	0.0165656
924.201	0.0167340
924.280	0.0168248
924.358	0.0167168
924.436	0.0167531
924.514	0.0166918
924.592	0.0165586
924.670	0.0166040
924.748	0.0165870
924.826	0.0166943
924.905	0.0165567
924.983	0.0165972
925.061	0.0166161
925.139	0.0165232
925.217	0.0166502
925.295	0.0165386
925.373	0.0167277
925.451	0.0165477
925.530	0.0165262
925.608	0.0165388
925.686	0.0164326
925.764	0.0166745
925.842	0.0166045
925.920	0.0166083
925.998	0.0164112
926.076	0.0164671
926.155	0.0165224
926.233	0.0165362
926.311	0.0165496
926.389	0.0164276
926.467	0.0165685
926.545	0.0163902
926.623	0.0164730
926.701	0.0164467
926.780	0.0163856
926.858	0.0165282
926.936	0.0164841
927.014	0.0163148
927.092	0.0164780
927.170	0.0163712
927.248	0.0164445
927.326	0.0164615
927.405	0.0164321
927.483	0.0164015
927.561	0.0165541
927.639	0.0164818
927.717	0.0165595
927.795	0.0165650
927.873	0.0166186
927.951	0.0164658
928.030	0.0165949
928.108	0.0167277
928.186	0.0166548
928.264	0.0167405
928.342	0.0166086
928.420	0.0168184
928.498	0.0166376
928.576	0.0166222
928.655	0.0166978
928.733	0.0167194
928.811	0.0168743
928.889	0.0167515
928.967	0.0169243
929.045	0.0167971
929.123	0.0168547
929.201	0.0167716
929.280	0.0166492
929.358	0.0167066
929.436	0.0166850
929.514	0.0167429
929.592	0.0167712
929.670	0.0167272
929.748	0.0167390
929.826	0.0166298
929.905	0.0166267
929.983	0.0167648
930.061	0.0166947
930.139	0.0167229
930.217	0.0168232
930.295	0.0166498
930.373	0.0166227
930.451	0.0165226
930.530	0.0166855
930.608	0.0167075
930.686	0.0166418
930.764	0.0167402
930.842	0.0167101
930.920	0.0167685
930.998	0.0167277
931.076	0.0167138
931.155	0.0167087
931.233	0.0167090
931.311	0.0166032
931.389	0.0167824
931.467	0.0167367
931.545	0.0166933
931.623	0.0166599
931.701	0.0165292
931.780	0.0167088
931.858	0.0166364
931.936	0.0167577
932.014	0.0167665
932.092	0.0165495
932.170	0.0165112
932.248	0.0166256
932.326	0.0166630
932.405	0.0166711
932.483	0.0167248
932.561	0.0166063
932.639	0.0166557
932.717	0.0166795
932.795	0.0165907
932.873	0.0166332
932.951	0.0167167
933.030	0.0167273
933.108	0.0166697
933.186	0.0167775
933.264	0.0167929
933.342	0.0168350
933.420	0.0168135
933.498	0.0166983
933.576	0.0166998
933.655	0.0167696
933.733	0.0166871
933.811	0.0166766
933.889	0.0167436
933.967	0.0167755
934.045	0.0167674
934.123	0.0165932
934.201	0.0166623
934.280	0.0166089
934.358	0.0166891
934.436	0.0165989
934.514	0.0166553
934.592	0.0167117
934.670	0.0167977
934.748	0.0166930
934.826	0.0167651
934.905	0.0168320
934.983	0.0167369
935.061	0.0167006
935.139	0.0165094
935.217	0.0167763
935.295	0.0167139
935.373	0.0167927
935.451	0.0166566
935.530	0.0168279
935.608	0.0167828
935.686	0.0167411
935.764	0.0167397
935.842	0.0167809
935.920	0.0166308
935.998	0.0165393
936.076	0.0166132
936.155	0.0167675
936.233	0.0166021
936.311	0.0167349
936.389	0.0166629
936.467	0.0166176
936.545	0.0164936
936.623	0.0166062
936.701	0.0165535
936.780	0.0165117
936.858	0.0165945
936.936	0.0166962
937.014	0.0164677
937.092	0.0164378
937.170	0.0165710
937.248	0.0164404
937.326	0.0165260
937.405	0.0165860
937.483	0.0166817
937.561	0.0164558
937.639	0.0163935
937.717	0.0165854
937.795	0.0167071
937.873	0.0166242
937.951	0.0166591
938.030	0.0165102
938.108	0.0165807
938.186	0.0165425
938.264	0.0166466
938.342	0.0167406
938.420	0.0165720
938.498	0.0165163
938.576	0.0166214
938.655	0.0165610
938.733	0.0166223
938.811	0.0165727
938.889	0.0166508
938.967	0.0165818
939.045	0.0166259
939.123	0.0166652
939.201	0.0166896
939.280	0.0166458
939.358	0.0166196
939.436	0.0166905
939.514	0.0165916
939.592	0.0165672
939.670	0.0166502
939.748	0.0165184
939.826	0.0163761
939.905	0.0165681
939.983	0.0164743
940.061	0.0166677
940.139	0.0165767
940.217	0.0164253
940.295	0.0164546
940.373	0.0165635
940.451	0.0165549
940.530	0.0165203
940.608	0.0166431
940.686	0.0163158
940.764	0.0167451
940.842	0.0166480
940.920	0.0165423
940.998	0.0166850
941.076	0.0166045
941.155	0.0164290
941.233	0.0165627
941.311	0.0165446
941.389	0.0166840
941.467	0.0166819
941.545	0.0166360
941.623	0.0165987
941.701	0.0165860
941.780	0.0166284
941.858	0.0165337
941.936	0.0165814
942.014	0.0167008
942.092	0.0166183
942.170	0.0165698
942.248	0.0166534
942.326	0.0166249
942.405	0.0167542
942.483	0.0166563
942.561	0.0166294
942.639	0.0166069
942.717	0.0166680
942.795	0.0167518
942.873	0.0167468
942.951	0.0167061
943.030	0.0167573
943.108	0.0167175
943.186	0.0167785
943.264	0.0167028
943.342	0.0166090
943.420	0.0168429
943.498	0.0167212
943.576	0.0167894
943.655	0.0167496
943.733	0.0167270
943.811	0.0168706
943.889	0.0167855
943.967	0.0166770
944.045	0.0167582
944.123	0.0168858
944.201	0.0168491
944.280	0.0167967
944.358	0.0167188
944.436	0.0167515
944.514	0.0168626
944.592	0.0166948
944.670	0.0168427
944.748	0.0167590
944.826	0.0167953
944.905	0.0166784
944.983	0.0168770
945.061	0.0168882
945.139	0.0168059
945.217	0.0168872
945.295	0.0169314
945.373	0.0167910
945.451	0.0168910
945.530	0.0167255
945.608	0.0168446
945.686	0.0169302
945.764	0.0168215
945.842	0.0167888
945.920	0.0167964
945.998	0.0168990
946.076	0.0169193
946.155	0.0167951
946.233	0.0167762
946.311	0.0168726
946.389	0.0168458
946.467	0.0167951
946.545	0.0167830
946.623	0.0167815
946.701	0.0167068
946.780	0.0166747
946.858	0.0168007
946.936	0.0166682
947.014	0.0168789
947.092	0.0167998
947.170	0.0166625
947.248	0.0164795
947.326	0.0167381
947.405	0.0166605
947.483	0.0168617
947.561	0.0167178
947.639	0.0168127
947.717	0.0166650
947.795	0.0165305
947.873	0.0165922
947.951	0.0167247
948.030	0.0166996
948.108	0.0167259
948.186	0.0165572
948.264	0.0166485
948.342	0.0165841
948.420	0.0166090
948.498	0.0165643
948.576	0.0166235
948.655	0.0166235
948.733	0.0166595
948.811	0.0165701
948.889	0.0165317
948.967	0.0166994
949.045	0.0165971
949.123	0.0167439
949.201	0.0166411
949.280	0.0167587
949.358	0.0165921
949.436	0.0165758
949.514	0.0166849
949.592	0.0166254
949.670	0.0165679
949.748	0.0166580
949.826	0.0166715
949.905	0.0166276
949.983	0.0166108
950.061	0.0165414
950.139	0.0167006
950.217	0.0165757
950.295	0.0165485
950.373	0.0165772
950.451	0.0166982
950.530	0.0166171
950.608	0.0167100
950.686	0.0167953
950.764	0.0165546
950.842	0.0164813
950.920	0.0166486
950.998	0.0166395
951.076	0.0164730
951.155	0.0165766
951.233	0.0167265
951.311	0.0166112
951.389	0.0166093
951.467	0.0165703
951.545	0.0166666
951.623	0.0165797
951.701	0.0165589
951.780	0.0165217
951.858	0.0166761
951.936	0.0166379
952.014	0.0165261
952.092	0.0165210
952.170	0.0165025
952.248	0.0166866
952.326	0.0164904
952.405	0.0165051
952.483	0.0165530
952.561	0.0165257
952.639	0.0165943
952.717	0.0165659
952.795	0.0166640
952.873	0.0165504
952.951	0.0164240
953.030	0.0166439
953.108	0.0164984
953.186	0.0164281
953.264	0.0167436
953.342	0.0166541
953.420	0.0165583
953.498	0.0165657
953.576	0.0167286
953.655	0.0165262
953.733	0.0166676
953.811	0.0166782
953.889	0.0166185
953.967	0.0165878
954.045	0.0167245
954.123	0.0166856
954.201	0.0167043
954.280	0.0165923
954.358	0.0166640
954.436	0.0166321
954.514	0.0167595
954.592	0.0165825
954.670	0.0166600
954.748	0.0167632
954.826	0.0166711
954.905	0.0166756
954.983	0.0166035
955.061	0.0166448
955.139	0.0166159
955.217	0.0164997
955.295	0.0166164
955.373	0.0165760
955.451	0.0164911
955.530	0.0165654
955.608	0.0167068
955.686	0.0165868
955.764	0.0164774
955.842	0.0165702
955.920	0.0166325
955.998	0.0166920
956.076	0.0166074
956.155	0.0167057
956.233	0.0166162
956.311	0.0165858
956.389	0.0167867
956.467	0.0167479
956.545	0.0166871
956.623	0.0167339
956.701	0.0165922
956.780	0.0167574
956.858	0.0168102
956.936	0.0166615
957.014	0.0166913
957.092	0.0167837
957.170	0.0166695
957.248	0.0168193
957.326	0.0168485
957.405	0.0166853
957.483	0.0168644
957.561	0.0167652
957.639	0.0166375
957.717	0.0167243
957.795	0.0167093
957.873	0.0165986
957.951	0.0166944
958.030	0.0165650
958.108	0.0165642
958.186	0.0164884
958.264	0.0167004
958.342	0.0165961
958.420	0.0166246
958.498	0.0166084
958.576	0.0167187
958.655	0.0166779
958.733	0.0166566
958.811	0.0167198
958.889	0.0167410
958.967	0.0167080
959.045	0.0167831
959.123	0.0166454
959.201	0.0167304
959.280	0.0166297
959.358	0.0168105
959.436	0.0167995
959.514	0.0166328
959.592	0.0167173
959.670	0.0167657
959.748	0.0167463
959.826	0.0167470
959.905	0.0167522
