05/17/2022	17:21:00	Ver.	4.1	UNKNOWN
Optical Delay	639.982744	Delta X		0.078125	Sweeps	1	Scan Rate	0/0
Coordinates	Axis 1	NaN	Axis 2	NaN	Axis 3	NaN	Axis 4	NaN	Axis 5	NaN	Axis 6	0.000000
TX Power	0.000000	RX Power	0.000000

639.983	0.0163094
640.061	0.0162617
640.139	0.0160999
640.217	0.0161511
640.295	0.0162688
640.373	0.0162536
640.451	0.0161497
640.530	0.0162058
640.608	0.0162301
640.686	0.0161646
640.764	0.0161523
640.842	0.0163057
640.920	0.0163457
640.998	0.0163118
641.076	0.0163328
641.155	0.0163374
641.233	0.0164648
641.311	0.0162758
641.389	0.0165760
641.467	0.0164052
641.545	0.0164278
641.623	0.0163860
641.701	0.0163609
641.780	0.0165110
641.858	0.0164744
641.936	0.0164588
642.014	0.0163708
642.092	0.0163718
642.170	0.0164471
642.248	0.0162422
642.326	0.0162347
642.405	0.0162115
642.483	0.0163956
642.561	0.0161671
642.639	0.0161195
642.717	0.0161150
642.795	0.0160866
642.873	0.0161414
642.951	0.0161629
643.030	0.0160558
643.108	0.0161304
643.186	0.0162881
643.264	0.0162704
643.342	0.0163003
643.420	0.0162294
643.498	0.0161265
643.576	0.0162361
643.655	0.0162484
643.733	0.0162821
643.811	0.0163558
643.889	0.0163009
643.967	0.0164520
644.045	0.0163139
644.123	0.0165061
644.201	0.0165195
644.280	0.0165074
644.358	0.0165038
644.436	0.0165071
644.514	0.0164763
644.592	0.0164319
644.670	0.0165835
644.748	0.0164079
644.826	0.0166151
644.905	0.0164869
644.983	0.0164319
645.061	0.0163748
645.139	0.0164458
645.217	0.0164027
645.295	0.0164171
645.373	0.0163105
645.451	0.0162864
645.530	0.0161586
645.608	0.0164237
645.686	0.0163126
645.764	0.0162919
645.842	0.0161516
645.920	0.0161843
645.998	0.0162722
646.076	0.0160659
646.155	0.0162464
646.233	0.0161485
646.311	0.0161462
646.389	0.0161250
646.467	0.0161205
646.545	0.0161240
646.623	0.0161892
646.701	0.0161795
646.780	0.0162043
646.858	0.0163297
646.936	0.0162820
647.014	0.0162132
647.092	0.0163447
647.170	0.0163187
647.248	0.0164774
647.326	0.0164146
647.405	0.0164070
647.483	0.0163941
647.561	0.0164042
647.639	0.0164120
647.717	0.0163545
647.795	0.0163437
647.873	0.0162936
647.951	0.0164555
648.030	0.0162875
648.108	0.0163026
648.186	0.0164697
648.264	0.0163982
648.342	0.0162963
648.420	0.0163257
648.498	0.0163724
648.576	0.0163009
648.655	0.0163419
648.733	0.0163730
648.811	0.0162910
648.889	0.0163708
648.967	0.0163170
649.045	0.0163050
649.123	0.0164150
649.201	0.0165413
649.280	0.0164025
649.358	0.0164516
649.436	0.0163985
649.514	0.0163811
649.592	0.0164133
649.670	0.0163921
649.748	0.0163369
649.826	0.0164673
649.905	0.0165573
649.983	0.0164741
650.061	0.0166344
650.139	0.0164246
650.217	0.0163599
650.295	0.0164519
650.373	0.0162569
650.451	0.0163596
650.530	0.0163575
650.608	0.0163310
650.686	0.0162496
650.764	0.0164619
650.842	0.0162943
650.920	0.0163097
650.998	0.0163036
651.076	0.0163348
651.155	0.0163393
651.233	0.0163425
651.311	0.0163976
651.389	0.0163569
651.467	0.0163161
651.545	0.0165025
651.623	0.0163852
651.701	0.0164754
651.780	0.0166035
651.858	0.0163770
651.936	0.0164443
652.014	0.0164779
652.092	0.0164531
652.170	0.0165434
652.248	0.0164330
652.326	0.0164279
652.405	0.0165397
652.483	0.0164475
652.561	0.0165741
652.639	0.0166776
652.717	0.0163479
652.795	0.0163708
652.873	0.0163064
652.951	0.0163013
653.030	0.0163310
653.108	0.0162792
653.186	0.0163489
653.264	0.0162473
653.342	0.0162405
653.420	0.0162939
653.498	0.0162357
653.576	0.0162182
653.655	0.0162178
653.733	0.0163383
653.811	0.0163231
653.889	0.0162215
653.967	0.0161433
654.045	0.0162656
654.123	0.0163267
654.201	0.0162985
654.280	0.0163302
654.358	0.0163683
654.436	0.0164102
654.514	0.0163852
654.592	0.0163560
654.670	0.0164144
654.748	0.0165340
654.826	0.0163447
654.905	0.0163622
654.983	0.0165385
655.061	0.0164307
655.139	0.0165344
655.217	0.0164256
655.295	0.0164359
655.373	0.0163963
655.451	0.0164837
655.530	0.0164668
655.608	0.0164191
655.686	0.0163552
655.764	0.0163992
655.842	0.0165920
655.920	0.0165052
655.998	0.0165137
656.076	0.0164725
656.155	0.0164849
656.233	0.0164339
656.311	0.0164748
656.389	0.0165240
656.467	0.0165549
656.545	0.0164918
656.623	0.0164196
656.701	0.0164103
656.780	0.0165179
656.858	0.0165202
656.936	0.0164983
657.014	0.0164989
657.092	0.0164813
657.170	0.0164902
657.248	0.0164703
657.326	0.0165443
657.405	0.0164133
657.483	0.0165006
657.561	0.0164431
657.639	0.0163570
657.717	0.0164304
657.795	0.0163941
657.873	0.0164764
657.951	0.0164121
658.030	0.0162774
658.108	0.0162354
658.186	0.0163795
658.264	0.0164509
658.342	0.0162613
658.420	0.0164376
658.498	0.0164394
658.576	0.0164190
658.655	0.0163583
658.733	0.0163296
658.811	0.0164513
658.889	0.0166102
658.967	0.0164147
659.045	0.0164218
659.123	0.0164880
659.201	0.0163920
659.280	0.0164862
659.358	0.0166752
659.436	0.0164272
659.514	0.0164516
659.592	0.0165076
659.670	0.0164581
659.748	0.0163810
659.826	0.0164613
659.905	0.0163094
659.983	0.0162960
660.061	0.0164197
660.139	0.0162143
660.217	0.0161771
660.295	0.0160587
660.373	0.0162080
660.451	0.0163226
660.530	0.0161330
660.608	0.0160190
660.686	0.0161357
660.764	0.0159972
660.842	0.0160710
660.920	0.0159454
660.998	0.0160692
661.076	0.0160382
661.155	0.0160355
661.233	0.0160873
661.311	0.0160605
661.389	0.0161842
661.467	0.0162488
661.545	0.0161894
661.623	0.0162736
661.701	0.0163609
661.780	0.0162793
661.858	0.0164039
661.936	0.0165398
662.014	0.0166293
662.092	0.0165331
662.170	0.0166305
662.248	0.0167370
662.326	0.0165497
662.405	0.0164658
662.483	0.0166673
662.561	0.0167002
662.639	0.0167160
662.717	0.0165900
662.795	0.0164737
662.873	0.0165762
662.951	0.0165503
663.030	0.0163451
663.108	0.0163492
663.186	0.0164017
663.264	0.0164024
663.342	0.0164423
663.420	0.0164417
663.498	0.0163463
663.576	0.0164219
663.655	0.0164940
663.733	0.0165221
663.811	0.0164735
663.889	0.0164016
663.967	0.0164381
664.045	0.0164799
664.123	0.0164965
664.201	0.0164863
664.280	0.0163326
664.358	0.0164874
664.436	0.0164515
664.514	0.0163966
664.592	0.0164277
664.670	0.0163483
664.748	0.0162009
664.826	0.0161365
664.905	0.0159688
664.983	0.0160793
665.061	0.0158809
665.139	0.0157181
665.217	0.0156323
665.295	0.0156297
665.373	0.0156076
665.451	0.0156117
665.530	0.0155736
665.608	0.0155005
665.686	0.0154936
665.764	0.0156293
665.842	0.0155682
665.920	0.0155049
665.998	0.0154587
666.076	0.0158373
666.155	0.0159933
666.233	0.0158814
666.311	0.0160067
666.389	0.0160230
666.467	0.0160798
666.545	0.0161375
666.623	0.0163330
666.701	0.0164099
666.780	0.0164075
666.858	0.0164799
666.936	0.0167030
667.014	0.0166924
667.092	0.0167942
667.170	0.0168954
667.248	0.0169764
667.326	0.0167945
667.405	0.0168793
667.483	0.0170034
667.561	0.0169867
667.639	0.0169919
667.717	0.0171932
667.795	0.0170982
667.873	0.0171503
667.951	0.0171164
668.030	0.0170657
668.108	0.0169732
668.186	0.0170540
668.264	0.0169901
668.342	0.0170046
668.420	0.0169880
668.498	0.0168740
668.576	0.0168720
668.655	0.0169612
668.733	0.0167472
668.811	0.0168678
668.889	0.0166663
668.967	0.0165184
669.045	0.0164813
669.123	0.0164756
669.201	0.0162981
669.280	0.0162051
669.358	0.0162614
669.436	0.0161629
669.514	0.0159394
669.592	0.0158348
669.670	0.0158828
669.748	0.0154531
669.826	0.0155612
669.905	0.0155146
669.983	0.0153671
670.061	0.0153206
670.139	0.0152404
670.217	0.0151803
670.295	0.0152344
670.373	0.0152428
670.451	0.0151495
670.530	0.0152864
670.608	0.0153321
670.686	0.0153309
670.764	0.0155653
670.842	0.0154829
670.920	0.0154903
670.998	0.0158297
671.076	0.0157208
671.155	0.0157761
671.233	0.0160288
671.311	0.0161328
671.389	0.0160873
671.467	0.0160719
671.545	0.0161027
671.623	0.0164054
671.701	0.0164135
671.780	0.0165643
671.858	0.0165920
671.936	0.0165910
672.014	0.0166066
672.092	0.0169023
672.170	0.0169293
672.248	0.0168411
672.326	0.0169401
672.405	0.0169112
672.483	0.0170008
672.561	0.0170592
672.639	0.0170841
672.717	0.0171649
672.795	0.0171672
672.873	0.0171990
672.951	0.0171682
673.030	0.0172906
673.108	0.0173015
673.186	0.0173485
673.264	0.0172325
673.342	0.0173345
673.420	0.0175417
673.498	0.0173084
673.576	0.0173479
673.655	0.0172893
673.733	0.0170867
673.811	0.0169893
673.889	0.0169904
673.967	0.0168371
674.045	0.0167739
674.123	0.0165456
674.201	0.0164479
674.280	0.0163721
674.358	0.0163242
674.436	0.0159592
674.514	0.0157577
674.592	0.0158657
674.670	0.0156625
674.748	0.0155074
674.826	0.0154973
674.905	0.0154144
674.983	0.0153093
675.061	0.0151478
675.139	0.0150716
675.217	0.0150754
675.295	0.0152122
675.373	0.0150810
675.451	0.0150729
675.530	0.0150126
675.608	0.0153145
675.686	0.0153995
675.764	0.0154573
675.842	0.0154961
675.920	0.0156728
675.998	0.0158364
676.076	0.0159010
676.155	0.0161122
676.233	0.0161857
676.311	0.0162385
676.389	0.0163290
676.467	0.0163548
676.545	0.0165239
676.623	0.0167380
676.701	0.0167049
676.780	0.0167783
676.858	0.0168116
676.936	0.0168243
677.014	0.0169255
677.092	0.0169865
677.170	0.0168345
677.248	0.0169245
677.326	0.0169849
677.405	0.0169891
677.483	0.0170097
677.561	0.0169648
677.639	0.0171456
677.717	0.0170403
677.795	0.0170490
677.873	0.0172139
677.951	0.0170297
678.030	0.0171393
678.108	0.0171350
678.186	0.0170219
678.264	0.0169511
678.342	0.0170866
678.420	0.0169084
678.498	0.0168227
678.576	0.0169115
678.655	0.0167455
678.733	0.0167406
678.811	0.0166666
678.889	0.0165651
678.967	0.0165351
679.045	0.0163632
679.123	0.0163843
679.201	0.0162844
679.280	0.0162926
679.358	0.0160744
679.436	0.0161169
679.514	0.0161610
679.592	0.0160851
679.670	0.0160336
679.748	0.0161062
679.826	0.0161283
679.905	0.0158555
679.983	0.0159081
680.061	0.0160008
680.139	0.0159696
680.217	0.0159803
680.295	0.0159534
680.373	0.0158936
680.451	0.0159122
680.530	0.0158524
680.608	0.0158204
680.686	0.0158953
680.764	0.0158224
680.842	0.0157408
680.920	0.0158019
680.998	0.0158508
681.076	0.0158855
681.155	0.0158798
681.233	0.0158861
681.311	0.0158125
681.389	0.0157935
681.467	0.0159690
681.545	0.0158891
681.623	0.0159756
681.701	0.0160155
681.780	0.0158691
681.858	0.0160186
681.936	0.0160752
682.014	0.0160428
682.092	0.0159811
682.170	0.0161308
682.248	0.0162153
682.326	0.0161328
682.405	0.0162689
682.483	0.0163564
682.561	0.0164376
682.639	0.0164089
682.717	0.0164178
682.795	0.0165576
682.873	0.0165796
682.951	0.0165318
683.030	0.0167133
683.108	0.0167839
683.186	0.0166946
683.264	0.0168262
683.342	0.0166924
683.420	0.0168677
683.498	0.0168220
683.576	0.0168295
683.655	0.0168626
683.733	0.0169734
683.811	0.0170702
683.889	0.0170254
683.967	0.0170126
684.045	0.0170345
684.123	0.0171256
684.201	0.0171075
684.280	0.0172038
684.358	0.0171313
684.436	0.0169547
684.514	0.0170928
684.592	0.0170813
684.670	0.0170264
684.748	0.0168796
684.826	0.0168468
684.905	0.0167352
684.983	0.0167854
685.061	0.0166346
685.139	0.0166393
685.217	0.0163913
685.295	0.0164101
685.373	0.0161887
685.451	0.0159134
685.530	0.0160181
685.608	0.0158031
685.686	0.0156384
685.764	0.0157276
685.842	0.0156034
685.920	0.0154633
685.998	0.0154036
686.076	0.0156212
686.155	0.0155368
686.233	0.0153503
686.311	0.0154594
686.389	0.0154981
686.467	0.0155871
686.545	0.0155042
686.623	0.0154946
686.701	0.0155991
686.780	0.0154543
686.858	0.0155311
686.936	0.0157535
687.014	0.0156775
687.092	0.0158051
687.170	0.0157207
687.248	0.0157840
687.326	0.0158783
687.405	0.0159114
687.483	0.0159647
687.561	0.0160625
687.639	0.0161856
687.717	0.0161485
687.795	0.0161836
687.873	0.0161864
687.951	0.0161400
688.030	0.0161629
688.108	0.0162606
688.186	0.0163554
688.264	0.0164022
688.342	0.0163268
688.420	0.0164407
688.498	0.0164252
688.576	0.0164909
688.655	0.0165773
688.733	0.0165725
688.811	0.0164608
688.889	0.0165237
688.967	0.0167001
689.045	0.0166724
689.123	0.0165161
689.201	0.0165100
689.280	0.0166009
689.358	0.0168241
689.436	0.0166720
689.514	0.0168060
689.592	0.0167227
689.670	0.0166724
689.748	0.0167442
689.826	0.0167022
689.905	0.0167947
689.983	0.0168299
690.061	0.0168467
690.139	0.0167828
690.217	0.0168842
690.295	0.0171374
690.373	0.0169786
690.451	0.0170324
690.530	0.0170301
690.608	0.0170947
690.686	0.0169754
690.764	0.0170342
690.842	0.0171451
690.920	0.0169640
690.998	0.0168987
691.076	0.0170464
691.155	0.0168089
691.233	0.0168160
691.311	0.0167599
691.389	0.0166463
691.467	0.0165566
691.545	0.0164379
691.623	0.0163219
691.701	0.0162502
691.780	0.0161892
691.858	0.0160357
691.936	0.0159377
692.014	0.0157939
692.092	0.0158817
692.170	0.0156913
692.248	0.0156263
692.326	0.0157121
692.405	0.0154502
692.483	0.0154097
692.561	0.0155829
692.639	0.0154551
692.717	0.0154595
692.795	0.0154958
692.873	0.0153686
692.951	0.0154585
693.030	0.0155475
693.108	0.0154238
693.186	0.0154594
693.264	0.0155740
693.342	0.0154681
693.420	0.0156394
693.498	0.0155876
693.576	0.0156504
693.655	0.0158003
693.733	0.0159265
693.811	0.0159986
693.889	0.0160245
693.967	0.0158480
694.045	0.0158936
694.123	0.0162993
694.201	0.0162698
694.280	0.0162427
694.358	0.0163818
694.436	0.0162284
694.514	0.0166044
694.592	0.0166241
694.670	0.0166145
694.748	0.0166199
694.826	0.0168983
694.905	0.0168655
694.983	0.0169979
695.061	0.0171659
695.139	0.0171768
695.217	0.0171062
695.295	0.0171604
695.373	0.0173077
695.451	0.0174950
695.530	0.0174067
695.608	0.0172464
695.686	0.0173292
695.764	0.0173728
695.842	0.0173305
695.920	0.0171854
695.998	0.0171425
696.076	0.0170821
696.155	0.0169604
696.233	0.0170755
696.311	0.0168652
696.389	0.0168003
696.467	0.0166841
696.545	0.0165176
696.623	0.0163972
696.701	0.0162713
696.780	0.0162201
696.858	0.0162320
696.936	0.0159985
697.014	0.0158833
697.092	0.0158203
697.170	0.0157729
697.248	0.0157214
697.326	0.0155410
697.405	0.0156171
697.483	0.0157600
697.561	0.0154108
697.639	0.0152766
697.717	0.0154977
697.795	0.0154877
697.873	0.0153351
697.951	0.0154323
698.030	0.0154900
698.108	0.0154700
698.186	0.0154781
698.264	0.0155644
698.342	0.0156413
698.420	0.0155714
698.498	0.0156068
698.576	0.0155641
698.655	0.0157793
698.733	0.0156728
698.811	0.0156570
698.889	0.0158862
698.967	0.0158902
699.045	0.0158085
699.123	0.0159089
699.201	0.0160892
699.280	0.0161660
699.358	0.0160803
699.436	0.0163066
699.514	0.0164724
699.592	0.0164520
699.670	0.0166197
699.748	0.0165870
699.826	0.0166436
699.905	0.0168018
699.983	0.0167822
700.061	0.0167608
700.139	0.0168460
700.217	0.0169217
700.295	0.0169393
700.373	0.0169540
700.451	0.0168801
700.530	0.0167789
700.608	0.0169332
700.686	0.0170054
700.764	0.0168234
700.842	0.0168479
700.920	0.0167913
700.998	0.0168779
701.076	0.0167236
701.155	0.0166615
701.233	0.0167044
701.311	0.0167809
701.389	0.0167121
701.467	0.0165012
701.545	0.0166888
701.623	0.0166607
701.701	0.0166061
701.780	0.0166818
701.858	0.0166772
701.936	0.0166011
702.014	0.0165637
702.092	0.0166750
702.170	0.0165681
702.248	0.0164634
702.326	0.0164873
702.405	0.0164834
702.483	0.0162630
702.561	0.0163626
702.639	0.0162849
702.717	0.0163013
702.795	0.0162206
702.873	0.0162963
702.951	0.0160791
703.030	0.0159229
703.108	0.0158477
703.186	0.0159291
703.264	0.0158879
703.342	0.0157373
703.420	0.0157439
703.498	0.0157214
703.576	0.0157842
703.655	0.0156210
703.733	0.0155560
703.811	0.0157506
703.889	0.0157722
703.967	0.0157635
704.045	0.0157730
704.123	0.0157952
704.201	0.0157607
704.280	0.0156672
704.358	0.0156649
704.436	0.0156863
704.514	0.0158748
704.592	0.0159589
704.670	0.0160115
704.748	0.0160590
704.826	0.0160626
704.905	0.0161906
704.983	0.0162064
705.061	0.0161715
705.139	0.0163254
705.217	0.0164290
705.295	0.0162485
705.373	0.0165421
705.451	0.0166759
705.530	0.0167171
705.608	0.0166302
705.686	0.0167084
705.764	0.0167380
705.842	0.0166887
705.920	0.0168506
705.998	0.0167686
706.076	0.0170159
706.155	0.0170315
706.233	0.0169516
706.311	0.0170459
706.389	0.0169613
706.467	0.0168172
706.545	0.0168509
706.623	0.0166727
706.701	0.0166171
706.780	0.0168028
706.858	0.0167156
706.936	0.0166242
707.014	0.0165558
707.092	0.0163727
707.170	0.0164360
707.248	0.0162659
707.326	0.0161788
707.405	0.0162656
707.483	0.0161714
707.561	0.0161240
707.639	0.0160429
707.717	0.0159467
707.795	0.0159875
707.873	0.0160912
707.951	0.0160006
708.030	0.0160423
708.108	0.0161677
708.186	0.0160753
708.264	0.0162324
708.342	0.0161974
708.420	0.0161968
708.498	0.0162498
708.576	0.0162679
708.655	0.0162928
708.733	0.0164639
708.811	0.0163943
708.889	0.0163924
708.967	0.0164599
709.045	0.0164998
709.123	0.0164624
709.201	0.0163124
709.280	0.0164790
709.358	0.0165104
709.436	0.0165320
709.514	0.0164304
709.592	0.0162564
709.670	0.0161897
709.748	0.0160337
709.826	0.0162206
709.905	0.0161334
709.983	0.0159957
710.061	0.0159846
710.139	0.0158816
710.217	0.0158288
710.295	0.0159428
710.373	0.0159470
710.451	0.0158477
710.530	0.0158338
710.608	0.0159838
710.686	0.0160690
710.764	0.0160246
710.842	0.0160490
710.920	0.0162510
710.998	0.0163295
711.076	0.0162904
711.155	0.0163757
711.233	0.0164932
711.311	0.0165627
711.389	0.0166695
711.467	0.0167547
711.545	0.0167419
711.623	0.0168457
711.701	0.0169085
711.780	0.0168304
711.858	0.0168199
711.936	0.0168835
712.014	0.0167380
712.092	0.0167179
712.170	0.0167183
712.248	0.0168370
712.326	0.0168213
712.405	0.0165437
712.483	0.0166254
712.561	0.0165044
712.639	0.0163714
712.717	0.0163084
712.795	0.0164004
712.873	0.0162943
712.951	0.0161035
713.030	0.0162617
713.108	0.0162323
713.186	0.0161543
713.264	0.0162156
713.342	0.0162016
713.420	0.0163210
713.498	0.0162199
713.576	0.0163441
713.655	0.0162048
713.733	0.0162039
713.811	0.0163717
713.889	0.0161996
713.967	0.0161955
714.045	0.0161880
714.123	0.0161758
714.201	0.0160976
714.280	0.0160178
714.358	0.0160355
714.436	0.0159460
714.514	0.0158081
714.592	0.0159425
714.670	0.0159108
714.748	0.0158847
714.826	0.0158925
714.905	0.0158350
714.983	0.0159171
715.061	0.0159433
715.139	0.0160538
715.217	0.0159821
715.295	0.0160548
715.373	0.0160092
715.451	0.0160090
715.530	0.0162699
715.608	0.0162915
715.686	0.0163512
715.764	0.0163200
715.842	0.0165211
715.920	0.0165498
715.998	0.0166042
716.076	0.0167232
716.155	0.0167678
716.233	0.0167605
716.311	0.0167816
716.389	0.0169106
716.467	0.0167892
716.545	0.0168965
716.623	0.0169422
716.701	0.0170504
716.780	0.0169456
716.858	0.0169474
716.936	0.0168415
717.014	0.0169644
717.092	0.0168852
717.170	0.0169892
717.248	0.0168559
717.326	0.0166806
717.405	0.0166784
717.483	0.0166269
717.561	0.0166077
717.639	0.0166635
717.717	0.0165185
717.795	0.0163270
717.873	0.0163052
717.951	0.0162884
718.030	0.0163441
718.108	0.0162300
718.186	0.0159763
718.264	0.0161636
718.342	0.0160180
718.420	0.0160339
718.498	0.0159777
718.576	0.0158524
718.655	0.0158462
718.733	0.0158495
718.811	0.0158751
718.889	0.0159096
718.967	0.0159518
719.045	0.0159620
719.123	0.0160291
719.201	0.0158911
719.280	0.0160021
719.358	0.0160269
719.436	0.0161855
719.514	0.0160984
719.592	0.0161097
719.670	0.0162278
719.748	0.0162522
719.826	0.0164574
719.905	0.0163189
719.983	0.0164952
720.061	0.0165634
720.139	0.0163639
720.217	0.0165588
720.295	0.0165582
720.373	0.0165513
720.451	0.0166296
720.530	0.0166568
720.608	0.0166898
720.686	0.0166813
720.764	0.0166028
720.842	0.0166740
720.920	0.0165661
720.998	0.0164886
721.076	0.0165913
721.155	0.0165678
721.233	0.0165702
721.311	0.0165173
721.389	0.0165107
721.467	0.0165964
721.545	0.0165428
721.623	0.0165443
721.701	0.0165845
721.780	0.0164951
721.858	0.0165846
721.936	0.0166624
722.014	0.0164774
722.092	0.0165585
722.170	0.0165879
722.248	0.0167236
722.326	0.0167494
722.405	0.0166946
722.483	0.0167709
722.561	0.0166696
722.639	0.0168829
722.717	0.0165768
722.795	0.0166132
722.873	0.0166729
722.951	0.0167120
723.030	0.0165813
723.108	0.0166553
723.186	0.0166544
723.264	0.0164838
723.342	0.0165159
723.420	0.0164591
723.498	0.0163807
723.576	0.0162844
723.655	0.0162464
723.733	0.0160658
723.811	0.0161684
723.889	0.0160244
723.967	0.0159872
724.045	0.0162619
724.123	0.0160914
724.201	0.0158995
724.280	0.0159524
724.358	0.0161460
724.436	0.0161570
724.514	0.0159502
724.592	0.0160265
724.670	0.0160759
724.748	0.0162073
724.826	0.0161431
724.905	0.0161562
724.983	0.0162466
725.061	0.0160414
725.139	0.0160179
725.217	0.0160728
725.295	0.0160428
725.373	0.0160901
725.451	0.0161958
725.530	0.0159736
725.608	0.0158519
725.686	0.0159118
725.764	0.0159180
725.842	0.0160102
725.920	0.0158978
725.998	0.0159274
726.076	0.0157777
726.155	0.0159626
726.233	0.0159004
726.311	0.0160394
726.389	0.0159919
726.467	0.0160538
726.545	0.0160448
726.623	0.0161378
726.701	0.0161152
726.780	0.0161675
726.858	0.0162155
726.936	0.0162876
727.014	0.0162475
727.092	0.0162325
727.170	0.0162012
727.248	0.0164293
727.326	0.0163806
727.405	0.0163339
727.483	0.0163590
727.561	0.0164725
727.639	0.0164714
727.717	0.0166007
727.795	0.0166283
727.873	0.0165907
727.951	0.0166972
728.030	0.0165178
728.108	0.0166319
728.186	0.0166795
728.264	0.0168064
728.342	0.0168195
728.420	0.0168489
728.498	0.0167561
728.576	0.0167556
728.655	0.0167775
728.733	0.0167870
728.811	0.0167577
728.889	0.0167324
728.967	0.0166042
729.045	0.0165897
729.123	0.0167007
729.201	0.0164558
729.280	0.0164374
729.358	0.0162296
729.436	0.0163773
729.514	0.0162851
729.592	0.0163126
729.670	0.0160604
729.748	0.0158889
729.826	0.0159677
729.905	0.0160126
729.983	0.0161037
730.061	0.0159975
730.139	0.0157870
730.217	0.0157835
730.295	0.0156228
730.373	0.0157633
730.451	0.0157461
730.530	0.0158822
730.608	0.0159208
730.686	0.0158808
730.764	0.0159316
730.842	0.0157910
730.920	0.0160061
730.998	0.0160265
731.076	0.0160870
731.155	0.0161436
731.233	0.0162108
731.311	0.0161642
731.389	0.0162183
731.467	0.0164359
731.545	0.0163689
731.623	0.0164526
731.701	0.0165520
731.780	0.0166125
731.858	0.0165498
731.936	0.0166100
732.014	0.0167090
732.092	0.0167328
732.170	0.0166860
732.248	0.0167203
732.326	0.0167381
732.405	0.0168798
732.483	0.0166574
732.561	0.0166135
732.639	0.0166640
732.717	0.0167554
732.795	0.0166271
732.873	0.0165733
732.951	0.0165261
733.030	0.0164565
733.108	0.0164751
733.186	0.0164589
733.264	0.0163982
733.342	0.0162112
733.420	0.0163801
733.498	0.0163271
733.576	0.0162746
733.655	0.0162402
733.733	0.0163171
733.811	0.0163902
733.889	0.0163577
733.967	0.0161874
734.045	0.0161883
734.123	0.0163049
734.201	0.0163985
734.280	0.0162416
734.358	0.0163050
734.436	0.0162811
734.514	0.0164651
734.592	0.0163442
734.670	0.0164525
734.748	0.0164706
734.826	0.0165482
734.905	0.0165049
734.983	0.0164315
735.061	0.0165353
735.139	0.0165170
735.217	0.0163761
735.295	0.0164967
735.373	0.0165305
735.451	0.0165820
735.530	0.0164668
735.608	0.0165186
735.686	0.0164799
735.764	0.0163988
735.842	0.0165505
735.920	0.0164088
735.998	0.0163134
736.076	0.0164260
736.155	0.0163972
736.233	0.0164308
736.311	0.0164320
736.389	0.0163225
736.467	0.0161005
736.545	0.0163052
736.623	0.0162977
736.701	0.0160895
736.780	0.0162572
736.858	0.0160188
736.936	0.0160916
737.014	0.0160282
737.092	0.0159811
737.170	0.0160740
737.248	0.0160609
737.326	0.0158136
737.405	0.0159262
737.483	0.0158353
737.561	0.0157526
737.639	0.0159891
737.717	0.0157877
737.795	0.0158480
737.873	0.0158640
737.951	0.0158739
738.030	0.0159842
738.108	0.0161046
738.186	0.0160607
738.264	0.0161739
738.342	0.0162511
738.420	0.0162251
738.498	0.0165239
738.576	0.0164985
738.655	0.0165331
738.733	0.0164610
738.811	0.0166335
738.889	0.0166596
738.967	0.0166642
739.045	0.0167126
739.123	0.0167770
739.201	0.0168810
739.280	0.0165540
739.358	0.0166837
739.436	0.0166508
739.514	0.0166965
739.592	0.0166457
739.670	0.0165429
739.748	0.0164983
739.826	0.0165688
739.905	0.0165145
739.983	0.0165056
740.061	0.0164452
740.139	0.0163769
740.217	0.0164278
740.295	0.0162721
740.373	0.0163458
740.451	0.0163833
740.530	0.0163670
740.608	0.0161726
740.686	0.0162012
740.764	0.0163549
740.842	0.0162703
740.920	0.0162760
740.998	0.0162265
741.076	0.0162627
741.155	0.0161586
741.233	0.0160397
741.311	0.0160323
741.389	0.0161149
741.467	0.0161952
741.545	0.0161479
741.623	0.0160999
741.701	0.0160966
741.780	0.0162579
741.858	0.0161990
741.936	0.0161510
742.014	0.0162523
742.092	0.0161642
742.170	0.0161856
742.248	0.0163148
742.326	0.0163848
742.405	0.0162885
742.483	0.0163072
742.561	0.0165189
742.639	0.0163851
742.717	0.0165388
742.795	0.0165386
742.873	0.0165552
742.951	0.0166234
743.030	0.0165238
743.108	0.0167778
743.186	0.0166825
743.264	0.0167256
743.342	0.0167544
743.420	0.0167194
743.498	0.0166539
743.576	0.0166930
743.655	0.0166930
743.733	0.0166894
743.811	0.0167348
743.889	0.0167741
743.967	0.0165422
744.045	0.0165176
744.123	0.0164749
744.201	0.0165334
744.280	0.0164289
744.358	0.0164030
744.436	0.0165122
744.514	0.0164252
744.592	0.0163515
744.670	0.0163587
744.748	0.0164040
744.826	0.0163125
744.905	0.0162628
744.983	0.0160925
745.061	0.0162117
745.139	0.0163046
745.217	0.0161378
745.295	0.0160678
745.373	0.0159973
745.451	0.0160831
745.530	0.0160276
745.608	0.0162418
745.686	0.0161243
745.764	0.0161157
745.842	0.0161959
745.920	0.0161213
745.998	0.0161978
746.076	0.0162164
746.155	0.0161056
746.233	0.0162847
746.311	0.0164011
746.389	0.0163160
746.467	0.0162845
746.545	0.0163389
746.623	0.0162630
746.701	0.0164121
746.780	0.0162589
746.858	0.0162898
746.936	0.0165475
747.014	0.0163456
747.092	0.0164153
747.170	0.0163407
747.248	0.0162811
747.326	0.0162190
747.405	0.0162280
747.483	0.0161674
747.561	0.0162018
747.639	0.0162032
747.717	0.0162614
747.795	0.0161146
747.873	0.0161418
747.951	0.0162671
748.030	0.0163448
748.108	0.0163356
748.186	0.0162701
748.264	0.0161496
748.342	0.0162841
748.420	0.0163617
748.498	0.0161979
748.576	0.0162610
748.655	0.0162823
748.733	0.0163034
748.811	0.0163644
748.889	0.0162310
748.967	0.0162563
749.045	0.0162485
749.123	0.0164125
749.201	0.0162504
749.280	0.0162206
749.358	0.0162996
749.436	0.0162956
749.514	0.0162691
749.592	0.0163725
749.670	0.0162434
749.748	0.0163342
749.826	0.0163623
749.905	0.0162086
749.983	0.0163855
750.061	0.0164643
750.139	0.0164822
750.217	0.0164948
750.295	0.0164545
750.373	0.0165523
750.451	0.0164529
750.530	0.0164617
750.608	0.0163792
750.686	0.0165085
750.764	0.0166079
750.842	0.0165323
750.920	0.0166026
750.998	0.0164664
751.076	0.0164336
751.155	0.0165466
751.233	0.0166623
751.311	0.0165546
751.389	0.0165433
751.467	0.0163367
751.545	0.0164935
751.623	0.0164104
751.701	0.0164561
751.780	0.0165409
751.858	0.0164864
751.936	0.0165493
752.014	0.0164577
752.092	0.0165695
752.170	0.0165181
752.248	0.0164426
752.326	0.0163438
752.405	0.0163914
752.483	0.0165534
752.561	0.0164359
752.639	0.0164971
752.717	0.0163933
752.795	0.0162745
752.873	0.0164382
752.951	0.0164370
753.030	0.0162920
753.108	0.0161861
753.186	0.0161613
753.264	0.0162708
753.342	0.0160814
753.420	0.0161320
753.498	0.0160520
753.576	0.0160864
753.655	0.0159724
753.733	0.0158689
753.811	0.0159526
753.889	0.0160514
753.967	0.0158277
754.045	0.0158327
754.123	0.0159280
754.201	0.0159209
754.280	0.0160258
754.358	0.0160102
754.436	0.0160711
754.514	0.0161674
754.592	0.0159740
754.670	0.0160642
754.748	0.0160172
754.826	0.0160916
754.905	0.0161832
754.983	0.0162339
755.061	0.0162061
755.139	0.0160887
755.217	0.0162096
755.295	0.0161420
755.373	0.0162576
755.451	0.0162313
755.530	0.0163576
755.608	0.0161849
755.686	0.0161493
755.764	0.0162016
755.842	0.0161790
755.920	0.0162060
755.998	0.0164274
756.076	0.0163084
756.155	0.0164320
756.233	0.0164085
756.311	0.0163078
756.389	0.0164807
756.467	0.0163803
756.545	0.0165273
756.623	0.0165348
756.701	0.0164846
756.780	0.0164199
756.858	0.0164999
756.936	0.0163631
757.014	0.0165090
757.092	0.0164445
757.170	0.0164472
757.248	0.0164310
757.326	0.0164243
757.405	0.0162911
757.483	0.0163596
757.561	0.0163124
757.639	0.0164201
757.717	0.0164422
757.795	0.0162864
757.873	0.0163602
757.951	0.0163530
758.030	0.0164468
758.108	0.0164669
758.186	0.0166147
758.264	0.0164000
758.342	0.0165156
758.420	0.0164316
758.498	0.0163898
758.576	0.0165218
758.655	0.0163918
758.733	0.0165018
758.811	0.0165782
758.889	0.0163350
758.967	0.0164761
759.045	0.0164437
759.123	0.0163149
759.201	0.0162449
759.280	0.0162803
759.358	0.0161821
759.436	0.0163453
759.514	0.0162405
759.592	0.0162222
759.670	0.0161550
759.748	0.0160623
759.826	0.0161605
759.905	0.0161610
759.983	0.0161805
760.061	0.0160038
760.139	0.0161673
760.217	0.0162703
760.295	0.0161344
760.373	0.0160820
760.451	0.0161320
760.530	0.0159705
760.608	0.0160690
760.686	0.0161486
760.764	0.0160137
760.842	0.0161301
760.920	0.0160168
760.998	0.0161224
761.076	0.0161823
761.155	0.0161409
761.233	0.0161236
761.311	0.0162354
761.389	0.0161718
761.467	0.0162425
761.545	0.0161810
761.623	0.0162177
761.701	0.0162787
761.780	0.0161094
761.858	0.0163287
761.936	0.0161686
762.014	0.0162127
762.092	0.0161832
762.170	0.0163560
762.248	0.0163344
762.326	0.0163029
762.405	0.0160839
762.483	0.0162865
762.561	0.0163538
762.639	0.0163501
762.717	0.0163094
762.795	0.0163293
762.873	0.0163165
762.951	0.0163142
763.030	0.0162798
763.108	0.0164660
763.186	0.0163659
763.264	0.0162627
763.342	0.0164319
763.420	0.0164139
763.498	0.0163632
763.576	0.0164611
763.655	0.0162397
763.733	0.0163377
763.811	0.0164537
763.889	0.0164594
763.967	0.0164986
764.045	0.0165262
764.123	0.0165297
764.201	0.0167072
764.280	0.0164696
764.358	0.0165540
764.436	0.0166007
764.514	0.0165123
764.592	0.0166315
764.670	0.0166255
764.748	0.0165739
764.826	0.0165856
764.905	0.0165502
764.983	0.0164172
765.061	0.0165733
765.139	0.0165445
765.217	0.0165538
765.295	0.0165803
765.373	0.0164545
765.451	0.0164877
765.530	0.0164846
765.608	0.0163852
765.686	0.0164429
765.764	0.0164296
765.842	0.0164130
765.920	0.0165015
765.998	0.0164642
766.076	0.0165414
766.155	0.0163826
766.233	0.0163655
766.311	0.0163885
766.389	0.0163206
766.467	0.0163435
766.545	0.0163303
766.623	0.0162715
766.701	0.0160957
766.780	0.0161884
766.858	0.0161868
766.936	0.0160656
767.014	0.0160064
767.092	0.0161323
767.170	0.0161060
767.248	0.0161211
767.326	0.0160708
767.405	0.0160611
767.483	0.0160540
767.561	0.0159914
767.639	0.0159846
767.717	0.0160178
767.795	0.0160424
767.873	0.0160680
767.951	0.0160828
768.030	0.0160551
768.108	0.0161182
768.186	0.0161475
768.264	0.0161544
768.342	0.0162218
768.420	0.0162021
768.498	0.0163155
768.576	0.0163447
768.655	0.0163030
768.733	0.0164339
768.811	0.0164769
768.889	0.0165282
768.967	0.0164384
769.045	0.0165928
769.123	0.0164447
769.201	0.0165430
769.280	0.0166264
769.358	0.0167001
769.436	0.0166638
769.514	0.0166052
769.592	0.0167831
769.670	0.0167545
769.748	0.0167596
769.826	0.0167167
769.905	0.0167062
769.983	0.0168173
770.061	0.0167442
770.139	0.0165553
770.217	0.0166123
770.295	0.0165926
770.373	0.0164326
770.451	0.0163883
770.530	0.0165861
770.608	0.0165769
770.686	0.0164342
770.764	0.0162981
770.842	0.0164627
770.920	0.0162285
770.998	0.0162807
771.076	0.0162265
771.155	0.0162165
771.233	0.0161337
771.311	0.0162086
771.389	0.0160771
771.467	0.0160229
771.545	0.0160787
771.623	0.0158929
771.701	0.0159423
771.780	0.0160412
771.858	0.0160114
771.936	0.0159089
772.014	0.0160306
772.092	0.0159435
772.170	0.0159282
772.248	0.0159821
772.326	0.0160162
772.405	0.0160139
772.483	0.0161910
772.561	0.0160992
772.639	0.0162114
772.717	0.0162174
772.795	0.0162508
772.873	0.0161759
772.951	0.0162871
773.030	0.0161621
773.108	0.0163950
773.186	0.0163873
773.264	0.0163834
773.342	0.0164830
773.420	0.0164414
773.498	0.0164686
773.576	0.0165179
773.655	0.0164992
773.733	0.0167127
773.811	0.0165977
773.889	0.0165471
773.967	0.0166618
774.045	0.0166873
774.123	0.0165788
774.201	0.0166341
774.280	0.0165046
774.358	0.0166536
774.436	0.0166868
774.514	0.0166533
774.592	0.0165144
774.670	0.0165826
774.748	0.0165182
774.826	0.0165552
774.905	0.0164488
774.983	0.0165780
775.061	0.0163964
775.139	0.0164792
775.217	0.0164906
775.295	0.0163779
775.373	0.0162792
775.451	0.0164355
775.530	0.0162805
775.608	0.0163276
775.686	0.0163754
775.764	0.0163340
775.842	0.0162686
775.920	0.0162201
775.998	0.0162294
776.076	0.0162211
776.155	0.0161708
776.233	0.0161333
776.311	0.0162057
776.389	0.0162475
776.467	0.0162043
776.545	0.0160504
776.623	0.0160548
776.701	0.0161294
776.780	0.0161539
776.858	0.0161832
776.936	0.0160914
777.014	0.0161910
777.092	0.0162482
777.170	0.0161372
777.248	0.0161807
777.326	0.0162176
777.405	0.0163062
777.483	0.0161969
777.561	0.0161739
777.639	0.0162466
777.717	0.0163811
777.795	0.0163042
777.873	0.0163374
777.951	0.0162247
778.030	0.0162272
778.108	0.0162288
778.186	0.0162034
778.264	0.0161812
778.342	0.0162581
778.420	0.0162029
778.498	0.0163239
778.576	0.0162507
778.655	0.0161971
778.733	0.0161981
778.811	0.0164450
778.889	0.0163728
778.967	0.0164149
779.045	0.0164108
779.123	0.0163843
779.201	0.0165454
779.280	0.0165217
779.358	0.0165653
779.436	0.0165870
779.514	0.0165429
779.592	0.0166183
779.670	0.0165079
779.748	0.0166448
779.826	0.0166540
779.905	0.0167150
779.983	0.0167305
780.061	0.0167479
780.139	0.0166112
780.217	0.0166707
780.295	0.0166762
780.373	0.0166298
780.451	0.0166794
780.530	0.0166858
780.608	0.0166253
780.686	0.0165891
780.764	0.0165404
780.842	0.0166056
780.920	0.0165480
780.998	0.0164050
781.076	0.0164330
781.155	0.0164500
781.233	0.0164596
781.311	0.0164702
781.389	0.0163731
781.467	0.0164606
781.545	0.0163989
781.623	0.0161971
781.701	0.0163048
781.780	0.0164423
781.858	0.0162260
781.936	0.0162988
782.014	0.0161333
782.092	0.0160970
782.170	0.0162142
782.248	0.0161040
782.326	0.0160423
782.405	0.0159907
782.483	0.0159851
782.561	0.0159585
782.639	0.0159627
782.717	0.0158965
782.795	0.0159917
782.873	0.0157190
782.951	0.0159235
783.030	0.0158754
783.108	0.0159355
783.186	0.0159208
783.264	0.0158580
783.342	0.0159263
783.420	0.0158787
783.498	0.0158829
783.576	0.0159060
783.655	0.0160308
783.733	0.0160725
783.811	0.0159734
783.889	0.0161322
783.967	0.0161495
784.045	0.0161119
784.123	0.0161768
784.201	0.0161169
784.280	0.0161005
784.358	0.0162030
784.436	0.0162576
784.514	0.0163311
784.592	0.0162493
784.670	0.0163993
784.748	0.0162981
784.826	0.0163944
784.905	0.0163866
784.983	0.0163460
785.061	0.0163608
785.139	0.0164456
785.217	0.0164771
785.295	0.0165422
785.373	0.0164257
785.451	0.0164677
785.530	0.0164555
785.608	0.0165730
785.686	0.0164925
785.764	0.0165426
785.842	0.0166347
785.920	0.0166979
785.998	0.0167307
786.076	0.0166073
786.155	0.0165990
786.233	0.0166885
786.311	0.0166248
786.389	0.0165722
786.467	0.0165742
786.545	0.0165469
786.623	0.0165747
786.701	0.0166028
786.780	0.0165165
786.858	0.0164333
786.936	0.0165388
787.014	0.0165058
787.092	0.0164186
787.170	0.0165665
787.248	0.0163231
787.326	0.0163203
787.405	0.0164011
787.483	0.0163713
787.561	0.0162789
787.639	0.0162942
787.717	0.0164457
787.795	0.0163921
787.873	0.0163211
787.951	0.0162980
788.030	0.0161666
788.108	0.0162528
788.186	0.0163313
788.264	0.0162595
788.342	0.0162965
788.420	0.0161831
788.498	0.0162585
788.576	0.0160767
788.655	0.0161260
788.733	0.0163403
788.811	0.0162108
788.889	0.0161846
788.967	0.0160673
789.045	0.0162774
789.123	0.0161638
789.201	0.0161784
789.280	0.0163116
789.358	0.0162993
789.436	0.0162270
789.514	0.0161979
789.592	0.0162730
789.670	0.0162640
789.748	0.0162334
789.826	0.0163712
789.905	0.0164014
789.983	0.0164371
790.061	0.0161416
790.139	0.0164505
790.217	0.0163872
790.295	0.0163301
790.373	0.0163551
790.451	0.0163257
790.530	0.0164455
790.608	0.0164196
790.686	0.0163754
790.764	0.0163934
790.842	0.0164208
790.920	0.0165490
790.998	0.0163809
791.076	0.0164426
791.155	0.0165576
791.233	0.0165697
791.311	0.0164507
791.389	0.0163662
791.467	0.0165102
791.545	0.0164027
791.623	0.0165372
791.701	0.0165239
791.780	0.0163688
791.858	0.0163765
791.936	0.0166526
792.014	0.0165307
792.092	0.0165866
792.170	0.0164536
792.248	0.0163215
792.326	0.0164605
792.405	0.0162448
792.483	0.0163918
792.561	0.0164339
792.639	0.0163571
792.717	0.0162988
792.795	0.0164195
792.873	0.0163494
792.951	0.0163433
793.030	0.0163826
793.108	0.0163119
793.186	0.0162129
793.264	0.0163573
793.342	0.0164375
793.420	0.0164759
793.498	0.0163671
793.576	0.0163070
793.655	0.0162126
793.733	0.0164075
793.811	0.0162581
793.889	0.0163158
793.967	0.0163418
794.045	0.0163036
794.123	0.0161702
794.201	0.0162043
794.280	0.0162056
794.358	0.0162157
794.436	0.0162373
794.514	0.0163643
794.592	0.0162767
794.670	0.0161449
794.748	0.0161967
794.826	0.0162270
794.905	0.0161927
794.983	0.0162686
795.061	0.0162547
795.139	0.0162778
795.217	0.0162577
795.295	0.0163230
795.373	0.0161099
795.451	0.0161301
795.530	0.0162663
795.608	0.0163597
795.686	0.0163758
795.764	0.0163567
795.842	0.0162701
795.920	0.0163161
795.998	0.0163435
796.076	0.0162601
796.155	0.0164276
796.233	0.0163934
796.311	0.0163431
796.389	0.0163136
796.467	0.0164422
796.545	0.0163609
796.623	0.0166128
796.701	0.0165534
796.780	0.0163593
796.858	0.0164606
796.936	0.0163717
797.014	0.0163285
797.092	0.0164653
797.170	0.0164395
797.248	0.0164117
797.326	0.0163151
797.405	0.0163932
797.483	0.0162844
797.561	0.0162903
797.639	0.0163499
797.717	0.0163349
797.795	0.0164123
797.873	0.0164301
797.951	0.0163494
798.030	0.0164011
798.108	0.0164036
798.186	0.0165548
798.264	0.0163508
798.342	0.0163905
798.420	0.0162989
798.498	0.0162294
798.576	0.0162164
798.655	0.0163744
798.733	0.0163238
798.811	0.0162456
798.889	0.0163799
798.967	0.0162969
799.045	0.0161997
799.123	0.0162348
799.201	0.0160621
799.280	0.0161511
799.358	0.0162872
799.436	0.0162083
799.514	0.0161140
799.592	0.0159714
799.670	0.0161417
799.748	0.0160122
799.826	0.0160798
799.905	0.0161150
799.983	0.0160285
800.061	0.0160729
800.139	0.0162211
800.217	0.0161559
800.295	0.0161864
800.373	0.0160509
800.451	0.0161266
800.530	0.0162609
800.608	0.0162887
800.686	0.0161551
800.764	0.0162144
800.842	0.0162543
800.920	0.0162870
800.998	0.0162322
801.076	0.0162880
801.155	0.0163290
801.233	0.0162089
801.311	0.0163048
801.389	0.0163713
801.467	0.0162577
801.545	0.0163998
801.623	0.0164040
801.701	0.0163081
801.780	0.0163979
801.858	0.0163747
801.936	0.0165209
802.014	0.0164654
802.092	0.0164230
802.170	0.0164050
802.248	0.0162770
802.326	0.0163312
802.405	0.0165813
802.483	0.0164758
802.561	0.0164754
802.639	0.0164701
802.717	0.0164692
802.795	0.0165108
802.873	0.0163572
802.951	0.0163361
803.030	0.0164686
803.108	0.0164521
803.186	0.0163184
803.264	0.0162939
803.342	0.0163090
803.420	0.0162592
803.498	0.0162725
803.576	0.0163586
803.655	0.0164149
803.733	0.0163401
803.811	0.0162629
803.889	0.0162817
803.967	0.0162368
804.045	0.0161837
804.123	0.0162476
804.201	0.0163137
804.280	0.0161787
804.358	0.0162566
804.436	0.0163151
804.514	0.0161021
804.592	0.0161893
804.670	0.0162534
804.748	0.0162314
804.826	0.0160577
804.905	0.0161071
804.983	0.0160997
805.061	0.0162040
805.139	0.0161877
805.217	0.0162270
805.295	0.0161989
805.373	0.0162710
805.451	0.0162133
805.530	0.0163371
805.608	0.0162486
805.686	0.0162902
805.764	0.0161952
805.842	0.0160706
805.920	0.0163000
805.998	0.0163009
806.076	0.0163718
806.155	0.0163319
806.233	0.0162563
806.311	0.0163083
806.389	0.0162561
806.467	0.0163497
806.545	0.0164774
806.623	0.0162709
806.701	0.0163621
806.780	0.0163813
806.858	0.0162792
806.936	0.0164166
807.014	0.0164477
807.092	0.0162749
807.170	0.0162929
807.248	0.0162267
807.326	0.0162499
807.405	0.0163452
807.483	0.0162680
807.561	0.0163861
807.639	0.0162884
807.717	0.0162092
807.795	0.0161663
807.873	0.0161414
807.951	0.0162059
808.030	0.0161153
808.108	0.0161914
808.186	0.0162149
808.264	0.0163203
808.342	0.0162425
808.420	0.0163274
808.498	0.0161547
808.576	0.0161002
808.655	0.0163323
808.733	0.0162398
808.811	0.0161674
808.889	0.0163054
808.967	0.0161721
809.045	0.0162999
809.123	0.0162048
809.201	0.0162753
809.280	0.0163626
809.358	0.0161275
809.436	0.0163523
809.514	0.0164886
809.592	0.0163616
809.670	0.0162009
809.748	0.0162193
809.826	0.0162334
809.905	0.0163818
809.983	0.0163358
810.061	0.0163619
810.139	0.0162802
810.217	0.0162291
810.295	0.0161987
810.373	0.0163283
810.451	0.0163755
810.530	0.0163037
810.608	0.0162784
810.686	0.0163026
810.764	0.0162401
810.842	0.0162085
810.920	0.0163094
810.998	0.0162254
811.076	0.0161187
811.155	0.0162646
811.233	0.0162534
811.311	0.0162100
811.389	0.0161030
811.467	0.0161452
811.545	0.0162449
811.623	0.0162856
811.701	0.0161102
811.780	0.0161560
811.858	0.0160777
811.936	0.0163239
812.014	0.0161401
812.092	0.0162009
812.170	0.0162376
812.248	0.0161364
812.326	0.0161935
812.405	0.0161474
812.483	0.0162209
812.561	0.0162048
812.639	0.0162420
812.717	0.0162316
812.795	0.0161980
812.873	0.0163442
812.951	0.0163413
813.030	0.0163483
813.108	0.0162896
813.186	0.0164666
813.264	0.0164257
813.342	0.0163107
813.420	0.0164140
813.498	0.0164220
813.576	0.0162698
813.655	0.0163532
813.733	0.0165098
813.811	0.0162514
813.889	0.0164595
813.967	0.0164850
814.045	0.0164344
814.123	0.0164505
814.201	0.0163113
814.280	0.0163477
814.358	0.0165034
814.436	0.0165218
814.514	0.0164515
814.592	0.0164514
814.670	0.0164682
814.748	0.0164207
814.826	0.0164284
814.905	0.0164497
814.983	0.0164213
815.061	0.0164646
815.139	0.0162332
815.217	0.0163023
815.295	0.0164203
815.373	0.0164375
815.451	0.0163161
815.530	0.0162907
815.608	0.0164467
815.686	0.0163448
815.764	0.0163393
815.842	0.0162112
815.920	0.0163036
815.998	0.0164587
816.076	0.0162551
816.155	0.0164378
816.233	0.0164246
816.311	0.0163554
816.389	0.0164730
816.467	0.0163946
816.545	0.0162811
816.623	0.0164422
816.701	0.0165111
816.780	0.0164040
816.858	0.0163270
816.936	0.0164142
817.014	0.0164757
817.092	0.0164046
817.170	0.0165485
817.248	0.0164771
817.326	0.0164808
817.405	0.0165343
817.483	0.0164726
817.561	0.0165778
817.639	0.0165411
817.717	0.0167014
817.795	0.0165283
817.873	0.0165842
817.951	0.0165141
818.030	0.0165054
818.108	0.0165141
818.186	0.0164623
818.264	0.0163969
818.342	0.0165238
818.420	0.0165900
818.498	0.0166414
818.576	0.0163969
818.655	0.0164883
818.733	0.0164816
818.811	0.0164633
818.889	0.0164866
818.967	0.0163418
819.045	0.0162149
819.123	0.0162707
819.201	0.0162888
819.280	0.0163165
819.358	0.0162681
819.436	0.0163164
819.514	0.0161755
819.592	0.0161456
819.670	0.0159964
819.748	0.0161999
819.826	0.0162331
819.905	0.0161691
819.983	0.0161983
820.061	0.0161247
820.139	0.0160390
820.217	0.0160484
820.295	0.0161464
820.373	0.0160950
820.451	0.0160854
820.530	0.0160618
820.608	0.0162097
820.686	0.0163640
820.764	0.0162562
820.842	0.0161526
820.920	0.0163618
820.998	0.0163279
821.076	0.0163183
821.155	0.0164027
821.233	0.0163792
821.311	0.0163538
821.389	0.0164167
821.467	0.0164840
821.545	0.0164578
821.623	0.0163615
821.701	0.0165036
821.780	0.0164255
821.858	0.0163302
821.936	0.0165955
822.014	0.0164632
822.092	0.0163922
822.170	0.0162627
822.248	0.0164308
822.326	0.0164240
822.405	0.0164440
822.483	0.0165045
822.561	0.0163118
822.639	0.0164013
822.717	0.0164683
822.795	0.0162817
822.873	0.0162551
822.951	0.0164606
823.030	0.0164429
823.108	0.0164692
823.186	0.0164870
823.264	0.0164000
823.342	0.0163760
823.420	0.0164077
823.498	0.0164323
823.576	0.0162373
823.655	0.0161785
823.733	0.0162665
823.811	0.0163589
823.889	0.0162635
823.967	0.0163321
824.045	0.0162651
824.123	0.0162525
824.201	0.0162801
824.280	0.0164204
824.358	0.0163365
824.436	0.0163524
824.514	0.0161755
824.592	0.0163657
824.670	0.0163490
824.748	0.0162730
824.826	0.0164282
824.905	0.0163006
824.983	0.0162619
825.061	0.0162926
825.139	0.0162752
825.217	0.0162893
825.295	0.0163635
825.373	0.0163490
825.451	0.0162717
825.530	0.0162952
825.608	0.0163677
825.686	0.0163287
825.764	0.0164156
825.842	0.0163224
825.920	0.0163649
825.998	0.0163636
826.076	0.0163570
826.155	0.0163604
826.233	0.0162291
826.311	0.0162127
826.389	0.0161758
826.467	0.0163902
826.545	0.0161663
826.623	0.0162566
826.701	0.0162651
826.780	0.0162820
826.858	0.0162906
826.936	0.0162785
827.014	0.0161253
827.092	0.0162686
827.170	0.0162363
827.248	0.0162351
827.326	0.0162892
827.405	0.0160780
827.483	0.0162971
827.561	0.0161282
827.639	0.0160682
827.717	0.0161723
827.795	0.0161702
827.873	0.0162051
827.951	0.0160699
828.030	0.0161639
828.108	0.0162110
828.186	0.0161207
828.264	0.0161399
828.342	0.0161655
828.420	0.0160921
828.498	0.0161415
828.576	0.0161768
828.655	0.0162376
828.733	0.0162344
828.811	0.0163187
828.889	0.0161729
828.967	0.0162323
829.045	0.0163103
829.123	0.0163447
829.201	0.0163611
829.280	0.0162729
829.358	0.0162786
829.436	0.0163549
829.514	0.0162768
829.592	0.0163590
829.670	0.0163326
829.748	0.0163588
829.826	0.0163703
829.905	0.0162595
829.983	0.0164491
830.061	0.0163917
830.139	0.0161649
830.217	0.0163483
830.295	0.0164008
830.373	0.0161705
830.451	0.0162094
830.530	0.0162756
830.608	0.0161898
830.686	0.0164263
830.764	0.0162117
830.842	0.0162901
830.920	0.0162240
830.998	0.0162016
831.076	0.0161124
831.155	0.0161713
831.233	0.0161575
831.311	0.0161826
831.389	0.0162059
831.467	0.0161417
831.545	0.0162520
831.623	0.0163979
831.701	0.0162617
831.780	0.0162145
831.858	0.0162689
831.936	0.0162827
832.014	0.0163120
832.092	0.0161883
832.170	0.0162354
832.248	0.0162389
832.326	0.0162490
832.405	0.0161389
832.483	0.0162548
832.561	0.0162770
832.639	0.0164107
832.717	0.0162299
832.795	0.0161606
832.873	0.0161467
832.951	0.0164130
833.030	0.0162316
833.108	0.0163424
833.186	0.0164313
833.264	0.0163377
833.342	0.0162889
833.420	0.0162431
833.498	0.0162388
833.576	0.0163800
833.655	0.0163654
833.733	0.0164497
833.811	0.0162258
833.889	0.0163205
833.967	0.0163428
834.045	0.0164231
834.123	0.0163726
834.201	0.0163671
834.280	0.0164202
834.358	0.0163673
834.436	0.0162698
834.514	0.0163429
834.592	0.0162652
834.670	0.0162669
834.748	0.0162604
834.826	0.0162384
834.905	0.0162664
834.983	0.0163448
835.061	0.0164700
835.139	0.0164096
835.217	0.0163560
835.295	0.0163414
835.373	0.0164398
835.451	0.0162015
835.530	0.0163880
835.608	0.0163403
835.686	0.0163947
835.764	0.0164219
835.842	0.0164204
835.920	0.0163570
835.998	0.0164432
836.076	0.0164006
836.155	0.0164508
836.233	0.0164075
836.311	0.0163760
836.389	0.0164570
836.467	0.0164342
836.545	0.0164439
836.623	0.0165530
836.701	0.0163909
836.780	0.0163866
836.858	0.0166853
836.936	0.0164356
837.014	0.0164494
837.092	0.0165780
837.170	0.0164584
837.248	0.0163984
837.326	0.0164899
837.405	0.0164683
837.483	0.0165610
837.561	0.0164438
837.639	0.0164197
837.717	0.0163834
837.795	0.0163991
837.873	0.0164419
837.951	0.0163544
838.030	0.0163353
838.108	0.0164532
838.186	0.0165015
838.264	0.0163759
838.342	0.0163728
838.420	0.0163761
838.498	0.0164693
838.576	0.0164135
838.655	0.0162827
838.733	0.0162547
838.811	0.0163876
838.889	0.0163312
838.967	0.0164352
839.045	0.0162441
839.123	0.0162870
839.201	0.0164285
839.280	0.0164314
839.358	0.0163007
839.436	0.0163953
839.514	0.0163170
839.592	0.0162610
839.670	0.0162611
839.748	0.0163976
839.826	0.0163535
839.905	0.0163615
839.983	0.0163794
840.061	0.0164337
840.139	0.0164104
840.217	0.0162974
840.295	0.0164269
840.373	0.0163838
840.451	0.0163205
840.530	0.0164438
840.608	0.0164353
840.686	0.0164236
840.764	0.0165089
840.842	0.0163910
840.920	0.0163889
840.998	0.0163818
841.076	0.0163556
841.155	0.0162460
841.233	0.0164811
841.311	0.0162969
841.389	0.0165107
841.467	0.0163005
841.545	0.0162927
841.623	0.0163754
841.701	0.0164575
841.780	0.0164008
841.858	0.0162511
841.936	0.0163478
842.014	0.0163351
842.092	0.0163490
842.170	0.0164233
842.248	0.0164020
842.326	0.0163987
842.405	0.0163383
842.483	0.0163719
842.561	0.0163679
842.639	0.0164199
842.717	0.0163234
842.795	0.0164851
842.873	0.0163592
842.951	0.0162814
843.030	0.0163544
843.108	0.0162678
843.186	0.0162970
843.264	0.0163146
843.342	0.0164808
843.420	0.0164743
843.498	0.0163814
843.576	0.0164335
843.655	0.0164301
843.733	0.0165135
843.811	0.0163931
843.889	0.0164720
843.967	0.0163584
844.045	0.0164510
844.123	0.0164539
844.201	0.0164735
844.280	0.0165237
844.358	0.0165067
844.436	0.0164867
844.514	0.0166884
844.592	0.0164129
844.670	0.0165091
844.748	0.0164991
844.826	0.0164574
844.905	0.0163677
844.983	0.0165505
845.061	0.0165470
845.139	0.0164996
845.217	0.0164831
845.295	0.0164391
845.373	0.0164069
845.451	0.0163893
845.530	0.0164973
845.608	0.0165403
845.686	0.0164624
845.764	0.0163159
845.842	0.0164644
845.920	0.0164763
845.998	0.0162894
846.076	0.0163359
846.155	0.0163332
846.233	0.0164064
846.311	0.0163712
846.389	0.0163282
846.467	0.0163900
846.545	0.0163299
846.623	0.0164475
846.701	0.0163345
846.780	0.0163120
846.858	0.0163473
846.936	0.0164359
847.014	0.0163701
847.092	0.0162890
847.170	0.0162751
847.248	0.0163404
847.326	0.0163586
847.405	0.0164091
847.483	0.0162392
847.561	0.0163231
847.639	0.0163032
847.717	0.0163934
847.795	0.0163480
847.873	0.0162879
847.951	0.0163393
848.030	0.0162617
848.108	0.0162901
848.186	0.0163338
848.264	0.0162461
848.342	0.0163892
848.420	0.0162032
848.498	0.0161764
848.576	0.0162267
848.655	0.0163827
848.733	0.0162377
848.811	0.0163670
848.889	0.0162194
848.967	0.0161747
849.045	0.0163234
849.123	0.0163010
849.201	0.0163213
849.280	0.0162249
849.358	0.0163133
849.436	0.0163045
849.514	0.0162943
849.592	0.0164095
849.670	0.0162176
849.748	0.0162270
849.826	0.0162090
849.905	0.0162881
849.983	0.0162699
850.061	0.0163136
850.139	0.0163033
850.217	0.0162157
850.295	0.0162831
850.373	0.0161761
850.451	0.0162782
850.530	0.0162485
850.608	0.0162719
850.686	0.0162397
850.764	0.0163613
850.842	0.0161324
850.920	0.0161127
850.998	0.0162656
851.076	0.0163090
851.155	0.0162171
851.233	0.0160905
851.311	0.0162640
851.389	0.0163457
851.467	0.0162651
851.545	0.0162186
851.623	0.0162263
851.701	0.0163083
851.780	0.0163343
851.858	0.0162278
851.936	0.0162347
852.014	0.0161706
852.092	0.0162438
852.170	0.0162366
852.248	0.0162642
852.326	0.0161980
852.405	0.0161877
852.483	0.0163253
852.561	0.0161389
852.639	0.0162485
852.717	0.0162250
852.795	0.0162837
852.873	0.0162184
852.951	0.0162701
853.030	0.0163772
853.108	0.0163689
853.186	0.0161839
853.264	0.0162494
853.342	0.0163032
853.420	0.0163173
853.498	0.0162638
853.576	0.0162046
853.655	0.0163816
853.733	0.0161868
853.811	0.0162940
853.889	0.0163711
853.967	0.0162528
854.045	0.0162311
854.123	0.0162622
854.201	0.0164062
854.280	0.0162022
854.358	0.0162843
854.436	0.0163033
854.514	0.0160752
854.592	0.0161496
854.670	0.0163092
854.748	0.0163231
854.826	0.0162614
854.905	0.0163184
854.983	0.0164514
855.061	0.0162701
855.139	0.0163561
855.217	0.0163374
855.295	0.0162387
855.373	0.0164456
855.451	0.0165043
855.530	0.0162965
855.608	0.0163094
855.686	0.0163604
855.764	0.0163278
855.842	0.0164658
855.920	0.0163406
855.998	0.0164272
856.076	0.0164809
856.155	0.0163570
856.233	0.0161990
856.311	0.0163148
856.389	0.0163332
856.467	0.0163231
856.545	0.0163857
856.623	0.0164346
856.701	0.0163981
856.780	0.0164057
856.858	0.0162322
856.936	0.0161267
857.014	0.0160748
857.092	0.0163245
857.170	0.0161925
857.248	0.0162221
857.326	0.0160999
857.405	0.0162063
857.483	0.0163120
857.561	0.0162358
857.639	0.0161687
857.717	0.0163345
857.795	0.0163994
857.873	0.0162971
857.951	0.0162996
858.030	0.0163396
858.108	0.0163602
858.186	0.0164109
858.264	0.0162936
858.342	0.0163507
858.420	0.0164545
858.498	0.0164849
858.576	0.0165677
858.655	0.0166015
858.733	0.0163676
858.811	0.0163056
858.889	0.0166076
858.967	0.0164563
859.045	0.0164365
859.123	0.0166358
859.201	0.0164954
859.280	0.0164483
859.358	0.0165063
859.436	0.0164305
859.514	0.0164157
859.592	0.0164520
859.670	0.0163851
859.748	0.0164876
859.826	0.0164364
859.905	0.0163846
859.983	0.0163864
860.061	0.0165239
860.139	0.0163838
860.217	0.0163770
860.295	0.0164026
860.373	0.0163046
860.451	0.0162666
860.530	0.0162604
860.608	0.0162337
860.686	0.0163149
860.764	0.0163641
860.842	0.0161604
860.920	0.0162142
860.998	0.0161579
861.076	0.0161951
861.155	0.0163760
861.233	0.0162191
861.311	0.0162083
861.389	0.0161909
861.467	0.0164207
861.545	0.0162054
861.623	0.0161459
861.701	0.0162747
861.780	0.0163005
861.858	0.0162849
861.936	0.0161750
862.014	0.0160716
862.092	0.0162637
862.170	0.0162525
862.248	0.0160931
862.326	0.0161236
862.405	0.0159891
862.483	0.0160381
862.561	0.0160529
862.639	0.0162508
862.717	0.0163154
862.795	0.0161852
862.873	0.0161150
862.951	0.0163364
863.030	0.0162524
863.108	0.0162050
863.186	0.0161940
863.264	0.0163321
863.342	0.0162221
863.420	0.0163221
863.498	0.0162503
863.576	0.0162891
863.655	0.0164278
863.733	0.0163384
863.811	0.0161793
863.889	0.0163644
863.967	0.0163175
864.045	0.0162798
864.123	0.0163271
864.201	0.0163248
864.280	0.0163961
864.358	0.0164661
864.436	0.0162819
864.514	0.0163309
864.592	0.0164133
864.670	0.0165126
864.748	0.0165408
864.826	0.0164362
864.905	0.0164123
864.983	0.0164912
865.061	0.0164204
865.139	0.0165648
865.217	0.0164733
865.295	0.0164520
865.373	0.0165197
865.451	0.0164342
865.530	0.0164877
865.608	0.0165930
865.686	0.0166863
865.764	0.0165752
865.842	0.0165330
865.920	0.0165311
865.998	0.0166370
866.076	0.0165644
866.155	0.0165604
866.233	0.0164574
866.311	0.0164253
866.389	0.0165025
866.467	0.0165308
866.545	0.0165150
866.623	0.0165215
866.701	0.0165240
866.780	0.0162737
866.858	0.0165576
866.936	0.0164011
867.014	0.0164384
867.092	0.0164810
867.170	0.0165365
867.248	0.0164872
867.326	0.0164467
867.405	0.0163049
867.483	0.0164009
867.561	0.0165495
867.639	0.0164353
867.717	0.0164068
867.795	0.0164798
867.873	0.0164124
867.951	0.0164799
868.030	0.0164189
868.108	0.0164673
868.186	0.0162904
868.264	0.0163512
868.342	0.0162206
868.420	0.0161893
868.498	0.0163836
868.576	0.0162514
868.655	0.0162611
868.733	0.0163618
868.811	0.0163719
868.889	0.0162591
868.967	0.0162495
869.045	0.0162550
869.123	0.0163721
869.201	0.0163630
869.280	0.0163344
869.358	0.0163062
869.436	0.0163026
869.514	0.0164199
869.592	0.0163336
869.670	0.0163740
869.748	0.0161186
869.826	0.0162930
869.905	0.0164259
869.983	0.0162672
870.061	0.0164025
870.139	0.0162727
870.217	0.0163734
870.295	0.0163074
870.373	0.0162746
870.451	0.0162482
870.530	0.0162292
870.608	0.0163590
870.686	0.0163219
870.764	0.0163162
870.842	0.0163445
870.920	0.0163373
870.998	0.0162687
871.076	0.0163039
871.155	0.0164526
871.233	0.0163088
871.311	0.0163732
871.389	0.0162626
871.467	0.0162479
871.545	0.0163145
871.623	0.0162410
871.701	0.0161078
871.780	0.0161302
871.858	0.0163150
871.936	0.0162207
872.014	0.0162828
872.092	0.0162545
872.170	0.0161608
872.248	0.0161388
872.326	0.0161221
872.405	0.0161584
872.483	0.0161897
872.561	0.0160468
872.639	0.0162263
872.717	0.0161716
872.795	0.0162222
872.873	0.0162596
872.951	0.0161301
873.030	0.0162749
873.108	0.0163065
873.186	0.0162475
873.264	0.0162641
873.342	0.0162720
873.420	0.0163029
873.498	0.0163342
873.576	0.0161894
873.655	0.0164136
873.733	0.0163513
873.811	0.0162254
873.889	0.0162381
873.967	0.0163221
874.045	0.0164854
874.123	0.0162458
874.201	0.0163232
874.280	0.0163318
874.358	0.0162369
874.436	0.0163071
874.514	0.0161652
874.592	0.0164188
874.670	0.0163789
874.748	0.0162859
874.826	0.0164131
874.905	0.0163416
874.983	0.0162571
875.061	0.0164476
875.139	0.0162129
875.217	0.0163206
875.295	0.0163618
875.373	0.0164204
875.451	0.0163019
875.530	0.0163533
875.608	0.0162782
875.686	0.0164276
875.764	0.0164000
875.842	0.0162481
875.920	0.0164358
875.998	0.0163288
876.076	0.0162256
876.155	0.0163029
876.233	0.0164690
876.311	0.0163572
876.389	0.0163261
876.467	0.0163132
876.545	0.0162575
876.623	0.0162941
876.701	0.0164098
876.780	0.0163496
876.858	0.0163078
876.936	0.0162409
877.014	0.0162652
877.092	0.0164149
877.170	0.0163234
877.248	0.0164036
877.326	0.0164169
877.405	0.0162866
877.483	0.0163422
877.561	0.0163661
877.639	0.0163876
877.717	0.0163587
877.795	0.0164301
877.873	0.0163068
877.951	0.0165372
878.030	0.0164117
878.108	0.0162326
878.186	0.0163638
878.264	0.0164516
878.342	0.0163245
878.420	0.0163240
878.498	0.0163115
878.576	0.0162569
878.655	0.0163914
878.733	0.0163249
878.811	0.0163435
878.889	0.0162960
878.967	0.0163582
879.045	0.0163404
879.123	0.0164449
879.201	0.0162830
879.280	0.0163497
879.358	0.0164951
879.436	0.0165278
879.514	0.0163647
879.592	0.0162844
879.670	0.0162804
879.748	0.0162547
879.826	0.0162934
879.905	0.0163148
879.983	0.0163779
880.061	0.0163377
880.139	0.0162713
880.217	0.0161237
880.295	0.0163188
880.373	0.0163549
880.451	0.0163186
880.530	0.0163948
880.608	0.0163408
880.686	0.0164160
880.764	0.0163599
880.842	0.0163521
880.920	0.0163923
880.998	0.0163754
881.076	0.0164075
881.155	0.0165083
881.233	0.0163689
881.311	0.0164898
881.389	0.0162611
881.467	0.0164388
881.545	0.0163787
881.623	0.0163457
881.701	0.0163071
881.780	0.0163184
881.858	0.0164759
881.936	0.0165239
882.014	0.0163601
882.092	0.0163931
882.170	0.0164897
882.248	0.0164598
882.326	0.0164145
882.405	0.0163304
882.483	0.0164439
882.561	0.0163481
882.639	0.0163683
882.717	0.0164545
882.795	0.0163692
882.873	0.0162363
882.951	0.0162913
883.030	0.0164098
883.108	0.0164329
883.186	0.0163600
883.264	0.0163528
883.342	0.0164535
883.420	0.0163585
883.498	0.0163340
883.576	0.0163145
883.655	0.0164381
883.733	0.0162295
883.811	0.0162089
883.889	0.0162772
883.967	0.0161382
884.045	0.0162357
884.123	0.0161883
884.201	0.0163414
884.280	0.0161929
884.358	0.0163969
884.436	0.0163713
884.514	0.0162893
884.592	0.0162254
884.670	0.0162884
884.748	0.0164723
884.826	0.0163110
884.905	0.0162493
884.983	0.0163602
885.061	0.0164284
885.139	0.0163351
885.217	0.0160470
885.295	0.0162009
885.373	0.0163401
885.451	0.0163005
885.530	0.0163175
885.608	0.0163253
885.686	0.0162237
885.764	0.0162074
885.842	0.0161769
885.920	0.0162132
885.998	0.0160787
886.076	0.0161131
886.155	0.0163135
886.233	0.0163322
886.311	0.0162453
886.389	0.0162359
886.467	0.0161601
886.545	0.0162617
886.623	0.0161796
886.701	0.0161871
886.780	0.0161686
886.858	0.0162502
886.936	0.0162545
887.014	0.0162841
887.092	0.0162495
887.170	0.0161269
887.248	0.0160805
887.326	0.0161878
887.405	0.0162585
887.483	0.0162328
887.561	0.0161719
887.639	0.0162665
887.717	0.0162582
887.795	0.0161961
887.873	0.0162415
887.951	0.0162923
888.030	0.0163390
888.108	0.0163245
888.186	0.0162905
888.264	0.0162696
888.342	0.0162159
888.420	0.0164767
888.498	0.0163088
888.576	0.0162863
888.655	0.0164903
888.733	0.0163972
888.811	0.0164990
888.889	0.0163681
888.967	0.0163788
889.045	0.0163756
889.123	0.0164213
889.201	0.0163944
889.280	0.0164025
889.358	0.0164254
889.436	0.0164565
889.514	0.0163476
889.592	0.0164989
889.670	0.0163631
889.748	0.0164372
889.826	0.0163731
889.905	0.0162948
889.983	0.0162787
890.061	0.0164474
890.139	0.0163216
890.217	0.0163682
890.295	0.0164466
890.373	0.0163604
890.451	0.0162062
890.530	0.0162066
890.608	0.0164004
890.686	0.0163049
890.764	0.0162290
890.842	0.0161266
890.920	0.0162767
890.998	0.0162546
891.076	0.0163969
891.155	0.0163336
891.233	0.0164117
891.311	0.0162468
891.389	0.0163060
891.467	0.0162364
891.545	0.0162944
891.623	0.0162531
891.701	0.0163152
891.780	0.0161466
891.858	0.0162072
891.936	0.0161937
892.014	0.0161665
892.092	0.0161343
892.170	0.0160388
892.248	0.0162634
892.326	0.0162829
892.405	0.0162481
892.483	0.0163097
892.561	0.0160563
892.639	0.0162142
892.717	0.0162108
892.795	0.0161040
892.873	0.0162465
892.951	0.0161468
893.030	0.0161382
893.108	0.0161240
893.186	0.0160558
893.264	0.0162997
893.342	0.0162138
893.420	0.0162267
893.498	0.0161866
893.576	0.0160918
893.655	0.0161173
893.733	0.0162135
893.811	0.0162140
893.889	0.0161698
893.967	0.0161931
894.045	0.0162515
894.123	0.0162260
894.201	0.0162628
894.280	0.0162465
894.358	0.0161526
894.436	0.0160840
894.514	0.0161596
894.592	0.0162668
894.670	0.0162560
894.748	0.0161573
894.826	0.0161831
894.905	0.0163425
894.983	0.0162968
895.061	0.0162227
895.139	0.0162159
895.217	0.0162453
895.295	0.0162714
895.373	0.0162193
895.451	0.0162733
895.530	0.0161465
895.608	0.0162723
895.686	0.0162861
895.764	0.0163579
895.842	0.0163026
895.920	0.0161247
895.998	0.0162183
896.076	0.0162666
896.155	0.0161694
896.233	0.0162247
896.311	0.0162331
896.389	0.0162569
896.467	0.0163623
896.545	0.0162518
896.623	0.0162089
896.701	0.0161876
896.780	0.0162102
896.858	0.0161199
896.936	0.0163286
897.014	0.0162521
897.092	0.0161186
897.170	0.0163019
897.248	0.0163796
897.326	0.0162747
897.405	0.0163271
897.483	0.0162337
897.561	0.0162778
897.639	0.0162499
897.717	0.0163786
897.795	0.0162115
897.873	0.0163816
897.951	0.0163445
898.030	0.0163094
898.108	0.0162752
898.186	0.0163373
898.264	0.0163013
898.342	0.0162656
898.420	0.0162474
898.498	0.0162426
898.576	0.0163223
898.655	0.0162482
898.733	0.0162864
898.811	0.0163678
898.889	0.0162275
898.967	0.0162831
899.045	0.0163380
899.123	0.0163183
899.201	0.0162964
899.280	0.0162305
899.358	0.0164152
899.436	0.0162308
899.514	0.0163197
899.592	0.0162532
899.670	0.0162847
899.748	0.0164217
899.826	0.0165019
899.905	0.0163803
899.983	0.0164317
900.061	0.0163172
900.139	0.0164755
900.217	0.0163534
900.295	0.0163611
900.373	0.0164584
900.451	0.0163551
900.530	0.0163703
900.608	0.0162874
900.686	0.0164200
900.764	0.0163300
900.842	0.0163747
900.920	0.0162920
900.998	0.0163458
901.076	0.0162773
901.155	0.0162542
901.233	0.0162988
901.311	0.0162735
901.389	0.0161971
901.467	0.0162035
901.545	0.0162029
901.623	0.0163049
901.701	0.0163491
901.780	0.0162874
901.858	0.0162877
901.936	0.0164374
902.014	0.0161893
902.092	0.0162582
902.170	0.0164207
902.248	0.0164558
902.326	0.0164405
902.405	0.0163652
902.483	0.0163781
902.561	0.0164786
902.639	0.0165276
902.717	0.0165266
902.795	0.0164560
902.873	0.0164182
902.951	0.0164890
903.030	0.0164045
903.108	0.0165581
903.186	0.0165016
903.264	0.0163129
903.342	0.0163698
903.420	0.0164118
903.498	0.0163895
903.576	0.0163642
903.655	0.0164750
903.733	0.0163129
903.811	0.0161686
903.889	0.0163059
903.967	0.0163581
904.045	0.0162298
904.123	0.0162471
904.201	0.0163749
904.280	0.0162355
904.358	0.0162732
904.436	0.0163958
904.514	0.0163223
904.592	0.0164245
904.670	0.0163761
904.748	0.0162952
904.826	0.0164272
904.905	0.0164424
904.983	0.0163752
905.061	0.0164942
905.139	0.0163191
905.217	0.0163984
905.295	0.0162494
905.373	0.0164928
905.451	0.0164687
905.530	0.0163274
905.608	0.0163774
905.686	0.0164346
905.764	0.0163484
905.842	0.0164039
905.920	0.0163719
905.998	0.0163219
906.076	0.0163739
906.155	0.0162868
906.233	0.0161978
906.311	0.0164315
906.389	0.0164323
906.467	0.0162753
906.545	0.0162508
906.623	0.0163175
906.701	0.0164483
906.780	0.0164335
906.858	0.0164183
906.936	0.0163827
907.014	0.0163895
907.092	0.0163780
907.170	0.0164757
907.248	0.0163532
907.326	0.0163009
907.405	0.0163869
907.483	0.0162272
907.561	0.0163589
907.639	0.0163695
907.717	0.0163916
907.795	0.0163772
907.873	0.0163629
907.951	0.0163578
908.030	0.0162273
908.108	0.0162337
908.186	0.0163846
908.264	0.0163403
908.342	0.0162025
908.420	0.0162720
908.498	0.0162839
908.576	0.0163995
908.655	0.0163390
908.733	0.0163073
908.811	0.0163793
908.889	0.0161747
908.967	0.0161880
909.045	0.0162246
909.123	0.0163324
909.201	0.0162552
909.280	0.0162164
909.358	0.0161856
909.436	0.0163590
909.514	0.0162731
909.592	0.0162925
909.670	0.0162241
909.748	0.0160962
909.826	0.0162923
909.905	0.0161922
909.983	0.0163019
910.061	0.0162209
910.139	0.0161457
910.217	0.0161716
910.295	0.0161879
910.373	0.0161705
910.451	0.0162134
910.530	0.0163670
910.608	0.0163057
910.686	0.0162163
910.764	0.0163853
910.842	0.0164658
910.920	0.0163320
910.998	0.0163550
911.076	0.0161984
911.155	0.0164819
911.233	0.0165051
911.311	0.0163039
911.389	0.0164148
911.467	0.0163818
911.545	0.0163284
911.623	0.0164543
911.701	0.0164671
911.780	0.0164314
911.858	0.0164237
911.936	0.0163127
912.014	0.0162392
912.092	0.0163817
912.170	0.0163695
912.248	0.0164187
912.326	0.0162668
912.405	0.0164082
912.483	0.0163836
912.561	0.0163831
912.639	0.0163421
912.717	0.0162392
912.795	0.0162357
912.873	0.0163290
912.951	0.0163554
913.030	0.0163995
913.108	0.0163036
913.186	0.0162354
913.264	0.0161620
913.342	0.0163127
913.420	0.0163198
913.498	0.0160822
913.576	0.0162375
913.655	0.0162601
913.733	0.0163278
913.811	0.0161953
913.889	0.0163960
913.967	0.0162703
914.045	0.0161390
914.123	0.0162907
914.201	0.0162751
914.280	0.0164061
914.358	0.0162693
914.436	0.0161735
914.514	0.0162624
914.592	0.0162688
914.670	0.0163345
914.748	0.0163363
914.826	0.0161776
914.905	0.0163894
914.983	0.0163989
915.061	0.0163222
915.139	0.0164664
915.217	0.0163076
915.295	0.0163023
915.373	0.0163218
915.451	0.0164360
915.530	0.0164440
915.608	0.0162411
915.686	0.0162970
915.764	0.0163602
915.842	0.0163367
915.920	0.0162970
915.998	0.0161894
916.076	0.0162749
916.155	0.0162766
916.233	0.0163640
916.311	0.0164586
916.389	0.0162909
916.467	0.0162673
916.545	0.0164465
916.623	0.0163446
916.701	0.0163049
916.780	0.0163122
916.858	0.0162585
916.936	0.0162556
917.014	0.0162415
917.092	0.0162753
917.170	0.0163466
917.248	0.0163078
917.326	0.0164112
917.405	0.0163301
917.483	0.0163847
917.561	0.0163849
917.639	0.0164475
917.717	0.0164256
917.795	0.0163768
917.873	0.0164147
917.951	0.0166344
918.030	0.0163507
918.108	0.0163416
918.186	0.0164987
918.264	0.0164748
918.342	0.0164882
918.420	0.0165442
918.498	0.0165408
918.576	0.0163481
918.655	0.0164791
918.733	0.0166106
918.811	0.0165092
918.889	0.0163750
918.967	0.0165144
919.045	0.0165439
919.123	0.0164179
919.201	0.0164744
919.280	0.0165182
919.358	0.0163628
919.436	0.0163094
919.514	0.0163355
919.592	0.0163628
919.670	0.0163143
919.748	0.0162936
919.826	0.0162526
919.905	0.0162691
919.983	0.0164159
920.061	0.0163251
920.139	0.0162840
920.217	0.0162566
920.295	0.0163049
920.373	0.0163098
920.451	0.0161375
920.530	0.0161679
920.608	0.0162910
920.686	0.0162844
920.764	0.0160625
920.842	0.0162370
920.920	0.0161415
920.998	0.0162478
921.076	0.0161578
921.155	0.0161835
921.233	0.0162035
921.311	0.0162151
921.389	0.0161663
921.467	0.0160824
921.545	0.0162026
921.623	0.0160881
921.701	0.0161974
921.780	0.0161520
921.858	0.0160627
921.936	0.0162591
922.014	0.0162079
922.092	0.0161934
922.170	0.0161900
922.248	0.0161591
922.326	0.0160952
922.405	0.0161963
922.483	0.0162776
922.561	0.0162527
922.639	0.0161343
922.717	0.0162006
922.795	0.0162151
922.873	0.0164705
922.951	0.0162048
923.030	0.0162537
923.108	0.0162631
923.186	0.0163266
923.264	0.0163866
923.342	0.0164128
923.420	0.0164066
923.498	0.0163335
923.576	0.0162979
923.655	0.0164127
923.733	0.0162630
923.811	0.0163187
923.889	0.0163581
923.967	0.0163642
924.045	0.0163626
924.123	0.0162543
924.201	0.0163166
924.280	0.0161175
924.358	0.0164200
924.436	0.0163129
924.514	0.0161211
924.592	0.0162769
924.670	0.0162704
924.748	0.0163375
924.826	0.0161557
924.905	0.0161333
924.983	0.0162299
925.061	0.0162355
925.139	0.0161404
925.217	0.0162910
925.295	0.0161083
925.373	0.0160172
925.451	0.0162154
925.530	0.0162754
925.608	0.0162428
925.686	0.0162656
925.764	0.0160855
925.842	0.0161618
925.920	0.0162243
925.998	0.0162868
926.076	0.0163622
926.155	0.0161729
926.233	0.0162325
926.311	0.0161946
926.389	0.0164189
926.467	0.0163184
926.545	0.0162234
926.623	0.0162444
926.701	0.0162177
926.780	0.0161619
926.858	0.0161108
926.936	0.0163297
927.014	0.0161330
927.092	0.0160348
927.170	0.0162032
927.248	0.0162402
927.326	0.0162469
927.405	0.0162087
927.483	0.0161884
927.561	0.0160404
927.639	0.0160123
927.717	0.0162505
927.795	0.0162687
927.873	0.0160397
927.951	0.0161658
928.030	0.0162441
928.108	0.0161684
928.186	0.0161559
928.264	0.0162396
928.342	0.0161368
928.420	0.0162733
928.498	0.0163195
928.576	0.0163729
928.655	0.0163529
928.733	0.0162352
928.811	0.0163002
928.889	0.0162608
928.967	0.0164468
929.045	0.0162336
929.123	0.0162740
929.201	0.0163002
929.280	0.0161617
929.358	0.0161475
929.436	0.0161647
929.514	0.0162048
929.592	0.0163818
929.670	0.0162165
929.748	0.0162391
929.826	0.0162525
929.905	0.0161402
929.983	0.0162434
930.061	0.0162111
930.139	0.0161729
930.217	0.0162077
930.295	0.0162095
930.373	0.0163267
930.451	0.0162451
930.530	0.0162893
930.608	0.0161360
930.686	0.0163464
930.764	0.0162774
930.842	0.0163110
930.920	0.0161267
930.998	0.0163708
931.076	0.0163400
931.155	0.0162984
931.233	0.0162825
931.311	0.0162978
931.389	0.0163184
931.467	0.0163133
931.545	0.0162397
931.623	0.0162926
931.701	0.0163063
931.780	0.0162659
931.858	0.0163683
931.936	0.0163425
932.014	0.0163242
932.092	0.0165235
932.170	0.0163873
932.248	0.0162638
932.326	0.0164449
932.405	0.0164680
932.483	0.0163002
932.561	0.0163728
932.639	0.0163911
932.717	0.0163472
932.795	0.0164207
932.873	0.0163023
932.951	0.0164510
933.030	0.0163590
933.108	0.0164028
933.186	0.0162202
933.264	0.0162542
933.342	0.0163451
933.420	0.0164091
933.498	0.0162997
933.576	0.0162806
933.655	0.0162238
933.733	0.0162885
933.811	0.0164272
933.889	0.0164862
933.967	0.0164529
934.045	0.0163368
934.123	0.0164367
934.201	0.0164371
934.280	0.0165880
934.358	0.0164201
934.436	0.0163499
934.514	0.0164001
934.592	0.0164989
934.670	0.0163480
934.748	0.0164980
934.826	0.0165530
934.905	0.0164017
934.983	0.0164287
935.061	0.0162781
935.139	0.0164066
935.217	0.0163927
935.295	0.0163869
935.373	0.0163748
935.451	0.0164185
935.530	0.0163140
935.608	0.0163680
935.686	0.0165124
935.764	0.0164147
935.842	0.0163495
935.920	0.0163580
935.998	0.0163065
936.076	0.0163770
936.155	0.0164279
936.233	0.0163797
936.311	0.0163755
936.389	0.0163650
936.467	0.0163006
936.545	0.0163046
936.623	0.0163732
936.701	0.0164656
936.780	0.0163903
936.858	0.0163300
936.936	0.0161918
937.014	0.0163370
937.092	0.0162697
937.170	0.0163174
937.248	0.0163953
937.326	0.0163386
937.405	0.0163345
937.483	0.0162587
937.561	0.0162592
937.639	0.0162778
937.717	0.0162585
937.795	0.0162450
937.873	0.0160799
937.951	0.0163435
938.030	0.0161379
938.108	0.0162298
938.186	0.0163128
938.264	0.0162705
938.342	0.0162103
938.420	0.0163348
938.498	0.0163124
938.576	0.0162297
938.655	0.0162568
938.733	0.0162760
938.811	0.0164204
938.889	0.0163717
938.967	0.0162108
939.045	0.0162785
939.123	0.0164900
939.201	0.0163565
939.280	0.0163786
939.358	0.0164101
939.436	0.0164093
939.514	0.0163525
939.592	0.0163932
939.670	0.0164347
939.748	0.0164587
939.826	0.0162901
939.905	0.0163970
939.983	0.0163987
940.061	0.0164817
940.139	0.0164446
940.217	0.0164011
940.295	0.0163647
940.373	0.0163045
940.451	0.0164483
940.530	0.0163625
940.608	0.0164366
940.686	0.0163969
940.764	0.0162642
940.842	0.0162537
940.920	0.0164115
940.998	0.0162057
941.076	0.0162488
941.155	0.0163793
941.233	0.0163278
941.311	0.0162264
941.389	0.0162665
941.467	0.0163695
941.545	0.0162531
941.623	0.0161887
941.701	0.0163290
941.780	0.0163081
941.858	0.0161559
941.936	0.0162309
942.014	0.0163331
942.092	0.0162453
942.170	0.0162276
942.248	0.0163009
942.326	0.0162041
942.405	0.0162039
942.483	0.0161907
942.561	0.0163947
942.639	0.0163026
942.717	0.0162260
942.795	0.0163347
942.873	0.0163518
942.951	0.0162117
943.030	0.0161356
943.108	0.0163835
943.186	0.0162643
943.264	0.0162968
943.342	0.0164485
943.420	0.0162661
943.498	0.0163029
943.576	0.0161640
943.655	0.0162326
943.733	0.0162627
943.811	0.0163563
943.889	0.0161206
943.967	0.0162517
944.045	0.0163467
944.123	0.0162626
944.201	0.0162359
944.280	0.0162113
944.358	0.0162734
944.436	0.0161403
944.514	0.0162715
944.592	0.0161713
944.670	0.0162110
944.748	0.0162150
944.826	0.0163461
944.905	0.0162297
944.983	0.0161533
945.061	0.0161485
945.139	0.0162473
945.217	0.0163161
945.295	0.0162950
945.373	0.0162321
945.451	0.0162272
945.530	0.0163067
945.608	0.0162512
945.686	0.0162827
945.764	0.0162990
945.842	0.0164192
945.920	0.0163329
945.998	0.0163371
946.076	0.0162596
946.155	0.0162873
946.233	0.0162793
946.311	0.0163203
946.389	0.0163231
946.467	0.0163433
946.545	0.0163320
946.623	0.0162905
946.701	0.0162069
946.780	0.0163291
946.858	0.0163944
946.936	0.0163908
947.014	0.0163074
947.092	0.0162232
947.170	0.0162418
947.248	0.0162885
947.326	0.0163035
947.405	0.0162368
947.483	0.0163000
947.561	0.0163883
947.639	0.0164508
947.717	0.0163201
947.795	0.0163234
947.873	0.0162888
947.951	0.0162198
948.030	0.0162526
948.108	0.0163329
948.186	0.0162063
948.264	0.0163017
948.342	0.0162905
948.420	0.0161671
948.498	0.0162923
948.576	0.0163283
948.655	0.0161450
948.733	0.0161055
948.811	0.0162162
948.889	0.0163526
948.967	0.0161986
949.045	0.0162208
949.123	0.0162884
949.201	0.0161864
949.280	0.0161434
949.358	0.0162399
949.436	0.0162672
949.514	0.0161944
949.592	0.0163908
949.670	0.0161959
949.748	0.0163258
949.826	0.0162486
949.905	0.0162966
949.983	0.0163878
950.061	0.0163328
950.139	0.0162289
950.217	0.0163868
950.295	0.0165377
950.373	0.0164461
950.451	0.0163580
950.530	0.0163000
950.608	0.0163362
950.686	0.0163936
950.764	0.0162775
950.842	0.0163703
950.920	0.0163609
950.998	0.0163178
951.076	0.0162640
951.155	0.0163396
951.233	0.0164253
951.311	0.0165418
951.389	0.0163794
951.467	0.0163637
951.545	0.0163057
951.623	0.0164694
951.701	0.0163525
951.780	0.0163663
951.858	0.0164099
951.936	0.0162405
952.014	0.0163773
952.092	0.0161362
952.170	0.0162063
952.248	0.0164140
952.326	0.0162997
952.405	0.0161456
952.483	0.0162162
952.561	0.0161247
952.639	0.0161622
952.717	0.0162408
952.795	0.0163092
952.873	0.0161400
952.951	0.0162811
953.030	0.0162633
953.108	0.0162266
953.186	0.0161906
953.264	0.0162624
953.342	0.0163581
953.420	0.0163132
953.498	0.0162625
953.576	0.0162643
953.655	0.0162596
953.733	0.0164262
953.811	0.0163538
953.889	0.0162394
953.967	0.0162279
954.045	0.0162785
954.123	0.0163191
954.201	0.0162864
954.280	0.0162282
954.358	0.0162601
954.436	0.0163081
954.514	0.0163007
954.592	0.0162091
954.670	0.0162125
954.748	0.0161855
954.826	0.0162658
954.905	0.0162491
954.983	0.0162734
955.061	0.0163802
955.139	0.0163316
955.217	0.0163618
955.295	0.0162844
955.373	0.0162679
955.451	0.0163748
955.530	0.0162833
955.608	0.0162862
955.686	0.0161522
955.764	0.0161091
955.842	0.0162203
955.920	0.0162163
955.998	0.0162393
956.076	0.0163506
956.155	0.0163821
956.233	0.0163991
956.311	0.0164773
956.389	0.0163238
956.467	0.0163679
956.545	0.0163646
956.623	0.0164801
956.701	0.0163834
956.780	0.0163743
956.858	0.0163910
956.936	0.0163319
957.014	0.0163615
957.092	0.0164207
957.170	0.0162959
957.248	0.0163626
957.326	0.0165269
957.405	0.0163406
957.483	0.0164743
957.561	0.0163501
957.639	0.0163093
957.717	0.0162350
957.795	0.0160155
957.873	0.0163174
957.951	0.0164111
958.030	0.0164038
958.108	0.0162395
958.186	0.0162218
958.264	0.0162614
958.342	0.0163653
958.420	0.0162829
958.498	0.0162721
958.576	0.0162100
958.655	0.0164190
958.733	0.0162724
958.811	0.0163033
958.889	0.0164060
958.967	0.0163638
959.045	0.0163031
959.123	0.0163291
959.201	0.0164085
959.280	0.0164335
959.358	0.0165001
959.436	0.0164001
959.514	0.0164521
959.592	0.0163635
959.670	0.0163488
959.748	0.0164806
959.826	0.0163944
959.905	0.0164436
