05/17/2022	17:21:55	Ver.	4.1	UNKNOWN
Optical Delay	639.982744	Delta X		0.078125	Sweeps	1	Scan Rate	0/0
Coordinates	Axis 1	NaN	Axis 2	NaN	Axis 3	NaN	Axis 4	NaN	Axis 5	NaN	Axis 6	0.000000
TX Power	0.000000	RX Power	0.000000

639.983	0.0163054
640.061	0.0164677
640.139	0.0164774
640.217	0.0163941
640.295	0.0163586
640.373	0.0164371
640.451	0.0165864
640.530	0.0164811
640.608	0.0163789
640.686	0.0165289
640.764	0.0164494
640.842	0.0165092
640.920	0.0163747
640.998	0.0164703
641.076	0.0163367
641.155	0.0164214
641.233	0.0162556
641.311	0.0162708
641.389	0.0161952
641.467	0.0162838
641.545	0.0163082
641.623	0.0163629
641.701	0.0163986
641.780	0.0161968
641.858	0.0163313
641.936	0.0163018
642.014	0.0164186
642.092	0.0165043
642.170	0.0164819
642.248	0.0164312
642.326	0.0164285
642.405	0.0162949
642.483	0.0164255
642.561	0.0164443
642.639	0.0164342
642.717	0.0164291
642.795	0.0166179
642.873	0.0164658
642.951	0.0164625
643.030	0.0165163
643.108	0.0165178
643.186	0.0164310
643.264	0.0165282
643.342	0.0164995
643.420	0.0165554
643.498	0.0164158
643.576	0.0164580
643.655	0.0163766
643.733	0.0163064
643.811	0.0162463
643.889	0.0162517
643.967	0.0163035
644.045	0.0161897
644.123	0.0162119
644.201	0.0162192
644.280	0.0161030
644.358	0.0162339
644.436	0.0161724
644.514	0.0160931
644.592	0.0161069
644.670	0.0161563
644.748	0.0160263
644.826	0.0160835
644.905	0.0161123
644.983	0.0160529
645.061	0.0161687
645.139	0.0161984
645.217	0.0162737
645.295	0.0161267
645.373	0.0161654
645.451	0.0163078
645.530	0.0163020
645.608	0.0163641
645.686	0.0163244
645.764	0.0163324
645.842	0.0163967
645.920	0.0162154
645.998	0.0163922
646.076	0.0163779
646.155	0.0162841
646.233	0.0163583
646.311	0.0162482
646.389	0.0162846
646.467	0.0162778
646.545	0.0164758
646.623	0.0163830
646.701	0.0162492
646.780	0.0163179
646.858	0.0163795
646.936	0.0163071
647.014	0.0163700
647.092	0.0163006
647.170	0.0163242
647.248	0.0164221
647.326	0.0162573
647.405	0.0163178
647.483	0.0164762
647.561	0.0164376
647.639	0.0164272
647.717	0.0164639
647.795	0.0163744
647.873	0.0164263
647.951	0.0164359
648.030	0.0164059
648.108	0.0165291
648.186	0.0163892
648.264	0.0163692
648.342	0.0164111
648.420	0.0165559
648.498	0.0165153
648.576	0.0164114
648.655	0.0163629
648.733	0.0163583
648.811	0.0163892
648.889	0.0164886
648.967	0.0164356
649.045	0.0163779
649.123	0.0163729
649.201	0.0165177
649.280	0.0163103
649.358	0.0163280
649.436	0.0165345
649.514	0.0162565
649.592	0.0163731
649.670	0.0162563
649.748	0.0162793
649.826	0.0163216
649.905	0.0163990
649.983	0.0163112
650.061	0.0163613
650.139	0.0162372
650.217	0.0163116
650.295	0.0165080
650.373	0.0163042
650.451	0.0163587
650.530	0.0163918
650.608	0.0165298
650.686	0.0165384
650.764	0.0164217
650.842	0.0164103
650.920	0.0166075
650.998	0.0164806
651.076	0.0165359
651.155	0.0162848
651.233	0.0164043
651.311	0.0165376
651.389	0.0163677
651.467	0.0163714
651.545	0.0161624
651.623	0.0162044
651.701	0.0163162
651.780	0.0161774
651.858	0.0161514
651.936	0.0161425
652.014	0.0160835
652.092	0.0160145
652.170	0.0160921
652.248	0.0161330
652.326	0.0161183
652.405	0.0161561
652.483	0.0162305
652.561	0.0162622
652.639	0.0161187
652.717	0.0163348
652.795	0.0161758
652.873	0.0163197
652.951	0.0164534
653.030	0.0163883
653.108	0.0163280
653.186	0.0163073
653.264	0.0162605
653.342	0.0164078
653.420	0.0163779
653.498	0.0164283
653.576	0.0163290
653.655	0.0163709
653.733	0.0163754
653.811	0.0162104
653.889	0.0163270
653.967	0.0163612
654.045	0.0163522
654.123	0.0162707
654.201	0.0162538
654.280	0.0163074
654.358	0.0161951
654.436	0.0162267
654.514	0.0163267
654.592	0.0163326
654.670	0.0162940
654.748	0.0162844
654.826	0.0162970
654.905	0.0163023
654.983	0.0162495
655.061	0.0163170
655.139	0.0162858
655.217	0.0161481
655.295	0.0163647
655.373	0.0164638
655.451	0.0160629
655.530	0.0162039
655.608	0.0165444
655.686	0.0163436
655.764	0.0163892
655.842	0.0163191
655.920	0.0163500
655.998	0.0163885
656.076	0.0165076
656.155	0.0164590
656.233	0.0163725
656.311	0.0163454
656.389	0.0164250
656.467	0.0165149
656.545	0.0163490
656.623	0.0163027
656.701	0.0164764
656.780	0.0163539
656.858	0.0161888
656.936	0.0161900
657.014	0.0162914
657.092	0.0161732
657.170	0.0163061
657.248	0.0162457
657.326	0.0163198
657.405	0.0163171
657.483	0.0163163
657.561	0.0162198
657.639	0.0163031
657.717	0.0162871
657.795	0.0163209
657.873	0.0164072
657.951	0.0165023
658.030	0.0165310
658.108	0.0165072
658.186	0.0166005
658.264	0.0165193
658.342	0.0165806
658.420	0.0164793
658.498	0.0164648
658.576	0.0166031
658.655	0.0165195
658.733	0.0164228
658.811	0.0163313
658.889	0.0163322
658.967	0.0164296
659.045	0.0162477
659.123	0.0161650
659.201	0.0161656
659.280	0.0161423
659.358	0.0161307
659.436	0.0161119
659.514	0.0160937
659.592	0.0160692
659.670	0.0159180
659.748	0.0160310
659.826	0.0160079
659.905	0.0160117
659.983	0.0160177
660.061	0.0160464
660.139	0.0161682
660.217	0.0161623
660.295	0.0162033
660.373	0.0162329
660.451	0.0163106
660.530	0.0163609
660.608	0.0163280
660.686	0.0164995
660.764	0.0163921
660.842	0.0164499
660.920	0.0164757
660.998	0.0165269
661.076	0.0166092
661.155	0.0165842
661.233	0.0164915
661.311	0.0166461
661.389	0.0164979
661.467	0.0163109
661.545	0.0164925
661.623	0.0163940
661.701	0.0164465
661.780	0.0165041
661.858	0.0162976
661.936	0.0163576
662.014	0.0163514
662.092	0.0162316
662.170	0.0161375
662.248	0.0163646
662.326	0.0162581
662.405	0.0161913
662.483	0.0162496
662.561	0.0165419
662.639	0.0163815
662.717	0.0162337
662.795	0.0163428
662.873	0.0164047
662.951	0.0164864
663.030	0.0163991
663.108	0.0162392
663.186	0.0163313
663.264	0.0163527
663.342	0.0162789
663.420	0.0162649
663.498	0.0163352
663.576	0.0162561
663.655	0.0161110
663.733	0.0159896
663.811	0.0158826
663.889	0.0159400
663.967	0.0159095
664.045	0.0157848
664.123	0.0155728
664.201	0.0157896
664.280	0.0156973
664.358	0.0158032
664.436	0.0156676
664.514	0.0156402
664.592	0.0155387
664.670	0.0156075
664.748	0.0156577
664.826	0.0158780
664.905	0.0159296
664.983	0.0160108
665.061	0.0160040
665.139	0.0159692
665.217	0.0162483
665.295	0.0162450
665.373	0.0161919
665.451	0.0163731
665.530	0.0165342
665.608	0.0164928
665.686	0.0166814
665.764	0.0166935
665.842	0.0166952
665.920	0.0167868
665.998	0.0167754
666.076	0.0169055
666.155	0.0169765
666.233	0.0170754
666.311	0.0169283
666.389	0.0170504
666.467	0.0171346
666.545	0.0171299
666.623	0.0171641
666.701	0.0170793
666.780	0.0169846
666.858	0.0170903
666.936	0.0169885
667.014	0.0171172
667.092	0.0170956
667.170	0.0168793
667.248	0.0168467
667.326	0.0169085
667.405	0.0167702
667.483	0.0167197
667.561	0.0167326
667.639	0.0167442
667.717	0.0165849
667.795	0.0165721
667.873	0.0166053
667.951	0.0164378
668.030	0.0163414
668.108	0.0161872
668.186	0.0161691
668.264	0.0161124
668.342	0.0160484
668.420	0.0158949
668.498	0.0157848
668.576	0.0158705
668.655	0.0158273
668.733	0.0156009
668.811	0.0154719
668.889	0.0154789
668.967	0.0154167
669.045	0.0153790
669.123	0.0153440
669.201	0.0153275
669.280	0.0153489
669.358	0.0152869
669.436	0.0154871
669.514	0.0155441
669.592	0.0156255
669.670	0.0155716
669.748	0.0156831
669.826	0.0158331
669.905	0.0159640
669.983	0.0159947
670.061	0.0160138
670.139	0.0161605
670.217	0.0163051
670.295	0.0164814
670.373	0.0164236
670.451	0.0165383
670.530	0.0167566
670.608	0.0167815
670.686	0.0166213
670.764	0.0166504
670.842	0.0168862
670.920	0.0169553
670.998	0.0169785
671.076	0.0168037
671.155	0.0170281
671.233	0.0169994
671.311	0.0170255
671.389	0.0170499
671.467	0.0170033
671.545	0.0172104
671.623	0.0172010
671.701	0.0171652
671.780	0.0171812
671.858	0.0171074
671.936	0.0171646
672.014	0.0172089
672.092	0.0171756
672.170	0.0169849
672.248	0.0170549
672.326	0.0171587
672.405	0.0169034
672.483	0.0168429
672.561	0.0168090
672.639	0.0168900
672.717	0.0166284
672.795	0.0166541
672.873	0.0164790
672.951	0.0163330
673.030	0.0162124
673.108	0.0161702
673.186	0.0160822
673.264	0.0159754
673.342	0.0158046
673.420	0.0156962
673.498	0.0154935
673.576	0.0155264
673.655	0.0153063
673.733	0.0152934
673.811	0.0151382
673.889	0.0150350
673.967	0.0149121
674.045	0.0149033
674.123	0.0149504
674.201	0.0149284
674.280	0.0149747
674.358	0.0149567
674.436	0.0149408
674.514	0.0152154
674.592	0.0151680
674.670	0.0152632
674.748	0.0152933
674.826	0.0153891
674.905	0.0156458
674.983	0.0157232
675.061	0.0158092
675.139	0.0160382
675.217	0.0161586
675.295	0.0163808
675.373	0.0163409
675.451	0.0164805
675.530	0.0165598
675.608	0.0168499
675.686	0.0167036
675.764	0.0169788
675.842	0.0170790
675.920	0.0170518
675.998	0.0171692
676.076	0.0171423
676.155	0.0173998
676.233	0.0173885
676.311	0.0173557
676.389	0.0173030
676.467	0.0172694
676.545	0.0174302
676.623	0.0173133
676.701	0.0173368
676.780	0.0173018
676.858	0.0172443
676.936	0.0172627
677.014	0.0170486
677.092	0.0170908
677.170	0.0170396
677.248	0.0168772
677.326	0.0167336
677.405	0.0167990
677.483	0.0165751
677.561	0.0164295
677.639	0.0164286
677.717	0.0161928
677.795	0.0161201
677.873	0.0160699
677.951	0.0160149
678.030	0.0157951
678.108	0.0157663
678.186	0.0158315
678.264	0.0157855
678.342	0.0157545
678.420	0.0155202
678.498	0.0155824
678.576	0.0153636
678.655	0.0154559
678.733	0.0155693
678.811	0.0154673
678.889	0.0154654
678.967	0.0156021
679.045	0.0154512
679.123	0.0156473
679.201	0.0154313
679.280	0.0154774
679.358	0.0154557
679.436	0.0155072
679.514	0.0154568
679.592	0.0155453
679.670	0.0154630
679.748	0.0155444
679.826	0.0156934
679.905	0.0157130
679.983	0.0156856
680.061	0.0159271
680.139	0.0158502
680.217	0.0158617
680.295	0.0158435
680.373	0.0160474
680.451	0.0160097
680.530	0.0161092
680.608	0.0163098
680.686	0.0162350
680.764	0.0161517
680.842	0.0163345
680.920	0.0163329
680.998	0.0163744
681.076	0.0164681
681.155	0.0164131
681.233	0.0165533
681.311	0.0165484
681.389	0.0167188
681.467	0.0166646
681.545	0.0167159
681.623	0.0167893
681.701	0.0167049
681.780	0.0167587
681.858	0.0167902
681.936	0.0166855
682.014	0.0166547
682.092	0.0167728
682.170	0.0167222
682.248	0.0165884
682.326	0.0166396
682.405	0.0167365
682.483	0.0167142
682.561	0.0167257
682.639	0.0167903
682.717	0.0167393
682.795	0.0167265
682.873	0.0170294
682.951	0.0168600
683.030	0.0168468
683.108	0.0168198
683.186	0.0168991
683.264	0.0169095
683.342	0.0169675
683.420	0.0168203
683.498	0.0168447
683.576	0.0167735
683.655	0.0168344
683.733	0.0168361
683.811	0.0166997
683.889	0.0166099
683.967	0.0164733
684.045	0.0165118
684.123	0.0163831
684.201	0.0163854
684.280	0.0161897
684.358	0.0160369
684.436	0.0160817
684.514	0.0160951
684.592	0.0159064
684.670	0.0159275
684.748	0.0157877
684.826	0.0156872
684.905	0.0155846
684.983	0.0156570
685.061	0.0157607
685.139	0.0156285
685.217	0.0155469
685.295	0.0157386
685.373	0.0156154
685.451	0.0154593
685.530	0.0157460
685.608	0.0157230
685.686	0.0158467
685.764	0.0157903
685.842	0.0157458
685.920	0.0158434
685.998	0.0158527
686.076	0.0160267
686.155	0.0160121
686.233	0.0161692
686.311	0.0161462
686.389	0.0162139
686.467	0.0160964
686.545	0.0162786
686.623	0.0163383
686.701	0.0162441
686.780	0.0163997
686.858	0.0164825
686.936	0.0164993
687.014	0.0163413
687.092	0.0164597
687.170	0.0166198
687.248	0.0164682
687.326	0.0164595
687.405	0.0164911
687.483	0.0165351
687.561	0.0165897
687.639	0.0165128
687.717	0.0166415
687.795	0.0166811
687.873	0.0166106
687.951	0.0165981
688.030	0.0166300
688.108	0.0166768
688.186	0.0167333
688.264	0.0166617
688.342	0.0165981
688.420	0.0166651
688.498	0.0166376
688.576	0.0165395
688.655	0.0165557
688.733	0.0164207
688.811	0.0165228
688.889	0.0165305
688.967	0.0165424
689.045	0.0165597
689.123	0.0165709
689.201	0.0165346
689.280	0.0165601
689.358	0.0165685
689.436	0.0164334
689.514	0.0165981
689.592	0.0164034
689.670	0.0165482
689.748	0.0166009
689.826	0.0164673
689.905	0.0164450
689.983	0.0163756
690.061	0.0164654
690.139	0.0163367
690.217	0.0163441
690.295	0.0162328
690.373	0.0162886
690.451	0.0162550
690.530	0.0161163
690.608	0.0159425
690.686	0.0159998
690.764	0.0158841
690.842	0.0157883
690.920	0.0157433
690.998	0.0158904
691.076	0.0158231
691.155	0.0157458
691.233	0.0157803
691.311	0.0156805
691.389	0.0157838
691.467	0.0158009
691.545	0.0157007
691.623	0.0158121
691.701	0.0158095
691.780	0.0158141
691.858	0.0158039
691.936	0.0157338
692.014	0.0158480
692.092	0.0158395
692.170	0.0157252
692.248	0.0158915
692.326	0.0160653
692.405	0.0158501
692.483	0.0158826
692.561	0.0159535
692.639	0.0159211
692.717	0.0158505
692.795	0.0157567
692.873	0.0157535
692.951	0.0157960
693.030	0.0158133
693.108	0.0157201
693.186	0.0159464
693.264	0.0159367
693.342	0.0160545
693.420	0.0159711
693.498	0.0161661
693.576	0.0162031
693.655	0.0163227
693.733	0.0163622
693.811	0.0165114
693.889	0.0167848
693.967	0.0167300
694.045	0.0169270
694.123	0.0169135
694.201	0.0170959
694.280	0.0170511
694.358	0.0171220
694.436	0.0172163
694.514	0.0171556
694.592	0.0173330
694.670	0.0172282
694.748	0.0172468
694.826	0.0172685
694.905	0.0171043
694.983	0.0169410
695.061	0.0171537
695.139	0.0168248
695.217	0.0168327
695.295	0.0166975
695.373	0.0167316
695.451	0.0166795
695.530	0.0166133
695.608	0.0164828
695.686	0.0164877
695.764	0.0164183
695.842	0.0163580
695.920	0.0164893
695.998	0.0161845
696.076	0.0162904
696.155	0.0161752
696.233	0.0161696
696.311	0.0161931
696.389	0.0161208
696.467	0.0159693
696.545	0.0159911
696.623	0.0160999
696.701	0.0159155
696.780	0.0158057
696.858	0.0158176
696.936	0.0158031
697.014	0.0157829
697.092	0.0156760
697.170	0.0156872
697.248	0.0155368
697.326	0.0155387
697.405	0.0155624
697.483	0.0156152
697.561	0.0155351
697.639	0.0154549
697.717	0.0154978
697.795	0.0155410
697.873	0.0155867
697.951	0.0154990
698.030	0.0154913
698.108	0.0155181
698.186	0.0156075
698.264	0.0157022
698.342	0.0157521
698.420	0.0158453
698.498	0.0158418
698.576	0.0158735
698.655	0.0159618
698.733	0.0162380
698.811	0.0163223
698.889	0.0164964
698.967	0.0164648
699.045	0.0165208
699.123	0.0166452
699.201	0.0166743
699.280	0.0168268
699.358	0.0168977
699.436	0.0170285
699.514	0.0171767
699.592	0.0169980
699.670	0.0170743
699.748	0.0172277
699.826	0.0171841
699.905	0.0171303
699.983	0.0171878
700.061	0.0171929
700.139	0.0171471
700.217	0.0171385
700.295	0.0170348
700.373	0.0169880
700.451	0.0169553
700.530	0.0170705
700.608	0.0170037
700.686	0.0169451
700.764	0.0168188
700.842	0.0168869
700.920	0.0168668
700.998	0.0168964
701.076	0.0166196
701.155	0.0166918
701.233	0.0165654
701.311	0.0164710
701.389	0.0164869
701.467	0.0164771
701.545	0.0163455
701.623	0.0162814
701.701	0.0163235
701.780	0.0160674
701.858	0.0161320
701.936	0.0161547
702.014	0.0161048
702.092	0.0159249
702.170	0.0160348
702.248	0.0158612
702.326	0.0158204
702.405	0.0158023
702.483	0.0158718
702.561	0.0157933
702.639	0.0158943
702.717	0.0158692
702.795	0.0157370
702.873	0.0157388
702.951	0.0157597
703.030	0.0159187
703.108	0.0157510
703.186	0.0158031
703.264	0.0160396
703.342	0.0159206
703.420	0.0159660
703.498	0.0158447
703.576	0.0158156
703.655	0.0158972
703.733	0.0159898
703.811	0.0160954
703.889	0.0159926
703.967	0.0160573
704.045	0.0162719
704.123	0.0162978
704.201	0.0162662
704.280	0.0162068
704.358	0.0162840
704.436	0.0163684
704.514	0.0163325
704.592	0.0163798
704.670	0.0162768
704.748	0.0164739
704.826	0.0165491
704.905	0.0167126
704.983	0.0167358
705.061	0.0169427
705.139	0.0169525
705.217	0.0168754
705.295	0.0169261
705.373	0.0170367
705.451	0.0168716
705.530	0.0170686
705.608	0.0169650
705.686	0.0168918
705.764	0.0169508
705.842	0.0168703
705.920	0.0168190
705.998	0.0168121
706.076	0.0165633
706.155	0.0165155
706.233	0.0165673
706.311	0.0165582
706.389	0.0163657
706.467	0.0163271
706.545	0.0163466
706.623	0.0162833
706.701	0.0162438
706.780	0.0161463
706.858	0.0161491
706.936	0.0160509
707.014	0.0160179
707.092	0.0161694
707.170	0.0161591
707.248	0.0161859
707.326	0.0160628
707.405	0.0162223
707.483	0.0162241
707.561	0.0163942
707.639	0.0163422
707.717	0.0163427
707.795	0.0163252
707.873	0.0164880
707.951	0.0164124
708.030	0.0165056
708.108	0.0165791
708.186	0.0166247
708.264	0.0163841
708.342	0.0164436
708.420	0.0164168
708.498	0.0161974
708.576	0.0163815
708.655	0.0163985
708.733	0.0163003
708.811	0.0161723
708.889	0.0162003
708.967	0.0162611
709.045	0.0161132
709.123	0.0159261
709.201	0.0161524
709.280	0.0159818
709.358	0.0160957
709.436	0.0159227
709.514	0.0161076
709.592	0.0161292
709.670	0.0160284
709.748	0.0160642
709.826	0.0161247
709.905	0.0161933
709.983	0.0162330
710.061	0.0162031
710.139	0.0162817
710.217	0.0163136
710.295	0.0163003
710.373	0.0165108
710.451	0.0165067
710.530	0.0164361
710.608	0.0165226
710.686	0.0165369
710.764	0.0164281
710.842	0.0165836
710.920	0.0166572
710.998	0.0166272
711.076	0.0166483
711.155	0.0166199
711.233	0.0165984
711.311	0.0166331
711.389	0.0165731
711.467	0.0167702
711.545	0.0165849
711.623	0.0165644
711.701	0.0165389
711.780	0.0166682
711.858	0.0165891
711.936	0.0165881
712.014	0.0165726
712.092	0.0165179
712.170	0.0166878
712.248	0.0164028
712.326	0.0164568
712.405	0.0163624
712.483	0.0164278
712.561	0.0163790
712.639	0.0163007
712.717	0.0164532
712.795	0.0161929
712.873	0.0161543
712.951	0.0161364
713.030	0.0160024
713.108	0.0160791
713.186	0.0160791
713.264	0.0160529
713.342	0.0159593
713.420	0.0159843
713.498	0.0158852
713.576	0.0158976
713.655	0.0158597
713.733	0.0158207
713.811	0.0158644
713.889	0.0158414
713.967	0.0160091
714.045	0.0160329
714.123	0.0159734
714.201	0.0161110
714.280	0.0160671
714.358	0.0161646
714.436	0.0164490
714.514	0.0163357
714.592	0.0165653
714.670	0.0164076
714.748	0.0163713
714.826	0.0165849
714.905	0.0166669
714.983	0.0166358
715.061	0.0166030
715.139	0.0167075
715.217	0.0166708
715.295	0.0166847
715.373	0.0167516
715.451	0.0167017
715.530	0.0167002
715.608	0.0166563
715.686	0.0165406
715.764	0.0166744
715.842	0.0167278
715.920	0.0164085
715.998	0.0165034
716.076	0.0165976
716.155	0.0165668
716.233	0.0164127
716.311	0.0164437
716.389	0.0163325
716.467	0.0164497
716.545	0.0163519
716.623	0.0163821
716.701	0.0164939
716.780	0.0162919
716.858	0.0162539
716.936	0.0162225
717.014	0.0162778
717.092	0.0162802
717.170	0.0163374
717.248	0.0162782
717.326	0.0160957
717.405	0.0161935
717.483	0.0162800
717.561	0.0162379
717.639	0.0161114
717.717	0.0160233
717.795	0.0160297
717.873	0.0161211
717.951	0.0160969
718.030	0.0160942
718.108	0.0158659
718.186	0.0160162
718.264	0.0161353
718.342	0.0160019
718.420	0.0159806
718.498	0.0160399
718.576	0.0161826
718.655	0.0161248
718.733	0.0161990
718.811	0.0162273
718.889	0.0163612
718.967	0.0163197
719.045	0.0164818
719.123	0.0165302
719.201	0.0165817
719.280	0.0166778
719.358	0.0167125
719.436	0.0167214
719.514	0.0168523
719.592	0.0167308
719.670	0.0166869
719.748	0.0165821
719.826	0.0166672
719.905	0.0165403
719.983	0.0165516
720.061	0.0164509
720.139	0.0164037
720.217	0.0163551
720.295	0.0161653
720.373	0.0160895
720.451	0.0162172
720.530	0.0159547
720.608	0.0159515
720.686	0.0161005
720.764	0.0158233
720.842	0.0157667
720.920	0.0158216
720.998	0.0156802
721.076	0.0157996
721.155	0.0158071
721.233	0.0156358
721.311	0.0158377
721.389	0.0158649
721.467	0.0158028
721.545	0.0159529
721.623	0.0160165
721.701	0.0160439
721.780	0.0161576
721.858	0.0162047
721.936	0.0163457
722.014	0.0164616
722.092	0.0163778
722.170	0.0164909
722.248	0.0166457
722.326	0.0166685
722.405	0.0166040
722.483	0.0166839
722.561	0.0168582
722.639	0.0168592
722.717	0.0168615
722.795	0.0168323
722.873	0.0167364
722.951	0.0168175
723.030	0.0168028
723.108	0.0168493
723.186	0.0166486
723.264	0.0165615
723.342	0.0166701
723.420	0.0165144
723.498	0.0166010
723.576	0.0165781
723.655	0.0162543
723.733	0.0165213
723.811	0.0163101
723.889	0.0162013
723.967	0.0161312
724.045	0.0161391
724.123	0.0160749
724.201	0.0159148
724.280	0.0158942
724.358	0.0156748
724.436	0.0158663
724.514	0.0157876
724.592	0.0157954
724.670	0.0156625
724.748	0.0157649
724.826	0.0158779
724.905	0.0157675
724.983	0.0157509
725.061	0.0158621
725.139	0.0159101
725.217	0.0158523
725.295	0.0159390
725.373	0.0161022
725.451	0.0161674
725.530	0.0160313
725.608	0.0161872
725.686	0.0162621
725.764	0.0163174
725.842	0.0164296
725.920	0.0162624
725.998	0.0164987
726.076	0.0165259
726.155	0.0164848
726.233	0.0166061
726.311	0.0167104
726.389	0.0167046
726.467	0.0166352
726.545	0.0166470
726.623	0.0166960
726.701	0.0166988
726.780	0.0165995
726.858	0.0167850
726.936	0.0167979
727.014	0.0167773
727.092	0.0168684
727.170	0.0168478
727.248	0.0167868
727.326	0.0169526
727.405	0.0169681
727.483	0.0168925
727.561	0.0167426
727.639	0.0167458
727.717	0.0168568
727.795	0.0167895
727.873	0.0166958
727.951	0.0166698
728.030	0.0164758
728.108	0.0166878
728.186	0.0165971
728.264	0.0164632
728.342	0.0164597
728.420	0.0162633
728.498	0.0163380
728.576	0.0161716
728.655	0.0161095
728.733	0.0160845
728.811	0.0161255
728.889	0.0159884
728.967	0.0160127
729.045	0.0160714
729.123	0.0159164
729.201	0.0158946
729.280	0.0158133
729.358	0.0160059
729.436	0.0159356
729.514	0.0160175
729.592	0.0158855
729.670	0.0158548
729.748	0.0160042
729.826	0.0160730
729.905	0.0160085
729.983	0.0162250
730.061	0.0161250
730.139	0.0162569
730.217	0.0161182
730.295	0.0161344
730.373	0.0161421
730.451	0.0162265
730.530	0.0164221
730.608	0.0164585
730.686	0.0164373
730.764	0.0164397
730.842	0.0164996
730.920	0.0164944
730.998	0.0165163
731.076	0.0164487
731.155	0.0166536
731.233	0.0166803
731.311	0.0165243
731.389	0.0164886
731.467	0.0164106
731.545	0.0165047
731.623	0.0164452
731.701	0.0165084
731.780	0.0164196
731.858	0.0163290
731.936	0.0164205
732.014	0.0163223
732.092	0.0162621
732.170	0.0164282
732.248	0.0163204
732.326	0.0163902
732.405	0.0164538
732.483	0.0163274
732.561	0.0162622
732.639	0.0164199
732.717	0.0164123
732.795	0.0163249
732.873	0.0163879
732.951	0.0165573
733.030	0.0164930
733.108	0.0165341
733.186	0.0165941
733.264	0.0164901
733.342	0.0164766
733.420	0.0166444
733.498	0.0166007
733.576	0.0165688
733.655	0.0166116
733.733	0.0165732
733.811	0.0166150
733.889	0.0164496
733.967	0.0165055
734.045	0.0165067
734.123	0.0164790
734.201	0.0165327
734.280	0.0163343
734.358	0.0163950
734.436	0.0164014
734.514	0.0164098
734.592	0.0164016
734.670	0.0164510
734.748	0.0163973
734.826	0.0164775
734.905	0.0164613
734.983	0.0164838
735.061	0.0163425
735.139	0.0163055
735.217	0.0164504
735.295	0.0164731
735.373	0.0164572
735.451	0.0164009
735.530	0.0164524
735.608	0.0163754
735.686	0.0163533
735.764	0.0164183
735.842	0.0163560
735.920	0.0162785
735.998	0.0162881
736.076	0.0160464
736.155	0.0160253
736.233	0.0160217
736.311	0.0159646
736.389	0.0159548
736.467	0.0159225
736.545	0.0159830
736.623	0.0158661
736.701	0.0158855
736.780	0.0159141
736.858	0.0159912
736.936	0.0158320
737.014	0.0159879
737.092	0.0159108
737.170	0.0159381
737.248	0.0159418
737.326	0.0160843
737.405	0.0162118
737.483	0.0161243
737.561	0.0163416
737.639	0.0163596
737.717	0.0162778
737.795	0.0164558
737.873	0.0164289
737.951	0.0166463
738.030	0.0165014
738.108	0.0165636
738.186	0.0166897
738.264	0.0167880
738.342	0.0167164
738.420	0.0167577
738.498	0.0168846
738.576	0.0167725
738.655	0.0166329
738.733	0.0167117
738.811	0.0167198
738.889	0.0166099
738.967	0.0167570
739.045	0.0165151
739.123	0.0164925
739.201	0.0165055
739.280	0.0164729
739.358	0.0163437
739.436	0.0161583
739.514	0.0161136
739.592	0.0162305
739.670	0.0160829
739.748	0.0159137
739.826	0.0159366
739.905	0.0159827
739.983	0.0159697
740.061	0.0159169
740.139	0.0159286
740.217	0.0160037
740.295	0.0159577
740.373	0.0159557
740.451	0.0159475
740.530	0.0158736
740.608	0.0159305
740.686	0.0159715
740.764	0.0160090
740.842	0.0160818
740.920	0.0161357
740.998	0.0161285
741.076	0.0160352
741.155	0.0161299
741.233	0.0161510
741.311	0.0162471
741.389	0.0163333
741.467	0.0162619
741.545	0.0163048
741.623	0.0163590
741.701	0.0163005
741.780	0.0163700
741.858	0.0163841
741.936	0.0165725
742.014	0.0166045
742.092	0.0164427
742.170	0.0165735
742.248	0.0165394
742.326	0.0166037
742.405	0.0167255
742.483	0.0166193
742.561	0.0166364
742.639	0.0166344
742.717	0.0167133
742.795	0.0167554
742.873	0.0165759
742.951	0.0167647
743.030	0.0166492
743.108	0.0165746
743.186	0.0166025
743.264	0.0166255
743.342	0.0164030
743.420	0.0164103
743.498	0.0163715
743.576	0.0163313
743.655	0.0162404
743.733	0.0161662
743.811	0.0162698
743.889	0.0162223
743.967	0.0161594
744.045	0.0160230
744.123	0.0160377
744.201	0.0160631
744.280	0.0159698
744.358	0.0159992
744.436	0.0158975
744.514	0.0161850
744.592	0.0160096
744.670	0.0160352
744.748	0.0160500
744.826	0.0161110
744.905	0.0160585
744.983	0.0161477
745.061	0.0161453
745.139	0.0162399
745.217	0.0164191
745.295	0.0162485
745.373	0.0162839
745.451	0.0164072
745.530	0.0163007
745.608	0.0162590
745.686	0.0162984
745.764	0.0164104
745.842	0.0164694
745.920	0.0163293
745.998	0.0161963
746.076	0.0162672
746.155	0.0162816
746.233	0.0162351
746.311	0.0163553
746.389	0.0162515
746.467	0.0163153
746.545	0.0161577
746.623	0.0163280
746.701	0.0164195
746.780	0.0161868
746.858	0.0162532
746.936	0.0162951
747.014	0.0163798
747.092	0.0164076
747.170	0.0163884
747.248	0.0162605
747.326	0.0162568
747.405	0.0162711
747.483	0.0162482
747.561	0.0163108
747.639	0.0161964
747.717	0.0162141
747.795	0.0161778
747.873	0.0161599
747.951	0.0162549
748.030	0.0160648
748.108	0.0160277
748.186	0.0161472
748.264	0.0160880
748.342	0.0159949
748.420	0.0159280
748.498	0.0159165
748.576	0.0160292
748.655	0.0161683
748.733	0.0159843
748.811	0.0161906
748.889	0.0161342
748.967	0.0160279
749.045	0.0162225
749.123	0.0162482
749.201	0.0162330
749.280	0.0161234
749.358	0.0162012
749.436	0.0162502
749.514	0.0163705
749.592	0.0163365
749.670	0.0162100
749.748	0.0163280
749.826	0.0163982
749.905	0.0164375
749.983	0.0163882
750.061	0.0166823
750.139	0.0166143
750.217	0.0164059
750.295	0.0165609
750.373	0.0165613
750.451	0.0165775
750.530	0.0165330
750.608	0.0163205
750.686	0.0164799
750.764	0.0163731
750.842	0.0164392
750.920	0.0164310
750.998	0.0163194
751.076	0.0162864
751.155	0.0162762
751.233	0.0162077
751.311	0.0160919
751.389	0.0162308
751.467	0.0162513
751.545	0.0163055
751.623	0.0161430
751.701	0.0162250
751.780	0.0160419
751.858	0.0161661
751.936	0.0161401
752.014	0.0160506
752.092	0.0159830
752.170	0.0160796
752.248	0.0160503
752.326	0.0160848
752.405	0.0161404
752.483	0.0160786
752.561	0.0160840
752.639	0.0162202
752.717	0.0162153
752.795	0.0161337
752.873	0.0162735
752.951	0.0161919
753.030	0.0162346
753.108	0.0162837
753.186	0.0163330
753.264	0.0163226
753.342	0.0161933
753.420	0.0161908
753.498	0.0162553
753.576	0.0164727
753.655	0.0164687
753.733	0.0165091
753.811	0.0162630
753.889	0.0162611
753.967	0.0163349
754.045	0.0163205
754.123	0.0162611
754.201	0.0163199
754.280	0.0164861
754.358	0.0162541
754.436	0.0162236
754.514	0.0163625
754.592	0.0163213
754.670	0.0163563
754.748	0.0161864
754.826	0.0163719
754.905	0.0163697
754.983	0.0161330
755.061	0.0162768
755.139	0.0163991
755.217	0.0164159
755.295	0.0162878
755.373	0.0163667
755.451	0.0164787
755.530	0.0163107
755.608	0.0163088
755.686	0.0163326
755.764	0.0163826
755.842	0.0163930
755.920	0.0162536
755.998	0.0163005
756.076	0.0162527
756.155	0.0163360
756.233	0.0163390
756.311	0.0162895
756.389	0.0163404
756.467	0.0164020
756.545	0.0164870
756.623	0.0164057
756.701	0.0164959
756.780	0.0165549
756.858	0.0165680
756.936	0.0164832
757.014	0.0166143
757.092	0.0166603
757.170	0.0165038
757.248	0.0165562
757.326	0.0164386
757.405	0.0164188
757.483	0.0166745
757.561	0.0166762
757.639	0.0164639
757.717	0.0165892
757.795	0.0165058
757.873	0.0164744
757.951	0.0165362
758.030	0.0163761
758.108	0.0164593
758.186	0.0163449
758.264	0.0164555
758.342	0.0164487
758.420	0.0164084
758.498	0.0164514
758.576	0.0164006
758.655	0.0162940
758.733	0.0163108
758.811	0.0161784
758.889	0.0162400
758.967	0.0162769
759.045	0.0162978
759.123	0.0161106
759.201	0.0161285
759.280	0.0161159
759.358	0.0161396
759.436	0.0162105
759.514	0.0162683
759.592	0.0162503
759.670	0.0161939
759.748	0.0162796
759.826	0.0160804
759.905	0.0163120
759.983	0.0161735
760.061	0.0161608
760.139	0.0161674
760.217	0.0160731
760.295	0.0162816
760.373	0.0161615
760.451	0.0161499
760.530	0.0160389
760.608	0.0161451
760.686	0.0160452
760.764	0.0162300
760.842	0.0163107
760.920	0.0163129
760.998	0.0162290
761.076	0.0162395
761.155	0.0162580
761.233	0.0163789
761.311	0.0164330
761.389	0.0163788
761.467	0.0163695
761.545	0.0163053
761.623	0.0163406
761.701	0.0163926
761.780	0.0164205
761.858	0.0163335
761.936	0.0165862
762.014	0.0165150
762.092	0.0164648
762.170	0.0164351
762.248	0.0164419
762.326	0.0164846
762.405	0.0165746
762.483	0.0164478
762.561	0.0165037
762.639	0.0164491
762.717	0.0165294
762.795	0.0165358
762.873	0.0165853
762.951	0.0165551
763.030	0.0167278
763.108	0.0167487
763.186	0.0166380
763.264	0.0164496
763.342	0.0166381
763.420	0.0167103
763.498	0.0166339
763.576	0.0166747
763.655	0.0165482
763.733	0.0164748
763.811	0.0165751
763.889	0.0164421
763.967	0.0164600
764.045	0.0164536
764.123	0.0163714
764.201	0.0162737
764.280	0.0164465
764.358	0.0162874
764.436	0.0162460
764.514	0.0163321
764.592	0.0161744
764.670	0.0162684
764.748	0.0163825
764.826	0.0161203
764.905	0.0162752
764.983	0.0164072
765.061	0.0162824
765.139	0.0162310
765.217	0.0161417
765.295	0.0161855
765.373	0.0161733
765.451	0.0160699
765.530	0.0161964
765.608	0.0161686
765.686	0.0160016
765.764	0.0161143
765.842	0.0160466
765.920	0.0159769
765.998	0.0160647
766.076	0.0159447
766.155	0.0160141
766.233	0.0159524
766.311	0.0158983
766.389	0.0160347
766.467	0.0159940
766.545	0.0160538
766.623	0.0159942
766.701	0.0160012
766.780	0.0161152
766.858	0.0161532
766.936	0.0160601
767.014	0.0162955
767.092	0.0163076
767.170	0.0164285
767.248	0.0162727
767.326	0.0162182
767.405	0.0163490
767.483	0.0163345
767.561	0.0163012
767.639	0.0163900
767.717	0.0164459
767.795	0.0164488
767.873	0.0164562
767.951	0.0163995
768.030	0.0165258
768.108	0.0163263
768.186	0.0165346
768.264	0.0163174
768.342	0.0166895
768.420	0.0164760
768.498	0.0164032
768.576	0.0164700
768.655	0.0165705
768.733	0.0166026
768.811	0.0166402
768.889	0.0166345
768.967	0.0165525
769.045	0.0165977
769.123	0.0164658
769.201	0.0166063
769.280	0.0164948
769.358	0.0164791
769.436	0.0164028
769.514	0.0164490
769.592	0.0164190
769.670	0.0163303
769.748	0.0164412
769.826	0.0163440
769.905	0.0162529
769.983	0.0163725
770.061	0.0162903
770.139	0.0162637
770.217	0.0161292
770.295	0.0160857
770.373	0.0161107
770.451	0.0161776
770.530	0.0161732
770.608	0.0162491
770.686	0.0160731
770.764	0.0159505
770.842	0.0160328
770.920	0.0159919
770.998	0.0161086
771.076	0.0160065
771.155	0.0160072
771.233	0.0160808
771.311	0.0161224
771.389	0.0161301
771.467	0.0162014
771.545	0.0162521
771.623	0.0162836
771.701	0.0161800
771.780	0.0162220
771.858	0.0164485
771.936	0.0163295
772.014	0.0164548
772.092	0.0162943
772.170	0.0164683
772.248	0.0164753
772.326	0.0165424
772.405	0.0166281
772.483	0.0165766
772.561	0.0165431
772.639	0.0166280
772.717	0.0166736
772.795	0.0167262
772.873	0.0165942
772.951	0.0165500
773.030	0.0165774
773.108	0.0166383
773.186	0.0165307
773.264	0.0166234
773.342	0.0165920
773.420	0.0166479
773.498	0.0165627
773.576	0.0166038
773.655	0.0165395
773.733	0.0165389
773.811	0.0165838
773.889	0.0163416
773.967	0.0163663
774.045	0.0164063
774.123	0.0164304
774.201	0.0163594
774.280	0.0162489
774.358	0.0161959
774.436	0.0160421
774.514	0.0158649
774.592	0.0161633
774.670	0.0161489
774.748	0.0160368
774.826	0.0159871
774.905	0.0158767
774.983	0.0159081
775.061	0.0159496
775.139	0.0158199
775.217	0.0159286
775.295	0.0159444
775.373	0.0159756
775.451	0.0159174
775.530	0.0158883
775.608	0.0160366
775.686	0.0159325
775.764	0.0159499
775.842	0.0159644
775.920	0.0160439
775.998	0.0160444
776.076	0.0160951
776.155	0.0161423
776.233	0.0161416
776.311	0.0161425
776.389	0.0161152
776.467	0.0162257
776.545	0.0161567
776.623	0.0161300
776.701	0.0161266
776.780	0.0162423
776.858	0.0161558
776.936	0.0161025
777.014	0.0162144
777.092	0.0162046
777.170	0.0162569
777.248	0.0162589
777.326	0.0162750
777.405	0.0162877
777.483	0.0163798
777.561	0.0163508
777.639	0.0162054
777.717	0.0163589
777.795	0.0161948
777.873	0.0162839
777.951	0.0163085
778.030	0.0164199
778.108	0.0162835
778.186	0.0164433
778.264	0.0163727
778.342	0.0164690
778.420	0.0163922
778.498	0.0164891
778.576	0.0165054
778.655	0.0165836
778.733	0.0165804
778.811	0.0165914
778.889	0.0166177
778.967	0.0166334
779.045	0.0166820
779.123	0.0166270
779.201	0.0167571
779.280	0.0165051
779.358	0.0164825
779.436	0.0167376
779.514	0.0167179
779.592	0.0165781
779.670	0.0166883
779.748	0.0166086
779.826	0.0165680
779.905	0.0166322
779.983	0.0165276
780.061	0.0165140
780.139	0.0166131
780.217	0.0165055
780.295	0.0164709
780.373	0.0164812
780.451	0.0164277
780.530	0.0164180
780.608	0.0164245
780.686	0.0164648
780.764	0.0164445
780.842	0.0163762
780.920	0.0163803
780.998	0.0163724
781.076	0.0162390
781.155	0.0161757
781.233	0.0161048
781.311	0.0161332
781.389	0.0160300
781.467	0.0161529
781.545	0.0161155
781.623	0.0160060
781.701	0.0161864
781.780	0.0160111
781.858	0.0160804
781.936	0.0160836
782.014	0.0160587
782.092	0.0161320
782.170	0.0161877
782.248	0.0161553
782.326	0.0161415
782.405	0.0162595
782.483	0.0161261
782.561	0.0162243
782.639	0.0163249
782.717	0.0162199
782.795	0.0162388
782.873	0.0163664
782.951	0.0164339
783.030	0.0162996
783.108	0.0163968
783.186	0.0164738
783.264	0.0163604
783.342	0.0164332
783.420	0.0164137
783.498	0.0165219
783.576	0.0165132
783.655	0.0166276
783.733	0.0167168
783.811	0.0166220
783.889	0.0165524
783.967	0.0165755
784.045	0.0167419
784.123	0.0166403
784.201	0.0167271
784.280	0.0167297
784.358	0.0166462
784.436	0.0168466
784.514	0.0167544
784.592	0.0166738
784.670	0.0165977
784.748	0.0167289
784.826	0.0165149
784.905	0.0162894
784.983	0.0164458
785.061	0.0164873
785.139	0.0166676
785.217	0.0164548
785.295	0.0163679
785.373	0.0163254
785.451	0.0163592
785.530	0.0163536
785.608	0.0162443
785.686	0.0162082
785.764	0.0162486
785.842	0.0161462
785.920	0.0161269
785.998	0.0162627
786.076	0.0161202
786.155	0.0162364
786.233	0.0162058
786.311	0.0161541
786.389	0.0160937
786.467	0.0162053
786.545	0.0162436
786.623	0.0162160
786.701	0.0160643
786.780	0.0161829
786.858	0.0161858
786.936	0.0162998
787.014	0.0162212
787.092	0.0163555
787.170	0.0163542
787.248	0.0163338
787.326	0.0163242
787.405	0.0163870
787.483	0.0162429
787.561	0.0163638
787.639	0.0162764
787.717	0.0163655
787.795	0.0163335
787.873	0.0163349
787.951	0.0162446
788.030	0.0163707
788.108	0.0163846
788.186	0.0163432
788.264	0.0162897
788.342	0.0163688
788.420	0.0163626
788.498	0.0163389
788.576	0.0163271
788.655	0.0163596
788.733	0.0163349
788.811	0.0163593
788.889	0.0164292
788.967	0.0162791
789.045	0.0162807
789.123	0.0164495
789.201	0.0163623
789.280	0.0163311
789.358	0.0162968
789.436	0.0162749
789.514	0.0163839
789.592	0.0163141
789.670	0.0163471
789.748	0.0161098
789.826	0.0161701
789.905	0.0163197
789.983	0.0162885
790.061	0.0163322
790.139	0.0164235
790.217	0.0163550
790.295	0.0162550
790.373	0.0163740
790.451	0.0163371
790.530	0.0161829
790.608	0.0163190
790.686	0.0162694
790.764	0.0163062
790.842	0.0164840
790.920	0.0162910
790.998	0.0163923
791.076	0.0164297
791.155	0.0163345
791.233	0.0162885
791.311	0.0163489
791.389	0.0163766
791.467	0.0162855
791.545	0.0163616
791.623	0.0162737
791.701	0.0162762
791.780	0.0165628
791.858	0.0163377
791.936	0.0163754
792.014	0.0164139
792.092	0.0164816
792.170	0.0164194
792.248	0.0163573
792.326	0.0164879
792.405	0.0164355
792.483	0.0165533
792.561	0.0164887
792.639	0.0163213
792.717	0.0165431
792.795	0.0164985
792.873	0.0164759
792.951	0.0164204
793.030	0.0164583
793.108	0.0163978
793.186	0.0162793
793.264	0.0162494
793.342	0.0162766
793.420	0.0161830
793.498	0.0161533
793.576	0.0161317
793.655	0.0161738
793.733	0.0161090
793.811	0.0162903
793.889	0.0161661
793.967	0.0162190
794.045	0.0161242
794.123	0.0160979
794.201	0.0161626
794.280	0.0163654
794.358	0.0162363
794.436	0.0161161
794.514	0.0162519
794.592	0.0162337
794.670	0.0161115
794.748	0.0162022
794.826	0.0160679
794.905	0.0162812
794.983	0.0162836
795.061	0.0161639
795.139	0.0162489
795.217	0.0162045
795.295	0.0162554
795.373	0.0162168
795.451	0.0161993
795.530	0.0162892
795.608	0.0162290
795.686	0.0163511
795.764	0.0161796
795.842	0.0161444
795.920	0.0162239
795.998	0.0162992
796.076	0.0163091
796.155	0.0164172
796.233	0.0162852
796.311	0.0162979
796.389	0.0164691
796.467	0.0164392
796.545	0.0163394
796.623	0.0164165
796.701	0.0164379
796.780	0.0164257
796.858	0.0164821
796.936	0.0163866
797.014	0.0164166
797.092	0.0165498
797.170	0.0164108
797.248	0.0162994
797.326	0.0164468
797.405	0.0164201
797.483	0.0163290
797.561	0.0163781
797.639	0.0162700
797.717	0.0162671
797.795	0.0162733
797.873	0.0162298
797.951	0.0163594
798.030	0.0162316
798.108	0.0162663
798.186	0.0162710
798.264	0.0162144
798.342	0.0160992
798.420	0.0162238
798.498	0.0161686
798.576	0.0160546
798.655	0.0160320
798.733	0.0161951
798.811	0.0161305
798.889	0.0160242
798.967	0.0161363
799.045	0.0162173
799.123	0.0160867
799.201	0.0161116
799.280	0.0161556
799.358	0.0161549
799.436	0.0162586
799.514	0.0160246
799.592	0.0161173
799.670	0.0162192
799.748	0.0163506
799.826	0.0163251
799.905	0.0159442
799.983	0.0162012
800.061	0.0161393
800.139	0.0161265
800.217	0.0162380
800.295	0.0163111
800.373	0.0162850
800.451	0.0163825
800.530	0.0163049
800.608	0.0165009
800.686	0.0163876
800.764	0.0163094
800.842	0.0163720
800.920	0.0163747
800.998	0.0162859
801.076	0.0164017
801.155	0.0163154
801.233	0.0164446
801.311	0.0164337
801.389	0.0163118
801.467	0.0162857
801.545	0.0164509
801.623	0.0163156
801.701	0.0163359
801.780	0.0163880
801.858	0.0164546
801.936	0.0163704
802.014	0.0162244
802.092	0.0163281
802.170	0.0164023
802.248	0.0163622
802.326	0.0163695
802.405	0.0163914
802.483	0.0162395
802.561	0.0164068
802.639	0.0164337
802.717	0.0163731
802.795	0.0162734
802.873	0.0163037
802.951	0.0164503
803.030	0.0164066
803.108	0.0163907
803.186	0.0164813
803.264	0.0162891
803.342	0.0164279
803.420	0.0163364
803.498	0.0162746
803.576	0.0162598
803.655	0.0162376
803.733	0.0162939
803.811	0.0163792
803.889	0.0163878
803.967	0.0163622
804.045	0.0162662
804.123	0.0162563
804.201	0.0162445
804.280	0.0163142
804.358	0.0162814
804.436	0.0162518
804.514	0.0164024
804.592	0.0164085
804.670	0.0162711
804.748	0.0164326
804.826	0.0163761
804.905	0.0162526
804.983	0.0162907
805.061	0.0162862
805.139	0.0163754
805.217	0.0163391
805.295	0.0163999
805.373	0.0163127
805.451	0.0163687
805.530	0.0162446
805.608	0.0163361
805.686	0.0163776
805.764	0.0163412
805.842	0.0162035
805.920	0.0163892
805.998	0.0164437
806.076	0.0162973
806.155	0.0163364
806.233	0.0163217
806.311	0.0162808
806.389	0.0162563
806.467	0.0162022
806.545	0.0162286
806.623	0.0163581
806.701	0.0163598
806.780	0.0163240
806.858	0.0163107
806.936	0.0162741
807.014	0.0162601
807.092	0.0163031
807.170	0.0162885
807.248	0.0161626
807.326	0.0162790
807.405	0.0164264
807.483	0.0162436
807.561	0.0162672
807.639	0.0162548
807.717	0.0162856
807.795	0.0163253
807.873	0.0162600
807.951	0.0163660
808.030	0.0164452
808.108	0.0164236
808.186	0.0164497
808.264	0.0164127
808.342	0.0164392
808.420	0.0164323
808.498	0.0165883
808.576	0.0165839
808.655	0.0166566
808.733	0.0164548
808.811	0.0165047
808.889	0.0165164
808.967	0.0165669
809.045	0.0164092
809.123	0.0165025
809.201	0.0164199
809.280	0.0164044
809.358	0.0164557
809.436	0.0164686
809.514	0.0162343
809.592	0.0163165
809.670	0.0163448
809.748	0.0163166
809.826	0.0163560
809.905	0.0162720
809.983	0.0161723
810.061	0.0161179
810.139	0.0162698
810.217	0.0163930
810.295	0.0162603
810.373	0.0162269
810.451	0.0161515
810.530	0.0161123
810.608	0.0161067
810.686	0.0162613
810.764	0.0161532
810.842	0.0161913
810.920	0.0161281
810.998	0.0161350
811.076	0.0162949
811.155	0.0162516
811.233	0.0161120
811.311	0.0162511
811.389	0.0161901
811.467	0.0162337
811.545	0.0162946
811.623	0.0161052
811.701	0.0162405
811.780	0.0162878
811.858	0.0163447
811.936	0.0162535
812.014	0.0161369
812.092	0.0161923
812.170	0.0163046
812.248	0.0163641
812.326	0.0163209
812.405	0.0164719
812.483	0.0163853
812.561	0.0162057
812.639	0.0163507
812.717	0.0164862
812.795	0.0164147
812.873	0.0162984
812.951	0.0164415
813.030	0.0163716
813.108	0.0162981
813.186	0.0163231
813.264	0.0164203
813.342	0.0163791
813.420	0.0163986
813.498	0.0162897
813.576	0.0164933
813.655	0.0165453
813.733	0.0163451
813.811	0.0163004
813.889	0.0161752
813.967	0.0163610
814.045	0.0163673
814.123	0.0162571
814.201	0.0164024
814.280	0.0162716
814.358	0.0162550
814.436	0.0163669
814.514	0.0162666
814.592	0.0161819
814.670	0.0162994
814.748	0.0161729
814.826	0.0162621
814.905	0.0162037
814.983	0.0162074
815.061	0.0162349
815.139	0.0163383
815.217	0.0162189
815.295	0.0163661
815.373	0.0163226
815.451	0.0161160
815.530	0.0161899
815.608	0.0162973
815.686	0.0162247
815.764	0.0162676
815.842	0.0163324
815.920	0.0163539
815.998	0.0163438
816.076	0.0164384
816.155	0.0162910
816.233	0.0164513
816.311	0.0163410
816.389	0.0163000
816.467	0.0164231
816.545	0.0164802
816.623	0.0163786
816.701	0.0165273
816.780	0.0164880
816.858	0.0163630
816.936	0.0164755
817.014	0.0164469
817.092	0.0162782
817.170	0.0163915
817.248	0.0163245
817.326	0.0163719
817.405	0.0162435
817.483	0.0163425
817.561	0.0163633
817.639	0.0162897
817.717	0.0162889
817.795	0.0162704
817.873	0.0163184
817.951	0.0161986
818.030	0.0161880
818.108	0.0163003
818.186	0.0160857
818.264	0.0160828
818.342	0.0161076
818.420	0.0161744
818.498	0.0162534
818.576	0.0162334
818.655	0.0160827
818.733	0.0160451
818.811	0.0160862
818.889	0.0162420
818.967	0.0162640
819.045	0.0160172
819.123	0.0161414
819.201	0.0161538
819.280	0.0159786
819.358	0.0160912
819.436	0.0161920
819.514	0.0161968
819.592	0.0161134
819.670	0.0160811
819.748	0.0162389
819.826	0.0161746
819.905	0.0162214
819.983	0.0162149
820.061	0.0162128
820.139	0.0161768
820.217	0.0162502
820.295	0.0163120
820.373	0.0162059
820.451	0.0163479
820.530	0.0163342
820.608	0.0163753
820.686	0.0160739
820.764	0.0162432
820.842	0.0163438
820.920	0.0163471
820.998	0.0164167
821.076	0.0162291
821.155	0.0161923
821.233	0.0161064
821.311	0.0162016
821.389	0.0161723
821.467	0.0161306
821.545	0.0160715
821.623	0.0161340
821.701	0.0161199
821.780	0.0161699
821.858	0.0162373
821.936	0.0162157
822.014	0.0162294
822.092	0.0162092
822.170	0.0162922
822.248	0.0160886
822.326	0.0161042
822.405	0.0162481
822.483	0.0162457
822.561	0.0161187
822.639	0.0163212
822.717	0.0161040
822.795	0.0162534
822.873	0.0160986
822.951	0.0162692
823.030	0.0162158
823.108	0.0163313
823.186	0.0163000
823.264	0.0162078
823.342	0.0163493
823.420	0.0162658
823.498	0.0162882
823.576	0.0163974
823.655	0.0164075
823.733	0.0163243
823.811	0.0165187
823.889	0.0163876
823.967	0.0163952
824.045	0.0164172
824.123	0.0163483
824.201	0.0163480
824.280	0.0163599
824.358	0.0162751
824.436	0.0163811
824.514	0.0164091
824.592	0.0163247
824.670	0.0163384
824.748	0.0162564
824.826	0.0162030
824.905	0.0163469
824.983	0.0164642
825.061	0.0164531
825.139	0.0163510
825.217	0.0162492
825.295	0.0163982
825.373	0.0162601
825.451	0.0162741
825.530	0.0162894
825.608	0.0163241
825.686	0.0162785
825.764	0.0160781
825.842	0.0161107
825.920	0.0162957
825.998	0.0163739
826.076	0.0160836
826.155	0.0161108
826.233	0.0162785
826.311	0.0160990
826.389	0.0162627
826.467	0.0163331
826.545	0.0162569
826.623	0.0161922
826.701	0.0163328
826.780	0.0163195
826.858	0.0162729
826.936	0.0162809
827.014	0.0162751
827.092	0.0162886
827.170	0.0162606
827.248	0.0163994
827.326	0.0163482
827.405	0.0163413
827.483	0.0162028
827.561	0.0163498
827.639	0.0163279
827.717	0.0163393
827.795	0.0164189
827.873	0.0164513
827.951	0.0164243
828.030	0.0165337
828.108	0.0165189
828.186	0.0165725
828.264	0.0163808
828.342	0.0164576
828.420	0.0164670
828.498	0.0166461
828.576	0.0165693
828.655	0.0165289
828.733	0.0164186
828.811	0.0166598
828.889	0.0165835
828.967	0.0165498
829.045	0.0166022
829.123	0.0165370
829.201	0.0164508
829.280	0.0164409
829.358	0.0165263
829.436	0.0165024
829.514	0.0164693
829.592	0.0164346
829.670	0.0163521
829.748	0.0163229
829.826	0.0164040
829.905	0.0163351
829.983	0.0163708
830.061	0.0163101
830.139	0.0162711
830.217	0.0161604
830.295	0.0162493
830.373	0.0164297
830.451	0.0162606
830.530	0.0163373
830.608	0.0163641
830.686	0.0163080
830.764	0.0162281
830.842	0.0164071
830.920	0.0162887
830.998	0.0162768
831.076	0.0161777
831.155	0.0163274
831.233	0.0163148
831.311	0.0163428
831.389	0.0162421
831.467	0.0163013
831.545	0.0163307
831.623	0.0163022
831.701	0.0162907
831.780	0.0163242
831.858	0.0163107
831.936	0.0162759
832.014	0.0163542
832.092	0.0163670
832.170	0.0162795
832.248	0.0162617
832.326	0.0164035
832.405	0.0164463
832.483	0.0163804
832.561	0.0164571
832.639	0.0164252
832.717	0.0164236
832.795	0.0163557
832.873	0.0162830
832.951	0.0165231
833.030	0.0164147
833.108	0.0164002
833.186	0.0163149
833.264	0.0163812
833.342	0.0162465
833.420	0.0163749
833.498	0.0162685
833.576	0.0163425
833.655	0.0163335
833.733	0.0162228
833.811	0.0162574
833.889	0.0162174
833.967	0.0162820
834.045	0.0162503
834.123	0.0164320
834.201	0.0163360
834.280	0.0161423
834.358	0.0162336
834.436	0.0162716
834.514	0.0163019
834.592	0.0162749
834.670	0.0162879
834.748	0.0162881
834.826	0.0163743
834.905	0.0163023
834.983	0.0163627
835.061	0.0163415
835.139	0.0163362
835.217	0.0163349
835.295	0.0163297
835.373	0.0164155
835.451	0.0163076
835.530	0.0162087
835.608	0.0162404
835.686	0.0161969
835.764	0.0162308
835.842	0.0163504
835.920	0.0162170
835.998	0.0162687
836.076	0.0162988
836.155	0.0162733
836.233	0.0162649
836.311	0.0162794
836.389	0.0162566
836.467	0.0161452
836.545	0.0163638
836.623	0.0163503
836.701	0.0163562
836.780	0.0163673
836.858	0.0162840
836.936	0.0163629
837.014	0.0162450
837.092	0.0162437
837.170	0.0162527
837.248	0.0162335
837.326	0.0162985
837.405	0.0162779
837.483	0.0163616
837.561	0.0162978
837.639	0.0161741
837.717	0.0162171
837.795	0.0162547
837.873	0.0162971
837.951	0.0163004
838.030	0.0161901
838.108	0.0163268
838.186	0.0162887
838.264	0.0162788
838.342	0.0163099
838.420	0.0160989
838.498	0.0163432
838.576	0.0163595
838.655	0.0163551
838.733	0.0163065
838.811	0.0162977
838.889	0.0164942
838.967	0.0163123
839.045	0.0163951
839.123	0.0163634
839.201	0.0164302
839.280	0.0163291
839.358	0.0164132
839.436	0.0164474
839.514	0.0164471
839.592	0.0163731
839.670	0.0165080
839.748	0.0164618
839.826	0.0164288
839.905	0.0161832
839.983	0.0164305
840.061	0.0164969
840.139	0.0164116
840.217	0.0163389
840.295	0.0164378
840.373	0.0164053
840.451	0.0163637
840.530	0.0163468
840.608	0.0163583
840.686	0.0163099
840.764	0.0164159
840.842	0.0164799
840.920	0.0162089
840.998	0.0162091
841.076	0.0163274
841.155	0.0162213
841.233	0.0162209
841.311	0.0163634
841.389	0.0162560
841.467	0.0161449
841.545	0.0162069
841.623	0.0162652
841.701	0.0162070
841.780	0.0162447
841.858	0.0162621
841.936	0.0161402
842.014	0.0162646
842.092	0.0162840
842.170	0.0161162
842.248	0.0163386
842.326	0.0162688
842.405	0.0163836
842.483	0.0162260
842.561	0.0162649
842.639	0.0163638
842.717	0.0163787
842.795	0.0162209
842.873	0.0163365
842.951	0.0163799
843.030	0.0163317
843.108	0.0162198
843.186	0.0163881
843.264	0.0162199
843.342	0.0162172
843.420	0.0163424
843.498	0.0162572
843.576	0.0164088
843.655	0.0163733
843.733	0.0162368
843.811	0.0162766
843.889	0.0163976
843.967	0.0162476
844.045	0.0164146
844.123	0.0163495
844.201	0.0162836
844.280	0.0163945
844.358	0.0164065
844.436	0.0162835
844.514	0.0162260
844.592	0.0162870
844.670	0.0162489
844.748	0.0161643
844.826	0.0163914
844.905	0.0162540
844.983	0.0161736
845.061	0.0161916
845.139	0.0162256
845.217	0.0162479
845.295	0.0161572
845.373	0.0161114
845.451	0.0161970
845.530	0.0161833
845.608	0.0161645
845.686	0.0161767
845.764	0.0162585
845.842	0.0160597
845.920	0.0160898
845.998	0.0162140
846.076	0.0160729
846.155	0.0162834
846.233	0.0162629
846.311	0.0162612
846.389	0.0164030
846.467	0.0162919
846.545	0.0161990
846.623	0.0161289
846.701	0.0161568
846.780	0.0161446
846.858	0.0162386
846.936	0.0161727
847.014	0.0162585
847.092	0.0162856
847.170	0.0161806
847.248	0.0162859
847.326	0.0164391
847.405	0.0162990
847.483	0.0160593
847.561	0.0162665
847.639	0.0162984
847.717	0.0164257
847.795	0.0162719
847.873	0.0163738
847.951	0.0162886
848.030	0.0161514
848.108	0.0163570
848.186	0.0164602
848.264	0.0163926
848.342	0.0162231
848.420	0.0164575
848.498	0.0164390
848.576	0.0164725
848.655	0.0164954
848.733	0.0163196
848.811	0.0164565
848.889	0.0164135
848.967	0.0165701
849.045	0.0163657
849.123	0.0164326
849.201	0.0163246
849.280	0.0162481
849.358	0.0162392
849.436	0.0162702
849.514	0.0163177
849.592	0.0164246
849.670	0.0164048
849.748	0.0164845
849.826	0.0164703
849.905	0.0163622
849.983	0.0163250
850.061	0.0163982
850.139	0.0162749
850.217	0.0162027
850.295	0.0163384
850.373	0.0164397
850.451	0.0163523
850.530	0.0162794
850.608	0.0163857
850.686	0.0163105
850.764	0.0161536
850.842	0.0163312
850.920	0.0164809
850.998	0.0164085
851.076	0.0163375
851.155	0.0164301
851.233	0.0163960
851.311	0.0164578
851.389	0.0164336
851.467	0.0165757
851.545	0.0164114
851.623	0.0164576
851.701	0.0164198
851.780	0.0164492
851.858	0.0163992
851.936	0.0163174
852.014	0.0163569
852.092	0.0163664
852.170	0.0163299
852.248	0.0163589
852.326	0.0163141
852.405	0.0164214
852.483	0.0164627
852.561	0.0163531
852.639	0.0163976
852.717	0.0163526
852.795	0.0163350
852.873	0.0163554
852.951	0.0163469
853.030	0.0164970
853.108	0.0162109
853.186	0.0162653
853.264	0.0163956
853.342	0.0163715
853.420	0.0164739
853.498	0.0163001
853.576	0.0163184
853.655	0.0163471
853.733	0.0164112
853.811	0.0163837
853.889	0.0164771
853.967	0.0164685
854.045	0.0163580
854.123	0.0162554
854.201	0.0164785
854.280	0.0163312
854.358	0.0164725
854.436	0.0163949
854.514	0.0162502
854.592	0.0162730
854.670	0.0163283
854.748	0.0163352
854.826	0.0161823
854.905	0.0161754
854.983	0.0162900
855.061	0.0163440
855.139	0.0163185
855.217	0.0162221
855.295	0.0162114
855.373	0.0162865
855.451	0.0161399
855.530	0.0161617
855.608	0.0163253
855.686	0.0161473
855.764	0.0161684
855.842	0.0162760
855.920	0.0160846
855.998	0.0162653
856.076	0.0163360
856.155	0.0163248
856.233	0.0162873
856.311	0.0162021
856.389	0.0162959
856.467	0.0163638
856.545	0.0162857
856.623	0.0163611
856.701	0.0162943
856.780	0.0162883
856.858	0.0163692
856.936	0.0163570
857.014	0.0162744
857.092	0.0163162
857.170	0.0163990
857.248	0.0163662
857.326	0.0163289
857.405	0.0163969
857.483	0.0163493
857.561	0.0163377
857.639	0.0163877
857.717	0.0165339
857.795	0.0165099
857.873	0.0164968
857.951	0.0164661
858.030	0.0165665
858.108	0.0164023
858.186	0.0165146
858.264	0.0165883
858.342	0.0165052
858.420	0.0165296
858.498	0.0164774
858.576	0.0165100
858.655	0.0165015
858.733	0.0164288
858.811	0.0164838
858.889	0.0164774
858.967	0.0164740
859.045	0.0165552
859.123	0.0165548
859.201	0.0165054
859.280	0.0165714
859.358	0.0163549
859.436	0.0163157
859.514	0.0164695
859.592	0.0163618
859.670	0.0164323
859.748	0.0163660
859.826	0.0164127
859.905	0.0163346
859.983	0.0163151
860.061	0.0163657
860.139	0.0164865
860.217	0.0163185
860.295	0.0163367
860.373	0.0162921
860.451	0.0163209
860.530	0.0162519
860.608	0.0164159
860.686	0.0163532
860.764	0.0163177
860.842	0.0162854
860.920	0.0163490
860.998	0.0164674
861.076	0.0164619
861.155	0.0165845
861.233	0.0164365
861.311	0.0164233
861.389	0.0165217
861.467	0.0164305
861.545	0.0165143
861.623	0.0164442
861.701	0.0163757
861.780	0.0164226
861.858	0.0165972
861.936	0.0163168
862.014	0.0162374
862.092	0.0164035
862.170	0.0163985
862.248	0.0163705
862.326	0.0163775
862.405	0.0162504
862.483	0.0162657
862.561	0.0163569
862.639	0.0162891
862.717	0.0164124
862.795	0.0163374
862.873	0.0162379
862.951	0.0162608
863.030	0.0162431
863.108	0.0163068
863.186	0.0162396
863.264	0.0161784
863.342	0.0163635
863.420	0.0161835
863.498	0.0162802
863.576	0.0162617
863.655	0.0162802
863.733	0.0162840
863.811	0.0163300
863.889	0.0163665
863.967	0.0162370
864.045	0.0163339
864.123	0.0162895
864.201	0.0161971
864.280	0.0163177
864.358	0.0163498
864.436	0.0163554
864.514	0.0163888
864.592	0.0163506
864.670	0.0162772
864.748	0.0164187
864.826	0.0164935
864.905	0.0163322
864.983	0.0163845
865.061	0.0163266
865.139	0.0163725
865.217	0.0162862
865.295	0.0165199
865.373	0.0163503
865.451	0.0162943
865.530	0.0161838
865.608	0.0161742
865.686	0.0163110
865.764	0.0163219
865.842	0.0163235
865.920	0.0164095
865.998	0.0163918
866.076	0.0163753
866.155	0.0161765
866.233	0.0162844
866.311	0.0162994
866.389	0.0164234
866.467	0.0163662
866.545	0.0164024
866.623	0.0163757
866.701	0.0164305
866.780	0.0163494
866.858	0.0163674
866.936	0.0163604
867.014	0.0162228
867.092	0.0164100
867.170	0.0164335
867.248	0.0163026
867.326	0.0164113
867.405	0.0164407
867.483	0.0164536
867.561	0.0164474
867.639	0.0164561
867.717	0.0163096
867.795	0.0164200
867.873	0.0163973
867.951	0.0164771
868.030	0.0164020
868.108	0.0163638
868.186	0.0163787
868.264	0.0163345
868.342	0.0164148
868.420	0.0162962
868.498	0.0164154
868.576	0.0162373
868.655	0.0162459
868.733	0.0163727
868.811	0.0162491
868.889	0.0163293
868.967	0.0162714
869.045	0.0161620
869.123	0.0160529
869.201	0.0162801
869.280	0.0163180
869.358	0.0161971
869.436	0.0162042
869.514	0.0162580
869.592	0.0162315
869.670	0.0161115
869.748	0.0163440
869.826	0.0161372
869.905	0.0164179
869.983	0.0162074
870.061	0.0162090
870.139	0.0164264
870.217	0.0163330
870.295	0.0161537
870.373	0.0163168
870.451	0.0163090
870.530	0.0162318
870.608	0.0163372
870.686	0.0163403
870.764	0.0162504
870.842	0.0162745
870.920	0.0164548
870.998	0.0163773
871.076	0.0162881
871.155	0.0162037
871.233	0.0163404
871.311	0.0162462
871.389	0.0163018
871.467	0.0163786
871.545	0.0163615
871.623	0.0163773
871.701	0.0163102
871.780	0.0163530
871.858	0.0163509
871.936	0.0163454
872.014	0.0165300
872.092	0.0164548
872.170	0.0164421
872.248	0.0163965
872.326	0.0164717
872.405	0.0164111
872.483	0.0164383
872.561	0.0165137
872.639	0.0163683
872.717	0.0164326
872.795	0.0164138
872.873	0.0163958
872.951	0.0164806
873.030	0.0164034
873.108	0.0163182
873.186	0.0163833
873.264	0.0164413
873.342	0.0164024
873.420	0.0164436
873.498	0.0161830
873.576	0.0163319
873.655	0.0162928
873.733	0.0163170
873.811	0.0162103
873.889	0.0162296
873.967	0.0162242
874.045	0.0162233
874.123	0.0162431
874.201	0.0162814
874.280	0.0163705
874.358	0.0162925
874.436	0.0160503
874.514	0.0161495
874.592	0.0162057
874.670	0.0163266
874.748	0.0162654
874.826	0.0161603
874.905	0.0162968
874.983	0.0161863
875.061	0.0162308
875.139	0.0163155
875.217	0.0163032
875.295	0.0162589
875.373	0.0162518
875.451	0.0163073
875.530	0.0162916
875.608	0.0162256
875.686	0.0162855
875.764	0.0162467
875.842	0.0163843
875.920	0.0161546
875.998	0.0161777
876.076	0.0162849
876.155	0.0162907
876.233	0.0163187
876.311	0.0162469
876.389	0.0162208
876.467	0.0162736
876.545	0.0162577
876.623	0.0162776
876.701	0.0164478
876.780	0.0163596
876.858	0.0163810
876.936	0.0164439
877.014	0.0162870
877.092	0.0164351
877.170	0.0163618
877.248	0.0162244
877.326	0.0164677
877.405	0.0164037
877.483	0.0164330
877.561	0.0163662
877.639	0.0162299
877.717	0.0163111
877.795	0.0164946
877.873	0.0163253
877.951	0.0162778
878.030	0.0163425
878.108	0.0164014
878.186	0.0164954
878.264	0.0163890
878.342	0.0164090
878.420	0.0163519
878.498	0.0163769
878.576	0.0163765
878.655	0.0163233
878.733	0.0161845
878.811	0.0162608
878.889	0.0163981
878.967	0.0163177
879.045	0.0162743
879.123	0.0161441
879.201	0.0162296
879.280	0.0162723
879.358	0.0161462
879.436	0.0163091
879.514	0.0162812
879.592	0.0162505
879.670	0.0162229
879.748	0.0161992
879.826	0.0162282
879.905	0.0162472
879.983	0.0162469
880.061	0.0162498
880.139	0.0162771
880.217	0.0162743
880.295	0.0162521
880.373	0.0163553
880.451	0.0163038
880.530	0.0163120
880.608	0.0162984
880.686	0.0164068
880.764	0.0163969
880.842	0.0163641
880.920	0.0161568
880.998	0.0163087
881.076	0.0162792
881.155	0.0163104
881.233	0.0164355
881.311	0.0162653
881.389	0.0163004
881.467	0.0164095
881.545	0.0163612
881.623	0.0164610
881.701	0.0164796
881.780	0.0162986
881.858	0.0162463
881.936	0.0164475
882.014	0.0162912
882.092	0.0163806
882.170	0.0163617
882.248	0.0163327
882.326	0.0163008
882.405	0.0163291
882.483	0.0162707
882.561	0.0162312
882.639	0.0163112
882.717	0.0162870
882.795	0.0163097
882.873	0.0162351
882.951	0.0161729
883.030	0.0161591
883.108	0.0160978
883.186	0.0162409
883.264	0.0162914
883.342	0.0161644
883.420	0.0163346
883.498	0.0162383
883.576	0.0163010
883.655	0.0162934
883.733	0.0162887
883.811	0.0162117
883.889	0.0162937
883.967	0.0162668
884.045	0.0162241
884.123	0.0161565
884.201	0.0162036
884.280	0.0162635
884.358	0.0162801
884.436	0.0162112
884.514	0.0161018
884.592	0.0161829
884.670	0.0161830
884.748	0.0162225
884.826	0.0161650
884.905	0.0162227
884.983	0.0161815
885.061	0.0163345
885.139	0.0163115
885.217	0.0162536
885.295	0.0162560
885.373	0.0162982
885.451	0.0162394
885.530	0.0163273
885.608	0.0163435
885.686	0.0163155
885.764	0.0161949
885.842	0.0161626
885.920	0.0162091
885.998	0.0162164
886.076	0.0162983
886.155	0.0162583
886.233	0.0162214
886.311	0.0164057
886.389	0.0161578
886.467	0.0162539
886.545	0.0160838
886.623	0.0162049
886.701	0.0161243
886.780	0.0162634
886.858	0.0163349
886.936	0.0162691
887.014	0.0163073
887.092	0.0162951
887.170	0.0162270
887.248	0.0163900
887.326	0.0162317
887.405	0.0164661
887.483	0.0163085
887.561	0.0163877
887.639	0.0164496
887.717	0.0162987
887.795	0.0163550
887.873	0.0163793
887.951	0.0164151
888.030	0.0163109
888.108	0.0164787
888.186	0.0163038
888.264	0.0164138
888.342	0.0165528
888.420	0.0163497
888.498	0.0164577
888.576	0.0164378
888.655	0.0164114
888.733	0.0163976
888.811	0.0164921
888.889	0.0164437
888.967	0.0163016
889.045	0.0163737
889.123	0.0163567
889.201	0.0163531
889.280	0.0162004
889.358	0.0163002
889.436	0.0164230
889.514	0.0162737
889.592	0.0163599
889.670	0.0163102
889.748	0.0163023
889.826	0.0163342
889.905	0.0161871
889.983	0.0162780
890.061	0.0163339
890.139	0.0162917
890.217	0.0163661
890.295	0.0163967
890.373	0.0162891
890.451	0.0163464
890.530	0.0164431
890.608	0.0163876
890.686	0.0163049
890.764	0.0163068
890.842	0.0163854
890.920	0.0164061
890.998	0.0163084
891.076	0.0164002
891.155	0.0163873
891.233	0.0162905
891.311	0.0163934
891.389	0.0163002
891.467	0.0163787
891.545	0.0163126
891.623	0.0163902
891.701	0.0163251
891.780	0.0164429
891.858	0.0163951
891.936	0.0164386
892.014	0.0163390
892.092	0.0163779
892.170	0.0164146
892.248	0.0162563
892.326	0.0164037
892.405	0.0163258
892.483	0.0163186
892.561	0.0163837
892.639	0.0162157
892.717	0.0164173
892.795	0.0163860
892.873	0.0162540
892.951	0.0162725
893.030	0.0163812
893.108	0.0163212
893.186	0.0163657
893.264	0.0163689
893.342	0.0162160
893.420	0.0163418
893.498	0.0163715
893.576	0.0161886
893.655	0.0163523
893.733	0.0163788
893.811	0.0163647
893.889	0.0163668
893.967	0.0163136
894.045	0.0163588
894.123	0.0163684
894.201	0.0161992
894.280	0.0163145
894.358	0.0163019
894.436	0.0163052
894.514	0.0162695
894.592	0.0162900
894.670	0.0164275
894.748	0.0162240
894.826	0.0162804
894.905	0.0163942
894.983	0.0162295
895.061	0.0162390
895.139	0.0163952
895.217	0.0163501
895.295	0.0163864
895.373	0.0163146
895.451	0.0162654
895.530	0.0162541
895.608	0.0164472
895.686	0.0161712
895.764	0.0163011
895.842	0.0162428
895.920	0.0163319
895.998	0.0163026
896.076	0.0162890
896.155	0.0163169
896.233	0.0163511
896.311	0.0163116
896.389	0.0161808
896.467	0.0162054
896.545	0.0163850
896.623	0.0163396
896.701	0.0164050
896.780	0.0162855
896.858	0.0163475
896.936	0.0162714
897.014	0.0162914
897.092	0.0162827
897.170	0.0163185
897.248	0.0163800
897.326	0.0163567
897.405	0.0163432
897.483	0.0163860
897.561	0.0162150
897.639	0.0163140
897.717	0.0164536
897.795	0.0163415
897.873	0.0163140
897.951	0.0163342
898.030	0.0164336
898.108	0.0162580
898.186	0.0163169
898.264	0.0162460
898.342	0.0164648
898.420	0.0163762
898.498	0.0163753
898.576	0.0163630
898.655	0.0163761
898.733	0.0164249
898.811	0.0163832
898.889	0.0162360
898.967	0.0163415
899.045	0.0164697
899.123	0.0163358
899.201	0.0162644
899.280	0.0163654
899.358	0.0162392
899.436	0.0162283
899.514	0.0162481
899.592	0.0162651
899.670	0.0162731
899.748	0.0163630
899.826	0.0163911
899.905	0.0163103
899.983	0.0164281
900.061	0.0162983
900.139	0.0162664
900.217	0.0162638
900.295	0.0163940
900.373	0.0163555
900.451	0.0163354
900.530	0.0163220
900.608	0.0162915
900.686	0.0161854
900.764	0.0163253
900.842	0.0163480
900.920	0.0162735
900.998	0.0163126
901.076	0.0164233
901.155	0.0164275
901.233	0.0164254
901.311	0.0162537
901.389	0.0164572
901.467	0.0164108
901.545	0.0163024
901.623	0.0164626
901.701	0.0166106
901.780	0.0164700
901.858	0.0163999
901.936	0.0164218
902.014	0.0164223
902.092	0.0163163
902.170	0.0164280
902.248	0.0164206
902.326	0.0164049
902.405	0.0162923
902.483	0.0163193
902.561	0.0163248
902.639	0.0163158
902.717	0.0163831
902.795	0.0163447
902.873	0.0163374
902.951	0.0163271
903.030	0.0163235
903.108	0.0162614
903.186	0.0163512
903.264	0.0162224
903.342	0.0163351
903.420	0.0161468
903.498	0.0161177
903.576	0.0161687
903.655	0.0161604
903.733	0.0162150
903.811	0.0162731
903.889	0.0162553
903.967	0.0161690
904.045	0.0160971
904.123	0.0161285
904.201	0.0161805
904.280	0.0160934
904.358	0.0161430
904.436	0.0163845
904.514	0.0162102
904.592	0.0162988
904.670	0.0162247
904.748	0.0163129
904.826	0.0163331
904.905	0.0163107
904.983	0.0163954
905.061	0.0162203
905.139	0.0163979
905.217	0.0162183
905.295	0.0163120
905.373	0.0163751
905.451	0.0163242
905.530	0.0163017
905.608	0.0162482
905.686	0.0163589
905.764	0.0163665
905.842	0.0164225
905.920	0.0164181
905.998	0.0164028
906.076	0.0162848
906.155	0.0163056
906.233	0.0161979
906.311	0.0164023
906.389	0.0163948
906.467	0.0163622
906.545	0.0163202
906.623	0.0162560
906.701	0.0163934
906.780	0.0162881
906.858	0.0162454
906.936	0.0161706
907.014	0.0163091
907.092	0.0164057
907.170	0.0163419
907.248	0.0161285
907.326	0.0162197
907.405	0.0162289
907.483	0.0160703
907.561	0.0162537
907.639	0.0162586
907.717	0.0162336
907.795	0.0162595
907.873	0.0163456
907.951	0.0163673
908.030	0.0161629
908.108	0.0161792
908.186	0.0163719
908.264	0.0162486
908.342	0.0162713
908.420	0.0163274
908.498	0.0162524
908.576	0.0161768
908.655	0.0162547
908.733	0.0161520
908.811	0.0162077
908.889	0.0163004
908.967	0.0163129
909.045	0.0162328
909.123	0.0163456
909.201	0.0162827
909.280	0.0162807
909.358	0.0162604
909.436	0.0162030
909.514	0.0163477
909.592	0.0163416
909.670	0.0163180
909.748	0.0162762
909.826	0.0163159
909.905	0.0164594
909.983	0.0164046
910.061	0.0163686
910.139	0.0163410
910.217	0.0163033
910.295	0.0163015
910.373	0.0164165
910.451	0.0163072
910.530	0.0163329
910.608	0.0163538
910.686	0.0164133
910.764	0.0165830
910.842	0.0163531
910.920	0.0162312
910.998	0.0164780
911.076	0.0164004
911.155	0.0163803
911.233	0.0162894
911.311	0.0163452
911.389	0.0164056
911.467	0.0163570
911.545	0.0163306
911.623	0.0162971
911.701	0.0162728
911.780	0.0160965
911.858	0.0161518
911.936	0.0163496
912.014	0.0162336
912.092	0.0162142
912.170	0.0161675
912.248	0.0162323
912.326	0.0161521
912.405	0.0162097
912.483	0.0162485
912.561	0.0161433
912.639	0.0162323
912.717	0.0162450
912.795	0.0162441
912.873	0.0163020
912.951	0.0161604
913.030	0.0162072
913.108	0.0160011
913.186	0.0161789
913.264	0.0161641
913.342	0.0162743
913.420	0.0162769
913.498	0.0161996
913.576	0.0162184
913.655	0.0161722
913.733	0.0163272
913.811	0.0161843
913.889	0.0161627
913.967	0.0161907
914.045	0.0163525
914.123	0.0163389
914.201	0.0161278
914.280	0.0163175
914.358	0.0163508
914.436	0.0162853
914.514	0.0162030
914.592	0.0162720
914.670	0.0163171
914.748	0.0163465
914.826	0.0162339
914.905	0.0163174
914.983	0.0163757
915.061	0.0162699
915.139	0.0163959
915.217	0.0161917
915.295	0.0162505
915.373	0.0163044
915.451	0.0162064
915.530	0.0163461
915.608	0.0163139
915.686	0.0162553
915.764	0.0162981
915.842	0.0161883
915.920	0.0162495
915.998	0.0163078
916.076	0.0161631
916.155	0.0162354
916.233	0.0162474
916.311	0.0163215
916.389	0.0162287
916.467	0.0164028
916.545	0.0163566
916.623	0.0163529
916.701	0.0163998
916.780	0.0163728
916.858	0.0162629
916.936	0.0161597
917.014	0.0163251
917.092	0.0163484
917.170	0.0163139
917.248	0.0162766
917.326	0.0164381
917.405	0.0164667
917.483	0.0165379
917.561	0.0163394
917.639	0.0163813
917.717	0.0164919
917.795	0.0164473
917.873	0.0163950
917.951	0.0163673
918.030	0.0164527
918.108	0.0163564
918.186	0.0163857
918.264	0.0164090
918.342	0.0163481
918.420	0.0164144
918.498	0.0163473
918.576	0.0163026
918.655	0.0163312
918.733	0.0162965
918.811	0.0162698
918.889	0.0161420
918.967	0.0162757
919.045	0.0162273
919.123	0.0163534
919.201	0.0161110
919.280	0.0161606
919.358	0.0162627
919.436	0.0162698
919.514	0.0162122
919.592	0.0162582
919.670	0.0161724
919.748	0.0161532
919.826	0.0161948
919.905	0.0160342
919.983	0.0160910
920.061	0.0163486
920.139	0.0162905
920.217	0.0161577
920.295	0.0161440
920.373	0.0161515
920.451	0.0162016
920.530	0.0160935
920.608	0.0162711
920.686	0.0161888
920.764	0.0161546
920.842	0.0162168
920.920	0.0161488
920.998	0.0162045
921.076	0.0163551
921.155	0.0162735
921.233	0.0162404
921.311	0.0162364
921.389	0.0163828
921.467	0.0163848
921.545	0.0164125
921.623	0.0164287
921.701	0.0163771
921.780	0.0162624
921.858	0.0163628
921.936	0.0163970
922.014	0.0164522
922.092	0.0164259
922.170	0.0163396
922.248	0.0164165
922.326	0.0164002
922.405	0.0163767
922.483	0.0162505
922.561	0.0163084
922.639	0.0162110
922.717	0.0162175
922.795	0.0164210
922.873	0.0162084
922.951	0.0162257
923.030	0.0162614
923.108	0.0162527
923.186	0.0163453
923.264	0.0165634
923.342	0.0163725
923.420	0.0162926
923.498	0.0163261
923.576	0.0162716
923.655	0.0162005
923.733	0.0163543
923.811	0.0162778
923.889	0.0162663
923.967	0.0162897
924.045	0.0162908
924.123	0.0162147
924.201	0.0162510
924.280	0.0163368
924.358	0.0161950
924.436	0.0163359
924.514	0.0163848
924.592	0.0161894
924.670	0.0163904
924.748	0.0163236
924.826	0.0162550
924.905	0.0161804
924.983	0.0162344
925.061	0.0163362
925.139	0.0164029
925.217	0.0163808
925.295	0.0163115
925.373	0.0164162
925.451	0.0164062
925.530	0.0162908
925.608	0.0164063
925.686	0.0163975
925.764	0.0163995
925.842	0.0162928
925.920	0.0164487
925.998	0.0162399
926.076	0.0163210
926.155	0.0163599
926.233	0.0162973
926.311	0.0162322
926.389	0.0162339
926.467	0.0164183
926.545	0.0164173
926.623	0.0163326
926.701	0.0162402
926.780	0.0161887
926.858	0.0163650
926.936	0.0163971
927.014	0.0164136
927.092	0.0163617
927.170	0.0164285
927.248	0.0163875
927.326	0.0163351
927.405	0.0163640
927.483	0.0163169
927.561	0.0163082
927.639	0.0164711
927.717	0.0164318
927.795	0.0163639
927.873	0.0162274
927.951	0.0163105
928.030	0.0162239
928.108	0.0163982
928.186	0.0162070
928.264	0.0162135
928.342	0.0164074
928.420	0.0164083
928.498	0.0162928
928.576	0.0162503
928.655	0.0163250
928.733	0.0163824
928.811	0.0162847
928.889	0.0160898
928.967	0.0163270
929.045	0.0164246
929.123	0.0162704
929.201	0.0164539
929.280	0.0164602
929.358	0.0162383
929.436	0.0164063
929.514	0.0163676
929.592	0.0163994
929.670	0.0162973
929.748	0.0164236
929.826	0.0164985
929.905	0.0164243
929.983	0.0163161
930.061	0.0163344
930.139	0.0162987
930.217	0.0162825
930.295	0.0163128
930.373	0.0163772
930.451	0.0163461
930.530	0.0163779
930.608	0.0163375
930.686	0.0161989
930.764	0.0162534
930.842	0.0164265
930.920	0.0162805
930.998	0.0162923
931.076	0.0162522
931.155	0.0161823
931.233	0.0161565
931.311	0.0162251
931.389	0.0164604
931.467	0.0163574
931.545	0.0162792
931.623	0.0162620
931.701	0.0163140
931.780	0.0163388
931.858	0.0162183
931.936	0.0162843
932.014	0.0163512
932.092	0.0163306
932.170	0.0162533
932.248	0.0163533
932.326	0.0162488
932.405	0.0164230
932.483	0.0162151
932.561	0.0163558
932.639	0.0163194
932.717	0.0162437
932.795	0.0162720
932.873	0.0163887
932.951	0.0163938
933.030	0.0164362
933.108	0.0164327
933.186	0.0164347
933.264	0.0163745
933.342	0.0164662
933.420	0.0163958
933.498	0.0162943
933.576	0.0164751
933.655	0.0164590
933.733	0.0165012
933.811	0.0165006
933.889	0.0164069
933.967	0.0164234
934.045	0.0163979
934.123	0.0164602
934.201	0.0163777
934.280	0.0163815
934.358	0.0163233
934.436	0.0163463
934.514	0.0162374
934.592	0.0162691
934.670	0.0162985
934.748	0.0162719
934.826	0.0164138
934.905	0.0162097
934.983	0.0162304
935.061	0.0162811
935.139	0.0162595
935.217	0.0163377
935.295	0.0162078
935.373	0.0162437
935.451	0.0162821
935.530	0.0161575
935.608	0.0161191
935.686	0.0162873
935.764	0.0161916
935.842	0.0162695
935.920	0.0163084
935.998	0.0162874
936.076	0.0162576
936.155	0.0162188
936.233	0.0162592
936.311	0.0163182
936.389	0.0162549
936.467	0.0162437
936.545	0.0161945
936.623	0.0162277
936.701	0.0163608
936.780	0.0163427
936.858	0.0162701
936.936	0.0162339
937.014	0.0164309
937.092	0.0162511
937.170	0.0163182
937.248	0.0163072
937.326	0.0164246
937.405	0.0163831
937.483	0.0162378
937.561	0.0162424
937.639	0.0163345
937.717	0.0163268
937.795	0.0161942
937.873	0.0162724
937.951	0.0162855
938.030	0.0163000
938.108	0.0162615
938.186	0.0162873
938.264	0.0163132
938.342	0.0162358
938.420	0.0161383
938.498	0.0161385
938.576	0.0161285
938.655	0.0161707
938.733	0.0162209
938.811	0.0161763
938.889	0.0162471
938.967	0.0162251
939.045	0.0161047
939.123	0.0162953
939.201	0.0162008
939.280	0.0161389
939.358	0.0162263
939.436	0.0161204
939.514	0.0161647
939.592	0.0160571
939.670	0.0161250
939.748	0.0161781
939.826	0.0161433
939.905	0.0162505
939.983	0.0161143
940.061	0.0162722
940.139	0.0162053
940.217	0.0161819
940.295	0.0162617
940.373	0.0162367
940.451	0.0160482
940.530	0.0161462
940.608	0.0162052
940.686	0.0164501
940.764	0.0163190
940.842	0.0164265
940.920	0.0164461
940.998	0.0162321
941.076	0.0162885
941.155	0.0163488
941.233	0.0162377
941.311	0.0164653
941.389	0.0162496
941.467	0.0163924
941.545	0.0163398
941.623	0.0163860
941.701	0.0163753
941.780	0.0164712
941.858	0.0164716
941.936	0.0162950
942.014	0.0164774
942.092	0.0163976
942.170	0.0163848
942.248	0.0163291
942.326	0.0163435
942.405	0.0162988
942.483	0.0163765
942.561	0.0164143
942.639	0.0162434
942.717	0.0163240
942.795	0.0163818
942.873	0.0163135
942.951	0.0163612
943.030	0.0162588
943.108	0.0163350
943.186	0.0162273
943.264	0.0162498
943.342	0.0163174
943.420	0.0163230
943.498	0.0163609
943.576	0.0163416
943.655	0.0162372
943.733	0.0164111
943.811	0.0164157
943.889	0.0163622
943.967	0.0163403
944.045	0.0163680
944.123	0.0164162
944.201	0.0164029
944.280	0.0164265
944.358	0.0163084
944.436	0.0163776
944.514	0.0164251
944.592	0.0163777
944.670	0.0163306
944.748	0.0164758
944.826	0.0164224
944.905	0.0163350
944.983	0.0163458
945.061	0.0162889
945.139	0.0163670
945.217	0.0163431
945.295	0.0163837
945.373	0.0163296
945.451	0.0162576
945.530	0.0162923
945.608	0.0161900
945.686	0.0162397
945.764	0.0163303
945.842	0.0162971
945.920	0.0162443
945.998	0.0162324
946.076	0.0162879
946.155	0.0163297
946.233	0.0162996
946.311	0.0163287
946.389	0.0162284
946.467	0.0163093
946.545	0.0163545
946.623	0.0162383
946.701	0.0161745
946.780	0.0162954
946.858	0.0163799
946.936	0.0162132
947.014	0.0162391
947.092	0.0163203
947.170	0.0161908
947.248	0.0162872
947.326	0.0162076
947.405	0.0162679
947.483	0.0162795
947.561	0.0162841
947.639	0.0162615
947.717	0.0162578
947.795	0.0159994
947.873	0.0162412
947.951	0.0162878
948.030	0.0162275
948.108	0.0161831
948.186	0.0161729
948.264	0.0161889
948.342	0.0161877
948.420	0.0161354
948.498	0.0162026
948.576	0.0162378
948.655	0.0163044
948.733	0.0163493
948.811	0.0162828
948.889	0.0163700
948.967	0.0162720
949.045	0.0162836
949.123	0.0163862
949.201	0.0162837
949.280	0.0165148
949.358	0.0165619
949.436	0.0163851
949.514	0.0163680
949.592	0.0163231
949.670	0.0163403
949.748	0.0164214
949.826	0.0164674
949.905	0.0165799
949.983	0.0164128
950.061	0.0165199
950.139	0.0165558
950.217	0.0165289
950.295	0.0164120
950.373	0.0165765
950.451	0.0164466
950.530	0.0164210
950.608	0.0164447
950.686	0.0164802
950.764	0.0164666
950.842	0.0164955
950.920	0.0165187
950.998	0.0164103
951.076	0.0165329
951.155	0.0165856
951.233	0.0163625
951.311	0.0163387
951.389	0.0163801
951.467	0.0164073
951.545	0.0165891
951.623	0.0164477
951.701	0.0163819
951.780	0.0163431
951.858	0.0163704
951.936	0.0163373
952.014	0.0162756
952.092	0.0162130
952.170	0.0164056
952.248	0.0163665
952.326	0.0163940
952.405	0.0164668
952.483	0.0163590
952.561	0.0164535
952.639	0.0164777
952.717	0.0163896
952.795	0.0165379
952.873	0.0163473
952.951	0.0163660
953.030	0.0162733
953.108	0.0164279
953.186	0.0164451
953.264	0.0164273
953.342	0.0164305
953.420	0.0164539
953.498	0.0163231
953.576	0.0165308
953.655	0.0165333
953.733	0.0165051
953.811	0.0164079
953.889	0.0163899
953.967	0.0165733
954.045	0.0164577
954.123	0.0163815
954.201	0.0163777
954.280	0.0163094
954.358	0.0163391
954.436	0.0163798
954.514	0.0164807
954.592	0.0164778
954.670	0.0164849
954.748	0.0163931
954.826	0.0163566
954.905	0.0163608
954.983	0.0164230
955.061	0.0165063
955.139	0.0162593
955.217	0.0164702
955.295	0.0166141
955.373	0.0163778
955.451	0.0162846
955.530	0.0163777
955.608	0.0164480
955.686	0.0164823
955.764	0.0163297
955.842	0.0163635
955.920	0.0164677
955.998	0.0165124
956.076	0.0164197
956.155	0.0164272
956.233	0.0164647
956.311	0.0163725
956.389	0.0162697
956.467	0.0164169
956.545	0.0161313
956.623	0.0162792
956.701	0.0163778
956.780	0.0162337
956.858	0.0163462
956.936	0.0162282
957.014	0.0162022
957.092	0.0163551
957.170	0.0164640
957.248	0.0161763
957.326	0.0161708
957.405	0.0162726
957.483	0.0162711
957.561	0.0161446
957.639	0.0160483
957.717	0.0161812
957.795	0.0162610
957.873	0.0160443
957.951	0.0161711
958.030	0.0162437
958.108	0.0161977
958.186	0.0162363
958.264	0.0161546
958.342	0.0160804
958.420	0.0162795
958.498	0.0161797
958.576	0.0162579
958.655	0.0162742
958.733	0.0162095
958.811	0.0163412
958.889	0.0162011
958.967	0.0163105
959.045	0.0163432
959.123	0.0163014
959.201	0.0164300
959.280	0.0163911
959.358	0.0163437
959.436	0.0164301
959.514	0.0165320
959.592	0.0163710
959.670	0.0164922
959.748	0.0163865
959.826	0.0164319
959.905	0.0166228
