05/17/2022	17:22:10	Ver.	4.1	UNKNOWN
Optical Delay	639.982744	Delta X		0.078125	Sweeps	1	Scan Rate	0/0
Coordinates	Axis 1	NaN	Axis 2	NaN	Axis 3	NaN	Axis 4	NaN	Axis 5	NaN	Axis 6	0.000000
TX Power	0.000000	RX Power	0.000000

639.983	0.0163773
640.061	0.0164323
640.139	0.0165714
640.217	0.0164961
640.295	0.0165825
640.373	0.0165210
640.451	0.0164964
640.530	0.0164014
640.608	0.0165500
640.686	0.0164497
640.764	0.0164175
640.842	0.0163116
640.920	0.0165035
640.998	0.0163172
641.076	0.0161350
641.155	0.0161615
641.233	0.0162408
641.311	0.0162188
641.389	0.0161809
641.467	0.0162782
641.545	0.0162691
641.623	0.0161047
641.701	0.0161698
641.780	0.0162000
641.858	0.0160402
641.936	0.0162653
642.014	0.0163026
642.092	0.0162074
642.170	0.0162640
642.248	0.0162037
642.326	0.0161229
642.405	0.0162841
642.483	0.0163203
642.561	0.0163201
642.639	0.0163955
642.717	0.0163303
642.795	0.0162715
642.873	0.0163722
642.951	0.0163311
643.030	0.0163017
643.108	0.0164180
643.186	0.0164274
643.264	0.0162685
643.342	0.0162666
643.420	0.0162810
643.498	0.0161691
643.576	0.0163507
643.655	0.0163779
643.733	0.0161909
643.811	0.0162719
643.889	0.0163137
643.967	0.0164185
644.045	0.0162294
644.123	0.0162491
644.201	0.0161077
644.280	0.0161056
644.358	0.0161132
644.436	0.0163393
644.514	0.0163039
644.592	0.0160831
644.670	0.0160770
644.748	0.0161276
644.826	0.0159951
644.905	0.0160972
644.983	0.0162052
645.061	0.0162598
645.139	0.0161068
645.217	0.0161858
645.295	0.0162903
645.373	0.0162763
645.451	0.0162992
645.530	0.0161824
645.608	0.0162492
645.686	0.0163148
645.764	0.0162164
645.842	0.0163843
645.920	0.0163803
645.998	0.0163729
646.076	0.0163511
646.155	0.0164291
646.233	0.0164607
646.311	0.0164383
646.389	0.0164005
646.467	0.0165462
646.545	0.0166132
646.623	0.0163377
646.701	0.0163249
646.780	0.0164223
646.858	0.0164011
646.936	0.0163892
647.014	0.0162761
647.092	0.0163335
647.170	0.0162402
647.248	0.0162406
647.326	0.0164225
647.405	0.0163041
647.483	0.0162878
647.561	0.0163916
647.639	0.0162292
647.717	0.0163318
647.795	0.0163065
647.873	0.0164089
647.951	0.0163873
648.030	0.0162716
648.108	0.0162902
648.186	0.0163968
648.264	0.0165196
648.342	0.0164687
648.420	0.0164495
648.498	0.0163396
648.576	0.0163579
648.655	0.0163039
648.733	0.0164470
648.811	0.0164256
648.889	0.0164559
648.967	0.0164523
649.045	0.0163478
649.123	0.0162965
649.201	0.0163345
649.280	0.0163841
649.358	0.0163715
649.436	0.0162874
649.514	0.0164101
649.592	0.0163410
649.670	0.0161423
649.748	0.0162766
649.826	0.0163567
649.905	0.0163357
649.983	0.0163123
650.061	0.0162036
650.139	0.0162179
650.217	0.0163646
650.295	0.0161259
650.373	0.0162991
650.451	0.0164633
650.530	0.0165083
650.608	0.0165661
650.686	0.0164159
650.764	0.0164748
650.842	0.0164012
650.920	0.0164348
650.998	0.0165963
651.076	0.0166058
651.155	0.0165792
651.233	0.0165974
651.311	0.0166217
651.389	0.0165581
651.467	0.0164908
651.545	0.0164856
651.623	0.0164452
651.701	0.0163174
651.780	0.0163938
651.858	0.0163364
651.936	0.0162695
652.014	0.0163482
652.092	0.0162587
652.170	0.0161105
652.248	0.0161624
652.326	0.0161072
652.405	0.0160820
652.483	0.0159890
652.561	0.0161240
652.639	0.0160604
652.717	0.0161243
652.795	0.0160658
652.873	0.0161598
652.951	0.0161364
653.030	0.0161977
653.108	0.0162369
653.186	0.0163637
653.264	0.0162607
653.342	0.0164738
653.420	0.0163474
653.498	0.0163924
653.576	0.0163406
653.655	0.0163888
653.733	0.0163997
653.811	0.0164542
653.889	0.0164252
653.967	0.0163522
654.045	0.0163548
654.123	0.0165149
654.201	0.0163966
654.280	0.0163813
654.358	0.0164212
654.436	0.0162874
654.514	0.0163208
654.592	0.0163617
654.670	0.0163515
654.748	0.0163703
654.826	0.0162520
654.905	0.0162178
654.983	0.0163515
655.061	0.0160873
655.139	0.0162302
655.217	0.0163193
655.295	0.0163114
655.373	0.0163774
655.451	0.0163254
655.530	0.0163442
655.608	0.0162079
655.686	0.0163695
655.764	0.0163701
655.842	0.0163444
655.920	0.0163873
655.998	0.0164021
656.076	0.0164063
656.155	0.0162248
656.233	0.0165458
656.311	0.0163654
656.389	0.0163905
656.467	0.0164580
656.545	0.0164934
656.623	0.0166013
656.701	0.0165174
656.780	0.0164480
656.858	0.0162716
656.936	0.0163403
657.014	0.0164610
657.092	0.0163477
657.170	0.0162971
657.248	0.0162891
657.326	0.0161926
657.405	0.0162745
657.483	0.0162247
657.561	0.0162661
657.639	0.0163888
657.717	0.0161709
657.795	0.0159753
657.873	0.0162595
657.951	0.0163335
658.030	0.0161752
658.108	0.0162354
658.186	0.0162604
658.264	0.0163219
658.342	0.0163731
658.420	0.0162571
658.498	0.0164075
658.576	0.0164449
658.655	0.0164339
658.733	0.0164461
658.811	0.0164175
658.889	0.0163832
658.967	0.0165401
659.045	0.0166138
659.123	0.0163112
659.201	0.0163430
659.280	0.0163564
659.358	0.0163226
659.436	0.0163081
659.514	0.0161946
659.592	0.0163440
659.670	0.0161133
659.748	0.0161483
659.826	0.0160263
659.905	0.0159972
659.983	0.0159175
660.061	0.0159579
660.139	0.0159047
660.217	0.0159571
660.295	0.0159421
660.373	0.0160301
660.451	0.0159894
660.530	0.0159528
660.608	0.0160529
660.686	0.0160114
660.764	0.0160990
660.842	0.0163205
660.920	0.0163374
660.998	0.0163204
661.076	0.0164179
661.155	0.0164192
661.233	0.0164539
661.311	0.0166058
661.389	0.0165983
661.467	0.0166223
661.545	0.0167131
661.623	0.0166667
661.701	0.0165162
661.780	0.0165681
661.858	0.0166879
661.936	0.0166395
662.014	0.0164770
662.092	0.0165199
662.170	0.0164075
662.248	0.0164632
662.326	0.0163960
662.405	0.0164161
662.483	0.0165178
662.561	0.0163238
662.639	0.0161930
662.717	0.0164025
662.795	0.0164269
662.873	0.0164474
662.951	0.0164148
663.030	0.0164337
663.108	0.0164047
663.186	0.0163728
663.264	0.0164510
663.342	0.0165482
663.420	0.0164760
663.498	0.0164905
663.576	0.0164545
663.655	0.0164867
663.733	0.0164500
663.811	0.0162851
663.889	0.0162838
663.967	0.0163568
664.045	0.0162679
664.123	0.0161832
664.201	0.0162209
664.280	0.0161598
664.358	0.0160252
664.436	0.0160732
664.514	0.0158711
664.592	0.0159093
664.670	0.0159707
664.748	0.0158630
664.826	0.0158791
664.905	0.0158069
664.983	0.0157994
665.061	0.0158356
665.139	0.0157845
665.217	0.0160051
665.295	0.0159683
665.373	0.0159065
665.451	0.0162179
665.530	0.0163374
665.608	0.0162630
665.686	0.0162182
665.764	0.0163264
665.842	0.0163204
665.920	0.0164034
665.998	0.0166104
666.076	0.0166438
666.155	0.0166253
666.233	0.0168417
666.311	0.0168102
666.389	0.0167248
666.467	0.0168697
666.545	0.0169424
666.623	0.0169798
666.701	0.0169696
666.780	0.0169364
666.858	0.0170570
666.936	0.0170090
667.014	0.0169035
667.092	0.0169360
667.170	0.0169929
667.248	0.0169881
667.326	0.0169162
667.405	0.0168317
667.483	0.0168874
667.561	0.0168563
667.639	0.0169153
667.717	0.0166425
667.795	0.0165816
667.873	0.0166124
667.951	0.0165297
668.030	0.0166275
668.108	0.0165560
668.186	0.0166476
668.264	0.0165683
668.342	0.0162714
668.420	0.0162728
668.498	0.0162027
668.576	0.0161516
668.655	0.0160499
668.733	0.0161131
668.811	0.0158596
668.889	0.0158350
668.967	0.0158226
669.045	0.0157725
669.123	0.0155675
669.201	0.0156075
669.280	0.0154189
669.358	0.0154570
669.436	0.0154732
669.514	0.0153954
669.592	0.0154190
669.670	0.0152583
669.748	0.0152921
669.826	0.0154783
669.905	0.0155458
669.983	0.0156610
670.061	0.0155853
670.139	0.0156505
670.217	0.0158115
670.295	0.0158587
670.373	0.0159695
670.451	0.0161079
670.530	0.0161763
670.608	0.0161546
670.686	0.0163651
670.764	0.0165304
670.842	0.0165894
670.920	0.0166002
670.998	0.0167451
671.076	0.0167916
671.155	0.0167641
671.233	0.0169564
671.311	0.0168188
671.389	0.0169046
671.467	0.0170531
671.545	0.0170455
671.623	0.0169523
671.701	0.0170667
671.780	0.0171593
671.858	0.0170329
671.936	0.0168970
672.014	0.0170734
672.092	0.0170202
672.170	0.0169154
672.248	0.0170048
672.326	0.0170712
672.405	0.0169911
672.483	0.0170544
672.561	0.0170338
672.639	0.0168344
672.717	0.0169279
672.795	0.0168140
672.873	0.0168410
672.951	0.0167757
673.030	0.0167536
673.108	0.0167456
673.186	0.0167362
673.264	0.0165391
673.342	0.0165389
673.420	0.0162968
673.498	0.0163165
673.576	0.0162950
673.655	0.0162031
673.733	0.0160847
673.811	0.0158219
673.889	0.0157716
673.967	0.0156824
674.045	0.0156190
674.123	0.0154354
674.201	0.0151894
674.280	0.0152740
674.358	0.0152335
674.436	0.0149713
674.514	0.0151290
674.592	0.0150105
674.670	0.0148933
674.748	0.0148784
674.826	0.0150538
674.905	0.0150571
674.983	0.0150302
675.061	0.0151752
675.139	0.0152557
675.217	0.0153731
675.295	0.0153406
675.373	0.0155997
675.451	0.0156198
675.530	0.0157651
675.608	0.0159676
675.686	0.0160418
675.764	0.0162016
675.842	0.0163281
675.920	0.0164832
675.998	0.0164567
676.076	0.0166576
676.155	0.0168688
676.233	0.0168182
676.311	0.0170184
676.389	0.0170704
676.467	0.0171108
676.545	0.0171593
676.623	0.0173257
676.701	0.0174367
676.780	0.0174136
676.858	0.0173676
676.936	0.0175124
677.014	0.0174119
677.092	0.0174458
677.170	0.0175651
677.248	0.0173341
677.326	0.0173122
677.405	0.0171578
677.483	0.0170984
677.561	0.0170732
677.639	0.0170722
677.717	0.0169245
677.795	0.0167104
677.873	0.0165585
677.951	0.0165516
678.030	0.0162825
678.108	0.0161386
678.186	0.0161130
678.264	0.0160242
678.342	0.0159583
678.420	0.0159426
678.498	0.0157827
678.576	0.0157420
678.655	0.0158023
678.733	0.0157774
678.811	0.0156652
678.889	0.0157129
678.967	0.0155763
679.045	0.0154676
679.123	0.0155871
679.201	0.0155804
679.280	0.0156610
679.358	0.0156313
679.436	0.0156715
679.514	0.0157881
679.592	0.0157140
679.670	0.0156349
679.748	0.0156527
679.826	0.0158659
679.905	0.0156491
679.983	0.0156162
680.061	0.0157776
680.139	0.0157533
680.217	0.0158327
680.295	0.0158722
680.373	0.0159927
680.451	0.0162459
680.530	0.0160128
680.608	0.0160670
680.686	0.0162942
680.764	0.0162592
680.842	0.0162691
680.920	0.0163912
680.998	0.0164803
681.076	0.0166190
681.155	0.0165426
681.233	0.0166929
681.311	0.0167952
681.389	0.0166515
681.467	0.0166865
681.545	0.0168082
681.623	0.0168204
681.701	0.0167764
681.780	0.0166962
681.858	0.0169240
681.936	0.0167722
682.014	0.0168181
682.092	0.0168100
682.170	0.0168998
682.248	0.0167303
682.326	0.0167508
682.405	0.0167995
682.483	0.0166930
682.561	0.0166544
682.639	0.0166216
682.717	0.0166611
682.795	0.0165394
682.873	0.0165685
682.951	0.0165120
683.030	0.0165479
683.108	0.0167130
683.186	0.0166456
683.264	0.0166805
683.342	0.0166157
683.420	0.0166443
683.498	0.0167993
683.576	0.0166977
683.655	0.0166293
683.733	0.0166812
683.811	0.0166604
683.889	0.0168064
683.967	0.0166809
684.045	0.0165780
684.123	0.0165673
684.201	0.0166499
684.280	0.0165708
684.358	0.0165466
684.436	0.0164008
684.514	0.0163960
684.592	0.0164118
684.670	0.0162595
684.748	0.0161003
684.826	0.0159454
684.905	0.0159000
684.983	0.0158054
685.061	0.0158074
685.139	0.0156597
685.217	0.0155663
685.295	0.0155578
685.373	0.0158659
685.451	0.0154320
685.530	0.0155271
685.608	0.0154243
685.686	0.0154478
685.764	0.0155798
685.842	0.0155943
685.920	0.0157350
685.998	0.0155525
686.076	0.0156030
686.155	0.0157659
686.233	0.0157071
686.311	0.0157577
686.389	0.0158296
686.467	0.0157941
686.545	0.0161268
686.623	0.0161040
686.701	0.0161670
686.780	0.0161504
686.858	0.0161249
686.936	0.0162411
687.014	0.0164787
687.092	0.0162854
687.170	0.0164573
687.248	0.0164278
687.326	0.0166093
687.405	0.0166640
687.483	0.0165466
687.561	0.0165545
687.639	0.0166593
687.717	0.0165744
687.795	0.0167914
687.873	0.0165868
687.951	0.0166801
688.030	0.0166888
688.108	0.0168041
688.186	0.0166212
688.264	0.0167013
688.342	0.0168114
688.420	0.0167419
688.498	0.0167690
688.576	0.0168494
688.655	0.0167778
688.733	0.0168829
688.811	0.0167604
688.889	0.0168164
688.967	0.0168690
689.045	0.0168366
689.123	0.0167014
689.201	0.0167128
689.280	0.0166247
689.358	0.0166060
689.436	0.0166759
689.514	0.0165466
689.592	0.0166740
689.670	0.0167598
689.748	0.0166212
689.826	0.0164008
689.905	0.0163586
689.983	0.0165753
690.061	0.0165642
690.139	0.0163338
690.217	0.0163876
690.295	0.0164542
690.373	0.0164496
690.451	0.0163299
690.530	0.0162389
690.608	0.0162920
690.686	0.0161378
690.764	0.0160876
690.842	0.0160644
690.920	0.0159888
690.998	0.0159924
691.076	0.0161220
691.155	0.0160574
691.233	0.0159523
691.311	0.0157748
691.389	0.0156838
691.467	0.0157536
691.545	0.0157042
691.623	0.0158067
691.701	0.0158197
691.780	0.0159711
691.858	0.0157661
691.936	0.0157196
692.014	0.0159486
692.092	0.0158789
692.170	0.0160667
692.248	0.0160135
692.326	0.0161010
692.405	0.0159097
692.483	0.0159209
692.561	0.0159811
692.639	0.0159432
692.717	0.0158732
692.795	0.0160006
692.873	0.0158911
692.951	0.0158730
693.030	0.0158165
693.108	0.0158894
693.186	0.0157735
693.264	0.0157791
693.342	0.0158874
693.420	0.0157853
693.498	0.0155656
693.576	0.0158460
693.655	0.0158595
693.733	0.0158150
693.811	0.0158247
693.889	0.0159983
693.967	0.0160517
694.045	0.0160870
694.123	0.0162018
694.201	0.0163958
694.280	0.0164029
694.358	0.0166055
694.436	0.0167349
694.514	0.0165431
694.592	0.0167200
694.670	0.0168034
694.748	0.0170170
694.826	0.0170909
694.905	0.0172234
694.983	0.0171805
695.061	0.0173043
695.139	0.0173159
695.217	0.0172453
695.295	0.0171061
695.373	0.0173683
695.451	0.0172716
695.530	0.0170824
695.608	0.0170329
695.686	0.0169566
695.764	0.0168293
695.842	0.0168897
695.920	0.0168049
695.998	0.0167493
696.076	0.0167881
696.155	0.0166553
696.233	0.0165111
696.311	0.0165059
696.389	0.0163470
696.467	0.0164961
696.545	0.0164877
696.623	0.0165131
696.701	0.0164875
696.780	0.0163913
696.858	0.0163258
696.936	0.0163437
697.014	0.0163512
697.092	0.0163349
697.170	0.0163434
697.248	0.0163197
697.326	0.0161971
697.405	0.0161539
697.483	0.0160841
697.561	0.0160786
697.639	0.0158260
697.717	0.0158125
697.795	0.0157753
697.873	0.0157213
697.951	0.0157154
698.030	0.0156323
698.108	0.0157069
698.186	0.0155269
698.264	0.0154330
698.342	0.0154910
698.420	0.0154475
698.498	0.0155590
698.576	0.0156082
698.655	0.0156878
698.733	0.0157444
698.811	0.0156199
698.889	0.0157684
698.967	0.0159548
699.045	0.0159126
699.123	0.0160945
699.201	0.0162409
699.280	0.0162441
699.358	0.0163328
699.436	0.0164122
699.514	0.0164938
699.592	0.0166298
699.670	0.0168163
699.748	0.0167742
699.826	0.0168619
699.905	0.0168944
699.983	0.0169357
700.061	0.0170170
700.139	0.0170757
700.217	0.0171418
700.295	0.0171305
700.373	0.0171599
700.451	0.0171883
700.530	0.0171980
700.608	0.0173853
700.686	0.0169502
700.764	0.0170308
700.842	0.0172211
700.920	0.0171574
700.998	0.0170400
701.076	0.0171356
701.155	0.0168981
701.233	0.0169276
701.311	0.0169411
701.389	0.0168387
701.467	0.0168104
701.545	0.0167072
701.623	0.0167048
701.701	0.0166947
701.780	0.0164462
701.858	0.0163925
701.936	0.0163734
702.014	0.0162627
702.092	0.0162085
702.170	0.0162204
702.248	0.0161156
702.326	0.0160811
702.405	0.0159874
702.483	0.0159090
702.561	0.0159206
702.639	0.0157668
702.717	0.0158872
702.795	0.0157502
702.873	0.0156525
702.951	0.0155847
703.030	0.0155510
703.108	0.0156056
703.186	0.0155964
703.264	0.0155413
703.342	0.0155251
703.420	0.0155492
703.498	0.0156509
703.576	0.0157026
703.655	0.0157479
703.733	0.0157856
703.811	0.0157516
703.889	0.0158435
703.967	0.0159093
704.045	0.0158077
704.123	0.0159514
704.201	0.0160564
704.280	0.0159550
704.358	0.0160651
704.436	0.0163045
704.514	0.0160340
704.592	0.0161145
704.670	0.0160825
704.748	0.0161866
704.826	0.0162846
704.905	0.0163524
704.983	0.0163378
705.061	0.0162741
705.139	0.0163520
705.217	0.0164078
705.295	0.0164129
705.373	0.0164752
705.451	0.0166129
705.530	0.0167435
705.608	0.0168299
705.686	0.0168124
705.764	0.0168140
705.842	0.0169802
705.920	0.0169527
705.998	0.0170259
706.076	0.0171709
706.155	0.0168511
706.233	0.0170492
706.311	0.0170515
706.389	0.0170005
706.467	0.0170126
706.545	0.0168779
706.623	0.0167937
706.701	0.0166002
706.780	0.0167614
706.858	0.0166526
706.936	0.0165575
707.014	0.0165044
707.092	0.0164766
707.170	0.0164177
707.248	0.0161648
707.326	0.0161017
707.405	0.0160091
707.483	0.0160797
707.561	0.0161019
707.639	0.0161099
707.717	0.0161119
707.795	0.0160659
707.873	0.0160412
707.951	0.0160600
708.030	0.0160796
708.108	0.0162914
708.186	0.0162657
708.264	0.0163132
708.342	0.0162001
708.420	0.0162482
708.498	0.0163354
708.576	0.0164548
708.655	0.0163744
708.733	0.0164339
708.811	0.0162514
708.889	0.0163932
708.967	0.0163641
709.045	0.0163627
709.123	0.0163062
709.201	0.0163363
709.280	0.0161755
709.358	0.0160691
709.436	0.0161584
709.514	0.0162458
709.592	0.0160247
709.670	0.0160035
709.748	0.0159341
709.826	0.0160213
709.905	0.0159251
709.983	0.0159886
710.061	0.0160462
710.139	0.0161164
710.217	0.0161091
710.295	0.0159996
710.373	0.0160630
710.451	0.0162065
710.530	0.0162917
710.608	0.0161455
710.686	0.0162936
710.764	0.0162163
710.842	0.0163187
710.920	0.0163731
710.998	0.0166302
711.076	0.0165552
711.155	0.0166019
711.233	0.0166079
711.311	0.0166221
711.389	0.0165739
711.467	0.0168067
711.545	0.0167447
711.623	0.0165747
711.701	0.0167579
711.780	0.0165729
711.858	0.0166380
711.936	0.0167411
712.014	0.0168121
712.092	0.0167780
712.170	0.0166800
712.248	0.0167348
712.326	0.0166627
712.405	0.0168495
712.483	0.0168284
712.561	0.0166332
712.639	0.0167642
712.717	0.0167133
712.795	0.0166032
712.873	0.0166289
712.951	0.0166803
713.030	0.0166121
713.108	0.0164674
713.186	0.0164374
713.264	0.0162402
713.342	0.0162405
713.420	0.0163015
713.498	0.0161915
713.576	0.0161036
713.655	0.0160638
713.733	0.0160018
713.811	0.0160304
713.889	0.0160523
713.967	0.0160312
714.045	0.0160014
714.123	0.0158384
714.201	0.0157101
714.280	0.0159077
714.358	0.0159431
714.436	0.0161082
714.514	0.0160352
714.592	0.0159962
714.670	0.0161512
714.748	0.0160875
714.826	0.0160814
714.905	0.0162064
714.983	0.0162552
715.061	0.0163527
715.139	0.0162780
715.217	0.0164884
715.295	0.0165179
715.373	0.0165252
715.451	0.0166388
715.530	0.0165930
715.608	0.0167191
715.686	0.0166132
715.764	0.0165087
715.842	0.0166441
715.920	0.0166827
715.998	0.0165680
716.076	0.0165026
716.155	0.0164230
716.233	0.0165062
716.311	0.0165268
716.389	0.0163721
716.467	0.0162624
716.545	0.0162601
716.623	0.0163584
716.701	0.0163925
716.780	0.0163234
716.858	0.0161724
716.936	0.0161312
717.014	0.0161182
717.092	0.0163314
717.170	0.0162225
717.248	0.0161502
717.326	0.0163171
717.405	0.0163741
717.483	0.0163042
717.561	0.0162178
717.639	0.0162810
717.717	0.0163632
717.795	0.0163260
717.873	0.0162265
717.951	0.0163038
718.030	0.0162486
718.108	0.0161309
718.186	0.0162943
718.264	0.0162024
718.342	0.0161324
718.420	0.0161655
718.498	0.0160715
718.576	0.0160840
718.655	0.0160400
718.733	0.0160180
718.811	0.0162465
718.889	0.0160269
718.967	0.0160477
719.045	0.0159870
719.123	0.0159938
719.201	0.0161612
719.280	0.0162677
719.358	0.0163161
719.436	0.0163711
719.514	0.0164961
719.592	0.0164084
719.670	0.0165401
719.748	0.0165302
719.826	0.0165829
719.905	0.0166385
719.983	0.0167754
720.061	0.0167894
720.139	0.0167196
720.217	0.0169884
720.295	0.0167381
720.373	0.0166600
720.451	0.0166249
720.530	0.0165903
720.608	0.0166711
720.686	0.0163670
720.764	0.0163125
720.842	0.0162874
720.920	0.0163560
720.998	0.0161491
721.076	0.0159859
721.155	0.0160295
721.233	0.0157781
721.311	0.0157784
721.389	0.0157606
721.467	0.0158551
721.545	0.0157531
721.623	0.0157867
721.701	0.0158136
721.780	0.0156903
721.858	0.0157372
721.936	0.0158500
722.014	0.0158889
722.092	0.0159381
722.170	0.0160294
722.248	0.0160658
722.326	0.0160461
722.405	0.0161781
722.483	0.0162060
722.561	0.0164719
722.639	0.0165905
722.717	0.0167245
722.795	0.0167590
722.873	0.0166629
722.951	0.0168665
723.030	0.0169672
723.108	0.0170396
723.186	0.0171140
723.264	0.0169954
723.342	0.0171164
723.420	0.0171433
723.498	0.0171093
723.576	0.0170808
723.655	0.0169543
723.733	0.0169804
723.811	0.0168797
723.889	0.0168551
723.967	0.0169407
724.045	0.0167585
724.123	0.0167282
724.201	0.0167609
724.280	0.0165681
724.358	0.0166196
724.436	0.0163954
724.514	0.0164416
724.592	0.0162630
724.670	0.0162225
724.748	0.0160674
724.826	0.0160751
724.905	0.0160121
724.983	0.0159752
725.061	0.0160069
725.139	0.0158145
725.217	0.0157394
725.295	0.0157056
725.373	0.0157617
725.451	0.0156721
725.530	0.0156302
725.608	0.0156651
725.686	0.0158864
725.764	0.0158092
725.842	0.0159808
725.920	0.0159892
725.998	0.0160069
726.076	0.0159420
726.155	0.0160779
726.233	0.0161053
726.311	0.0161028
726.389	0.0162904
726.467	0.0162704
726.545	0.0163313
726.623	0.0163087
726.701	0.0161526
726.780	0.0164300
726.858	0.0164565
726.936	0.0164803
727.014	0.0165176
727.092	0.0166029
727.170	0.0164830
727.248	0.0165056
727.326	0.0167072
727.405	0.0166922
727.483	0.0167166
727.561	0.0167265
727.639	0.0167069
727.717	0.0168446
727.795	0.0166402
727.873	0.0168190
727.951	0.0166628
728.030	0.0168419
728.108	0.0168037
728.186	0.0167883
728.264	0.0166866
728.342	0.0166230
728.420	0.0166455
728.498	0.0166862
728.576	0.0166703
728.655	0.0164970
728.733	0.0164209
728.811	0.0164312
728.889	0.0162798
728.967	0.0163710
729.045	0.0162244
729.123	0.0161574
729.201	0.0162666
729.280	0.0160654
729.358	0.0160593
729.436	0.0160588
729.514	0.0160674
729.592	0.0161332
729.670	0.0161884
729.748	0.0159396
729.826	0.0160297
729.905	0.0160532
729.983	0.0161284
730.061	0.0161574
730.139	0.0160844
730.217	0.0161255
730.295	0.0161409
730.373	0.0162414
730.451	0.0159688
730.530	0.0162569
730.608	0.0163776
730.686	0.0163554
730.764	0.0163429
730.842	0.0164626
730.920	0.0164729
730.998	0.0165543
731.076	0.0164815
731.155	0.0165469
731.233	0.0166302
731.311	0.0164780
731.389	0.0166377
731.467	0.0167488
731.545	0.0166741
731.623	0.0166025
731.701	0.0166444
731.780	0.0166361
731.858	0.0166090
731.936	0.0165896
732.014	0.0164982
732.092	0.0163901
732.170	0.0164526
732.248	0.0163842
732.326	0.0164128
732.405	0.0163119
732.483	0.0161775
732.561	0.0162363
732.639	0.0163209
732.717	0.0161131
732.795	0.0162978
732.873	0.0159918
732.951	0.0161124
733.030	0.0160313
733.108	0.0162260
733.186	0.0162125
733.264	0.0162270
733.342	0.0163210
733.420	0.0163802
733.498	0.0163747
733.576	0.0164783
733.655	0.0164484
733.733	0.0164405
733.811	0.0165475
733.889	0.0165792
733.967	0.0165430
734.045	0.0165091
734.123	0.0166502
734.201	0.0165822
734.280	0.0165221
734.358	0.0165343
734.436	0.0165720
734.514	0.0166430
734.592	0.0165412
734.670	0.0165363
734.748	0.0164713
734.826	0.0163689
734.905	0.0164730
734.983	0.0164617
735.061	0.0163201
735.139	0.0163873
735.217	0.0163677
735.295	0.0163479
735.373	0.0163925
735.451	0.0163894
735.530	0.0164125
735.608	0.0163541
735.686	0.0163006
735.764	0.0163952
735.842	0.0164055
735.920	0.0163479
735.998	0.0164621
736.076	0.0162456
736.155	0.0164977
736.233	0.0163591
736.311	0.0164463
736.389	0.0162894
736.467	0.0162407
736.545	0.0162880
736.623	0.0160916
736.701	0.0161717
736.780	0.0161531
736.858	0.0161121
736.936	0.0160078
737.014	0.0159592
737.092	0.0159776
737.170	0.0159518
737.248	0.0160950
737.326	0.0158061
737.405	0.0159164
737.483	0.0161329
737.561	0.0161148
737.639	0.0159301
737.717	0.0161826
737.795	0.0162730
737.873	0.0163010
737.951	0.0161918
738.030	0.0161423
738.108	0.0163084
738.186	0.0164842
738.264	0.0163702
738.342	0.0164625
738.420	0.0165438
738.498	0.0165384
738.576	0.0166022
738.655	0.0165540
738.733	0.0165797
738.811	0.0167405
738.889	0.0167245
738.967	0.0166320
739.045	0.0167819
739.123	0.0166953
739.201	0.0167323
739.280	0.0166901
739.358	0.0165661
739.436	0.0168839
739.514	0.0166528
739.592	0.0164946
739.670	0.0165741
739.748	0.0166199
739.826	0.0165661
739.905	0.0164829
739.983	0.0166110
740.061	0.0165083
740.139	0.0162695
740.217	0.0164121
740.295	0.0161826
740.373	0.0161774
740.451	0.0160931
740.530	0.0159907
740.608	0.0162027
740.686	0.0161862
740.764	0.0161831
740.842	0.0159885
740.920	0.0159798
740.998	0.0159028
741.076	0.0159936
741.155	0.0161172
741.233	0.0160915
741.311	0.0161238
741.389	0.0160943
741.467	0.0159811
741.545	0.0160422
741.623	0.0162170
741.701	0.0162530
741.780	0.0162907
741.858	0.0161726
741.936	0.0163211
742.014	0.0163374
742.092	0.0163735
742.170	0.0163038
742.248	0.0164194
742.326	0.0164111
742.405	0.0163937
742.483	0.0164212
742.561	0.0165624
742.639	0.0166013
742.717	0.0165900
742.795	0.0165363
742.873	0.0165082
742.951	0.0165871
743.030	0.0166821
743.108	0.0166660
743.186	0.0167042
743.264	0.0167002
743.342	0.0165443
743.420	0.0166438
743.498	0.0165119
743.576	0.0165923
743.655	0.0166346
743.733	0.0166446
743.811	0.0163665
743.889	0.0165557
743.967	0.0164062
744.045	0.0162577
744.123	0.0163615
744.201	0.0163648
744.280	0.0161515
744.358	0.0161839
744.436	0.0161423
744.514	0.0159221
744.592	0.0159913
744.670	0.0159940
744.748	0.0160300
744.826	0.0158171
744.905	0.0157207
744.983	0.0158225
745.061	0.0157774
745.139	0.0157796
745.217	0.0158079
745.295	0.0158159
745.373	0.0159792
745.451	0.0157483
745.530	0.0158705
745.608	0.0159650
745.686	0.0161087
745.764	0.0161144
745.842	0.0159639
745.920	0.0161797
745.998	0.0162638
746.076	0.0162779
746.155	0.0163125
746.233	0.0162843
746.311	0.0162721
746.389	0.0163612
746.467	0.0164067
746.545	0.0162920
746.623	0.0162387
746.701	0.0161385
746.780	0.0163462
746.858	0.0162962
746.936	0.0162048
747.014	0.0162562
747.092	0.0162641
747.170	0.0163422
747.248	0.0162787
747.326	0.0161845
747.405	0.0163681
747.483	0.0163246
747.561	0.0163043
747.639	0.0164536
747.717	0.0162508
747.795	0.0165191
747.873	0.0165549
747.951	0.0163525
748.030	0.0163469
748.108	0.0164201
748.186	0.0165673
748.264	0.0163866
748.342	0.0165134
748.420	0.0162643
748.498	0.0163731
748.576	0.0163506
748.655	0.0162917
748.733	0.0162081
748.811	0.0161377
748.889	0.0162276
748.967	0.0162291
749.045	0.0160781
749.123	0.0160327
749.201	0.0161855
749.280	0.0163132
749.358	0.0160577
749.436	0.0162275
749.514	0.0163452
749.592	0.0161991
749.670	0.0162326
749.748	0.0161713
749.826	0.0162080
749.905	0.0164058
749.983	0.0163069
750.061	0.0163877
750.139	0.0163290
750.217	0.0163758
750.295	0.0165436
750.373	0.0164931
750.451	0.0164424
750.530	0.0164510
750.608	0.0166380
750.686	0.0166156
750.764	0.0165502
750.842	0.0165892
750.920	0.0165260
750.998	0.0165343
751.076	0.0166881
751.155	0.0165398
751.233	0.0163929
751.311	0.0166698
751.389	0.0165755
751.467	0.0166360
751.545	0.0165114
751.623	0.0164547
751.701	0.0164649
751.780	0.0164135
751.858	0.0163512
751.936	0.0162989
752.014	0.0162668
752.092	0.0161668
752.170	0.0161588
752.248	0.0162020
752.326	0.0162521
752.405	0.0162170
752.483	0.0161114
752.561	0.0160156
752.639	0.0161597
752.717	0.0160788
752.795	0.0160904
752.873	0.0160463
752.951	0.0160836
753.030	0.0160500
753.108	0.0162203
753.186	0.0160374
753.264	0.0160975
753.342	0.0163264
753.420	0.0162312
753.498	0.0162630
753.576	0.0163329
753.655	0.0162572
753.733	0.0163020
753.811	0.0164733
753.889	0.0163866
753.967	0.0163589
754.045	0.0163876
754.123	0.0164191
754.201	0.0164742
754.280	0.0163914
754.358	0.0164618
754.436	0.0164247
754.514	0.0164538
754.592	0.0163658
754.670	0.0164028
754.748	0.0165849
754.826	0.0165225
754.905	0.0163753
754.983	0.0163469
755.061	0.0165088
755.139	0.0163963
755.217	0.0163560
755.295	0.0163761
755.373	0.0165326
755.451	0.0166697
755.530	0.0164823
755.608	0.0164523
755.686	0.0164864
755.764	0.0164760
755.842	0.0165279
755.920	0.0164939
755.998	0.0165244
756.076	0.0164159
756.155	0.0164497
756.233	0.0162437
756.311	0.0162731
756.389	0.0164436
756.467	0.0164016
756.545	0.0164481
756.623	0.0162975
756.701	0.0162684
756.780	0.0163001
756.858	0.0162617
756.936	0.0162981
757.014	0.0163081
757.092	0.0164069
757.170	0.0163508
757.248	0.0163917
757.326	0.0163725
757.405	0.0164442
757.483	0.0165041
757.561	0.0164179
757.639	0.0166000
757.717	0.0166442
757.795	0.0165842
757.873	0.0164577
757.951	0.0164725
758.030	0.0165042
758.108	0.0164133
758.186	0.0165085
758.264	0.0165295
758.342	0.0164839
758.420	0.0164217
758.498	0.0162988
758.576	0.0163873
758.655	0.0163472
758.733	0.0164038
758.811	0.0162403
758.889	0.0163170
758.967	0.0163071
759.045	0.0163921
759.123	0.0163979
759.201	0.0163239
759.280	0.0164439
759.358	0.0164562
759.436	0.0163845
759.514	0.0165016
759.592	0.0163377
759.670	0.0164269
759.748	0.0164641
759.826	0.0163455
759.905	0.0165089
759.983	0.0163025
760.061	0.0164830
760.139	0.0164137
760.217	0.0165028
760.295	0.0163223
760.373	0.0163764
760.451	0.0162727
760.530	0.0164236
760.608	0.0162206
760.686	0.0161777
760.764	0.0162688
760.842	0.0163134
760.920	0.0162181
760.998	0.0163186
761.076	0.0162311
761.155	0.0162507
761.233	0.0164200
761.311	0.0163345
761.389	0.0162320
761.467	0.0162969
761.545	0.0163615
761.623	0.0163672
761.701	0.0164020
761.780	0.0162515
761.858	0.0163895
761.936	0.0163876
762.014	0.0163004
762.092	0.0163209
762.170	0.0164394
762.248	0.0163828
762.326	0.0163860
762.405	0.0163753
762.483	0.0164208
762.561	0.0163491
762.639	0.0163049
762.717	0.0164411
762.795	0.0163863
762.873	0.0163577
762.951	0.0163725
763.030	0.0163040
763.108	0.0164264
763.186	0.0164022
763.264	0.0162141
763.342	0.0163337
763.420	0.0162865
763.498	0.0163928
763.576	0.0164317
763.655	0.0163599
763.733	0.0163116
763.811	0.0162857
763.889	0.0163291
763.967	0.0164137
764.045	0.0163313
764.123	0.0163310
764.201	0.0163829
764.280	0.0163960
764.358	0.0164629
764.436	0.0163129
764.514	0.0163860
764.592	0.0162458
764.670	0.0162773
764.748	0.0163892
764.826	0.0163391
764.905	0.0161441
764.983	0.0162170
765.061	0.0162657
765.139	0.0161735
765.217	0.0163143
765.295	0.0163454
765.373	0.0161287
765.451	0.0162466
765.530	0.0162236
765.608	0.0162390
765.686	0.0162029
765.764	0.0162848
765.842	0.0161548
765.920	0.0160833
765.998	0.0162104
766.076	0.0161832
766.155	0.0161115
766.233	0.0161234
766.311	0.0162376
766.389	0.0161298
766.467	0.0161283
766.545	0.0161129
766.623	0.0161971
766.701	0.0161746
766.780	0.0161012
766.858	0.0162508
766.936	0.0161802
767.014	0.0161900
767.092	0.0163116
767.170	0.0163409
767.248	0.0162006
767.326	0.0162045
767.405	0.0164182
767.483	0.0164446
767.561	0.0164201
767.639	0.0163999
767.717	0.0163583
767.795	0.0163519
767.873	0.0164735
767.951	0.0164381
768.030	0.0165657
768.108	0.0164512
768.186	0.0164723
768.264	0.0164565
768.342	0.0166475
768.420	0.0166100
768.498	0.0165449
768.576	0.0165582
768.655	0.0165525
768.733	0.0165572
768.811	0.0166208
768.889	0.0166271
768.967	0.0166010
769.045	0.0165826
769.123	0.0165095
769.201	0.0165072
769.280	0.0164784
769.358	0.0165141
769.436	0.0166682
769.514	0.0165552
769.592	0.0165134
769.670	0.0164532
769.748	0.0164986
769.826	0.0164595
769.905	0.0163661
769.983	0.0164714
770.061	0.0164185
770.139	0.0163313
770.217	0.0162226
770.295	0.0162539
770.373	0.0163799
770.451	0.0164534
770.530	0.0162165
770.608	0.0161558
770.686	0.0161567
770.764	0.0160257
770.842	0.0161553
770.920	0.0160909
770.998	0.0161890
771.076	0.0161465
771.155	0.0158968
771.233	0.0160695
771.311	0.0160227
771.389	0.0160670
771.467	0.0159299
771.545	0.0160215
771.623	0.0160343
771.701	0.0160212
771.780	0.0161030
771.858	0.0160639
771.936	0.0162946
772.014	0.0161076
772.092	0.0162145
772.170	0.0162284
772.248	0.0163358
772.326	0.0163877
772.405	0.0163567
772.483	0.0163744
772.561	0.0163020
772.639	0.0165295
772.717	0.0163887
772.795	0.0164419
772.873	0.0164430
772.951	0.0164677
773.030	0.0165143
773.108	0.0164976
773.186	0.0164584
773.264	0.0165402
773.342	0.0165121
773.420	0.0164132
773.498	0.0163928
773.576	0.0164706
773.655	0.0164845
773.733	0.0166725
773.811	0.0165528
773.889	0.0164588
773.967	0.0165498
774.045	0.0165483
774.123	0.0164403
774.201	0.0164818
774.280	0.0163615
774.358	0.0164794
774.436	0.0164953
774.514	0.0164375
774.592	0.0164004
774.670	0.0163755
774.748	0.0165373
774.826	0.0163525
774.905	0.0163063
774.983	0.0163238
775.061	0.0164347
775.139	0.0163559
775.217	0.0163134
775.295	0.0163292
775.373	0.0163486
775.451	0.0162597
775.530	0.0161127
775.608	0.0160685
775.686	0.0161475
775.764	0.0160820
775.842	0.0160986
775.920	0.0160842
775.998	0.0162273
776.076	0.0160632
776.155	0.0159806
776.233	0.0161021
776.311	0.0159303
776.389	0.0160548
776.467	0.0161878
776.545	0.0163125
776.623	0.0162437
776.701	0.0159886
776.780	0.0162272
776.858	0.0162115
776.936	0.0162260
777.014	0.0161959
777.092	0.0161664
777.170	0.0162971
777.248	0.0163013
777.326	0.0164704
777.405	0.0162624
777.483	0.0161478
777.561	0.0163025
777.639	0.0162511
777.717	0.0163803
777.795	0.0162873
777.873	0.0163484
777.951	0.0164597
778.030	0.0162457
778.108	0.0161873
778.186	0.0163081
778.264	0.0163159
778.342	0.0164430
778.420	0.0166613
778.498	0.0165136
778.576	0.0165129
778.655	0.0163647
778.733	0.0164580
778.811	0.0165007
778.889	0.0164636
778.967	0.0165854
779.045	0.0165108
779.123	0.0165543
779.201	0.0164732
779.280	0.0164758
779.358	0.0164891
779.436	0.0164628
779.514	0.0165764
779.592	0.0165120
779.670	0.0165958
779.748	0.0165211
779.826	0.0165240
779.905	0.0166405
779.983	0.0164425
780.061	0.0165944
780.139	0.0166341
780.217	0.0165356
780.295	0.0163987
780.373	0.0165154
780.451	0.0166396
780.530	0.0165742
780.608	0.0165241
780.686	0.0164974
780.764	0.0164545
780.842	0.0164676
780.920	0.0165485
780.998	0.0163712
781.076	0.0164401
781.155	0.0163779
781.233	0.0163781
781.311	0.0163995
781.389	0.0162305
781.467	0.0162236
781.545	0.0162188
781.623	0.0162373
781.701	0.0160796
781.780	0.0161089
781.858	0.0160809
781.936	0.0161310
782.014	0.0160635
782.092	0.0160384
782.170	0.0160440
782.248	0.0159932
782.326	0.0160851
782.405	0.0159588
782.483	0.0160049
782.561	0.0160653
782.639	0.0160303
782.717	0.0160394
782.795	0.0160291
782.873	0.0160760
782.951	0.0160825
783.030	0.0161400
783.108	0.0161578
783.186	0.0161822
783.264	0.0162643
783.342	0.0162542
783.420	0.0162926
783.498	0.0163026
783.576	0.0163019
783.655	0.0163626
783.733	0.0163732
783.811	0.0164159
783.889	0.0163279
783.967	0.0163565
784.045	0.0164465
784.123	0.0165391
784.201	0.0164725
784.280	0.0164561
784.358	0.0165792
784.436	0.0165571
784.514	0.0163562
784.592	0.0165822
784.670	0.0166203
784.748	0.0167102
784.826	0.0166996
784.905	0.0167020
784.983	0.0167056
785.061	0.0165053
785.139	0.0165793
785.217	0.0166026
785.295	0.0167113
785.373	0.0166721
785.451	0.0166219
785.530	0.0165515
785.608	0.0164167
785.686	0.0163544
785.764	0.0164953
785.842	0.0165314
785.920	0.0163559
785.998	0.0163533
786.076	0.0162800
786.155	0.0164014
786.233	0.0162466
786.311	0.0162003
786.389	0.0163316
786.467	0.0162514
786.545	0.0162748
786.623	0.0162781
786.701	0.0161729
786.780	0.0162376
786.858	0.0161017
786.936	0.0161134
787.014	0.0161230
787.092	0.0160634
787.170	0.0161742
787.248	0.0162090
787.326	0.0163165
787.405	0.0162994
787.483	0.0161533
787.561	0.0163215
787.639	0.0162919
787.717	0.0163184
787.795	0.0161810
787.873	0.0164343
787.951	0.0162745
788.030	0.0163319
788.108	0.0163696
788.186	0.0163019
788.264	0.0163194
788.342	0.0163357
788.420	0.0163461
788.498	0.0164642
788.576	0.0164165
788.655	0.0163287
788.733	0.0164249
788.811	0.0164651
788.889	0.0164061
788.967	0.0164699
789.045	0.0163632
789.123	0.0164018
789.201	0.0163635
789.280	0.0164136
789.358	0.0162964
789.436	0.0164328
789.514	0.0162924
789.592	0.0163295
789.670	0.0163181
789.748	0.0164146
789.826	0.0163893
789.905	0.0162997
789.983	0.0162605
790.061	0.0161926
790.139	0.0161756
790.217	0.0163081
790.295	0.0163703
790.373	0.0163139
790.451	0.0163274
790.530	0.0162801
790.608	0.0163180
790.686	0.0163955
790.764	0.0164229
790.842	0.0161231
790.920	0.0163869
790.998	0.0164129
791.076	0.0165436
791.155	0.0165295
791.233	0.0163280
791.311	0.0164463
791.389	0.0164425
791.467	0.0164067
791.545	0.0165079
791.623	0.0163101
791.701	0.0163831
791.780	0.0163850
791.858	0.0163658
791.936	0.0164379
792.014	0.0163380
792.092	0.0163918
792.170	0.0165482
792.248	0.0162740
792.326	0.0162889
792.405	0.0162572
792.483	0.0163109
792.561	0.0163607
792.639	0.0162769
792.717	0.0164184
792.795	0.0163967
792.873	0.0163150
792.951	0.0162316
793.030	0.0163380
793.108	0.0163858
793.186	0.0164570
793.264	0.0162811
793.342	0.0163313
793.420	0.0161598
793.498	0.0161261
793.576	0.0161654
793.655	0.0160780
793.733	0.0160889
793.811	0.0161145
793.889	0.0159724
793.967	0.0160352
794.045	0.0162808
794.123	0.0161592
794.201	0.0161372
794.280	0.0159680
794.358	0.0160167
794.436	0.0160493
794.514	0.0159414
794.592	0.0160692
794.670	0.0161050
794.748	0.0159724
794.826	0.0160025
794.905	0.0160066
794.983	0.0161166
795.061	0.0160786
795.139	0.0161384
795.217	0.0161172
795.295	0.0162254
795.373	0.0162260
795.451	0.0161981
795.530	0.0161757
795.608	0.0162713
795.686	0.0161523
795.764	0.0162778
795.842	0.0162879
795.920	0.0162505
795.998	0.0163727
796.076	0.0164122
796.155	0.0163757
796.233	0.0162107
796.311	0.0162012
796.389	0.0164090
796.467	0.0164088
796.545	0.0164091
796.623	0.0163597
796.701	0.0163899
796.780	0.0164737
796.858	0.0164704
796.936	0.0163106
797.014	0.0164137
797.092	0.0165104
797.170	0.0165136
797.248	0.0165676
797.326	0.0165337
797.405	0.0164855
797.483	0.0163977
797.561	0.0164476
797.639	0.0165531
797.717	0.0165288
797.795	0.0165169
797.873	0.0165853
797.951	0.0165153
798.030	0.0165599
798.108	0.0164113
798.186	0.0165112
798.264	0.0164719
798.342	0.0164174
798.420	0.0165442
798.498	0.0164468
798.576	0.0163755
798.655	0.0163416
798.733	0.0164322
798.811	0.0162189
798.889	0.0163593
798.967	0.0164371
799.045	0.0163657
799.123	0.0163621
799.201	0.0163903
799.280	0.0163547
799.358	0.0161827
799.436	0.0163602
799.514	0.0163226
799.592	0.0162326
799.670	0.0163680
799.748	0.0163305
799.826	0.0163264
799.905	0.0162821
799.983	0.0162031
800.061	0.0161479
800.139	0.0161417
800.217	0.0162458
800.295	0.0162778
800.373	0.0162728
800.451	0.0162541
800.530	0.0162850
800.608	0.0162904
800.686	0.0162828
800.764	0.0161952
800.842	0.0163175
800.920	0.0162384
800.998	0.0161839
801.076	0.0164444
801.155	0.0164877
801.233	0.0163949
801.311	0.0163255
801.389	0.0163521
801.467	0.0163607
801.545	0.0164375
801.623	0.0165046
801.701	0.0163318
801.780	0.0164622
801.858	0.0162964
801.936	0.0163517
802.014	0.0165428
802.092	0.0163022
802.170	0.0162544
802.248	0.0164421
802.326	0.0164302
802.405	0.0162334
802.483	0.0162541
802.561	0.0164484
802.639	0.0163644
802.717	0.0163212
802.795	0.0163877
802.873	0.0164125
802.951	0.0164222
803.030	0.0162901
803.108	0.0164005
803.186	0.0163509
803.264	0.0163574
803.342	0.0163061
803.420	0.0164308
803.498	0.0164447
803.576	0.0163396
803.655	0.0164108
803.733	0.0164046
803.811	0.0162753
803.889	0.0162955
803.967	0.0164534
804.045	0.0162124
804.123	0.0163490
804.201	0.0162244
804.280	0.0162670
804.358	0.0162918
804.436	0.0163111
804.514	0.0163080
804.592	0.0163015
804.670	0.0162254
804.748	0.0162930
804.826	0.0163685
804.905	0.0163092
804.983	0.0162753
805.061	0.0163840
805.139	0.0163631
805.217	0.0164236
805.295	0.0164610
805.373	0.0163790
805.451	0.0162727
805.530	0.0163991
805.608	0.0163818
805.686	0.0163248
805.764	0.0162714
805.842	0.0163004
805.920	0.0162765
805.998	0.0162770
806.076	0.0162700
806.155	0.0162541
806.233	0.0163628
806.311	0.0163348
806.389	0.0162215
806.467	0.0161816
806.545	0.0162981
806.623	0.0162601
806.701	0.0162659
806.780	0.0161256
806.858	0.0161411
806.936	0.0163769
807.014	0.0163816
807.092	0.0162273
807.170	0.0161712
807.248	0.0162667
807.326	0.0163330
807.405	0.0163496
807.483	0.0161622
807.561	0.0162039
807.639	0.0162614
807.717	0.0162563
807.795	0.0164241
807.873	0.0162077
807.951	0.0164095
808.030	0.0162601
808.108	0.0163245
808.186	0.0163593
808.264	0.0163324
808.342	0.0163385
808.420	0.0163789
808.498	0.0163220
808.576	0.0163387
808.655	0.0162861
808.733	0.0164011
808.811	0.0165395
808.889	0.0164056
808.967	0.0163463
809.045	0.0165655
809.123	0.0164750
809.201	0.0165686
809.280	0.0164648
809.358	0.0165873
809.436	0.0164484
809.514	0.0165189
809.592	0.0163310
809.670	0.0163931
809.748	0.0164646
809.826	0.0165255
809.905	0.0163411
809.983	0.0163966
810.061	0.0164018
810.139	0.0163069
810.217	0.0162062
810.295	0.0163250
810.373	0.0162888
810.451	0.0163352
810.530	0.0162849
810.608	0.0163598
810.686	0.0164030
810.764	0.0164278
810.842	0.0163282
810.920	0.0162982
810.998	0.0163090
811.076	0.0163065
811.155	0.0163772
811.233	0.0164354
811.311	0.0163588
811.389	0.0163826
811.467	0.0163890
811.545	0.0163056
811.623	0.0164205
811.701	0.0163222
811.780	0.0163695
811.858	0.0164661
811.936	0.0164986
812.014	0.0164879
812.092	0.0164664
812.170	0.0164763
812.248	0.0165030
812.326	0.0165092
812.405	0.0164322
812.483	0.0164505
812.561	0.0164422
812.639	0.0164387
812.717	0.0163953
812.795	0.0164031
812.873	0.0165579
812.951	0.0165272
813.030	0.0164458
813.108	0.0163183
813.186	0.0165207
813.264	0.0165115
813.342	0.0164097
813.420	0.0164665
813.498	0.0164853
813.576	0.0164296
813.655	0.0163884
813.733	0.0164927
813.811	0.0164523
813.889	0.0162727
813.967	0.0163058
814.045	0.0163227
814.123	0.0162260
814.201	0.0164735
814.280	0.0162368
814.358	0.0162920
814.436	0.0163367
814.514	0.0161900
814.592	0.0163303
814.670	0.0163078
814.748	0.0162495
814.826	0.0161972
814.905	0.0163891
814.983	0.0161733
815.061	0.0160946
815.139	0.0162618
815.217	0.0161752
815.295	0.0161300
815.373	0.0160671
815.451	0.0162364
815.530	0.0162601
815.608	0.0161309
815.686	0.0161095
815.764	0.0161214
815.842	0.0162054
815.920	0.0161658
815.998	0.0162138
816.076	0.0162167
816.155	0.0162425
816.233	0.0163116
816.311	0.0163354
816.389	0.0162669
816.467	0.0162994
816.545	0.0164335
816.623	0.0163411
816.701	0.0163506
816.780	0.0162973
816.858	0.0164261
816.936	0.0163616
817.014	0.0163726
817.092	0.0163844
817.170	0.0163029
817.248	0.0164667
817.326	0.0163831
817.405	0.0164470
817.483	0.0163604
817.561	0.0162736
817.639	0.0162491
817.717	0.0163613
817.795	0.0163463
817.873	0.0161433
817.951	0.0162814
818.030	0.0162801
818.108	0.0162050
818.186	0.0162263
818.264	0.0162285
818.342	0.0162813
818.420	0.0161096
818.498	0.0162528
818.576	0.0161726
818.655	0.0162120
818.733	0.0162673
818.811	0.0162823
818.889	0.0162765
818.967	0.0161275
819.045	0.0161803
819.123	0.0162348
819.201	0.0164085
819.280	0.0161862
819.358	0.0162556
819.436	0.0162800
819.514	0.0162571
819.592	0.0163392
819.670	0.0163120
819.748	0.0162531
819.826	0.0163074
819.905	0.0162597
819.983	0.0163254
820.061	0.0161891
820.139	0.0163742
820.217	0.0164088
820.295	0.0163935
820.373	0.0162341
820.451	0.0164039
820.530	0.0164510
820.608	0.0165270
820.686	0.0163319
820.764	0.0164158
820.842	0.0165448
820.920	0.0164876
820.998	0.0164373
821.076	0.0166422
821.155	0.0165126
821.233	0.0164595
821.311	0.0164242
821.389	0.0163921
821.467	0.0166088
821.545	0.0166002
821.623	0.0165483
821.701	0.0164265
821.780	0.0164211
821.858	0.0165445
821.936	0.0163534
822.014	0.0164951
822.092	0.0163822
822.170	0.0163705
822.248	0.0164781
822.326	0.0162884
822.405	0.0163784
822.483	0.0163515
822.561	0.0162551
822.639	0.0162928
822.717	0.0162737
822.795	0.0162653
822.873	0.0161334
822.951	0.0163174
823.030	0.0163403
823.108	0.0162831
823.186	0.0161263
823.264	0.0161668
823.342	0.0161445
823.420	0.0162701
823.498	0.0160719
823.576	0.0161519
823.655	0.0161215
823.733	0.0162034
823.811	0.0162511
823.889	0.0161056
823.967	0.0161749
824.045	0.0161978
824.123	0.0162773
824.201	0.0161612
824.280	0.0160583
824.358	0.0161823
824.436	0.0162844
824.514	0.0163381
824.592	0.0162615
824.670	0.0163168
824.748	0.0162757
824.826	0.0163236
824.905	0.0164047
824.983	0.0162670
825.061	0.0163927
825.139	0.0165446
825.217	0.0164335
825.295	0.0163219
825.373	0.0165403
825.451	0.0166121
825.530	0.0165993
825.608	0.0164415
825.686	0.0165131
825.764	0.0165175
825.842	0.0165388
825.920	0.0165315
825.998	0.0164765
826.076	0.0164295
826.155	0.0164902
826.233	0.0164383
826.311	0.0163454
826.389	0.0164983
826.467	0.0164324
826.545	0.0164059
826.623	0.0164948
826.701	0.0163012
826.780	0.0164682
826.858	0.0164606
826.936	0.0163998
827.014	0.0164561
827.092	0.0164308
827.170	0.0163129
827.248	0.0163074
827.326	0.0164614
827.405	0.0164383
827.483	0.0163421
827.561	0.0163926
827.639	0.0163599
827.717	0.0164011
827.795	0.0163824
827.873	0.0165103
827.951	0.0165234
828.030	0.0163423
828.108	0.0164736
828.186	0.0165231
828.264	0.0165344
828.342	0.0164471
828.420	0.0163783
828.498	0.0164824
828.576	0.0165719
828.655	0.0164430
828.733	0.0165614
828.811	0.0164175
828.889	0.0165442
828.967	0.0164510
829.045	0.0163278
829.123	0.0164425
829.201	0.0165202
829.280	0.0165071
829.358	0.0163720
829.436	0.0163762
829.514	0.0164343
829.592	0.0163641
829.670	0.0162172
829.748	0.0163289
829.826	0.0162994
829.905	0.0162707
829.983	0.0163337
830.061	0.0162138
830.139	0.0163218
830.217	0.0162680
830.295	0.0161421
830.373	0.0162753
830.451	0.0161336
830.530	0.0161325
830.608	0.0162106
830.686	0.0162389
830.764	0.0162425
830.842	0.0162940
830.920	0.0162312
830.998	0.0161944
831.076	0.0162495
831.155	0.0162226
831.233	0.0162450
831.311	0.0162257
831.389	0.0162667
831.467	0.0162666
831.545	0.0161788
831.623	0.0163618
831.701	0.0162257
831.780	0.0162456
831.858	0.0162019
831.936	0.0162496
832.014	0.0163036
832.092	0.0161937
832.170	0.0163229
832.248	0.0162866
832.326	0.0163485
832.405	0.0161984
832.483	0.0163838
832.561	0.0163396
832.639	0.0162373
832.717	0.0164051
832.795	0.0164220
832.873	0.0163800
832.951	0.0164124
833.030	0.0164810
833.108	0.0164445
833.186	0.0163573
833.264	0.0163588
833.342	0.0164802
833.420	0.0162962
833.498	0.0162596
833.576	0.0162804
833.655	0.0163338
833.733	0.0164426
833.811	0.0162311
833.889	0.0164111
833.967	0.0164225
834.045	0.0163314
834.123	0.0164013
834.201	0.0162651
834.280	0.0161655
834.358	0.0162585
834.436	0.0163247
834.514	0.0164269
834.592	0.0163866
834.670	0.0164384
834.748	0.0162416
834.826	0.0163022
834.905	0.0162333
834.983	0.0162592
835.061	0.0162241
835.139	0.0162614
835.217	0.0163256
835.295	0.0162435
835.373	0.0162603
835.451	0.0163174
835.530	0.0163503
835.608	0.0163467
835.686	0.0162310
835.764	0.0162399
835.842	0.0161922
835.920	0.0162324
835.998	0.0163731
836.076	0.0163866
836.155	0.0163497
836.233	0.0163372
836.311	0.0163017
836.389	0.0162827
836.467	0.0162856
836.545	0.0161580
836.623	0.0162623
836.701	0.0161972
836.780	0.0163042
836.858	0.0161607
836.936	0.0163718
837.014	0.0163142
837.092	0.0164039
837.170	0.0164198
837.248	0.0162377
837.326	0.0164532
837.405	0.0164324
837.483	0.0164365
837.561	0.0163593
837.639	0.0163358
837.717	0.0163179
837.795	0.0163578
837.873	0.0162986
837.951	0.0164399
838.030	0.0163595
838.108	0.0163605
838.186	0.0163468
838.264	0.0162344
838.342	0.0164111
838.420	0.0163766
838.498	0.0162795
838.576	0.0163555
838.655	0.0164451
838.733	0.0162313
838.811	0.0163377
838.889	0.0163057
838.967	0.0162977
839.045	0.0162717
839.123	0.0164527
839.201	0.0163741
839.280	0.0162970
839.358	0.0164045
839.436	0.0165466
839.514	0.0163763
839.592	0.0163953
839.670	0.0163463
839.748	0.0164979
839.826	0.0164400
839.905	0.0164511
839.983	0.0164542
840.061	0.0164188
840.139	0.0165005
840.217	0.0164971
840.295	0.0164795
840.373	0.0165849
840.451	0.0165158
840.530	0.0165019
840.608	0.0163999
840.686	0.0164766
840.764	0.0162882
840.842	0.0164497
840.920	0.0164088
840.998	0.0163461
841.076	0.0163703
841.155	0.0163085
841.233	0.0162220
841.311	0.0164211
841.389	0.0162664
841.467	0.0162799
841.545	0.0163657
841.623	0.0162371
841.701	0.0161832
841.780	0.0163402
841.858	0.0162235
841.936	0.0162560
842.014	0.0162402
842.092	0.0163511
842.170	0.0162241
842.248	0.0163861
842.326	0.0162356
842.405	0.0162653
842.483	0.0163425
842.561	0.0162955
842.639	0.0163494
842.717	0.0162077
842.795	0.0162013
842.873	0.0163327
842.951	0.0163110
843.030	0.0161874
843.108	0.0162184
843.186	0.0162438
843.264	0.0162309
843.342	0.0161165
843.420	0.0162218
843.498	0.0162814
843.576	0.0162717
843.655	0.0162981
843.733	0.0163065
843.811	0.0162358
843.889	0.0163588
843.967	0.0164038
844.045	0.0162540
844.123	0.0162228
844.201	0.0162389
844.280	0.0163066
844.358	0.0162196
844.436	0.0164187
844.514	0.0162254
844.592	0.0163427
844.670	0.0164505
844.748	0.0163971
844.826	0.0164259
844.905	0.0162440
844.983	0.0162391
845.061	0.0164025
845.139	0.0162404
845.217	0.0162777
845.295	0.0164501
845.373	0.0164309
845.451	0.0163948
845.530	0.0162894
845.608	0.0161925
845.686	0.0163771
845.764	0.0164610
845.842	0.0163419
845.920	0.0162768
845.998	0.0163164
846.076	0.0162856
846.155	0.0163640
846.233	0.0163318
846.311	0.0162978
846.389	0.0161583
846.467	0.0164102
846.545	0.0163558
846.623	0.0163132
846.701	0.0163863
846.780	0.0164117
846.858	0.0162492
846.936	0.0162543
847.014	0.0162553
847.092	0.0163138
847.170	0.0161685
847.248	0.0161821
847.326	0.0161969
847.405	0.0162461
847.483	0.0162304
847.561	0.0162414
847.639	0.0163435
847.717	0.0161514
847.795	0.0162567
847.873	0.0163349
847.951	0.0162882
848.030	0.0164240
848.108	0.0163451
848.186	0.0163484
848.264	0.0162182
848.342	0.0163930
848.420	0.0162301
848.498	0.0163528
848.576	0.0163225
848.655	0.0163889
848.733	0.0163747
848.811	0.0163554
848.889	0.0162347
848.967	0.0163094
849.045	0.0163972
849.123	0.0164364
849.201	0.0165085
849.280	0.0164450
849.358	0.0164095
849.436	0.0164690
849.514	0.0164838
849.592	0.0164671
849.670	0.0165183
849.748	0.0165171
849.826	0.0163828
849.905	0.0164714
849.983	0.0166358
850.061	0.0165506
850.139	0.0166116
850.217	0.0164709
850.295	0.0163844
850.373	0.0163997
850.451	0.0164743
850.530	0.0165394
850.608	0.0165142
850.686	0.0164514
850.764	0.0164381
850.842	0.0163555
850.920	0.0164982
850.998	0.0164644
851.076	0.0164594
851.155	0.0165028
851.233	0.0164489
851.311	0.0163705
851.389	0.0164159
851.467	0.0163800
851.545	0.0164592
851.623	0.0164386
851.701	0.0162610
851.780	0.0163278
851.858	0.0164217
851.936	0.0162284
852.014	0.0162500
852.092	0.0164248
852.170	0.0164074
852.248	0.0163441
852.326	0.0163327
852.405	0.0163360
852.483	0.0163701
852.561	0.0163304
852.639	0.0162042
852.717	0.0163042
852.795	0.0163314
852.873	0.0163486
852.951	0.0162496
853.030	0.0162652
853.108	0.0162964
853.186	0.0162443
853.264	0.0163540
853.342	0.0162885
853.420	0.0162304
853.498	0.0161328
853.576	0.0162497
853.655	0.0162011
853.733	0.0160538
853.811	0.0162528
853.889	0.0163557
853.967	0.0162193
854.045	0.0162473
854.123	0.0162397
854.201	0.0162640
854.280	0.0162438
854.358	0.0162514
854.436	0.0161829
854.514	0.0162270
854.592	0.0162897
854.670	0.0162402
854.748	0.0163078
854.826	0.0164171
854.905	0.0162946
854.983	0.0162466
855.061	0.0162906
855.139	0.0164191
855.217	0.0162722
855.295	0.0162714
855.373	0.0163956
855.451	0.0163482
855.530	0.0163889
855.608	0.0162513
855.686	0.0163155
855.764	0.0163049
855.842	0.0163145
855.920	0.0162968
855.998	0.0163216
856.076	0.0164458
856.155	0.0162773
856.233	0.0163406
856.311	0.0163593
856.389	0.0164862
856.467	0.0164491
856.545	0.0163697
856.623	0.0162982
856.701	0.0163992
856.780	0.0163286
856.858	0.0165347
856.936	0.0164423
857.014	0.0165382
857.092	0.0165311
857.170	0.0164007
857.248	0.0164860
857.326	0.0164320
857.405	0.0163300
857.483	0.0164390
857.561	0.0164499
857.639	0.0163730
857.717	0.0164748
857.795	0.0164801
857.873	0.0165064
857.951	0.0164236
858.030	0.0165262
858.108	0.0164335
858.186	0.0164394
858.264	0.0164752
858.342	0.0165445
858.420	0.0165447
858.498	0.0163770
858.576	0.0165835
858.655	0.0165239
858.733	0.0164111
858.811	0.0164961
858.889	0.0164674
858.967	0.0164010
859.045	0.0165318
859.123	0.0164121
859.201	0.0164352
859.280	0.0165181
859.358	0.0165057
859.436	0.0165477
859.514	0.0165784
859.592	0.0165181
859.670	0.0164312
859.748	0.0164899
859.826	0.0165303
859.905	0.0164650
859.983	0.0162995
860.061	0.0165246
860.139	0.0164262
860.217	0.0164212
860.295	0.0164320
860.373	0.0163798
860.451	0.0164637
860.530	0.0164161
860.608	0.0163790
860.686	0.0163918
860.764	0.0162860
860.842	0.0163146
860.920	0.0165288
860.998	0.0163260
861.076	0.0164298
861.155	0.0163489
861.233	0.0163478
861.311	0.0163926
861.389	0.0162981
861.467	0.0163262
861.545	0.0163485
861.623	0.0162820
861.701	0.0162756
861.780	0.0163087
861.858	0.0162915
861.936	0.0163960
862.014	0.0163690
862.092	0.0163293
862.170	0.0163307
862.248	0.0163412
862.326	0.0164109
862.405	0.0163267
862.483	0.0162839
862.561	0.0163026
862.639	0.0161967
862.717	0.0164133
862.795	0.0162332
862.873	0.0161529
862.951	0.0161636
863.030	0.0163273
863.108	0.0162727
863.186	0.0162624
863.264	0.0162361
863.342	0.0161540
863.420	0.0162482
863.498	0.0162298
863.576	0.0161795
863.655	0.0162415
863.733	0.0163424
863.811	0.0163462
863.889	0.0162173
863.967	0.0162473
864.045	0.0161632
864.123	0.0162564
864.201	0.0162570
864.280	0.0164410
864.358	0.0161475
864.436	0.0163847
864.514	0.0163176
864.592	0.0163269
864.670	0.0163338
864.748	0.0162681
864.826	0.0162231
864.905	0.0164575
864.983	0.0164494
865.061	0.0163198
865.139	0.0161706
865.217	0.0164169
865.295	0.0164328
865.373	0.0163120
865.451	0.0162281
865.530	0.0163455
865.608	0.0162309
865.686	0.0163121
865.764	0.0163380
865.842	0.0163039
865.920	0.0161705
865.998	0.0162936
866.076	0.0163213
866.155	0.0162814
866.233	0.0164188
866.311	0.0163091
866.389	0.0162079
866.467	0.0162782
866.545	0.0162267
866.623	0.0163461
866.701	0.0162798
866.780	0.0162252
866.858	0.0163728
866.936	0.0163852
867.014	0.0162985
867.092	0.0163127
867.170	0.0162467
867.248	0.0163810
867.326	0.0162212
867.405	0.0162908
867.483	0.0163317
867.561	0.0163270
867.639	0.0164187
867.717	0.0163507
867.795	0.0162340
867.873	0.0164617
867.951	0.0164285
868.030	0.0163264
868.108	0.0163972
868.186	0.0163599
868.264	0.0164584
868.342	0.0163319
868.420	0.0164378
868.498	0.0164542
868.576	0.0164884
868.655	0.0163753
868.733	0.0163472
868.811	0.0163922
868.889	0.0164732
868.967	0.0164041
869.045	0.0164954
869.123	0.0165407
869.201	0.0164570
869.280	0.0164170
869.358	0.0164682
869.436	0.0163269
869.514	0.0164606
869.592	0.0164261
869.670	0.0164736
869.748	0.0165081
869.826	0.0164367
869.905	0.0165762
869.983	0.0164042
870.061	0.0162549
870.139	0.0164978
870.217	0.0164732
870.295	0.0164256
870.373	0.0163488
870.451	0.0163412
870.530	0.0163514
870.608	0.0163594
870.686	0.0165797
870.764	0.0162746
870.842	0.0162532
870.920	0.0163572
870.998	0.0162403
871.076	0.0163788
871.155	0.0163986
871.233	0.0164615
871.311	0.0163573
871.389	0.0163804
871.467	0.0162885
871.545	0.0162852
871.623	0.0163959
871.701	0.0164214
871.780	0.0163120
871.858	0.0164167
871.936	0.0162775
872.014	0.0163261
872.092	0.0163830
872.170	0.0164085
872.248	0.0164315
872.326	0.0163789
872.405	0.0164814
872.483	0.0163622
872.561	0.0164301
872.639	0.0164458
872.717	0.0164195
872.795	0.0163609
872.873	0.0163874
872.951	0.0164771
873.030	0.0162074
873.108	0.0162091
873.186	0.0163719
873.264	0.0164642
873.342	0.0164984
873.420	0.0164066
873.498	0.0163145
873.576	0.0163771
873.655	0.0163512
873.733	0.0164462
873.811	0.0164812
873.889	0.0163835
873.967	0.0162941
874.045	0.0163351
874.123	0.0162038
874.201	0.0162323
874.280	0.0163360
874.358	0.0161996
874.436	0.0164307
874.514	0.0163090
874.592	0.0161581
874.670	0.0162671
874.748	0.0161951
874.826	0.0162812
874.905	0.0163538
874.983	0.0162730
875.061	0.0162963
875.139	0.0163737
875.217	0.0160758
875.295	0.0162703
875.373	0.0164510
875.451	0.0162948
875.530	0.0163058
875.608	0.0162620
875.686	0.0163139
875.764	0.0162736
875.842	0.0161668
875.920	0.0162897
875.998	0.0163179
876.076	0.0162739
876.155	0.0162904
876.233	0.0162334
876.311	0.0163862
876.389	0.0163211
876.467	0.0162661
876.545	0.0162984
876.623	0.0162362
876.701	0.0162882
876.780	0.0162498
876.858	0.0162955
876.936	0.0163647
877.014	0.0163975
877.092	0.0162879
877.170	0.0162772
877.248	0.0164027
877.326	0.0163436
877.405	0.0163604
877.483	0.0163876
877.561	0.0164470
877.639	0.0162846
877.717	0.0162849
877.795	0.0163840
877.873	0.0164237
877.951	0.0163560
878.030	0.0163670
878.108	0.0163059
878.186	0.0163586
878.264	0.0163686
878.342	0.0163649
878.420	0.0161665
878.498	0.0162584
878.576	0.0164240
878.655	0.0162936
878.733	0.0163619
878.811	0.0163787
878.889	0.0164452
878.967	0.0162900
879.045	0.0162108
879.123	0.0163913
879.201	0.0163963
879.280	0.0162128
879.358	0.0162699
879.436	0.0162741
879.514	0.0162409
879.592	0.0163036
879.670	0.0162737
879.748	0.0162402
879.826	0.0162626
879.905	0.0162666
879.983	0.0162216
880.061	0.0161475
880.139	0.0162258
880.217	0.0162251
880.295	0.0164028
880.373	0.0163631
880.451	0.0162580
880.530	0.0162115
880.608	0.0163330
880.686	0.0162943
880.764	0.0162083
880.842	0.0162159
880.920	0.0161716
880.998	0.0162764
881.076	0.0165755
881.155	0.0163369
881.233	0.0164015
881.311	0.0163338
881.389	0.0165054
881.467	0.0164977
881.545	0.0164217
881.623	0.0164289
881.701	0.0164139
881.780	0.0165155
881.858	0.0165699
881.936	0.0163693
882.014	0.0163693
882.092	0.0165614
882.170	0.0165514
882.248	0.0163182
882.326	0.0163422
882.405	0.0163601
882.483	0.0163966
882.561	0.0163902
882.639	0.0164189
882.717	0.0163079
882.795	0.0162358
882.873	0.0162999
882.951	0.0163686
883.030	0.0162862
883.108	0.0163911
883.186	0.0164378
883.264	0.0163277
883.342	0.0163503
883.420	0.0162935
883.498	0.0163002
883.576	0.0164103
883.655	0.0163992
883.733	0.0163679
883.811	0.0163947
883.889	0.0162725
883.967	0.0162289
884.045	0.0163625
884.123	0.0163651
884.201	0.0162732
884.280	0.0162125
884.358	0.0163676
884.436	0.0163444
884.514	0.0163214
884.592	0.0162112
884.670	0.0163324
884.748	0.0161902
884.826	0.0161866
884.905	0.0162512
884.983	0.0162350
885.061	0.0163074
885.139	0.0162447
885.217	0.0163166
885.295	0.0163879
885.373	0.0162686
885.451	0.0162836
885.530	0.0163396
885.608	0.0162746
885.686	0.0162915
885.764	0.0164491
885.842	0.0163990
885.920	0.0162865
885.998	0.0163216
886.076	0.0164484
886.155	0.0162704
886.233	0.0164098
886.311	0.0163604
886.389	0.0162317
886.467	0.0163887
886.545	0.0162131
886.623	0.0163152
886.701	0.0163473
886.780	0.0163135
886.858	0.0162678
886.936	0.0164305
887.014	0.0162437
887.092	0.0163119
887.170	0.0162206
887.248	0.0162275
887.326	0.0164028
887.405	0.0163714
887.483	0.0163269
887.561	0.0163702
887.639	0.0164900
887.717	0.0163067
887.795	0.0162786
887.873	0.0162559
887.951	0.0164433
888.030	0.0162424
888.108	0.0163091
888.186	0.0164459
888.264	0.0163924
888.342	0.0163811
888.420	0.0164469
888.498	0.0164870
888.576	0.0164893
888.655	0.0165345
888.733	0.0165335
888.811	0.0163498
888.889	0.0165521
888.967	0.0163219
889.045	0.0165861
889.123	0.0165289
889.201	0.0164046
889.280	0.0163872
889.358	0.0163132
889.436	0.0163929
889.514	0.0163791
889.592	0.0163648
889.670	0.0163177
889.748	0.0164215
889.826	0.0163497
889.905	0.0163690
889.983	0.0164925
890.061	0.0163429
890.139	0.0162886
890.217	0.0165161
890.295	0.0163638
890.373	0.0163597
890.451	0.0164114
890.530	0.0163557
890.608	0.0162532
890.686	0.0162999
890.764	0.0163629
890.842	0.0161985
890.920	0.0163587
890.998	0.0163257
891.076	0.0165186
891.155	0.0164931
891.233	0.0163789
891.311	0.0163600
891.389	0.0163596
891.467	0.0163695
891.545	0.0163341
891.623	0.0162423
891.701	0.0163248
891.780	0.0163438
891.858	0.0162523
891.936	0.0162212
892.014	0.0162899
892.092	0.0163261
892.170	0.0163373
892.248	0.0162601
892.326	0.0163259
892.405	0.0162611
892.483	0.0162090
892.561	0.0162888
892.639	0.0163509
892.717	0.0162141
892.795	0.0162521
892.873	0.0162468
892.951	0.0162698
893.030	0.0163017
893.108	0.0163731
893.186	0.0163297
893.264	0.0163483
893.342	0.0163931
893.420	0.0162560
893.498	0.0162587
893.576	0.0162866
893.655	0.0163329
893.733	0.0163885
893.811	0.0164490
893.889	0.0163367
893.967	0.0163791
894.045	0.0164532
894.123	0.0163388
894.201	0.0163749
894.280	0.0164276
894.358	0.0164035
894.436	0.0162648
894.514	0.0163175
894.592	0.0165525
894.670	0.0163118
894.748	0.0163562
894.826	0.0165076
894.905	0.0163606
894.983	0.0163848
895.061	0.0163350
895.139	0.0162672
895.217	0.0163596
895.295	0.0166013
895.373	0.0164262
895.451	0.0164913
895.530	0.0163405
895.608	0.0164229
895.686	0.0164568
895.764	0.0164208
895.842	0.0164452
895.920	0.0164536
895.998	0.0163263
896.076	0.0163301
896.155	0.0163811
896.233	0.0164864
896.311	0.0165041
896.389	0.0163259
896.467	0.0163491
896.545	0.0162811
896.623	0.0164977
896.701	0.0163921
896.780	0.0164428
896.858	0.0163313
896.936	0.0164458
897.014	0.0165456
897.092	0.0165047
897.170	0.0164403
897.248	0.0162817
897.326	0.0164253
897.405	0.0164004
897.483	0.0163598
897.561	0.0164931
897.639	0.0164034
897.717	0.0165125
897.795	0.0163214
897.873	0.0163438
897.951	0.0164478
898.030	0.0163393
898.108	0.0162665
898.186	0.0162947
898.264	0.0164649
898.342	0.0163867
898.420	0.0164387
898.498	0.0163670
898.576	0.0164304
898.655	0.0162802
898.733	0.0164371
898.811	0.0163705
898.889	0.0162615
898.967	0.0162853
899.045	0.0163373
899.123	0.0163243
899.201	0.0163354
899.280	0.0163651
899.358	0.0164453
899.436	0.0163372
899.514	0.0164405
899.592	0.0163863
899.670	0.0163706
899.748	0.0162899
899.826	0.0164143
899.905	0.0165797
899.983	0.0165614
900.061	0.0164144
900.139	0.0165343
900.217	0.0164867
900.295	0.0165222
900.373	0.0164396
900.451	0.0164296
900.530	0.0164434
900.608	0.0163936
900.686	0.0163723
900.764	0.0164541
900.842	0.0165597
900.920	0.0163999
900.998	0.0164810
901.076	0.0164704
901.155	0.0164849
901.233	0.0163452
901.311	0.0164918
901.389	0.0164118
901.467	0.0164327
901.545	0.0164066
901.623	0.0163396
901.701	0.0163593
901.780	0.0165317
901.858	0.0165544
901.936	0.0165324
902.014	0.0163835
902.092	0.0163103
902.170	0.0165371
902.248	0.0164022
902.326	0.0164362
902.405	0.0164398
902.483	0.0163958
902.561	0.0164379
902.639	0.0162976
902.717	0.0165186
902.795	0.0164217
902.873	0.0163850
902.951	0.0163570
903.030	0.0164501
903.108	0.0161855
903.186	0.0164426
903.264	0.0163145
903.342	0.0162289
903.420	0.0162404
903.498	0.0163108
903.576	0.0162809
903.655	0.0162955
903.733	0.0163058
903.811	0.0162087
903.889	0.0162082
903.967	0.0163660
904.045	0.0163762
904.123	0.0163170
904.201	0.0162102
904.280	0.0163848
904.358	0.0163488
904.436	0.0162759
904.514	0.0162280
904.592	0.0162212
904.670	0.0162692
904.748	0.0162983
904.826	0.0161869
904.905	0.0161752
904.983	0.0161982
905.061	0.0162373
905.139	0.0162296
905.217	0.0163422
905.295	0.0161958
905.373	0.0163602
905.451	0.0162408
905.530	0.0163010
905.608	0.0161499
905.686	0.0161980
905.764	0.0162104
905.842	0.0161859
905.920	0.0162808
905.998	0.0162856
906.076	0.0162936
906.155	0.0161600
906.233	0.0162855
906.311	0.0162874
906.389	0.0162633
906.467	0.0163403
906.545	0.0162628
906.623	0.0161910
906.701	0.0164030
906.780	0.0162522
906.858	0.0162361
906.936	0.0162154
907.014	0.0161517
907.092	0.0161880
907.170	0.0162773
907.248	0.0161756
907.326	0.0162032
907.405	0.0161789
907.483	0.0162922
907.561	0.0162901
907.639	0.0163440
907.717	0.0162710
907.795	0.0162787
907.873	0.0163048
907.951	0.0162673
908.030	0.0162585
908.108	0.0162295
908.186	0.0162028
908.264	0.0161429
908.342	0.0163586
908.420	0.0162049
908.498	0.0163760
908.576	0.0162625
908.655	0.0162405
908.733	0.0162994
908.811	0.0162267
908.889	0.0161732
908.967	0.0162978
909.045	0.0162527
909.123	0.0163570
909.201	0.0163055
909.280	0.0164014
909.358	0.0162167
909.436	0.0163486
909.514	0.0163850
909.592	0.0164293
909.670	0.0164299
909.748	0.0161787
909.826	0.0161932
909.905	0.0162209
909.983	0.0162021
910.061	0.0162932
910.139	0.0162933
910.217	0.0162374
910.295	0.0163099
910.373	0.0163631
910.451	0.0164043
910.530	0.0164436
910.608	0.0163915
910.686	0.0162886
910.764	0.0163028
910.842	0.0164152
910.920	0.0164348
910.998	0.0163850
911.076	0.0164458
911.155	0.0163719
911.233	0.0162806
911.311	0.0165160
911.389	0.0162151
911.467	0.0164398
911.545	0.0163307
911.623	0.0163531
911.701	0.0163853
911.780	0.0164598
911.858	0.0163799
911.936	0.0164797
912.014	0.0163422
912.092	0.0163894
912.170	0.0164454
912.248	0.0163400
912.326	0.0162434
912.405	0.0163782
912.483	0.0162257
912.561	0.0163425
912.639	0.0163073
912.717	0.0162627
912.795	0.0162959
912.873	0.0162164
912.951	0.0163807
913.030	0.0164523
913.108	0.0163762
913.186	0.0162890
913.264	0.0163534
913.342	0.0164101
913.420	0.0163905
913.498	0.0163155
913.576	0.0163661
913.655	0.0163769
913.733	0.0163887
913.811	0.0162612
913.889	0.0163101
913.967	0.0162142
914.045	0.0162466
914.123	0.0162366
914.201	0.0162894
914.280	0.0162849
914.358	0.0164852
914.436	0.0163898
914.514	0.0163033
914.592	0.0163490
914.670	0.0162934
914.748	0.0163259
914.826	0.0163300
914.905	0.0162180
914.983	0.0163007
915.061	0.0164423
915.139	0.0163134
915.217	0.0162737
915.295	0.0163649
915.373	0.0162305
915.451	0.0162741
915.530	0.0162991
915.608	0.0163287
915.686	0.0163806
915.764	0.0162581
915.842	0.0162994
915.920	0.0163250
915.998	0.0162543
916.076	0.0162715
916.155	0.0162740
916.233	0.0162836
916.311	0.0162842
916.389	0.0162012
916.467	0.0162821
916.545	0.0162563
916.623	0.0162038
916.701	0.0161655
916.780	0.0162321
916.858	0.0163017
916.936	0.0163380
917.014	0.0161668
917.092	0.0161160
917.170	0.0162710
917.248	0.0163173
917.326	0.0161982
917.405	0.0164253
917.483	0.0163450
917.561	0.0163152
917.639	0.0163770
917.717	0.0162875
917.795	0.0162473
917.873	0.0162463
917.951	0.0161163
918.030	0.0162997
918.108	0.0163787
918.186	0.0162679
918.264	0.0163564
918.342	0.0162877
918.420	0.0162431
918.498	0.0164448
918.576	0.0162995
918.655	0.0162061
918.733	0.0162210
918.811	0.0162057
918.889	0.0163032
918.967	0.0162842
919.045	0.0162877
919.123	0.0163514
919.201	0.0162511
919.280	0.0161320
919.358	0.0162408
919.436	0.0161768
919.514	0.0163321
919.592	0.0162604
919.670	0.0162408
919.748	0.0162070
919.826	0.0162422
919.905	0.0164436
919.983	0.0161745
920.061	0.0162797
920.139	0.0162067
920.217	0.0162437
920.295	0.0162582
920.373	0.0162251
920.451	0.0162817
920.530	0.0162606
920.608	0.0161729
920.686	0.0161685
920.764	0.0162329
920.842	0.0163166
920.920	0.0162364
920.998	0.0162703
921.076	0.0163277
921.155	0.0163385
921.233	0.0162817
921.311	0.0164257
921.389	0.0163603
921.467	0.0163953
921.545	0.0163274
921.623	0.0163973
921.701	0.0162532
921.780	0.0163733
921.858	0.0164273
921.936	0.0163067
922.014	0.0163519
922.092	0.0165049
922.170	0.0163094
922.248	0.0162872
922.326	0.0164487
922.405	0.0163944
922.483	0.0163441
922.561	0.0163303
922.639	0.0164165
922.717	0.0164092
922.795	0.0163875
922.873	0.0164412
922.951	0.0164372
923.030	0.0163152
923.108	0.0164028
923.186	0.0164542
923.264	0.0163072
923.342	0.0162551
923.420	0.0163499
923.498	0.0163034
923.576	0.0162780
923.655	0.0163850
923.733	0.0164695
923.811	0.0162403
923.889	0.0162579
923.967	0.0163116
924.045	0.0162657
924.123	0.0164291
924.201	0.0163156
924.280	0.0161678
924.358	0.0162200
924.436	0.0162806
924.514	0.0163405
924.592	0.0163226
924.670	0.0163255
924.748	0.0163387
924.826	0.0163777
924.905	0.0162948
924.983	0.0163156
925.061	0.0163168
925.139	0.0163982
925.217	0.0163217
925.295	0.0163271
925.373	0.0163737
925.451	0.0163490
925.530	0.0162396
925.608	0.0162687
925.686	0.0162789
925.764	0.0164561
925.842	0.0162968
925.920	0.0162771
925.998	0.0162798
926.076	0.0163087
926.155	0.0164188
926.233	0.0162184
926.311	0.0163088
926.389	0.0163196
926.467	0.0164310
926.545	0.0163638
926.623	0.0161628
926.701	0.0163091
926.780	0.0164516
926.858	0.0162605
926.936	0.0163649
927.014	0.0162869
927.092	0.0164134
927.170	0.0163541
927.248	0.0163730
927.326	0.0162428
927.405	0.0162543
927.483	0.0163567
927.561	0.0163029
927.639	0.0163790
927.717	0.0163389
927.795	0.0162619
927.873	0.0163402
927.951	0.0163091
928.030	0.0162363
928.108	0.0162492
928.186	0.0162720
928.264	0.0164058
928.342	0.0163223
928.420	0.0163686
928.498	0.0163422
928.576	0.0163261
928.655	0.0163268
928.733	0.0162844
928.811	0.0161543
928.889	0.0162653
928.967	0.0164111
929.045	0.0162589
929.123	0.0163306
929.201	0.0162410
929.280	0.0162466
929.358	0.0163451
929.436	0.0163225
929.514	0.0161830
929.592	0.0162546
929.670	0.0162765
929.748	0.0164494
929.826	0.0162067
929.905	0.0161839
929.983	0.0163340
930.061	0.0163045
930.139	0.0163224
930.217	0.0163376
930.295	0.0164957
930.373	0.0164664
930.451	0.0163361
930.530	0.0163738
930.608	0.0164220
930.686	0.0163856
930.764	0.0162961
930.842	0.0165822
930.920	0.0165282
930.998	0.0162884
931.076	0.0163332
931.155	0.0164628
931.233	0.0164581
931.311	0.0164315
931.389	0.0164270
931.467	0.0163614
931.545	0.0163725
931.623	0.0164397
931.701	0.0163823
931.780	0.0164507
931.858	0.0163412
931.936	0.0163961
932.014	0.0162538
932.092	0.0163873
932.170	0.0163389
932.248	0.0163535
932.326	0.0162259
932.405	0.0162971
932.483	0.0163497
932.561	0.0163316
932.639	0.0162962
932.717	0.0162280
932.795	0.0163556
932.873	0.0163442
932.951	0.0163371
933.030	0.0162749
933.108	0.0162303
933.186	0.0164005
933.264	0.0163125
933.342	0.0162990
933.420	0.0162974
933.498	0.0162988
933.576	0.0163108
933.655	0.0162949
933.733	0.0162491
933.811	0.0163668
933.889	0.0163877
933.967	0.0163079
934.045	0.0163112
934.123	0.0162774
934.201	0.0162985
934.280	0.0164184
934.358	0.0162651
934.436	0.0162961
934.514	0.0162807
934.592	0.0162463
934.670	0.0162227
934.748	0.0162917
934.826	0.0162842
934.905	0.0161832
934.983	0.0163338
935.061	0.0163234
935.139	0.0162100
935.217	0.0163538
935.295	0.0163654
935.373	0.0161681
935.451	0.0161858
935.530	0.0161075
935.608	0.0162202
935.686	0.0161851
935.764	0.0162627
935.842	0.0161166
935.920	0.0161318
935.998	0.0162667
936.076	0.0162428
936.155	0.0162389
936.233	0.0160503
936.311	0.0160638
936.389	0.0161453
936.467	0.0162090
936.545	0.0162089
936.623	0.0162057
936.701	0.0162514
936.780	0.0162786
936.858	0.0162431
936.936	0.0162041
937.014	0.0162766
937.092	0.0163815
937.170	0.0163467
937.248	0.0163680
937.326	0.0163447
937.405	0.0162660
937.483	0.0162094
937.561	0.0162298
937.639	0.0162592
937.717	0.0163081
937.795	0.0164039
937.873	0.0162033
937.951	0.0163408
938.030	0.0163707
938.108	0.0162310
938.186	0.0164050
938.264	0.0163637
938.342	0.0161355
938.420	0.0162782
938.498	0.0164169
938.576	0.0162313
938.655	0.0161906
938.733	0.0162398
938.811	0.0163557
938.889	0.0164622
938.967	0.0162846
939.045	0.0162595
939.123	0.0162176
939.201	0.0162987
939.280	0.0165387
939.358	0.0161946
939.436	0.0162402
939.514	0.0163535
939.592	0.0163375
939.670	0.0163270
939.748	0.0163073
939.826	0.0162912
939.905	0.0163297
939.983	0.0163422
940.061	0.0163231
940.139	0.0162255
940.217	0.0163523
940.295	0.0163412
940.373	0.0162109
940.451	0.0164828
940.530	0.0163009
940.608	0.0163423
940.686	0.0163659
940.764	0.0163921
940.842	0.0163051
940.920	0.0163605
940.998	0.0163747
941.076	0.0164230
941.155	0.0165456
941.233	0.0163618
941.311	0.0164087
941.389	0.0163461
941.467	0.0164602
941.545	0.0163731
941.623	0.0163443
941.701	0.0163966
941.780	0.0164227
941.858	0.0165234
941.936	0.0164981
942.014	0.0163134
942.092	0.0162754
942.170	0.0163435
942.248	0.0163954
942.326	0.0163812
942.405	0.0163819
942.483	0.0162694
942.561	0.0162672
942.639	0.0163338
942.717	0.0163043
942.795	0.0162846
942.873	0.0163525
942.951	0.0163324
943.030	0.0163394
943.108	0.0162254
943.186	0.0162887
943.264	0.0162565
943.342	0.0162582
943.420	0.0161971
943.498	0.0161929
943.576	0.0161998
943.655	0.0162654
943.733	0.0162363
943.811	0.0163890
943.889	0.0163177
943.967	0.0161843
944.045	0.0161400
944.123	0.0161942
944.201	0.0163023
944.280	0.0163563
944.358	0.0162673
944.436	0.0162580
944.514	0.0162930
944.592	0.0163212
944.670	0.0163171
944.748	0.0164092
944.826	0.0163456
944.905	0.0163053
944.983	0.0162822
945.061	0.0163772
945.139	0.0162563
945.217	0.0163971
945.295	0.0163561
945.373	0.0164632
945.451	0.0163084
945.530	0.0163073
945.608	0.0163503
945.686	0.0163412
945.764	0.0163258
945.842	0.0162431
945.920	0.0163139
945.998	0.0163704
946.076	0.0163477
946.155	0.0164568
946.233	0.0163251
946.311	0.0163090
946.389	0.0163300
946.467	0.0164448
946.545	0.0164812
946.623	0.0162727
946.701	0.0162460
946.780	0.0163380
946.858	0.0164624
946.936	0.0163464
947.014	0.0164134
947.092	0.0163534
947.170	0.0164441
947.248	0.0163346
947.326	0.0162519
947.405	0.0163262
947.483	0.0164341
947.561	0.0165178
947.639	0.0164101
947.717	0.0163900
947.795	0.0163153
947.873	0.0164214
947.951	0.0165101
948.030	0.0163579
948.108	0.0163134
948.186	0.0163950
948.264	0.0164088
948.342	0.0162461
948.420	0.0163014
948.498	0.0163290
948.576	0.0164053
948.655	0.0162481
948.733	0.0163313
948.811	0.0164632
948.889	0.0162419
948.967	0.0163528
949.045	0.0164310
949.123	0.0163712
949.201	0.0162025
949.280	0.0163844
949.358	0.0164713
949.436	0.0163729
949.514	0.0164140
949.592	0.0163153
949.670	0.0163126
949.748	0.0164091
949.826	0.0163660
949.905	0.0164050
949.983	0.0163208
950.061	0.0164275
950.139	0.0163615
950.217	0.0163610
950.295	0.0163737
950.373	0.0163592
950.451	0.0164054
950.530	0.0163826
950.608	0.0163064
950.686	0.0163818
950.764	0.0164379
950.842	0.0165171
950.920	0.0163726
950.998	0.0164812
951.076	0.0164208
951.155	0.0164782
951.233	0.0164399
951.311	0.0163814
951.389	0.0163624
951.467	0.0163983
951.545	0.0165606
951.623	0.0164738
951.701	0.0164198
951.780	0.0164591
951.858	0.0164702
951.936	0.0164617
952.014	0.0164660
952.092	0.0163262
952.170	0.0166048
952.248	0.0164684
952.326	0.0163132
952.405	0.0163321
952.483	0.0162847
952.561	0.0161829
952.639	0.0164529
952.717	0.0163378
952.795	0.0163939
952.873	0.0163708
952.951	0.0162307
953.030	0.0163926
953.108	0.0164220
953.186	0.0163362
953.264	0.0162181
953.342	0.0162666
953.420	0.0162982
953.498	0.0163046
953.576	0.0163380
953.655	0.0164640
953.733	0.0163170
953.811	0.0163547
953.889	0.0164455
953.967	0.0164635
954.045	0.0162956
954.123	0.0164583
954.201	0.0164583
954.280	0.0163065
954.358	0.0164458
954.436	0.0163212
954.514	0.0164247
954.592	0.0163196
954.670	0.0162617
954.748	0.0163287
954.826	0.0164562
954.905	0.0163953
954.983	0.0163750
955.061	0.0163576
955.139	0.0163755
955.217	0.0163963
955.295	0.0164134
955.373	0.0164116
955.451	0.0165693
955.530	0.0164130
955.608	0.0163889
955.686	0.0164053
955.764	0.0164690
955.842	0.0164419
955.920	0.0163462
955.998	0.0163891
956.076	0.0164053
956.155	0.0163477
956.233	0.0164324
956.311	0.0162650
956.389	0.0163336
956.467	0.0163614
956.545	0.0165765
956.623	0.0164636
956.701	0.0165401
956.780	0.0163044
956.858	0.0164309
956.936	0.0165382
957.014	0.0165204
957.092	0.0165010
957.170	0.0165314
957.248	0.0164212
957.326	0.0165240
957.405	0.0165699
957.483	0.0163864
957.561	0.0163464
957.639	0.0165202
957.717	0.0164963
957.795	0.0165942
957.873	0.0164481
957.951	0.0163697
958.030	0.0163770
958.108	0.0163716
958.186	0.0163792
958.264	0.0163999
958.342	0.0165197
958.420	0.0163712
958.498	0.0163731
958.576	0.0163793
958.655	0.0164315
958.733	0.0163233
958.811	0.0161956
958.889	0.0163107
958.967	0.0163519
959.045	0.0163897
959.123	0.0163354
959.201	0.0162742
959.280	0.0163108
959.358	0.0162663
959.436	0.0163625
959.514	0.0162412
959.592	0.0162830
959.670	0.0163546
959.748	0.0163641
959.826	0.0163620
959.905	0.0164014
