05/17/2022	16:34:48	Ver.	4.1	UNKNOWN
Optical Delay	639.982744	Delta X		0.078125	Sweeps	1	Scan Rate	0/0
Coordinates	Axis 1	NaN	Axis 2	NaN	Axis 3	NaN	Axis 4	NaN	Axis 5	NaN	Axis 6	0.000000
TX Power	0.000000	RX Power	0.000000

639.983	0.0153851
640.061	0.0153520
640.139	0.0154378
640.217	0.0154501
640.295	0.0154483
640.373	0.0154578
640.451	0.0154723
640.530	0.0155790
640.608	0.0154978
640.686	0.0154971
640.764	0.0154650
640.842	0.0154514
640.920	0.0154494
640.998	0.0153745
641.076	0.0153748
641.155	0.0154319
641.233	0.0156011
641.311	0.0154282
641.389	0.0154563
641.467	0.0154356
641.545	0.0154106
641.623	0.0153562
641.701	0.0153324
641.780	0.0154960
641.858	0.0154220
641.936	0.0153433
642.014	0.0154234
642.092	0.0154391
642.170	0.0154770
642.248	0.0154992
642.326	0.0154238
642.405	0.0154719
642.483	0.0153988
642.561	0.0153930
642.639	0.0153816
642.717	0.0153883
642.795	0.0154540
642.873	0.0154197
642.951	0.0155346
643.030	0.0153803
643.108	0.0153315
643.186	0.0153447
643.264	0.0154040
643.342	0.0154955
643.420	0.0153999
643.498	0.0153189
643.576	0.0154811
643.655	0.0155421
643.733	0.0153046
643.811	0.0154414
643.889	0.0152741
643.967	0.0154942
644.045	0.0153596
644.123	0.0154179
644.201	0.0153711
644.280	0.0154280
644.358	0.0154766
644.436	0.0153381
644.514	0.0153843
644.592	0.0153671
644.670	0.0154917
644.748	0.0153719
644.826	0.0153378
644.905	0.0154186
644.983	0.0154387
645.061	0.0153002
645.139	0.0154501
645.217	0.0153815
645.295	0.0154409
645.373	0.0153916
645.451	0.0153822
645.530	0.0153171
645.608	0.0154726
645.686	0.0155777
645.764	0.0154592
645.842	0.0152488
645.920	0.0154044
645.998	0.0154018
646.076	0.0153763
646.155	0.0154004
646.233	0.0153622
646.311	0.0153868
646.389	0.0154819
646.467	0.0153341
646.545	0.0153735
646.623	0.0155070
646.701	0.0152503
646.780	0.0152043
646.858	0.0153151
646.936	0.0153658
647.014	0.0153290
647.092	0.0153938
647.170	0.0154016
647.248	0.0153305
647.326	0.0153474
647.405	0.0154271
647.483	0.0153211
647.561	0.0152490
647.639	0.0154306
647.717	0.0152984
647.795	0.0154366
647.873	0.0153987
647.951	0.0151730
648.030	0.0154242
648.108	0.0153964
648.186	0.0153579
648.264	0.0154370
648.342	0.0153983
648.420	0.0154625
648.498	0.0153150
648.576	0.0153207
648.655	0.0154967
648.733	0.0153851
648.811	0.0153931
648.889	0.0153773
648.967	0.0154007
649.045	0.0155367
649.123	0.0153667
649.201	0.0153732
649.280	0.0152712
649.358	0.0153313
649.436	0.0154200
649.514	0.0156074
649.592	0.0155337
649.670	0.0154556
649.748	0.0152728
649.826	0.0155502
649.905	0.0152512
649.983	0.0153061
650.061	0.0154966
650.139	0.0154436
650.217	0.0154105
650.295	0.0154144
650.373	0.0154435
650.451	0.0154520
650.530	0.0153922
650.608	0.0153590
650.686	0.0153632
650.764	0.0155177
650.842	0.0153557
650.920	0.0153918
650.998	0.0154466
651.076	0.0154536
651.155	0.0153686
651.233	0.0153607
651.311	0.0153888
651.389	0.0153500
651.467	0.0155099
651.545	0.0153794
651.623	0.0153929
651.701	0.0153863
651.780	0.0154277
651.858	0.0154301
651.936	0.0153839
652.014	0.0153929
652.092	0.0153014
652.170	0.0154466
652.248	0.0153112
652.326	0.0153365
652.405	0.0154060
652.483	0.0153665
652.561	0.0154154
652.639	0.0154248
652.717	0.0154259
652.795	0.0154348
652.873	0.0152573
652.951	0.0153947
653.030	0.0154065
653.108	0.0153072
653.186	0.0153432
653.264	0.0153846
653.342	0.0153204
653.420	0.0154037
653.498	0.0153995
653.576	0.0153017
653.655	0.0154198
653.733	0.0154518
653.811	0.0154855
653.889	0.0154234
653.967	0.0154008
654.045	0.0154626
654.123	0.0154544
654.201	0.0154389
654.280	0.0153430
654.358	0.0153892
654.436	0.0154687
654.514	0.0155091
654.592	0.0154247
654.670	0.0153813
654.748	0.0153294
654.826	0.0154627
654.905	0.0154135
654.983	0.0153621
655.061	0.0155635
655.139	0.0154377
655.217	0.0153461
655.295	0.0153535
655.373	0.0154321
655.451	0.0154364
655.530	0.0154205
655.608	0.0155681
655.686	0.0154645
655.764	0.0153622
655.842	0.0153085
655.920	0.0153383
655.998	0.0154977
656.076	0.0154931
656.155	0.0154435
656.233	0.0153802
656.311	0.0152866
656.389	0.0153495
656.467	0.0154774
656.545	0.0155042
656.623	0.0155293
656.701	0.0154121
656.780	0.0152393
656.858	0.0153522
656.936	0.0152955
657.014	0.0154746
657.092	0.0154418
657.170	0.0152608
657.248	0.0153928
657.326	0.0154081
657.405	0.0152778
657.483	0.0153163
657.561	0.0152457
657.639	0.0154230
657.717	0.0153867
657.795	0.0152728
657.873	0.0153466
657.951	0.0155684
658.030	0.0154629
658.108	0.0154836
658.186	0.0153985
658.264	0.0154311
658.342	0.0153814
658.420	0.0152776
658.498	0.0154677
658.576	0.0152953
658.655	0.0153943
658.733	0.0153163
658.811	0.0152917
658.889	0.0152415
658.967	0.0154985
659.045	0.0153136
659.123	0.0152303
659.201	0.0154913
659.280	0.0153839
659.358	0.0153016
659.436	0.0153313
659.514	0.0154262
659.592	0.0153260
659.670	0.0153409
659.748	0.0154600
659.826	0.0153727
659.905	0.0154089
659.983	0.0152991
660.061	0.0153580
660.139	0.0153378
660.217	0.0152965
660.295	0.0153786
660.373	0.0152111
660.451	0.0153489
660.530	0.0153883
660.608	0.0155267
660.686	0.0154166
660.764	0.0152759
660.842	0.0154154
660.920	0.0153891
660.998	0.0154467
661.076	0.0153141
661.155	0.0153625
661.233	0.0155658
661.311	0.0154356
661.389	0.0153796
661.467	0.0154176
661.545	0.0153948
661.623	0.0153243
661.701	0.0154655
661.780	0.0153918
661.858	0.0154086
661.936	0.0153684
662.014	0.0153959
662.092	0.0153543
662.170	0.0155190
662.248	0.0152073
662.326	0.0153770
662.405	0.0153308
662.483	0.0154630
662.561	0.0153687
662.639	0.0154101
662.717	0.0154152
662.795	0.0153889
662.873	0.0153370
662.951	0.0154036
663.030	0.0153752
663.108	0.0154015
663.186	0.0154471
663.264	0.0154008
663.342	0.0153742
663.420	0.0154012
663.498	0.0153489
663.576	0.0153896
663.655	0.0152615
663.733	0.0153619
663.811	0.0154047
663.889	0.0153932
663.967	0.0153236
664.045	0.0152530
664.123	0.0153204
664.201	0.0154871
664.280	0.0153294
664.358	0.0153567
664.436	0.0154066
664.514	0.0153031
664.592	0.0153507
664.670	0.0154091
664.748	0.0153550
664.826	0.0153562
664.905	0.0154018
664.983	0.0154456
665.061	0.0154646
665.139	0.0153492
665.217	0.0153368
665.295	0.0153158
665.373	0.0153520
665.451	0.0153677
665.530	0.0153872
665.608	0.0154771
665.686	0.0154443
665.764	0.0155511
665.842	0.0153043
665.920	0.0153351
665.998	0.0152866
666.076	0.0152068
666.155	0.0153894
666.233	0.0153313
666.311	0.0153455
666.389	0.0154401
666.467	0.0153157
666.545	0.0152631
666.623	0.0154194
666.701	0.0151991
666.780	0.0153387
666.858	0.0153475
666.936	0.0153731
667.014	0.0153909
667.092	0.0153114
667.170	0.0153303
667.248	0.0154073
667.326	0.0153505
667.405	0.0153577
667.483	0.0154501
667.561	0.0153020
667.639	0.0152612
667.717	0.0153693
667.795	0.0154192
667.873	0.0154982
667.951	0.0152821
668.030	0.0154347
668.108	0.0153285
668.186	0.0152688
668.264	0.0153007
668.342	0.0152724
668.420	0.0152320
668.498	0.0153684
668.576	0.0153423
668.655	0.0152990
668.733	0.0153127
668.811	0.0153812
668.889	0.0152927
668.967	0.0154106
669.045	0.0153577
669.123	0.0153874
669.201	0.0153345
669.280	0.0153761
669.358	0.0154028
669.436	0.0153196
669.514	0.0154026
669.592	0.0154591
669.670	0.0153466
669.748	0.0153762
669.826	0.0152645
669.905	0.0154585
669.983	0.0153432
670.061	0.0152379
670.139	0.0153706
670.217	0.0154741
670.295	0.0154782
670.373	0.0152734
670.451	0.0154957
670.530	0.0154127
670.608	0.0153812
670.686	0.0154275
670.764	0.0153516
670.842	0.0153680
670.920	0.0153582
670.998	0.0153680
671.076	0.0152933
671.155	0.0154279
671.233	0.0155733
671.311	0.0154993
671.389	0.0154356
671.467	0.0154189
671.545	0.0153236
671.623	0.0154313
671.701	0.0155109
671.780	0.0154961
671.858	0.0154314
671.936	0.0154850
672.014	0.0154915
672.092	0.0154851
672.170	0.0154518
672.248	0.0155801
672.326	0.0155116
672.405	0.0155225
672.483	0.0153318
672.561	0.0154292
672.639	0.0154963
672.717	0.0155008
672.795	0.0155099
672.873	0.0155186
672.951	0.0155211
673.030	0.0156139
673.108	0.0155234
673.186	0.0154501
673.264	0.0155342
673.342	0.0154061
673.420	0.0155073
673.498	0.0155303
673.576	0.0154086
673.655	0.0154404
673.733	0.0156043
673.811	0.0155200
673.889	0.0155531
673.967	0.0155016
674.045	0.0154970
674.123	0.0154858
674.201	0.0153221
674.280	0.0154408
674.358	0.0155103
674.436	0.0155220
674.514	0.0155101
674.592	0.0154794
674.670	0.0156170
674.748	0.0153975
674.826	0.0154597
674.905	0.0153928
674.983	0.0154475
675.061	0.0154123
675.139	0.0156124
675.217	0.0153942
675.295	0.0154181
675.373	0.0154062
675.451	0.0153703
675.530	0.0156020
675.608	0.0153996
675.686	0.0155444
675.764	0.0153269
675.842	0.0154347
675.920	0.0154768
675.998	0.0154600
676.076	0.0152551
676.155	0.0154687
676.233	0.0154979
676.311	0.0155497
676.389	0.0153896
676.467	0.0154124
676.545	0.0155190
676.623	0.0153737
676.701	0.0153063
676.780	0.0156116
676.858	0.0155450
676.936	0.0153696
677.014	0.0154361
677.092	0.0154397
677.170	0.0153519
677.248	0.0152641
677.326	0.0155336
677.405	0.0153307
677.483	0.0154066
677.561	0.0154265
677.639	0.0152903
677.717	0.0155654
677.795	0.0153854
677.873	0.0153582
677.951	0.0153426
678.030	0.0153471
678.108	0.0153110
678.186	0.0152604
678.264	0.0154646
678.342	0.0153569
678.420	0.0151246
678.498	0.0151702
678.576	0.0154024
678.655	0.0154095
678.733	0.0154385
678.811	0.0153055
678.889	0.0153626
678.967	0.0153867
679.045	0.0152628
679.123	0.0152876
679.201	0.0152670
679.280	0.0152377
679.358	0.0154699
679.436	0.0154638
679.514	0.0153349
679.592	0.0154270
679.670	0.0153381
679.748	0.0152819
679.826	0.0152903
679.905	0.0152261
679.983	0.0153293
680.061	0.0153298
680.139	0.0152072
680.217	0.0152339
680.295	0.0153094
680.373	0.0153251
680.451	0.0154099
680.530	0.0153348
680.608	0.0153110
680.686	0.0153511
680.764	0.0154008
680.842	0.0153391
680.920	0.0153525
680.998	0.0152380
681.076	0.0153306
681.155	0.0153809
681.233	0.0153338
681.311	0.0153387
681.389	0.0153407
681.467	0.0152226
681.545	0.0153072
681.623	0.0152831
681.701	0.0152023
681.780	0.0153935
681.858	0.0153886
681.936	0.0152995
682.014	0.0153049
682.092	0.0153297
682.170	0.0152656
682.248	0.0154044
682.326	0.0153862
682.405	0.0153743
682.483	0.0154348
682.561	0.0153453
682.639	0.0154065
682.717	0.0155324
682.795	0.0152832
682.873	0.0152859
682.951	0.0152415
683.030	0.0154548
683.108	0.0152868
683.186	0.0153518
683.264	0.0155758
683.342	0.0153017
683.420	0.0152595
683.498	0.0153693
683.576	0.0154428
683.655	0.0154367
683.733	0.0153738
683.811	0.0154470
683.889	0.0153637
683.967	0.0153420
684.045	0.0153791
684.123	0.0155090
684.201	0.0155460
684.280	0.0154018
684.358	0.0154738
684.436	0.0154407
684.514	0.0155061
684.592	0.0154498
684.670	0.0153891
684.748	0.0153725
684.826	0.0153806
684.905	0.0153467
684.983	0.0155488
685.061	0.0155072
685.139	0.0154133
685.217	0.0154308
685.295	0.0155099
685.373	0.0152174
685.451	0.0152643
685.530	0.0155871
685.608	0.0155229
685.686	0.0153440
685.764	0.0153032
685.842	0.0154012
685.920	0.0154628
685.998	0.0154597
686.076	0.0153693
686.155	0.0153533
686.233	0.0154857
686.311	0.0154286
686.389	0.0153914
686.467	0.0153526
686.545	0.0152777
686.623	0.0153158
686.701	0.0152943
686.780	0.0154299
686.858	0.0154088
686.936	0.0153274
687.014	0.0154501
687.092	0.0153926
687.170	0.0153403
687.248	0.0154809
687.326	0.0157137
687.405	0.0155597
687.483	0.0154555
687.561	0.0155385
687.639	0.0153812
687.717	0.0153626
687.795	0.0153845
687.873	0.0152814
687.951	0.0152785
688.030	0.0152036
688.108	0.0150681
688.186	0.0151601
688.264	0.0149776
688.342	0.0149848
688.420	0.0149424
688.498	0.0150877
688.576	0.0151575
688.655	0.0154395
688.733	0.0154675
688.811	0.0156038
688.889	0.0158236
688.967	0.0160116
689.045	0.0162718
689.123	0.0163027
689.201	0.0164832
689.280	0.0165501
689.358	0.0164835
689.436	0.0163674
689.514	0.0161959
689.592	0.0161829
689.670	0.0160205
689.748	0.0157568
689.826	0.0155357
689.905	0.0153334
689.983	0.0150826
690.061	0.0147070
690.139	0.0144508
690.217	0.0142506
690.295	0.0138678
690.373	0.0137760
690.451	0.0136071
690.530	0.0136434
690.608	0.0136175
690.686	0.0137919
690.764	0.0138712
690.842	0.0140751
690.920	0.0144151
690.998	0.0147208
691.076	0.0150884
691.155	0.0154225
691.233	0.0158345
691.311	0.0163657
691.389	0.0167738
691.467	0.0171339
691.545	0.0175786
691.623	0.0178896
691.701	0.0180331
691.780	0.0180399
691.858	0.0180824
691.936	0.0179606
692.014	0.0176971
692.092	0.0174022
692.170	0.0168745
692.248	0.0165071
692.326	0.0158442
692.405	0.0150494
692.483	0.0147112
692.561	0.0141207
692.639	0.0136430
692.717	0.0129755
692.795	0.0126746
692.873	0.0125343
692.951	0.0123516
693.030	0.0122285
693.108	0.0123246
693.186	0.0124931
693.264	0.0128416
693.342	0.0132398
693.420	0.0137203
693.498	0.0141740
693.576	0.0146719
693.655	0.0153445
693.733	0.0158515
693.811	0.0164104
693.889	0.0170766
693.967	0.0173863
694.045	0.0177722
694.123	0.0180899
694.201	0.0181274
694.280	0.0180293
694.358	0.0178548
694.436	0.0177440
694.514	0.0174852
694.592	0.0169902
694.670	0.0166460
694.748	0.0161703
694.826	0.0156529
694.905	0.0154288
694.983	0.0150210
695.061	0.0146575
695.139	0.0145049
695.217	0.0140491
695.295	0.0140894
695.373	0.0139579
695.451	0.0139250
695.530	0.0139600
695.608	0.0140228
695.686	0.0141496
695.764	0.0144372
695.842	0.0144351
695.920	0.0145769
695.998	0.0150062
696.076	0.0152901
696.155	0.0155579
696.233	0.0158420
696.311	0.0159536
696.389	0.0160524
696.467	0.0162780
696.545	0.0161358
696.623	0.0159412
696.701	0.0160726
696.780	0.0157982
696.858	0.0155740
696.936	0.0154591
697.014	0.0150982
697.092	0.0150973
697.170	0.0148233
697.248	0.0146170
697.326	0.0145518
697.405	0.0145051
697.483	0.0144442
697.561	0.0144133
697.639	0.0145133
697.717	0.0147813
697.795	0.0149670
697.873	0.0150813
697.951	0.0153531
698.030	0.0155185
698.108	0.0158823
698.186	0.0159872
698.264	0.0161532
698.342	0.0163190
698.420	0.0164490
698.498	0.0165978
698.576	0.0166627
698.655	0.0166377
698.733	0.0165134
698.811	0.0164610
698.889	0.0164130
698.967	0.0162363
699.045	0.0161529
699.123	0.0159753
699.201	0.0159846
699.280	0.0159304
699.358	0.0155573
699.436	0.0154723
699.514	0.0154084
699.592	0.0151313
699.670	0.0149042
699.748	0.0147894
699.826	0.0149473
699.905	0.0147526
699.983	0.0145103
700.061	0.0145953
700.139	0.0145968
700.217	0.0147025
700.295	0.0148803
700.373	0.0148631
700.451	0.0149519
700.530	0.0150908
700.608	0.0151986
700.686	0.0154532
700.764	0.0153897
700.842	0.0154683
700.920	0.0155792
700.998	0.0155743
701.076	0.0155880
701.155	0.0154559
701.233	0.0153867
701.311	0.0152820
701.389	0.0151907
701.467	0.0150326
701.545	0.0149294
701.623	0.0149313
701.701	0.0149201
701.780	0.0148772
701.858	0.0149403
701.936	0.0150111
702.014	0.0149971
702.092	0.0149966
702.170	0.0150525
702.248	0.0152425
702.326	0.0154250
702.405	0.0154317
702.483	0.0155852
702.561	0.0156349
702.639	0.0159036
702.717	0.0158880
702.795	0.0161033
702.873	0.0162716
702.951	0.0163994
703.030	0.0163670
703.108	0.0162706
703.186	0.0162619
703.264	0.0163052
703.342	0.0163079
703.420	0.0160696
703.498	0.0158759
703.576	0.0157307
703.655	0.0155390
703.733	0.0152143
703.811	0.0150685
703.889	0.0149416
703.967	0.0148303
704.045	0.0145219
704.123	0.0146342
704.201	0.0147838
704.280	0.0147240
704.358	0.0148426
704.436	0.0150777
704.514	0.0149364
704.592	0.0151755
704.670	0.0154027
704.748	0.0155494
704.826	0.0157243
704.905	0.0158970
704.983	0.0159343
705.061	0.0159115
705.139	0.0159764
705.217	0.0160593
705.295	0.0161751
705.373	0.0161526
705.451	0.0161065
705.530	0.0160701
705.608	0.0161295
705.686	0.0158914
705.764	0.0159039
705.842	0.0155373
705.920	0.0151590
705.998	0.0149507
706.076	0.0146098
706.155	0.0144462
706.233	0.0144234
706.311	0.0141853
706.389	0.0141493
706.467	0.0141886
706.545	0.0142118
706.623	0.0144344
706.701	0.0146083
706.780	0.0148141
706.858	0.0149976
706.936	0.0151787
707.014	0.0153823
707.092	0.0155434
707.170	0.0158341
707.248	0.0159464
707.326	0.0159743
707.405	0.0162010
707.483	0.0160938
707.561	0.0162693
707.639	0.0161962
707.717	0.0160104
707.795	0.0160336
707.873	0.0157681
707.951	0.0154861
708.030	0.0153655
708.108	0.0150262
708.186	0.0150812
708.264	0.0147694
708.342	0.0144506
708.420	0.0145689
708.498	0.0145085
708.576	0.0146459
708.655	0.0146090
708.733	0.0148351
708.811	0.0149068
708.889	0.0149039
708.967	0.0149908
709.045	0.0151490
709.123	0.0152286
709.201	0.0153407
709.280	0.0153750
709.358	0.0155999
709.436	0.0156438
709.514	0.0156326
709.592	0.0156669
709.670	0.0156670
709.748	0.0158585
709.826	0.0159904
709.905	0.0159876
709.983	0.0162586
710.061	0.0160861
710.139	0.0161130
710.217	0.0161171
710.295	0.0161752
710.373	0.0160892
710.451	0.0160707
710.530	0.0159220
710.608	0.0157764
710.686	0.0157603
710.764	0.0156171
710.842	0.0155606
710.920	0.0155479
710.998	0.0153187
711.076	0.0151469
711.155	0.0151887
711.233	0.0152376
711.311	0.0150883
711.389	0.0149635
711.467	0.0149577
711.545	0.0151031
711.623	0.0150223
711.701	0.0150387
711.780	0.0152211
711.858	0.0154554
711.936	0.0154142
712.014	0.0155278
712.092	0.0157881
712.170	0.0157740
712.248	0.0158032
712.326	0.0159275
712.405	0.0160387
712.483	0.0158578
712.561	0.0158578
712.639	0.0157407
712.717	0.0155981
712.795	0.0155902
712.873	0.0154520
712.951	0.0152998
713.030	0.0151540
713.108	0.0150754
713.186	0.0150608
713.264	0.0150439
713.342	0.0148254
713.420	0.0148911
713.498	0.0148902
713.576	0.0148681
713.655	0.0151021
713.733	0.0150336
713.811	0.0150803
713.889	0.0151619
713.967	0.0153239
714.045	0.0152345
714.123	0.0153001
714.201	0.0153249
714.280	0.0154847
714.358	0.0156503
714.436	0.0155997
714.514	0.0155776
714.592	0.0156388
714.670	0.0158503
714.748	0.0157316
714.826	0.0157781
714.905	0.0156217
714.983	0.0155104
715.061	0.0155463
715.139	0.0153720
715.217	0.0150381
715.295	0.0150594
715.373	0.0150539
715.451	0.0149770
715.530	0.0149155
715.608	0.0148010
715.686	0.0147903
715.764	0.0147897
715.842	0.0148196
715.920	0.0148485
715.998	0.0148443
716.076	0.0147200
716.155	0.0146960
716.233	0.0148948
716.311	0.0148660
716.389	0.0148232
716.467	0.0148764
716.545	0.0148376
716.623	0.0149605
716.701	0.0151058
716.780	0.0150492
716.858	0.0152567
716.936	0.0153347
717.014	0.0153125
717.092	0.0155564
717.170	0.0155196
717.248	0.0155850
717.326	0.0156738
717.405	0.0155846
717.483	0.0156429
717.561	0.0157831
717.639	0.0158186
717.717	0.0155988
717.795	0.0156316
717.873	0.0156311
717.951	0.0154109
718.030	0.0152156
718.108	0.0150882
718.186	0.0150385
718.264	0.0151246
718.342	0.0149261
718.420	0.0148103
718.498	0.0149574
718.576	0.0150814
718.655	0.0150629
718.733	0.0150178
718.811	0.0153030
718.889	0.0155753
718.967	0.0157742
719.045	0.0158854
719.123	0.0159879
719.201	0.0160317
719.280	0.0162535
719.358	0.0163332
719.436	0.0162676
719.514	0.0162731
719.592	0.0160066
719.670	0.0161913
719.748	0.0160925
719.826	0.0160121
719.905	0.0157786
719.983	0.0155991
720.061	0.0154786
720.139	0.0154619
720.217	0.0154184
720.295	0.0154275
720.373	0.0153582
720.451	0.0153552
720.530	0.0152879
720.608	0.0151676
720.686	0.0152270
720.764	0.0153889
720.842	0.0153457
720.920	0.0151240
720.998	0.0152056
721.076	0.0151286
721.155	0.0151669
721.233	0.0150787
721.311	0.0150401
721.389	0.0149068
721.467	0.0150237
721.545	0.0151168
721.623	0.0151958
721.701	0.0152354
721.780	0.0153141
721.858	0.0154927
721.936	0.0155922
722.014	0.0156464
722.092	0.0157573
722.170	0.0158234
722.248	0.0157684
722.326	0.0157185
722.405	0.0155997
722.483	0.0154941
722.561	0.0153661
722.639	0.0151058
722.717	0.0149190
722.795	0.0146925
722.873	0.0147374
722.951	0.0144095
723.030	0.0145585
723.108	0.0145150
723.186	0.0146973
723.264	0.0146604
723.342	0.0146746
723.420	0.0148074
723.498	0.0149222
723.576	0.0152282
723.655	0.0153918
723.733	0.0154843
723.811	0.0154732
723.889	0.0157812
723.967	0.0158768
724.045	0.0158619
724.123	0.0158127
724.201	0.0158857
724.280	0.0160642
724.358	0.0159158
724.436	0.0160062
724.514	0.0160886
724.592	0.0158385
724.670	0.0158109
724.748	0.0156753
724.826	0.0156957
724.905	0.0154405
724.983	0.0154218
725.061	0.0152991
725.139	0.0153352
725.217	0.0151580
725.295	0.0149969
725.373	0.0152155
725.451	0.0152379
725.530	0.0151839
725.608	0.0151914
725.686	0.0151492
725.764	0.0150233
725.842	0.0151971
725.920	0.0153047
725.998	0.0152778
726.076	0.0153405
726.155	0.0152792
726.233	0.0151600
726.311	0.0153249
726.389	0.0154250
726.467	0.0152097
726.545	0.0153559
726.623	0.0153585
726.701	0.0153332
726.780	0.0154085
726.858	0.0152480
726.936	0.0152654
727.014	0.0151359
727.092	0.0151238
727.170	0.0151180
727.248	0.0149815
727.326	0.0150796
727.405	0.0150822
727.483	0.0150358
727.561	0.0152806
727.639	0.0152505
727.717	0.0152589
727.795	0.0153506
727.873	0.0154723
727.951	0.0153360
728.030	0.0152363
728.108	0.0153720
728.186	0.0154212
728.264	0.0152450
728.342	0.0153820
728.420	0.0153333
728.498	0.0153382
728.576	0.0154610
728.655	0.0154006
728.733	0.0153710
728.811	0.0155207
728.889	0.0154206
728.967	0.0155406
729.045	0.0154380
729.123	0.0156453
729.201	0.0157332
729.280	0.0157508
729.358	0.0157146
729.436	0.0157381
729.514	0.0158726
729.592	0.0161388
729.670	0.0159679
729.748	0.0159375
729.826	0.0159193
729.905	0.0160170
729.983	0.0160716
730.061	0.0159151
730.139	0.0158047
730.217	0.0156712
730.295	0.0153863
730.373	0.0153176
730.451	0.0153710
730.530	0.0152837
730.608	0.0151637
730.686	0.0151519
730.764	0.0151794
730.842	0.0152383
730.920	0.0154843
730.998	0.0153820
731.076	0.0154230
731.155	0.0152959
731.233	0.0154881
731.311	0.0153940
731.389	0.0155032
731.467	0.0153901
731.545	0.0152328
731.623	0.0151469
731.701	0.0151584
731.780	0.0151695
731.858	0.0151118
731.936	0.0152065
732.014	0.0150999
732.092	0.0151684
732.170	0.0151243
732.248	0.0151200
732.326	0.0151293
732.405	0.0151403
732.483	0.0152361
732.561	0.0153685
732.639	0.0153162
732.717	0.0153749
732.795	0.0153786
732.873	0.0154714
732.951	0.0154150
733.030	0.0154681
733.108	0.0153548
733.186	0.0154475
733.264	0.0154301
733.342	0.0153204
733.420	0.0153873
733.498	0.0152296
733.576	0.0152036
733.655	0.0152575
733.733	0.0150530
733.811	0.0150848
733.889	0.0150358
733.967	0.0149544
734.045	0.0152058
734.123	0.0152679
734.201	0.0152522
734.280	0.0153857
734.358	0.0155281
734.436	0.0154685
734.514	0.0155266
734.592	0.0157832
734.670	0.0158298
734.748	0.0158164
734.826	0.0157221
734.905	0.0159541
734.983	0.0156586
735.061	0.0158652
735.139	0.0157002
735.217	0.0156898
735.295	0.0157525
735.373	0.0156982
735.451	0.0156433
735.530	0.0155750
735.608	0.0155437
735.686	0.0156166
735.764	0.0155795
735.842	0.0155558
735.920	0.0155477
735.998	0.0155189
736.076	0.0153637
736.155	0.0154894
736.233	0.0154611
736.311	0.0155332
736.389	0.0154294
736.467	0.0154187
736.545	0.0154581
736.623	0.0154820
736.701	0.0154533
736.780	0.0154227
736.858	0.0154668
736.936	0.0154179
737.014	0.0153312
737.092	0.0152975
737.170	0.0154124
737.248	0.0153387
737.326	0.0153209
737.405	0.0153619
737.483	0.0153448
737.561	0.0154510
737.639	0.0154437
737.717	0.0154947
737.795	0.0155576
737.873	0.0155653
737.951	0.0154854
738.030	0.0155799
738.108	0.0154855
738.186	0.0153410
738.264	0.0154895
738.342	0.0152748
738.420	0.0152999
738.498	0.0152132
738.576	0.0152328
738.655	0.0151470
738.733	0.0150648
738.811	0.0148920
738.889	0.0150903
738.967	0.0149670
739.045	0.0147901
739.123	0.0150188
739.201	0.0151044
739.280	0.0151069
739.358	0.0150636
739.436	0.0151028
739.514	0.0151659
739.592	0.0154217
739.670	0.0154539
739.748	0.0153824
739.826	0.0154915
739.905	0.0154125
739.983	0.0156179
740.061	0.0155935
740.139	0.0155892
740.217	0.0156080
740.295	0.0155692
740.373	0.0156387
740.451	0.0155679
740.530	0.0155685
740.608	0.0154219
740.686	0.0153444
740.764	0.0154260
740.842	0.0153499
740.920	0.0153155
740.998	0.0153462
741.076	0.0153485
741.155	0.0153912
741.233	0.0151815
741.311	0.0152957
741.389	0.0153474
741.467	0.0152359
741.545	0.0153635
741.623	0.0153606
741.701	0.0154683
741.780	0.0153682
741.858	0.0152448
741.936	0.0153352
742.014	0.0154226
742.092	0.0153224
742.170	0.0152621
742.248	0.0153229
742.326	0.0154576
742.405	0.0154626
742.483	0.0155207
742.561	0.0154648
742.639	0.0153490
742.717	0.0153564
742.795	0.0153875
742.873	0.0154290
742.951	0.0154744
743.030	0.0154023
743.108	0.0155231
743.186	0.0154200
743.264	0.0154781
743.342	0.0154893
743.420	0.0153608
743.498	0.0154172
743.576	0.0156039
743.655	0.0155576
743.733	0.0156107
743.811	0.0157467
743.889	0.0154954
743.967	0.0156216
744.045	0.0156556
744.123	0.0155981
744.201	0.0156654
744.280	0.0155057
744.358	0.0153004
744.436	0.0154923
744.514	0.0152404
744.592	0.0152744
744.670	0.0152169
744.748	0.0151798
744.826	0.0150868
744.905	0.0151028
744.983	0.0150240
745.061	0.0149500
745.139	0.0149097
745.217	0.0149892
745.295	0.0149473
745.373	0.0149724
745.451	0.0152795
745.530	0.0152535
745.608	0.0151118
745.686	0.0152340
745.764	0.0153276
745.842	0.0153274
745.920	0.0153186
745.998	0.0155725
746.076	0.0155120
746.155	0.0155074
746.233	0.0156071
746.311	0.0155070
746.389	0.0154127
746.467	0.0155333
746.545	0.0153103
746.623	0.0153650
746.701	0.0154970
746.780	0.0153050
746.858	0.0152545
746.936	0.0153874
747.014	0.0152613
747.092	0.0152221
747.170	0.0154192
747.248	0.0154448
747.326	0.0155182
747.405	0.0154640
747.483	0.0154480
747.561	0.0154685
747.639	0.0154989
747.717	0.0155063
747.795	0.0155539
747.873	0.0154593
747.951	0.0155233
748.030	0.0155453
748.108	0.0154306
748.186	0.0154897
748.264	0.0155069
748.342	0.0154152
748.420	0.0155090
748.498	0.0154322
748.576	0.0154746
748.655	0.0153545
748.733	0.0152862
748.811	0.0152558
748.889	0.0152037
748.967	0.0153690
749.045	0.0153272
749.123	0.0153139
749.201	0.0153749
749.280	0.0154543
749.358	0.0154324
749.436	0.0154929
749.514	0.0155742
749.592	0.0155772
749.670	0.0154655
749.748	0.0155554
749.826	0.0156169
749.905	0.0155863
749.983	0.0156966
750.061	0.0155807
750.139	0.0155550
750.217	0.0154378
750.295	0.0154964
750.373	0.0155251
750.451	0.0156072
750.530	0.0154868
750.608	0.0153479
750.686	0.0154351
750.764	0.0154020
750.842	0.0154188
750.920	0.0155622
750.998	0.0153345
751.076	0.0153569
751.155	0.0154803
751.233	0.0153881
751.311	0.0153164
751.389	0.0153688
751.467	0.0153737
751.545	0.0153997
751.623	0.0153704
751.701	0.0152736
751.780	0.0151620
751.858	0.0151720
751.936	0.0153336
752.014	0.0152330
752.092	0.0152177
752.170	0.0154593
752.248	0.0153420
752.326	0.0154611
752.405	0.0153321
752.483	0.0153070
752.561	0.0153861
752.639	0.0154643
752.717	0.0153035
752.795	0.0153212
752.873	0.0154656
752.951	0.0153465
753.030	0.0153399
753.108	0.0153745
753.186	0.0153116
753.264	0.0153011
753.342	0.0154064
753.420	0.0154627
753.498	0.0154691
753.576	0.0154110
753.655	0.0155280
753.733	0.0155083
753.811	0.0154943
753.889	0.0154856
753.967	0.0154662
754.045	0.0155810
754.123	0.0153947
754.201	0.0154436
754.280	0.0154183
754.358	0.0152859
754.436	0.0154091
754.514	0.0153402
754.592	0.0154385
754.670	0.0154329
754.748	0.0154379
754.826	0.0153839
754.905	0.0154024
754.983	0.0154262
755.061	0.0154174
755.139	0.0154247
755.217	0.0153958
755.295	0.0153976
755.373	0.0154353
755.451	0.0155840
755.530	0.0154535
755.608	0.0154860
755.686	0.0156255
755.764	0.0156067
755.842	0.0155642
755.920	0.0156558
755.998	0.0154913
756.076	0.0153992
756.155	0.0153688
756.233	0.0154868
756.311	0.0154123
756.389	0.0153876
756.467	0.0153379
756.545	0.0153774
756.623	0.0153339
756.701	0.0151365
756.780	0.0150590
756.858	0.0152052
756.936	0.0151522
757.014	0.0151093
757.092	0.0151770
757.170	0.0152120
757.248	0.0152817
757.326	0.0152101
757.405	0.0153429
757.483	0.0153278
757.561	0.0154848
757.639	0.0154903
757.717	0.0154542
757.795	0.0155556
757.873	0.0155684
757.951	0.0156602
758.030	0.0156718
758.108	0.0155237
758.186	0.0154788
758.264	0.0155266
758.342	0.0154608
758.420	0.0154552
758.498	0.0153699
758.576	0.0154562
758.655	0.0153479
758.733	0.0154053
758.811	0.0153341
758.889	0.0152536
758.967	0.0154025
759.045	0.0154845
759.123	0.0154503
759.201	0.0154261
759.280	0.0155894
759.358	0.0155283
759.436	0.0155169
759.514	0.0155735
759.592	0.0155470
759.670	0.0155090
759.748	0.0157159
759.826	0.0155044
759.905	0.0155858
759.983	0.0156696
760.061	0.0156772
760.139	0.0155689
760.217	0.0155574
760.295	0.0157110
760.373	0.0156158
760.451	0.0156061
760.530	0.0156951
760.608	0.0155978
760.686	0.0154699
760.764	0.0155308
760.842	0.0155553
760.920	0.0156157
760.998	0.0155759
761.076	0.0155762
761.155	0.0153992
761.233	0.0153281
761.311	0.0154720
761.389	0.0152696
761.467	0.0153939
761.545	0.0154108
761.623	0.0153347
761.701	0.0153235
761.780	0.0152966
761.858	0.0152186
761.936	0.0151797
762.014	0.0151951
762.092	0.0151610
762.170	0.0152661
762.248	0.0151664
762.326	0.0150996
762.405	0.0150741
762.483	0.0151167
762.561	0.0153205
762.639	0.0152166
762.717	0.0152058
762.795	0.0152471
762.873	0.0155200
762.951	0.0153434
763.030	0.0152089
763.108	0.0154158
763.186	0.0153751
763.264	0.0153846
763.342	0.0154005
763.420	0.0154144
763.498	0.0153509
763.576	0.0153748
763.655	0.0153282
763.733	0.0155322
763.811	0.0154073
763.889	0.0152044
763.967	0.0154523
764.045	0.0154156
764.123	0.0154038
764.201	0.0154240
764.280	0.0155830
764.358	0.0154868
764.436	0.0155186
764.514	0.0154424
764.592	0.0153672
764.670	0.0154312
764.748	0.0155514
764.826	0.0154558
764.905	0.0155098
764.983	0.0154636
765.061	0.0154253
765.139	0.0153710
765.217	0.0154814
765.295	0.0155009
765.373	0.0155663
765.451	0.0154457
765.530	0.0154134
765.608	0.0155471
765.686	0.0154047
765.764	0.0155292
765.842	0.0156277
765.920	0.0155735
765.998	0.0154039
766.076	0.0155996
766.155	0.0155385
766.233	0.0153905
766.311	0.0154920
766.389	0.0154164
766.467	0.0151884
766.545	0.0152666
766.623	0.0152803
766.701	0.0152096
766.780	0.0151931
766.858	0.0150546
766.936	0.0151016
767.014	0.0149932
767.092	0.0149801
767.170	0.0149609
767.248	0.0150654
767.326	0.0150343
767.405	0.0150401
767.483	0.0151535
767.561	0.0151675
767.639	0.0150731
767.717	0.0151928
767.795	0.0153569
767.873	0.0152675
767.951	0.0151073
768.030	0.0153498
768.108	0.0153853
768.186	0.0154916
768.264	0.0154660
768.342	0.0154620
768.420	0.0155186
768.498	0.0155919
768.576	0.0154255
768.655	0.0155754
768.733	0.0154533
768.811	0.0154750
768.889	0.0154299
768.967	0.0155708
769.045	0.0155733
769.123	0.0155024
769.201	0.0156210
769.280	0.0155898
769.358	0.0155635
769.436	0.0155687
769.514	0.0154483
769.592	0.0155437
769.670	0.0154840
769.748	0.0155708
769.826	0.0156316
769.905	0.0154721
769.983	0.0155670
770.061	0.0156494
770.139	0.0155041
770.217	0.0155865
770.295	0.0154431
770.373	0.0155682
770.451	0.0156960
770.530	0.0155486
770.608	0.0156179
770.686	0.0156055
770.764	0.0155617
770.842	0.0155571
770.920	0.0155618
770.998	0.0156129
771.076	0.0154795
771.155	0.0154494
771.233	0.0154728
771.311	0.0155302
771.389	0.0154792
771.467	0.0154123
771.545	0.0154603
771.623	0.0154591
771.701	0.0155845
771.780	0.0153956
771.858	0.0154964
771.936	0.0155256
772.014	0.0154266
772.092	0.0155382
772.170	0.0154954
772.248	0.0153360
772.326	0.0152998
772.405	0.0154237
772.483	0.0155547
772.561	0.0153864
772.639	0.0153885
772.717	0.0153925
772.795	0.0153115
772.873	0.0153926
772.951	0.0154572
773.030	0.0153323
773.108	0.0154818
773.186	0.0155331
773.264	0.0155925
773.342	0.0155551
773.420	0.0154962
773.498	0.0157680
773.576	0.0156004
773.655	0.0155579
773.733	0.0154630
773.811	0.0154795
773.889	0.0155061
773.967	0.0154819
774.045	0.0152795
774.123	0.0153076
774.201	0.0152924
774.280	0.0152390
774.358	0.0150258
774.436	0.0151814
774.514	0.0151074
774.592	0.0149992
774.670	0.0151337
774.748	0.0150523
774.826	0.0150400
774.905	0.0151070
774.983	0.0150644
775.061	0.0152241
775.139	0.0152035
775.217	0.0151711
775.295	0.0151759
775.373	0.0153350
775.451	0.0154562
775.530	0.0155264
775.608	0.0152531
775.686	0.0154522
775.764	0.0155334
775.842	0.0155647
775.920	0.0153745
775.998	0.0154768
776.076	0.0155299
776.155	0.0155495
776.233	0.0154869
776.311	0.0155347
776.389	0.0155592
776.467	0.0154637
776.545	0.0154784
776.623	0.0153551
776.701	0.0154836
776.780	0.0154758
776.858	0.0154278
776.936	0.0153844
777.014	0.0153992
777.092	0.0153197
777.170	0.0154939
777.248	0.0154858
777.326	0.0154057
777.405	0.0154287
777.483	0.0154578
777.561	0.0155418
777.639	0.0154109
777.717	0.0153864
777.795	0.0154080
777.873	0.0154368
777.951	0.0154271
778.030	0.0153690
778.108	0.0153095
778.186	0.0152564
778.264	0.0154512
778.342	0.0155247
778.420	0.0154219
778.498	0.0154175
778.576	0.0153311
778.655	0.0153937
778.733	0.0153829
778.811	0.0154107
778.889	0.0153888
778.967	0.0153862
779.045	0.0154079
779.123	0.0154633
779.201	0.0153417
779.280	0.0153428
779.358	0.0153746
779.436	0.0155275
779.514	0.0153681
779.592	0.0152956
779.670	0.0153746
779.748	0.0152230
779.826	0.0152624
779.905	0.0152551
779.983	0.0152148
780.061	0.0153011
780.139	0.0151479
780.217	0.0152019
780.295	0.0152481
780.373	0.0152044
780.451	0.0152115
780.530	0.0152648
780.608	0.0152995
780.686	0.0152772
780.764	0.0152715
780.842	0.0153347
780.920	0.0153798
780.998	0.0153083
781.076	0.0153791
781.155	0.0156886
781.233	0.0154958
781.311	0.0153516
781.389	0.0154922
781.467	0.0154189
781.545	0.0155534
781.623	0.0155000
781.701	0.0154320
781.780	0.0154377
781.858	0.0154752
781.936	0.0153094
782.014	0.0153860
782.092	0.0153947
782.170	0.0154588
782.248	0.0153228
782.326	0.0154441
782.405	0.0152445
782.483	0.0151820
782.561	0.0153563
782.639	0.0154017
782.717	0.0154596
782.795	0.0154446
782.873	0.0152069
782.951	0.0152984
783.030	0.0154178
783.108	0.0153699
783.186	0.0155428
783.264	0.0154704
783.342	0.0154449
783.420	0.0155328
783.498	0.0156105
783.576	0.0154765
783.655	0.0154506
783.733	0.0154922
783.811	0.0156137
783.889	0.0155712
783.967	0.0155331
784.045	0.0155704
784.123	0.0154074
784.201	0.0153687
784.280	0.0154114
784.358	0.0153551
784.436	0.0152413
784.514	0.0152184
784.592	0.0152240
784.670	0.0153526
784.748	0.0153921
784.826	0.0152496
784.905	0.0153452
784.983	0.0153490
785.061	0.0154057
785.139	0.0154203
785.217	0.0155161
785.295	0.0155828
785.373	0.0155193
785.451	0.0155382
785.530	0.0156760
785.608	0.0155209
785.686	0.0155381
785.764	0.0155723
785.842	0.0155568
785.920	0.0155399
785.998	0.0155096
786.076	0.0155224
786.155	0.0155408
786.233	0.0154214
786.311	0.0153751
786.389	0.0153434
786.467	0.0152771
786.545	0.0153358
786.623	0.0153837
786.701	0.0152528
786.780	0.0151403
786.858	0.0151848
786.936	0.0150050
787.014	0.0152113
787.092	0.0150909
787.170	0.0149457
787.248	0.0150410
787.326	0.0150512
787.405	0.0151176
787.483	0.0150916
787.561	0.0150579
787.639	0.0150442
787.717	0.0151656
787.795	0.0153146
787.873	0.0153175
787.951	0.0153989
788.030	0.0155680
788.108	0.0154949
788.186	0.0154534
788.264	0.0156574
788.342	0.0156578
788.420	0.0155098
788.498	0.0155602
788.576	0.0156301
788.655	0.0157387
788.733	0.0156103
788.811	0.0155133
788.889	0.0156067
788.967	0.0154348
789.045	0.0154765
789.123	0.0154025
789.201	0.0153242
789.280	0.0153668
789.358	0.0152002
789.436	0.0151181
789.514	0.0149927
789.592	0.0151031
789.670	0.0150061
789.748	0.0152112
789.826	0.0150605
789.905	0.0150690
789.983	0.0151405
790.061	0.0151748
790.139	0.0151395
790.217	0.0151807
790.295	0.0151842
790.373	0.0152813
790.451	0.0152529
790.530	0.0153645
790.608	0.0154822
790.686	0.0156057
790.764	0.0156490
790.842	0.0155828
790.920	0.0156709
790.998	0.0156956
791.076	0.0156303
791.155	0.0156599
791.233	0.0157486
791.311	0.0157967
791.389	0.0158350
791.467	0.0157447
791.545	0.0156068
791.623	0.0158022
791.701	0.0155759
791.780	0.0156334
791.858	0.0154891
791.936	0.0154642
792.014	0.0153486
792.092	0.0154102
792.170	0.0153172
792.248	0.0152079
792.326	0.0151872
792.405	0.0151749
792.483	0.0153159
792.561	0.0152370
792.639	0.0151973
792.717	0.0151978
792.795	0.0152155
792.873	0.0151580
792.951	0.0153011
793.030	0.0152338
793.108	0.0151358
793.186	0.0151506
793.264	0.0151952
793.342	0.0153071
793.420	0.0153217
793.498	0.0153207
793.576	0.0152746
793.655	0.0153453
793.733	0.0153543
793.811	0.0152020
793.889	0.0152448
793.967	0.0152938
794.045	0.0153506
794.123	0.0153093
794.201	0.0152589
794.280	0.0154668
794.358	0.0154114
794.436	0.0155737
794.514	0.0153597
794.592	0.0153109
794.670	0.0154466
794.748	0.0154213
794.826	0.0154523
794.905	0.0154693
794.983	0.0154951
795.061	0.0154546
795.139	0.0153526
795.217	0.0154469
795.295	0.0153351
795.373	0.0153417
795.451	0.0153977
795.530	0.0154283
795.608	0.0153580
795.686	0.0154709
795.764	0.0154105
795.842	0.0154385
795.920	0.0153403
795.998	0.0154131
796.076	0.0153133
796.155	0.0153752
796.233	0.0153662
796.311	0.0153985
796.389	0.0153548
796.467	0.0153880
796.545	0.0154421
796.623	0.0154549
796.701	0.0153862
796.780	0.0153831
796.858	0.0154810
796.936	0.0153725
797.014	0.0154594
797.092	0.0155785
797.170	0.0155424
797.248	0.0155230
797.326	0.0155576
797.405	0.0155585
797.483	0.0155138
797.561	0.0153642
797.639	0.0154643
797.717	0.0152457
797.795	0.0153400
797.873	0.0153167
797.951	0.0154230
798.030	0.0154722
798.108	0.0153720
798.186	0.0152845
798.264	0.0152357
798.342	0.0152428
798.420	0.0155513
798.498	0.0152964
798.576	0.0152997
798.655	0.0153413
798.733	0.0152593
798.811	0.0152993
798.889	0.0152116
798.967	0.0154182
799.045	0.0153767
799.123	0.0154197
799.201	0.0154675
799.280	0.0154292
799.358	0.0154417
799.436	0.0153306
799.514	0.0155749
799.592	0.0154951
799.670	0.0155123
799.748	0.0154623
799.826	0.0153669
799.905	0.0152385
799.983	0.0153625
800.061	0.0153334
800.139	0.0152479
800.217	0.0152205
800.295	0.0152289
800.373	0.0152524
800.451	0.0153188
800.530	0.0152133
800.608	0.0151443
800.686	0.0152489
800.764	0.0153068
800.842	0.0152761
800.920	0.0152442
800.998	0.0153603
801.076	0.0153638
801.155	0.0155090
801.233	0.0154368
801.311	0.0154222
801.389	0.0155175
801.467	0.0155216
801.545	0.0153446
801.623	0.0155228
801.701	0.0154311
801.780	0.0153936
801.858	0.0153588
801.936	0.0153819
802.014	0.0154057
802.092	0.0153866
802.170	0.0154556
802.248	0.0153494
802.326	0.0153576
802.405	0.0153878
802.483	0.0153114
802.561	0.0155222
802.639	0.0153568
802.717	0.0153123
802.795	0.0153429
802.873	0.0153840
802.951	0.0152643
803.030	0.0152389
803.108	0.0154350
803.186	0.0154323
803.264	0.0154375
803.342	0.0153168
803.420	0.0153371
803.498	0.0154659
803.576	0.0153535
803.655	0.0153328
803.733	0.0155624
803.811	0.0155987
803.889	0.0154978
803.967	0.0156719
804.045	0.0155912
804.123	0.0154066
804.201	0.0153986
804.280	0.0154412
804.358	0.0155109
804.436	0.0155337
804.514	0.0154551
804.592	0.0154969
804.670	0.0155379
804.748	0.0153731
804.826	0.0153712
804.905	0.0155020
804.983	0.0153333
805.061	0.0151879
805.139	0.0152791
805.217	0.0152934
805.295	0.0152971
805.373	0.0151670
805.451	0.0153871
805.530	0.0152277
805.608	0.0152421
805.686	0.0151680
805.764	0.0152866
805.842	0.0153754
805.920	0.0152620
805.998	0.0153896
806.076	0.0154002
806.155	0.0154096
806.233	0.0152204
806.311	0.0152908
806.389	0.0154462
806.467	0.0152576
806.545	0.0154022
806.623	0.0153219
806.701	0.0153604
806.780	0.0154632
806.858	0.0154128
806.936	0.0155028
807.014	0.0153632
807.092	0.0154216
807.170	0.0154874
807.248	0.0154479
807.326	0.0153305
807.405	0.0153053
807.483	0.0153298
807.561	0.0154398
807.639	0.0154044
807.717	0.0153745
807.795	0.0154757
807.873	0.0154269
807.951	0.0152294
808.030	0.0153464
808.108	0.0154053
808.186	0.0154078
808.264	0.0154173
808.342	0.0153619
808.420	0.0152888
808.498	0.0154317
808.576	0.0153461
808.655	0.0152686
808.733	0.0152731
808.811	0.0152654
808.889	0.0152172
808.967	0.0153049
809.045	0.0152884
809.123	0.0153168
809.201	0.0152284
809.280	0.0152397
809.358	0.0152457
809.436	0.0153067
809.514	0.0152887
809.592	0.0153490
809.670	0.0153361
809.748	0.0154612
809.826	0.0154625
809.905	0.0152985
809.983	0.0152818
810.061	0.0153690
810.139	0.0153532
810.217	0.0153264
810.295	0.0153854
810.373	0.0154117
810.451	0.0154856
810.530	0.0154117
810.608	0.0153040
810.686	0.0154734
810.764	0.0154144
810.842	0.0154688
810.920	0.0154397
810.998	0.0154281
811.076	0.0154186
811.155	0.0154367
811.233	0.0153503
811.311	0.0153819
811.389	0.0153892
811.467	0.0155285
811.545	0.0154703
811.623	0.0153363
811.701	0.0154842
811.780	0.0155252
811.858	0.0154463
811.936	0.0155507
812.014	0.0154716
812.092	0.0154213
812.170	0.0155755
812.248	0.0155289
812.326	0.0154788
812.405	0.0154162
812.483	0.0154687
812.561	0.0153657
812.639	0.0153216
812.717	0.0153151
812.795	0.0153149
812.873	0.0151747
812.951	0.0152909
813.030	0.0153318
813.108	0.0153360
813.186	0.0152180
813.264	0.0151187
813.342	0.0152918
813.420	0.0152869
813.498	0.0153466
813.576	0.0151276
813.655	0.0153263
813.733	0.0152656
813.811	0.0153540
813.889	0.0153880
813.967	0.0152951
814.045	0.0153536
814.123	0.0152699
814.201	0.0152960
814.280	0.0153899
814.358	0.0155042
814.436	0.0153658
814.514	0.0152165
814.592	0.0153932
814.670	0.0153487
814.748	0.0152290
814.826	0.0151926
814.905	0.0153648
814.983	0.0152589
815.061	0.0153172
815.139	0.0152434
815.217	0.0153051
815.295	0.0152442
815.373	0.0152159
815.451	0.0152935
815.530	0.0154622
815.608	0.0152680
815.686	0.0152229
815.764	0.0151989
815.842	0.0153494
815.920	0.0154656
815.998	0.0153081
816.076	0.0152300
816.155	0.0153545
816.233	0.0154890
816.311	0.0154277
816.389	0.0153659
816.467	0.0154855
816.545	0.0154483
816.623	0.0153589
816.701	0.0152760
816.780	0.0154501
816.858	0.0154761
816.936	0.0153895
817.014	0.0153831
817.092	0.0154344
817.170	0.0153763
817.248	0.0154491
817.326	0.0154525
817.405	0.0154295
817.483	0.0154254
817.561	0.0153964
817.639	0.0151428
817.717	0.0153077
817.795	0.0154356
817.873	0.0154866
817.951	0.0153604
818.030	0.0154694
818.108	0.0153333
818.186	0.0153777
818.264	0.0155499
818.342	0.0152555
818.420	0.0152840
818.498	0.0155581
818.576	0.0155093
818.655	0.0154352
818.733	0.0153917
818.811	0.0152994
818.889	0.0154130
818.967	0.0153832
819.045	0.0153511
819.123	0.0152972
819.201	0.0153017
819.280	0.0152544
819.358	0.0153268
819.436	0.0153535
819.514	0.0152081
819.592	0.0152614
819.670	0.0153772
819.748	0.0151696
819.826	0.0151096
819.905	0.0152254
819.983	0.0151203
820.061	0.0153222
820.139	0.0151865
820.217	0.0152708
820.295	0.0150911
820.373	0.0152241
820.451	0.0151510
820.530	0.0152490
820.608	0.0151905
820.686	0.0152106
820.764	0.0153102
820.842	0.0151913
820.920	0.0150993
820.998	0.0152867
821.076	0.0154903
821.155	0.0152599
821.233	0.0153409
821.311	0.0154581
821.389	0.0155213
821.467	0.0154989
821.545	0.0154810
821.623	0.0154483
821.701	0.0156123
821.780	0.0156486
821.858	0.0155752
821.936	0.0155801
822.014	0.0155385
822.092	0.0155846
822.170	0.0154201
822.248	0.0154453
822.326	0.0155273
822.405	0.0154015
822.483	0.0155014
822.561	0.0155667
822.639	0.0154443
822.717	0.0152491
822.795	0.0152681
822.873	0.0152863
822.951	0.0153363
823.030	0.0152393
823.108	0.0152016
823.186	0.0153239
823.264	0.0153876
823.342	0.0155044
823.420	0.0154494
823.498	0.0154388
823.576	0.0154876
823.655	0.0155155
823.733	0.0154566
823.811	0.0154676
823.889	0.0155194
823.967	0.0153571
824.045	0.0154128
824.123	0.0155111
824.201	0.0155177
824.280	0.0153853
824.358	0.0154328
824.436	0.0153259
824.514	0.0154563
824.592	0.0154700
824.670	0.0154184
824.748	0.0153925
824.826	0.0153868
824.905	0.0154109
824.983	0.0151321
825.061	0.0153419
825.139	0.0153343
825.217	0.0151532
825.295	0.0151847
825.373	0.0150943
825.451	0.0153108
825.530	0.0152512
825.608	0.0151063
825.686	0.0151137
825.764	0.0152174
825.842	0.0151876
825.920	0.0152117
825.998	0.0151626
826.076	0.0153484
826.155	0.0152676
826.233	0.0152827
826.311	0.0152640
826.389	0.0153838
826.467	0.0153592
826.545	0.0153790
826.623	0.0153979
826.701	0.0153408
826.780	0.0154657
826.858	0.0154452
826.936	0.0155405
827.014	0.0154810
827.092	0.0152608
827.170	0.0155423
827.248	0.0154221
827.326	0.0153408
827.405	0.0154424
827.483	0.0153761
827.561	0.0152803
827.639	0.0153671
827.717	0.0153749
827.795	0.0152910
827.873	0.0153387
827.951	0.0152576
828.030	0.0152995
828.108	0.0153917
828.186	0.0154494
828.264	0.0152493
828.342	0.0155344
828.420	0.0154096
828.498	0.0154707
828.576	0.0154809
828.655	0.0156202
828.733	0.0156625
828.811	0.0155416
828.889	0.0155235
828.967	0.0155521
829.045	0.0155122
829.123	0.0156071
829.201	0.0154663
829.280	0.0155275
829.358	0.0156739
829.436	0.0156648
829.514	0.0155576
829.592	0.0153956
829.670	0.0155731
829.748	0.0155137
829.826	0.0155843
829.905	0.0155640
829.983	0.0154292
830.061	0.0154430
830.139	0.0155231
830.217	0.0154005
830.295	0.0153265
830.373	0.0153435
830.451	0.0154947
830.530	0.0154771
830.608	0.0153250
830.686	0.0152599
830.764	0.0152982
830.842	0.0152577
830.920	0.0151599
830.998	0.0151501
831.076	0.0153067
831.155	0.0151944
831.233	0.0151733
831.311	0.0151163
831.389	0.0152180
831.467	0.0153445
831.545	0.0150322
831.623	0.0150811
831.701	0.0151485
831.780	0.0151910
831.858	0.0151306
831.936	0.0151850
832.014	0.0151391
832.092	0.0152268
832.170	0.0153077
832.248	0.0153380
832.326	0.0152078
832.405	0.0153584
832.483	0.0152929
832.561	0.0153748
832.639	0.0154052
832.717	0.0153297
832.795	0.0155055
832.873	0.0154609
832.951	0.0155152
833.030	0.0154624
833.108	0.0154250
833.186	0.0153845
833.264	0.0154898
833.342	0.0155362
833.420	0.0155104
833.498	0.0155067
833.576	0.0153860
833.655	0.0156031
833.733	0.0155048
833.811	0.0155846
833.889	0.0155372
833.967	0.0155819
834.045	0.0156820
834.123	0.0156303
834.201	0.0156054
834.280	0.0156599
834.358	0.0157369
834.436	0.0157642
834.514	0.0157160
834.592	0.0158689
834.670	0.0157880
834.748	0.0157936
834.826	0.0157948
834.905	0.0157337
834.983	0.0157594
835.061	0.0156142
835.139	0.0156351
835.217	0.0156503
835.295	0.0155703
835.373	0.0154478
835.451	0.0154160
835.530	0.0154147
835.608	0.0154832
835.686	0.0153255
835.764	0.0152441
835.842	0.0152023
835.920	0.0152542
835.998	0.0152654
836.076	0.0152396
836.155	0.0152007
836.233	0.0152958
836.311	0.0152058
836.389	0.0153030
836.467	0.0152982
836.545	0.0151843
836.623	0.0152202
836.701	0.0152545
836.780	0.0152908
836.858	0.0152551
836.936	0.0152393
837.014	0.0151835
837.092	0.0153707
837.170	0.0154192
837.248	0.0152818
837.326	0.0152017
837.405	0.0151567
837.483	0.0152542
837.561	0.0152104
837.639	0.0152283
837.717	0.0152937
837.795	0.0152309
837.873	0.0151374
837.951	0.0150647
838.030	0.0151490
838.108	0.0151968
838.186	0.0152223
838.264	0.0151883
838.342	0.0153212
838.420	0.0152781
838.498	0.0152151
838.576	0.0153297
838.655	0.0153296
838.733	0.0153117
838.811	0.0153938
838.889	0.0154915
838.967	0.0153716
839.045	0.0154189
839.123	0.0153724
839.201	0.0154285
839.280	0.0154918
839.358	0.0155054
839.436	0.0155330
839.514	0.0156893
839.592	0.0155154
839.670	0.0154637
839.748	0.0155324
839.826	0.0155401
839.905	0.0154861
839.983	0.0155589
840.061	0.0154409
840.139	0.0155739
840.217	0.0155434
840.295	0.0155254
840.373	0.0155676
840.451	0.0154466
840.530	0.0154424
840.608	0.0155122
840.686	0.0155672
840.764	0.0155761
840.842	0.0155191
840.920	0.0154267
840.998	0.0154239
841.076	0.0154488
841.155	0.0153598
841.233	0.0153797
841.311	0.0153888
841.389	0.0152341
841.467	0.0153477
841.545	0.0153201
841.623	0.0153149
841.701	0.0151578
841.780	0.0152861
841.858	0.0151815
841.936	0.0153059
842.014	0.0153040
842.092	0.0154417
842.170	0.0151978
842.248	0.0153556
842.326	0.0153963
842.405	0.0154471
842.483	0.0152502
842.561	0.0152115
842.639	0.0154443
842.717	0.0154334
842.795	0.0153885
842.873	0.0154211
842.951	0.0154935
843.030	0.0153993
843.108	0.0154215
843.186	0.0154356
843.264	0.0153960
843.342	0.0153423
843.420	0.0153779
843.498	0.0152615
843.576	0.0154040
843.655	0.0153052
843.733	0.0153343
843.811	0.0154215
843.889	0.0153271
843.967	0.0153882
844.045	0.0153253
844.123	0.0153226
844.201	0.0154094
844.280	0.0155784
844.358	0.0153845
844.436	0.0153925
844.514	0.0153999
844.592	0.0154960
844.670	0.0154377
844.748	0.0154801
844.826	0.0156090
844.905	0.0154205
844.983	0.0155666
845.061	0.0156325
845.139	0.0153962
845.217	0.0154660
845.295	0.0154854
845.373	0.0154130
845.451	0.0154547
845.530	0.0153889
845.608	0.0153505
845.686	0.0153835
845.764	0.0154231
845.842	0.0154491
845.920	0.0152930
845.998	0.0153634
846.076	0.0154550
846.155	0.0152436
846.233	0.0154678
846.311	0.0154726
846.389	0.0155412
846.467	0.0155550
846.545	0.0155731
846.623	0.0154913
846.701	0.0155290
846.780	0.0155766
846.858	0.0156021
846.936	0.0155246
847.014	0.0154616
847.092	0.0153915
847.170	0.0153501
847.248	0.0154724
847.326	0.0155555
847.405	0.0153127
847.483	0.0153465
847.561	0.0153992
847.639	0.0154696
847.717	0.0152963
847.795	0.0153165
847.873	0.0152607
847.951	0.0154102
848.030	0.0152078
848.108	0.0153796
848.186	0.0154086
848.264	0.0152899
848.342	0.0153872
848.420	0.0153959
848.498	0.0152063
848.576	0.0152311
848.655	0.0154714
848.733	0.0155221
848.811	0.0154063
848.889	0.0154012
848.967	0.0154525
849.045	0.0154107
849.123	0.0153960
849.201	0.0154781
849.280	0.0154539
849.358	0.0154869
849.436	0.0155670
849.514	0.0154778
849.592	0.0153215
849.670	0.0155877
849.748	0.0153762
849.826	0.0154638
849.905	0.0155370
849.983	0.0153938
850.061	0.0154494
850.139	0.0155196
850.217	0.0157499
850.295	0.0155865
850.373	0.0155040
850.451	0.0155309
850.530	0.0155721
850.608	0.0154418
850.686	0.0155183
850.764	0.0155630
850.842	0.0154952
850.920	0.0154247
850.998	0.0154208
851.076	0.0154127
851.155	0.0154686
851.233	0.0153552
851.311	0.0154530
851.389	0.0154099
851.467	0.0154803
851.545	0.0153534
851.623	0.0154247
851.701	0.0153768
851.780	0.0154616
851.858	0.0153164
851.936	0.0152007
852.014	0.0152246
852.092	0.0152874
852.170	0.0153078
852.248	0.0151936
852.326	0.0152670
852.405	0.0153310
852.483	0.0153386
852.561	0.0153188
852.639	0.0153057
852.717	0.0153674
852.795	0.0152792
852.873	0.0152818
852.951	0.0152455
853.030	0.0153280
853.108	0.0153251
853.186	0.0152235
853.264	0.0153669
853.342	0.0152425
853.420	0.0152193
853.498	0.0152851
853.576	0.0152986
853.655	0.0152747
853.733	0.0153957
853.811	0.0154411
853.889	0.0154927
853.967	0.0152869
854.045	0.0153962
854.123	0.0154664
854.201	0.0154857
854.280	0.0154793
854.358	0.0154880
854.436	0.0155931
854.514	0.0155352
854.592	0.0155844
854.670	0.0155166
854.748	0.0155080
854.826	0.0155885
854.905	0.0154707
854.983	0.0156493
855.061	0.0156168
855.139	0.0156399
855.217	0.0155714
855.295	0.0156621
855.373	0.0155313
855.451	0.0156339
855.530	0.0156426
855.608	0.0155763
855.686	0.0156036
855.764	0.0155849
855.842	0.0156213
855.920	0.0155544
855.998	0.0155484
856.076	0.0154139
856.155	0.0153989
856.233	0.0154324
856.311	0.0154809
856.389	0.0154150
856.467	0.0152697
856.545	0.0152161
856.623	0.0153145
856.701	0.0153246
856.780	0.0154363
856.858	0.0154070
856.936	0.0152358
857.014	0.0151958
857.092	0.0152538
857.170	0.0153550
857.248	0.0154355
857.326	0.0153718
857.405	0.0153694
857.483	0.0154117
857.561	0.0153661
857.639	0.0153434
857.717	0.0154227
857.795	0.0152296
857.873	0.0153316
857.951	0.0154202
858.030	0.0153756
858.108	0.0153284
858.186	0.0151875
858.264	0.0152751
858.342	0.0153404
858.420	0.0154013
858.498	0.0152002
858.576	0.0152554
858.655	0.0152243
858.733	0.0150813
858.811	0.0152075
858.889	0.0153170
858.967	0.0151925
859.045	0.0153171
859.123	0.0153872
859.201	0.0153837
859.280	0.0153719
859.358	0.0153267
859.436	0.0154504
859.514	0.0154712
859.592	0.0154193
859.670	0.0152603
859.748	0.0154498
859.826	0.0154662
859.905	0.0155002
859.983	0.0156658
860.061	0.0154767
860.139	0.0154299
860.217	0.0155103
860.295	0.0153706
860.373	0.0154147
860.451	0.0154536
860.530	0.0153759
860.608	0.0153948
860.686	0.0154528
860.764	0.0155252
860.842	0.0154192
860.920	0.0155287
860.998	0.0152923
861.076	0.0153464
861.155	0.0154877
861.233	0.0154973
861.311	0.0154819
861.389	0.0154887
861.467	0.0155695
861.545	0.0153881
861.623	0.0152921
861.701	0.0154440
861.780	0.0154709
861.858	0.0155530
861.936	0.0155420
862.014	0.0154389
862.092	0.0155395
862.170	0.0156290
862.248	0.0156290
862.326	0.0155152
862.405	0.0155643
862.483	0.0155396
862.561	0.0155334
862.639	0.0154031
862.717	0.0155161
862.795	0.0152638
862.873	0.0152875
862.951	0.0153471
863.030	0.0152685
863.108	0.0153162
863.186	0.0152495
863.264	0.0155228
863.342	0.0153368
863.420	0.0152647
863.498	0.0152090
863.576	0.0152534
863.655	0.0152975
863.733	0.0152386
863.811	0.0152081
863.889	0.0151776
863.967	0.0152399
864.045	0.0151309
864.123	0.0152152
864.201	0.0150956
864.280	0.0152902
864.358	0.0151701
864.436	0.0151759
864.514	0.0151075
864.592	0.0150494
864.670	0.0151305
864.748	0.0152640
864.826	0.0153163
864.905	0.0151084
864.983	0.0152358
865.061	0.0153573
865.139	0.0152216
865.217	0.0154291
865.295	0.0153683
865.373	0.0152974
865.451	0.0152829
865.530	0.0152979
865.608	0.0153165
865.686	0.0153572
865.764	0.0153398
865.842	0.0154375
865.920	0.0154687
865.998	0.0155827
866.076	0.0154307
866.155	0.0155557
866.233	0.0155854
866.311	0.0155423
866.389	0.0155280
866.467	0.0156831
866.545	0.0154546
866.623	0.0156397
866.701	0.0155370
866.780	0.0154903
866.858	0.0155090
866.936	0.0155530
867.014	0.0154493
867.092	0.0155226
867.170	0.0154640
867.248	0.0154757
867.326	0.0154992
867.405	0.0155844
867.483	0.0155628
867.561	0.0154713
867.639	0.0153561
867.717	0.0153620
867.795	0.0154404
867.873	0.0152116
867.951	0.0153405
868.030	0.0154285
868.108	0.0153969
868.186	0.0152546
868.264	0.0153171
868.342	0.0154116
868.420	0.0154252
868.498	0.0153806
868.576	0.0153767
868.655	0.0152560
868.733	0.0153691
868.811	0.0153391
868.889	0.0152988
868.967	0.0152203
869.045	0.0152877
869.123	0.0153084
869.201	0.0151977
869.280	0.0152800
869.358	0.0153024
869.436	0.0150980
869.514	0.0152969
869.592	0.0152583
869.670	0.0151949
869.748	0.0152913
869.826	0.0152740
869.905	0.0151698
869.983	0.0152574
870.061	0.0152522
870.139	0.0152618
870.217	0.0153438
870.295	0.0153509
870.373	0.0153278
870.451	0.0153903
870.530	0.0153979
870.608	0.0155297
870.686	0.0154454
870.764	0.0154417
870.842	0.0153919
870.920	0.0154203
870.998	0.0155759
871.076	0.0156174
871.155	0.0155729
871.233	0.0154547
871.311	0.0154791
871.389	0.0154433
871.467	0.0154726
871.545	0.0154440
871.623	0.0155502
871.701	0.0154344
871.780	0.0154143
871.858	0.0153400
871.936	0.0153232
872.014	0.0152971
872.092	0.0153659
872.170	0.0152355
872.248	0.0153439
872.326	0.0153080
872.405	0.0154096
872.483	0.0153519
872.561	0.0156400
872.639	0.0153900
872.717	0.0153563
872.795	0.0155027
872.873	0.0155589
872.951	0.0154189
873.030	0.0155310
873.108	0.0153865
873.186	0.0154153
873.264	0.0154398
873.342	0.0154539
873.420	0.0154151
873.498	0.0154825
873.576	0.0153207
873.655	0.0154486
873.733	0.0154031
873.811	0.0154069
873.889	0.0152997
873.967	0.0153435
874.045	0.0152015
874.123	0.0152829
874.201	0.0153235
874.280	0.0152708
874.358	0.0152180
874.436	0.0153119
874.514	0.0152578
874.592	0.0153606
874.670	0.0152649
874.748	0.0153376
874.826	0.0153841
874.905	0.0153603
874.983	0.0152864
875.061	0.0153255
875.139	0.0153150
875.217	0.0154620
875.295	0.0152802
875.373	0.0152642
875.451	0.0154960
875.530	0.0155212
875.608	0.0152791
875.686	0.0152870
875.764	0.0153758
875.842	0.0153844
875.920	0.0152734
875.998	0.0154362
876.076	0.0153977
876.155	0.0152583
876.233	0.0153473
876.311	0.0153801
876.389	0.0153039
876.467	0.0153201
876.545	0.0153608
876.623	0.0152802
876.701	0.0153825
876.780	0.0152376
876.858	0.0154234
876.936	0.0153558
877.014	0.0153387
877.092	0.0153387
877.170	0.0153106
877.248	0.0153491
877.326	0.0154579
877.405	0.0154100
877.483	0.0155087
877.561	0.0154028
877.639	0.0154591
877.717	0.0153364
877.795	0.0154761
877.873	0.0154845
877.951	0.0153218
878.030	0.0154382
878.108	0.0155358
878.186	0.0154608
878.264	0.0154401
878.342	0.0154580
878.420	0.0154574
878.498	0.0154034
878.576	0.0154018
878.655	0.0154064
878.733	0.0153588
878.811	0.0154442
878.889	0.0154058
878.967	0.0154929
879.045	0.0153548
879.123	0.0153946
879.201	0.0153800
879.280	0.0153410
879.358	0.0153352
879.436	0.0153973
879.514	0.0153728
879.592	0.0153698
879.670	0.0153265
879.748	0.0153056
879.826	0.0152251
879.905	0.0153561
879.983	0.0153850
880.061	0.0152387
880.139	0.0152520
880.217	0.0153078
880.295	0.0152825
880.373	0.0154053
880.451	0.0153056
880.530	0.0153220
880.608	0.0153574
880.686	0.0154500
880.764	0.0155527
880.842	0.0155633
880.920	0.0156931
880.998	0.0155438
881.076	0.0154978
881.155	0.0155921
881.233	0.0154997
881.311	0.0154976
881.389	0.0154353
881.467	0.0154315
881.545	0.0153248
881.623	0.0153796
881.701	0.0152499
881.780	0.0152479
881.858	0.0152266
881.936	0.0152780
882.014	0.0152031
882.092	0.0152495
882.170	0.0151624
882.248	0.0152074
882.326	0.0151964
882.405	0.0153881
882.483	0.0154051
882.561	0.0154048
882.639	0.0152541
882.717	0.0154802
882.795	0.0155502
882.873	0.0154848
882.951	0.0154522
883.030	0.0155576
883.108	0.0155011
883.186	0.0154299
883.264	0.0155821
883.342	0.0155424
883.420	0.0154450
883.498	0.0154617
883.576	0.0153345
883.655	0.0153903
883.733	0.0153640
883.811	0.0152885
883.889	0.0152264
883.967	0.0150954
884.045	0.0150940
884.123	0.0150065
884.201	0.0150698
884.280	0.0150563
884.358	0.0150386
884.436	0.0149625
884.514	0.0150452
884.592	0.0150231
884.670	0.0151180
884.748	0.0151882
884.826	0.0153101
884.905	0.0153635
884.983	0.0153416
885.061	0.0155144
885.139	0.0155976
885.217	0.0156293
885.295	0.0156950
885.373	0.0156744
885.451	0.0156996
885.530	0.0157015
885.608	0.0157041
885.686	0.0158088
885.764	0.0157319
885.842	0.0157141
885.920	0.0158497
885.998	0.0156877
886.076	0.0157630
886.155	0.0156240
886.233	0.0155685
886.311	0.0154590
886.389	0.0154819
886.467	0.0154064
886.545	0.0153484
886.623	0.0152381
886.701	0.0152168
886.780	0.0152962
886.858	0.0152137
886.936	0.0152298
887.014	0.0152152
887.092	0.0150919
887.170	0.0152857
887.248	0.0151379
887.326	0.0151967
887.405	0.0152541
887.483	0.0153184
887.561	0.0152733
887.639	0.0153189
887.717	0.0153146
887.795	0.0152000
887.873	0.0152998
887.951	0.0154276
888.030	0.0155135
888.108	0.0153277
888.186	0.0153799
888.264	0.0153581
888.342	0.0154543
888.420	0.0153948
888.498	0.0153412
888.576	0.0153081
888.655	0.0153375
888.733	0.0150900
888.811	0.0151716
888.889	0.0152374
888.967	0.0149759
889.045	0.0153705
889.123	0.0152927
889.201	0.0151915
889.280	0.0153387
889.358	0.0153406
889.436	0.0153684
889.514	0.0153601
889.592	0.0154329
889.670	0.0155820
889.748	0.0155529
889.826	0.0154370
889.905	0.0154112
889.983	0.0155228
890.061	0.0155480
890.139	0.0155013
890.217	0.0153951
890.295	0.0153816
890.373	0.0154575
890.451	0.0153618
890.530	0.0153429
890.608	0.0153985
890.686	0.0152299
890.764	0.0152104
890.842	0.0153144
890.920	0.0152120
890.998	0.0151333
891.076	0.0152347
891.155	0.0152766
891.233	0.0151734
891.311	0.0152004
891.389	0.0152070
891.467	0.0152660
891.545	0.0152641
891.623	0.0152087
891.701	0.0151714
891.780	0.0153195
891.858	0.0153429
891.936	0.0153835
892.014	0.0153445
892.092	0.0154020
892.170	0.0154205
892.248	0.0154739
892.326	0.0154871
892.405	0.0153576
892.483	0.0154686
892.561	0.0155985
892.639	0.0156643
892.717	0.0155734
892.795	0.0153889
892.873	0.0153960
892.951	0.0155499
893.030	0.0154790
893.108	0.0155325
893.186	0.0152432
893.264	0.0152698
893.342	0.0152854
893.420	0.0151308
893.498	0.0152187
893.576	0.0151353
893.655	0.0151593
893.733	0.0150865
893.811	0.0153153
893.889	0.0153989
893.967	0.0153059
894.045	0.0151758
894.123	0.0151760
894.201	0.0154498
894.280	0.0153024
894.358	0.0152972
894.436	0.0152917
894.514	0.0152220
894.592	0.0152390
894.670	0.0153492
894.748	0.0153680
894.826	0.0152499
894.905	0.0152015
894.983	0.0152922
895.061	0.0152203
895.139	0.0152374
895.217	0.0152416
895.295	0.0151993
895.373	0.0152330
895.451	0.0151701
895.530	0.0151570
895.608	0.0151614
895.686	0.0151597
895.764	0.0153133
895.842	0.0153043
895.920	0.0152174
895.998	0.0152925
896.076	0.0153262
896.155	0.0153047
896.233	0.0155958
896.311	0.0155675
896.389	0.0154017
896.467	0.0155080
896.545	0.0154469
896.623	0.0155704
896.701	0.0155858
896.780	0.0154442
896.858	0.0155758
896.936	0.0154577
897.014	0.0153847
897.092	0.0152978
897.170	0.0154018
897.248	0.0154185
897.326	0.0152962
897.405	0.0152013
897.483	0.0153072
897.561	0.0152095
897.639	0.0151873
897.717	0.0151497
897.795	0.0151558
897.873	0.0151505
897.951	0.0152741
898.030	0.0151487
898.108	0.0152112
898.186	0.0152042
898.264	0.0152159
898.342	0.0152679
898.420	0.0153538
898.498	0.0153436
898.576	0.0152625
898.655	0.0155321
898.733	0.0155116
898.811	0.0156172
898.889	0.0155134
898.967	0.0153377
899.045	0.0154845
899.123	0.0155703
899.201	0.0154603
899.280	0.0155222
899.358	0.0154556
899.436	0.0154781
899.514	0.0153629
899.592	0.0152915
899.670	0.0152406
899.748	0.0152849
899.826	0.0152348
899.905	0.0150224
899.983	0.0151347
900.061	0.0152390
900.139	0.0151248
900.217	0.0152160
900.295	0.0152242
900.373	0.0150628
900.451	0.0151312
900.530	0.0151380
900.608	0.0151233
900.686	0.0153214
900.764	0.0153890
900.842	0.0152534
900.920	0.0154019
900.998	0.0154020
901.076	0.0154723
901.155	0.0153514
901.233	0.0154839
901.311	0.0155475
901.389	0.0154575
901.467	0.0153507
901.545	0.0153801
901.623	0.0154947
901.701	0.0154491
901.780	0.0154552
901.858	0.0154431
901.936	0.0154774
902.014	0.0153274
902.092	0.0154135
902.170	0.0154111
902.248	0.0153403
902.326	0.0152000
902.405	0.0152825
902.483	0.0152685
902.561	0.0152789
902.639	0.0151939
902.717	0.0153285
902.795	0.0154436
902.873	0.0153152
902.951	0.0151742
903.030	0.0153356
903.108	0.0153262
903.186	0.0153222
903.264	0.0152992
903.342	0.0153365
903.420	0.0154372
903.498	0.0153118
903.576	0.0153394
903.655	0.0154117
903.733	0.0151869
903.811	0.0153403
903.889	0.0154546
903.967	0.0153192
904.045	0.0154240
904.123	0.0154174
904.201	0.0152885
904.280	0.0152380
904.358	0.0152201
904.436	0.0153390
904.514	0.0151934
904.592	0.0151961
904.670	0.0151766
904.748	0.0152063
904.826	0.0154198
904.905	0.0152528
904.983	0.0153139
905.061	0.0153767
905.139	0.0153570
905.217	0.0154056
905.295	0.0154806
905.373	0.0153939
905.451	0.0154538
905.530	0.0155843
905.608	0.0154083
905.686	0.0154365
905.764	0.0156301
905.842	0.0156702
905.920	0.0157710
905.998	0.0156116
906.076	0.0155536
906.155	0.0155984
906.233	0.0155820
906.311	0.0155795
906.389	0.0155846
906.467	0.0154454
906.545	0.0154498
906.623	0.0154082
906.701	0.0153617
906.780	0.0152442
906.858	0.0153285
906.936	0.0152216
907.014	0.0151001
907.092	0.0151525
907.170	0.0150117
907.248	0.0151485
907.326	0.0150567
907.405	0.0151211
907.483	0.0151128
907.561	0.0152208
907.639	0.0150806
907.717	0.0151862
907.795	0.0152215
907.873	0.0153901
907.951	0.0152698
908.030	0.0152799
908.108	0.0154097
908.186	0.0153206
908.264	0.0155090
908.342	0.0155268
908.420	0.0154491
908.498	0.0154366
908.576	0.0154861
908.655	0.0154622
908.733	0.0155428
908.811	0.0155823
908.889	0.0155235
908.967	0.0154295
909.045	0.0154395
909.123	0.0154135
909.201	0.0155106
909.280	0.0155133
909.358	0.0154222
909.436	0.0153809
909.514	0.0153224
909.592	0.0152589
909.670	0.0152895
909.748	0.0151725
909.826	0.0152025
909.905	0.0150980
909.983	0.0152421
910.061	0.0151124
910.139	0.0151488
910.217	0.0151147
910.295	0.0151281
910.373	0.0151997
910.451	0.0152175
910.530	0.0152466
910.608	0.0153841
910.686	0.0153976
910.764	0.0154330
910.842	0.0155143
910.920	0.0153632
910.998	0.0152570
911.076	0.0154309
911.155	0.0153664
911.233	0.0153209
911.311	0.0154039
911.389	0.0153746
911.467	0.0152142
911.545	0.0151633
911.623	0.0154124
911.701	0.0154163
911.780	0.0152719
911.858	0.0152773
911.936	0.0154601
912.014	0.0153681
912.092	0.0153057
912.170	0.0154481
912.248	0.0153153
912.326	0.0153656
912.405	0.0153711
912.483	0.0154365
912.561	0.0153209
912.639	0.0153277
912.717	0.0152618
912.795	0.0153973
912.873	0.0154316
912.951	0.0152947
913.030	0.0154483
913.108	0.0153881
913.186	0.0153499
913.264	0.0153697
913.342	0.0154691
913.420	0.0153658
913.498	0.0154173
913.576	0.0153417
913.655	0.0152022
913.733	0.0153728
913.811	0.0153558
913.889	0.0153972
913.967	0.0151698
914.045	0.0153404
914.123	0.0154372
914.201	0.0155211
914.280	0.0153024
914.358	0.0153321
914.436	0.0152396
914.514	0.0153384
914.592	0.0152268
914.670	0.0152287
914.748	0.0152359
914.826	0.0152595
914.905	0.0152312
914.983	0.0153347
915.061	0.0153888
915.139	0.0153355
915.217	0.0153674
915.295	0.0154573
915.373	0.0153773
915.451	0.0154753
915.530	0.0154436
915.608	0.0155363
915.686	0.0155119
915.764	0.0153344
915.842	0.0153432
915.920	0.0153787
915.998	0.0153683
916.076	0.0155243
916.155	0.0153571
916.233	0.0153352
916.311	0.0154806
916.389	0.0153953
916.467	0.0153117
916.545	0.0152444
916.623	0.0152597
916.701	0.0152831
916.780	0.0152614
916.858	0.0153000
916.936	0.0152606
917.014	0.0152853
917.092	0.0153413
917.170	0.0152629
917.248	0.0153302
917.326	0.0153074
917.405	0.0152937
917.483	0.0154154
917.561	0.0152472
917.639	0.0153286
917.717	0.0154092
917.795	0.0154256
917.873	0.0153999
917.951	0.0154489
918.030	0.0154192
918.108	0.0153538
918.186	0.0154650
918.264	0.0154341
918.342	0.0154001
918.420	0.0154972
918.498	0.0153894
918.576	0.0153653
918.655	0.0154477
918.733	0.0153004
918.811	0.0154077
918.889	0.0154649
918.967	0.0153637
919.045	0.0152947
919.123	0.0154935
919.201	0.0153714
919.280	0.0154372
919.358	0.0153869
919.436	0.0153048
919.514	0.0152530
919.592	0.0153555
919.670	0.0153769
919.748	0.0153971
919.826	0.0153583
919.905	0.0152604
919.983	0.0151772
920.061	0.0153659
920.139	0.0154904
920.217	0.0153929
920.295	0.0154908
920.373	0.0154050
920.451	0.0154617
920.530	0.0153415
920.608	0.0154295
920.686	0.0155115
920.764	0.0154130
920.842	0.0153600
920.920	0.0154985
920.998	0.0155079
921.076	0.0153403
921.155	0.0154430
921.233	0.0154494
921.311	0.0153418
921.389	0.0154086
921.467	0.0154697
921.545	0.0153284
921.623	0.0152814
921.701	0.0154314
921.780	0.0153647
921.858	0.0153560
921.936	0.0153527
922.014	0.0152892
922.092	0.0153489
922.170	0.0153555
922.248	0.0153520
922.326	0.0152546
922.405	0.0153734
922.483	0.0153129
922.561	0.0153915
922.639	0.0155502
922.717	0.0153815
922.795	0.0155298
922.873	0.0154646
922.951	0.0153766
923.030	0.0153260
923.108	0.0153471
923.186	0.0154787
923.264	0.0154544
923.342	0.0154366
923.420	0.0153708
923.498	0.0154181
923.576	0.0153693
923.655	0.0154964
923.733	0.0153088
923.811	0.0153712
923.889	0.0152602
923.967	0.0153020
924.045	0.0152426
924.123	0.0153349
924.201	0.0153239
924.280	0.0153397
924.358	0.0153601
924.436	0.0152866
924.514	0.0153117
924.592	0.0152753
924.670	0.0152851
924.748	0.0153522
924.826	0.0153014
924.905	0.0152810
924.983	0.0153431
925.061	0.0153411
925.139	0.0153924
925.217	0.0153413
925.295	0.0153500
925.373	0.0153800
925.451	0.0154161
925.530	0.0154077
925.608	0.0154469
925.686	0.0153114
925.764	0.0152677
925.842	0.0153989
925.920	0.0153051
925.998	0.0154001
926.076	0.0153326
926.155	0.0154575
926.233	0.0153506
926.311	0.0151845
926.389	0.0153632
926.467	0.0153394
926.545	0.0153300
926.623	0.0154324
926.701	0.0153330
926.780	0.0151865
926.858	0.0154584
926.936	0.0154223
927.014	0.0153615
927.092	0.0152602
927.170	0.0154176
927.248	0.0153673
927.326	0.0153133
927.405	0.0153290
927.483	0.0152977
927.561	0.0154243
927.639	0.0153246
927.717	0.0154695
927.795	0.0153606
927.873	0.0152789
927.951	0.0153717
928.030	0.0154431
928.108	0.0154176
928.186	0.0153674
928.264	0.0154271
928.342	0.0155209
928.420	0.0155686
928.498	0.0154951
928.576	0.0154668
928.655	0.0154912
928.733	0.0155452
928.811	0.0155028
928.889	0.0153915
928.967	0.0155029
929.045	0.0155762
929.123	0.0154532
929.201	0.0153420
929.280	0.0154088
929.358	0.0153293
929.436	0.0153397
929.514	0.0153763
929.592	0.0153783
929.670	0.0153635
929.748	0.0153792
929.826	0.0153506
929.905	0.0154771
929.983	0.0153388
930.061	0.0155061
930.139	0.0153206
930.217	0.0153844
930.295	0.0155487
930.373	0.0154167
930.451	0.0154836
930.530	0.0154807
930.608	0.0155699
930.686	0.0156864
930.764	0.0154958
930.842	0.0156094
930.920	0.0155077
930.998	0.0155795
931.076	0.0155872
931.155	0.0155038
931.233	0.0155948
931.311	0.0155180
931.389	0.0154443
931.467	0.0154380
931.545	0.0155072
931.623	0.0153867
931.701	0.0154185
931.780	0.0154601
931.858	0.0154914
931.936	0.0154833
932.014	0.0154560
932.092	0.0155328
932.170	0.0154638
932.248	0.0154457
932.326	0.0155151
932.405	0.0154443
932.483	0.0155148
932.561	0.0155228
932.639	0.0155489
932.717	0.0154570
932.795	0.0155224
932.873	0.0154816
932.951	0.0154448
933.030	0.0155094
933.108	0.0155151
933.186	0.0156290
933.264	0.0155189
933.342	0.0153573
933.420	0.0154118
933.498	0.0154045
933.576	0.0154348
933.655	0.0153918
933.733	0.0153809
933.811	0.0152877
933.889	0.0152182
933.967	0.0152489
934.045	0.0152903
934.123	0.0152950
934.201	0.0152275
934.280	0.0151826
934.358	0.0152356
934.436	0.0152948
934.514	0.0154333
934.592	0.0153857
934.670	0.0153928
934.748	0.0152312
934.826	0.0154392
934.905	0.0156275
934.983	0.0155541
935.061	0.0154797
935.139	0.0154123
935.217	0.0156019
935.295	0.0155046
935.373	0.0156596
935.451	0.0155743
935.530	0.0155172
935.608	0.0154743
935.686	0.0154734
935.764	0.0156014
935.842	0.0154437
935.920	0.0154840
935.998	0.0155726
936.076	0.0154658
936.155	0.0154626
936.233	0.0155308
936.311	0.0155061
936.389	0.0153468
936.467	0.0154999
936.545	0.0154501
936.623	0.0155508
936.701	0.0154366
936.780	0.0154691
936.858	0.0154910
936.936	0.0154413
937.014	0.0154173
937.092	0.0154797
937.170	0.0154188
937.248	0.0154417
937.326	0.0155048
937.405	0.0153974
937.483	0.0155294
937.561	0.0154340
937.639	0.0154733
937.717	0.0153351
937.795	0.0153745
937.873	0.0154272
937.951	0.0155508
938.030	0.0155172
938.108	0.0154745
938.186	0.0154185
938.264	0.0155167
938.342	0.0153894
938.420	0.0153189
938.498	0.0154673
938.576	0.0154967
938.655	0.0153086
938.733	0.0155076
938.811	0.0154603
938.889	0.0153980
938.967	0.0152463
939.045	0.0154246
939.123	0.0154015
939.201	0.0153519
939.280	0.0153999
939.358	0.0153745
939.436	0.0154948
939.514	0.0153951
939.592	0.0153539
939.670	0.0153479
939.748	0.0154161
939.826	0.0154515
939.905	0.0153615
939.983	0.0153865
940.061	0.0153434
940.139	0.0153107
940.217	0.0153671
940.295	0.0153050
940.373	0.0153830
940.451	0.0153123
940.530	0.0152607
940.608	0.0153507
940.686	0.0152193
940.764	0.0153658
940.842	0.0152693
940.920	0.0152352
940.998	0.0153638
941.076	0.0154193
941.155	0.0151286
941.233	0.0152351
941.311	0.0154414
941.389	0.0153009
941.467	0.0154438
941.545	0.0154568
941.623	0.0155012
941.701	0.0154108
941.780	0.0154604
941.858	0.0155018
941.936	0.0156587
942.014	0.0157094
942.092	0.0154575
942.170	0.0155060
942.248	0.0156113
942.326	0.0154800
942.405	0.0154458
942.483	0.0154321
942.561	0.0153844
942.639	0.0155293
942.717	0.0154259
942.795	0.0153912
942.873	0.0154375
942.951	0.0154536
943.030	0.0154177
943.108	0.0153513
943.186	0.0154058
943.264	0.0153027
943.342	0.0153933
943.420	0.0153319
943.498	0.0154712
943.576	0.0153172
943.655	0.0154337
943.733	0.0153325
943.811	0.0153638
943.889	0.0153436
943.967	0.0155246
944.045	0.0154063
944.123	0.0154020
944.201	0.0155272
944.280	0.0154472
944.358	0.0154611
944.436	0.0154202
944.514	0.0153259
944.592	0.0153223
944.670	0.0153685
944.748	0.0153861
944.826	0.0154275
944.905	0.0154524
944.983	0.0152137
945.061	0.0152992
945.139	0.0152976
945.217	0.0153225
945.295	0.0153043
945.373	0.0152432
945.451	0.0151682
945.530	0.0151636
945.608	0.0152685
945.686	0.0153253
945.764	0.0153518
945.842	0.0152862
945.920	0.0152895
945.998	0.0152936
946.076	0.0153860
946.155	0.0154053
946.233	0.0153368
946.311	0.0155621
946.389	0.0153560
946.467	0.0154643
946.545	0.0154342
946.623	0.0154581
946.701	0.0154311
946.780	0.0154440
946.858	0.0155240
946.936	0.0155588
947.014	0.0154500
947.092	0.0153456
947.170	0.0154075
947.248	0.0155750
947.326	0.0154665
947.405	0.0154493
947.483	0.0152629
947.561	0.0153385
947.639	0.0154640
947.717	0.0154018
947.795	0.0154094
947.873	0.0153484
947.951	0.0154456
948.030	0.0155031
948.108	0.0154278
948.186	0.0154194
948.264	0.0155228
948.342	0.0155833
948.420	0.0156747
948.498	0.0154872
948.576	0.0154795
948.655	0.0155553
948.733	0.0155501
948.811	0.0154665
948.889	0.0156542
948.967	0.0154962
949.045	0.0153815
949.123	0.0153906
949.201	0.0154610
949.280	0.0154468
949.358	0.0154190
949.436	0.0153510
949.514	0.0154448
949.592	0.0153643
949.670	0.0152660
949.748	0.0152849
949.826	0.0152881
949.905	0.0153416
949.983	0.0154736
950.061	0.0153089
950.139	0.0151753
950.217	0.0152805
950.295	0.0154845
950.373	0.0155468
950.451	0.0154319
950.530	0.0155354
950.608	0.0154269
950.686	0.0155674
950.764	0.0155032
950.842	0.0154815
950.920	0.0154943
950.998	0.0154601
951.076	0.0155042
951.155	0.0154176
951.233	0.0153535
951.311	0.0154166
951.389	0.0154863
951.467	0.0153532
951.545	0.0153674
951.623	0.0154769
951.701	0.0153947
951.780	0.0154178
951.858	0.0154054
951.936	0.0153593
952.014	0.0154403
952.092	0.0153815
952.170	0.0154968
952.248	0.0154870
952.326	0.0154835
952.405	0.0153737
952.483	0.0154315
952.561	0.0154534
952.639	0.0155096
952.717	0.0153675
952.795	0.0152975
952.873	0.0156325
952.951	0.0153919
953.030	0.0154095
953.108	0.0153788
953.186	0.0154207
953.264	0.0153861
953.342	0.0153226
953.420	0.0151865
953.498	0.0153264
953.576	0.0153229
953.655	0.0152898
953.733	0.0152926
953.811	0.0152909
953.889	0.0153401
953.967	0.0153741
954.045	0.0153400
954.123	0.0152840
954.201	0.0152924
954.280	0.0154241
954.358	0.0154266
954.436	0.0155228
954.514	0.0154289
954.592	0.0155177
954.670	0.0155218
954.748	0.0154182
954.826	0.0154726
954.905	0.0154837
954.983	0.0154520
955.061	0.0155555
955.139	0.0154287
955.217	0.0154571
955.295	0.0154580
955.373	0.0154202
955.451	0.0153768
955.530	0.0152800
955.608	0.0154343
955.686	0.0153275
955.764	0.0153489
955.842	0.0153194
955.920	0.0152853
955.998	0.0153090
956.076	0.0153492
956.155	0.0152457
956.233	0.0151567
956.311	0.0152823
956.389	0.0152547
956.467	0.0152751
956.545	0.0152206
956.623	0.0153567
956.701	0.0154864
956.780	0.0153304
956.858	0.0153481
956.936	0.0155048
957.014	0.0154416
957.092	0.0153699
957.170	0.0153866
957.248	0.0153968
957.326	0.0156088
957.405	0.0153415
957.483	0.0154758
957.561	0.0155783
957.639	0.0153850
957.717	0.0154810
957.795	0.0153925
957.873	0.0154338
957.951	0.0154820
958.030	0.0153933
958.108	0.0153040
958.186	0.0152589
958.264	0.0153590
958.342	0.0153294
958.420	0.0153001
958.498	0.0153631
958.576	0.0154164
958.655	0.0153692
958.733	0.0154560
958.811	0.0154259
958.889	0.0152994
958.967	0.0152862
959.045	0.0154229
959.123	0.0154456
959.201	0.0153848
959.280	0.0154185
959.358	0.0155647
959.436	0.0155203
959.514	0.0154387
959.592	0.0154329
959.670	0.0154206
959.748	0.0155403
959.826	0.0154231
959.905	0.0154174
