05/17/2022	17:23:05	Ver.	4.1	UNKNOWN
Optical Delay	639.982744	Delta X		0.078125	Sweeps	1	Scan Rate	0/0
Coordinates	Axis 1	NaN	Axis 2	NaN	Axis 3	NaN	Axis 4	NaN	Axis 5	NaN	Axis 6	0.000000
TX Power	0.000000	RX Power	0.000000

639.983	0.0162922
640.061	0.0164659
640.139	0.0164162
640.217	0.0162701
640.295	0.0161645
640.373	0.0163327
640.451	0.0163075
640.530	0.0162891
640.608	0.0162411
640.686	0.0161765
640.764	0.0161286
640.842	0.0161716
640.920	0.0161996
640.998	0.0161139
641.076	0.0162035
641.155	0.0161188
641.233	0.0160396
641.311	0.0159877
641.389	0.0162203
641.467	0.0162205
641.545	0.0160766
641.623	0.0162589
641.701	0.0162025
641.780	0.0162289
641.858	0.0163520
641.936	0.0162708
642.014	0.0164195
642.092	0.0163485
642.170	0.0163995
642.248	0.0163448
642.326	0.0163393
642.405	0.0162705
642.483	0.0162656
642.561	0.0162680
642.639	0.0163518
642.717	0.0162996
642.795	0.0164077
642.873	0.0163011
642.951	0.0162898
643.030	0.0163996
643.108	0.0163163
643.186	0.0161920
643.264	0.0162917
643.342	0.0162524
643.420	0.0163190
643.498	0.0162644
643.576	0.0161225
643.655	0.0162342
643.733	0.0161809
643.811	0.0160957
643.889	0.0160665
643.967	0.0161804
644.045	0.0160880
644.123	0.0160005
644.201	0.0162017
644.280	0.0162039
644.358	0.0161150
644.436	0.0161491
644.514	0.0161893
644.592	0.0162502
644.670	0.0161285
644.748	0.0161501
644.826	0.0162415
644.905	0.0161393
644.983	0.0161905
645.061	0.0163373
645.139	0.0161465
645.217	0.0162452
645.295	0.0163532
645.373	0.0163107
645.451	0.0163371
645.530	0.0162063
645.608	0.0162663
645.686	0.0163477
645.764	0.0162154
645.842	0.0163358
645.920	0.0162914
645.998	0.0161392
646.076	0.0161702
646.155	0.0162053
646.233	0.0161266
646.311	0.0160232
646.389	0.0161391
646.467	0.0161091
646.545	0.0161172
646.623	0.0160448
646.701	0.0161463
646.780	0.0160123
646.858	0.0160494
646.936	0.0160737
647.014	0.0162278
647.092	0.0160557
647.170	0.0161415
647.248	0.0161872
647.326	0.0162852
647.405	0.0161810
647.483	0.0161795
647.561	0.0162428
647.639	0.0163189
647.717	0.0161649
647.795	0.0162470
647.873	0.0162120
647.951	0.0161330
648.030	0.0162379
648.108	0.0162860
648.186	0.0162325
648.264	0.0162731
648.342	0.0162440
648.420	0.0162806
648.498	0.0163209
648.576	0.0163657
648.655	0.0163213
648.733	0.0162868
648.811	0.0161539
648.889	0.0161514
648.967	0.0162129
649.045	0.0161700
649.123	0.0161716
649.201	0.0162408
649.280	0.0161319
649.358	0.0161574
649.436	0.0162083
649.514	0.0162689
649.592	0.0162705
649.670	0.0162653
649.748	0.0161558
649.826	0.0162774
649.905	0.0164346
649.983	0.0163428
650.061	0.0160911
650.139	0.0162321
650.217	0.0162409
650.295	0.0164538
650.373	0.0163691
650.451	0.0164495
650.530	0.0164774
650.608	0.0163512
650.686	0.0163875
650.764	0.0164250
650.842	0.0163498
650.920	0.0165870
650.998	0.0164610
651.076	0.0161946
651.155	0.0162513
651.233	0.0162962
651.311	0.0163129
651.389	0.0160583
651.467	0.0160999
651.545	0.0160611
651.623	0.0160430
651.701	0.0160119
651.780	0.0158966
651.858	0.0160762
651.936	0.0159360
652.014	0.0159711
652.092	0.0160089
652.170	0.0159624
652.248	0.0159888
652.326	0.0160150
652.405	0.0161932
652.483	0.0160915
652.561	0.0161388
652.639	0.0161209
652.717	0.0162217
652.795	0.0162470
652.873	0.0162960
652.951	0.0162268
653.030	0.0163413
653.108	0.0162570
653.186	0.0163026
653.264	0.0163221
653.342	0.0162307
653.420	0.0162283
653.498	0.0162589
653.576	0.0162463
653.655	0.0162751
653.733	0.0163709
653.811	0.0162329
653.889	0.0162020
653.967	0.0162319
654.045	0.0162251
654.123	0.0162145
654.201	0.0160015
654.280	0.0160379
654.358	0.0161895
654.436	0.0162042
654.514	0.0162061
654.592	0.0160679
654.670	0.0160984
654.748	0.0160651
654.826	0.0160315
654.905	0.0161831
654.983	0.0161087
655.061	0.0161053
655.139	0.0162380
655.217	0.0161631
655.295	0.0160228
655.373	0.0162243
655.451	0.0163107
655.530	0.0162508
655.608	0.0161266
655.686	0.0162609
655.764	0.0162992
655.842	0.0162801
655.920	0.0163973
655.998	0.0163031
656.076	0.0162334
656.155	0.0162583
656.233	0.0163486
656.311	0.0162265
656.389	0.0162012
656.467	0.0162762
656.545	0.0161764
656.623	0.0161765
656.701	0.0162325
656.780	0.0161780
656.858	0.0159487
656.936	0.0159776
657.014	0.0160289
657.092	0.0159269
657.170	0.0159232
657.248	0.0159892
657.326	0.0160078
657.405	0.0159641
657.483	0.0158572
657.561	0.0159926
657.639	0.0160124
657.717	0.0161452
657.795	0.0161618
657.873	0.0160445
657.951	0.0162635
658.030	0.0164227
658.108	0.0163041
658.186	0.0165366
658.264	0.0164055
658.342	0.0164142
658.420	0.0164474
658.498	0.0165289
658.576	0.0165765
658.655	0.0165274
658.733	0.0165084
658.811	0.0164849
658.889	0.0164359
658.967	0.0162593
659.045	0.0162720
659.123	0.0163781
659.201	0.0163469
659.280	0.0159966
659.358	0.0160491
659.436	0.0159856
659.514	0.0159555
659.592	0.0159554
659.670	0.0159789
659.748	0.0159824
659.826	0.0158434
659.905	0.0159224
659.983	0.0159808
660.061	0.0159602
660.139	0.0158120
660.217	0.0159810
660.295	0.0160525
660.373	0.0161547
660.451	0.0162186
660.530	0.0161901
660.608	0.0163874
660.686	0.0162790
660.764	0.0164367
660.842	0.0164107
660.920	0.0163467
660.998	0.0165339
661.076	0.0164880
661.155	0.0165881
661.233	0.0164853
661.311	0.0164915
661.389	0.0164159
661.467	0.0164230
661.545	0.0164469
661.623	0.0163206
661.701	0.0163762
661.780	0.0164867
661.858	0.0163023
661.936	0.0162379
662.014	0.0162886
662.092	0.0161616
662.170	0.0162066
662.248	0.0162312
662.326	0.0160727
662.405	0.0161763
662.483	0.0160635
662.561	0.0162086
662.639	0.0162518
662.717	0.0163038
662.795	0.0162529
662.873	0.0163189
662.951	0.0163550
663.030	0.0162231
663.108	0.0162541
663.186	0.0161411
663.264	0.0162785
663.342	0.0163411
663.420	0.0162444
663.498	0.0161588
663.576	0.0160758
663.655	0.0161349
663.733	0.0160612
663.811	0.0159222
663.889	0.0160058
663.967	0.0158987
664.045	0.0158459
664.123	0.0157161
664.201	0.0158665
664.280	0.0157192
664.358	0.0157226
664.436	0.0157097
664.514	0.0157690
664.592	0.0158492
664.670	0.0157207
664.748	0.0156791
664.826	0.0156974
664.905	0.0157983
664.983	0.0159160
665.061	0.0160835
665.139	0.0158925
665.217	0.0160466
665.295	0.0161873
665.373	0.0161479
665.451	0.0162673
665.530	0.0161787
665.608	0.0163001
665.686	0.0164318
665.764	0.0164335
665.842	0.0164156
665.920	0.0164955
665.998	0.0164450
666.076	0.0166003
666.155	0.0163895
666.233	0.0164470
666.311	0.0165997
666.389	0.0166247
666.467	0.0165636
666.545	0.0165347
666.623	0.0165025
666.701	0.0164697
666.780	0.0165192
666.858	0.0164980
666.936	0.0164799
667.014	0.0166164
667.092	0.0165143
667.170	0.0163931
667.248	0.0164156
667.326	0.0163590
667.405	0.0164797
667.483	0.0163957
667.561	0.0164139
667.639	0.0164489
667.717	0.0162800
667.795	0.0162189
667.873	0.0163322
667.951	0.0162480
668.030	0.0161181
668.108	0.0162052
668.186	0.0160685
668.264	0.0159979
668.342	0.0160535
668.420	0.0158527
668.498	0.0158161
668.576	0.0157113
668.655	0.0156065
668.733	0.0156351
668.811	0.0156543
668.889	0.0154887
668.967	0.0154598
669.045	0.0153019
669.123	0.0151617
669.201	0.0152213
669.280	0.0152371
669.358	0.0151641
669.436	0.0152240
669.514	0.0152868
669.592	0.0152389
669.670	0.0153341
669.748	0.0153140
669.826	0.0157006
669.905	0.0155354
669.983	0.0157870
670.061	0.0159958
670.139	0.0158929
670.217	0.0160476
670.295	0.0160597
670.373	0.0162247
670.451	0.0163022
670.530	0.0164223
670.608	0.0165038
670.686	0.0165084
670.764	0.0166216
670.842	0.0165537
670.920	0.0165264
670.998	0.0166956
671.076	0.0167202
671.155	0.0166836
671.233	0.0166417
671.311	0.0167041
671.389	0.0167402
671.467	0.0166884
671.545	0.0165986
671.623	0.0166575
671.701	0.0166275
671.780	0.0166311
671.858	0.0165231
671.936	0.0165431
672.014	0.0164890
672.092	0.0165360
672.170	0.0163963
672.248	0.0163811
672.326	0.0162683
672.405	0.0163760
672.483	0.0163583
672.561	0.0162953
672.639	0.0163133
672.717	0.0162891
672.795	0.0163560
672.873	0.0162862
672.951	0.0162345
673.030	0.0162400
673.108	0.0161542
673.186	0.0159840
673.264	0.0161521
673.342	0.0160433
673.420	0.0160126
673.498	0.0159724
673.576	0.0159802
673.655	0.0157632
673.733	0.0155972
673.811	0.0157574
673.889	0.0156521
673.967	0.0154179
674.045	0.0153770
674.123	0.0153570
674.201	0.0152635
674.280	0.0152476
674.358	0.0150366
674.436	0.0151354
674.514	0.0151118
674.592	0.0150002
674.670	0.0149824
674.748	0.0150523
674.826	0.0152769
674.905	0.0152178
674.983	0.0152640
675.061	0.0153680
675.139	0.0155331
675.217	0.0156606
675.295	0.0157529
675.373	0.0159697
675.451	0.0159647
675.530	0.0161764
675.608	0.0162234
675.686	0.0164637
675.764	0.0166257
675.842	0.0167506
675.920	0.0168601
675.998	0.0169913
676.076	0.0170277
676.155	0.0171867
676.233	0.0172849
676.311	0.0174674
676.389	0.0174255
676.467	0.0174905
676.545	0.0175954
676.623	0.0177204
676.701	0.0177378
676.780	0.0177042
676.858	0.0176266
676.936	0.0177452
677.014	0.0174268
677.092	0.0174396
677.170	0.0174812
677.248	0.0171901
677.326	0.0170551
677.405	0.0171104
677.483	0.0169560
677.561	0.0168051
677.639	0.0167214
677.717	0.0163785
677.795	0.0162891
677.873	0.0161339
677.951	0.0161127
678.030	0.0159117
678.108	0.0157350
678.186	0.0157399
678.264	0.0156364
678.342	0.0155807
678.420	0.0155656
678.498	0.0155348
678.576	0.0156049
678.655	0.0155991
678.733	0.0153500
678.811	0.0153875
678.889	0.0155707
678.967	0.0154720
679.045	0.0153347
679.123	0.0155245
679.201	0.0154220
679.280	0.0153445
679.358	0.0154176
679.436	0.0155079
679.514	0.0156097
679.592	0.0157218
679.670	0.0156779
679.748	0.0157841
679.826	0.0156074
679.905	0.0156937
679.983	0.0157752
680.061	0.0158489
680.139	0.0160048
680.217	0.0159746
680.295	0.0160107
680.373	0.0161485
680.451	0.0161229
680.530	0.0161845
680.608	0.0162164
680.686	0.0161221
680.764	0.0163589
680.842	0.0164063
680.920	0.0163750
680.998	0.0165508
681.076	0.0164182
681.155	0.0164843
681.233	0.0165454
681.311	0.0166291
681.389	0.0165246
681.467	0.0165942
681.545	0.0166547
681.623	0.0165404
681.701	0.0165347
681.780	0.0166001
681.858	0.0166563
681.936	0.0165662
682.014	0.0165167
682.092	0.0165616
682.170	0.0165508
682.248	0.0164254
682.326	0.0164874
682.405	0.0164449
682.483	0.0163531
682.561	0.0163105
682.639	0.0163506
682.717	0.0162247
682.795	0.0161922
682.873	0.0162685
682.951	0.0164333
683.030	0.0164290
683.108	0.0163171
683.186	0.0160751
683.264	0.0164022
683.342	0.0164394
683.420	0.0162541
683.498	0.0162440
683.576	0.0163490
683.655	0.0163443
683.733	0.0162447
683.811	0.0162875
683.889	0.0161533
683.967	0.0161098
684.045	0.0162254
684.123	0.0162244
684.201	0.0161211
684.280	0.0160585
684.358	0.0161065
684.436	0.0160471
684.514	0.0160371
684.592	0.0158199
684.670	0.0159962
684.748	0.0159491
684.826	0.0158392
684.905	0.0157995
684.983	0.0158379
685.061	0.0158653
685.139	0.0157902
685.217	0.0156483
685.295	0.0158241
685.373	0.0158500
685.451	0.0156913
685.530	0.0158562
685.608	0.0158408
685.686	0.0157518
685.764	0.0159486
685.842	0.0159310
685.920	0.0159149
685.998	0.0158612
686.076	0.0159408
686.155	0.0159737
686.233	0.0159792
686.311	0.0161315
686.389	0.0160821
686.467	0.0160158
686.545	0.0162085
686.623	0.0160678
686.701	0.0162115
686.780	0.0162146
686.858	0.0162846
686.936	0.0162044
687.014	0.0163204
687.092	0.0164790
687.170	0.0164933
687.248	0.0163774
687.326	0.0165428
687.405	0.0165344
687.483	0.0165596
687.561	0.0166271
687.639	0.0166129
687.717	0.0166630
687.795	0.0167128
687.873	0.0166810
687.951	0.0166946
688.030	0.0166178
688.108	0.0167368
688.186	0.0166422
688.264	0.0165952
688.342	0.0167052
688.420	0.0165556
688.498	0.0166640
688.576	0.0166733
688.655	0.0165655
688.733	0.0165855
688.811	0.0165466
688.889	0.0167204
688.967	0.0166376
689.045	0.0167359
689.123	0.0165374
689.201	0.0165201
689.280	0.0166282
689.358	0.0165978
689.436	0.0164945
689.514	0.0164599
689.592	0.0165347
689.670	0.0164786
689.748	0.0163967
689.826	0.0163536
689.905	0.0162734
689.983	0.0162560
690.061	0.0161435
690.139	0.0162348
690.217	0.0159624
690.295	0.0159420
690.373	0.0159414
690.451	0.0156450
690.530	0.0157439
690.608	0.0158482
690.686	0.0156612
690.764	0.0156076
690.842	0.0155751
690.920	0.0154388
690.998	0.0156794
691.076	0.0158063
691.155	0.0156715
691.233	0.0156809
691.311	0.0158180
691.389	0.0159667
691.467	0.0159466
691.545	0.0161278
691.623	0.0161842
691.701	0.0161498
691.780	0.0162605
691.858	0.0163705
691.936	0.0165532
692.014	0.0163217
692.092	0.0164838
692.170	0.0165345
692.248	0.0164926
692.326	0.0165516
692.405	0.0166023
692.483	0.0166064
692.561	0.0166180
692.639	0.0164576
692.717	0.0164821
692.795	0.0162893
692.873	0.0161749
692.951	0.0161041
693.030	0.0161726
693.108	0.0161106
693.186	0.0160229
693.264	0.0159956
693.342	0.0159955
693.420	0.0157908
693.498	0.0159238
693.576	0.0158804
693.655	0.0158995
693.733	0.0160025
693.811	0.0161555
693.889	0.0160818
693.967	0.0161159
694.045	0.0161611
694.123	0.0160391
694.201	0.0163474
694.280	0.0163365
694.358	0.0164037
694.436	0.0165702
694.514	0.0165328
694.592	0.0165952
694.670	0.0166890
694.748	0.0166506
694.826	0.0167138
694.905	0.0166827
694.983	0.0167282
695.061	0.0168196
695.139	0.0167814
695.217	0.0168671
695.295	0.0167860
695.373	0.0166977
695.451	0.0167142
695.530	0.0166005
695.608	0.0166785
695.686	0.0166338
695.764	0.0164368
695.842	0.0165057
695.920	0.0165076
695.998	0.0164326
696.076	0.0167083
696.155	0.0164078
696.233	0.0163580
696.311	0.0163663
696.389	0.0164870
696.467	0.0164650
696.545	0.0164709
696.623	0.0164266
696.701	0.0163260
696.780	0.0164434
696.858	0.0163847
696.936	0.0161411
697.014	0.0162280
697.092	0.0161751
697.170	0.0159889
697.248	0.0159538
697.326	0.0158320
697.405	0.0156866
697.483	0.0156612
697.561	0.0155364
697.639	0.0154271
697.717	0.0153943
697.795	0.0153647
697.873	0.0152208
697.951	0.0151607
698.030	0.0152347
698.108	0.0150935
698.186	0.0150431
698.264	0.0152077
698.342	0.0153506
698.420	0.0150882
698.498	0.0152961
698.576	0.0154639
698.655	0.0156058
698.733	0.0156293
698.811	0.0155949
698.889	0.0155621
698.967	0.0157007
699.045	0.0158037
699.123	0.0160101
699.201	0.0160899
699.280	0.0160902
699.358	0.0162256
699.436	0.0163375
699.514	0.0162722
699.592	0.0164832
699.670	0.0164967
699.748	0.0165669
699.826	0.0166935
699.905	0.0166704
699.983	0.0168482
700.061	0.0170245
700.139	0.0170039
700.217	0.0169537
700.295	0.0169450
700.373	0.0170889
700.451	0.0170606
700.530	0.0170323
700.608	0.0172294
700.686	0.0172257
700.764	0.0173663
700.842	0.0172366
700.920	0.0173461
700.998	0.0173172
701.076	0.0172961
701.155	0.0173360
701.233	0.0173061
701.311	0.0171682
701.389	0.0171886
701.467	0.0170981
701.545	0.0170187
701.623	0.0168308
701.701	0.0167255
701.780	0.0166240
701.858	0.0165086
701.936	0.0165212
702.014	0.0163513
702.092	0.0161725
702.170	0.0159524
702.248	0.0160356
702.326	0.0157991
702.405	0.0157069
702.483	0.0157923
702.561	0.0156680
702.639	0.0156628
702.717	0.0156048
702.795	0.0155615
702.873	0.0154614
702.951	0.0154777
703.030	0.0155096
703.108	0.0154848
703.186	0.0154671
703.264	0.0155564
703.342	0.0155631
703.420	0.0157619
703.498	0.0157968
703.576	0.0158016
703.655	0.0159026
703.733	0.0158300
703.811	0.0159582
703.889	0.0160061
703.967	0.0161068
704.045	0.0160440
704.123	0.0161673
704.201	0.0160612
704.280	0.0161990
704.358	0.0161748
704.436	0.0161819
704.514	0.0161403
704.592	0.0162617
704.670	0.0162653
704.748	0.0163599
704.826	0.0162777
704.905	0.0163219
704.983	0.0163829
705.061	0.0164247
705.139	0.0165150
705.217	0.0165115
705.295	0.0164974
705.373	0.0165791
705.451	0.0165915
705.530	0.0165871
705.608	0.0166045
705.686	0.0166695
705.764	0.0167216
705.842	0.0169237
705.920	0.0168515
705.998	0.0168333
706.076	0.0168618
706.155	0.0167875
706.233	0.0169446
706.311	0.0170435
706.389	0.0168516
706.467	0.0167528
706.545	0.0166890
706.623	0.0168833
706.701	0.0168393
706.780	0.0166617
706.858	0.0167135
706.936	0.0166266
707.014	0.0166996
707.092	0.0166135
707.170	0.0164907
707.248	0.0164313
707.326	0.0164525
707.405	0.0164678
707.483	0.0164247
707.561	0.0163568
707.639	0.0162792
707.717	0.0161505
707.795	0.0163033
707.873	0.0163449
707.951	0.0160996
708.030	0.0162157
708.108	0.0162790
708.186	0.0162276
708.264	0.0161919
708.342	0.0163160
708.420	0.0163944
708.498	0.0162605
708.576	0.0161816
708.655	0.0161781
708.733	0.0161736
708.811	0.0162807
708.889	0.0161517
708.967	0.0161346
709.045	0.0161233
709.123	0.0161037
709.201	0.0160815
709.280	0.0160300
709.358	0.0159143
709.436	0.0159545
709.514	0.0158043
709.592	0.0159492
709.670	0.0158459
709.748	0.0158575
709.826	0.0159857
709.905	0.0158965
709.983	0.0159193
710.061	0.0158820
710.139	0.0158701
710.217	0.0159112
710.295	0.0159509
710.373	0.0159249
710.451	0.0162227
710.530	0.0161211
710.608	0.0159837
710.686	0.0161639
710.764	0.0162444
710.842	0.0162285
710.920	0.0162166
710.998	0.0162307
711.076	0.0162900
711.155	0.0163741
711.233	0.0163552
711.311	0.0162511
711.389	0.0163527
711.467	0.0163420
711.545	0.0163658
711.623	0.0164807
711.701	0.0163885
711.780	0.0164547
711.858	0.0163567
711.936	0.0164626
712.014	0.0165433
712.092	0.0164017
712.170	0.0165500
712.248	0.0164790
712.326	0.0164696
712.405	0.0164090
712.483	0.0164789
712.561	0.0164137
712.639	0.0163543
712.717	0.0161602
712.795	0.0163992
712.873	0.0161643
712.951	0.0163735
713.030	0.0161766
713.108	0.0161917
713.186	0.0161757
713.264	0.0160296
713.342	0.0160650
713.420	0.0160170
713.498	0.0160577
713.576	0.0160271
713.655	0.0159473
713.733	0.0158607
713.811	0.0157937
713.889	0.0158916
713.967	0.0159080
714.045	0.0158907
714.123	0.0159815
714.201	0.0160765
714.280	0.0159162
714.358	0.0160596
714.436	0.0159972
714.514	0.0161601
714.592	0.0161879
714.670	0.0161990
714.748	0.0162016
714.826	0.0164406
714.905	0.0165932
714.983	0.0165678
715.061	0.0165606
715.139	0.0166079
715.217	0.0166106
715.295	0.0166370
715.373	0.0166439
715.451	0.0166839
715.530	0.0166136
715.608	0.0166026
715.686	0.0167174
715.764	0.0166083
715.842	0.0164094
715.920	0.0163568
715.998	0.0165038
716.076	0.0163406
716.155	0.0163920
716.233	0.0163834
716.311	0.0162130
716.389	0.0161555
716.467	0.0160689
716.545	0.0160617
716.623	0.0160934
716.701	0.0161027
716.780	0.0160144
716.858	0.0159166
716.936	0.0159062
717.014	0.0160629
717.092	0.0160697
717.170	0.0160410
717.248	0.0161009
717.326	0.0160892
717.405	0.0160653
717.483	0.0161289
717.561	0.0162016
717.639	0.0161627
717.717	0.0162739
717.795	0.0162374
717.873	0.0162615
717.951	0.0161604
718.030	0.0161676
718.108	0.0162966
718.186	0.0162486
718.264	0.0162995
718.342	0.0162753
718.420	0.0161652
718.498	0.0162251
718.576	0.0161728
718.655	0.0162756
718.733	0.0162726
718.811	0.0162758
718.889	0.0162990
718.967	0.0162856
719.045	0.0163926
719.123	0.0163244
719.201	0.0164422
719.280	0.0163721
719.358	0.0165343
719.436	0.0164228
719.514	0.0164416
719.592	0.0165993
719.670	0.0165990
719.748	0.0164793
719.826	0.0163613
719.905	0.0164203
719.983	0.0164911
720.061	0.0165229
720.139	0.0164593
720.217	0.0164459
720.295	0.0163851
720.373	0.0163369
720.451	0.0162833
720.530	0.0162689
720.608	0.0162336
720.686	0.0162923
720.764	0.0161300
720.842	0.0161269
720.920	0.0160078
720.998	0.0160410
721.076	0.0159531
721.155	0.0156735
721.233	0.0156847
721.311	0.0157118
721.389	0.0156653
721.467	0.0156424
721.545	0.0155426
721.623	0.0156810
721.701	0.0158305
721.780	0.0156568
721.858	0.0155720
721.936	0.0156966
722.014	0.0158753
722.092	0.0159444
722.170	0.0158796
722.248	0.0160941
722.326	0.0160781
722.405	0.0160339
722.483	0.0161771
722.561	0.0161490
722.639	0.0163049
722.717	0.0163359
722.795	0.0165560
722.873	0.0165400
722.951	0.0166056
723.030	0.0167650
723.108	0.0167371
723.186	0.0167946
723.264	0.0168367
723.342	0.0168391
723.420	0.0169536
723.498	0.0169876
723.576	0.0168881
723.655	0.0168263
723.733	0.0167789
723.811	0.0168752
723.889	0.0168312
723.967	0.0167690
724.045	0.0165917
724.123	0.0165882
724.201	0.0165490
724.280	0.0165733
724.358	0.0164435
724.436	0.0163863
724.514	0.0163560
724.592	0.0162682
724.670	0.0160660
724.748	0.0161610
724.826	0.0159795
724.905	0.0160630
724.983	0.0160621
725.061	0.0159837
725.139	0.0159308
725.217	0.0160344
725.295	0.0159561
725.373	0.0160568
725.451	0.0161149
725.530	0.0159928
725.608	0.0159503
725.686	0.0159675
725.764	0.0158759
725.842	0.0158797
725.920	0.0158732
725.998	0.0160356
726.076	0.0161089
726.155	0.0160935
726.233	0.0161235
726.311	0.0160542
726.389	0.0161734
726.467	0.0161464
726.545	0.0160304
726.623	0.0160927
726.701	0.0162092
726.780	0.0162537
726.858	0.0162653
726.936	0.0163533
727.014	0.0163326
727.092	0.0162388
727.170	0.0162862
727.248	0.0163694
727.326	0.0163121
727.405	0.0163342
727.483	0.0164609
727.561	0.0164393
727.639	0.0163484
727.717	0.0164542
727.795	0.0165652
727.873	0.0164761
727.951	0.0164843
728.030	0.0164789
728.108	0.0164178
728.186	0.0166616
728.264	0.0166116
728.342	0.0165116
728.420	0.0163370
728.498	0.0164205
728.576	0.0165205
728.655	0.0164661
728.733	0.0163477
728.811	0.0163728
728.889	0.0165034
728.967	0.0162573
729.045	0.0163731
729.123	0.0163413
729.201	0.0163357
729.280	0.0163515
729.358	0.0163107
729.436	0.0162823
729.514	0.0162916
729.592	0.0163024
729.670	0.0164068
729.748	0.0162518
729.826	0.0161659
729.905	0.0162326
729.983	0.0162840
730.061	0.0162752
730.139	0.0163080
730.217	0.0161708
730.295	0.0160130
730.373	0.0162190
730.451	0.0161552
730.530	0.0161115
730.608	0.0161430
730.686	0.0160791
730.764	0.0160900
730.842	0.0161762
730.920	0.0161752
730.998	0.0163023
731.076	0.0160498
731.155	0.0160667
731.233	0.0161214
731.311	0.0162674
731.389	0.0160632
731.467	0.0160165
731.545	0.0160820
731.623	0.0161556
731.701	0.0161497
731.780	0.0162679
731.858	0.0160329
731.936	0.0160258
732.014	0.0161238
732.092	0.0160076
732.170	0.0160901
732.248	0.0161857
732.326	0.0160913
732.405	0.0159605
732.483	0.0161057
732.561	0.0159596
732.639	0.0160388
732.717	0.0161081
732.795	0.0160603
732.873	0.0160088
732.951	0.0160979
733.030	0.0160424
733.108	0.0161079
733.186	0.0163438
733.264	0.0162315
733.342	0.0162861
733.420	0.0163409
733.498	0.0163087
733.576	0.0161517
733.655	0.0163255
733.733	0.0163582
733.811	0.0163867
733.889	0.0164480
733.967	0.0164506
734.045	0.0165926
734.123	0.0164306
734.201	0.0163750
734.280	0.0163546
734.358	0.0163915
734.436	0.0164969
734.514	0.0164296
734.592	0.0164428
734.670	0.0162853
734.748	0.0163066
734.826	0.0163773
734.905	0.0164874
734.983	0.0162839
735.061	0.0162483
735.139	0.0162558
735.217	0.0162019
735.295	0.0162277
735.373	0.0161303
735.451	0.0161969
735.530	0.0161266
735.608	0.0161315
735.686	0.0160251
735.764	0.0159599
735.842	0.0159540
735.920	0.0160162
735.998	0.0159193
736.076	0.0159379
736.155	0.0158596
736.233	0.0158282
736.311	0.0159042
736.389	0.0159210
736.467	0.0158849
736.545	0.0159428
736.623	0.0158978
736.701	0.0158936
736.780	0.0157607
736.858	0.0158932
736.936	0.0158878
737.014	0.0160043
737.092	0.0160143
737.170	0.0160540
737.248	0.0160616
737.326	0.0159511
737.405	0.0160316
737.483	0.0162548
737.561	0.0162530
737.639	0.0161436
737.717	0.0162756
737.795	0.0162972
737.873	0.0161943
737.951	0.0161766
738.030	0.0163988
738.108	0.0163204
738.186	0.0162827
738.264	0.0163670
738.342	0.0164833
738.420	0.0163459
738.498	0.0163533
738.576	0.0161743
738.655	0.0163139
738.733	0.0163083
738.811	0.0162194
738.889	0.0161427
738.967	0.0162113
739.045	0.0163277
739.123	0.0161943
739.201	0.0163118
739.280	0.0162029
739.358	0.0160591
739.436	0.0160941
739.514	0.0160878
739.592	0.0160394
739.670	0.0160297
739.748	0.0158472
739.826	0.0160709
739.905	0.0160309
739.983	0.0160346
740.061	0.0159912
740.139	0.0159019
740.217	0.0159656
740.295	0.0158832
740.373	0.0160512
740.451	0.0160596
740.530	0.0159228
740.608	0.0159433
740.686	0.0160592
740.764	0.0161252
740.842	0.0160934
740.920	0.0161257
740.998	0.0161613
741.076	0.0161087
741.155	0.0162221
741.233	0.0162732
741.311	0.0161640
741.389	0.0160599
741.467	0.0161657
741.545	0.0162146
741.623	0.0161933
741.701	0.0163715
741.780	0.0162386
741.858	0.0163255
741.936	0.0162724
742.014	0.0162951
742.092	0.0164553
742.170	0.0163142
742.248	0.0163377
742.326	0.0163151
742.405	0.0162582
742.483	0.0163081
742.561	0.0164018
742.639	0.0163727
742.717	0.0164830
742.795	0.0163438
742.873	0.0164128
742.951	0.0163515
743.030	0.0164957
743.108	0.0163693
743.186	0.0163858
743.264	0.0163206
743.342	0.0164103
743.420	0.0164435
743.498	0.0164919
743.576	0.0165076
743.655	0.0163715
743.733	0.0162772
743.811	0.0164172
743.889	0.0163278
743.967	0.0165073
744.045	0.0162316
744.123	0.0163012
744.201	0.0163708
744.280	0.0161795
744.358	0.0162061
744.436	0.0162643
744.514	0.0160551
744.592	0.0160126
744.670	0.0160438
744.748	0.0160108
744.826	0.0160915
744.905	0.0160100
744.983	0.0160410
745.061	0.0160738
745.139	0.0160770
745.217	0.0160087
745.295	0.0161659
745.373	0.0161491
745.451	0.0160464
745.530	0.0161211
745.608	0.0161677
745.686	0.0162701
745.764	0.0161881
745.842	0.0163357
745.920	0.0164048
745.998	0.0163882
746.076	0.0162038
746.155	0.0163052
746.233	0.0164809
746.311	0.0163885
746.389	0.0161833
746.467	0.0162935
746.545	0.0162664
746.623	0.0161978
746.701	0.0162858
746.780	0.0162751
746.858	0.0162652
746.936	0.0162888
747.014	0.0161809
747.092	0.0162014
747.170	0.0161470
747.248	0.0162396
747.326	0.0159901
747.405	0.0159276
747.483	0.0160190
747.561	0.0161009
747.639	0.0160721
747.717	0.0160874
747.795	0.0161247
747.873	0.0160217
747.951	0.0160371
748.030	0.0160856
748.108	0.0161751
748.186	0.0160941
748.264	0.0162402
748.342	0.0161094
748.420	0.0162635
748.498	0.0162399
748.576	0.0162507
748.655	0.0162446
748.733	0.0162757
748.811	0.0164659
748.889	0.0164273
748.967	0.0163882
749.045	0.0164282
749.123	0.0162685
749.201	0.0164664
749.280	0.0164734
749.358	0.0164248
749.436	0.0164382
749.514	0.0162254
749.592	0.0164509
749.670	0.0163284
749.748	0.0162365
749.826	0.0162895
749.905	0.0162676
749.983	0.0161487
750.061	0.0159840
750.139	0.0162514
750.217	0.0161044
750.295	0.0160896
750.373	0.0160950
750.451	0.0161824
750.530	0.0160651
750.608	0.0160900
750.686	0.0162420
750.764	0.0161444
750.842	0.0161887
750.920	0.0161083
750.998	0.0161246
751.076	0.0162594
751.155	0.0161234
751.233	0.0163007
751.311	0.0163123
751.389	0.0163026
751.467	0.0163086
751.545	0.0163634
751.623	0.0163889
751.701	0.0162658
751.780	0.0162885
751.858	0.0162138
751.936	0.0162198
752.014	0.0163053
752.092	0.0161800
752.170	0.0161668
752.248	0.0161509
752.326	0.0160376
752.405	0.0160860
752.483	0.0160702
752.561	0.0162737
752.639	0.0159904
752.717	0.0160951
752.795	0.0160128
752.873	0.0160033
752.951	0.0160016
753.030	0.0159863
753.108	0.0161752
753.186	0.0160960
753.264	0.0160668
753.342	0.0162345
753.420	0.0161054
753.498	0.0162764
753.576	0.0162292
753.655	0.0161838
753.733	0.0165549
753.811	0.0162740
753.889	0.0162263
753.967	0.0164188
754.045	0.0162972
754.123	0.0162840
754.201	0.0164400
754.280	0.0163357
754.358	0.0162889
754.436	0.0163676
754.514	0.0162910
754.592	0.0164455
754.670	0.0162862
754.748	0.0162830
754.826	0.0161948
754.905	0.0164507
754.983	0.0163345
755.061	0.0161375
755.139	0.0163255
755.217	0.0162218
755.295	0.0162145
755.373	0.0163017
755.451	0.0162401
755.530	0.0162359
755.608	0.0162890
755.686	0.0163248
755.764	0.0162759
755.842	0.0162748
755.920	0.0161652
755.998	0.0162588
756.076	0.0162394
756.155	0.0161624
756.233	0.0161691
756.311	0.0161101
756.389	0.0161668
756.467	0.0160715
756.545	0.0160761
756.623	0.0160188
756.701	0.0162048
756.780	0.0160923
756.858	0.0160855
756.936	0.0159891
757.014	0.0160194
757.092	0.0161181
757.170	0.0161571
757.248	0.0162056
757.326	0.0161275
757.405	0.0161485
757.483	0.0161118
757.561	0.0162518
757.639	0.0163268
757.717	0.0161478
757.795	0.0162604
757.873	0.0163291
757.951	0.0162444
758.030	0.0163297
758.108	0.0162984
758.186	0.0162556
758.264	0.0161568
758.342	0.0162111
758.420	0.0162122
758.498	0.0160505
758.576	0.0161703
758.655	0.0160783
758.733	0.0160616
758.811	0.0161822
758.889	0.0161317
758.967	0.0160407
759.045	0.0160905
759.123	0.0160945
759.201	0.0160612
759.280	0.0160702
759.358	0.0159737
759.436	0.0158799
759.514	0.0161694
759.592	0.0159617
759.670	0.0160693
759.748	0.0161054
759.826	0.0161360
759.905	0.0161560
759.983	0.0162471
760.061	0.0161487
760.139	0.0161552
760.217	0.0162179
760.295	0.0161363
760.373	0.0160795
760.451	0.0161929
760.530	0.0161388
760.608	0.0162424
760.686	0.0160980
760.764	0.0159010
760.842	0.0161457
760.920	0.0162095
760.998	0.0163022
761.076	0.0163166
761.155	0.0160239
761.233	0.0161572
761.311	0.0161834
761.389	0.0162793
761.467	0.0162324
761.545	0.0162336
761.623	0.0161510
761.701	0.0163004
761.780	0.0162926
761.858	0.0162309
761.936	0.0161789
762.014	0.0163631
762.092	0.0163558
762.170	0.0163462
762.248	0.0162951
762.326	0.0163708
762.405	0.0163388
762.483	0.0164809
762.561	0.0165189
762.639	0.0164204
762.717	0.0164254
762.795	0.0164282
762.873	0.0164803
762.951	0.0165002
763.030	0.0164021
763.108	0.0165594
763.186	0.0164935
763.264	0.0166627
763.342	0.0165337
763.420	0.0164086
763.498	0.0163898
763.576	0.0164070
763.655	0.0163459
763.733	0.0163551
763.811	0.0164205
763.889	0.0163335
763.967	0.0163783
764.045	0.0163039
764.123	0.0163104
764.201	0.0161598
764.280	0.0161396
764.358	0.0161701
764.436	0.0162624
764.514	0.0160913
764.592	0.0160849
764.670	0.0161539
764.748	0.0161949
764.826	0.0161742
764.905	0.0161685
764.983	0.0161288
765.061	0.0160596
765.139	0.0161255
765.217	0.0160077
765.295	0.0161958
765.373	0.0160712
765.451	0.0160081
765.530	0.0160994
765.608	0.0160270
765.686	0.0161608
765.764	0.0161903
765.842	0.0161262
765.920	0.0160795
765.998	0.0160644
766.076	0.0161926
766.155	0.0161977
766.233	0.0162013
766.311	0.0161706
766.389	0.0161603
766.467	0.0163293
766.545	0.0162436
766.623	0.0160697
766.701	0.0162331
766.780	0.0162572
766.858	0.0161471
766.936	0.0161879
767.014	0.0161361
767.092	0.0162476
767.170	0.0162394
767.248	0.0162677
767.326	0.0163228
767.405	0.0161871
767.483	0.0162377
767.561	0.0163435
767.639	0.0164576
767.717	0.0163785
767.795	0.0162961
767.873	0.0162721
767.951	0.0163618
768.030	0.0162879
768.108	0.0163648
768.186	0.0164575
768.264	0.0164112
768.342	0.0163264
768.420	0.0162942
768.498	0.0163209
768.576	0.0162849
768.655	0.0161578
768.733	0.0162411
768.811	0.0162975
768.889	0.0160721
768.967	0.0161980
769.045	0.0162083
769.123	0.0161543
769.201	0.0161086
769.280	0.0159986
769.358	0.0160449
769.436	0.0161646
769.514	0.0160159
769.592	0.0160392
769.670	0.0161461
769.748	0.0161973
769.826	0.0162212
769.905	0.0161063
769.983	0.0160062
770.061	0.0160856
770.139	0.0160674
770.217	0.0161170
770.295	0.0162049
770.373	0.0161816
770.451	0.0160461
770.530	0.0159781
770.608	0.0160869
770.686	0.0160023
770.764	0.0160681
770.842	0.0161352
770.920	0.0160742
770.998	0.0159216
771.076	0.0158829
771.155	0.0159528
771.233	0.0159187
771.311	0.0158465
771.389	0.0159662
771.467	0.0158839
771.545	0.0160638
771.623	0.0160119
771.701	0.0159556
771.780	0.0160521
771.858	0.0159454
771.936	0.0159544
772.014	0.0160971
772.092	0.0162618
772.170	0.0161878
772.248	0.0163483
772.326	0.0162543
772.405	0.0162658
772.483	0.0163476
772.561	0.0163274
772.639	0.0163731
772.717	0.0163299
772.795	0.0163641
772.873	0.0164414
772.951	0.0163728
773.030	0.0165376
773.108	0.0164850
773.186	0.0165273
773.264	0.0164721
773.342	0.0165966
773.420	0.0166255
773.498	0.0164263
773.576	0.0164815
773.655	0.0164962
773.733	0.0166094
773.811	0.0163771
773.889	0.0162640
773.967	0.0162421
774.045	0.0163331
774.123	0.0161604
774.201	0.0161605
774.280	0.0162177
774.358	0.0161773
774.436	0.0162142
774.514	0.0161128
774.592	0.0159525
774.670	0.0159795
774.748	0.0160220
774.826	0.0160584
774.905	0.0159207
774.983	0.0159959
775.061	0.0159066
775.139	0.0159650
775.217	0.0159215
775.295	0.0158173
775.373	0.0159116
775.451	0.0158724
775.530	0.0161143
775.608	0.0160202
775.686	0.0159939
775.764	0.0160143
775.842	0.0160061
775.920	0.0159382
775.998	0.0162016
776.076	0.0162004
776.155	0.0161768
776.233	0.0162519
776.311	0.0162660
776.389	0.0161443
776.467	0.0162823
776.545	0.0162482
776.623	0.0163644
776.701	0.0162201
776.780	0.0161389
776.858	0.0161659
776.936	0.0163721
777.014	0.0161340
777.092	0.0160723
777.170	0.0161274
777.248	0.0161842
777.326	0.0161317
777.405	0.0162232
777.483	0.0161752
777.561	0.0160830
777.639	0.0161333
777.717	0.0162080
777.795	0.0161623
777.873	0.0162584
777.951	0.0164725
778.030	0.0163668
778.108	0.0162615
778.186	0.0163446
778.264	0.0163678
778.342	0.0163603
778.420	0.0163695
778.498	0.0164565
778.576	0.0164139
778.655	0.0163516
778.733	0.0164999
778.811	0.0164787
778.889	0.0163573
778.967	0.0164718
779.045	0.0164651
779.123	0.0164592
779.201	0.0164453
779.280	0.0164886
779.358	0.0162867
779.436	0.0164159
779.514	0.0164454
779.592	0.0164622
779.670	0.0164164
779.748	0.0163544
779.826	0.0164498
779.905	0.0162240
779.983	0.0162904
780.061	0.0163692
780.139	0.0164874
780.217	0.0162946
780.295	0.0163007
780.373	0.0162349
780.451	0.0162657
780.530	0.0165220
780.608	0.0163747
780.686	0.0161638
780.764	0.0164456
780.842	0.0162160
780.920	0.0163349
780.998	0.0161156
781.076	0.0161388
781.155	0.0161834
781.233	0.0160926
781.311	0.0161755
781.389	0.0162367
781.467	0.0161609
781.545	0.0160730
781.623	0.0161440
781.701	0.0161767
781.780	0.0160554
781.858	0.0161924
781.936	0.0161921
782.014	0.0162144
782.092	0.0161086
782.170	0.0160661
782.248	0.0159619
782.326	0.0161522
782.405	0.0160883
782.483	0.0160749
782.561	0.0159789
782.639	0.0160629
782.717	0.0161362
782.795	0.0160800
782.873	0.0160356
782.951	0.0161163
783.030	0.0161622
783.108	0.0160400
783.186	0.0161443
783.264	0.0160656
783.342	0.0162556
783.420	0.0163020
783.498	0.0161558
783.576	0.0163780
783.655	0.0163210
783.733	0.0163741
783.811	0.0163148
783.889	0.0164160
783.967	0.0164923
784.045	0.0165466
784.123	0.0164091
784.201	0.0165483
784.280	0.0165065
784.358	0.0165083
784.436	0.0165275
784.514	0.0165176
784.592	0.0164674
784.670	0.0163816
784.748	0.0166068
784.826	0.0165693
784.905	0.0164196
784.983	0.0163351
785.061	0.0163950
785.139	0.0162952
785.217	0.0162032
785.295	0.0164052
785.373	0.0164613
785.451	0.0162762
785.530	0.0162092
785.608	0.0163510
785.686	0.0163595
785.764	0.0163135
785.842	0.0162955
785.920	0.0162567
785.998	0.0162628
786.076	0.0162209
786.155	0.0161559
786.233	0.0163423
786.311	0.0162351
786.389	0.0162594
786.467	0.0162627
786.545	0.0161385
786.623	0.0161833
786.701	0.0160481
786.780	0.0161000
786.858	0.0161116
786.936	0.0161147
787.014	0.0160229
787.092	0.0161267
787.170	0.0160981
787.248	0.0160873
787.326	0.0161943
787.405	0.0161176
787.483	0.0160919
787.561	0.0161600
787.639	0.0160760
787.717	0.0161696
787.795	0.0162688
787.873	0.0162654
787.951	0.0160854
788.030	0.0161277
788.108	0.0163207
788.186	0.0163104
788.264	0.0163210
788.342	0.0163280
788.420	0.0163100
788.498	0.0163017
788.576	0.0163641
788.655	0.0163333
788.733	0.0163604
788.811	0.0163755
788.889	0.0162962
788.967	0.0163968
789.045	0.0163815
789.123	0.0162861
789.201	0.0161633
789.280	0.0163023
789.358	0.0163185
789.436	0.0162589
789.514	0.0161469
789.592	0.0160323
789.670	0.0161224
789.748	0.0161855
789.826	0.0160899
789.905	0.0160040
789.983	0.0160876
790.061	0.0161519
790.139	0.0160938
790.217	0.0160893
790.295	0.0161356
790.373	0.0158830
790.451	0.0160302
790.530	0.0160712
790.608	0.0160813
790.686	0.0161520
790.764	0.0160831
790.842	0.0161281
790.920	0.0162498
790.998	0.0162182
791.076	0.0161411
791.155	0.0161417
791.233	0.0162162
791.311	0.0161470
791.389	0.0162565
791.467	0.0162994
791.545	0.0163433
791.623	0.0163192
791.701	0.0162726
791.780	0.0163303
791.858	0.0163112
791.936	0.0162601
792.014	0.0163377
792.092	0.0164411
792.170	0.0164203
792.248	0.0162707
792.326	0.0161377
792.405	0.0161816
792.483	0.0163288
792.561	0.0162502
792.639	0.0162912
792.717	0.0162682
792.795	0.0162827
792.873	0.0162087
792.951	0.0162113
793.030	0.0161929
793.108	0.0162349
793.186	0.0162915
793.264	0.0161642
793.342	0.0161716
793.420	0.0161147
793.498	0.0161274
793.576	0.0161273
793.655	0.0161689
793.733	0.0161340
793.811	0.0161407
793.889	0.0161436
793.967	0.0161003
794.045	0.0160610
794.123	0.0160249
794.201	0.0160365
794.280	0.0161458
794.358	0.0160133
794.436	0.0160865
794.514	0.0161035
794.592	0.0160744
794.670	0.0160004
794.748	0.0159608
794.826	0.0161125
794.905	0.0161478
794.983	0.0160683
795.061	0.0161053
795.139	0.0161342
795.217	0.0160849
795.295	0.0160677
795.373	0.0161418
795.451	0.0160920
795.530	0.0160718
795.608	0.0159580
795.686	0.0161707
795.764	0.0161265
795.842	0.0160361
795.920	0.0161672
795.998	0.0161906
796.076	0.0162284
796.155	0.0163650
796.233	0.0162128
796.311	0.0163682
796.389	0.0163008
796.467	0.0162842
796.545	0.0163729
796.623	0.0163314
796.701	0.0163858
796.780	0.0164124
796.858	0.0163772
796.936	0.0163615
797.014	0.0164400
797.092	0.0163903
797.170	0.0164348
797.248	0.0163706
797.326	0.0162553
797.405	0.0162617
797.483	0.0163574
797.561	0.0163291
797.639	0.0163332
797.717	0.0161700
797.795	0.0162498
797.873	0.0162047
797.951	0.0162222
798.030	0.0162789
798.108	0.0162979
798.186	0.0163083
798.264	0.0161723
798.342	0.0161639
798.420	0.0162357
798.498	0.0160661
798.576	0.0161214
798.655	0.0161282
798.733	0.0160054
798.811	0.0160707
798.889	0.0160217
798.967	0.0161317
799.045	0.0161041
799.123	0.0159701
799.201	0.0160395
799.280	0.0158446
799.358	0.0160123
799.436	0.0159612
799.514	0.0160995
799.592	0.0161292
799.670	0.0159505
799.748	0.0161130
799.826	0.0160664
799.905	0.0162006
799.983	0.0160065
800.061	0.0161052
800.139	0.0162292
800.217	0.0160878
800.295	0.0162505
800.373	0.0162443
800.451	0.0160876
800.530	0.0162592
800.608	0.0163273
800.686	0.0163078
800.764	0.0162579
800.842	0.0162219
800.920	0.0162524
800.998	0.0162974
801.076	0.0161954
801.155	0.0162138
801.233	0.0163354
801.311	0.0162262
801.389	0.0161393
801.467	0.0163010
801.545	0.0161600
801.623	0.0162296
801.701	0.0162915
801.780	0.0161673
801.858	0.0161990
801.936	0.0162289
802.014	0.0162440
802.092	0.0162670
802.170	0.0164025
802.248	0.0163127
802.326	0.0163286
802.405	0.0162430
802.483	0.0163990
802.561	0.0164847
802.639	0.0163776
802.717	0.0164742
802.795	0.0164186
802.873	0.0162504
802.951	0.0163260
803.030	0.0164412
803.108	0.0164417
803.186	0.0164710
803.264	0.0163380
803.342	0.0163742
803.420	0.0163665
803.498	0.0163205
803.576	0.0162619
803.655	0.0163465
803.733	0.0164422
803.811	0.0164159
803.889	0.0162450
803.967	0.0162387
804.045	0.0163241
804.123	0.0163603
804.201	0.0164072
804.280	0.0163212
804.358	0.0163121
804.436	0.0163414
804.514	0.0163766
804.592	0.0162382
804.670	0.0163751
804.748	0.0162679
804.826	0.0163168
804.905	0.0164315
804.983	0.0162170
805.061	0.0163790
805.139	0.0163913
805.217	0.0163607
805.295	0.0162376
805.373	0.0163220
805.451	0.0162444
805.530	0.0162419
805.608	0.0162451
805.686	0.0162109
805.764	0.0161318
805.842	0.0161397
805.920	0.0161414
805.998	0.0160577
806.076	0.0161039
806.155	0.0161714
806.233	0.0161411
806.311	0.0162051
806.389	0.0160790
806.467	0.0160014
806.545	0.0161347
806.623	0.0161726
806.701	0.0162453
806.780	0.0160483
806.858	0.0160612
806.936	0.0161119
807.014	0.0160326
807.092	0.0160683
807.170	0.0162572
807.248	0.0162006
807.326	0.0160848
807.405	0.0161920
807.483	0.0161902
807.561	0.0162388
807.639	0.0160830
807.717	0.0161192
807.795	0.0162531
807.873	0.0162385
807.951	0.0163838
808.030	0.0163395
808.108	0.0164106
808.186	0.0164556
808.264	0.0164585
808.342	0.0163731
808.420	0.0163655
808.498	0.0162413
808.576	0.0165711
808.655	0.0166399
808.733	0.0163409
808.811	0.0166171
808.889	0.0165299
808.967	0.0165586
809.045	0.0164601
809.123	0.0165807
809.201	0.0164837
809.280	0.0164845
809.358	0.0163767
809.436	0.0163867
809.514	0.0164577
809.592	0.0164158
809.670	0.0164304
809.748	0.0163487
809.826	0.0163157
809.905	0.0163841
809.983	0.0163419
810.061	0.0162901
810.139	0.0163579
810.217	0.0162298
810.295	0.0162687
810.373	0.0160813
810.451	0.0161243
810.530	0.0160108
810.608	0.0160957
810.686	0.0162972
810.764	0.0161336
810.842	0.0160910
810.920	0.0160439
810.998	0.0161293
811.076	0.0162132
811.155	0.0160978
811.233	0.0160966
811.311	0.0162022
811.389	0.0161888
811.467	0.0162524
811.545	0.0163392
811.623	0.0163367
811.701	0.0162760
811.780	0.0163219
811.858	0.0162605
811.936	0.0162471
812.014	0.0162521
812.092	0.0162804
812.170	0.0162988
812.248	0.0162331
812.326	0.0162885
812.405	0.0163804
812.483	0.0163642
812.561	0.0161173
812.639	0.0164566
812.717	0.0163130
812.795	0.0164935
812.873	0.0164741
812.951	0.0163032
813.030	0.0163844
813.108	0.0164397
813.186	0.0162495
813.264	0.0162634
813.342	0.0163132
813.420	0.0163098
813.498	0.0162776
813.576	0.0162164
813.655	0.0163005
813.733	0.0163029
813.811	0.0162154
813.889	0.0161958
813.967	0.0161197
814.045	0.0161426
814.123	0.0163397
814.201	0.0161878
814.280	0.0162116
814.358	0.0162211
814.436	0.0162581
814.514	0.0160960
814.592	0.0160656
814.670	0.0162280
814.748	0.0161506
814.826	0.0162669
814.905	0.0161658
814.983	0.0160462
815.061	0.0162386
815.139	0.0163146
815.217	0.0161503
815.295	0.0161870
815.373	0.0162338
815.451	0.0161679
815.530	0.0162173
815.608	0.0161898
815.686	0.0162700
815.764	0.0162975
815.842	0.0162530
815.920	0.0163550
815.998	0.0163449
816.076	0.0162041
816.155	0.0162625
816.233	0.0162973
816.311	0.0162882
816.389	0.0162862
816.467	0.0161760
816.545	0.0162966
816.623	0.0162461
816.701	0.0162390
816.780	0.0161954
816.858	0.0161678
816.936	0.0161993
817.014	0.0161987
817.092	0.0161147
817.170	0.0162071
817.248	0.0162459
817.326	0.0161697
817.405	0.0161809
817.483	0.0161546
817.561	0.0162157
817.639	0.0160436
817.717	0.0160139
817.795	0.0160289
817.873	0.0162083
817.951	0.0161903
818.030	0.0160181
818.108	0.0160595
818.186	0.0160220
818.264	0.0161813
818.342	0.0160837
818.420	0.0161266
818.498	0.0160899
818.576	0.0161280
818.655	0.0162391
818.733	0.0161507
818.811	0.0162118
818.889	0.0161046
818.967	0.0162061
819.045	0.0161118
819.123	0.0162011
819.201	0.0162023
819.280	0.0161416
819.358	0.0162227
819.436	0.0162292
819.514	0.0161913
819.592	0.0160934
819.670	0.0161904
819.748	0.0162592
819.826	0.0162743
819.905	0.0163441
819.983	0.0163139
820.061	0.0162118
820.139	0.0164441
820.217	0.0164158
820.295	0.0163236
820.373	0.0163329
820.451	0.0163683
820.530	0.0162424
820.608	0.0164275
820.686	0.0163390
820.764	0.0163125
820.842	0.0162984
820.920	0.0163528
820.998	0.0162423
821.076	0.0163072
821.155	0.0163571
821.233	0.0163195
821.311	0.0162984
821.389	0.0162807
821.467	0.0162032
821.545	0.0162089
821.623	0.0163777
821.701	0.0161803
821.780	0.0160572
821.858	0.0162068
821.936	0.0162131
822.014	0.0162609
822.092	0.0162349
822.170	0.0161337
822.248	0.0161923
822.326	0.0161644
822.405	0.0161385
822.483	0.0160741
822.561	0.0161307
822.639	0.0160684
822.717	0.0159708
822.795	0.0161696
822.873	0.0161473
822.951	0.0161309
823.030	0.0161261
823.108	0.0162116
823.186	0.0162373
823.264	0.0161844
823.342	0.0161740
823.420	0.0162678
823.498	0.0162918
823.576	0.0163164
823.655	0.0162277
823.733	0.0161978
823.811	0.0162965
823.889	0.0163586
823.967	0.0164154
824.045	0.0163464
824.123	0.0162568
824.201	0.0164032
824.280	0.0163572
824.358	0.0162962
824.436	0.0164431
824.514	0.0163522
824.592	0.0162894
824.670	0.0165238
824.748	0.0164011
824.826	0.0164450
824.905	0.0163590
824.983	0.0164504
825.061	0.0163168
825.139	0.0164437
825.217	0.0165154
825.295	0.0163774
825.373	0.0163791
825.451	0.0164761
825.530	0.0164324
825.608	0.0165270
825.686	0.0163595
825.764	0.0162016
825.842	0.0163216
825.920	0.0163184
825.998	0.0163142
826.076	0.0161890
826.155	0.0161903
826.233	0.0163262
826.311	0.0162240
826.389	0.0162521
826.467	0.0161980
826.545	0.0162649
826.623	0.0161915
826.701	0.0162151
826.780	0.0162502
826.858	0.0161996
826.936	0.0161508
827.014	0.0162180
827.092	0.0160884
827.170	0.0160798
827.248	0.0160996
827.326	0.0161578
827.405	0.0162302
827.483	0.0162547
827.561	0.0163000
827.639	0.0163306
827.717	0.0161166
827.795	0.0162764
827.873	0.0163344
827.951	0.0161675
828.030	0.0161302
828.108	0.0162560
828.186	0.0164197
828.264	0.0162276
828.342	0.0161786
828.420	0.0163683
828.498	0.0162354
828.576	0.0162921
828.655	0.0162957
828.733	0.0162463
828.811	0.0161546
828.889	0.0161026
828.967	0.0162904
829.045	0.0161807
829.123	0.0162699
829.201	0.0162463
829.280	0.0160152
829.358	0.0160018
829.436	0.0162451
829.514	0.0160979
829.592	0.0162077
829.670	0.0160440
829.748	0.0161431
829.826	0.0161651
829.905	0.0160670
829.983	0.0160947
830.061	0.0161237
830.139	0.0162955
830.217	0.0162144
830.295	0.0161272
830.373	0.0161575
830.451	0.0161166
830.530	0.0160572
830.608	0.0161192
830.686	0.0161154
830.764	0.0161787
830.842	0.0162766
830.920	0.0163004
830.998	0.0162422
831.076	0.0162697
831.155	0.0161415
831.233	0.0161980
831.311	0.0160255
831.389	0.0162606
831.467	0.0162700
831.545	0.0161956
831.623	0.0161471
831.701	0.0162603
831.780	0.0162598
831.858	0.0162065
831.936	0.0163356
832.014	0.0161221
832.092	0.0162303
832.170	0.0162966
832.248	0.0161775
832.326	0.0162162
832.405	0.0162811
832.483	0.0161774
832.561	0.0162576
832.639	0.0160593
832.717	0.0160326
832.795	0.0161526
832.873	0.0163614
832.951	0.0162993
833.030	0.0161968
833.108	0.0161330
833.186	0.0162152
833.264	0.0161227
833.342	0.0161651
833.420	0.0161761
833.498	0.0161879
833.576	0.0161368
833.655	0.0164285
833.733	0.0162366
833.811	0.0161991
833.889	0.0162800
833.967	0.0162107
834.045	0.0163799
834.123	0.0162765
834.201	0.0161684
834.280	0.0163512
834.358	0.0161884
834.436	0.0162004
834.514	0.0161763
834.592	0.0162516
834.670	0.0160287
834.748	0.0160828
834.826	0.0162093
834.905	0.0161272
834.983	0.0161145
835.061	0.0160802
835.139	0.0161137
835.217	0.0161240
835.295	0.0162668
835.373	0.0161642
835.451	0.0158913
835.530	0.0162171
835.608	0.0160812
835.686	0.0161172
835.764	0.0161083
835.842	0.0162597
835.920	0.0161516
835.998	0.0162756
836.076	0.0159654
836.155	0.0162147
836.233	0.0162620
836.311	0.0161796
836.389	0.0163078
836.467	0.0161689
836.545	0.0161605
836.623	0.0163663
836.701	0.0162276
836.780	0.0163093
836.858	0.0162755
836.936	0.0163106
837.014	0.0163643
837.092	0.0162497
837.170	0.0163262
837.248	0.0163280
837.326	0.0163066
837.405	0.0163037
837.483	0.0163815
837.561	0.0163139
837.639	0.0161622
837.717	0.0163509
837.795	0.0162981
837.873	0.0163552
837.951	0.0162334
838.030	0.0161829
838.108	0.0163822
838.186	0.0164009
838.264	0.0162739
838.342	0.0163000
838.420	0.0163166
838.498	0.0162605
838.576	0.0164880
838.655	0.0162747
838.733	0.0163340
838.811	0.0162885
838.889	0.0163468
838.967	0.0163849
839.045	0.0163303
839.123	0.0164179
839.201	0.0163357
839.280	0.0163529
839.358	0.0164160
839.436	0.0162424
839.514	0.0161584
839.592	0.0163492
839.670	0.0163516
839.748	0.0162444
839.826	0.0162626
839.905	0.0163219
839.983	0.0162963
840.061	0.0164611
840.139	0.0162821
840.217	0.0162886
840.295	0.0162522
840.373	0.0164324
840.451	0.0162657
840.530	0.0162345
840.608	0.0162917
840.686	0.0163799
840.764	0.0163358
840.842	0.0163124
840.920	0.0163842
840.998	0.0163829
841.076	0.0162914
841.155	0.0161923
841.233	0.0163837
841.311	0.0162965
841.389	0.0163072
841.467	0.0163454
841.545	0.0162997
841.623	0.0163342
841.701	0.0161582
841.780	0.0162032
841.858	0.0163873
841.936	0.0161732
842.014	0.0161887
842.092	0.0161272
842.170	0.0162676
842.248	0.0163618
842.326	0.0163489
842.405	0.0163361
842.483	0.0162155
842.561	0.0164190
842.639	0.0162444
842.717	0.0162610
842.795	0.0161880
842.873	0.0161784
842.951	0.0164147
843.030	0.0164050
843.108	0.0161335
843.186	0.0163383
843.264	0.0163611
843.342	0.0162613
843.420	0.0162505
843.498	0.0163399
843.576	0.0162624
843.655	0.0161654
843.733	0.0163195
843.811	0.0162270
843.889	0.0162355
843.967	0.0163586
844.045	0.0162770
844.123	0.0161901
844.201	0.0163844
844.280	0.0163287
844.358	0.0162824
844.436	0.0162963
844.514	0.0163820
844.592	0.0163331
844.670	0.0163635
844.748	0.0163918
844.826	0.0163402
844.905	0.0162827
844.983	0.0162823
845.061	0.0163021
845.139	0.0162984
845.217	0.0163691
845.295	0.0162841
845.373	0.0161379
845.451	0.0161327
845.530	0.0162919
845.608	0.0163164
845.686	0.0161816
845.764	0.0162345
845.842	0.0162150
845.920	0.0161931
845.998	0.0162454
846.076	0.0162199
846.155	0.0162109
846.233	0.0161070
846.311	0.0160869
846.389	0.0161919
846.467	0.0162379
846.545	0.0160334
846.623	0.0162352
846.701	0.0162787
846.780	0.0161800
846.858	0.0162839
846.936	0.0160692
847.014	0.0162055
847.092	0.0161983
847.170	0.0163681
847.248	0.0162116
847.326	0.0162533
847.405	0.0163054
847.483	0.0161503
847.561	0.0162119
847.639	0.0162722
847.717	0.0162928
847.795	0.0162673
847.873	0.0162497
847.951	0.0161845
848.030	0.0161515
848.108	0.0162174
848.186	0.0162064
848.264	0.0162981
848.342	0.0162680
848.420	0.0162126
848.498	0.0163992
848.576	0.0162955
848.655	0.0163227
848.733	0.0164006
848.811	0.0162945
848.889	0.0162789
848.967	0.0162843
849.045	0.0164340
849.123	0.0162733
849.201	0.0163548
849.280	0.0164571
849.358	0.0164642
849.436	0.0163757
849.514	0.0165119
849.592	0.0165446
849.670	0.0165366
849.748	0.0164208
849.826	0.0163628
849.905	0.0164114
849.983	0.0165162
850.061	0.0164259
850.139	0.0163280
850.217	0.0163696
850.295	0.0162643
850.373	0.0163310
850.451	0.0163806
850.530	0.0163943
850.608	0.0163614
850.686	0.0163303
850.764	0.0162717
850.842	0.0161579
850.920	0.0163300
850.998	0.0163244
851.076	0.0162097
851.155	0.0162687
851.233	0.0161213
851.311	0.0161899
851.389	0.0163036
851.467	0.0162019
851.545	0.0161695
851.623	0.0162690
851.701	0.0162035
851.780	0.0161928
851.858	0.0161117
851.936	0.0162835
852.014	0.0162931
852.092	0.0162828
852.170	0.0163113
852.248	0.0162206
852.326	0.0161657
852.405	0.0162932
852.483	0.0163972
852.561	0.0163522
852.639	0.0161151
852.717	0.0162556
852.795	0.0161897
852.873	0.0161709
852.951	0.0162503
853.030	0.0161614
853.108	0.0161588
853.186	0.0161472
853.264	0.0161094
853.342	0.0161553
853.420	0.0163149
853.498	0.0161454
853.576	0.0160735
853.655	0.0159483
853.733	0.0162054
853.811	0.0161412
853.889	0.0161954
853.967	0.0161592
854.045	0.0162849
854.123	0.0161588
854.201	0.0162231
854.280	0.0161273
854.358	0.0162148
854.436	0.0162681
854.514	0.0162466
854.592	0.0162375
854.670	0.0162442
854.748	0.0162386
854.826	0.0162460
854.905	0.0161304
854.983	0.0161979
855.061	0.0159968
855.139	0.0162785
855.217	0.0163404
855.295	0.0162866
855.373	0.0163072
855.451	0.0163643
855.530	0.0163206
855.608	0.0161953
855.686	0.0162758
855.764	0.0162002
855.842	0.0162399
855.920	0.0162357
855.998	0.0162071
856.076	0.0163031
856.155	0.0162747
856.233	0.0163064
856.311	0.0163996
856.389	0.0163131
856.467	0.0162524
856.545	0.0161945
856.623	0.0163641
856.701	0.0163302
856.780	0.0163675
856.858	0.0162882
856.936	0.0163377
857.014	0.0161639
857.092	0.0163123
857.170	0.0162211
857.248	0.0162152
857.326	0.0162250
857.405	0.0162846
857.483	0.0162801
857.561	0.0162675
857.639	0.0162599
857.717	0.0161261
857.795	0.0161179
857.873	0.0162892
857.951	0.0161627
858.030	0.0162154
858.108	0.0161650
858.186	0.0162742
858.264	0.0162316
858.342	0.0161937
858.420	0.0162534
858.498	0.0162201
858.576	0.0162640
858.655	0.0162769
858.733	0.0162692
858.811	0.0161677
858.889	0.0161670
858.967	0.0162622
859.045	0.0162474
859.123	0.0162748
859.201	0.0163627
859.280	0.0162992
859.358	0.0162890
859.436	0.0163933
859.514	0.0162191
859.592	0.0161745
859.670	0.0162267
859.748	0.0161903
859.826	0.0162184
859.905	0.0162872
859.983	0.0161376
860.061	0.0161781
860.139	0.0161334
860.217	0.0161802
860.295	0.0160027
860.373	0.0160092
860.451	0.0162152
860.530	0.0160506
860.608	0.0160905
860.686	0.0161202
860.764	0.0162395
860.842	0.0161355
860.920	0.0161341
860.998	0.0160816
861.076	0.0161512
861.155	0.0162347
861.233	0.0160862
861.311	0.0160357
861.389	0.0163175
861.467	0.0161954
861.545	0.0162538
861.623	0.0161672
861.701	0.0162609
861.780	0.0162161
861.858	0.0162201
861.936	0.0161585
862.014	0.0163377
862.092	0.0161813
862.170	0.0160801
862.248	0.0162386
862.326	0.0163264
862.405	0.0161935
862.483	0.0162449
862.561	0.0161539
862.639	0.0162682
862.717	0.0162573
862.795	0.0161991
862.873	0.0160674
862.951	0.0162421
863.030	0.0161318
863.108	0.0161682
863.186	0.0161548
863.264	0.0160274
863.342	0.0161920
863.420	0.0162379
863.498	0.0163216
863.576	0.0162162
863.655	0.0162864
863.733	0.0162350
863.811	0.0161887
863.889	0.0163799
863.967	0.0164342
864.045	0.0163671
864.123	0.0163471
864.201	0.0163787
864.280	0.0163155
864.358	0.0164012
864.436	0.0163180
864.514	0.0163067
864.592	0.0163921
864.670	0.0162656
864.748	0.0162810
864.826	0.0164278
864.905	0.0164046
864.983	0.0161630
865.061	0.0163765
865.139	0.0163932
865.217	0.0162103
865.295	0.0161691
865.373	0.0162769
865.451	0.0162645
865.530	0.0162241
865.608	0.0161215
865.686	0.0163264
865.764	0.0161519
865.842	0.0161810
865.920	0.0161233
865.998	0.0160551
866.076	0.0160902
866.155	0.0161641
866.233	0.0161479
866.311	0.0161207
866.389	0.0162291
866.467	0.0162670
866.545	0.0161434
866.623	0.0162047
866.701	0.0161474
866.780	0.0161886
866.858	0.0163143
866.936	0.0161878
867.014	0.0163219
867.092	0.0162993
867.170	0.0162314
867.248	0.0162878
867.326	0.0162885
867.405	0.0163718
867.483	0.0162689
867.561	0.0163309
867.639	0.0162405
867.717	0.0164128
867.795	0.0163514
867.873	0.0161930
867.951	0.0162108
868.030	0.0163440
868.108	0.0162144
868.186	0.0162180
868.264	0.0163306
868.342	0.0163073
868.420	0.0164260
868.498	0.0161496
868.576	0.0161873
868.655	0.0161584
868.733	0.0162933
868.811	0.0163242
868.889	0.0161893
868.967	0.0162653
869.045	0.0161614
869.123	0.0162115
869.201	0.0161779
869.280	0.0162846
869.358	0.0160912
869.436	0.0160948
869.514	0.0161705
869.592	0.0161971
869.670	0.0161252
869.748	0.0162208
869.826	0.0162549
869.905	0.0161807
869.983	0.0162537
870.061	0.0162691
870.139	0.0162016
870.217	0.0163986
870.295	0.0163457
870.373	0.0162599
870.451	0.0161577
870.530	0.0161979
870.608	0.0162648
870.686	0.0162787
870.764	0.0161836
870.842	0.0161466
870.920	0.0161400
870.998	0.0162386
871.076	0.0162437
871.155	0.0160680
871.233	0.0160820
871.311	0.0161193
871.389	0.0162144
871.467	0.0162479
871.545	0.0163057
871.623	0.0162280
871.701	0.0163149
871.780	0.0163432
871.858	0.0162873
871.936	0.0162550
872.014	0.0162844
872.092	0.0161745
872.170	0.0162192
872.248	0.0163817
872.326	0.0163670
872.405	0.0162599
872.483	0.0163334
872.561	0.0161864
872.639	0.0162727
872.717	0.0162485
872.795	0.0163234
872.873	0.0162142
872.951	0.0162324
873.030	0.0163132
873.108	0.0161845
873.186	0.0162735
873.264	0.0163488
873.342	0.0161737
873.420	0.0162469
873.498	0.0162138
873.576	0.0162385
873.655	0.0163651
873.733	0.0165176
873.811	0.0163728
873.889	0.0161446
873.967	0.0164062
874.045	0.0163678
874.123	0.0162557
874.201	0.0162912
874.280	0.0162970
874.358	0.0163564
874.436	0.0162698
874.514	0.0163561
874.592	0.0163831
874.670	0.0162658
874.748	0.0161259
874.826	0.0163367
874.905	0.0163194
874.983	0.0163734
875.061	0.0162543
875.139	0.0163026
875.217	0.0163676
875.295	0.0163084
875.373	0.0162325
875.451	0.0161782
875.530	0.0163001
875.608	0.0162586
875.686	0.0163636
875.764	0.0163114
875.842	0.0162428
875.920	0.0163836
875.998	0.0163247
876.076	0.0161845
876.155	0.0163564
876.233	0.0162414
876.311	0.0163232
876.389	0.0163017
876.467	0.0161999
876.545	0.0162412
876.623	0.0163373
876.701	0.0161977
876.780	0.0161652
876.858	0.0161687
876.936	0.0162091
877.014	0.0162187
877.092	0.0162998
877.170	0.0163151
877.248	0.0163495
877.326	0.0161919
877.405	0.0162448
877.483	0.0162968
877.561	0.0162223
877.639	0.0163357
877.717	0.0161486
877.795	0.0162790
877.873	0.0161973
877.951	0.0161674
878.030	0.0161908
878.108	0.0162411
878.186	0.0160830
878.264	0.0161789
878.342	0.0161802
878.420	0.0161720
878.498	0.0162382
878.576	0.0161694
878.655	0.0161291
878.733	0.0161613
878.811	0.0162110
878.889	0.0161516
878.967	0.0162244
879.045	0.0161163
879.123	0.0162498
879.201	0.0161050
879.280	0.0162122
879.358	0.0160992
879.436	0.0160986
879.514	0.0161746
879.592	0.0160508
879.670	0.0161427
879.748	0.0163217
879.826	0.0161509
879.905	0.0161418
879.983	0.0161601
880.061	0.0160702
880.139	0.0160219
880.217	0.0161304
880.295	0.0162251
880.373	0.0162642
880.451	0.0161797
880.530	0.0161677
880.608	0.0162539
880.686	0.0162032
880.764	0.0162383
880.842	0.0162564
880.920	0.0161108
880.998	0.0162144
881.076	0.0162468
881.155	0.0161867
881.233	0.0162516
881.311	0.0162814
881.389	0.0160977
881.467	0.0161870
881.545	0.0163062
881.623	0.0162897
881.701	0.0162476
881.780	0.0163200
881.858	0.0163118
881.936	0.0162674
882.014	0.0163230
882.092	0.0163245
882.170	0.0163363
882.248	0.0163665
882.326	0.0162870
882.405	0.0163555
882.483	0.0161932
882.561	0.0162843
882.639	0.0162766
882.717	0.0162632
882.795	0.0163522
882.873	0.0163920
882.951	0.0163891
883.030	0.0163328
883.108	0.0163854
883.186	0.0163908
883.264	0.0163694
883.342	0.0163390
883.420	0.0163836
883.498	0.0163675
883.576	0.0163354
883.655	0.0162330
883.733	0.0162531
883.811	0.0164273
883.889	0.0163560
883.967	0.0163167
884.045	0.0161925
884.123	0.0162431
884.201	0.0161491
884.280	0.0161985
884.358	0.0161620
884.436	0.0162553
884.514	0.0162359
884.592	0.0163273
884.670	0.0162014
884.748	0.0162138
884.826	0.0161915
884.905	0.0162449
884.983	0.0163161
885.061	0.0162823
885.139	0.0161609
885.217	0.0162341
885.295	0.0162228
885.373	0.0162536
885.451	0.0163277
885.530	0.0162995
885.608	0.0161660
885.686	0.0163172
885.764	0.0162673
885.842	0.0164112
885.920	0.0162186
885.998	0.0162263
886.076	0.0162917
886.155	0.0161658
886.233	0.0162979
886.311	0.0162582
886.389	0.0162888
886.467	0.0162760
886.545	0.0163047
886.623	0.0162345
886.701	0.0161783
886.780	0.0161803
886.858	0.0162453
886.936	0.0161922
887.014	0.0161942
887.092	0.0164063
887.170	0.0162647
887.248	0.0162963
887.326	0.0162996
887.405	0.0162833
887.483	0.0162299
887.561	0.0162766
887.639	0.0162447
887.717	0.0163907
887.795	0.0162701
887.873	0.0164223
887.951	0.0162376
888.030	0.0163136
888.108	0.0163558
888.186	0.0163596
888.264	0.0163248
888.342	0.0164119
888.420	0.0163915
888.498	0.0163849
888.576	0.0163538
888.655	0.0164418
888.733	0.0164223
888.811	0.0163302
888.889	0.0163673
888.967	0.0164124
889.045	0.0164169
889.123	0.0163741
889.201	0.0163767
889.280	0.0162391
889.358	0.0162708
889.436	0.0164874
889.514	0.0163768
889.592	0.0162989
889.670	0.0163839
889.748	0.0162755
889.826	0.0162603
889.905	0.0163319
889.983	0.0162907
890.061	0.0162045
890.139	0.0162181
890.217	0.0161787
890.295	0.0162932
890.373	0.0163868
890.451	0.0161659
890.530	0.0161823
890.608	0.0161751
890.686	0.0162671
890.764	0.0160835
890.842	0.0160934
890.920	0.0160676
890.998	0.0160983
891.076	0.0162089
891.155	0.0161657
891.233	0.0161866
891.311	0.0161010
891.389	0.0161926
891.467	0.0161146
891.545	0.0161256
891.623	0.0161007
891.701	0.0160788
891.780	0.0161340
891.858	0.0160526
891.936	0.0160839
892.014	0.0161246
892.092	0.0162577
892.170	0.0162029
892.248	0.0162177
892.326	0.0161760
892.405	0.0162191
892.483	0.0163161
892.561	0.0161819
892.639	0.0163264
892.717	0.0161770
892.795	0.0163020
892.873	0.0162930
892.951	0.0163698
893.030	0.0162145
893.108	0.0161353
893.186	0.0162244
893.264	0.0161715
893.342	0.0161710
893.420	0.0161958
893.498	0.0161660
893.576	0.0162186
893.655	0.0162455
893.733	0.0161176
893.811	0.0162756
893.889	0.0161794
893.967	0.0161046
894.045	0.0160888
894.123	0.0162508
894.201	0.0160603
894.280	0.0161067
894.358	0.0160815
894.436	0.0159969
894.514	0.0162090
894.592	0.0162208
894.670	0.0160879
894.748	0.0162243
894.826	0.0162568
894.905	0.0160508
894.983	0.0160905
895.061	0.0161304
895.139	0.0160668
895.217	0.0162209
895.295	0.0162302
895.373	0.0161633
895.451	0.0160643
895.530	0.0162157
895.608	0.0161308
895.686	0.0161691
895.764	0.0161942
895.842	0.0161382
895.920	0.0162794
895.998	0.0162515
896.076	0.0162778
896.155	0.0162643
896.233	0.0161394
896.311	0.0161294
896.389	0.0162447
896.467	0.0162788
896.545	0.0161756
896.623	0.0161454
896.701	0.0161667
896.780	0.0162411
896.858	0.0162973
896.936	0.0162611
897.014	0.0162600
897.092	0.0161950
897.170	0.0161368
897.248	0.0162946
897.326	0.0163977
897.405	0.0163161
897.483	0.0163188
897.561	0.0161672
897.639	0.0162611
897.717	0.0162659
897.795	0.0162626
897.873	0.0162928
897.951	0.0163374
898.030	0.0162654
898.108	0.0163184
898.186	0.0163908
898.264	0.0162797
898.342	0.0163654
898.420	0.0162070
898.498	0.0162695
898.576	0.0161428
898.655	0.0160559
898.733	0.0161348
898.811	0.0162079
898.889	0.0162739
898.967	0.0163166
899.045	0.0161936
899.123	0.0162071
899.201	0.0159405
899.280	0.0162093
899.358	0.0162182
899.436	0.0161932
899.514	0.0162866
899.592	0.0160695
899.670	0.0161493
899.748	0.0162663
899.826	0.0160613
899.905	0.0161888
899.983	0.0161710
900.061	0.0161305
900.139	0.0161030
900.217	0.0160984
900.295	0.0161459
900.373	0.0161879
900.451	0.0161511
900.530	0.0160770
900.608	0.0161915
900.686	0.0161591
900.764	0.0162132
900.842	0.0162547
900.920	0.0162387
900.998	0.0162603
901.076	0.0161647
901.155	0.0162811
901.233	0.0161447
901.311	0.0162719
901.389	0.0162083
901.467	0.0162720
901.545	0.0161559
901.623	0.0161044
901.701	0.0161696
901.780	0.0161745
901.858	0.0161890
901.936	0.0161099
902.014	0.0161497
902.092	0.0161654
902.170	0.0161774
902.248	0.0161000
902.326	0.0160717
902.405	0.0160407
902.483	0.0161108
902.561	0.0161717
902.639	0.0161211
902.717	0.0161018
902.795	0.0162239
902.873	0.0161218
902.951	0.0160772
903.030	0.0161402
903.108	0.0160972
903.186	0.0160065
903.264	0.0160294
903.342	0.0161367
903.420	0.0160055
903.498	0.0161154
903.576	0.0161551
903.655	0.0161349
903.733	0.0160272
903.811	0.0161578
903.889	0.0162201
903.967	0.0162278
904.045	0.0161507
904.123	0.0160284
904.201	0.0162154
904.280	0.0161713
904.358	0.0163046
904.436	0.0162342
904.514	0.0162521
904.592	0.0160294
904.670	0.0160782
904.748	0.0161920
904.826	0.0162996
904.905	0.0162052
904.983	0.0162518
905.061	0.0164198
905.139	0.0161691
905.217	0.0162589
905.295	0.0161427
905.373	0.0163637
905.451	0.0162581
905.530	0.0161795
905.608	0.0163924
905.686	0.0162472
905.764	0.0163020
905.842	0.0164601
905.920	0.0163419
905.998	0.0162633
906.076	0.0163720
906.155	0.0163828
906.233	0.0164317
906.311	0.0163356
906.389	0.0163615
906.467	0.0164338
906.545	0.0163390
906.623	0.0162482
906.701	0.0163737
906.780	0.0162286
906.858	0.0163236
906.936	0.0162807
907.014	0.0161964
907.092	0.0163311
907.170	0.0162559
907.248	0.0162762
907.326	0.0160984
907.405	0.0161452
907.483	0.0163371
907.561	0.0162132
907.639	0.0162758
907.717	0.0162917
907.795	0.0162789
907.873	0.0162774
907.951	0.0160258
908.030	0.0162110
908.108	0.0162512
908.186	0.0163032
908.264	0.0161889
908.342	0.0161504
908.420	0.0164276
908.498	0.0163161
908.576	0.0163229
908.655	0.0162696
908.733	0.0162314
908.811	0.0164033
908.889	0.0161609
908.967	0.0162726
909.045	0.0163669
909.123	0.0163097
909.201	0.0162199
909.280	0.0162084
909.358	0.0161111
909.436	0.0162074
909.514	0.0161024
909.592	0.0160256
909.670	0.0161508
909.748	0.0161302
909.826	0.0162521
909.905	0.0161826
909.983	0.0161839
910.061	0.0160888
910.139	0.0161866
910.217	0.0161494
910.295	0.0161266
910.373	0.0162268
910.451	0.0162161
910.530	0.0162466
910.608	0.0161118
910.686	0.0161330
910.764	0.0162513
910.842	0.0162112
910.920	0.0161734
910.998	0.0161777
911.076	0.0162730
911.155	0.0163273
911.233	0.0162212
911.311	0.0161534
911.389	0.0162202
911.467	0.0162155
911.545	0.0162047
911.623	0.0162981
911.701	0.0160832
911.780	0.0160201
911.858	0.0160920
911.936	0.0161813
912.014	0.0161002
912.092	0.0161441
912.170	0.0161742
912.248	0.0161196
912.326	0.0160915
912.405	0.0161519
912.483	0.0162064
912.561	0.0162249
912.639	0.0160568
912.717	0.0161437
912.795	0.0161455
912.873	0.0160577
912.951	0.0161819
913.030	0.0162175
913.108	0.0161268
913.186	0.0161046
913.264	0.0163117
913.342	0.0162655
913.420	0.0162246
913.498	0.0163057
913.576	0.0161956
913.655	0.0162130
913.733	0.0161083
913.811	0.0161890
913.889	0.0161914
913.967	0.0161270
914.045	0.0160646
914.123	0.0161874
914.201	0.0161181
914.280	0.0161904
914.358	0.0161023
914.436	0.0162023
914.514	0.0162077
914.592	0.0161048
914.670	0.0161159
914.748	0.0162357
914.826	0.0161964
914.905	0.0160988
914.983	0.0162035
915.061	0.0161985
915.139	0.0163111
915.217	0.0162389
915.295	0.0162154
915.373	0.0161337
915.451	0.0161645
915.530	0.0161060
915.608	0.0161755
915.686	0.0161983
915.764	0.0162120
915.842	0.0161298
915.920	0.0161697
915.998	0.0162420
916.076	0.0161405
916.155	0.0162683
916.233	0.0161991
916.311	0.0162705
916.389	0.0161832
916.467	0.0162415
916.545	0.0162541
916.623	0.0162553
916.701	0.0163018
916.780	0.0162812
916.858	0.0161887
916.936	0.0161848
917.014	0.0163145
917.092	0.0161890
917.170	0.0162570
917.248	0.0163478
917.326	0.0160860
917.405	0.0162989
917.483	0.0163567
917.561	0.0162273
917.639	0.0162210
917.717	0.0162528
917.795	0.0162935
917.873	0.0162543
917.951	0.0161909
918.030	0.0161607
918.108	0.0163062
918.186	0.0162737
918.264	0.0163914
918.342	0.0161877
918.420	0.0162936
918.498	0.0162472
918.576	0.0163502
918.655	0.0161155
918.733	0.0161456
918.811	0.0162991
918.889	0.0161967
918.967	0.0161378
919.045	0.0163731
919.123	0.0161021
919.201	0.0163108
919.280	0.0161879
919.358	0.0161604
919.436	0.0162798
919.514	0.0162112
919.592	0.0162097
919.670	0.0162336
919.748	0.0161722
919.826	0.0161803
919.905	0.0161588
919.983	0.0162898
920.061	0.0162664
920.139	0.0162769
920.217	0.0162714
920.295	0.0162939
920.373	0.0161701
920.451	0.0163163
920.530	0.0164365
920.608	0.0163462
920.686	0.0162604
920.764	0.0161700
920.842	0.0163222
920.920	0.0163483
920.998	0.0164050
921.076	0.0162438
921.155	0.0162700
921.233	0.0163685
921.311	0.0163766
921.389	0.0164137
921.467	0.0164088
921.545	0.0162986
921.623	0.0162357
921.701	0.0164223
921.780	0.0163177
921.858	0.0162847
921.936	0.0162492
922.014	0.0161686
922.092	0.0163056
922.170	0.0162914
922.248	0.0160848
922.326	0.0162527
922.405	0.0161975
922.483	0.0162377
922.561	0.0163318
922.639	0.0161826
922.717	0.0163290
922.795	0.0161720
922.873	0.0161790
922.951	0.0162708
923.030	0.0162611
923.108	0.0161051
923.186	0.0161111
923.264	0.0161118
923.342	0.0161617
923.420	0.0160635
923.498	0.0161253
923.576	0.0160940
923.655	0.0162432
923.733	0.0160791
923.811	0.0161639
923.889	0.0161152
923.967	0.0162151
924.045	0.0161761
924.123	0.0162004
924.201	0.0162576
924.280	0.0160622
924.358	0.0160129
924.436	0.0162036
924.514	0.0161443
924.592	0.0161325
924.670	0.0160513
924.748	0.0162534
924.826	0.0162463
924.905	0.0160325
924.983	0.0161620
925.061	0.0162630
925.139	0.0161968
925.217	0.0160479
925.295	0.0161485
925.373	0.0161639
925.451	0.0163051
925.530	0.0161839
925.608	0.0160665
925.686	0.0163148
925.764	0.0161437
925.842	0.0160995
925.920	0.0162359
925.998	0.0161446
926.076	0.0162176
926.155	0.0163098
926.233	0.0162609
926.311	0.0162492
926.389	0.0161672
926.467	0.0162034
926.545	0.0164095
926.623	0.0162062
926.701	0.0161776
926.780	0.0163127
926.858	0.0163297
926.936	0.0163150
927.014	0.0163182
927.092	0.0162630
927.170	0.0162776
927.248	0.0163101
927.326	0.0162720
927.405	0.0161738
927.483	0.0161764
927.561	0.0163229
927.639	0.0162146
927.717	0.0162110
927.795	0.0162996
927.873	0.0163018
927.951	0.0160816
928.030	0.0162060
928.108	0.0161994
928.186	0.0162722
928.264	0.0162327
928.342	0.0162142
928.420	0.0161891
928.498	0.0161761
928.576	0.0162115
928.655	0.0160664
928.733	0.0162615
928.811	0.0163420
928.889	0.0162170
928.967	0.0161663
929.045	0.0162650
929.123	0.0162523
929.201	0.0160954
929.280	0.0162444
929.358	0.0160690
929.436	0.0162716
929.514	0.0161453
929.592	0.0163374
929.670	0.0162056
929.748	0.0160646
929.826	0.0161713
929.905	0.0162353
929.983	0.0163040
930.061	0.0162499
930.139	0.0160273
930.217	0.0161273
930.295	0.0161338
930.373	0.0161540
930.451	0.0161701
930.530	0.0162158
930.608	0.0161276
930.686	0.0160447
930.764	0.0161356
930.842	0.0161297
930.920	0.0159346
930.998	0.0161621
931.076	0.0161105
931.155	0.0160794
931.233	0.0161825
931.311	0.0161527
931.389	0.0162354
931.467	0.0161725
931.545	0.0161630
931.623	0.0161676
931.701	0.0161886
931.780	0.0160037
931.858	0.0162943
931.936	0.0162987
932.014	0.0163035
932.092	0.0162420
932.170	0.0161809
932.248	0.0162205
932.326	0.0161896
932.405	0.0163713
932.483	0.0162491
932.561	0.0162314
932.639	0.0162514
932.717	0.0163548
932.795	0.0162979
932.873	0.0163847
932.951	0.0161887
933.030	0.0162020
933.108	0.0162912
933.186	0.0162881
933.264	0.0162816
933.342	0.0163183
933.420	0.0162184
933.498	0.0162103
933.576	0.0163822
933.655	0.0163123
933.733	0.0163409
933.811	0.0163369
933.889	0.0164308
933.967	0.0163420
934.045	0.0162849
934.123	0.0163367
934.201	0.0162070
934.280	0.0160825
934.358	0.0161170
934.436	0.0163203
934.514	0.0163237
934.592	0.0162596
934.670	0.0163546
934.748	0.0163354
934.826	0.0161532
934.905	0.0163702
934.983	0.0163954
935.061	0.0162493
935.139	0.0162623
935.217	0.0161916
935.295	0.0162411
935.373	0.0162659
935.451	0.0163370
935.530	0.0163464
935.608	0.0162186
935.686	0.0162067
935.764	0.0162756
935.842	0.0162659
935.920	0.0162224
935.998	0.0162254
936.076	0.0162047
936.155	0.0162569
936.233	0.0160949
936.311	0.0162435
936.389	0.0161788
936.467	0.0162201
936.545	0.0161236
936.623	0.0162305
936.701	0.0161117
936.780	0.0161494
936.858	0.0162688
936.936	0.0163441
937.014	0.0162324
937.092	0.0162674
937.170	0.0161431
937.248	0.0162720
937.326	0.0161108
937.405	0.0161921
937.483	0.0163155
937.561	0.0161539
937.639	0.0161622
937.717	0.0161566
937.795	0.0159633
937.873	0.0162000
937.951	0.0161679
938.030	0.0162149
938.108	0.0161771
938.186	0.0161849
938.264	0.0161474
938.342	0.0160649
938.420	0.0161292
938.498	0.0161121
938.576	0.0160970
938.655	0.0161618
938.733	0.0161190
938.811	0.0161974
938.889	0.0163087
938.967	0.0162505
939.045	0.0163631
939.123	0.0163067
939.201	0.0161938
939.280	0.0161446
939.358	0.0161368
939.436	0.0164007
939.514	0.0164313
939.592	0.0163702
939.670	0.0160928
939.748	0.0162995
939.826	0.0162469
939.905	0.0163560
939.983	0.0163385
940.061	0.0163443
940.139	0.0162729
940.217	0.0161558
940.295	0.0162481
940.373	0.0163019
940.451	0.0162573
940.530	0.0162990
940.608	0.0162479
940.686	0.0162677
940.764	0.0163572
940.842	0.0164154
940.920	0.0163077
940.998	0.0163354
941.076	0.0165012
941.155	0.0163770
941.233	0.0164223
941.311	0.0165036
941.389	0.0165688
941.467	0.0164085
941.545	0.0164368
941.623	0.0164285
941.701	0.0166372
941.780	0.0164529
941.858	0.0164879
941.936	0.0163411
942.014	0.0164244
942.092	0.0164923
942.170	0.0163068
942.248	0.0163233
942.326	0.0163893
942.405	0.0164649
942.483	0.0164304
942.561	0.0163622
942.639	0.0163753
942.717	0.0163459
942.795	0.0163734
942.873	0.0163840
942.951	0.0162578
943.030	0.0161649
943.108	0.0162326
943.186	0.0161906
943.264	0.0161448
943.342	0.0161668
943.420	0.0163136
943.498	0.0162399
943.576	0.0161559
943.655	0.0161681
943.733	0.0161431
943.811	0.0163531
943.889	0.0162778
943.967	0.0162484
944.045	0.0162128
944.123	0.0162534
944.201	0.0163392
944.280	0.0162478
944.358	0.0162505
944.436	0.0162652
944.514	0.0163038
944.592	0.0163032
944.670	0.0163467
944.748	0.0163200
944.826	0.0162408
944.905	0.0163773
944.983	0.0163019
945.061	0.0165623
945.139	0.0163636
945.217	0.0163635
945.295	0.0163734
945.373	0.0163403
945.451	0.0162550
945.530	0.0163680
945.608	0.0164925
945.686	0.0164635
945.764	0.0163506
945.842	0.0162671
945.920	0.0163886
945.998	0.0163212
946.076	0.0162753
946.155	0.0163100
946.233	0.0163631
946.311	0.0162801
946.389	0.0162164
946.467	0.0162595
946.545	0.0163103
946.623	0.0163750
946.701	0.0162490
946.780	0.0161603
946.858	0.0162437
946.936	0.0162592
947.014	0.0163205
947.092	0.0162934
947.170	0.0161461
947.248	0.0163249
947.326	0.0161214
947.405	0.0163742
947.483	0.0162138
947.561	0.0161384
947.639	0.0161674
947.717	0.0163562
947.795	0.0162323
947.873	0.0160920
947.951	0.0162845
948.030	0.0162757
948.108	0.0161986
948.186	0.0163520
948.264	0.0162938
948.342	0.0161564
948.420	0.0162613
948.498	0.0162070
948.576	0.0162529
948.655	0.0161225
948.733	0.0161868
948.811	0.0162702
948.889	0.0161791
948.967	0.0161598
949.045	0.0162188
949.123	0.0162826
949.201	0.0161793
949.280	0.0162492
949.358	0.0162931
949.436	0.0162942
949.514	0.0162753
949.592	0.0162062
949.670	0.0162751
949.748	0.0162622
949.826	0.0162400
949.905	0.0162971
949.983	0.0162888
950.061	0.0162038
950.139	0.0162853
950.217	0.0163394
950.295	0.0163012
950.373	0.0162497
950.451	0.0163550
950.530	0.0161517
950.608	0.0162186
950.686	0.0164040
950.764	0.0163932
950.842	0.0162950
950.920	0.0162765
950.998	0.0163676
951.076	0.0162901
951.155	0.0163586
951.233	0.0165285
951.311	0.0164814
951.389	0.0165089
951.467	0.0163100
951.545	0.0164180
951.623	0.0164069
951.701	0.0163364
951.780	0.0164236
951.858	0.0163349
951.936	0.0162715
952.014	0.0161979
952.092	0.0162643
952.170	0.0162347
952.248	0.0162825
952.326	0.0163415
952.405	0.0162239
952.483	0.0162186
952.561	0.0162623
952.639	0.0163322
952.717	0.0161762
952.795	0.0162422
952.873	0.0164086
952.951	0.0164312
953.030	0.0162109
953.108	0.0163343
953.186	0.0162508
953.264	0.0161984
953.342	0.0163102
953.420	0.0162547
953.498	0.0163513
953.576	0.0162849
953.655	0.0163261
953.733	0.0163449
953.811	0.0161874
953.889	0.0163332
953.967	0.0163450
954.045	0.0160413
954.123	0.0163890
954.201	0.0164760
954.280	0.0162698
954.358	0.0161783
954.436	0.0163424
954.514	0.0164642
954.592	0.0163845
954.670	0.0163379
954.748	0.0162582
954.826	0.0162187
954.905	0.0162141
954.983	0.0163306
955.061	0.0163354
955.139	0.0162057
955.217	0.0162875
955.295	0.0164326
955.373	0.0162354
955.451	0.0162642
955.530	0.0162466
955.608	0.0162502
955.686	0.0162263
955.764	0.0163632
955.842	0.0162611
955.920	0.0162833
955.998	0.0161852
956.076	0.0162659
956.155	0.0163465
956.233	0.0163342
956.311	0.0163015
956.389	0.0161737
956.467	0.0163792
956.545	0.0163010
956.623	0.0162621
956.701	0.0163878
956.780	0.0161337
956.858	0.0162713
956.936	0.0162418
957.014	0.0163394
957.092	0.0162126
957.170	0.0162511
957.248	0.0162904
957.326	0.0162319
957.405	0.0162286
957.483	0.0161831
957.561	0.0163239
957.639	0.0163885
957.717	0.0162396
957.795	0.0162136
957.873	0.0162307
957.951	0.0163738
958.030	0.0162560
958.108	0.0162955
958.186	0.0162225
958.264	0.0162586
958.342	0.0162910
958.420	0.0162157
958.498	0.0161211
958.576	0.0161728
958.655	0.0162952
958.733	0.0163190
958.811	0.0162495
958.889	0.0162208
958.967	0.0160735
959.045	0.0162349
959.123	0.0161236
959.201	0.0161327
959.280	0.0162119
959.358	0.0163486
959.436	0.0162289
959.514	0.0161427
959.592	0.0162636
959.670	0.0162242
959.748	0.0161921
959.826	0.0163225
959.905	0.0162161
