05/17/2022	17:24:40	Ver.	4.1	UNKNOWN
Optical Delay	639.982744	Delta X		0.078125	Sweeps	1	Scan Rate	0/0
Coordinates	Axis 1	NaN	Axis 2	NaN	Axis 3	NaN	Axis 4	NaN	Axis 5	NaN	Axis 6	0.000000
TX Power	0.000000	RX Power	0.000000

639.983	0.0159428
640.061	0.0159373
640.139	0.0158198
640.217	0.0158284
640.295	0.0157436
640.373	0.0157729
640.451	0.0158120
640.530	0.0157629
640.608	0.0157716
640.686	0.0157913
640.764	0.0157822
640.842	0.0157639
640.920	0.0156541
640.998	0.0156498
641.076	0.0157725
641.155	0.0157131
641.233	0.0157622
641.311	0.0156789
641.389	0.0157253
641.467	0.0158014
641.545	0.0157384
641.623	0.0157893
641.701	0.0158988
641.780	0.0158729
641.858	0.0158485
641.936	0.0158770
642.014	0.0158409
642.092	0.0158397
642.170	0.0158607
642.248	0.0157770
642.326	0.0158169
642.405	0.0158979
642.483	0.0159671
642.561	0.0158327
642.639	0.0159242
642.717	0.0157603
642.795	0.0157899
642.873	0.0156576
642.951	0.0157545
643.030	0.0158096
643.108	0.0158101
643.186	0.0158485
643.264	0.0158671
643.342	0.0157401
643.420	0.0158113
643.498	0.0159013
643.576	0.0157275
643.655	0.0159224
643.733	0.0160300
643.811	0.0159903
643.889	0.0160004
643.967	0.0158887
644.045	0.0160050
644.123	0.0159195
644.201	0.0159244
644.280	0.0158904
644.358	0.0159869
644.436	0.0159476
644.514	0.0160106
644.592	0.0160017
644.670	0.0160107
644.748	0.0160121
644.826	0.0161475
644.905	0.0159357
644.983	0.0159112
645.061	0.0159591
645.139	0.0159495
645.217	0.0159039
645.295	0.0160425
645.373	0.0160423
645.451	0.0158631
645.530	0.0158360
645.608	0.0159569
645.686	0.0158395
645.764	0.0157699
645.842	0.0159687
645.920	0.0159465
645.998	0.0158048
646.076	0.0158073
646.155	0.0158282
646.233	0.0157124
646.311	0.0159174
646.389	0.0158649
646.467	0.0158943
646.545	0.0157368
646.623	0.0157458
646.701	0.0157476
646.780	0.0158364
646.858	0.0158887
646.936	0.0157407
647.014	0.0157362
647.092	0.0157948
647.170	0.0157792
647.248	0.0158693
647.326	0.0157738
647.405	0.0158204
647.483	0.0157666
647.561	0.0156955
647.639	0.0157452
647.717	0.0157086
647.795	0.0158249
647.873	0.0158384
647.951	0.0157938
648.030	0.0157587
648.108	0.0157758
648.186	0.0156733
648.264	0.0156252
648.342	0.0157503
648.420	0.0156426
648.498	0.0157285
648.576	0.0158714
648.655	0.0157885
648.733	0.0156934
648.811	0.0158172
648.889	0.0158240
648.967	0.0157597
649.045	0.0157947
649.123	0.0157146
649.201	0.0158124
649.280	0.0157210
649.358	0.0157449
649.436	0.0159008
649.514	0.0156890
649.592	0.0158298
649.670	0.0158591
649.748	0.0159562
649.826	0.0157580
649.905	0.0157783
649.983	0.0158114
650.061	0.0156738
650.139	0.0157230
650.217	0.0157787
650.295	0.0156824
650.373	0.0157642
650.451	0.0158231
650.530	0.0157922
650.608	0.0158489
650.686	0.0158487
650.764	0.0157862
650.842	0.0159572
650.920	0.0157481
650.998	0.0158403
651.076	0.0157641
651.155	0.0158356
651.233	0.0158656
651.311	0.0158345
651.389	0.0158367
651.467	0.0159126
651.545	0.0159888
651.623	0.0159663
651.701	0.0158287
651.780	0.0157502
651.858	0.0159679
651.936	0.0160343
652.014	0.0158767
652.092	0.0159588
652.170	0.0160252
652.248	0.0159837
652.326	0.0158894
652.405	0.0159755
652.483	0.0158427
652.561	0.0158896
652.639	0.0159573
652.717	0.0159494
652.795	0.0159490
652.873	0.0158569
652.951	0.0157950
653.030	0.0157766
653.108	0.0157542
653.186	0.0157460
653.264	0.0156491
653.342	0.0156961
653.420	0.0157324
653.498	0.0157137
653.576	0.0156326
653.655	0.0157364
653.733	0.0157251
653.811	0.0157752
653.889	0.0157546
653.967	0.0157507
654.045	0.0156892
654.123	0.0158727
654.201	0.0158113
654.280	0.0158333
654.358	0.0157427
654.436	0.0159459
654.514	0.0159958
654.592	0.0158087
654.670	0.0159346
654.748	0.0158416
654.826	0.0158642
654.905	0.0160184
654.983	0.0159205
655.061	0.0159386
655.139	0.0159189
655.217	0.0159464
655.295	0.0159112
655.373	0.0158376
655.451	0.0159853
655.530	0.0158841
655.608	0.0159008
655.686	0.0158913
655.764	0.0157348
655.842	0.0158432
655.920	0.0157319
655.998	0.0156892
656.076	0.0157412
656.155	0.0155923
656.233	0.0156818
656.311	0.0155795
656.389	0.0157077
656.467	0.0155732
656.545	0.0155714
656.623	0.0156388
656.701	0.0157559
656.780	0.0157251
656.858	0.0158201
656.936	0.0156683
657.014	0.0158241
657.092	0.0156744
657.170	0.0157614
657.248	0.0156957
657.326	0.0156475
657.405	0.0157190
657.483	0.0158101
657.561	0.0158052
657.639	0.0157240
657.717	0.0158372
657.795	0.0157584
657.873	0.0158479
657.951	0.0158307
658.030	0.0159472
658.108	0.0159013
658.186	0.0157909
658.264	0.0158797
658.342	0.0159227
658.420	0.0159305
658.498	0.0159379
658.576	0.0158569
658.655	0.0159361
658.733	0.0158208
658.811	0.0158132
658.889	0.0158910
658.967	0.0159418
659.045	0.0158899
659.123	0.0158945
659.201	0.0158731
659.280	0.0157963
659.358	0.0159411
659.436	0.0158157
659.514	0.0158019
659.592	0.0158354
659.670	0.0158662
659.748	0.0158276
659.826	0.0158923
659.905	0.0159317
659.983	0.0159521
660.061	0.0159644
660.139	0.0160249
660.217	0.0161750
660.295	0.0161279
660.373	0.0161644
660.451	0.0160182
660.530	0.0160303
660.608	0.0162293
660.686	0.0161570
660.764	0.0162535
660.842	0.0161436
660.920	0.0160793
660.998	0.0161213
661.076	0.0160195
661.155	0.0161778
661.233	0.0161145
661.311	0.0159910
661.389	0.0160652
661.467	0.0162061
661.545	0.0160941
661.623	0.0161462
661.701	0.0159712
661.780	0.0160011
661.858	0.0159785
661.936	0.0160908
662.014	0.0160706
662.092	0.0160643
662.170	0.0160365
662.248	0.0161046
662.326	0.0161584
662.405	0.0161665
662.483	0.0160950
662.561	0.0160642
662.639	0.0159477
662.717	0.0160146
662.795	0.0160295
662.873	0.0158811
662.951	0.0159335
663.030	0.0158093
663.108	0.0159429
663.186	0.0157423
663.264	0.0157568
663.342	0.0156270
663.420	0.0157214
663.498	0.0156060
663.576	0.0155442
663.655	0.0156232
663.733	0.0155807
663.811	0.0154916
663.889	0.0155549
663.967	0.0155389
664.045	0.0153854
664.123	0.0156506
664.201	0.0155760
664.280	0.0154903
664.358	0.0154956
664.436	0.0156217
664.514	0.0155276
664.592	0.0156868
664.670	0.0156468
664.748	0.0154935
664.826	0.0156472
664.905	0.0155422
664.983	0.0156244
665.061	0.0155997
665.139	0.0158150
665.217	0.0158590
665.295	0.0158947
665.373	0.0158243
665.451	0.0156620
665.530	0.0157847
665.608	0.0159226
665.686	0.0158122
665.764	0.0158058
665.842	0.0158082
665.920	0.0156672
665.998	0.0158112
666.076	0.0158802
666.155	0.0157756
666.233	0.0158392
666.311	0.0158010
666.389	0.0159464
666.467	0.0158995
666.545	0.0158514
666.623	0.0159515
666.701	0.0159469
666.780	0.0159015
666.858	0.0156651
666.936	0.0159419
667.014	0.0160329
667.092	0.0159431
667.170	0.0159702
667.248	0.0160521
667.326	0.0161575
667.405	0.0161380
667.483	0.0161240
667.561	0.0160587
667.639	0.0160297
667.717	0.0159221
667.795	0.0160172
667.873	0.0160485
667.951	0.0160960
668.030	0.0160719
668.108	0.0160755
668.186	0.0160599
668.264	0.0159219
668.342	0.0157805
668.420	0.0158554
668.498	0.0158188
668.576	0.0158284
668.655	0.0157793
668.733	0.0157040
668.811	0.0156779
668.889	0.0156251
668.967	0.0156396
669.045	0.0155576
669.123	0.0154812
669.201	0.0156110
669.280	0.0154857
669.358	0.0156258
669.436	0.0156093
669.514	0.0155209
669.592	0.0158535
669.670	0.0158019
669.748	0.0158163
669.826	0.0157394
669.905	0.0159036
669.983	0.0160327
670.061	0.0160332
670.139	0.0159769
670.217	0.0161610
670.295	0.0162210
670.373	0.0161272
670.451	0.0162463
670.530	0.0162955
670.608	0.0164009
670.686	0.0163578
670.764	0.0164297
670.842	0.0164272
670.920	0.0163287
670.998	0.0163120
671.076	0.0162523
671.155	0.0162707
671.233	0.0163835
671.311	0.0163580
671.389	0.0162411
671.467	0.0161340
671.545	0.0162817
671.623	0.0162617
671.701	0.0162450
671.780	0.0160729
671.858	0.0161391
671.936	0.0160233
672.014	0.0160893
672.092	0.0160074
672.170	0.0159769
672.248	0.0159613
672.326	0.0160599
672.405	0.0160072
672.483	0.0158881
672.561	0.0160290
672.639	0.0158587
672.717	0.0159519
672.795	0.0159990
672.873	0.0159135
672.951	0.0158044
673.030	0.0157344
673.108	0.0157709
673.186	0.0156955
673.264	0.0157284
673.342	0.0156059
673.420	0.0156658
673.498	0.0155970
673.576	0.0155910
673.655	0.0156390
673.733	0.0157030
673.811	0.0154512
673.889	0.0155090
673.967	0.0156046
674.045	0.0153384
674.123	0.0154745
674.201	0.0153411
674.280	0.0153396
674.358	0.0151904
674.436	0.0151839
674.514	0.0152419
674.592	0.0151773
674.670	0.0152577
674.748	0.0151899
674.826	0.0152171
674.905	0.0153105
674.983	0.0153955
675.061	0.0153778
675.139	0.0155148
675.217	0.0157722
675.295	0.0156252
675.373	0.0157169
675.451	0.0157182
675.530	0.0160477
675.608	0.0160315
675.686	0.0160733
675.764	0.0161039
675.842	0.0163930
675.920	0.0166036
675.998	0.0165913
676.076	0.0166486
676.155	0.0167513
676.233	0.0167960
676.311	0.0169801
676.389	0.0168113
676.467	0.0169779
676.545	0.0169759
676.623	0.0169028
676.701	0.0170161
676.780	0.0169155
676.858	0.0169658
676.936	0.0168227
677.014	0.0167796
677.092	0.0165884
677.170	0.0166212
677.248	0.0165281
677.326	0.0164748
677.405	0.0163612
677.483	0.0160007
677.561	0.0159905
677.639	0.0159025
677.717	0.0159161
677.795	0.0157360
677.873	0.0155985
677.951	0.0156502
678.030	0.0155410
678.108	0.0155076
678.186	0.0154552
678.264	0.0153639
678.342	0.0154965
678.420	0.0153459
678.498	0.0152039
678.576	0.0152386
678.655	0.0153601
678.733	0.0153574
678.811	0.0153677
678.889	0.0154293
678.967	0.0154893
679.045	0.0153745
679.123	0.0154824
679.201	0.0157246
679.280	0.0156734
679.358	0.0156713
679.436	0.0157522
679.514	0.0157485
679.592	0.0157250
679.670	0.0158401
679.748	0.0157816
679.826	0.0159024
679.905	0.0158360
679.983	0.0158833
680.061	0.0159277
680.139	0.0158880
680.217	0.0157685
680.295	0.0158293
680.373	0.0159879
680.451	0.0159763
680.530	0.0158018
680.608	0.0159313
680.686	0.0160538
680.764	0.0159276
680.842	0.0158878
680.920	0.0159297
680.998	0.0160649
681.076	0.0160801
681.155	0.0159731
681.233	0.0161721
681.311	0.0160712
681.389	0.0161007
681.467	0.0160904
681.545	0.0162537
681.623	0.0162810
681.701	0.0163038
681.780	0.0160099
681.858	0.0163239
681.936	0.0164384
682.014	0.0163608
682.092	0.0163283
682.170	0.0165592
682.248	0.0164534
682.326	0.0161772
682.405	0.0163528
682.483	0.0162565
682.561	0.0163924
682.639	0.0164235
682.717	0.0162817
682.795	0.0162660
682.873	0.0163287
682.951	0.0161939
683.030	0.0161054
683.108	0.0161295
683.186	0.0162682
683.264	0.0159650
683.342	0.0158669
683.420	0.0159221
683.498	0.0158730
683.576	0.0159044
683.655	0.0157066
683.733	0.0157686
683.811	0.0158649
683.889	0.0157570
683.967	0.0157415
684.045	0.0156641
684.123	0.0158067
684.201	0.0157936
684.280	0.0158376
684.358	0.0157690
684.436	0.0160380
684.514	0.0159267
684.592	0.0159307
684.670	0.0161082
684.748	0.0160442
684.826	0.0160552
684.905	0.0161622
684.983	0.0159963
685.061	0.0160325
685.139	0.0161978
685.217	0.0161040
685.295	0.0161468
685.373	0.0160528
685.451	0.0160312
685.530	0.0160169
685.608	0.0160816
685.686	0.0159535
685.764	0.0160746
685.842	0.0160306
685.920	0.0159174
685.998	0.0157607
686.076	0.0158636
686.155	0.0158878
686.233	0.0159286
686.311	0.0158674
686.389	0.0156469
686.467	0.0156626
686.545	0.0157317
686.623	0.0158438
686.701	0.0158352
686.780	0.0157968
686.858	0.0157730
686.936	0.0157433
687.014	0.0159661
687.092	0.0159255
687.170	0.0158004
687.248	0.0159536
687.326	0.0158974
687.405	0.0158845
687.483	0.0158877
687.561	0.0159846
687.639	0.0159135
687.717	0.0159919
687.795	0.0161112
687.873	0.0158948
687.951	0.0159243
688.030	0.0160772
688.108	0.0161478
688.186	0.0158904
688.264	0.0161634
688.342	0.0162899
688.420	0.0159394
688.498	0.0159986
688.576	0.0161213
688.655	0.0160509
688.733	0.0161288
688.811	0.0159836
688.889	0.0161124
688.967	0.0160891
689.045	0.0161102
689.123	0.0158652
689.201	0.0161446
689.280	0.0162297
689.358	0.0159376
689.436	0.0160459
689.514	0.0161012
689.592	0.0160593
689.670	0.0160794
689.748	0.0159989
689.826	0.0159084
689.905	0.0159347
689.983	0.0159507
690.061	0.0157706
690.139	0.0157852
690.217	0.0157492
690.295	0.0157417
690.373	0.0156499
690.451	0.0154650
690.530	0.0154565
690.608	0.0154736
690.686	0.0154163
690.764	0.0154404
690.842	0.0153497
690.920	0.0154145
690.998	0.0153272
691.076	0.0153098
691.155	0.0154222
691.233	0.0155240
691.311	0.0155041
691.389	0.0154264
691.467	0.0155634
691.545	0.0157944
691.623	0.0158661
691.701	0.0157435
691.780	0.0158986
691.858	0.0160549
691.936	0.0161449
692.014	0.0160695
692.092	0.0161374
692.170	0.0161496
692.248	0.0161036
692.326	0.0161488
692.405	0.0162955
692.483	0.0162496
692.561	0.0162463
692.639	0.0162759
692.717	0.0161556
692.795	0.0161683
692.873	0.0161871
692.951	0.0161422
693.030	0.0161466
693.108	0.0161639
693.186	0.0161253
693.264	0.0160950
693.342	0.0160740
693.420	0.0161700
693.498	0.0160706
693.576	0.0160344
693.655	0.0161385
693.733	0.0159683
693.811	0.0159547
693.889	0.0158685
693.967	0.0159343
694.045	0.0158652
694.123	0.0158856
694.201	0.0158871
694.280	0.0159808
694.358	0.0158427
694.436	0.0158644
694.514	0.0159789
694.592	0.0158265
694.670	0.0157809
694.748	0.0158506
694.826	0.0159830
694.905	0.0160326
694.983	0.0159405
695.061	0.0160426
695.139	0.0160587
695.217	0.0160426
695.295	0.0162621
695.373	0.0161699
695.451	0.0162598
695.530	0.0162925
695.608	0.0162618
695.686	0.0164787
695.764	0.0165943
695.842	0.0164893
695.920	0.0163895
695.998	0.0165569
696.076	0.0165215
696.155	0.0165413
696.233	0.0165398
696.311	0.0165482
696.389	0.0164784
696.467	0.0164657
696.545	0.0164336
696.623	0.0164641
696.701	0.0164213
696.780	0.0163283
696.858	0.0161375
696.936	0.0161646
697.014	0.0162355
697.092	0.0159595
697.170	0.0158487
697.248	0.0160065
697.326	0.0158012
697.405	0.0156437
697.483	0.0156878
697.561	0.0156343
697.639	0.0154014
697.717	0.0155832
697.795	0.0154770
697.873	0.0152953
697.951	0.0153149
698.030	0.0153661
698.108	0.0154781
698.186	0.0153666
698.264	0.0154214
698.342	0.0154798
698.420	0.0153953
698.498	0.0153738
698.576	0.0154659
698.655	0.0154958
698.733	0.0155041
698.811	0.0154582
698.889	0.0156086
698.967	0.0156725
699.045	0.0156316
699.123	0.0155538
699.201	0.0156197
699.280	0.0157229
699.358	0.0156520
699.436	0.0157169
699.514	0.0155765
699.592	0.0156323
699.670	0.0157920
699.748	0.0157543
699.826	0.0156116
699.905	0.0157425
699.983	0.0158556
700.061	0.0157811
700.139	0.0158063
700.217	0.0158864
700.295	0.0158663
700.373	0.0159872
700.451	0.0161133
700.530	0.0161222
700.608	0.0163313
700.686	0.0163271
700.764	0.0163749
700.842	0.0165172
700.920	0.0166664
700.998	0.0167001
701.076	0.0166189
701.155	0.0167879
701.233	0.0168620
701.311	0.0167548
701.389	0.0167751
701.467	0.0168275
701.545	0.0167148
701.623	0.0166369
701.701	0.0166739
701.780	0.0166762
701.858	0.0165785
701.936	0.0164951
702.014	0.0163399
702.092	0.0161319
702.170	0.0161728
702.248	0.0161069
702.326	0.0159435
702.405	0.0159902
702.483	0.0157607
702.561	0.0158146
702.639	0.0157144
702.717	0.0157258
702.795	0.0155716
702.873	0.0155379
702.951	0.0154603
703.030	0.0155312
703.108	0.0155184
703.186	0.0153330
703.264	0.0154099
703.342	0.0156217
703.420	0.0152655
703.498	0.0153145
703.576	0.0153756
703.655	0.0154197
703.733	0.0153405
703.811	0.0153715
703.889	0.0155138
703.967	0.0155209
704.045	0.0157205
704.123	0.0156322
704.201	0.0155536
704.280	0.0157236
704.358	0.0156538
704.436	0.0159119
704.514	0.0160072
704.592	0.0158437
704.670	0.0159106
704.748	0.0158755
704.826	0.0160545
704.905	0.0160039
704.983	0.0158832
705.061	0.0159611
705.139	0.0161263
705.217	0.0161480
705.295	0.0161459
705.373	0.0161208
705.451	0.0162714
705.530	0.0162340
705.608	0.0162052
705.686	0.0162984
705.764	0.0162682
705.842	0.0162671
705.920	0.0161220
705.998	0.0162070
706.076	0.0161597
706.155	0.0162012
706.233	0.0161360
706.311	0.0160571
706.389	0.0161315
706.467	0.0160725
706.545	0.0162205
706.623	0.0159855
706.701	0.0159428
706.780	0.0159395
706.858	0.0160895
706.936	0.0159331
707.014	0.0159324
707.092	0.0159307
707.170	0.0158444
707.248	0.0160846
707.326	0.0161269
707.405	0.0160645
707.483	0.0159406
707.561	0.0160379
707.639	0.0158980
707.717	0.0160021
707.795	0.0159438
707.873	0.0159023
707.951	0.0159769
708.030	0.0160464
708.108	0.0159981
708.186	0.0158851
708.264	0.0159031
708.342	0.0158807
708.420	0.0158730
708.498	0.0159900
708.576	0.0158758
708.655	0.0158546
708.733	0.0158467
708.811	0.0158292
708.889	0.0158069
708.967	0.0157835
709.045	0.0157368
709.123	0.0158079
709.201	0.0158677
709.280	0.0157626
709.358	0.0156851
709.436	0.0156311
709.514	0.0156858
709.592	0.0156425
709.670	0.0156592
709.748	0.0156909
709.826	0.0158885
709.905	0.0156404
709.983	0.0155032
710.061	0.0156728
710.139	0.0156390
710.217	0.0156642
710.295	0.0156565
710.373	0.0155720
710.451	0.0156904
710.530	0.0155907
710.608	0.0157590
710.686	0.0157573
710.764	0.0156574
710.842	0.0157326
710.920	0.0156980
710.998	0.0157291
711.076	0.0158891
711.155	0.0158821
711.233	0.0159414
711.311	0.0161505
711.389	0.0159264
711.467	0.0160081
711.545	0.0163201
711.623	0.0164651
711.701	0.0162492
711.780	0.0164397
711.858	0.0165102
711.936	0.0164188
712.014	0.0164670
712.092	0.0162904
712.170	0.0165343
712.248	0.0165208
712.326	0.0164994
712.405	0.0163496
712.483	0.0165043
712.561	0.0165897
712.639	0.0164619
712.717	0.0164158
712.795	0.0165199
712.873	0.0163509
712.951	0.0162836
713.030	0.0162095
713.108	0.0161250
713.186	0.0160835
713.264	0.0162620
713.342	0.0160670
713.420	0.0159467
713.498	0.0160903
713.576	0.0160929
713.655	0.0159261
713.733	0.0159248
713.811	0.0158980
713.889	0.0159013
713.967	0.0157842
714.045	0.0157407
714.123	0.0157511
714.201	0.0157569
714.280	0.0158109
714.358	0.0158044
714.436	0.0159206
714.514	0.0158170
714.592	0.0159329
714.670	0.0158358
714.748	0.0159526
714.826	0.0158974
714.905	0.0158629
714.983	0.0159882
715.061	0.0161800
715.139	0.0160273
715.217	0.0161558
715.295	0.0162354
715.373	0.0161224
715.451	0.0160361
715.530	0.0162035
715.608	0.0162366
715.686	0.0162306
715.764	0.0161363
715.842	0.0161870
715.920	0.0162689
715.998	0.0160379
716.076	0.0161633
716.155	0.0160853
716.233	0.0161026
716.311	0.0159412
716.389	0.0160220
716.467	0.0160662
716.545	0.0159127
716.623	0.0157337
716.701	0.0157702
716.780	0.0158378
716.858	0.0157035
716.936	0.0156245
717.014	0.0157388
717.092	0.0155919
717.170	0.0155994
717.248	0.0154513
717.326	0.0156520
717.405	0.0156271
717.483	0.0154545
717.561	0.0155464
717.639	0.0155360
717.717	0.0156044
717.795	0.0155304
717.873	0.0155672
717.951	0.0157111
718.030	0.0155939
718.108	0.0158572
718.186	0.0156495
718.264	0.0156857
718.342	0.0156355
718.420	0.0157368
718.498	0.0157281
718.576	0.0157557
718.655	0.0158624
718.733	0.0159550
718.811	0.0158574
718.889	0.0160419
718.967	0.0161561
719.045	0.0159939
719.123	0.0160378
719.201	0.0161758
719.280	0.0162547
719.358	0.0163665
719.436	0.0162885
719.514	0.0162271
719.592	0.0163313
719.670	0.0163380
719.748	0.0164194
719.826	0.0162452
719.905	0.0164174
719.983	0.0161039
720.061	0.0161938
720.139	0.0162091
720.217	0.0161338
720.295	0.0160866
720.373	0.0162117
720.451	0.0159891
720.530	0.0158943
720.608	0.0159108
720.686	0.0157789
720.764	0.0157768
720.842	0.0159508
720.920	0.0159013
720.998	0.0156928
721.076	0.0157251
721.155	0.0157571
721.233	0.0156543
721.311	0.0157072
721.389	0.0157651
721.467	0.0156609
721.545	0.0156232
721.623	0.0156236
721.701	0.0158911
721.780	0.0156133
721.858	0.0156980
721.936	0.0158514
722.014	0.0157383
722.092	0.0158463
722.170	0.0159353
722.248	0.0157582
722.326	0.0159851
722.405	0.0159085
722.483	0.0159090
722.561	0.0159396
722.639	0.0158457
722.717	0.0159113
722.795	0.0160043
722.873	0.0159981
722.951	0.0159618
723.030	0.0160402
723.108	0.0160323
723.186	0.0160618
723.264	0.0159786
723.342	0.0159578
723.420	0.0159924
723.498	0.0161272
723.576	0.0160233
723.655	0.0159053
723.733	0.0159286
723.811	0.0158167
723.889	0.0160533
723.967	0.0159930
724.045	0.0158832
724.123	0.0160223
724.201	0.0161451
724.280	0.0159647
724.358	0.0159475
724.436	0.0159743
724.514	0.0159808
724.592	0.0161037
724.670	0.0161288
724.748	0.0161462
724.826	0.0160837
724.905	0.0160315
724.983	0.0161546
725.061	0.0161327
725.139	0.0161629
725.217	0.0162090
725.295	0.0160026
725.373	0.0161394
725.451	0.0160048
725.530	0.0160629
725.608	0.0160242
725.686	0.0160624
725.764	0.0160042
725.842	0.0159408
725.920	0.0159374
725.998	0.0158547
726.076	0.0159121
726.155	0.0159094
726.233	0.0158163
726.311	0.0158643
726.389	0.0158127
726.467	0.0158731
726.545	0.0158638
726.623	0.0157764
726.701	0.0158205
726.780	0.0159395
726.858	0.0158643
726.936	0.0158423
727.014	0.0159098
727.092	0.0157678
727.170	0.0158838
727.248	0.0158541
727.326	0.0158873
727.405	0.0157659
727.483	0.0158009
727.561	0.0158479
727.639	0.0158395
727.717	0.0157201
727.795	0.0156893
727.873	0.0157000
727.951	0.0158274
728.030	0.0157455
728.108	0.0157020
728.186	0.0156853
728.264	0.0158238
728.342	0.0157276
728.420	0.0155012
728.498	0.0156622
728.576	0.0155828
728.655	0.0156939
728.733	0.0154871
728.811	0.0155873
728.889	0.0155565
728.967	0.0155763
729.045	0.0156386
729.123	0.0155499
729.201	0.0156277
729.280	0.0155421
729.358	0.0156503
729.436	0.0156362
729.514	0.0157202
729.592	0.0157663
729.670	0.0158318
729.748	0.0158096
729.826	0.0159264
729.905	0.0159222
729.983	0.0159679
730.061	0.0159742
730.139	0.0161168
730.217	0.0160603
730.295	0.0162362
730.373	0.0164536
730.451	0.0164529
730.530	0.0164077
730.608	0.0164214
730.686	0.0163416
730.764	0.0164561
730.842	0.0164915
730.920	0.0164703
730.998	0.0164323
731.076	0.0163898
731.155	0.0163966
731.233	0.0164408
731.311	0.0162760
731.389	0.0161136
731.467	0.0160574
731.545	0.0160533
731.623	0.0160815
731.701	0.0159960
731.780	0.0157504
731.858	0.0157103
731.936	0.0156926
732.014	0.0156673
732.092	0.0156367
732.170	0.0155840
732.248	0.0155028
732.326	0.0154959
732.405	0.0154334
732.483	0.0153306
732.561	0.0154244
732.639	0.0154581
732.717	0.0154522
732.795	0.0155072
732.873	0.0155521
732.951	0.0155566
733.030	0.0156488
733.108	0.0157863
733.186	0.0157440
733.264	0.0158426
733.342	0.0159003
733.420	0.0159977
733.498	0.0157353
733.576	0.0159248
733.655	0.0158620
733.733	0.0159666
733.811	0.0161131
733.889	0.0160466
733.967	0.0159628
734.045	0.0161733
734.123	0.0161491
734.201	0.0162288
734.280	0.0161690
734.358	0.0163276
734.436	0.0162021
734.514	0.0162939
734.592	0.0163097
734.670	0.0163442
734.748	0.0163503
734.826	0.0162799
734.905	0.0162986
734.983	0.0163972
735.061	0.0163394
735.139	0.0162154
735.217	0.0162471
735.295	0.0161945
735.373	0.0162043
735.451	0.0162593
735.530	0.0160094
735.608	0.0159744
735.686	0.0161312
735.764	0.0158863
735.842	0.0160278
735.920	0.0158340
735.998	0.0157556
736.076	0.0155792
736.155	0.0155894
736.233	0.0157066
736.311	0.0155621
736.389	0.0156853
736.467	0.0154855
736.545	0.0155190
736.623	0.0155785
736.701	0.0156300
736.780	0.0156120
736.858	0.0157524
736.936	0.0155388
737.014	0.0155630
737.092	0.0157132
737.170	0.0157339
737.248	0.0158025
737.326	0.0156908
737.405	0.0159808
737.483	0.0157840
737.561	0.0158066
737.639	0.0160213
737.717	0.0161039
737.795	0.0160754
737.873	0.0161627
737.951	0.0161029
738.030	0.0161179
738.108	0.0161118
738.186	0.0162139
738.264	0.0161951
738.342	0.0162642
738.420	0.0161594
738.498	0.0161875
738.576	0.0160830
738.655	0.0162951
738.733	0.0163454
738.811	0.0163953
738.889	0.0162859
738.967	0.0161791
739.045	0.0162074
739.123	0.0160197
739.201	0.0161182
739.280	0.0162468
739.358	0.0161319
739.436	0.0162513
739.514	0.0159892
739.592	0.0161674
739.670	0.0160895
739.748	0.0160740
739.826	0.0161228
739.905	0.0158671
739.983	0.0158344
740.061	0.0157909
740.139	0.0157850
740.217	0.0158707
740.295	0.0157040
740.373	0.0157739
740.451	0.0158822
740.530	0.0158541
740.608	0.0158261
740.686	0.0157997
740.764	0.0158631
740.842	0.0158289
740.920	0.0157214
740.998	0.0159153
741.076	0.0158192
741.155	0.0158549
741.233	0.0159521
741.311	0.0158929
741.389	0.0159356
741.467	0.0157371
741.545	0.0158664
741.623	0.0159094
741.701	0.0158228
741.780	0.0158982
741.858	0.0157935
741.936	0.0157626
742.014	0.0158189
742.092	0.0158099
742.170	0.0157420
742.248	0.0158675
742.326	0.0159916
742.405	0.0159479
742.483	0.0159443
742.561	0.0159292
742.639	0.0158067
742.717	0.0158584
742.795	0.0160104
742.873	0.0160163
742.951	0.0159042
743.030	0.0159038
743.108	0.0158976
743.186	0.0160320
743.264	0.0158978
743.342	0.0159212
743.420	0.0159196
743.498	0.0157912
743.576	0.0157922
743.655	0.0158443
743.733	0.0158195
743.811	0.0158533
743.889	0.0159021
743.967	0.0158473
744.045	0.0156944
744.123	0.0156538
744.201	0.0158940
744.280	0.0158124
744.358	0.0158256
744.436	0.0158755
744.514	0.0158324
744.592	0.0158369
744.670	0.0159333
744.748	0.0158125
744.826	0.0156963
744.905	0.0156834
744.983	0.0158162
745.061	0.0158894
745.139	0.0156720
745.217	0.0158617
745.295	0.0158309
745.373	0.0157849
745.451	0.0157360
745.530	0.0158077
745.608	0.0158731
745.686	0.0159781
745.764	0.0158255
745.842	0.0159103
745.920	0.0160243
745.998	0.0159045
746.076	0.0158506
746.155	0.0160294
746.233	0.0159239
746.311	0.0159274
746.389	0.0159716
746.467	0.0159695
746.545	0.0160146
746.623	0.0160184
746.701	0.0158736
746.780	0.0159733
746.858	0.0160089
746.936	0.0158442
747.014	0.0159314
747.092	0.0160400
747.170	0.0159458
747.248	0.0157882
747.326	0.0159146
747.405	0.0159303
747.483	0.0160757
747.561	0.0159085
747.639	0.0159238
747.717	0.0159805
747.795	0.0159155
747.873	0.0157929
747.951	0.0159616
748.030	0.0159947
748.108	0.0159839
748.186	0.0159412
748.264	0.0160594
748.342	0.0160702
748.420	0.0159679
748.498	0.0160555
748.576	0.0161224
748.655	0.0161531
748.733	0.0161176
748.811	0.0161192
748.889	0.0160847
748.967	0.0159446
749.045	0.0161029
749.123	0.0159881
749.201	0.0159028
749.280	0.0159571
749.358	0.0158916
749.436	0.0159538
749.514	0.0157664
749.592	0.0157205
749.670	0.0158084
749.748	0.0158966
749.826	0.0159235
749.905	0.0158642
749.983	0.0158905
750.061	0.0159335
750.139	0.0159344
750.217	0.0160233
750.295	0.0159745
750.373	0.0158162
750.451	0.0160585
750.530	0.0161034
750.608	0.0158285
750.686	0.0159289
750.764	0.0160080
750.842	0.0160004
750.920	0.0160587
750.998	0.0159830
751.076	0.0159341
751.155	0.0157611
751.233	0.0158560
751.311	0.0158026
751.389	0.0158609
751.467	0.0159303
751.545	0.0158304
751.623	0.0159270
751.701	0.0157072
751.780	0.0156733
751.858	0.0157874
751.936	0.0157729
752.014	0.0156055
752.092	0.0155759
752.170	0.0155083
752.248	0.0155039
752.326	0.0154852
752.405	0.0156033
752.483	0.0154614
752.561	0.0154221
752.639	0.0155235
752.717	0.0155102
752.795	0.0154800
752.873	0.0154574
752.951	0.0156557
753.030	0.0155708
753.108	0.0155020
753.186	0.0156628
753.264	0.0156377
753.342	0.0157591
753.420	0.0156883
753.498	0.0156790
753.576	0.0157283
753.655	0.0158501
753.733	0.0157108
753.811	0.0158407
753.889	0.0158015
753.967	0.0158100
754.045	0.0158228
754.123	0.0159325
754.201	0.0159328
754.280	0.0161595
754.358	0.0159638
754.436	0.0160063
754.514	0.0159735
754.592	0.0159638
754.670	0.0160982
754.748	0.0161240
754.826	0.0161285
754.905	0.0160934
754.983	0.0159423
755.061	0.0159813
755.139	0.0161181
755.217	0.0160960
755.295	0.0161696
755.373	0.0159764
755.451	0.0160675
755.530	0.0159534
755.608	0.0159076
755.686	0.0159706
755.764	0.0158878
755.842	0.0158163
755.920	0.0157832
755.998	0.0158105
756.076	0.0159035
756.155	0.0159272
756.233	0.0158349
756.311	0.0158450
756.389	0.0156894
756.467	0.0157784
756.545	0.0158511
756.623	0.0158620
756.701	0.0157606
756.780	0.0159196
756.858	0.0158544
756.936	0.0158393
757.014	0.0158125
757.092	0.0159312
757.170	0.0159937
757.248	0.0159462
757.326	0.0158512
757.405	0.0159356
757.483	0.0160122
757.561	0.0159338
757.639	0.0159515
757.717	0.0158663
757.795	0.0158720
757.873	0.0158655
757.951	0.0158263
758.030	0.0158927
758.108	0.0159582
758.186	0.0158761
758.264	0.0159017
758.342	0.0159306
758.420	0.0160402
758.498	0.0161191
758.576	0.0159609
758.655	0.0159577
758.733	0.0161443
758.811	0.0162051
758.889	0.0162045
758.967	0.0161504
759.045	0.0161292
759.123	0.0161700
759.201	0.0160021
759.280	0.0161358
759.358	0.0161304
759.436	0.0160834
759.514	0.0161694
759.592	0.0162054
759.670	0.0161703
759.748	0.0158310
759.826	0.0159820
759.905	0.0159280
759.983	0.0159911
760.061	0.0158161
760.139	0.0160313
760.217	0.0159376
760.295	0.0159594
760.373	0.0159367
760.451	0.0159514
760.530	0.0158858
760.608	0.0159709
760.686	0.0160433
760.764	0.0159570
760.842	0.0159324
760.920	0.0158595
760.998	0.0158991
761.076	0.0158925
761.155	0.0158487
761.233	0.0157939
761.311	0.0158424
761.389	0.0156931
761.467	0.0157795
761.545	0.0156492
761.623	0.0155969
761.701	0.0157523
761.780	0.0158268
761.858	0.0155684
761.936	0.0156667
762.014	0.0156544
762.092	0.0156194
762.170	0.0157508
762.248	0.0155750
762.326	0.0156734
762.405	0.0157702
762.483	0.0157658
762.561	0.0156994
762.639	0.0158483
762.717	0.0157365
762.795	0.0158679
762.873	0.0158611
762.951	0.0158862
763.030	0.0159161
763.108	0.0158672
763.186	0.0158370
763.264	0.0159755
763.342	0.0159755
763.420	0.0157983
763.498	0.0159069
763.576	0.0160419
763.655	0.0160077
763.733	0.0159734
763.811	0.0158653
763.889	0.0160023
763.967	0.0158840
764.045	0.0158835
764.123	0.0158887
764.201	0.0158160
764.280	0.0159367
764.358	0.0158752
764.436	0.0159996
764.514	0.0158867
764.592	0.0158489
764.670	0.0158981
764.748	0.0158559
764.826	0.0157925
764.905	0.0158808
764.983	0.0158307
765.061	0.0157421
765.139	0.0157491
765.217	0.0158244
765.295	0.0157995
765.373	0.0157521
765.451	0.0156620
765.530	0.0155920
765.608	0.0155946
765.686	0.0155931
765.764	0.0156725
765.842	0.0156875
765.920	0.0155763
765.998	0.0156052
766.076	0.0156046
766.155	0.0157481
766.233	0.0156549
766.311	0.0158074
766.389	0.0157489
766.467	0.0158115
766.545	0.0160241
766.623	0.0159553
766.701	0.0159955
766.780	0.0160487
766.858	0.0160698
766.936	0.0161637
767.014	0.0161410
767.092	0.0161719
767.170	0.0162016
767.248	0.0162685
767.326	0.0160409
767.405	0.0160461
767.483	0.0160605
767.561	0.0160217
767.639	0.0159772
767.717	0.0160150
767.795	0.0161859
767.873	0.0159553
767.951	0.0159538
768.030	0.0158596
768.108	0.0159766
768.186	0.0158735
768.264	0.0159835
768.342	0.0161002
768.420	0.0160374
768.498	0.0159588
768.576	0.0158026
768.655	0.0160781
768.733	0.0159227
768.811	0.0160186
768.889	0.0161060
768.967	0.0159406
769.045	0.0159404
769.123	0.0159365
769.201	0.0160017
769.280	0.0160622
769.358	0.0160102
769.436	0.0160703
769.514	0.0160471
769.592	0.0159488
769.670	0.0159532
769.748	0.0159565
769.826	0.0160436
769.905	0.0160971
769.983	0.0158932
770.061	0.0159617
770.139	0.0159897
770.217	0.0159666
770.295	0.0157413
770.373	0.0158858
770.451	0.0158543
770.530	0.0156467
770.608	0.0156927
770.686	0.0156499
770.764	0.0156659
770.842	0.0157144
770.920	0.0156501
770.998	0.0155114
771.076	0.0156344
771.155	0.0156519
771.233	0.0155894
771.311	0.0157806
771.389	0.0156282
771.467	0.0157681
771.545	0.0157326
771.623	0.0157652
771.701	0.0158710
771.780	0.0159840
771.858	0.0159677
771.936	0.0160683
772.014	0.0161077
772.092	0.0162997
772.170	0.0161124
772.248	0.0162453
772.326	0.0161930
772.405	0.0161047
772.483	0.0160963
772.561	0.0160023
772.639	0.0158899
772.717	0.0159470
772.795	0.0157456
772.873	0.0158693
772.951	0.0158289
773.030	0.0155434
773.108	0.0154944
773.186	0.0155988
773.264	0.0155346
773.342	0.0155487
773.420	0.0156342
773.498	0.0155671
773.576	0.0155254
773.655	0.0157337
773.733	0.0156667
773.811	0.0157396
773.889	0.0158384
773.967	0.0161022
774.045	0.0159500
774.123	0.0158797
774.201	0.0159264
774.280	0.0159514
774.358	0.0160178
774.436	0.0161094
774.514	0.0160882
774.592	0.0160113
774.670	0.0158976
774.748	0.0158979
774.826	0.0158679
774.905	0.0157414
774.983	0.0157898
775.061	0.0158086
775.139	0.0158111
775.217	0.0158195
775.295	0.0158533
775.373	0.0157877
775.451	0.0156812
775.530	0.0157574
775.608	0.0157491
775.686	0.0157864
775.764	0.0157869
775.842	0.0157904
775.920	0.0158344
775.998	0.0158475
776.076	0.0159167
776.155	0.0159371
776.233	0.0158523
776.311	0.0158475
776.389	0.0160005
776.467	0.0159253
776.545	0.0159158
776.623	0.0159023
776.701	0.0159045
776.780	0.0159097
776.858	0.0159095
776.936	0.0158927
777.014	0.0158882
777.092	0.0158350
777.170	0.0158480
777.248	0.0159573
777.326	0.0159770
777.405	0.0159425
777.483	0.0159161
777.561	0.0160569
777.639	0.0159209
777.717	0.0159766
777.795	0.0159722
777.873	0.0159949
777.951	0.0160560
778.030	0.0160030
778.108	0.0160297
778.186	0.0161790
778.264	0.0160340
778.342	0.0160649
778.420	0.0159005
778.498	0.0160359
778.576	0.0160398
778.655	0.0160923
778.733	0.0161245
778.811	0.0160862
778.889	0.0160867
778.967	0.0161747
779.045	0.0162020
779.123	0.0162479
779.201	0.0161916
779.280	0.0160921
779.358	0.0162268
779.436	0.0162069
779.514	0.0161745
779.592	0.0163517
779.670	0.0162534
779.748	0.0161874
779.826	0.0162685
779.905	0.0163369
779.983	0.0163243
780.061	0.0162017
780.139	0.0163164
780.217	0.0162897
780.295	0.0161040
780.373	0.0161333
780.451	0.0159937
780.530	0.0160482
780.608	0.0159396
780.686	0.0159501
780.764	0.0159912
780.842	0.0156960
780.920	0.0157575
780.998	0.0157294
781.076	0.0156612
781.155	0.0154447
781.233	0.0156242
781.311	0.0156676
781.389	0.0156506
781.467	0.0156408
781.545	0.0157600
781.623	0.0156757
781.701	0.0157572
781.780	0.0158456
781.858	0.0157563
781.936	0.0156707
782.014	0.0158282
782.092	0.0157598
782.170	0.0158833
782.248	0.0158170
782.326	0.0159242
782.405	0.0158884
782.483	0.0157890
782.561	0.0157421
782.639	0.0159090
782.717	0.0156627
782.795	0.0157419
782.873	0.0157188
782.951	0.0157407
783.030	0.0157070
783.108	0.0157152
783.186	0.0155490
783.264	0.0156034
783.342	0.0157787
783.420	0.0157545
783.498	0.0156709
783.576	0.0156702
783.655	0.0157915
783.733	0.0157108
783.811	0.0158162
783.889	0.0159261
783.967	0.0158891
784.045	0.0157725
784.123	0.0158302
784.201	0.0160035
784.280	0.0159115
784.358	0.0158425
784.436	0.0159290
784.514	0.0160128
784.592	0.0159502
784.670	0.0159354
784.748	0.0159985
784.826	0.0160616
784.905	0.0159631
784.983	0.0158858
785.061	0.0159377
785.139	0.0159236
785.217	0.0158729
785.295	0.0158201
785.373	0.0158357
785.451	0.0157675
785.530	0.0157593
785.608	0.0157867
785.686	0.0158911
785.764	0.0157882
785.842	0.0156425
785.920	0.0158216
785.998	0.0156828
786.076	0.0156259
786.155	0.0156164
786.233	0.0156857
786.311	0.0156844
786.389	0.0156423
786.467	0.0157048
786.545	0.0156517
786.623	0.0157169
786.701	0.0156007
786.780	0.0156526
786.858	0.0156773
786.936	0.0158482
787.014	0.0157429
787.092	0.0158141
787.170	0.0157837
787.248	0.0157634
787.326	0.0157727
787.405	0.0157764
787.483	0.0157257
787.561	0.0157520
787.639	0.0156884
787.717	0.0158054
787.795	0.0156690
787.873	0.0157666
787.951	0.0158561
788.030	0.0158038
788.108	0.0158628
788.186	0.0157962
788.264	0.0156498
788.342	0.0155399
788.420	0.0157450
788.498	0.0158219
788.576	0.0157326
788.655	0.0158521
788.733	0.0156466
788.811	0.0156534
788.889	0.0156688
788.967	0.0157674
789.045	0.0158271
789.123	0.0157820
789.201	0.0157674
789.280	0.0158943
789.358	0.0157442
789.436	0.0157027
789.514	0.0158807
789.592	0.0158910
789.670	0.0157513
789.748	0.0159190
789.826	0.0158315
789.905	0.0157903
789.983	0.0157599
790.061	0.0158927
790.139	0.0158662
790.217	0.0158749
790.295	0.0159702
790.373	0.0158919
790.451	0.0159740
790.530	0.0158807
790.608	0.0158597
790.686	0.0158698
790.764	0.0159602
790.842	0.0158068
790.920	0.0158293
790.998	0.0159219
791.076	0.0157806
791.155	0.0158036
791.233	0.0156889
791.311	0.0157703
791.389	0.0156973
791.467	0.0157037
791.545	0.0157534
791.623	0.0159570
791.701	0.0158856
791.780	0.0159983
791.858	0.0160939
791.936	0.0160499
792.014	0.0160495
792.092	0.0161289
792.170	0.0161604
792.248	0.0162246
792.326	0.0162142
792.405	0.0162032
792.483	0.0162271
792.561	0.0162715
792.639	0.0161664
792.717	0.0162421
792.795	0.0163805
792.873	0.0161950
792.951	0.0162608
793.030	0.0163298
793.108	0.0162279
793.186	0.0161739
793.264	0.0163092
793.342	0.0163008
793.420	0.0161696
793.498	0.0162887
793.576	0.0162650
793.655	0.0162271
793.733	0.0163048
793.811	0.0162384
793.889	0.0162209
793.967	0.0162422
794.045	0.0162171
794.123	0.0162948
794.201	0.0161559
794.280	0.0162350
794.358	0.0161915
794.436	0.0162431
794.514	0.0162344
794.592	0.0161156
794.670	0.0162462
794.748	0.0161515
794.826	0.0161796
794.905	0.0160579
794.983	0.0161869
795.061	0.0161175
795.139	0.0161229
795.217	0.0160793
795.295	0.0160651
795.373	0.0160958
795.451	0.0161053
795.530	0.0159822
795.608	0.0160141
795.686	0.0158569
795.764	0.0157915
795.842	0.0158345
795.920	0.0159531
795.998	0.0159570
796.076	0.0157691
796.155	0.0157477
796.233	0.0157242
796.311	0.0157094
796.389	0.0157641
796.467	0.0157283
796.545	0.0157176
796.623	0.0157661
796.701	0.0156358
796.780	0.0156251
796.858	0.0157113
796.936	0.0155482
797.014	0.0157076
797.092	0.0157325
797.170	0.0156889
797.248	0.0157313
797.326	0.0156645
797.405	0.0157037
797.483	0.0157787
797.561	0.0157124
797.639	0.0158108
797.717	0.0157954
797.795	0.0159431
797.873	0.0159167
797.951	0.0156894
798.030	0.0157507
798.108	0.0158059
798.186	0.0156957
798.264	0.0158057
798.342	0.0157622
798.420	0.0158368
798.498	0.0156923
798.576	0.0159010
798.655	0.0157940
798.733	0.0156190
798.811	0.0157623
798.889	0.0158127
798.967	0.0157534
799.045	0.0156213
799.123	0.0156777
799.201	0.0157941
799.280	0.0157777
799.358	0.0157934
799.436	0.0159491
799.514	0.0157623
799.592	0.0158891
799.670	0.0158587
799.748	0.0158197
799.826	0.0156512
799.905	0.0158129
799.983	0.0157162
800.061	0.0158805
800.139	0.0158031
800.217	0.0159369
800.295	0.0159044
800.373	0.0159203
800.451	0.0158311
800.530	0.0158621
800.608	0.0159319
800.686	0.0157938
800.764	0.0158572
800.842	0.0157743
800.920	0.0159395
800.998	0.0159948
801.076	0.0159328
801.155	0.0160722
801.233	0.0160056
801.311	0.0160509
801.389	0.0160387
801.467	0.0159436
801.545	0.0160799
801.623	0.0160072
801.701	0.0159984
801.780	0.0160358
801.858	0.0161138
801.936	0.0159809
802.014	0.0160197
802.092	0.0159988
802.170	0.0160535
802.248	0.0161918
802.326	0.0160986
802.405	0.0161189
802.483	0.0161354
802.561	0.0162090
802.639	0.0162811
802.717	0.0163242
802.795	0.0162261
802.873	0.0162279
802.951	0.0162751
803.030	0.0164209
803.108	0.0163679
803.186	0.0162964
803.264	0.0163474
803.342	0.0163631
803.420	0.0163762
803.498	0.0162787
803.576	0.0164339
803.655	0.0164501
803.733	0.0163152
803.811	0.0162167
803.889	0.0161836
803.967	0.0162691
804.045	0.0162143
804.123	0.0162173
804.201	0.0161671
804.280	0.0161143
804.358	0.0160590
804.436	0.0161451
804.514	0.0161057
804.592	0.0162174
804.670	0.0160384
804.748	0.0160583
804.826	0.0160317
804.905	0.0160462
804.983	0.0160931
805.061	0.0160046
805.139	0.0160447
805.217	0.0161100
805.295	0.0160423
805.373	0.0159679
805.451	0.0159793
805.530	0.0159243
805.608	0.0158517
805.686	0.0159614
805.764	0.0159347
805.842	0.0160534
805.920	0.0158035
805.998	0.0158225
806.076	0.0158534
806.155	0.0159164
806.233	0.0157948
806.311	0.0157818
806.389	0.0159032
806.467	0.0158983
806.545	0.0158286
806.623	0.0157719
806.701	0.0157224
806.780	0.0159014
806.858	0.0158922
806.936	0.0158755
807.014	0.0158041
807.092	0.0158614
807.170	0.0157976
807.248	0.0156757
807.326	0.0158099
807.405	0.0158843
807.483	0.0157502
807.561	0.0157130
807.639	0.0158769
807.717	0.0159322
807.795	0.0157099
807.873	0.0157967
807.951	0.0159985
808.030	0.0159678
808.108	0.0158145
808.186	0.0157242
808.264	0.0158437
808.342	0.0158798
808.420	0.0158613
808.498	0.0158525
808.576	0.0158193
808.655	0.0159203
808.733	0.0158597
808.811	0.0159236
808.889	0.0158201
808.967	0.0158329
809.045	0.0159864
809.123	0.0160834
809.201	0.0159795
809.280	0.0159244
809.358	0.0160143
809.436	0.0158970
809.514	0.0158602
809.592	0.0159220
809.670	0.0159108
809.748	0.0157954
809.826	0.0157591
809.905	0.0158103
809.983	0.0157840
810.061	0.0157037
810.139	0.0156724
810.217	0.0158334
810.295	0.0157197
810.373	0.0157787
810.451	0.0157185
810.530	0.0156564
810.608	0.0155759
810.686	0.0156790
810.764	0.0156597
810.842	0.0157188
810.920	0.0155624
810.998	0.0157130
811.076	0.0158593
811.155	0.0157207
811.233	0.0159072
811.311	0.0157516
811.389	0.0157022
811.467	0.0158035
811.545	0.0157344
811.623	0.0158608
811.701	0.0158625
811.780	0.0158748
811.858	0.0159029
811.936	0.0158280
812.014	0.0158111
812.092	0.0158296
812.170	0.0159557
812.248	0.0159168
812.326	0.0159873
812.405	0.0159496
812.483	0.0160707
812.561	0.0160131
812.639	0.0159561
812.717	0.0160110
812.795	0.0161087
812.873	0.0158711
812.951	0.0160603
813.030	0.0161074
813.108	0.0161031
813.186	0.0161165
813.264	0.0161388
813.342	0.0160282
813.420	0.0160291
813.498	0.0162291
813.576	0.0160783
813.655	0.0159563
813.733	0.0160780
813.811	0.0161285
813.889	0.0160781
813.967	0.0161153
814.045	0.0161579
814.123	0.0159372
814.201	0.0159991
814.280	0.0160700
814.358	0.0158229
814.436	0.0158819
814.514	0.0159125
814.592	0.0159855
814.670	0.0157888
814.748	0.0159132
814.826	0.0159003
814.905	0.0159831
814.983	0.0159220
815.061	0.0159727
815.139	0.0159588
815.217	0.0159602
815.295	0.0158417
815.373	0.0159023
815.451	0.0159283
815.530	0.0159483
815.608	0.0159422
815.686	0.0160311
815.764	0.0160201
815.842	0.0159418
815.920	0.0159763
815.998	0.0158854
816.076	0.0161000
816.155	0.0159542
816.233	0.0159916
816.311	0.0160405
816.389	0.0159616
816.467	0.0158533
816.545	0.0158762
816.623	0.0158687
816.701	0.0160236
816.780	0.0158828
816.858	0.0159966
816.936	0.0160370
817.014	0.0160235
817.092	0.0160244
817.170	0.0159575
817.248	0.0159700
817.326	0.0160923
817.405	0.0159547
817.483	0.0162411
817.561	0.0161324
817.639	0.0161438
817.717	0.0160859
817.795	0.0159007
817.873	0.0160443
817.951	0.0161048
818.030	0.0158868
818.108	0.0160885
818.186	0.0161800
818.264	0.0159178
818.342	0.0159579
818.420	0.0160443
818.498	0.0160610
818.576	0.0159868
818.655	0.0158439
818.733	0.0160167
818.811	0.0159727
818.889	0.0159164
818.967	0.0159065
819.045	0.0159432
819.123	0.0160260
819.201	0.0159566
819.280	0.0160440
819.358	0.0160407
819.436	0.0158678
819.514	0.0159538
819.592	0.0159311
819.670	0.0158614
819.748	0.0159408
819.826	0.0159237
819.905	0.0159444
819.983	0.0159241
820.061	0.0160340
820.139	0.0159763
820.217	0.0159086
820.295	0.0159244
820.373	0.0158549
820.451	0.0158666
820.530	0.0157649
820.608	0.0158121
820.686	0.0158685
820.764	0.0160017
820.842	0.0158824
820.920	0.0158617
820.998	0.0160100
821.076	0.0160817
821.155	0.0162000
821.233	0.0160184
821.311	0.0161274
821.389	0.0160848
821.467	0.0161909
821.545	0.0160813
821.623	0.0161555
821.701	0.0160886
821.780	0.0159506
821.858	0.0162543
821.936	0.0160831
822.014	0.0160838
822.092	0.0161473
822.170	0.0161182
822.248	0.0160267
822.326	0.0159889
822.405	0.0160694
822.483	0.0160995
822.561	0.0160688
822.639	0.0159138
822.717	0.0160364
822.795	0.0158607
822.873	0.0161184
822.951	0.0161114
823.030	0.0159011
823.108	0.0158444
823.186	0.0158083
823.264	0.0157965
823.342	0.0159988
823.420	0.0160300
823.498	0.0159988
823.576	0.0159081
823.655	0.0159306
823.733	0.0157594
823.811	0.0158886
823.889	0.0159626
823.967	0.0158338
824.045	0.0159119
824.123	0.0158514
824.201	0.0159025
824.280	0.0158785
824.358	0.0158854
824.436	0.0157809
824.514	0.0157840
824.592	0.0160275
824.670	0.0158555
824.748	0.0159180
824.826	0.0159534
824.905	0.0159750
824.983	0.0159859
825.061	0.0159042
825.139	0.0160013
825.217	0.0158627
825.295	0.0159239
825.373	0.0160652
825.451	0.0159597
825.530	0.0159016
825.608	0.0159743
825.686	0.0159138
825.764	0.0160471
825.842	0.0160481
825.920	0.0159749
825.998	0.0159446
826.076	0.0160005
826.155	0.0159595
826.233	0.0159962
826.311	0.0160419
826.389	0.0160886
826.467	0.0161163
826.545	0.0161292
826.623	0.0161021
826.701	0.0162331
826.780	0.0161542
826.858	0.0161696
826.936	0.0162125
827.014	0.0161011
827.092	0.0161394
827.170	0.0163558
827.248	0.0161990
827.326	0.0161069
827.405	0.0161919
827.483	0.0161697
827.561	0.0162270
827.639	0.0160976
827.717	0.0162234
827.795	0.0161716
827.873	0.0162119
827.951	0.0159581
828.030	0.0161095
828.108	0.0162955
828.186	0.0162082
828.264	0.0161526
828.342	0.0159688
828.420	0.0161158
828.498	0.0162967
828.576	0.0160584
828.655	0.0161050
828.733	0.0160606
828.811	0.0160964
828.889	0.0160162
828.967	0.0160661
829.045	0.0160837
829.123	0.0160001
829.201	0.0160481
829.280	0.0160117
829.358	0.0160050
829.436	0.0159915
829.514	0.0160469
829.592	0.0159248
829.670	0.0158784
829.748	0.0159892
829.826	0.0157887
829.905	0.0157568
829.983	0.0159260
830.061	0.0158313
830.139	0.0158975
830.217	0.0157218
830.295	0.0158602
830.373	0.0158398
830.451	0.0158757
830.530	0.0158105
830.608	0.0158193
830.686	0.0158864
830.764	0.0158571
830.842	0.0157645
830.920	0.0158472
830.998	0.0158542
831.076	0.0157631
831.155	0.0157683
831.233	0.0157344
831.311	0.0158940
831.389	0.0158443
831.467	0.0159107
831.545	0.0158904
831.623	0.0159609
831.701	0.0158595
831.780	0.0158585
831.858	0.0159421
831.936	0.0159562
832.014	0.0159644
832.092	0.0158970
832.170	0.0158373
832.248	0.0159138
832.326	0.0159382
832.405	0.0158789
832.483	0.0159685
832.561	0.0158160
832.639	0.0158463
832.717	0.0158656
832.795	0.0158720
832.873	0.0158617
832.951	0.0157962
833.030	0.0158563
833.108	0.0158343
833.186	0.0158872
833.264	0.0159710
833.342	0.0158996
833.420	0.0159151
833.498	0.0159613
833.576	0.0158744
833.655	0.0157689
833.733	0.0158459
833.811	0.0158591
833.889	0.0158060
833.967	0.0158872
834.045	0.0157710
834.123	0.0157970
834.201	0.0158852
834.280	0.0159282
834.358	0.0159348
834.436	0.0158758
834.514	0.0159337
834.592	0.0159312
834.670	0.0159954
834.748	0.0159203
834.826	0.0158905
834.905	0.0160148
834.983	0.0160718
835.061	0.0159940
835.139	0.0159363
835.217	0.0161077
835.295	0.0161076
835.373	0.0159946
835.451	0.0160229
835.530	0.0160611
835.608	0.0159710
835.686	0.0160885
835.764	0.0160123
835.842	0.0161375
835.920	0.0160911
835.998	0.0160489
836.076	0.0159959
836.155	0.0159776
836.233	0.0159503
836.311	0.0158785
836.389	0.0159630
836.467	0.0160260
836.545	0.0160095
836.623	0.0159798
836.701	0.0159576
836.780	0.0160209
836.858	0.0159718
836.936	0.0159602
837.014	0.0158902
837.092	0.0158105
837.170	0.0159782
837.248	0.0159780
837.326	0.0160245
837.405	0.0159704
837.483	0.0158247
837.561	0.0160189
837.639	0.0159804
837.717	0.0159733
837.795	0.0159377
837.873	0.0159383
837.951	0.0159158
838.030	0.0159933
838.108	0.0160413
838.186	0.0160010
838.264	0.0160328
838.342	0.0159007
838.420	0.0159778
838.498	0.0159012
838.576	0.0159383
838.655	0.0161068
838.733	0.0160742
838.811	0.0159016
838.889	0.0160554
838.967	0.0159988
839.045	0.0160139
839.123	0.0158797
839.201	0.0159452
839.280	0.0159932
839.358	0.0159090
839.436	0.0159329
839.514	0.0159692
839.592	0.0160486
839.670	0.0159638
839.748	0.0158053
839.826	0.0161382
839.905	0.0160300
839.983	0.0158313
840.061	0.0159508
840.139	0.0159084
840.217	0.0160290
840.295	0.0159709
840.373	0.0159642
840.451	0.0160184
840.530	0.0159864
840.608	0.0159151
840.686	0.0160110
840.764	0.0159395
840.842	0.0159680
840.920	0.0159669
840.998	0.0159875
841.076	0.0159926
841.155	0.0160793
841.233	0.0159947
841.311	0.0159879
841.389	0.0160680
841.467	0.0159763
841.545	0.0159226
841.623	0.0160197
841.701	0.0161759
841.780	0.0160513
841.858	0.0159598
841.936	0.0161202
842.014	0.0160883
842.092	0.0160846
842.170	0.0160606
842.248	0.0160923
842.326	0.0161159
842.405	0.0160345
842.483	0.0160281
842.561	0.0161569
842.639	0.0160741
842.717	0.0160786
842.795	0.0160880
842.873	0.0159051
842.951	0.0159736
843.030	0.0158260
843.108	0.0160382
843.186	0.0159156
843.264	0.0159851
843.342	0.0159410
843.420	0.0158282
843.498	0.0160134
843.576	0.0159532
843.655	0.0159849
843.733	0.0158515
843.811	0.0159303
843.889	0.0158870
843.967	0.0159464
844.045	0.0158755
844.123	0.0159634
844.201	0.0160139
844.280	0.0159892
844.358	0.0158154
844.436	0.0158705
844.514	0.0159170
844.592	0.0160038
844.670	0.0158552
844.748	0.0159644
844.826	0.0157661
844.905	0.0158047
844.983	0.0158776
845.061	0.0158659
845.139	0.0160329
845.217	0.0160222
845.295	0.0159843
845.373	0.0160635
845.451	0.0158424
845.530	0.0158311
845.608	0.0159473
845.686	0.0157860
845.764	0.0158115
845.842	0.0159019
845.920	0.0159110
845.998	0.0157926
846.076	0.0158915
846.155	0.0158095
846.233	0.0156868
846.311	0.0157486
846.389	0.0158422
846.467	0.0158839
846.545	0.0160193
846.623	0.0158321
846.701	0.0158579
846.780	0.0159249
846.858	0.0160035
846.936	0.0160617
847.014	0.0161417
847.092	0.0161198
847.170	0.0160554
847.248	0.0160407
847.326	0.0161396
847.405	0.0162610
847.483	0.0161429
847.561	0.0161282
847.639	0.0161443
847.717	0.0160275
847.795	0.0162514
847.873	0.0161190
847.951	0.0161663
848.030	0.0162811
848.108	0.0161411
848.186	0.0162224
848.264	0.0161973
848.342	0.0161363
848.420	0.0161790
848.498	0.0161424
848.576	0.0159521
848.655	0.0160674
848.733	0.0161000
848.811	0.0160509
848.889	0.0159182
848.967	0.0159190
849.045	0.0157941
849.123	0.0159069
849.201	0.0158108
849.280	0.0158300
849.358	0.0157703
849.436	0.0158150
849.514	0.0156935
849.592	0.0157401
849.670	0.0156514
849.748	0.0156358
849.826	0.0157285
849.905	0.0156762
849.983	0.0157418
850.061	0.0158053
850.139	0.0156415
850.217	0.0156427
850.295	0.0157407
850.373	0.0155921
850.451	0.0157448
850.530	0.0158546
850.608	0.0157846
850.686	0.0157462
850.764	0.0157217
850.842	0.0159136
850.920	0.0157607
850.998	0.0157954
851.076	0.0157832
851.155	0.0157053
851.233	0.0157669
851.311	0.0157996
851.389	0.0158515
851.467	0.0159030
851.545	0.0157761
851.623	0.0158346
851.701	0.0158749
851.780	0.0158572
851.858	0.0157967
851.936	0.0158026
852.014	0.0158186
852.092	0.0157701
852.170	0.0156910
852.248	0.0157270
852.326	0.0158645
852.405	0.0158620
852.483	0.0157857
852.561	0.0158402
852.639	0.0156946
852.717	0.0158350
852.795	0.0156918
852.873	0.0158184
852.951	0.0157447
853.030	0.0156723
853.108	0.0157990
853.186	0.0157796
853.264	0.0157504
853.342	0.0158626
853.420	0.0158437
853.498	0.0157720
853.576	0.0157961
853.655	0.0157621
853.733	0.0157269
853.811	0.0157362
853.889	0.0158723
853.967	0.0157600
854.045	0.0158832
854.123	0.0157784
854.201	0.0158320
854.280	0.0156963
854.358	0.0158045
854.436	0.0159090
854.514	0.0158527
854.592	0.0157682
854.670	0.0158746
854.748	0.0158104
854.826	0.0159349
854.905	0.0159824
854.983	0.0162345
855.061	0.0161426
855.139	0.0161957
855.217	0.0160970
855.295	0.0160487
855.373	0.0161534
855.451	0.0159278
855.530	0.0161738
855.608	0.0161764
855.686	0.0163111
855.764	0.0161361
855.842	0.0160762
855.920	0.0162544
855.998	0.0161608
856.076	0.0161658
856.155	0.0161816
856.233	0.0161700
856.311	0.0161925
856.389	0.0161500
856.467	0.0161493
856.545	0.0161648
856.623	0.0159966
856.701	0.0160863
856.780	0.0160432
856.858	0.0160407
856.936	0.0161257
857.014	0.0161030
857.092	0.0161185
857.170	0.0161795
857.248	0.0159525
857.326	0.0161481
857.405	0.0160447
857.483	0.0161573
857.561	0.0160751
857.639	0.0160827
857.717	0.0161433
857.795	0.0159630
857.873	0.0161022
857.951	0.0161105
858.030	0.0159581
858.108	0.0158303
858.186	0.0160158
858.264	0.0160172
858.342	0.0159637
858.420	0.0159696
858.498	0.0160384
858.576	0.0159226
858.655	0.0159854
858.733	0.0160825
858.811	0.0159174
858.889	0.0158109
858.967	0.0158177
859.045	0.0159858
859.123	0.0159070
859.201	0.0157185
859.280	0.0158134
859.358	0.0157732
859.436	0.0157041
859.514	0.0157714
859.592	0.0158588
859.670	0.0158138
859.748	0.0157249
859.826	0.0157607
859.905	0.0157043
859.983	0.0156037
860.061	0.0156200
860.139	0.0156199
860.217	0.0158420
860.295	0.0157044
860.373	0.0156537
860.451	0.0157094
860.530	0.0158151
860.608	0.0155264
860.686	0.0156960
860.764	0.0156632
860.842	0.0157607
860.920	0.0158612
860.998	0.0157349
861.076	0.0156727
861.155	0.0157368
861.233	0.0157579
861.311	0.0156936
861.389	0.0156926
861.467	0.0157204
861.545	0.0157552
861.623	0.0158242
861.701	0.0158027
861.780	0.0158096
861.858	0.0156253
861.936	0.0158395
862.014	0.0157156
862.092	0.0158124
862.170	0.0158393
862.248	0.0158308
862.326	0.0157864
862.405	0.0158554
862.483	0.0158710
862.561	0.0157631
862.639	0.0158028
862.717	0.0157973
862.795	0.0158344
862.873	0.0158936
862.951	0.0158852
863.030	0.0157995
863.108	0.0158887
863.186	0.0160467
863.264	0.0160267
863.342	0.0159258
863.420	0.0158489
863.498	0.0159603
863.576	0.0159145
863.655	0.0158405
863.733	0.0161087
863.811	0.0160537
863.889	0.0159059
863.967	0.0160154
864.045	0.0159206
864.123	0.0159676
864.201	0.0160160
864.280	0.0159644
864.358	0.0159583
864.436	0.0160756
864.514	0.0159787
864.592	0.0158952
864.670	0.0159043
864.748	0.0160899
864.826	0.0160098
864.905	0.0160403
864.983	0.0159860
865.061	0.0161556
865.139	0.0160389
865.217	0.0158776
865.295	0.0159971
865.373	0.0159609
865.451	0.0160966
865.530	0.0161174
865.608	0.0161533
865.686	0.0160434
865.764	0.0160978
865.842	0.0159580
865.920	0.0158837
865.998	0.0159141
866.076	0.0159232
866.155	0.0159695
866.233	0.0159060
866.311	0.0157488
866.389	0.0158962
866.467	0.0160022
866.545	0.0158299
866.623	0.0158179
866.701	0.0158859
866.780	0.0160197
866.858	0.0159013
866.936	0.0159431
867.014	0.0159454
867.092	0.0160088
867.170	0.0160485
867.248	0.0161266
867.326	0.0159466
867.405	0.0159694
867.483	0.0162554
867.561	0.0162030
867.639	0.0161418
867.717	0.0161725
867.795	0.0164410
867.873	0.0162688
867.951	0.0163470
868.030	0.0162272
868.108	0.0162183
868.186	0.0162625
868.264	0.0162460
868.342	0.0162762
868.420	0.0163290
868.498	0.0161983
868.576	0.0161850
868.655	0.0161089
868.733	0.0160313
868.811	0.0160291
868.889	0.0160484
868.967	0.0160540
869.045	0.0159081
869.123	0.0159187
869.201	0.0159493
869.280	0.0159089
869.358	0.0158688
869.436	0.0157969
869.514	0.0158195
869.592	0.0156927
869.670	0.0157404
869.748	0.0157399
869.826	0.0155921
869.905	0.0156645
869.983	0.0156673
870.061	0.0156628
870.139	0.0156251
870.217	0.0157152
870.295	0.0157030
870.373	0.0156410
870.451	0.0157009
870.530	0.0157872
870.608	0.0156382
870.686	0.0156687
870.764	0.0158776
870.842	0.0157695
870.920	0.0157223
870.998	0.0156885
871.076	0.0157405
871.155	0.0158745
871.233	0.0158057
871.311	0.0157471
871.389	0.0158991
871.467	0.0157613
871.545	0.0159241
871.623	0.0158371
871.701	0.0158361
871.780	0.0158309
871.858	0.0159344
871.936	0.0157504
872.014	0.0156791
872.092	0.0159798
872.170	0.0158651
872.248	0.0158006
872.326	0.0157913
872.405	0.0158070
872.483	0.0159187
872.561	0.0157720
872.639	0.0157669
872.717	0.0158170
872.795	0.0159079
872.873	0.0158824
872.951	0.0158215
873.030	0.0157774
873.108	0.0157882
873.186	0.0157700
873.264	0.0156760
873.342	0.0158836
873.420	0.0156462
873.498	0.0157582
873.576	0.0157855
873.655	0.0157282
873.733	0.0157841
873.811	0.0157666
873.889	0.0156583
873.967	0.0157317
874.045	0.0156375
874.123	0.0157001
874.201	0.0156803
874.280	0.0157225
874.358	0.0157107
874.436	0.0155586
874.514	0.0156355
874.592	0.0157183
874.670	0.0156346
874.748	0.0156258
874.826	0.0157352
874.905	0.0158009
874.983	0.0156114
875.061	0.0157284
875.139	0.0158661
875.217	0.0156964
875.295	0.0157993
875.373	0.0158150
875.451	0.0157481
875.530	0.0157718
875.608	0.0158206
875.686	0.0157465
875.764	0.0158802
875.842	0.0160030
875.920	0.0158814
875.998	0.0158652
876.076	0.0158989
876.155	0.0157205
876.233	0.0158862
876.311	0.0158862
876.389	0.0157822
876.467	0.0157690
876.545	0.0159479
876.623	0.0158255
876.701	0.0155892
876.780	0.0158949
876.858	0.0158559
876.936	0.0158932
877.014	0.0157568
877.092	0.0157455
877.170	0.0158619
877.248	0.0158820
877.326	0.0158312
877.405	0.0158664
877.483	0.0158892
877.561	0.0157028
877.639	0.0158775
877.717	0.0157390
877.795	0.0157794
877.873	0.0158887
877.951	0.0158896
878.030	0.0159811
878.108	0.0159129
878.186	0.0158247
878.264	0.0159695
878.342	0.0159760
878.420	0.0160899
878.498	0.0160017
878.576	0.0159444
878.655	0.0160364
878.733	0.0160433
878.811	0.0160563
878.889	0.0160053
878.967	0.0159751
879.045	0.0161182
879.123	0.0161463
879.201	0.0161475
879.280	0.0160895
879.358	0.0160824
879.436	0.0160802
879.514	0.0160683
879.592	0.0160611
879.670	0.0159178
879.748	0.0159180
879.826	0.0160543
879.905	0.0161411
879.983	0.0159862
880.061	0.0160490
880.139	0.0160347
880.217	0.0159262
880.295	0.0158794
880.373	0.0160425
880.451	0.0159822
880.530	0.0160448
880.608	0.0160220
880.686	0.0160120
880.764	0.0159624
880.842	0.0159259
880.920	0.0159991
880.998	0.0160545
881.076	0.0159942
881.155	0.0160036
881.233	0.0160828
881.311	0.0160503
881.389	0.0159141
881.467	0.0159061
881.545	0.0159245
881.623	0.0159867
881.701	0.0162031
881.780	0.0160372
881.858	0.0160251
881.936	0.0159451
882.014	0.0159628
882.092	0.0159417
882.170	0.0159229
882.248	0.0159527
882.326	0.0159177
882.405	0.0158591
882.483	0.0159415
882.561	0.0160050
882.639	0.0159885
882.717	0.0157925
882.795	0.0159028
882.873	0.0158443
882.951	0.0158936
883.030	0.0158887
883.108	0.0158718
883.186	0.0158935
883.264	0.0159354
883.342	0.0157874
883.420	0.0157841
883.498	0.0157767
883.576	0.0158998
883.655	0.0157624
883.733	0.0158936
883.811	0.0158527
883.889	0.0157750
883.967	0.0157295
884.045	0.0157482
884.123	0.0158038
884.201	0.0157005
884.280	0.0155496
884.358	0.0158354
884.436	0.0157907
884.514	0.0155460
884.592	0.0156311
884.670	0.0158112
884.748	0.0157451
884.826	0.0157740
884.905	0.0157154
884.983	0.0157549
885.061	0.0156170
885.139	0.0157284
885.217	0.0156538
885.295	0.0156141
885.373	0.0157014
885.451	0.0157668
885.530	0.0155846
885.608	0.0157536
885.686	0.0157429
885.764	0.0155608
885.842	0.0157333
885.920	0.0157667
885.998	0.0158012
886.076	0.0158080
886.155	0.0158378
886.233	0.0158459
886.311	0.0157868
886.389	0.0157342
886.467	0.0158015
886.545	0.0158306
886.623	0.0158388
886.701	0.0157747
886.780	0.0158691
886.858	0.0158738
886.936	0.0158330
887.014	0.0157661
887.092	0.0158855
887.170	0.0158073
887.248	0.0158530
887.326	0.0159338
887.405	0.0158506
887.483	0.0159063
887.561	0.0160079
887.639	0.0159116
887.717	0.0158418
887.795	0.0158099
887.873	0.0158495
887.951	0.0158844
888.030	0.0158971
888.108	0.0159029
888.186	0.0160189
888.264	0.0159253
888.342	0.0158183
888.420	0.0157676
888.498	0.0156709
888.576	0.0159365
888.655	0.0156878
888.733	0.0157176
888.811	0.0157088
888.889	0.0159543
888.967	0.0157834
889.045	0.0156607
889.123	0.0157311
889.201	0.0158698
889.280	0.0156277
889.358	0.0156499
889.436	0.0157288
889.514	0.0158348
889.592	0.0159238
889.670	0.0157619
889.748	0.0157060
889.826	0.0158877
889.905	0.0157040
889.983	0.0158059
890.061	0.0159973
890.139	0.0158772
890.217	0.0156908
890.295	0.0158730
890.373	0.0157656
890.451	0.0157941
890.530	0.0159428
890.608	0.0157156
890.686	0.0157275
890.764	0.0158803
890.842	0.0160117
890.920	0.0159407
890.998	0.0159034
891.076	0.0158190
891.155	0.0159901
891.233	0.0158887
891.311	0.0159105
891.389	0.0159118
891.467	0.0158887
891.545	0.0159414
891.623	0.0158607
891.701	0.0159199
891.780	0.0159262
891.858	0.0157115
891.936	0.0159411
892.014	0.0160421
892.092	0.0158668
892.170	0.0158937
892.248	0.0160502
892.326	0.0159434
892.405	0.0159739
892.483	0.0159191
892.561	0.0159348
892.639	0.0159772
892.717	0.0159840
892.795	0.0159420
892.873	0.0158604
892.951	0.0160099
893.030	0.0158957
893.108	0.0159293
893.186	0.0159403
893.264	0.0159281
893.342	0.0157562
893.420	0.0158267
893.498	0.0157397
893.576	0.0158868
893.655	0.0158707
893.733	0.0159177
893.811	0.0158187
893.889	0.0159189
893.967	0.0160088
894.045	0.0159406
894.123	0.0158898
894.201	0.0158464
894.280	0.0159595
894.358	0.0157303
894.436	0.0159499
894.514	0.0158588
894.592	0.0158477
894.670	0.0158554
894.748	0.0158602
894.826	0.0157746
894.905	0.0157832
894.983	0.0156881
895.061	0.0159054
895.139	0.0157362
895.217	0.0158727
895.295	0.0158671
895.373	0.0158458
895.451	0.0159209
895.530	0.0158617
895.608	0.0159670
895.686	0.0160001
895.764	0.0158606
895.842	0.0157478
895.920	0.0159826
895.998	0.0160563
896.076	0.0160639
896.155	0.0158971
896.233	0.0160507
896.311	0.0160364
896.389	0.0160538
896.467	0.0160733
896.545	0.0158287
896.623	0.0160683
896.701	0.0159916
896.780	0.0158479
896.858	0.0158827
896.936	0.0157354
897.014	0.0158598
897.092	0.0158303
897.170	0.0158385
897.248	0.0157855
897.326	0.0158744
897.405	0.0156071
897.483	0.0157137
897.561	0.0155056
897.639	0.0156889
897.717	0.0157137
897.795	0.0157510
897.873	0.0157071
897.951	0.0156941
898.030	0.0155859
898.108	0.0157146
898.186	0.0157340
898.264	0.0156050
898.342	0.0157341
898.420	0.0157197
898.498	0.0156667
898.576	0.0156007
898.655	0.0156274
898.733	0.0157805
898.811	0.0159373
898.889	0.0156329
898.967	0.0156248
899.045	0.0156411
899.123	0.0154611
899.201	0.0155561
899.280	0.0156494
899.358	0.0156260
899.436	0.0156825
899.514	0.0157320
899.592	0.0156702
899.670	0.0155737
899.748	0.0156531
899.826	0.0156674
899.905	0.0157003
899.983	0.0156187
900.061	0.0157622
900.139	0.0157516
900.217	0.0158215
900.295	0.0156086
900.373	0.0156314
900.451	0.0157463
900.530	0.0158531
900.608	0.0157168
900.686	0.0157068
900.764	0.0157397
900.842	0.0157954
900.920	0.0158975
900.998	0.0158428
901.076	0.0158669
901.155	0.0158363
901.233	0.0158398
901.311	0.0160537
901.389	0.0158608
901.467	0.0159076
901.545	0.0157963
901.623	0.0159697
901.701	0.0159859
901.780	0.0160309
901.858	0.0159414
901.936	0.0159584
902.014	0.0161629
902.092	0.0161217
902.170	0.0159682
902.248	0.0159253
902.326	0.0158320
902.405	0.0158997
902.483	0.0159282
902.561	0.0158555
902.639	0.0160774
902.717	0.0158132
902.795	0.0159257
902.873	0.0159178
902.951	0.0157464
903.030	0.0156934
903.108	0.0158974
903.186	0.0157720
903.264	0.0157990
903.342	0.0159181
903.420	0.0160180
903.498	0.0160043
903.576	0.0158140
903.655	0.0160217
903.733	0.0161534
903.811	0.0159126
903.889	0.0160561
903.967	0.0161519
904.045	0.0160753
904.123	0.0161517
904.201	0.0161106
904.280	0.0161556
904.358	0.0161015
904.436	0.0161419
904.514	0.0161123
904.592	0.0161080
904.670	0.0160290
904.748	0.0158054
904.826	0.0160016
904.905	0.0160142
904.983	0.0158271
905.061	0.0157971
905.139	0.0158125
905.217	0.0157125
905.295	0.0157079
905.373	0.0158258
905.451	0.0158188
905.530	0.0158162
905.608	0.0157603
905.686	0.0158619
905.764	0.0158862
905.842	0.0160175
905.920	0.0158288
905.998	0.0158192
906.076	0.0157980
906.155	0.0159265
906.233	0.0159106
906.311	0.0159442
906.389	0.0159972
906.467	0.0158488
906.545	0.0158910
906.623	0.0159044
906.701	0.0156129
906.780	0.0158139
906.858	0.0161230
906.936	0.0160201
907.014	0.0158256
907.092	0.0157747
907.170	0.0157226
907.248	0.0156975
907.326	0.0158257
907.405	0.0158401
907.483	0.0157193
907.561	0.0158618
907.639	0.0158099
907.717	0.0157853
907.795	0.0157738
907.873	0.0157919
907.951	0.0157521
908.030	0.0157449
908.108	0.0157510
908.186	0.0157514
908.264	0.0156830
908.342	0.0159667
908.420	0.0159229
908.498	0.0157639
908.576	0.0158864
908.655	0.0158669
908.733	0.0159174
908.811	0.0158110
908.889	0.0158858
908.967	0.0159052
909.045	0.0159959
909.123	0.0158324
909.201	0.0160625
909.280	0.0158783
909.358	0.0158640
909.436	0.0159207
909.514	0.0160376
909.592	0.0158318
909.670	0.0159129
909.748	0.0159500
909.826	0.0159536
909.905	0.0159892
909.983	0.0160448
910.061	0.0160640
910.139	0.0159371
910.217	0.0160290
910.295	0.0161018
910.373	0.0159820
910.451	0.0159324
910.530	0.0159109
910.608	0.0159566
910.686	0.0159296
910.764	0.0159840
910.842	0.0158865
910.920	0.0159071
910.998	0.0159807
911.076	0.0158569
911.155	0.0157568
911.233	0.0159621
911.311	0.0160134
911.389	0.0159858
911.467	0.0159222
911.545	0.0157900
911.623	0.0157514
911.701	0.0158387
911.780	0.0158022
911.858	0.0157954
911.936	0.0157299
912.014	0.0157768
912.092	0.0158549
912.170	0.0158297
912.248	0.0157882
912.326	0.0158450
912.405	0.0157832
912.483	0.0157550
912.561	0.0157980
912.639	0.0157938
912.717	0.0157218
912.795	0.0159497
912.873	0.0159017
912.951	0.0158100
913.030	0.0158497
913.108	0.0158760
913.186	0.0158569
913.264	0.0159222
913.342	0.0158261
913.420	0.0157925
913.498	0.0158843
913.576	0.0157314
913.655	0.0159176
913.733	0.0158195
913.811	0.0158267
913.889	0.0159358
913.967	0.0157890
914.045	0.0158545
914.123	0.0157503
914.201	0.0158537
914.280	0.0157426
914.358	0.0157449
914.436	0.0157421
914.514	0.0158034
914.592	0.0159311
914.670	0.0159486
914.748	0.0160065
914.826	0.0159070
914.905	0.0158682
914.983	0.0159471
915.061	0.0159012
915.139	0.0159004
915.217	0.0159271
915.295	0.0160119
915.373	0.0161600
915.451	0.0159979
915.530	0.0160538
915.608	0.0159545
915.686	0.0160187
915.764	0.0160452
915.842	0.0160194
915.920	0.0159451
915.998	0.0159068
916.076	0.0158736
916.155	0.0158475
916.233	0.0158884
916.311	0.0159258
916.389	0.0158131
916.467	0.0159035
916.545	0.0159129
916.623	0.0159065
916.701	0.0158189
916.780	0.0157923
916.858	0.0160291
916.936	0.0159881
917.014	0.0159644
917.092	0.0158504
917.170	0.0159537
917.248	0.0155999
917.326	0.0158366
917.405	0.0158958
917.483	0.0160012
917.561	0.0158218
917.639	0.0158361
917.717	0.0158634
917.795	0.0158043
917.873	0.0158985
917.951	0.0159498
918.030	0.0158885
918.108	0.0159274
918.186	0.0158987
918.264	0.0159000
918.342	0.0159288
918.420	0.0158547
918.498	0.0159308
918.576	0.0159203
918.655	0.0159093
918.733	0.0158366
918.811	0.0159486
918.889	0.0158144
918.967	0.0159061
919.045	0.0157620
919.123	0.0159885
919.201	0.0158128
919.280	0.0157323
919.358	0.0158800
919.436	0.0158597
919.514	0.0157384
919.592	0.0157879
919.670	0.0157218
919.748	0.0157959
919.826	0.0159777
919.905	0.0158892
919.983	0.0157714
920.061	0.0157766
920.139	0.0158075
920.217	0.0157796
920.295	0.0160418
920.373	0.0157722
920.451	0.0156845
920.530	0.0158376
920.608	0.0159090
920.686	0.0159042
920.764	0.0157706
920.842	0.0158327
920.920	0.0160555
920.998	0.0159541
921.076	0.0160295
921.155	0.0160181
921.233	0.0158635
921.311	0.0159129
921.389	0.0159776
921.467	0.0159798
921.545	0.0160600
921.623	0.0158788
921.701	0.0159104
921.780	0.0159632
921.858	0.0160209
921.936	0.0160757
922.014	0.0161618
922.092	0.0160093
922.170	0.0159129
922.248	0.0160764
922.326	0.0160065
922.405	0.0160416
922.483	0.0161372
922.561	0.0161205
922.639	0.0160009
922.717	0.0159354
922.795	0.0161096
922.873	0.0161265
922.951	0.0160738
923.030	0.0161910
923.108	0.0160065
923.186	0.0159847
923.264	0.0159995
923.342	0.0160334
923.420	0.0159828
923.498	0.0160381
923.576	0.0160289
923.655	0.0159221
923.733	0.0158667
923.811	0.0158576
923.889	0.0160615
923.967	0.0158792
924.045	0.0158821
924.123	0.0159074
924.201	0.0160013
924.280	0.0158661
924.358	0.0158289
924.436	0.0159960
924.514	0.0158459
924.592	0.0159161
924.670	0.0159397
924.748	0.0158797
924.826	0.0159457
924.905	0.0158231
924.983	0.0159647
925.061	0.0159695
925.139	0.0158239
925.217	0.0157181
925.295	0.0157177
925.373	0.0159137
925.451	0.0158263
925.530	0.0159215
925.608	0.0159801
925.686	0.0158502
925.764	0.0157237
925.842	0.0157793
925.920	0.0158180
925.998	0.0158186
926.076	0.0158231
926.155	0.0156763
926.233	0.0157944
926.311	0.0159496
926.389	0.0158111
926.467	0.0157857
926.545	0.0158480
926.623	0.0157944
926.701	0.0157721
926.780	0.0158218
926.858	0.0158660
926.936	0.0158358
927.014	0.0158809
927.092	0.0159917
927.170	0.0158755
927.248	0.0159006
927.326	0.0159149
927.405	0.0158966
927.483	0.0160511
927.561	0.0159863
927.639	0.0159019
927.717	0.0159191
927.795	0.0159900
927.873	0.0159889
927.951	0.0158887
928.030	0.0159678
928.108	0.0159317
928.186	0.0160539
928.264	0.0160543
928.342	0.0160277
928.420	0.0160011
928.498	0.0162051
928.576	0.0160465
928.655	0.0159720
928.733	0.0160791
928.811	0.0160447
928.889	0.0161089
928.967	0.0161196
929.045	0.0161510
929.123	0.0161225
929.201	0.0161438
929.280	0.0160736
929.358	0.0160947
929.436	0.0160452
929.514	0.0161234
929.592	0.0161264
929.670	0.0159624
929.748	0.0158590
929.826	0.0159286
929.905	0.0160459
929.983	0.0159817
930.061	0.0158247
930.139	0.0157600
930.217	0.0158405
930.295	0.0159019
930.373	0.0160187
930.451	0.0159253
930.530	0.0159819
930.608	0.0158688
930.686	0.0158700
930.764	0.0158353
930.842	0.0160204
930.920	0.0159744
930.998	0.0158996
931.076	0.0160213
931.155	0.0159648
931.233	0.0159364
931.311	0.0158173
931.389	0.0158047
931.467	0.0160556
931.545	0.0157573
931.623	0.0159019
931.701	0.0160493
931.780	0.0159536
931.858	0.0160593
931.936	0.0157946
932.014	0.0157991
932.092	0.0159142
932.170	0.0158387
932.248	0.0160819
932.326	0.0159597
932.405	0.0158241
932.483	0.0159006
932.561	0.0158942
932.639	0.0158050
932.717	0.0158758
932.795	0.0158051
932.873	0.0158615
932.951	0.0158466
933.030	0.0157979
933.108	0.0157243
933.186	0.0158884
933.264	0.0157848
933.342	0.0157231
933.420	0.0156935
933.498	0.0157121
933.576	0.0157044
933.655	0.0157835
933.733	0.0157433
933.811	0.0156355
933.889	0.0158052
933.967	0.0157867
934.045	0.0158234
934.123	0.0157862
934.201	0.0158783
934.280	0.0158173
934.358	0.0158346
934.436	0.0159068
934.514	0.0158556
934.592	0.0160224
934.670	0.0158955
934.748	0.0159704
934.826	0.0159995
934.905	0.0159503
934.983	0.0158720
935.061	0.0159411
935.139	0.0160189
935.217	0.0158424
935.295	0.0159712
935.373	0.0159575
935.451	0.0158323
935.530	0.0159557
935.608	0.0160296
935.686	0.0160182
935.764	0.0160527
935.842	0.0159196
935.920	0.0159825
935.998	0.0160337
936.076	0.0159454
936.155	0.0159756
936.233	0.0160325
936.311	0.0160588
936.389	0.0161347
936.467	0.0160734
936.545	0.0161402
936.623	0.0159472
936.701	0.0161223
936.780	0.0162715
936.858	0.0160064
936.936	0.0160143
937.014	0.0161727
937.092	0.0161673
937.170	0.0161733
937.248	0.0160992
937.326	0.0160222
937.405	0.0162125
937.483	0.0160491
937.561	0.0160938
937.639	0.0160391
937.717	0.0160640
937.795	0.0159319
937.873	0.0160081
937.951	0.0160878
938.030	0.0159644
938.108	0.0160535
938.186	0.0161071
938.264	0.0159086
938.342	0.0160092
938.420	0.0159812
938.498	0.0159749
938.576	0.0159551
938.655	0.0158873
938.733	0.0159617
938.811	0.0159681
938.889	0.0158646
938.967	0.0158899
939.045	0.0159528
939.123	0.0157581
939.201	0.0158732
939.280	0.0159927
939.358	0.0160086
939.436	0.0159383
939.514	0.0157833
939.592	0.0159457
939.670	0.0159632
939.748	0.0159512
939.826	0.0158607
939.905	0.0158854
939.983	0.0160117
940.061	0.0161588
940.139	0.0160401
940.217	0.0158812
940.295	0.0158681
940.373	0.0160258
940.451	0.0159328
940.530	0.0160349
940.608	0.0161465
940.686	0.0160545
940.764	0.0158639
940.842	0.0158181
940.920	0.0159943
940.998	0.0159724
941.076	0.0159032
941.155	0.0158752
941.233	0.0159100
941.311	0.0158927
941.389	0.0160360
941.467	0.0157452
941.545	0.0157561
941.623	0.0159157
941.701	0.0158670
941.780	0.0158586
941.858	0.0160239
941.936	0.0160269
942.014	0.0159049
942.092	0.0159995
942.170	0.0157205
942.248	0.0158526
942.326	0.0157640
942.405	0.0157915
942.483	0.0157220
942.561	0.0157208
942.639	0.0156228
942.717	0.0156681
942.795	0.0157131
942.873	0.0158436
942.951	0.0156306
943.030	0.0156979
943.108	0.0157114
943.186	0.0155989
943.264	0.0157800
943.342	0.0157471
943.420	0.0157114
943.498	0.0157171
943.576	0.0158392
943.655	0.0157659
943.733	0.0157174
943.811	0.0158411
943.889	0.0157985
943.967	0.0157460
944.045	0.0157771
944.123	0.0158553
944.201	0.0157893
944.280	0.0157939
944.358	0.0157777
944.436	0.0157838
944.514	0.0158313
944.592	0.0159694
944.670	0.0158289
944.748	0.0159348
944.826	0.0158817
944.905	0.0160112
944.983	0.0160149
945.061	0.0158904
945.139	0.0159764
945.217	0.0159224
945.295	0.0160215
945.373	0.0159917
945.451	0.0159908
945.530	0.0160091
945.608	0.0161947
945.686	0.0160200
945.764	0.0158258
945.842	0.0159737
945.920	0.0159866
945.998	0.0161682
946.076	0.0160589
946.155	0.0160704
946.233	0.0160332
946.311	0.0159833
946.389	0.0160098
946.467	0.0160459
946.545	0.0159801
946.623	0.0159673
946.701	0.0159837
946.780	0.0159728
946.858	0.0159656
946.936	0.0159343
947.014	0.0158861
947.092	0.0158842
947.170	0.0159167
947.248	0.0158611
947.326	0.0160487
947.405	0.0158604
947.483	0.0158189
947.561	0.0159063
947.639	0.0158811
947.717	0.0158871
947.795	0.0159840
947.873	0.0159982
947.951	0.0159166
948.030	0.0161567
948.108	0.0159702
948.186	0.0159499
948.264	0.0159789
948.342	0.0160196
948.420	0.0160085
948.498	0.0160141
948.576	0.0160697
948.655	0.0159892
948.733	0.0160332
948.811	0.0160220
948.889	0.0159362
948.967	0.0160197
949.045	0.0160220
949.123	0.0159518
949.201	0.0159644
949.280	0.0160785
949.358	0.0160442
949.436	0.0159730
949.514	0.0160590
949.592	0.0160197
949.670	0.0158782
949.748	0.0159377
949.826	0.0161281
949.905	0.0160866
949.983	0.0159607
950.061	0.0161027
950.139	0.0159625
950.217	0.0159377
950.295	0.0159157
950.373	0.0158434
950.451	0.0158939
950.530	0.0159901
950.608	0.0159061
950.686	0.0159542
950.764	0.0159140
950.842	0.0158936
950.920	0.0159461
950.998	0.0159054
951.076	0.0158490
951.155	0.0157852
951.233	0.0159417
951.311	0.0159685
951.389	0.0159377
951.467	0.0159424
951.545	0.0159487
951.623	0.0159441
951.701	0.0159986
951.780	0.0159377
951.858	0.0160511
951.936	0.0159071
952.014	0.0158540
952.092	0.0159293
952.170	0.0159051
952.248	0.0158446
952.326	0.0159878
952.405	0.0160076
952.483	0.0159299
952.561	0.0159327
952.639	0.0159549
952.717	0.0158573
952.795	0.0159571
952.873	0.0159844
952.951	0.0160179
953.030	0.0159032
953.108	0.0159634
953.186	0.0158903
953.264	0.0159572
953.342	0.0159390
953.420	0.0160310
953.498	0.0160538
953.576	0.0159974
953.655	0.0159492
953.733	0.0160215
953.811	0.0160524
953.889	0.0160309
953.967	0.0159660
954.045	0.0159926
954.123	0.0161448
954.201	0.0161098
954.280	0.0161973
954.358	0.0161028
954.436	0.0160675
954.514	0.0160184
954.592	0.0161938
954.670	0.0160917
954.748	0.0160744
954.826	0.0160445
954.905	0.0160999
954.983	0.0161006
955.061	0.0161267
955.139	0.0160916
955.217	0.0159371
955.295	0.0159773
955.373	0.0160965
955.451	0.0160544
955.530	0.0158681
955.608	0.0160309
955.686	0.0160170
955.764	0.0159808
955.842	0.0157950
955.920	0.0159776
955.998	0.0160967
956.076	0.0160057
956.155	0.0159998
956.233	0.0159225
956.311	0.0159458
956.389	0.0158742
956.467	0.0159214
956.545	0.0160471
956.623	0.0160662
956.701	0.0160088
956.780	0.0158624
956.858	0.0159357
956.936	0.0159222
957.014	0.0161242
957.092	0.0161346
957.170	0.0161150
957.248	0.0160636
957.326	0.0160497
957.405	0.0160793
957.483	0.0159640
957.561	0.0160347
957.639	0.0161343
957.717	0.0162169
957.795	0.0159850
957.873	0.0160730
957.951	0.0160721
958.030	0.0160374
958.108	0.0160641
958.186	0.0160226
958.264	0.0160437
958.342	0.0159714
958.420	0.0159927
958.498	0.0159686
958.576	0.0160555
958.655	0.0158865
958.733	0.0159278
958.811	0.0158815
958.889	0.0160170
958.967	0.0160179
959.045	0.0159334
959.123	0.0159834
959.201	0.0159453
959.280	0.0158909
959.358	0.0159661
959.436	0.0159883
959.514	0.0158244
959.592	0.0160263
959.670	0.0160036
959.748	0.0159566
959.826	0.0158893
959.905	0.0159933
