05/17/2022	17:25:35	Ver.	4.1	UNKNOWN
Optical Delay	639.982744	Delta X		0.078125	Sweeps	1	Scan Rate	0/0
Coordinates	Axis 1	NaN	Axis 2	NaN	Axis 3	NaN	Axis 4	NaN	Axis 5	NaN	Axis 6	0.000000
TX Power	0.000000	RX Power	0.000000

639.983	0.0158268
640.061	0.0155686
640.139	0.0156774
640.217	0.0157536
640.295	0.0157370
640.373	0.0157265
640.451	0.0156413
640.530	0.0156695
640.608	0.0158344
640.686	0.0158344
640.764	0.0157813
640.842	0.0156800
640.920	0.0157281
640.998	0.0157982
641.076	0.0158207
641.155	0.0158922
641.233	0.0158104
641.311	0.0158601
641.389	0.0159937
641.467	0.0159274
641.545	0.0158965
641.623	0.0159316
641.701	0.0158290
641.780	0.0158513
641.858	0.0159590
641.936	0.0160104
642.014	0.0160326
642.092	0.0161016
642.170	0.0161682
642.248	0.0162527
642.326	0.0162429
642.405	0.0161721
642.483	0.0163152
642.561	0.0162008
642.639	0.0162182
642.717	0.0163136
642.795	0.0162887
642.873	0.0163647
642.951	0.0163656
643.030	0.0163525
643.108	0.0163623
643.186	0.0163431
643.264	0.0163562
643.342	0.0163831
643.420	0.0162630
643.498	0.0162109
643.576	0.0162379
643.655	0.0162588
643.733	0.0161787
643.811	0.0162048
643.889	0.0161029
643.967	0.0161314
644.045	0.0161285
644.123	0.0160999
644.201	0.0158863
644.280	0.0159821
644.358	0.0162078
644.436	0.0159240
644.514	0.0158482
644.592	0.0157906
644.670	0.0158605
644.748	0.0157813
644.826	0.0156184
644.905	0.0157211
644.983	0.0157074
645.061	0.0156285
645.139	0.0157354
645.217	0.0156884
645.295	0.0154432
645.373	0.0156138
645.451	0.0156861
645.530	0.0155769
645.608	0.0156393
645.686	0.0155461
645.764	0.0154757
645.842	0.0154894
645.920	0.0155477
645.998	0.0154182
646.076	0.0155587
646.155	0.0155604
646.233	0.0156189
646.311	0.0155093
646.389	0.0155728
646.467	0.0156343
646.545	0.0156844
646.623	0.0156416
646.701	0.0157054
646.780	0.0156786
646.858	0.0157192
646.936	0.0158292
647.014	0.0159306
647.092	0.0160313
647.170	0.0160213
647.248	0.0160316
647.326	0.0160959
647.405	0.0161935
647.483	0.0161261
647.561	0.0162163
647.639	0.0163020
647.717	0.0162111
647.795	0.0161846
647.873	0.0162689
647.951	0.0161314
648.030	0.0161497
648.108	0.0161590
648.186	0.0163239
648.264	0.0163317
648.342	0.0162355
648.420	0.0162368
648.498	0.0162856
648.576	0.0161790
648.655	0.0162276
648.733	0.0163453
648.811	0.0164804
648.889	0.0164818
648.967	0.0163538
649.045	0.0163139
649.123	0.0163905
649.201	0.0163116
649.280	0.0162165
649.358	0.0162722
649.436	0.0164911
649.514	0.0163368
649.592	0.0164630
649.670	0.0166087
649.748	0.0165492
649.826	0.0165076
649.905	0.0165602
649.983	0.0165633
650.061	0.0165488
650.139	0.0164996
650.217	0.0163620
650.295	0.0165895
650.373	0.0165874
650.451	0.0164410
650.530	0.0164657
650.608	0.0164024
650.686	0.0164272
650.764	0.0162806
650.842	0.0162816
650.920	0.0161734
650.998	0.0160832
651.076	0.0160345
651.155	0.0157848
651.233	0.0157681
651.311	0.0158086
651.389	0.0154443
651.467	0.0155422
651.545	0.0154544
651.623	0.0155117
651.701	0.0156135
651.780	0.0155992
651.858	0.0156667
651.936	0.0155887
652.014	0.0157470
652.092	0.0157432
652.170	0.0157439
652.248	0.0157310
652.326	0.0158406
652.405	0.0158512
652.483	0.0158299
652.561	0.0157889
652.639	0.0158438
652.717	0.0158217
652.795	0.0158698
652.873	0.0158395
652.951	0.0159449
653.030	0.0158714
653.108	0.0158936
653.186	0.0158821
653.264	0.0159220
653.342	0.0160220
653.420	0.0160357
653.498	0.0159383
653.576	0.0160211
653.655	0.0161275
653.733	0.0160806
653.811	0.0160365
653.889	0.0160045
653.967	0.0160166
654.045	0.0159290
654.123	0.0160433
654.201	0.0160122
654.280	0.0158913
654.358	0.0157449
654.436	0.0157601
654.514	0.0157700
654.592	0.0158205
654.670	0.0157994
654.748	0.0157236
654.826	0.0158255
654.905	0.0159811
654.983	0.0158133
655.061	0.0158312
655.139	0.0158425
655.217	0.0160326
655.295	0.0159241
655.373	0.0159035
655.451	0.0160014
655.530	0.0158950
655.608	0.0158781
655.686	0.0159435
655.764	0.0159504
655.842	0.0159402
655.920	0.0158975
655.998	0.0159789
656.076	0.0161360
656.155	0.0160648
656.233	0.0159986
656.311	0.0159145
656.389	0.0159894
656.467	0.0159758
656.545	0.0162474
656.623	0.0160500
656.701	0.0160364
656.780	0.0160875
656.858	0.0161008
656.936	0.0160543
657.014	0.0159682
657.092	0.0161045
657.170	0.0161680
657.248	0.0161803
657.326	0.0162650
657.405	0.0161927
657.483	0.0161813
657.561	0.0160857
657.639	0.0161884
657.717	0.0161972
657.795	0.0162169
657.873	0.0163834
657.951	0.0162848
658.030	0.0162681
658.108	0.0163373
658.186	0.0162577
658.264	0.0162322
658.342	0.0160738
658.420	0.0161719
658.498	0.0163738
658.576	0.0163685
658.655	0.0162759
658.733	0.0161611
658.811	0.0162742
658.889	0.0161483
658.967	0.0162311
659.045	0.0162257
659.123	0.0160858
659.201	0.0161355
659.280	0.0161656
659.358	0.0158504
659.436	0.0159267
659.514	0.0159567
659.592	0.0158546
659.670	0.0157611
659.748	0.0158133
659.826	0.0157537
659.905	0.0156700
659.983	0.0157518
660.061	0.0156297
660.139	0.0156425
660.217	0.0157272
660.295	0.0156674
660.373	0.0157127
660.451	0.0158312
660.530	0.0160265
660.608	0.0159148
660.686	0.0159283
660.764	0.0159784
660.842	0.0158963
660.920	0.0158190
660.998	0.0158832
661.076	0.0158518
661.155	0.0157024
661.233	0.0158088
661.311	0.0156838
661.389	0.0156300
661.467	0.0155624
661.545	0.0155428
661.623	0.0155138
661.701	0.0154919
661.780	0.0154951
661.858	0.0154224
661.936	0.0153438
662.014	0.0153915
662.092	0.0154616
662.170	0.0155422
662.248	0.0154098
662.326	0.0153952
662.405	0.0154218
662.483	0.0153669
662.561	0.0155988
662.639	0.0154781
662.717	0.0155814
662.795	0.0158370
662.873	0.0156979
662.951	0.0158318
663.030	0.0157491
663.108	0.0158334
663.186	0.0159581
663.264	0.0159491
663.342	0.0160783
663.420	0.0160730
663.498	0.0161827
663.576	0.0162164
663.655	0.0163300
663.733	0.0161153
663.811	0.0162782
663.889	0.0163599
663.967	0.0162159
664.045	0.0161687
664.123	0.0161142
664.201	0.0160474
664.280	0.0160732
664.358	0.0162534
664.436	0.0161015
664.514	0.0161888
664.592	0.0162084
664.670	0.0161592
664.748	0.0160198
664.826	0.0159807
664.905	0.0161630
664.983	0.0161059
665.061	0.0161089
665.139	0.0161090
665.217	0.0161199
665.295	0.0161232
665.373	0.0159936
665.451	0.0161089
665.530	0.0162547
665.608	0.0159208
665.686	0.0159949
665.764	0.0160951
665.842	0.0159731
665.920	0.0159356
665.998	0.0159995
666.076	0.0159718
666.155	0.0160295
666.233	0.0159145
666.311	0.0160358
666.389	0.0160229
666.467	0.0160751
666.545	0.0161090
666.623	0.0161411
666.701	0.0160931
666.780	0.0161406
666.858	0.0162431
666.936	0.0160833
667.014	0.0162263
667.092	0.0164303
667.170	0.0162476
667.248	0.0162886
667.326	0.0162192
667.405	0.0161000
667.483	0.0162259
667.561	0.0161419
667.639	0.0161213
667.717	0.0161634
667.795	0.0159882
667.873	0.0160513
667.951	0.0159987
668.030	0.0159536
668.108	0.0160459
668.186	0.0160568
668.264	0.0160241
668.342	0.0160043
668.420	0.0159934
668.498	0.0158274
668.576	0.0158381
668.655	0.0160045
668.733	0.0160690
668.811	0.0159173
668.889	0.0159532
668.967	0.0160157
669.045	0.0159444
669.123	0.0158076
669.201	0.0158999
669.280	0.0158718
669.358	0.0158031
669.436	0.0158620
669.514	0.0158389
669.592	0.0158324
669.670	0.0158123
669.748	0.0159277
669.826	0.0158594
669.905	0.0158997
669.983	0.0159199
670.061	0.0159254
670.139	0.0158792
670.217	0.0160490
670.295	0.0159437
670.373	0.0160094
670.451	0.0159745
670.530	0.0160091
670.608	0.0158686
670.686	0.0160120
670.764	0.0159371
670.842	0.0161263
670.920	0.0161205
670.998	0.0159169
671.076	0.0160491
671.155	0.0159351
671.233	0.0158916
671.311	0.0159368
671.389	0.0158274
671.467	0.0159213
671.545	0.0158395
671.623	0.0159023
671.701	0.0158701
671.780	0.0159177
671.858	0.0160461
671.936	0.0160618
672.014	0.0160790
672.092	0.0160298
672.170	0.0161979
672.248	0.0161975
672.326	0.0162299
672.405	0.0161292
672.483	0.0161853
672.561	0.0161787
672.639	0.0159942
672.717	0.0159686
672.795	0.0161565
672.873	0.0160160
672.951	0.0158849
673.030	0.0157971
673.108	0.0158412
673.186	0.0158708
673.264	0.0158578
673.342	0.0158318
673.420	0.0159478
673.498	0.0160595
673.576	0.0159715
673.655	0.0159455
673.733	0.0159727
673.811	0.0160858
673.889	0.0160503
673.967	0.0161654
674.045	0.0162059
674.123	0.0162300
674.201	0.0162996
674.280	0.0162673
674.358	0.0162879
674.436	0.0162608
674.514	0.0163663
674.592	0.0162611
674.670	0.0164298
674.748	0.0162907
674.826	0.0163484
674.905	0.0162285
674.983	0.0163216
675.061	0.0161836
675.139	0.0160898
675.217	0.0162669
675.295	0.0161410
675.373	0.0160940
675.451	0.0160094
675.530	0.0160363
675.608	0.0161182
675.686	0.0160007
675.764	0.0160332
675.842	0.0159727
675.920	0.0159406
675.998	0.0159951
676.076	0.0160639
676.155	0.0160624
676.233	0.0161024
676.311	0.0160368
676.389	0.0160398
676.467	0.0159534
676.545	0.0161246
676.623	0.0162395
676.701	0.0162751
676.780	0.0163596
676.858	0.0164557
676.936	0.0165328
677.014	0.0165476
677.092	0.0166380
677.170	0.0166852
677.248	0.0168715
677.326	0.0167448
677.405	0.0167600
677.483	0.0169453
677.561	0.0169221
677.639	0.0167711
677.717	0.0169676
677.795	0.0168703
677.873	0.0168058
677.951	0.0167448
678.030	0.0167400
678.108	0.0166135
678.186	0.0166101
678.264	0.0167139
678.342	0.0165730
678.420	0.0165559
678.498	0.0166421
678.576	0.0164481
678.655	0.0164552
678.733	0.0162936
678.811	0.0161507
678.889	0.0161899
678.967	0.0161446
679.045	0.0159664
679.123	0.0159274
679.201	0.0158853
679.280	0.0158662
679.358	0.0158118
679.436	0.0156865
679.514	0.0157339
679.592	0.0156683
679.670	0.0156944
679.748	0.0156116
679.826	0.0156635
679.905	0.0157132
679.983	0.0157171
680.061	0.0157114
680.139	0.0157440
680.217	0.0158338
680.295	0.0158729
680.373	0.0157455
680.451	0.0158978
680.530	0.0159451
680.608	0.0159610
680.686	0.0158794
680.764	0.0158447
680.842	0.0160164
680.920	0.0159221
680.998	0.0159768
681.076	0.0159233
681.155	0.0159889
681.233	0.0160072
681.311	0.0160640
681.389	0.0159058
681.467	0.0159448
681.545	0.0158331
681.623	0.0159146
681.701	0.0161017
681.780	0.0158873
681.858	0.0159319
681.936	0.0159817
682.014	0.0159357
682.092	0.0159595
682.170	0.0159346
682.248	0.0160045
682.326	0.0161981
682.405	0.0161221
682.483	0.0162675
682.561	0.0161557
682.639	0.0162143
682.717	0.0162120
682.795	0.0162239
682.873	0.0162607
682.951	0.0161619
683.030	0.0162698
683.108	0.0162217
683.186	0.0162589
683.264	0.0161554
683.342	0.0161229
683.420	0.0160062
683.498	0.0160313
683.576	0.0159660
683.655	0.0158569
683.733	0.0159587
683.811	0.0159195
683.889	0.0157697
683.967	0.0158109
684.045	0.0156734
684.123	0.0157191
684.201	0.0159932
684.280	0.0157939
684.358	0.0157320
684.436	0.0156803
684.514	0.0155395
684.592	0.0156044
684.670	0.0155142
684.748	0.0155392
684.826	0.0155327
684.905	0.0156163
684.983	0.0155163
685.061	0.0155142
685.139	0.0156962
685.217	0.0156785
685.295	0.0157178
685.373	0.0159006
685.451	0.0158983
685.530	0.0159195
685.608	0.0160030
685.686	0.0160281
685.764	0.0160866
685.842	0.0160349
685.920	0.0160867
685.998	0.0159759
686.076	0.0159055
686.155	0.0158263
686.233	0.0158718
686.311	0.0157486
686.389	0.0157478
686.467	0.0157909
686.545	0.0156686
686.623	0.0156004
686.701	0.0155937
686.780	0.0156344
686.858	0.0156273
686.936	0.0154963
687.014	0.0155260
687.092	0.0154790
687.170	0.0154682
687.248	0.0155352
687.326	0.0155216
687.405	0.0157378
687.483	0.0155642
687.561	0.0156345
687.639	0.0157049
687.717	0.0159180
687.795	0.0159715
687.873	0.0159454
687.951	0.0159954
688.030	0.0160654
688.108	0.0161067
688.186	0.0160597
688.264	0.0161414
688.342	0.0162179
688.420	0.0162987
688.498	0.0162678
688.576	0.0163659
688.655	0.0162861
688.733	0.0163393
688.811	0.0163704
688.889	0.0163382
688.967	0.0162585
689.045	0.0163156
689.123	0.0163334
689.201	0.0163075
689.280	0.0163165
689.358	0.0163251
689.436	0.0162994
689.514	0.0164269
689.592	0.0161568
689.670	0.0162957
689.748	0.0162978
689.826	0.0162833
689.905	0.0160815
689.983	0.0161987
690.061	0.0161917
690.139	0.0161532
690.217	0.0162415
690.295	0.0161773
690.373	0.0160784
690.451	0.0161220
690.530	0.0160395
690.608	0.0162569
690.686	0.0159691
690.764	0.0159518
690.842	0.0160334
690.920	0.0159582
690.998	0.0159370
691.076	0.0160564
691.155	0.0158057
691.233	0.0158435
691.311	0.0158157
691.389	0.0159728
691.467	0.0157826
691.545	0.0158276
691.623	0.0160771
691.701	0.0158179
691.780	0.0159008
691.858	0.0158965
691.936	0.0161399
692.014	0.0159959
692.092	0.0160155
692.170	0.0160786
692.248	0.0160001
692.326	0.0162259
692.405	0.0161965
692.483	0.0163142
692.561	0.0163044
692.639	0.0162508
692.717	0.0162078
692.795	0.0162988
692.873	0.0164299
692.951	0.0164698
693.030	0.0163813
693.108	0.0165003
693.186	0.0165588
693.264	0.0165841
693.342	0.0165874
693.420	0.0165963
693.498	0.0168586
693.576	0.0167393
693.655	0.0167303
693.733	0.0167561
693.811	0.0166882
693.889	0.0167635
693.967	0.0166171
694.045	0.0166954
694.123	0.0165531
694.201	0.0164973
694.280	0.0164426
694.358	0.0163223
694.436	0.0162688
694.514	0.0161200
694.592	0.0160344
694.670	0.0161386
694.748	0.0160179
694.826	0.0159679
694.905	0.0159560
694.983	0.0159618
695.061	0.0158659
695.139	0.0159071
695.217	0.0158295
695.295	0.0157912
695.373	0.0158263
695.451	0.0159843
695.530	0.0159061
695.608	0.0158455
695.686	0.0158484
695.764	0.0158482
695.842	0.0157424
695.920	0.0157970
695.998	0.0158128
696.076	0.0158819
696.155	0.0158353
696.233	0.0158389
696.311	0.0158112
696.389	0.0157973
696.467	0.0159438
696.545	0.0158275
696.623	0.0158861
696.701	0.0158331
696.780	0.0157254
696.858	0.0158464
696.936	0.0159272
697.014	0.0158868
697.092	0.0159750
697.170	0.0159067
697.248	0.0158234
697.326	0.0158411
697.405	0.0158609
697.483	0.0159993
697.561	0.0158202
697.639	0.0159428
697.717	0.0159400
697.795	0.0158934
697.873	0.0158536
697.951	0.0160952
698.030	0.0159554
698.108	0.0158828
698.186	0.0157727
698.264	0.0158160
698.342	0.0158804
698.420	0.0158194
698.498	0.0158573
698.576	0.0158394
698.655	0.0159309
698.733	0.0158038
698.811	0.0157694
698.889	0.0158561
698.967	0.0158743
699.045	0.0158280
699.123	0.0159350
699.201	0.0157494
699.280	0.0160528
699.358	0.0160139
699.436	0.0158389
699.514	0.0159258
699.592	0.0159227
699.670	0.0159460
699.748	0.0158388
699.826	0.0159436
699.905	0.0159913
699.983	0.0160466
700.061	0.0160242
700.139	0.0159751
700.217	0.0161174
700.295	0.0161510
700.373	0.0160583
700.451	0.0161829
700.530	0.0161205
700.608	0.0161969
700.686	0.0161821
700.764	0.0163457
700.842	0.0163309
700.920	0.0162827
700.998	0.0163634
701.076	0.0163596
701.155	0.0165077
701.233	0.0164415
701.311	0.0164942
701.389	0.0166753
701.467	0.0165366
701.545	0.0166560
701.623	0.0167537
701.701	0.0167980
701.780	0.0167458
701.858	0.0170640
701.936	0.0169472
702.014	0.0168843
702.092	0.0169704
702.170	0.0168958
702.248	0.0169759
702.326	0.0169296
702.405	0.0168666
702.483	0.0169428
702.561	0.0168584
702.639	0.0167184
702.717	0.0165951
702.795	0.0166461
702.873	0.0164381
702.951	0.0163841
703.030	0.0163061
703.108	0.0163638
703.186	0.0163890
703.264	0.0161304
703.342	0.0159850
703.420	0.0159821
703.498	0.0159054
703.576	0.0160195
703.655	0.0159782
703.733	0.0159213
703.811	0.0158469
703.889	0.0157607
703.967	0.0157825
704.045	0.0156796
704.123	0.0156802
704.201	0.0155686
704.280	0.0157550
704.358	0.0156803
704.436	0.0156937
704.514	0.0156078
704.592	0.0154432
704.670	0.0155608
704.748	0.0155911
704.826	0.0154536
704.905	0.0154907
704.983	0.0154463
705.061	0.0154863
705.139	0.0153218
705.217	0.0153719
705.295	0.0154978
705.373	0.0155625
705.451	0.0153982
705.530	0.0154687
705.608	0.0155653
705.686	0.0156402
705.764	0.0155202
705.842	0.0156596
705.920	0.0155524
705.998	0.0155341
706.076	0.0156662
706.155	0.0156583
706.233	0.0157164
706.311	0.0158576
706.389	0.0158040
706.467	0.0157964
706.545	0.0158644
706.623	0.0159431
706.701	0.0159321
706.780	0.0158073
706.858	0.0160096
706.936	0.0161789
707.014	0.0160569
707.092	0.0161057
707.170	0.0161092
707.248	0.0161586
707.326	0.0162386
707.405	0.0161707
707.483	0.0162748
707.561	0.0162849
707.639	0.0161536
707.717	0.0162962
707.795	0.0162807
707.873	0.0164854
707.951	0.0162609
708.030	0.0161358
708.108	0.0162693
708.186	0.0162253
708.264	0.0161469
708.342	0.0161463
708.420	0.0160535
708.498	0.0162031
708.576	0.0161850
708.655	0.0159959
708.733	0.0161580
708.811	0.0162164
708.889	0.0160905
708.967	0.0160009
709.045	0.0159750
709.123	0.0160786
709.201	0.0160815
709.280	0.0159339
709.358	0.0160860
709.436	0.0161020
709.514	0.0161879
709.592	0.0159834
709.670	0.0160867
709.748	0.0160451
709.826	0.0161197
709.905	0.0161889
709.983	0.0162554
710.061	0.0163248
710.139	0.0162851
710.217	0.0162898
710.295	0.0162665
710.373	0.0162691
710.451	0.0161674
710.530	0.0162107
710.608	0.0162265
710.686	0.0161462
710.764	0.0161526
710.842	0.0161757
710.920	0.0162067
710.998	0.0161693
711.076	0.0161252
711.155	0.0161430
711.233	0.0162460
711.311	0.0162143
711.389	0.0163383
711.467	0.0163346
711.545	0.0162788
711.623	0.0163062
711.701	0.0162708
711.780	0.0162492
711.858	0.0164224
711.936	0.0164349
712.014	0.0166756
712.092	0.0165255
712.170	0.0164777
712.248	0.0164826
712.326	0.0166952
712.405	0.0167002
712.483	0.0165529
712.561	0.0167460
712.639	0.0164527
712.717	0.0166117
712.795	0.0165736
712.873	0.0165598
712.951	0.0164701
713.030	0.0164722
713.108	0.0165268
713.186	0.0165547
713.264	0.0164708
713.342	0.0165156
713.420	0.0163582
713.498	0.0163480
713.576	0.0163137
713.655	0.0163042
713.733	0.0161698
713.811	0.0162885
713.889	0.0160915
713.967	0.0159222
714.045	0.0160370
714.123	0.0160622
714.201	0.0158700
714.280	0.0158064
714.358	0.0158254
714.436	0.0158051
714.514	0.0157531
714.592	0.0158250
714.670	0.0157394
714.748	0.0156177
714.826	0.0156798
714.905	0.0156034
714.983	0.0155951
715.061	0.0156252
715.139	0.0156069
715.217	0.0155619
715.295	0.0154962
715.373	0.0154413
715.451	0.0153866
715.530	0.0155405
715.608	0.0154432
715.686	0.0155419
715.764	0.0153667
715.842	0.0155859
715.920	0.0155627
715.998	0.0155707
716.076	0.0158652
716.155	0.0157116
716.233	0.0157979
716.311	0.0158921
716.389	0.0160208
716.467	0.0160477
716.545	0.0160983
716.623	0.0160821
716.701	0.0161211
716.780	0.0162550
716.858	0.0162027
716.936	0.0162528
717.014	0.0163110
717.092	0.0162636
717.170	0.0161369
717.248	0.0161269
717.326	0.0162086
717.405	0.0162991
717.483	0.0163015
717.561	0.0161470
717.639	0.0162946
717.717	0.0161751
717.795	0.0161564
717.873	0.0163008
717.951	0.0161625
718.030	0.0161701
718.108	0.0162752
718.186	0.0162653
718.264	0.0162319
718.342	0.0161612
718.420	0.0161568
718.498	0.0161761
718.576	0.0161432
718.655	0.0160892
718.733	0.0163599
718.811	0.0161353
718.889	0.0161265
718.967	0.0160323
719.045	0.0160636
719.123	0.0161880
719.201	0.0160390
719.280	0.0161396
719.358	0.0158995
719.436	0.0159205
719.514	0.0157893
719.592	0.0158443
719.670	0.0160010
719.748	0.0158902
719.826	0.0160334
719.905	0.0159873
719.983	0.0158970
720.061	0.0160069
720.139	0.0159782
720.217	0.0160402
720.295	0.0161047
720.373	0.0161343
720.451	0.0161539
720.530	0.0160239
720.608	0.0160757
720.686	0.0161584
720.764	0.0161530
720.842	0.0160029
720.920	0.0159447
720.998	0.0160738
721.076	0.0159833
721.155	0.0159748
721.233	0.0159494
721.311	0.0160342
721.389	0.0160241
721.467	0.0158316
721.545	0.0159692
721.623	0.0158680
721.701	0.0158333
721.780	0.0158897
721.858	0.0160420
721.936	0.0158173
722.014	0.0156995
722.092	0.0158432
722.170	0.0157746
722.248	0.0156629
722.326	0.0156446
722.405	0.0156038
722.483	0.0155656
722.561	0.0155045
722.639	0.0156253
722.717	0.0155707
722.795	0.0156123
722.873	0.0156091
722.951	0.0158692
723.030	0.0157722
723.108	0.0158797
723.186	0.0161058
723.264	0.0159982
723.342	0.0161672
723.420	0.0163396
723.498	0.0163429
723.576	0.0162553
723.655	0.0162311
723.733	0.0163457
723.811	0.0163039
723.889	0.0162307
723.967	0.0160656
724.045	0.0162141
724.123	0.0159830
724.201	0.0160439
724.280	0.0159978
724.358	0.0160260
724.436	0.0158364
724.514	0.0158089
724.592	0.0157612
724.670	0.0158971
724.748	0.0159597
724.826	0.0159822
724.905	0.0161054
724.983	0.0160875
725.061	0.0161943
725.139	0.0163489
725.217	0.0163579
725.295	0.0163854
725.373	0.0163637
725.451	0.0163681
725.530	0.0162823
725.608	0.0164116
725.686	0.0163261
725.764	0.0162323
725.842	0.0162829
725.920	0.0160355
725.998	0.0160850
726.076	0.0160295
726.155	0.0160394
726.233	0.0160000
726.311	0.0159861
726.389	0.0161671
726.467	0.0161378
726.545	0.0160838
726.623	0.0163245
726.701	0.0162036
726.780	0.0161605
726.858	0.0163919
726.936	0.0163139
727.014	0.0163960
727.092	0.0164308
727.170	0.0163489
727.248	0.0162710
727.326	0.0164021
727.405	0.0163844
727.483	0.0162645
727.561	0.0164758
727.639	0.0163491
727.717	0.0164347
727.795	0.0164918
727.873	0.0163786
727.951	0.0165111
728.030	0.0164218
728.108	0.0164102
728.186	0.0165230
728.264	0.0162609
728.342	0.0164002
728.420	0.0164108
728.498	0.0163406
728.576	0.0163876
728.655	0.0164274
728.733	0.0163539
728.811	0.0163589
728.889	0.0162663
728.967	0.0163078
729.045	0.0163817
729.123	0.0161963
729.201	0.0161692
729.280	0.0162741
729.358	0.0160493
729.436	0.0159859
729.514	0.0158710
729.592	0.0158276
729.670	0.0159082
729.748	0.0159219
729.826	0.0157295
729.905	0.0156374
729.983	0.0156512
730.061	0.0155693
730.139	0.0156335
730.217	0.0155274
730.295	0.0155983
730.373	0.0155310
730.451	0.0156989
730.530	0.0157491
730.608	0.0156721
730.686	0.0157693
730.764	0.0156017
730.842	0.0158248
730.920	0.0159495
730.998	0.0158974
731.076	0.0160147
731.155	0.0160809
731.233	0.0161064
731.311	0.0161657
731.389	0.0161941
731.467	0.0162648
731.545	0.0163749
731.623	0.0163638
731.701	0.0164206
731.780	0.0164357
731.858	0.0165008
731.936	0.0163729
732.014	0.0163672
732.092	0.0165126
732.170	0.0164045
732.248	0.0164005
732.326	0.0164221
732.405	0.0163736
732.483	0.0163333
732.561	0.0163086
732.639	0.0162038
732.717	0.0161816
732.795	0.0159192
732.873	0.0159743
732.951	0.0158926
733.030	0.0158929
733.108	0.0156863
733.186	0.0157732
733.264	0.0157802
733.342	0.0158356
733.420	0.0157137
733.498	0.0157458
733.576	0.0157693
733.655	0.0157829
733.733	0.0157224
733.811	0.0156956
733.889	0.0156571
733.967	0.0157576
734.045	0.0156802
734.123	0.0156095
734.201	0.0156212
734.280	0.0155036
734.358	0.0156862
734.436	0.0156657
734.514	0.0156293
734.592	0.0156176
734.670	0.0155960
734.748	0.0155075
734.826	0.0156067
734.905	0.0157192
734.983	0.0158382
735.061	0.0158060
735.139	0.0157628
735.217	0.0159332
735.295	0.0160353
735.373	0.0161443
735.451	0.0161546
735.530	0.0163049
735.608	0.0163566
735.686	0.0165646
735.764	0.0166960
735.842	0.0166502
735.920	0.0165746
735.998	0.0167101
736.076	0.0169891
736.155	0.0168911
736.233	0.0167601
736.311	0.0168824
736.389	0.0168307
736.467	0.0167469
736.545	0.0165600
736.623	0.0164927
736.701	0.0163476
736.780	0.0162719
736.858	0.0160504
736.936	0.0161000
737.014	0.0157565
737.092	0.0159671
737.170	0.0159007
737.248	0.0159565
737.326	0.0159276
737.405	0.0159323
737.483	0.0159056
737.561	0.0158793
737.639	0.0159515
737.717	0.0158840
737.795	0.0160467
737.873	0.0161168
737.951	0.0159715
738.030	0.0158463
738.108	0.0157838
738.186	0.0159158
738.264	0.0157171
738.342	0.0157051
738.420	0.0159196
738.498	0.0157311
738.576	0.0155687
738.655	0.0156171
738.733	0.0158555
738.811	0.0157537
738.889	0.0156033
738.967	0.0155109
739.045	0.0156281
739.123	0.0156145
739.201	0.0156055
739.280	0.0155721
739.358	0.0154904
739.436	0.0156522
739.514	0.0156400
739.592	0.0155672
739.670	0.0154433
739.748	0.0154408
739.826	0.0154951
739.905	0.0153876
739.983	0.0153136
740.061	0.0151933
740.139	0.0157299
740.217	0.0156227
740.295	0.0155940
740.373	0.0156551
740.451	0.0156056
740.530	0.0156828
740.608	0.0157046
740.686	0.0157278
740.764	0.0157862
740.842	0.0158788
740.920	0.0158993
740.998	0.0158581
741.076	0.0158584
741.155	0.0156300
741.233	0.0157175
741.311	0.0157962
741.389	0.0156252
741.467	0.0155704
741.545	0.0156721
741.623	0.0154919
741.701	0.0155227
741.780	0.0156528
741.858	0.0155925
741.936	0.0156384
742.014	0.0156139
742.092	0.0155775
742.170	0.0157484
742.248	0.0158358
742.326	0.0159283
742.405	0.0159182
742.483	0.0158528
742.561	0.0158871
742.639	0.0159382
742.717	0.0158404
742.795	0.0159348
742.873	0.0161159
742.951	0.0160328
743.030	0.0159998
743.108	0.0160732
743.186	0.0160517
743.264	0.0160622
743.342	0.0161482
743.420	0.0161501
743.498	0.0161556
743.576	0.0163779
743.655	0.0161398
743.733	0.0163707
743.811	0.0164232
743.889	0.0165513
743.967	0.0166248
744.045	0.0165474
744.123	0.0165559
744.201	0.0165148
744.280	0.0165237
744.358	0.0165781
744.436	0.0164465
744.514	0.0165056
744.592	0.0166118
744.670	0.0164243
744.748	0.0165252
744.826	0.0164124
744.905	0.0161955
744.983	0.0162316
745.061	0.0163018
745.139	0.0162666
745.217	0.0163547
745.295	0.0162712
745.373	0.0163583
745.451	0.0164044
745.530	0.0162385
745.608	0.0163156
745.686	0.0164649
745.764	0.0164043
745.842	0.0163927
745.920	0.0162557
745.998	0.0162140
746.076	0.0162813
746.155	0.0161866
746.233	0.0161995
746.311	0.0162028
746.389	0.0160579
746.467	0.0160124
746.545	0.0160421
746.623	0.0157874
746.701	0.0158765
746.780	0.0158424
746.858	0.0157918
746.936	0.0157066
747.014	0.0155576
747.092	0.0156844
747.170	0.0157869
747.248	0.0156852
747.326	0.0155869
747.405	0.0155263
747.483	0.0155750
747.561	0.0156203
747.639	0.0156824
747.717	0.0156140
747.795	0.0157787
747.873	0.0156843
747.951	0.0158019
748.030	0.0157672
748.108	0.0158118
748.186	0.0157266
748.264	0.0156931
748.342	0.0158388
748.420	0.0156898
748.498	0.0158054
748.576	0.0157648
748.655	0.0156386
748.733	0.0156085
748.811	0.0156226
748.889	0.0156691
748.967	0.0156264
749.045	0.0156776
749.123	0.0156236
749.201	0.0157084
749.280	0.0156093
749.358	0.0158259
749.436	0.0157501
749.514	0.0157436
749.592	0.0157640
749.670	0.0157867
749.748	0.0159999
749.826	0.0158645
749.905	0.0160618
749.983	0.0160774
750.061	0.0158485
750.139	0.0159093
750.217	0.0160067
750.295	0.0161150
750.373	0.0159545
750.451	0.0160183
750.530	0.0161417
750.608	0.0160824
750.686	0.0159988
750.764	0.0161120
750.842	0.0159976
750.920	0.0161010
750.998	0.0161826
751.076	0.0163586
751.155	0.0163399
751.233	0.0163438
751.311	0.0162470
751.389	0.0164227
751.467	0.0163865
751.545	0.0163817
751.623	0.0165031
751.701	0.0165144
751.780	0.0163588
751.858	0.0165920
751.936	0.0164053
752.014	0.0161811
752.092	0.0161784
752.170	0.0161208
752.248	0.0161100
752.326	0.0160391
752.405	0.0159779
752.483	0.0159383
752.561	0.0160289
752.639	0.0159682
752.717	0.0158682
752.795	0.0158187
752.873	0.0159361
752.951	0.0158220
753.030	0.0159271
753.108	0.0159921
753.186	0.0161407
753.264	0.0160366
753.342	0.0160358
753.420	0.0159850
753.498	0.0158696
753.576	0.0161096
753.655	0.0160118
753.733	0.0161400
753.811	0.0161443
753.889	0.0161588
753.967	0.0160277
754.045	0.0160378
754.123	0.0160649
754.201	0.0160001
754.280	0.0162150
754.358	0.0160794
754.436	0.0160182
754.514	0.0159914
754.592	0.0160931
754.670	0.0161762
754.748	0.0162086
754.826	0.0162522
754.905	0.0163277
754.983	0.0162660
755.061	0.0163240
755.139	0.0163835
755.217	0.0164814
755.295	0.0164393
755.373	0.0164065
755.451	0.0165307
755.530	0.0164180
755.608	0.0163488
755.686	0.0164263
755.764	0.0164776
755.842	0.0163850
755.920	0.0162669
755.998	0.0163209
756.076	0.0162932
756.155	0.0163023
756.233	0.0161729
756.311	0.0161788
756.389	0.0162150
756.467	0.0160350
756.545	0.0162280
756.623	0.0161141
756.701	0.0161398
756.780	0.0161008
756.858	0.0161295
756.936	0.0161794
757.014	0.0162059
757.092	0.0164149
757.170	0.0163486
757.248	0.0163977
757.326	0.0162691
757.405	0.0162717
757.483	0.0162710
757.561	0.0162270
757.639	0.0163052
757.717	0.0161452
757.795	0.0161871
757.873	0.0161559
757.951	0.0162116
758.030	0.0161303
758.108	0.0160403
758.186	0.0159306
758.264	0.0160378
758.342	0.0160923
758.420	0.0161886
758.498	0.0161835
758.576	0.0162882
758.655	0.0162505
758.733	0.0163585
758.811	0.0164056
758.889	0.0164211
758.967	0.0164767
759.045	0.0163603
759.123	0.0163892
759.201	0.0163954
759.280	0.0164078
759.358	0.0163367
759.436	0.0163177
759.514	0.0163261
759.592	0.0160788
759.670	0.0160452
759.748	0.0159270
759.826	0.0159666
759.905	0.0159403
759.983	0.0158068
760.061	0.0158748
760.139	0.0157066
760.217	0.0156206
760.295	0.0156156
760.373	0.0156780
760.451	0.0156378
760.530	0.0156825
760.608	0.0156120
760.686	0.0154930
760.764	0.0156965
760.842	0.0155106
760.920	0.0154198
760.998	0.0155591
761.076	0.0156403
761.155	0.0153474
761.233	0.0154821
761.311	0.0153782
761.389	0.0154559
761.467	0.0155299
761.545	0.0153408
761.623	0.0154620
761.701	0.0154173
761.780	0.0154059
761.858	0.0154545
761.936	0.0154359
762.014	0.0154310
762.092	0.0154617
762.170	0.0155098
762.248	0.0155869
762.326	0.0156030
762.405	0.0156858
762.483	0.0158024
762.561	0.0156756
762.639	0.0156694
762.717	0.0156319
762.795	0.0157158
762.873	0.0158275
762.951	0.0158497
763.030	0.0159108
763.108	0.0160052
763.186	0.0160558
763.264	0.0160720
763.342	0.0160639
763.420	0.0162040
763.498	0.0164896
763.576	0.0162619
763.655	0.0163895
763.733	0.0162767
763.811	0.0163805
763.889	0.0163371
763.967	0.0160432
764.045	0.0160569
764.123	0.0160402
764.201	0.0161117
764.280	0.0159628
764.358	0.0158773
764.436	0.0158665
764.514	0.0157451
764.592	0.0158035
764.670	0.0157923
764.748	0.0157770
764.826	0.0157062
764.905	0.0158510
764.983	0.0158251
765.061	0.0159950
765.139	0.0158132
765.217	0.0159692
765.295	0.0160871
765.373	0.0159830
765.451	0.0159077
765.530	0.0159160
765.608	0.0156428
765.686	0.0156458
765.764	0.0156792
765.842	0.0156795
765.920	0.0154752
765.998	0.0155338
766.076	0.0155918
766.155	0.0155869
766.233	0.0156192
766.311	0.0155817
766.389	0.0156021
766.467	0.0157553
766.545	0.0158357
766.623	0.0157389
766.701	0.0157766
766.780	0.0158499
766.858	0.0160717
766.936	0.0159087
767.014	0.0156963
767.092	0.0157958
767.170	0.0157773
767.248	0.0158912
767.326	0.0157401
767.405	0.0159085
767.483	0.0159728
767.561	0.0158692
767.639	0.0159067
767.717	0.0159923
767.795	0.0161197
767.873	0.0160947
767.951	0.0161943
768.030	0.0160796
768.108	0.0161479
768.186	0.0162237
768.264	0.0162070
768.342	0.0162911
768.420	0.0163084
768.498	0.0162028
768.576	0.0162063
768.655	0.0161082
768.733	0.0161433
768.811	0.0160311
768.889	0.0159880
768.967	0.0159734
769.045	0.0158443
769.123	0.0156969
769.201	0.0155956
769.280	0.0156502
769.358	0.0154519
769.436	0.0153812
769.514	0.0153432
769.592	0.0155191
769.670	0.0156177
769.748	0.0156496
769.826	0.0156517
769.905	0.0159618
769.983	0.0159745
770.061	0.0162440
770.139	0.0162410
770.217	0.0164796
770.295	0.0165469
770.373	0.0166383
770.451	0.0167435
770.530	0.0166296
770.608	0.0164816
770.686	0.0163618
770.764	0.0162210
770.842	0.0160455
770.920	0.0157389
770.998	0.0156239
771.076	0.0153252
771.155	0.0152178
771.233	0.0150998
771.311	0.0149206
771.389	0.0148811
771.467	0.0148116
771.545	0.0149588
771.623	0.0149516
771.701	0.0150700
771.780	0.0152317
771.858	0.0154172
771.936	0.0154031
772.014	0.0157044
772.092	0.0158437
772.170	0.0160916
772.248	0.0163165
772.326	0.0162168
772.405	0.0164493
772.483	0.0164888
772.561	0.0165363
772.639	0.0164066
772.717	0.0164339
772.795	0.0165771
772.873	0.0163407
772.951	0.0164658
773.030	0.0163597
773.108	0.0161980
773.186	0.0163926
773.264	0.0161914
773.342	0.0160861
773.420	0.0161126
773.498	0.0159177
773.576	0.0160008
773.655	0.0159046
773.733	0.0159375
773.811	0.0159965
773.889	0.0160464
773.967	0.0159486
774.045	0.0159473
774.123	0.0161323
774.201	0.0161108
774.280	0.0161242
774.358	0.0161826
774.436	0.0162527
774.514	0.0161811
774.592	0.0163604
774.670	0.0163498
774.748	0.0164133
774.826	0.0164524
774.905	0.0164913
774.983	0.0166023
775.061	0.0167054
775.139	0.0166016
775.217	0.0163995
775.295	0.0166858
775.373	0.0165739
775.451	0.0166094
775.530	0.0166161
775.608	0.0164911
775.686	0.0164630
775.764	0.0164383
775.842	0.0164959
775.920	0.0166899
775.998	0.0166354
776.076	0.0165974
776.155	0.0165885
776.233	0.0165887
776.311	0.0164891
776.389	0.0164839
776.467	0.0167434
776.545	0.0166334
776.623	0.0165321
776.701	0.0165163
776.780	0.0164367
776.858	0.0164873
776.936	0.0163844
777.014	0.0163482
777.092	0.0163515
777.170	0.0161481
777.248	0.0162257
777.326	0.0161707
777.405	0.0159865
777.483	0.0160143
777.561	0.0159296
777.639	0.0158773
777.717	0.0158957
777.795	0.0158854
777.873	0.0158750
777.951	0.0159584
778.030	0.0158190
778.108	0.0159158
778.186	0.0158066
778.264	0.0158862
778.342	0.0158878
778.420	0.0158582
778.498	0.0159494
778.576	0.0160035
778.655	0.0160645
778.733	0.0158355
778.811	0.0158247
778.889	0.0157482
778.967	0.0157811
779.045	0.0159173
779.123	0.0157673
779.201	0.0156821
779.280	0.0157922
779.358	0.0157633
779.436	0.0156243
779.514	0.0155556
779.592	0.0156238
779.670	0.0155915
779.748	0.0154889
779.826	0.0156711
779.905	0.0156005
779.983	0.0154852
780.061	0.0155877
780.139	0.0156363
780.217	0.0154965
780.295	0.0156113
780.373	0.0157262
780.451	0.0157742
780.530	0.0157054
780.608	0.0156423
780.686	0.0157735
780.764	0.0159071
780.842	0.0159709
780.920	0.0158237
780.998	0.0159147
781.076	0.0159599
781.155	0.0160014
781.233	0.0158751
781.311	0.0159061
781.389	0.0160358
781.467	0.0159464
781.545	0.0160603
781.623	0.0160162
781.701	0.0159054
781.780	0.0160695
781.858	0.0159695
781.936	0.0159135
782.014	0.0159810
782.092	0.0159817
782.170	0.0160770
782.248	0.0161842
782.326	0.0161746
782.405	0.0160212
782.483	0.0160682
782.561	0.0160480
782.639	0.0159055
782.717	0.0160165
782.795	0.0160355
782.873	0.0160355
782.951	0.0160680
783.030	0.0159736
783.108	0.0158202
783.186	0.0160444
783.264	0.0159552
783.342	0.0159972
783.420	0.0158253
783.498	0.0159848
783.576	0.0159695
783.655	0.0158805
783.733	0.0158076
783.811	0.0159200
783.889	0.0158543
783.967	0.0161198
784.045	0.0158698
784.123	0.0159160
784.201	0.0159715
784.280	0.0159370
784.358	0.0158672
784.436	0.0160991
784.514	0.0158550
784.592	0.0158778
784.670	0.0159966
784.748	0.0160323
784.826	0.0160054
784.905	0.0158712
784.983	0.0159969
785.061	0.0160300
785.139	0.0160466
785.217	0.0159991
785.295	0.0158670
785.373	0.0158924
785.451	0.0159895
785.530	0.0161372
785.608	0.0160534
785.686	0.0160680
785.764	0.0160423
785.842	0.0160770
785.920	0.0160354
785.998	0.0159014
786.076	0.0158925
786.155	0.0158076
786.233	0.0156674
786.311	0.0157709
786.389	0.0157715
786.467	0.0156860
786.545	0.0158091
786.623	0.0157369
786.701	0.0156532
786.780	0.0156874
786.858	0.0156414
786.936	0.0155302
787.014	0.0156310
787.092	0.0156646
787.170	0.0156445
787.248	0.0157692
787.326	0.0156672
787.405	0.0156664
787.483	0.0156242
787.561	0.0156903
787.639	0.0154856
787.717	0.0156294
787.795	0.0156866
787.873	0.0155573
787.951	0.0155391
788.030	0.0154516
788.108	0.0154816
788.186	0.0155942
788.264	0.0155611
788.342	0.0155608
788.420	0.0154438
788.498	0.0156332
788.576	0.0157541
788.655	0.0158131
788.733	0.0156866
788.811	0.0158056
788.889	0.0159094
788.967	0.0160581
789.045	0.0160087
789.123	0.0160789
789.201	0.0159256
789.280	0.0159762
789.358	0.0160888
789.436	0.0161639
789.514	0.0163587
789.592	0.0163069
789.670	0.0161385
789.748	0.0163766
789.826	0.0163453
789.905	0.0163790
789.983	0.0162185
790.061	0.0165741
790.139	0.0164050
790.217	0.0166006
790.295	0.0165377
790.373	0.0165805
790.451	0.0167079
790.530	0.0167360
790.608	0.0167915
790.686	0.0167581
790.764	0.0167708
790.842	0.0167544
790.920	0.0167267
790.998	0.0167788
791.076	0.0165942
791.155	0.0166274
791.233	0.0167120
791.311	0.0165533
791.389	0.0165390
791.467	0.0163832
791.545	0.0164929
791.623	0.0163557
791.701	0.0165382
791.780	0.0163803
791.858	0.0163592
791.936	0.0164229
792.014	0.0164899
792.092	0.0163284
792.170	0.0163654
792.248	0.0163183
792.326	0.0163251
792.405	0.0162917
792.483	0.0164577
792.561	0.0164657
792.639	0.0165089
792.717	0.0162108
792.795	0.0161766
792.873	0.0163641
792.951	0.0161652
793.030	0.0160515
793.108	0.0162713
793.186	0.0161201
793.264	0.0162344
793.342	0.0161667
793.420	0.0160871
793.498	0.0160133
793.576	0.0159767
793.655	0.0162146
793.733	0.0160768
793.811	0.0161198
793.889	0.0160823
793.967	0.0160842
794.045	0.0159203
794.123	0.0158246
794.201	0.0159245
794.280	0.0159106
794.358	0.0158192
794.436	0.0157610
794.514	0.0157256
794.592	0.0156508
794.670	0.0157201
794.748	0.0155614
794.826	0.0153416
794.905	0.0154785
794.983	0.0153654
795.061	0.0153118
795.139	0.0152419
795.217	0.0152531
795.295	0.0151970
795.373	0.0151519
795.451	0.0151962
795.530	0.0151913
795.608	0.0152294
795.686	0.0151266
795.764	0.0152285
795.842	0.0151553
795.920	0.0152271
795.998	0.0153715
796.076	0.0152744
796.155	0.0153976
796.233	0.0154518
796.311	0.0153960
796.389	0.0154410
796.467	0.0156091
796.545	0.0155933
796.623	0.0156324
796.701	0.0156427
796.780	0.0156248
796.858	0.0156425
796.936	0.0157162
797.014	0.0156837
797.092	0.0157465
797.170	0.0157465
797.248	0.0158622
797.326	0.0159042
797.405	0.0159364
797.483	0.0160489
797.561	0.0162746
797.639	0.0163615
797.717	0.0163780
797.795	0.0164250
797.873	0.0164905
797.951	0.0165391
798.030	0.0166174
798.108	0.0166941
798.186	0.0166834
798.264	0.0166846
798.342	0.0166360
798.420	0.0166676
798.498	0.0165521
798.576	0.0165257
798.655	0.0165133
798.733	0.0165676
798.811	0.0163869
798.889	0.0163497
798.967	0.0165041
799.045	0.0165318
799.123	0.0165137
799.201	0.0164646
799.280	0.0164923
799.358	0.0163415
799.436	0.0164720
799.514	0.0165532
799.592	0.0164349
799.670	0.0164544
799.748	0.0165997
799.826	0.0165753
799.905	0.0164226
799.983	0.0164047
800.061	0.0163714
800.139	0.0164379
800.217	0.0163817
800.295	0.0162654
800.373	0.0161794
800.451	0.0163592
800.530	0.0162803
800.608	0.0162681
800.686	0.0160700
800.764	0.0161336
800.842	0.0163826
800.920	0.0162560
800.998	0.0161238
801.076	0.0162403
801.155	0.0161153
801.233	0.0162909
801.311	0.0162429
801.389	0.0160366
801.467	0.0161716
801.545	0.0161546
801.623	0.0160563
801.701	0.0160853
801.780	0.0161834
801.858	0.0161366
801.936	0.0161271
802.014	0.0161733
802.092	0.0162027
802.170	0.0160808
802.248	0.0161215
802.326	0.0160611
802.405	0.0159447
802.483	0.0160137
802.561	0.0159161
802.639	0.0159534
802.717	0.0158198
802.795	0.0158134
802.873	0.0158057
802.951	0.0157089
803.030	0.0157259
803.108	0.0157780
803.186	0.0158666
803.264	0.0158300
803.342	0.0158311
803.420	0.0158211
803.498	0.0159440
803.576	0.0160849
803.655	0.0160610
803.733	0.0159578
803.811	0.0161941
803.889	0.0161039
803.967	0.0160409
804.045	0.0160916
804.123	0.0160472
804.201	0.0160985
804.280	0.0161965
804.358	0.0162985
804.436	0.0163558
804.514	0.0161906
804.592	0.0161993
804.670	0.0162881
804.748	0.0161722
804.826	0.0163755
804.905	0.0162075
804.983	0.0163007
805.061	0.0164315
805.139	0.0162913
805.217	0.0163049
805.295	0.0163788
805.373	0.0163090
805.451	0.0162440
805.530	0.0162342
805.608	0.0162543
805.686	0.0162225
805.764	0.0162699
805.842	0.0162536
805.920	0.0161464
805.998	0.0160777
806.076	0.0160632
806.155	0.0159837
806.233	0.0160446
806.311	0.0158141
806.389	0.0158313
806.467	0.0157930
806.545	0.0157533
806.623	0.0156511
806.701	0.0157324
806.780	0.0156415
806.858	0.0155846
806.936	0.0155733
807.014	0.0156586
807.092	0.0155370
807.170	0.0156334
807.248	0.0155199
807.326	0.0155128
807.405	0.0155903
807.483	0.0155993
807.561	0.0155412
807.639	0.0156095
807.717	0.0156788
807.795	0.0157635
807.873	0.0156669
807.951	0.0158811
808.030	0.0155986
808.108	0.0157420
808.186	0.0157978
808.264	0.0156123
808.342	0.0156925
808.420	0.0158939
808.498	0.0158983
808.576	0.0157741
808.655	0.0157618
808.733	0.0157228
808.811	0.0158520
808.889	0.0156918
808.967	0.0156651
809.045	0.0159187
809.123	0.0159825
809.201	0.0157776
809.280	0.0157371
809.358	0.0157856
809.436	0.0157573
809.514	0.0158981
809.592	0.0160349
809.670	0.0160423
809.748	0.0159377
809.826	0.0157828
809.905	0.0158939
809.983	0.0160529
810.061	0.0160877
810.139	0.0160660
810.217	0.0160352
810.295	0.0159022
810.373	0.0159489
810.451	0.0160895
810.530	0.0161757
810.608	0.0159903
810.686	0.0160309
810.764	0.0160136
810.842	0.0161297
810.920	0.0161273
810.998	0.0160689
811.076	0.0161810
811.155	0.0162376
811.233	0.0162782
811.311	0.0161568
811.389	0.0161308
811.467	0.0163291
811.545	0.0162664
811.623	0.0163154
811.701	0.0162371
811.780	0.0162248
811.858	0.0163194
811.936	0.0162147
812.014	0.0161616
812.092	0.0161916
812.170	0.0163629
812.248	0.0164917
812.326	0.0163291
812.405	0.0163344
812.483	0.0166132
812.561	0.0164352
812.639	0.0163837
812.717	0.0164560
812.795	0.0164522
812.873	0.0164933
812.951	0.0164708
813.030	0.0165493
813.108	0.0164597
813.186	0.0165816
813.264	0.0166006
813.342	0.0167134
813.420	0.0167469
813.498	0.0168671
813.576	0.0166533
813.655	0.0164950
813.733	0.0167223
813.811	0.0166785
813.889	0.0166264
813.967	0.0166309
814.045	0.0165832
814.123	0.0165730
814.201	0.0164822
814.280	0.0163857
814.358	0.0164503
814.436	0.0164115
814.514	0.0163880
814.592	0.0163335
814.670	0.0162988
814.748	0.0162289
814.826	0.0162872
814.905	0.0161263
814.983	0.0161382
815.061	0.0161855
815.139	0.0161432
815.217	0.0161858
815.295	0.0161839
815.373	0.0162460
815.451	0.0162025
815.530	0.0161636
815.608	0.0162634
815.686	0.0161574
815.764	0.0162132
815.842	0.0162216
815.920	0.0160992
815.998	0.0161498
816.076	0.0160252
816.155	0.0161082
816.233	0.0160793
816.311	0.0161163
816.389	0.0160737
816.467	0.0160693
816.545	0.0160506
816.623	0.0159698
816.701	0.0161515
816.780	0.0161221
816.858	0.0160513
816.936	0.0161809
817.014	0.0160310
817.092	0.0161015
817.170	0.0161401
817.248	0.0160845
817.326	0.0161250
817.405	0.0162343
817.483	0.0160381
817.561	0.0161225
817.639	0.0160917
817.717	0.0161453
817.795	0.0159840
817.873	0.0159731
817.951	0.0162843
818.030	0.0162033
818.108	0.0161990
818.186	0.0161891
818.264	0.0160682
818.342	0.0162843
818.420	0.0163261
818.498	0.0161743
818.576	0.0162521
818.655	0.0161244
818.733	0.0162638
818.811	0.0163274
818.889	0.0162215
818.967	0.0161718
819.045	0.0161585
819.123	0.0161924
819.201	0.0160056
819.280	0.0160323
819.358	0.0159116
819.436	0.0159374
819.514	0.0159351
819.592	0.0160597
819.670	0.0159212
819.748	0.0158454
819.826	0.0158647
819.905	0.0158441
819.983	0.0158322
820.061	0.0159216
820.139	0.0157949
820.217	0.0157597
820.295	0.0157688
820.373	0.0160262
820.451	0.0160282
820.530	0.0159151
820.608	0.0160229
820.686	0.0160095
820.764	0.0159232
820.842	0.0161619
820.920	0.0161539
820.998	0.0161977
821.076	0.0161661
821.155	0.0160071
821.233	0.0162485
821.311	0.0160422
821.389	0.0161242
821.467	0.0161698
821.545	0.0163591
821.623	0.0162019
821.701	0.0160706
821.780	0.0162397
821.858	0.0161680
821.936	0.0161398
822.014	0.0160442
822.092	0.0160491
822.170	0.0161082
822.248	0.0159602
822.326	0.0159779
822.405	0.0160514
822.483	0.0158727
822.561	0.0159361
822.639	0.0159332
822.717	0.0159504
822.795	0.0159047
822.873	0.0159097
822.951	0.0160062
823.030	0.0159542
823.108	0.0158053
823.186	0.0157148
823.264	0.0158144
823.342	0.0158717
823.420	0.0157770
823.498	0.0157094
823.576	0.0157832
823.655	0.0157486
823.733	0.0156425
823.811	0.0155551
823.889	0.0156274
823.967	0.0157919
824.045	0.0155627
824.123	0.0155773
824.201	0.0156516
824.280	0.0157654
824.358	0.0156653
824.436	0.0156567
824.514	0.0157056
824.592	0.0157046
824.670	0.0158614
824.748	0.0158344
824.826	0.0158994
824.905	0.0158942
824.983	0.0160371
825.061	0.0158636
825.139	0.0161160
825.217	0.0161033
825.295	0.0161919
825.373	0.0162331
825.451	0.0162771
825.530	0.0161972
825.608	0.0162071
825.686	0.0162208
825.764	0.0163174
825.842	0.0162762
825.920	0.0160918
825.998	0.0161729
826.076	0.0162143
826.155	0.0162637
826.233	0.0159489
826.311	0.0159255
826.389	0.0162793
826.467	0.0161326
826.545	0.0159193
826.623	0.0160508
826.701	0.0161582
826.780	0.0162174
826.858	0.0162057
826.936	0.0161233
827.014	0.0162892
827.092	0.0162199
827.170	0.0160085
827.248	0.0160884
827.326	0.0162140
827.405	0.0161409
827.483	0.0160372
827.561	0.0160861
827.639	0.0159957
827.717	0.0160097
827.795	0.0160112
827.873	0.0159264
827.951	0.0159044
828.030	0.0158430
828.108	0.0158947
828.186	0.0158538
828.264	0.0157708
828.342	0.0156148
828.420	0.0156716
828.498	0.0154801
828.576	0.0155672
828.655	0.0155849
828.733	0.0154851
828.811	0.0152483
828.889	0.0153316
828.967	0.0153534
829.045	0.0153817
829.123	0.0154324
829.201	0.0152639
829.280	0.0152762
829.358	0.0153539
829.436	0.0153394
829.514	0.0155100
829.592	0.0155383
829.670	0.0154208
829.748	0.0155531
829.826	0.0156821
829.905	0.0156905
829.983	0.0156786
830.061	0.0156503
830.139	0.0156309
830.217	0.0155215
830.295	0.0156863
830.373	0.0156575
830.451	0.0157520
830.530	0.0157263
830.608	0.0158208
830.686	0.0159365
830.764	0.0160001
830.842	0.0160049
830.920	0.0160432
830.998	0.0160374
831.076	0.0161587
831.155	0.0159559
831.233	0.0160881
831.311	0.0162694
831.389	0.0163221
831.467	0.0163205
831.545	0.0163581
831.623	0.0163038
831.701	0.0163795
831.780	0.0165169
831.858	0.0164994
831.936	0.0163875
832.014	0.0165215
832.092	0.0164933
832.170	0.0163585
832.248	0.0165894
832.326	0.0164126
832.405	0.0165040
832.483	0.0163130
832.561	0.0163307
832.639	0.0164180
832.717	0.0163151
832.795	0.0164241
832.873	0.0164462
832.951	0.0164834
833.030	0.0164071
833.108	0.0164363
833.186	0.0163686
833.264	0.0163865
833.342	0.0165050
833.420	0.0162853
833.498	0.0165080
833.576	0.0166933
833.655	0.0165073
833.733	0.0164760
833.811	0.0163766
833.889	0.0165427
833.967	0.0164624
834.045	0.0164827
834.123	0.0165659
834.201	0.0163953
834.280	0.0163705
834.358	0.0163512
834.436	0.0162991
834.514	0.0162506
834.592	0.0160912
834.670	0.0161787
834.748	0.0160690
834.826	0.0160400
834.905	0.0159064
834.983	0.0160128
835.061	0.0157967
835.139	0.0158400
835.217	0.0158073
835.295	0.0156187
835.373	0.0156514
835.451	0.0157430
835.530	0.0157046
835.608	0.0158121
835.686	0.0157053
835.764	0.0156245
835.842	0.0156182
835.920	0.0155965
835.998	0.0157787
836.076	0.0159241
836.155	0.0158345
836.233	0.0158290
836.311	0.0159099
836.389	0.0159744
836.467	0.0159286
836.545	0.0159960
836.623	0.0160429
836.701	0.0158353
836.780	0.0160190
836.858	0.0160282
836.936	0.0160895
837.014	0.0161717
837.092	0.0161948
837.170	0.0161587
837.248	0.0161780
837.326	0.0160844
837.405	0.0161533
837.483	0.0162627
837.561	0.0163616
837.639	0.0161742
837.717	0.0160573
837.795	0.0163680
837.873	0.0163859
837.951	0.0161900
838.030	0.0161105
838.108	0.0163570
838.186	0.0163906
838.264	0.0163767
838.342	0.0163717
838.420	0.0162132
838.498	0.0163534
838.576	0.0162254
838.655	0.0162391
838.733	0.0162009
838.811	0.0162337
838.889	0.0162518
838.967	0.0161967
839.045	0.0161268
839.123	0.0162032
839.201	0.0159583
839.280	0.0161514
839.358	0.0160567
839.436	0.0160701
839.514	0.0159872
839.592	0.0161600
839.670	0.0161665
839.748	0.0159769
839.826	0.0162240
839.905	0.0161031
839.983	0.0161130
840.061	0.0161144
840.139	0.0159145
840.217	0.0161190
840.295	0.0161983
840.373	0.0161980
840.451	0.0162044
840.530	0.0161691
840.608	0.0163584
840.686	0.0161961
840.764	0.0161510
840.842	0.0161456
840.920	0.0162418
840.998	0.0161898
841.076	0.0161878
841.155	0.0161467
841.233	0.0160284
841.311	0.0161217
841.389	0.0162113
841.467	0.0160069
841.545	0.0161362
841.623	0.0160572
841.701	0.0161646
841.780	0.0160696
841.858	0.0161038
841.936	0.0161337
842.014	0.0162320
842.092	0.0163377
842.170	0.0163154
842.248	0.0164081
842.326	0.0163548
842.405	0.0163049
842.483	0.0164245
842.561	0.0164534
842.639	0.0164688
842.717	0.0164008
842.795	0.0162306
842.873	0.0162609
842.951	0.0162340
843.030	0.0161864
843.108	0.0161833
843.186	0.0161565
843.264	0.0160729
843.342	0.0162412
843.420	0.0161691
843.498	0.0162070
843.576	0.0160602
843.655	0.0159937
843.733	0.0160184
843.811	0.0162122
843.889	0.0161845
843.967	0.0160853
844.045	0.0161720
844.123	0.0162325
844.201	0.0162331
844.280	0.0161735
844.358	0.0161384
844.436	0.0161348
844.514	0.0161026
844.592	0.0160135
844.670	0.0160139
844.748	0.0160514
844.826	0.0160602
844.905	0.0158997
844.983	0.0159189
845.061	0.0158698
845.139	0.0158560
845.217	0.0157211
845.295	0.0158181
845.373	0.0159518
845.451	0.0157883
845.530	0.0157929
845.608	0.0156927
845.686	0.0158354
845.764	0.0158659
845.842	0.0158066
845.920	0.0156932
845.998	0.0156899
846.076	0.0159216
846.155	0.0158018
846.233	0.0159248
846.311	0.0158727
846.389	0.0160301
846.467	0.0159047
846.545	0.0159206
846.623	0.0157950
846.701	0.0157264
846.780	0.0158664
846.858	0.0159287
846.936	0.0156916
847.014	0.0156499
847.092	0.0157973
847.170	0.0158070
847.248	0.0158656
847.326	0.0155648
847.405	0.0155907
847.483	0.0155725
847.561	0.0155359
847.639	0.0156094
847.717	0.0155466
847.795	0.0154875
847.873	0.0154715
847.951	0.0154723
848.030	0.0156540
848.108	0.0156269
848.186	0.0154385
848.264	0.0156557
848.342	0.0155363
848.420	0.0154993
848.498	0.0156574
848.576	0.0155874
848.655	0.0155573
848.733	0.0155209
848.811	0.0155852
848.889	0.0157503
848.967	0.0156986
849.045	0.0155923
849.123	0.0157206
849.201	0.0156392
849.280	0.0156314
849.358	0.0156076
849.436	0.0156654
849.514	0.0156870
849.592	0.0156956
849.670	0.0156641
849.748	0.0158478
849.826	0.0156953
849.905	0.0155357
849.983	0.0158221
850.061	0.0157883
850.139	0.0156512
850.217	0.0156371
850.295	0.0156384
850.373	0.0157287
850.451	0.0156237
850.530	0.0156774
850.608	0.0156834
850.686	0.0157190
850.764	0.0157060
850.842	0.0156989
850.920	0.0157206
850.998	0.0157503
851.076	0.0158472
851.155	0.0158180
851.233	0.0155016
851.311	0.0157301
851.389	0.0157146
851.467	0.0158688
851.545	0.0158327
851.623	0.0158424
851.701	0.0159036
851.780	0.0159948
851.858	0.0159415
851.936	0.0160090
852.014	0.0160427
852.092	0.0161160
852.170	0.0162731
852.248	0.0163232
852.326	0.0162206
852.405	0.0161478
852.483	0.0163239
852.561	0.0163067
852.639	0.0162504
852.717	0.0163152
852.795	0.0162672
852.873	0.0162966
852.951	0.0163589
853.030	0.0163088
853.108	0.0164497
853.186	0.0165968
853.264	0.0166802
853.342	0.0164997
853.420	0.0165768
853.498	0.0166116
853.576	0.0164949
853.655	0.0166499
853.733	0.0165604
853.811	0.0165326
853.889	0.0165183
853.967	0.0166023
854.045	0.0164687
854.123	0.0164222
854.201	0.0164710
854.280	0.0164071
854.358	0.0163184
854.436	0.0164928
854.514	0.0163456
854.592	0.0162897
854.670	0.0164064
854.748	0.0164596
854.826	0.0162729
854.905	0.0163094
854.983	0.0163593
855.061	0.0163190
855.139	0.0163271
855.217	0.0161287
855.295	0.0160980
855.373	0.0160391
855.451	0.0160427
855.530	0.0161617
855.608	0.0161011
855.686	0.0160894
855.764	0.0159634
855.842	0.0160564
855.920	0.0162167
855.998	0.0162296
856.076	0.0161761
856.155	0.0162836
856.233	0.0163038
856.311	0.0163404
856.389	0.0162914
856.467	0.0162360
856.545	0.0161742
856.623	0.0163042
856.701	0.0161580
856.780	0.0161261
856.858	0.0162526
856.936	0.0161551
857.014	0.0161488
857.092	0.0161528
857.170	0.0161384
857.248	0.0161755
857.326	0.0161687
857.405	0.0160342
857.483	0.0160019
857.561	0.0160249
857.639	0.0160247
857.717	0.0159724
857.795	0.0159856
857.873	0.0161181
857.951	0.0158662
858.030	0.0158158
858.108	0.0159747
858.186	0.0159502
858.264	0.0158349
858.342	0.0159222
858.420	0.0157945
858.498	0.0156818
858.576	0.0157328
858.655	0.0157973
858.733	0.0158540
858.811	0.0157329
858.889	0.0158421
858.967	0.0158244
859.045	0.0158201
859.123	0.0159313
859.201	0.0158601
859.280	0.0158707
859.358	0.0158408
859.436	0.0159291
859.514	0.0160095
859.592	0.0158679
859.670	0.0160593
859.748	0.0159302
859.826	0.0159335
859.905	0.0159100
859.983	0.0160029
860.061	0.0158068
860.139	0.0160718
860.217	0.0160094
860.295	0.0159998
860.373	0.0159955
860.451	0.0159652
860.530	0.0158315
860.608	0.0159610
860.686	0.0159906
860.764	0.0159871
860.842	0.0159480
860.920	0.0158378
860.998	0.0161086
861.076	0.0160031
861.155	0.0159271
861.233	0.0159835
861.311	0.0159699
861.389	0.0160185
861.467	0.0160664
861.545	0.0161603
861.623	0.0163033
861.701	0.0161407
861.780	0.0162649
861.858	0.0163408
861.936	0.0163589
862.014	0.0164476
862.092	0.0164366
862.170	0.0163922
862.248	0.0164864
862.326	0.0163388
862.405	0.0164066
862.483	0.0163870
862.561	0.0163405
862.639	0.0163760
862.717	0.0164873
862.795	0.0162820
862.873	0.0163203
862.951	0.0162610
863.030	0.0163933
863.108	0.0162970
863.186	0.0163297
863.264	0.0163399
863.342	0.0162867
863.420	0.0163153
863.498	0.0162309
863.576	0.0164017
863.655	0.0162040
863.733	0.0163727
863.811	0.0163779
863.889	0.0164431
863.967	0.0162316
864.045	0.0162837
864.123	0.0163973
864.201	0.0164404
864.280	0.0163133
864.358	0.0163116
864.436	0.0162507
864.514	0.0162428
864.592	0.0161072
864.670	0.0160661
864.748	0.0160750
864.826	0.0160848
864.905	0.0160503
864.983	0.0160891
865.061	0.0161543
865.139	0.0161974
865.217	0.0161260
865.295	0.0161426
865.373	0.0162135
865.451	0.0161037
865.530	0.0161578
865.608	0.0161990
865.686	0.0160278
865.764	0.0160922
865.842	0.0162141
865.920	0.0161850
865.998	0.0161555
866.076	0.0162143
866.155	0.0161833
866.233	0.0160215
866.311	0.0161536
866.389	0.0160350
866.467	0.0159275
866.545	0.0160513
866.623	0.0160406
866.701	0.0159866
866.780	0.0159042
866.858	0.0159608
866.936	0.0158526
867.014	0.0159692
867.092	0.0159126
867.170	0.0159064
867.248	0.0157745
867.326	0.0156964
867.405	0.0158032
867.483	0.0158221
867.561	0.0157117
867.639	0.0157510
867.717	0.0156555
867.795	0.0156567
867.873	0.0157462
867.951	0.0157684
868.030	0.0156614
868.108	0.0156966
868.186	0.0156524
868.264	0.0157507
868.342	0.0157688
868.420	0.0155702
868.498	0.0156826
868.576	0.0157624
868.655	0.0156467
868.733	0.0155946
868.811	0.0156486
868.889	0.0156778
868.967	0.0156339
869.045	0.0156960
869.123	0.0156545
869.201	0.0155808
869.280	0.0156451
869.358	0.0155938
869.436	0.0157575
869.514	0.0156457
869.592	0.0157495
869.670	0.0157341
869.748	0.0156458
869.826	0.0157256
869.905	0.0157893
869.983	0.0157609
870.061	0.0157893
870.139	0.0158398
870.217	0.0158407
870.295	0.0157134
870.373	0.0158444
870.451	0.0159009
870.530	0.0159455
870.608	0.0159309
870.686	0.0160143
870.764	0.0159337
870.842	0.0158400
870.920	0.0160095
870.998	0.0160138
871.076	0.0161768
871.155	0.0161304
871.233	0.0161913
871.311	0.0164279
871.389	0.0163297
871.467	0.0162503
871.545	0.0160863
871.623	0.0162860
871.701	0.0161983
871.780	0.0163306
871.858	0.0163818
871.936	0.0162888
872.014	0.0163758
872.092	0.0163699
872.170	0.0162051
872.248	0.0162260
872.326	0.0163476
872.405	0.0163512
872.483	0.0160359
872.561	0.0161449
872.639	0.0161273
872.717	0.0160242
872.795	0.0158937
872.873	0.0159122
872.951	0.0158382
873.030	0.0158188
873.108	0.0157731
873.186	0.0157845
873.264	0.0157783
873.342	0.0158483
873.420	0.0157456
873.498	0.0158929
873.576	0.0159072
873.655	0.0161042
873.733	0.0161333
873.811	0.0160854
873.889	0.0161404
873.967	0.0160596
874.045	0.0160839
874.123	0.0160654
874.201	0.0160590
874.280	0.0161245
874.358	0.0160345
874.436	0.0160470
874.514	0.0157928
874.592	0.0159278
874.670	0.0157854
874.748	0.0159464
874.826	0.0158582
874.905	0.0157965
874.983	0.0157925
875.061	0.0157828
875.139	0.0158595
875.217	0.0157661
875.295	0.0160238
875.373	0.0159760
875.451	0.0159180
875.530	0.0158720
875.608	0.0159883
875.686	0.0159705
875.764	0.0158887
875.842	0.0159196
875.920	0.0160522
875.998	0.0160114
876.076	0.0160419
876.155	0.0162810
876.233	0.0161053
876.311	0.0160788
876.389	0.0162771
876.467	0.0162419
876.545	0.0162766
876.623	0.0164207
876.701	0.0163609
876.780	0.0164159
876.858	0.0164816
876.936	0.0165076
877.014	0.0165025
877.092	0.0165086
877.170	0.0165374
877.248	0.0165065
877.326	0.0166027
877.405	0.0164954
877.483	0.0164141
877.561	0.0164308
877.639	0.0165804
877.717	0.0163905
877.795	0.0162659
877.873	0.0165052
877.951	0.0163239
878.030	0.0163055
878.108	0.0163669
878.186	0.0161093
878.264	0.0164027
878.342	0.0163702
878.420	0.0163195
878.498	0.0163686
878.576	0.0163533
878.655	0.0164474
878.733	0.0163443
878.811	0.0161830
878.889	0.0161398
878.967	0.0161034
879.045	0.0161383
879.123	0.0161509
879.201	0.0160824
879.280	0.0161792
879.358	0.0159336
879.436	0.0159165
879.514	0.0158071
879.592	0.0159409
879.670	0.0158788
879.748	0.0157869
879.826	0.0157725
879.905	0.0157273
879.983	0.0157805
880.061	0.0158258
880.139	0.0157639
880.217	0.0156651
880.295	0.0157157
880.373	0.0156538
880.451	0.0157199
880.530	0.0157488
880.608	0.0159176
880.686	0.0158451
880.764	0.0156305
880.842	0.0158962
880.920	0.0158409
880.998	0.0159311
881.076	0.0160323
881.155	0.0158393
881.233	0.0159222
881.311	0.0159838
881.389	0.0159969
881.467	0.0159886
881.545	0.0159856
881.623	0.0160294
881.701	0.0159502
881.780	0.0159216
881.858	0.0159828
881.936	0.0158984
882.014	0.0158373
882.092	0.0157911
882.170	0.0158398
882.248	0.0158812
882.326	0.0158967
882.405	0.0158337
882.483	0.0158557
882.561	0.0158693
882.639	0.0158142
882.717	0.0159254
882.795	0.0157310
882.873	0.0158546
882.951	0.0158762
883.030	0.0159059
883.108	0.0158875
883.186	0.0159861
883.264	0.0158029
883.342	0.0158583
883.420	0.0159192
883.498	0.0159569
883.576	0.0160461
883.655	0.0159338
883.733	0.0159073
883.811	0.0158549
883.889	0.0160664
883.967	0.0160106
884.045	0.0160823
884.123	0.0160618
884.201	0.0160172
884.280	0.0160577
884.358	0.0160972
884.436	0.0160526
884.514	0.0160784
884.592	0.0160257
884.670	0.0159026
884.748	0.0159852
884.826	0.0158781
884.905	0.0160353
884.983	0.0160158
885.061	0.0159801
885.139	0.0158955
885.217	0.0159325
885.295	0.0160245
885.373	0.0160191
885.451	0.0160037
885.530	0.0159341
885.608	0.0159911
885.686	0.0162545
885.764	0.0162004
885.842	0.0163404
885.920	0.0162834
885.998	0.0163054
886.076	0.0162215
886.155	0.0162399
886.233	0.0162038
886.311	0.0161648
886.389	0.0161909
886.467	0.0160773
886.545	0.0160130
886.623	0.0159329
886.701	0.0159277
886.780	0.0159232
886.858	0.0158606
886.936	0.0159398
887.014	0.0160438
887.092	0.0159636
887.170	0.0159557
887.248	0.0159714
887.326	0.0159468
887.405	0.0159024
887.483	0.0159754
887.561	0.0160567
887.639	0.0161183
887.717	0.0160973
887.795	0.0161182
887.873	0.0160784
887.951	0.0161473
888.030	0.0160608
888.108	0.0160817
888.186	0.0160235
888.264	0.0160543
888.342	0.0160608
888.420	0.0159227
888.498	0.0159239
888.576	0.0159122
888.655	0.0159410
888.733	0.0158663
888.811	0.0159089
888.889	0.0159277
888.967	0.0159665
889.045	0.0160829
889.123	0.0160298
889.201	0.0160228
889.280	0.0160805
889.358	0.0159925
889.436	0.0161630
889.514	0.0160444
889.592	0.0159016
889.670	0.0160403
889.748	0.0160674
889.826	0.0159074
889.905	0.0159322
889.983	0.0157912
890.061	0.0158678
890.139	0.0158443
890.217	0.0158390
890.295	0.0158016
890.373	0.0157840
890.451	0.0158748
890.530	0.0158791
890.608	0.0158336
890.686	0.0159240
890.764	0.0160440
890.842	0.0161407
890.920	0.0160434
890.998	0.0161592
891.076	0.0162115
891.155	0.0162750
891.233	0.0163148
891.311	0.0163226
891.389	0.0163712
891.467	0.0163547
891.545	0.0161977
891.623	0.0162225
891.701	0.0163205
891.780	0.0162272
891.858	0.0162787
891.936	0.0163788
892.014	0.0162268
892.092	0.0163821
892.170	0.0163737
892.248	0.0163319
892.326	0.0164291
892.405	0.0162940
892.483	0.0163264
892.561	0.0164423
892.639	0.0162608
892.717	0.0163342
892.795	0.0163959
892.873	0.0161871
892.951	0.0163219
893.030	0.0162386
893.108	0.0161383
893.186	0.0162208
893.264	0.0161073
893.342	0.0161080
893.420	0.0159846
893.498	0.0159112
893.576	0.0161137
893.655	0.0160340
893.733	0.0160564
893.811	0.0160417
893.889	0.0160246
893.967	0.0160344
894.045	0.0159142
894.123	0.0161045
894.201	0.0160699
894.280	0.0160816
894.358	0.0160360
894.436	0.0161048
894.514	0.0161097
894.592	0.0160567
894.670	0.0161602
894.748	0.0161002
894.826	0.0162136
894.905	0.0160767
894.983	0.0163085
895.061	0.0163427
895.139	0.0162315
895.217	0.0161847
895.295	0.0162529
895.373	0.0163216
895.451	0.0162683
895.530	0.0162601
895.608	0.0162077
895.686	0.0161315
895.764	0.0160532
895.842	0.0160069
895.920	0.0159378
895.998	0.0158768
896.076	0.0159628
896.155	0.0158247
896.233	0.0158444
896.311	0.0158047
896.389	0.0157800
896.467	0.0157399
896.545	0.0158852
896.623	0.0158611
896.701	0.0159114
896.780	0.0158054
896.858	0.0158836
896.936	0.0157511
897.014	0.0158411
897.092	0.0158144
897.170	0.0157251
897.248	0.0157053
897.326	0.0156567
897.405	0.0157266
897.483	0.0156809
897.561	0.0155469
897.639	0.0156574
897.717	0.0155622
897.795	0.0154844
897.873	0.0155705
897.951	0.0156154
898.030	0.0155116
898.108	0.0155840
898.186	0.0156078
898.264	0.0155798
898.342	0.0155082
898.420	0.0155916
898.498	0.0154962
898.576	0.0154821
898.655	0.0156123
898.733	0.0154626
898.811	0.0154363
898.889	0.0156986
898.967	0.0157017
899.045	0.0156994
899.123	0.0157137
899.201	0.0158537
899.280	0.0159431
899.358	0.0157619
899.436	0.0158417
899.514	0.0159800
899.592	0.0160519
899.670	0.0160851
899.748	0.0161974
899.826	0.0160831
899.905	0.0161380
899.983	0.0162919
900.061	0.0162209
900.139	0.0162948
900.217	0.0161311
900.295	0.0160609
900.373	0.0162808
900.451	0.0162244
900.530	0.0161070
900.608	0.0161573
900.686	0.0161945
900.764	0.0162035
900.842	0.0161082
900.920	0.0161568
900.998	0.0160326
901.076	0.0160046
901.155	0.0160413
901.233	0.0159001
901.311	0.0157676
901.389	0.0159372
901.467	0.0158303
901.545	0.0158467
901.623	0.0158562
901.701	0.0158855
901.780	0.0158485
901.858	0.0158913
901.936	0.0159698
902.014	0.0160310
902.092	0.0160580
902.170	0.0159914
902.248	0.0159135
902.326	0.0160925
902.405	0.0160746
902.483	0.0160856
902.561	0.0161223
902.639	0.0161337
902.717	0.0159205
902.795	0.0160599
902.873	0.0160013
902.951	0.0160140
903.030	0.0160473
903.108	0.0160221
903.186	0.0160158
903.264	0.0159042
903.342	0.0159912
903.420	0.0161053
903.498	0.0159827
903.576	0.0158443
903.655	0.0160789
903.733	0.0161211
903.811	0.0161736
903.889	0.0161538
903.967	0.0163552
904.045	0.0163467
904.123	0.0164559
904.201	0.0164272
904.280	0.0163255
904.358	0.0163671
904.436	0.0162849
904.514	0.0163700
904.592	0.0165337
904.670	0.0162756
904.748	0.0163108
904.826	0.0164123
904.905	0.0164785
904.983	0.0163076
905.061	0.0163683
905.139	0.0164154
905.217	0.0162622
905.295	0.0163088
905.373	0.0164190
905.451	0.0163794
905.530	0.0164043
905.608	0.0163327
905.686	0.0163490
905.764	0.0163709
905.842	0.0161403
905.920	0.0162193
905.998	0.0161238
906.076	0.0161925
906.155	0.0162015
906.233	0.0161010
906.311	0.0161430
906.389	0.0161351
906.467	0.0160622
906.545	0.0160918
906.623	0.0160530
906.701	0.0159762
906.780	0.0159790
906.858	0.0161688
906.936	0.0161201
907.014	0.0162373
907.092	0.0161639
907.170	0.0160387
907.248	0.0161031
907.326	0.0161159
907.405	0.0160770
907.483	0.0160670
907.561	0.0160577
907.639	0.0159990
907.717	0.0160419
907.795	0.0159367
907.873	0.0159718
907.951	0.0159151
908.030	0.0158330
908.108	0.0158107
908.186	0.0157120
908.264	0.0158474
908.342	0.0156291
908.420	0.0155647
908.498	0.0155099
908.576	0.0155668
908.655	0.0155553
908.733	0.0155286
908.811	0.0155010
908.889	0.0156057
908.967	0.0155861
909.045	0.0154092
909.123	0.0154108
909.201	0.0155711
909.280	0.0154784
909.358	0.0154818
909.436	0.0155016
909.514	0.0154836
909.592	0.0155860
909.670	0.0155862
909.748	0.0157782
909.826	0.0157214
909.905	0.0156960
909.983	0.0156423
910.061	0.0158236
910.139	0.0157349
910.217	0.0157014
910.295	0.0157990
910.373	0.0157755
910.451	0.0157729
910.530	0.0158648
910.608	0.0157385
910.686	0.0157930
910.764	0.0158475
910.842	0.0159808
910.920	0.0160144
910.998	0.0159048
911.076	0.0159307
911.155	0.0160709
911.233	0.0161524
911.311	0.0162054
911.389	0.0161893
911.467	0.0160841
911.545	0.0162156
911.623	0.0163055
911.701	0.0162910
911.780	0.0162154
911.858	0.0163394
911.936	0.0162558
912.014	0.0161322
912.092	0.0162691
912.170	0.0162043
912.248	0.0161028
912.326	0.0163894
912.405	0.0161359
912.483	0.0162688
912.561	0.0161582
912.639	0.0161981
912.717	0.0161905
912.795	0.0161859
912.873	0.0162664
912.951	0.0162144
913.030	0.0162757
913.108	0.0162796
913.186	0.0162666
913.264	0.0164013
913.342	0.0163129
913.420	0.0163557
913.498	0.0162914
913.576	0.0163328
913.655	0.0164688
913.733	0.0163380
913.811	0.0164598
913.889	0.0164426
913.967	0.0165945
914.045	0.0165334
914.123	0.0163789
914.201	0.0165465
914.280	0.0164997
914.358	0.0166544
914.436	0.0164832
914.514	0.0164008
914.592	0.0164800
914.670	0.0164864
914.748	0.0164008
914.826	0.0161298
914.905	0.0164011
914.983	0.0163370
915.061	0.0163041
915.139	0.0163221
915.217	0.0162284
915.295	0.0162770
915.373	0.0163488
915.451	0.0163752
915.530	0.0164779
915.608	0.0161588
915.686	0.0163186
915.764	0.0163342
915.842	0.0162331
915.920	0.0162262
915.998	0.0161144
916.076	0.0162269
916.155	0.0162635
916.233	0.0161627
916.311	0.0160053
916.389	0.0160162
916.467	0.0161387
916.545	0.0160451
916.623	0.0160870
916.701	0.0159518
916.780	0.0160696
916.858	0.0159688
916.936	0.0161206
917.014	0.0160269
917.092	0.0159959
917.170	0.0161366
917.248	0.0161265
917.326	0.0160654
917.405	0.0160372
917.483	0.0160237
917.561	0.0159215
917.639	0.0158647
917.717	0.0158636
917.795	0.0159619
917.873	0.0158684
917.951	0.0159026
918.030	0.0158382
918.108	0.0157707
918.186	0.0157716
918.264	0.0158028
918.342	0.0158331
918.420	0.0159016
918.498	0.0159598
918.576	0.0158276
918.655	0.0158379
918.733	0.0160436
918.811	0.0160027
918.889	0.0160788
918.967	0.0159980
919.045	0.0160714
919.123	0.0161784
919.201	0.0160914
919.280	0.0160891
919.358	0.0162243
919.436	0.0161176
919.514	0.0161388
919.592	0.0161975
919.670	0.0161056
919.748	0.0161230
919.826	0.0161648
919.905	0.0162598
919.983	0.0162477
920.061	0.0162338
920.139	0.0163359
920.217	0.0161359
920.295	0.0162449
920.373	0.0162601
920.451	0.0163588
920.530	0.0161832
920.608	0.0163285
920.686	0.0161134
920.764	0.0161155
920.842	0.0161998
920.920	0.0160374
920.998	0.0162113
921.076	0.0162003
921.155	0.0161172
921.233	0.0159829
921.311	0.0159558
921.389	0.0160337
921.467	0.0161251
921.545	0.0159923
921.623	0.0160085
921.701	0.0161244
921.780	0.0161950
921.858	0.0160863
921.936	0.0161765
922.014	0.0161536
922.092	0.0163033
922.170	0.0162698
922.248	0.0162681
922.326	0.0164133
922.405	0.0162260
922.483	0.0162218
922.561	0.0161893
922.639	0.0161647
922.717	0.0163176
922.795	0.0160603
922.873	0.0161011
922.951	0.0161764
923.030	0.0162717
923.108	0.0160890
923.186	0.0160774
923.264	0.0160360
923.342	0.0159723
923.420	0.0159354
923.498	0.0160752
923.576	0.0159644
923.655	0.0160139
923.733	0.0159563
923.811	0.0158890
923.889	0.0158959
923.967	0.0159610
924.045	0.0159496
924.123	0.0158352
924.201	0.0159373
924.280	0.0158677
924.358	0.0158797
924.436	0.0159379
924.514	0.0158298
924.592	0.0158891
924.670	0.0159046
924.748	0.0158730
924.826	0.0158743
924.905	0.0158935
924.983	0.0157863
925.061	0.0156333
925.139	0.0158456
925.217	0.0157184
925.295	0.0156462
925.373	0.0157510
925.451	0.0157501
925.530	0.0157421
925.608	0.0158533
925.686	0.0156818
925.764	0.0157150
925.842	0.0158161
925.920	0.0158447
925.998	0.0156255
926.076	0.0157452
926.155	0.0157912
926.233	0.0157780
926.311	0.0157483
926.389	0.0157050
926.467	0.0158530
926.545	0.0158307
926.623	0.0158441
926.701	0.0157859
926.780	0.0160046
926.858	0.0158950
926.936	0.0158733
927.014	0.0160479
927.092	0.0160278
927.170	0.0160194
927.248	0.0160100
927.326	0.0160422
927.405	0.0161718
927.483	0.0161504
927.561	0.0160701
927.639	0.0162040
927.717	0.0163058
927.795	0.0162440
927.873	0.0161602
927.951	0.0161683
928.030	0.0163382
928.108	0.0161057
928.186	0.0161689
928.264	0.0160902
928.342	0.0161829
928.420	0.0162565
928.498	0.0160774
928.576	0.0160645
928.655	0.0159682
928.733	0.0160243
928.811	0.0159099
928.889	0.0160166
928.967	0.0160516
929.045	0.0160577
929.123	0.0160957
929.201	0.0158761
929.280	0.0159129
929.358	0.0159927
929.436	0.0160659
929.514	0.0160720
929.592	0.0159009
929.670	0.0159779
929.748	0.0160297
929.826	0.0159658
929.905	0.0159970
929.983	0.0159435
930.061	0.0160224
930.139	0.0159680
930.217	0.0159202
930.295	0.0158347
930.373	0.0157406
930.451	0.0159012
930.530	0.0158679
930.608	0.0158047
930.686	0.0159231
930.764	0.0159323
930.842	0.0158882
930.920	0.0159069
930.998	0.0159363
931.076	0.0159737
931.155	0.0158720
931.233	0.0158433
931.311	0.0159692
931.389	0.0158319
931.467	0.0158660
931.545	0.0158352
931.623	0.0157082
931.701	0.0157613
931.780	0.0157146
931.858	0.0156811
931.936	0.0156450
932.014	0.0155804
932.092	0.0156293
932.170	0.0156755
932.248	0.0156923
932.326	0.0155470
932.405	0.0157600
932.483	0.0158174
932.561	0.0158038
932.639	0.0159107
932.717	0.0159269
932.795	0.0160131
932.873	0.0161091
932.951	0.0159105
933.030	0.0162464
933.108	0.0162039
933.186	0.0161761
933.264	0.0163128
933.342	0.0162852
933.420	0.0162090
933.498	0.0162476
933.576	0.0163486
933.655	0.0162063
933.733	0.0162334
933.811	0.0160404
933.889	0.0161500
933.967	0.0160460
934.045	0.0161528
934.123	0.0162039
934.201	0.0162199
934.280	0.0162218
934.358	0.0163354
934.436	0.0161630
934.514	0.0161839
934.592	0.0162875
934.670	0.0162553
934.748	0.0162933
934.826	0.0162865
934.905	0.0163200
934.983	0.0163398
935.061	0.0164346
935.139	0.0163603
935.217	0.0162868
935.295	0.0162183
935.373	0.0162885
935.451	0.0162400
935.530	0.0161063
935.608	0.0163145
935.686	0.0162292
935.764	0.0161765
935.842	0.0162151
935.920	0.0161378
935.998	0.0161658
936.076	0.0161684
936.155	0.0161563
936.233	0.0162093
936.311	0.0161707
936.389	0.0161586
936.467	0.0162395
936.545	0.0163409
936.623	0.0162698
936.701	0.0162218
936.780	0.0162589
936.858	0.0161792
936.936	0.0163466
937.014	0.0162769
937.092	0.0161646
937.170	0.0161519
937.248	0.0162591
937.326	0.0162602
937.405	0.0163275
937.483	0.0161963
937.561	0.0161823
937.639	0.0163561
937.717	0.0162056
937.795	0.0162870
937.873	0.0163476
937.951	0.0161823
938.030	0.0163847
938.108	0.0164815
938.186	0.0163652
938.264	0.0162699
938.342	0.0163531
938.420	0.0163015
938.498	0.0163612
938.576	0.0163315
938.655	0.0163002
938.733	0.0161838
938.811	0.0162818
938.889	0.0162297
938.967	0.0161689
939.045	0.0162208
939.123	0.0161378
939.201	0.0162337
939.280	0.0160474
939.358	0.0161588
939.436	0.0162077
939.514	0.0162454
939.592	0.0162582
939.670	0.0161989
939.748	0.0161081
939.826	0.0161273
939.905	0.0160888
939.983	0.0162268
940.061	0.0162331
940.139	0.0161965
940.217	0.0159609
940.295	0.0160840
940.373	0.0161999
940.451	0.0160805
940.530	0.0159970
940.608	0.0159267
940.686	0.0160517
940.764	0.0159882
940.842	0.0158526
940.920	0.0158412
940.998	0.0159208
941.076	0.0159895
941.155	0.0159172
941.233	0.0159907
941.311	0.0160184
941.389	0.0160625
941.467	0.0161690
941.545	0.0160497
941.623	0.0160431
941.701	0.0162012
941.780	0.0161733
941.858	0.0160777
941.936	0.0162845
942.014	0.0162598
942.092	0.0162361
942.170	0.0162356
942.248	0.0162004
942.326	0.0163026
942.405	0.0162428
942.483	0.0161510
942.561	0.0163217
942.639	0.0162443
942.717	0.0163405
942.795	0.0163169
942.873	0.0163959
942.951	0.0163380
943.030	0.0163290
943.108	0.0162602
943.186	0.0163115
943.264	0.0162146
943.342	0.0162260
943.420	0.0161608
943.498	0.0161279
943.576	0.0162455
943.655	0.0163097
943.733	0.0162341
943.811	0.0161766
943.889	0.0160786
943.967	0.0161375
944.045	0.0160445
944.123	0.0159733
944.201	0.0159959
944.280	0.0160199
944.358	0.0160389
944.436	0.0160233
944.514	0.0160378
944.592	0.0158829
944.670	0.0159159
944.748	0.0158865
944.826	0.0160095
944.905	0.0159447
944.983	0.0159897
945.061	0.0159536
945.139	0.0160726
945.217	0.0160082
945.295	0.0159417
945.373	0.0161773
945.451	0.0160835
945.530	0.0160810
945.608	0.0160622
945.686	0.0160593
945.764	0.0160954
945.842	0.0160915
945.920	0.0160492
945.998	0.0159530
946.076	0.0161538
946.155	0.0159641
946.233	0.0161273
946.311	0.0161237
946.389	0.0159359
946.467	0.0161920
946.545	0.0159790
946.623	0.0159902
946.701	0.0161111
946.780	0.0161879
946.858	0.0161806
946.936	0.0160506
947.014	0.0160044
947.092	0.0159982
947.170	0.0159936
947.248	0.0160751
947.326	0.0159989
947.405	0.0160632
947.483	0.0159422
947.561	0.0159501
947.639	0.0159712
947.717	0.0160567
947.795	0.0160145
947.873	0.0159975
947.951	0.0159937
948.030	0.0160387
948.108	0.0159516
948.186	0.0161642
948.264	0.0160985
948.342	0.0160155
948.420	0.0159335
948.498	0.0160587
948.576	0.0160871
948.655	0.0159433
948.733	0.0159497
948.811	0.0160400
948.889	0.0158932
948.967	0.0158946
949.045	0.0161013
949.123	0.0159785
949.201	0.0159850
949.280	0.0160232
949.358	0.0161749
949.436	0.0160949
949.514	0.0160181
949.592	0.0161727
949.670	0.0161030
949.748	0.0161172
949.826	0.0161588
949.905	0.0160735
949.983	0.0161494
950.061	0.0160674
950.139	0.0160847
950.217	0.0161988
950.295	0.0162782
950.373	0.0161545
950.451	0.0161820
950.530	0.0161060
950.608	0.0160582
950.686	0.0160625
950.764	0.0161930
950.842	0.0160963
950.920	0.0162270
950.998	0.0162300
951.076	0.0163365
951.155	0.0163491
951.233	0.0163760
951.311	0.0163076
951.389	0.0163232
951.467	0.0163950
951.545	0.0163446
951.623	0.0163810
951.701	0.0163094
951.780	0.0162589
951.858	0.0163124
951.936	0.0163467
952.014	0.0162546
952.092	0.0162354
952.170	0.0161894
952.248	0.0163335
952.326	0.0162720
952.405	0.0162328
952.483	0.0162763
952.561	0.0162524
952.639	0.0163128
952.717	0.0161395
952.795	0.0162257
952.873	0.0162429
952.951	0.0163535
953.030	0.0163753
953.108	0.0163049
953.186	0.0163480
953.264	0.0162601
953.342	0.0165382
953.420	0.0165955
953.498	0.0164152
953.576	0.0163263
953.655	0.0163995
953.733	0.0163774
953.811	0.0163412
953.889	0.0163257
953.967	0.0164851
954.045	0.0164534
954.123	0.0162941
954.201	0.0162696
954.280	0.0162990
954.358	0.0163152
954.436	0.0162392
954.514	0.0162399
954.592	0.0162455
954.670	0.0162809
954.748	0.0162007
954.826	0.0160598
954.905	0.0162816
954.983	0.0162366
955.061	0.0163651
955.139	0.0162962
955.217	0.0162450
955.295	0.0163112
955.373	0.0163461
955.451	0.0162495
955.530	0.0163010
955.608	0.0162609
955.686	0.0163113
955.764	0.0160851
955.842	0.0164381
955.920	0.0163114
955.998	0.0162492
956.076	0.0162902
956.155	0.0162900
956.233	0.0162230
956.311	0.0161404
956.389	0.0160674
956.467	0.0161428
956.545	0.0160406
956.623	0.0162152
956.701	0.0159367
956.780	0.0159117
956.858	0.0158630
956.936	0.0157232
957.014	0.0158187
957.092	0.0158552
957.170	0.0155722
957.248	0.0156455
957.326	0.0156088
957.405	0.0157294
957.483	0.0156887
957.561	0.0157074
957.639	0.0157098
957.717	0.0157992
957.795	0.0158215
957.873	0.0160043
957.951	0.0159527
958.030	0.0160027
958.108	0.0159861
958.186	0.0160960
958.264	0.0160995
958.342	0.0161765
958.420	0.0163302
958.498	0.0162400
958.576	0.0162563
958.655	0.0163373
958.733	0.0163820
958.811	0.0163682
958.889	0.0162350
958.967	0.0162760
959.045	0.0162606
959.123	0.0163697
959.201	0.0163859
959.280	0.0163247
959.358	0.0163213
959.436	0.0162258
959.514	0.0161073
959.592	0.0162816
959.670	0.0162725
959.748	0.0161487
959.826	0.0161533
959.905	0.0161083
