05/17/2022	16:37:23	Ver.	4.1	UNKNOWN
Optical Delay	639.989416	Delta X		0.078125	Sweeps	1	Scan Rate	0/0
Coordinates	Axis 1	NaN	Axis 2	NaN	Axis 3	NaN	Axis 4	NaN	Axis 5	NaN	Axis 6	0.000000
TX Power	0.000000	RX Power	0.000000

639.989	0.0155115
640.068	0.0155183
640.146	0.0155237
640.224	0.0156058
640.302	0.0155033
640.380	0.0155595
640.458	0.0156042
640.536	0.0156330
640.614	0.0154153
640.693	0.0153652
640.771	0.0154414
640.849	0.0155321
640.927	0.0153883
641.005	0.0153814
641.083	0.0154066
641.161	0.0155562
641.239	0.0156063
641.318	0.0155344
641.396	0.0155711
641.474	0.0155471
641.552	0.0155719
641.630	0.0155151
641.708	0.0154642
641.786	0.0155902
641.864	0.0153920
641.943	0.0155897
642.021	0.0155156
642.099	0.0154704
642.177	0.0155004
642.255	0.0154198
642.333	0.0154236
642.411	0.0155310
642.489	0.0155206
642.568	0.0155066
642.646	0.0154594
642.724	0.0154386
642.802	0.0156013
642.880	0.0155161
642.958	0.0155946
643.036	0.0155309
643.114	0.0154950
643.193	0.0154329
643.271	0.0155022
643.349	0.0154816
643.427	0.0156025
643.505	0.0155716
643.583	0.0153814
643.661	0.0156483
643.739	0.0155223
643.818	0.0155094
643.896	0.0155601
643.974	0.0155380
644.052	0.0155508
644.130	0.0156055
644.208	0.0154945
644.286	0.0155559
644.364	0.0156195
644.443	0.0155809
644.521	0.0155161
644.599	0.0155295
644.677	0.0154291
644.755	0.0155003
644.833	0.0155744
644.911	0.0154628
644.989	0.0154295
645.068	0.0155244
645.146	0.0155405
645.224	0.0156161
645.302	0.0156180
645.380	0.0155244
645.458	0.0154263
645.536	0.0155729
645.614	0.0155274
645.693	0.0154382
645.771	0.0156099
645.849	0.0154814
645.927	0.0156258
646.005	0.0154151
646.083	0.0157127
646.161	0.0155024
646.239	0.0153565
646.318	0.0155771
646.396	0.0155484
646.474	0.0155835
646.552	0.0156796
646.630	0.0154360
646.708	0.0155000
646.786	0.0155345
646.864	0.0155173
646.943	0.0156521
647.021	0.0155758
647.099	0.0155788
647.177	0.0155909
647.255	0.0156236
647.333	0.0156367
647.411	0.0155297
647.489	0.0155688
647.568	0.0155648
647.646	0.0156910
647.724	0.0154839
647.802	0.0153806
647.880	0.0155257
647.958	0.0155515
648.036	0.0156232
648.114	0.0154157
648.193	0.0156007
648.271	0.0156515
648.349	0.0155093
648.427	0.0154400
648.505	0.0156626
648.583	0.0155925
648.661	0.0154160
648.739	0.0155318
648.818	0.0155447
648.896	0.0155779
648.974	0.0157158
649.052	0.0156106
649.130	0.0155542
649.208	0.0155094
649.286	0.0155203
649.364	0.0155824
649.443	0.0155637
649.521	0.0154842
649.599	0.0156123
649.677	0.0155882
649.755	0.0155445
649.833	0.0156167
649.911	0.0155503
649.989	0.0155489
650.068	0.0156256
650.146	0.0155791
650.224	0.0155412
650.302	0.0156687
650.380	0.0156191
650.458	0.0156021
650.536	0.0155643
650.614	0.0155325
650.693	0.0154733
650.771	0.0154922
650.849	0.0157609
650.927	0.0155617
651.005	0.0156150
651.083	0.0155907
651.161	0.0156829
651.239	0.0156953
651.318	0.0155076
651.396	0.0154395
651.474	0.0156159
651.552	0.0154935
651.630	0.0155964
651.708	0.0156254
651.786	0.0155128
651.864	0.0154956
651.943	0.0156207
652.021	0.0153918
652.099	0.0154761
652.177	0.0156953
652.255	0.0155923
652.333	0.0155807
652.411	0.0155553
652.489	0.0155677
652.568	0.0156257
652.646	0.0155344
652.724	0.0154646
652.802	0.0155449
652.880	0.0155563
652.958	0.0156158
653.036	0.0155522
653.114	0.0156362
653.193	0.0154977
653.271	0.0156074
653.349	0.0154700
653.427	0.0155573
653.505	0.0155524
653.583	0.0155991
653.661	0.0155650
653.739	0.0155746
653.818	0.0155448
653.896	0.0155094
653.974	0.0156040
654.052	0.0155252
654.130	0.0155196
654.208	0.0156676
654.286	0.0155801
654.364	0.0156248
654.443	0.0154903
654.521	0.0156905
654.599	0.0154494
654.677	0.0156094
654.755	0.0156622
654.833	0.0155876
654.911	0.0154380
654.989	0.0156764
655.068	0.0154864
655.146	0.0155206
655.224	0.0155509
655.302	0.0155335
655.380	0.0156290
655.458	0.0155277
655.536	0.0155637
655.614	0.0154652
655.693	0.0155051
655.771	0.0155938
655.849	0.0154153
655.927	0.0155099
656.005	0.0156201
656.083	0.0155494
656.161	0.0155332
656.239	0.0155247
656.318	0.0156100
656.396	0.0156628
656.474	0.0155643
656.552	0.0155156
656.630	0.0154094
656.708	0.0155135
656.786	0.0154919
656.864	0.0154695
656.943	0.0155183
657.021	0.0156374
657.099	0.0156477
657.177	0.0156194
657.255	0.0154493
657.333	0.0154979
657.411	0.0155504
657.489	0.0155839
657.568	0.0155498
657.646	0.0155623
657.724	0.0155994
657.802	0.0156167
657.880	0.0154768
657.958	0.0155591
658.036	0.0155006
658.114	0.0154573
658.193	0.0155663
658.271	0.0154585
658.349	0.0155726
658.427	0.0155298
658.505	0.0155058
658.583	0.0155243
658.661	0.0154182
658.739	0.0156075
658.818	0.0155530
658.896	0.0155635
658.974	0.0154892
659.052	0.0155572
659.130	0.0155578
659.208	0.0156303
659.286	0.0154947
659.364	0.0155152
659.443	0.0155296
659.521	0.0155442
659.599	0.0155675
659.677	0.0154794
659.755	0.0156232
659.833	0.0155880
659.911	0.0155202
659.989	0.0156761
660.068	0.0155970
660.146	0.0155745
660.224	0.0156006
660.302	0.0155504
660.380	0.0154740
660.458	0.0155381
660.536	0.0155322
660.614	0.0154086
660.693	0.0154922
660.771	0.0156489
660.849	0.0154279
660.927	0.0156064
661.005	0.0155184
661.083	0.0154874
661.161	0.0155325
661.239	0.0155590
661.318	0.0155044
661.396	0.0155022
661.474	0.0154987
661.552	0.0154345
661.630	0.0156626
661.708	0.0155282
661.786	0.0155632
661.864	0.0154649
661.943	0.0154437
662.021	0.0155100
662.099	0.0155699
662.177	0.0155608
662.255	0.0156050
662.333	0.0156045
662.411	0.0154560
662.489	0.0155145
662.568	0.0153079
662.646	0.0154666
662.724	0.0155900
662.802	0.0155029
662.880	0.0154246
662.958	0.0154680
663.036	0.0154734
663.114	0.0155008
663.193	0.0155052
663.271	0.0154568
663.349	0.0154834
663.427	0.0154728
663.505	0.0155220
663.583	0.0153752
663.661	0.0154225
663.739	0.0155912
663.818	0.0155714
663.896	0.0154982
663.974	0.0154964
664.052	0.0154286
664.130	0.0155381
664.208	0.0156065
664.286	0.0154661
664.364	0.0156578
664.443	0.0155072
664.521	0.0154820
664.599	0.0156163
664.677	0.0156021
664.755	0.0153259
664.833	0.0154726
664.911	0.0154958
664.989	0.0156330
665.068	0.0155689
665.146	0.0154146
665.224	0.0154412
665.302	0.0155169
665.380	0.0154614
665.458	0.0154102
665.536	0.0155044
665.614	0.0156265
665.693	0.0154611
665.771	0.0155231
665.849	0.0155733
665.927	0.0154884
666.005	0.0154995
666.083	0.0156345
666.161	0.0156648
666.239	0.0155526
666.318	0.0154810
666.396	0.0156301
666.474	0.0155827
666.552	0.0155087
666.630	0.0155853
666.708	0.0154999
666.786	0.0155453
666.864	0.0153927
666.943	0.0156370
667.021	0.0155857
667.099	0.0155254
667.177	0.0155758
667.255	0.0155697
667.333	0.0154826
667.411	0.0155277
667.489	0.0155714
667.568	0.0154929
667.646	0.0155780
667.724	0.0156262
667.802	0.0156377
667.880	0.0156085
667.958	0.0156165
668.036	0.0155248
668.114	0.0155789
668.193	0.0156590
668.271	0.0156596
668.349	0.0155537
668.427	0.0155742
668.505	0.0155984
668.583	0.0156136
668.661	0.0157072
668.739	0.0155379
668.818	0.0154517
668.896	0.0156005
668.974	0.0154989
669.052	0.0156438
669.130	0.0156035
669.208	0.0154790
669.286	0.0155511
669.364	0.0157664
669.443	0.0155701
669.521	0.0155599
669.599	0.0156094
669.677	0.0156237
669.755	0.0155799
669.833	0.0155564
669.911	0.0157117
669.989	0.0156019
670.068	0.0155764
670.146	0.0155979
670.224	0.0156693
670.302	0.0155697
670.380	0.0156181
670.458	0.0156776
670.536	0.0155077
670.614	0.0155749
670.693	0.0154556
670.771	0.0156429
670.849	0.0156913
670.927	0.0154700
671.005	0.0155012
671.083	0.0156670
671.161	0.0156058
671.239	0.0156042
671.318	0.0156184
671.396	0.0156631
671.474	0.0155957
671.552	0.0156450
671.630	0.0154808
671.708	0.0155476
671.786	0.0154961
671.864	0.0156013
671.943	0.0157126
672.021	0.0154828
672.099	0.0155242
672.177	0.0154840
672.255	0.0155568
672.333	0.0156330
672.411	0.0155610
672.489	0.0155435
672.568	0.0156631
672.646	0.0156299
672.724	0.0155469
672.802	0.0156016
672.880	0.0155287
672.958	0.0155226
673.036	0.0155353
673.114	0.0155398
673.193	0.0155621
673.271	0.0155339
673.349	0.0154643
673.427	0.0154970
673.505	0.0156634
673.583	0.0155639
673.661	0.0155012
673.739	0.0155349
673.818	0.0155592
673.896	0.0155703
673.974	0.0156850
674.052	0.0155507
674.130	0.0155822
674.208	0.0156085
674.286	0.0155762
674.364	0.0156028
674.443	0.0155767
674.521	0.0155207
674.599	0.0155863
674.677	0.0156144
674.755	0.0156023
674.833	0.0156476
674.911	0.0153783
674.989	0.0154158
675.068	0.0154485
675.146	0.0156419
675.224	0.0154674
675.302	0.0153484
675.380	0.0153339
675.458	0.0155177
675.536	0.0155063
675.614	0.0155459
675.693	0.0153476
675.771	0.0155325
675.849	0.0154920
675.927	0.0153932
676.005	0.0155426
676.083	0.0155540
676.161	0.0155633
676.239	0.0154967
676.318	0.0155221
676.396	0.0154340
676.474	0.0154918
676.552	0.0154530
676.630	0.0155297
676.708	0.0156104
676.786	0.0154418
676.864	0.0155128
676.943	0.0154395
677.021	0.0154581
677.099	0.0155592
677.177	0.0153928
677.255	0.0154359
677.333	0.0153871
677.411	0.0155235
677.489	0.0154847
677.568	0.0153934
677.646	0.0154892
677.724	0.0154929
677.802	0.0152830
677.880	0.0154095
677.958	0.0154570
678.036	0.0154948
678.114	0.0155002
678.193	0.0154983
678.271	0.0154073
678.349	0.0155196
678.427	0.0155554
678.505	0.0154344
678.583	0.0154674
678.661	0.0154848
678.739	0.0156019
678.818	0.0155388
678.896	0.0156369
678.974	0.0155000
679.052	0.0156454
679.130	0.0154832
679.208	0.0155489
679.286	0.0154743
679.364	0.0156093
679.443	0.0156483
679.521	0.0154433
679.599	0.0155135
679.677	0.0155186
679.755	0.0155589
679.833	0.0155945
679.911	0.0154675
679.989	0.0155605
680.068	0.0155638
680.146	0.0154604
680.224	0.0156138
680.302	0.0155639
680.380	0.0153396
680.458	0.0155458
680.536	0.0156227
680.614	0.0156126
680.693	0.0155869
680.771	0.0154257
680.849	0.0154787
680.927	0.0155276
681.005	0.0154079
681.083	0.0155453
681.161	0.0156243
681.239	0.0155192
681.318	0.0156532
681.396	0.0154928
681.474	0.0155996
681.552	0.0154517
681.630	0.0155605
681.708	0.0156155
681.786	0.0156019
681.864	0.0154536
681.943	0.0155972
682.021	0.0156438
682.099	0.0156178
682.177	0.0156178
682.255	0.0155903
682.333	0.0156647
682.411	0.0155345
682.489	0.0155408
682.568	0.0154421
682.646	0.0153614
682.724	0.0156245
682.802	0.0155140
682.880	0.0154830
682.958	0.0156152
683.036	0.0156942
683.114	0.0156309
683.193	0.0154451
683.271	0.0153883
683.349	0.0155537
683.427	0.0156071
683.505	0.0155192
683.583	0.0155547
683.661	0.0154819
683.739	0.0154764
683.818	0.0154620
683.896	0.0155247
683.974	0.0156528
684.052	0.0155581
684.130	0.0156116
684.208	0.0153271
684.286	0.0155172
684.364	0.0154703
684.443	0.0154679
684.521	0.0154374
684.599	0.0153671
684.677	0.0154106
684.755	0.0154700
684.833	0.0154497
684.911	0.0154860
684.989	0.0155663
685.068	0.0156387
685.146	0.0155960
685.224	0.0156532
685.302	0.0156616
685.380	0.0158876
685.458	0.0158101
685.536	0.0157222
685.614	0.0156712
685.693	0.0157705
685.771	0.0157121
685.849	0.0156789
685.927	0.0157130
686.005	0.0154807
686.083	0.0154144
686.161	0.0153261
686.239	0.0152315
686.318	0.0151574
686.396	0.0151434
686.474	0.0151259
686.552	0.0148959
686.630	0.0150626
686.708	0.0151115
686.786	0.0150064
686.864	0.0150605
686.943	0.0152738
687.021	0.0152905
687.099	0.0153074
687.177	0.0156277
687.255	0.0160272
687.333	0.0162186
687.411	0.0164762
687.489	0.0167712
687.568	0.0169429
687.646	0.0172157
687.724	0.0171353
687.802	0.0171036
687.880	0.0169902
687.958	0.0170078
688.036	0.0168746
688.114	0.0165216
688.193	0.0162011
688.271	0.0157793
688.349	0.0154507
688.427	0.0151301
688.505	0.0146445
688.583	0.0143403
688.661	0.0139125
688.739	0.0137812
688.818	0.0135432
688.896	0.0134663
688.974	0.0131203
689.052	0.0132142
689.130	0.0132998
689.208	0.0134421
689.286	0.0136091
689.364	0.0137823
689.443	0.0142266
689.521	0.0143958
689.599	0.0149778
689.677	0.0153808
689.755	0.0158564
689.833	0.0161662
689.911	0.0168586
689.989	0.0170295
690.068	0.0175066
690.146	0.0178599
690.224	0.0182410
690.302	0.0183484
690.380	0.0183963
690.458	0.0184632
690.536	0.0186499
690.614	0.0185795
690.693	0.0182790
690.771	0.0182966
690.849	0.0179701
690.927	0.0177159
691.005	0.0172850
691.083	0.0168528
691.161	0.0161820
691.239	0.0156056
691.318	0.0150513
691.396	0.0144080
691.474	0.0137171
691.552	0.0128780
691.630	0.0122515
691.708	0.0116953
691.786	0.0112390
691.864	0.0109748
691.943	0.0106658
692.021	0.0104977
692.099	0.0104928
692.177	0.0107010
692.255	0.0111330
692.333	0.0116982
692.411	0.0121609
692.489	0.0130051
692.568	0.0136983
692.646	0.0144836
692.724	0.0153152
692.802	0.0162132
692.880	0.0170893
692.958	0.0179548
693.036	0.0187150
693.114	0.0194288
693.193	0.0201681
693.271	0.0207048
693.349	0.0209712
693.427	0.0212537
693.505	0.0213892
693.583	0.0212594
693.661	0.0211417
693.739	0.0207633
693.818	0.0203609
693.896	0.0199583
693.974	0.0193674
694.052	0.0186586
694.130	0.0178356
694.208	0.0172962
694.286	0.0164690
694.364	0.0156281
694.443	0.0148200
694.521	0.0141500
694.599	0.0132594
694.677	0.0124241
694.755	0.0117464
694.833	0.0114123
694.911	0.0109068
694.989	0.0104756
695.068	0.0103584
695.146	0.0100922
695.224	0.0100861
695.302	0.0102298
695.380	0.0102374
695.458	0.0107016
695.536	0.0110334
695.614	0.0115207
695.693	0.0119920
695.771	0.0125912
695.849	0.0132748
695.927	0.0140505
696.005	0.0148496
696.083	0.0157356
696.161	0.0165762
696.239	0.0174545
696.318	0.0181096
696.396	0.0187524
696.474	0.0194839
696.552	0.0199734
696.630	0.0204678
696.708	0.0206561
696.786	0.0209026
696.864	0.0207827
696.943	0.0206969
697.021	0.0206535
697.099	0.0201577
697.177	0.0196918
697.255	0.0193077
697.333	0.0189211
697.411	0.0181306
697.489	0.0176565
697.568	0.0170389
697.646	0.0163525
697.724	0.0157617
697.802	0.0150913
697.880	0.0144659
697.958	0.0138587
698.036	0.0133012
698.114	0.0126731
698.193	0.0123520
698.271	0.0118407
698.349	0.0113592
698.427	0.0111642
698.505	0.0111096
698.583	0.0110797
698.661	0.0113508
698.739	0.0115857
698.818	0.0121403
698.896	0.0126847
698.974	0.0133121
699.052	0.0139977
699.130	0.0147232
699.208	0.0153484
699.286	0.0159911
699.364	0.0165596
699.443	0.0170377
699.521	0.0174911
699.599	0.0177652
699.677	0.0179507
699.755	0.0180309
699.833	0.0180782
699.911	0.0177818
699.989	0.0178466
700.068	0.0177019
700.146	0.0173820
700.224	0.0171381
700.302	0.0169756
700.380	0.0165171
700.458	0.0160821
700.536	0.0157384
700.614	0.0153168
700.693	0.0151100
700.771	0.0149884
700.849	0.0147084
700.927	0.0145677
701.005	0.0144172
701.083	0.0144992
701.161	0.0144060
701.239	0.0146830
701.318	0.0147757
701.396	0.0149092
701.474	0.0151365
701.552	0.0152134
701.630	0.0153529
701.708	0.0155199
701.786	0.0153696
701.864	0.0155786
701.943	0.0155754
702.021	0.0154843
702.099	0.0154761
702.177	0.0154219
702.255	0.0154774
702.333	0.0155255
702.411	0.0155106
702.489	0.0155486
702.568	0.0157874
702.646	0.0158350
702.724	0.0158961
702.802	0.0161785
702.880	0.0162247
702.958	0.0160963
703.036	0.0163587
703.114	0.0164039
703.193	0.0163557
703.271	0.0164754
703.349	0.0164127
703.427	0.0164178
703.505	0.0163478
703.583	0.0161213
703.661	0.0162514
703.739	0.0162144
703.818	0.0160313
703.896	0.0159939
703.974	0.0158655
704.052	0.0157502
704.130	0.0156704
704.208	0.0155930
704.286	0.0155162
704.364	0.0153347
704.443	0.0153568
704.521	0.0150748
704.599	0.0149914
704.677	0.0149225
704.755	0.0148260
704.833	0.0145706
704.911	0.0146152
704.989	0.0145688
705.068	0.0143879
705.146	0.0142271
705.224	0.0144961
705.302	0.0142746
705.380	0.0141829
705.458	0.0143925
705.536	0.0144656
705.614	0.0147158
705.693	0.0148864
705.771	0.0148913
705.849	0.0151989
705.927	0.0153248
706.005	0.0155252
706.083	0.0156506
706.161	0.0157423
706.239	0.0159254
706.318	0.0160684
706.396	0.0161037
706.474	0.0161351
706.552	0.0161971
706.630	0.0159647
706.708	0.0161557
706.786	0.0159788
706.864	0.0159482
706.943	0.0159295
707.021	0.0159547
707.099	0.0159689
707.177	0.0159457
707.255	0.0157652
707.333	0.0157404
707.411	0.0156250
707.489	0.0154632
707.568	0.0152196
707.646	0.0150958
707.724	0.0152018
707.802	0.0148451
707.880	0.0146694
707.958	0.0147417
708.036	0.0147899
708.114	0.0146486
708.193	0.0149300
708.271	0.0149162
708.349	0.0150574
708.427	0.0151231
708.505	0.0152866
708.583	0.0153230
708.661	0.0154864
708.739	0.0155565
708.818	0.0156450
708.896	0.0157594
708.974	0.0159143
709.052	0.0160001
709.130	0.0161736
709.208	0.0163088
709.286	0.0164432
709.364	0.0167835
709.443	0.0165470
709.521	0.0166988
709.599	0.0168253
709.677	0.0165890
709.755	0.0166311
709.833	0.0164925
709.911	0.0161781
709.989	0.0159513
710.068	0.0158532
710.146	0.0156367
710.224	0.0153775
710.302	0.0152423
710.380	0.0152077
710.458	0.0152425
710.536	0.0150297
710.614	0.0149245
710.693	0.0149843
710.771	0.0150190
710.849	0.0149135
710.927	0.0149361
711.005	0.0147629
711.083	0.0148486
711.161	0.0148763
711.239	0.0149828
711.318	0.0150122
711.396	0.0150790
711.474	0.0152170
711.552	0.0152691
711.630	0.0154491
711.708	0.0156487
711.786	0.0155960
711.864	0.0157825
711.943	0.0158163
712.021	0.0160275
712.099	0.0159333
712.177	0.0159163
712.255	0.0159534
712.333	0.0158651
712.411	0.0158330
712.489	0.0158827
712.568	0.0159251
712.646	0.0159972
712.724	0.0159722
712.802	0.0160944
712.880	0.0161860
712.958	0.0161437
713.036	0.0162349
713.114	0.0163058
713.193	0.0162323
713.271	0.0163612
713.349	0.0161877
713.427	0.0162457
713.505	0.0160622
713.583	0.0158460
713.661	0.0157569
713.739	0.0154237
713.818	0.0151910
713.896	0.0150584
713.974	0.0149329
714.052	0.0148465
714.130	0.0146603
714.208	0.0145039
714.286	0.0144726
714.364	0.0144054
714.443	0.0145399
714.521	0.0143695
714.599	0.0146027
714.677	0.0147478
714.755	0.0147775
714.833	0.0151470
714.911	0.0152704
714.989	0.0151661
715.068	0.0153593
715.146	0.0152806
715.224	0.0152953
715.302	0.0152049
715.380	0.0153661
715.458	0.0151674
715.536	0.0149763
715.614	0.0148444
715.693	0.0147140
715.771	0.0147636
715.849	0.0146507
715.927	0.0146785
716.005	0.0148152
716.083	0.0149441
716.161	0.0148721
716.239	0.0151086
716.318	0.0154007
716.396	0.0157537
716.474	0.0159032
716.552	0.0162032
716.630	0.0164605
716.708	0.0166349
716.786	0.0166944
716.864	0.0168070
716.943	0.0168362
717.021	0.0167255
717.099	0.0164851
717.177	0.0163202
717.255	0.0161507
717.333	0.0158138
717.411	0.0154317
717.489	0.0152254
717.568	0.0149862
717.646	0.0148437
717.724	0.0148441
717.802	0.0147250
717.880	0.0147814
717.958	0.0148074
718.036	0.0152010
718.114	0.0152600
718.193	0.0155907
718.271	0.0158191
718.349	0.0160369
718.427	0.0162437
718.505	0.0164643
718.583	0.0165134
718.661	0.0166611
718.739	0.0166829
718.818	0.0166508
718.896	0.0164194
718.974	0.0163461
719.052	0.0161671
719.130	0.0160715
719.208	0.0158089
719.286	0.0157063
719.364	0.0156047
719.443	0.0152560
719.521	0.0152419
719.599	0.0150636
719.677	0.0148827
719.755	0.0148553
719.833	0.0149308
719.911	0.0148327
719.989	0.0148410
720.068	0.0149823
720.146	0.0150832
720.224	0.0150301
720.302	0.0150883
720.380	0.0153031
720.458	0.0156659
720.536	0.0156625
720.614	0.0157748
720.693	0.0157301
720.771	0.0159689
720.849	0.0161046
720.927	0.0160115
721.005	0.0162131
721.083	0.0162328
721.161	0.0162549
721.239	0.0160909
721.318	0.0162357
721.396	0.0162983
721.474	0.0161208
721.552	0.0160489
721.630	0.0160914
721.708	0.0155752
721.786	0.0154282
721.864	0.0153477
721.943	0.0150919
722.021	0.0147949
722.099	0.0145856
722.177	0.0144660
722.255	0.0143411
722.333	0.0141825
722.411	0.0142947
722.489	0.0142883
722.568	0.0145371
722.646	0.0143330
722.724	0.0146665
722.802	0.0148891
722.880	0.0150199
722.958	0.0154228
723.036	0.0155657
723.114	0.0156907
723.193	0.0159058
723.271	0.0160676
723.349	0.0163297
723.427	0.0164138
723.505	0.0166515
723.583	0.0168533
723.661	0.0167582
723.739	0.0166889
723.818	0.0166375
723.896	0.0165813
723.974	0.0164492
724.052	0.0163933
724.130	0.0162432
724.208	0.0160251
724.286	0.0159103
724.364	0.0157438
724.443	0.0156049
724.521	0.0154840
724.599	0.0153576
724.677	0.0152369
724.755	0.0151706
724.833	0.0150404
724.911	0.0151487
724.989	0.0149912
725.068	0.0149731
725.146	0.0149767
725.224	0.0148387
725.302	0.0148836
725.380	0.0150068
725.458	0.0150427
725.536	0.0149131
725.614	0.0149872
725.693	0.0152102
725.771	0.0153078
725.849	0.0153167
725.927	0.0155169
726.005	0.0155103
726.083	0.0155662
726.161	0.0154944
726.239	0.0157682
726.318	0.0158435
726.396	0.0157642
726.474	0.0157072
726.552	0.0157719
726.630	0.0157404
726.708	0.0158129
726.786	0.0155762
726.864	0.0156860
726.943	0.0156415
727.021	0.0156567
727.099	0.0155818
727.177	0.0154527
727.255	0.0153770
727.333	0.0153738
727.411	0.0152412
727.489	0.0152757
727.568	0.0150699
727.646	0.0150051
727.724	0.0149825
727.802	0.0151153
727.880	0.0151019
727.958	0.0152034
728.036	0.0154391
728.114	0.0155046
728.193	0.0156066
728.271	0.0157944
728.349	0.0159290
728.427	0.0160862
728.505	0.0161597
728.583	0.0163335
728.661	0.0164470
728.739	0.0162978
728.818	0.0165517
728.896	0.0166126
728.974	0.0164958
729.052	0.0165383
729.130	0.0163895
729.208	0.0163570
729.286	0.0164191
729.364	0.0162311
729.443	0.0162121
729.521	0.0159308
729.599	0.0157297
729.677	0.0157101
729.755	0.0154938
729.833	0.0152794
729.911	0.0152681
729.989	0.0152601
730.068	0.0151259
730.146	0.0150452
730.224	0.0151083
730.302	0.0150993
730.380	0.0153021
730.458	0.0152055
730.536	0.0154260
730.614	0.0153769
730.693	0.0154104
730.771	0.0155831
730.849	0.0156781
730.927	0.0155876
731.005	0.0154150
731.083	0.0155302
731.161	0.0155332
731.239	0.0154546
731.318	0.0154906
731.396	0.0155538
731.474	0.0156062
731.552	0.0154501
731.630	0.0156290
731.708	0.0155857
731.786	0.0155540
731.864	0.0156177
731.943	0.0155827
732.021	0.0154725
732.099	0.0155405
732.177	0.0153361
732.255	0.0154298
732.333	0.0152876
732.411	0.0153012
732.489	0.0152019
732.568	0.0151511
732.646	0.0150263
732.724	0.0149631
732.802	0.0149068
732.880	0.0149474
732.958	0.0148394
733.036	0.0149843
733.114	0.0149980
733.193	0.0152149
733.271	0.0153840
733.349	0.0154478
733.427	0.0154722
733.505	0.0156657
733.583	0.0158749
733.661	0.0159757
733.739	0.0161308
733.818	0.0160922
733.896	0.0160815
733.974	0.0161898
734.052	0.0162048
734.130	0.0160419
734.208	0.0159792
734.286	0.0159140
734.364	0.0159731
734.443	0.0158814
734.521	0.0157770
734.599	0.0154892
734.677	0.0155536
734.755	0.0154967
734.833	0.0153549
734.911	0.0153928
734.989	0.0153419
735.068	0.0155642
735.146	0.0155533
735.224	0.0155196
735.302	0.0155257
735.380	0.0154452
735.458	0.0153157
735.536	0.0154297
735.614	0.0153662
735.693	0.0155589
735.771	0.0154254
735.849	0.0155100
735.927	0.0156467
736.005	0.0156940
736.083	0.0155872
736.161	0.0156887
736.239	0.0155359
736.318	0.0157501
736.396	0.0156576
736.474	0.0155745
736.552	0.0157970
736.630	0.0156709
736.708	0.0156776
736.786	0.0158263
736.864	0.0157721
736.943	0.0157813
737.021	0.0157664
737.099	0.0157672
737.177	0.0156001
737.255	0.0156335
737.333	0.0155154
737.411	0.0154956
737.489	0.0155233
737.568	0.0153944
737.646	0.0153783
737.724	0.0152467
737.802	0.0151717
737.880	0.0151426
737.958	0.0148958
738.036	0.0150560
738.114	0.0149942
738.193	0.0150011
738.271	0.0149799
738.349	0.0150260
738.427	0.0151353
738.505	0.0150272
738.583	0.0151351
738.661	0.0151247
738.739	0.0151650
738.818	0.0154008
738.896	0.0155064
738.974	0.0154837
739.052	0.0155865
739.130	0.0155508
739.208	0.0158104
739.286	0.0157983
739.364	0.0157014
739.443	0.0156934
739.521	0.0155540
739.599	0.0157116
739.677	0.0156490
739.755	0.0154509
739.833	0.0154663
739.911	0.0154169
739.989	0.0153651
740.068	0.0154111
740.146	0.0155304
740.224	0.0154562
740.302	0.0154687
740.380	0.0153484
740.458	0.0156153
740.536	0.0156445
740.614	0.0156771
740.693	0.0156471
740.771	0.0157838
740.849	0.0157115
740.927	0.0156720
741.005	0.0157600
741.083	0.0158697
741.161	0.0158086
741.239	0.0158639
741.318	0.0158229
741.396	0.0159678
741.474	0.0160147
741.552	0.0159088
741.630	0.0158360
741.708	0.0157723
741.786	0.0158450
741.864	0.0157234
741.943	0.0155992
742.021	0.0155120
742.099	0.0154996
742.177	0.0154813
742.255	0.0153417
742.333	0.0152844
742.411	0.0153284
742.489	0.0153514
742.568	0.0153774
742.646	0.0152196
742.724	0.0153532
742.802	0.0155697
742.880	0.0153881
742.958	0.0156007
743.036	0.0156267
743.114	0.0154888
743.193	0.0157319
743.271	0.0156223
743.349	0.0156216
743.427	0.0155306
743.505	0.0156316
743.583	0.0156348
743.661	0.0155591
743.739	0.0155100
743.818	0.0155286
743.896	0.0155047
743.974	0.0154700
744.052	0.0152546
744.130	0.0153003
744.208	0.0151218
744.286	0.0152357
744.364	0.0152348
744.443	0.0152885
744.521	0.0152277
744.599	0.0152052
744.677	0.0153909
744.755	0.0155281
744.833	0.0155633
744.911	0.0155669
744.989	0.0156976
745.068	0.0157589
745.146	0.0157441
745.224	0.0157524
745.302	0.0157725
745.380	0.0156494
745.458	0.0156480
745.536	0.0156728
745.614	0.0154467
745.693	0.0155207
745.771	0.0153903
745.849	0.0152662
745.927	0.0154374
746.005	0.0154105
746.083	0.0153410
746.161	0.0152979
746.239	0.0152496
746.318	0.0152477
746.396	0.0152722
746.474	0.0153518
746.552	0.0154856
746.630	0.0154144
746.708	0.0155067
746.786	0.0154714
746.864	0.0154837
746.943	0.0154652
747.021	0.0156311
747.099	0.0155831
747.177	0.0156455
747.255	0.0156354
747.333	0.0156441
747.411	0.0156464
747.489	0.0156361
747.568	0.0156514
747.646	0.0156389
747.724	0.0155743
747.802	0.0154704
747.880	0.0156627
747.958	0.0156963
748.036	0.0154951
748.114	0.0154176
748.193	0.0155184
748.271	0.0155875
748.349	0.0155187
748.427	0.0156258
748.505	0.0155347
748.583	0.0157586
748.661	0.0156649
748.739	0.0156814
748.818	0.0158929
748.896	0.0157875
748.974	0.0158287
749.052	0.0159260
749.130	0.0158053
749.208	0.0159153
749.286	0.0157507
749.364	0.0157266
749.443	0.0157078
749.521	0.0157157
749.599	0.0156421
749.677	0.0155910
749.755	0.0155490
749.833	0.0154193
749.911	0.0154484
749.989	0.0156472
750.068	0.0153771
750.146	0.0153868
750.224	0.0153810
750.302	0.0153690
750.380	0.0154011
750.458	0.0154737
750.536	0.0152949
750.614	0.0153615
750.693	0.0153358
750.771	0.0156156
750.849	0.0154742
750.927	0.0155215
751.005	0.0156136
751.083	0.0157238
751.161	0.0157304
751.239	0.0157186
751.318	0.0158015
751.396	0.0156790
751.474	0.0156050
751.552	0.0156561
751.630	0.0158127
751.708	0.0157780
751.786	0.0156152
751.864	0.0157652
751.943	0.0157253
752.021	0.0154793
752.099	0.0156024
752.177	0.0157171
752.255	0.0155641
752.333	0.0156287
752.411	0.0156992
752.489	0.0155114
752.568	0.0156159
752.646	0.0157203
752.724	0.0156918
752.802	0.0157169
752.880	0.0156654
752.958	0.0157202
753.036	0.0157372
753.114	0.0155512
753.193	0.0155685
753.271	0.0156350
753.349	0.0155524
753.427	0.0155176
753.505	0.0154454
753.583	0.0154012
753.661	0.0154629
753.739	0.0154131
753.818	0.0152769
753.896	0.0153607
753.974	0.0153971
754.052	0.0154198
754.130	0.0155368
754.208	0.0153545
754.286	0.0154372
754.364	0.0154858
754.443	0.0155698
754.521	0.0156448
754.599	0.0155287
754.677	0.0155667
754.755	0.0157222
754.833	0.0157397
754.911	0.0156300
754.989	0.0156599
755.068	0.0155547
755.146	0.0155239
755.224	0.0155747
755.302	0.0155688
755.380	0.0155360
755.458	0.0156349
755.536	0.0155206
755.614	0.0155618
755.693	0.0155836
755.771	0.0156502
755.849	0.0154803
755.927	0.0155766
756.005	0.0156426
756.083	0.0156302
756.161	0.0154576
756.239	0.0155322
756.318	0.0155907
756.396	0.0156686
756.474	0.0157010
756.552	0.0156615
756.630	0.0157774
756.708	0.0157217
756.786	0.0157474
756.864	0.0157800
756.943	0.0157824
757.021	0.0157752
757.099	0.0157851
757.177	0.0157420
757.255	0.0154893
757.333	0.0155834
757.411	0.0155299
757.489	0.0154800
757.568	0.0154073
757.646	0.0154659
757.724	0.0153310
757.802	0.0152571
757.880	0.0154778
757.958	0.0153168
758.036	0.0153442
758.114	0.0155482
758.193	0.0153629
758.271	0.0153818
758.349	0.0154137
758.427	0.0155913
758.505	0.0155189
758.583	0.0153891
758.661	0.0153950
758.739	0.0155205
758.818	0.0155842
758.896	0.0155363
758.974	0.0155260
759.052	0.0154553
759.130	0.0155223
759.208	0.0156145
759.286	0.0156621
759.364	0.0156526
759.443	0.0155451
759.521	0.0155341
759.599	0.0154593
759.677	0.0155847
759.755	0.0156112
759.833	0.0156420
759.911	0.0155652
759.989	0.0155776
760.068	0.0154221
760.146	0.0154280
760.224	0.0153888
760.302	0.0153797
760.380	0.0152467
760.458	0.0152253
760.536	0.0153368
760.614	0.0152787
760.693	0.0153159
760.771	0.0153175
760.849	0.0153976
760.927	0.0155630
761.005	0.0155795
761.083	0.0154633
761.161	0.0155685
761.239	0.0156746
761.318	0.0157444
761.396	0.0157948
761.474	0.0158313
761.552	0.0157557
761.630	0.0158580
761.708	0.0157439
761.786	0.0157777
761.864	0.0157950
761.943	0.0158589
762.021	0.0157247
762.099	0.0156799
762.177	0.0156499
762.255	0.0157376
762.333	0.0156078
762.411	0.0155188
762.489	0.0154823
762.568	0.0154579
762.646	0.0154920
762.724	0.0155374
762.802	0.0154922
762.880	0.0153986
762.958	0.0155071
763.036	0.0155833
763.114	0.0154430
763.193	0.0155391
763.271	0.0154376
763.349	0.0153424
763.427	0.0154562
763.505	0.0154684
763.583	0.0155369
763.661	0.0154347
763.739	0.0155257
763.818	0.0155447
763.896	0.0154480
763.974	0.0155997
764.052	0.0155634
764.130	0.0155424
764.208	0.0155752
764.286	0.0155749
764.364	0.0154576
764.443	0.0155344
764.521	0.0155006
764.599	0.0154085
764.677	0.0153996
764.755	0.0152261
764.833	0.0153029
764.911	0.0152072
764.989	0.0151432
765.068	0.0151715
765.146	0.0150678
765.224	0.0150841
765.302	0.0150875
765.380	0.0151436
765.458	0.0151370
765.536	0.0151683
765.614	0.0150838
765.693	0.0151734
765.771	0.0152711
765.849	0.0154285
765.927	0.0152670
766.005	0.0153038
766.083	0.0152160
766.161	0.0154782
766.239	0.0154617
766.318	0.0152710
766.396	0.0154585
766.474	0.0155676
766.552	0.0153743
766.630	0.0153490
766.708	0.0156076
766.786	0.0154488
766.864	0.0155559
766.943	0.0155309
767.021	0.0155131
767.099	0.0156320
767.177	0.0157084
767.255	0.0157360
767.333	0.0157761
767.411	0.0156538
767.489	0.0157543
767.568	0.0158636
767.646	0.0159439
767.724	0.0157892
767.802	0.0157351
767.880	0.0158398
767.958	0.0158582
768.036	0.0157783
768.114	0.0157043
768.193	0.0157692
768.271	0.0155972
768.349	0.0157584
768.427	0.0157343
768.505	0.0156341
768.583	0.0157526
768.661	0.0156741
768.739	0.0155700
768.818	0.0156234
768.896	0.0155682
768.974	0.0154058
769.052	0.0154962
769.130	0.0154777
769.208	0.0154083
769.286	0.0154028
769.364	0.0154366
769.443	0.0155375
769.521	0.0155504
769.599	0.0154041
769.677	0.0155373
769.755	0.0154469
769.833	0.0155598
769.911	0.0154295
769.989	0.0156081
770.068	0.0154662
770.146	0.0154242
770.224	0.0153071
770.302	0.0153213
770.380	0.0154551
770.458	0.0153909
770.536	0.0153465
770.614	0.0153532
770.693	0.0153090
770.771	0.0154035
770.849	0.0152312
770.927	0.0152410
771.005	0.0151931
771.083	0.0154203
771.161	0.0153517
771.239	0.0153757
771.318	0.0154245
771.396	0.0155879
771.474	0.0154820
771.552	0.0155353
771.630	0.0156278
771.708	0.0156957
771.786	0.0157116
771.864	0.0158276
771.943	0.0157080
772.021	0.0157585
772.099	0.0159122
772.177	0.0158024
772.255	0.0158106
772.333	0.0158015
772.411	0.0156439
772.489	0.0156866
772.568	0.0157953
772.646	0.0155015
772.724	0.0155084
772.802	0.0154684
772.880	0.0155641
772.958	0.0154739
773.036	0.0154205
773.114	0.0153911
773.193	0.0153568
773.271	0.0153633
773.349	0.0153008
773.427	0.0153559
773.505	0.0152637
773.583	0.0153586
773.661	0.0153959
773.739	0.0154084
773.818	0.0154671
773.896	0.0154592
773.974	0.0153974
774.052	0.0154968
774.130	0.0155666
774.208	0.0155482
774.286	0.0154955
774.364	0.0156927
774.443	0.0155652
774.521	0.0154498
774.599	0.0156271
774.677	0.0155690
774.755	0.0154523
774.833	0.0154827
774.911	0.0154606
774.989	0.0155581
775.068	0.0155109
775.146	0.0154666
775.224	0.0154089
775.302	0.0154109
775.380	0.0155531
775.458	0.0155433
775.536	0.0155568
775.614	0.0155402
775.693	0.0154323
775.771	0.0155175
775.849	0.0156479
775.927	0.0155016
776.005	0.0154529
776.083	0.0154399
776.161	0.0156042
776.239	0.0155637
776.318	0.0154411
776.396	0.0155178
776.474	0.0155312
776.552	0.0156442
776.630	0.0154172
776.708	0.0153901
776.786	0.0154207
776.864	0.0155779
776.943	0.0154581
777.021	0.0154685
777.099	0.0154040
777.177	0.0154021
777.255	0.0155402
777.333	0.0156136
777.411	0.0155162
777.489	0.0155257
777.568	0.0155583
777.646	0.0155946
777.724	0.0155793
777.802	0.0155421
777.880	0.0156051
777.958	0.0155057
778.036	0.0156789
778.114	0.0156676
778.193	0.0156586
778.271	0.0155651
778.349	0.0154057
778.427	0.0155550
778.505	0.0154587
778.583	0.0153778
778.661	0.0155114
778.739	0.0154357
778.818	0.0154600
778.896	0.0153134
778.974	0.0154004
779.052	0.0154922
779.130	0.0154027
779.208	0.0154960
779.286	0.0155273
779.364	0.0154719
779.443	0.0155419
779.521	0.0157213
779.599	0.0156463
779.677	0.0158084
779.755	0.0156505
779.833	0.0156094
779.911	0.0158224
779.989	0.0158030
780.068	0.0158408
780.146	0.0158828
780.224	0.0157723
780.302	0.0157841
780.380	0.0156268
780.458	0.0156244
780.536	0.0156912
780.614	0.0155880
780.693	0.0156533
780.771	0.0156525
780.849	0.0154525
780.927	0.0155003
781.005	0.0154353
781.083	0.0154404
781.161	0.0154237
781.239	0.0154421
781.318	0.0153641
781.396	0.0153973
781.474	0.0155310
781.552	0.0153933
781.630	0.0154408
781.708	0.0155318
781.786	0.0156455
781.864	0.0156696
781.943	0.0156052
782.021	0.0155828
782.099	0.0156479
782.177	0.0157676
782.255	0.0157531
782.333	0.0157273
782.411	0.0156500
782.489	0.0155978
782.568	0.0155404
782.646	0.0153938
782.724	0.0154327
782.802	0.0155405
782.880	0.0154368
782.958	0.0154534
783.036	0.0154075
783.114	0.0155515
783.193	0.0154211
783.271	0.0154962
783.349	0.0153437
783.427	0.0155805
783.505	0.0156993
783.583	0.0156363
783.661	0.0158292
783.739	0.0157173
783.818	0.0159209
783.896	0.0156214
783.974	0.0157212
784.052	0.0158640
784.130	0.0158342
784.208	0.0156693
784.286	0.0157845
784.364	0.0158382
784.443	0.0158033
784.521	0.0157645
784.599	0.0157586
784.677	0.0156493
784.755	0.0155870
784.833	0.0155007
784.911	0.0156519
784.989	0.0155373
785.068	0.0154527
785.146	0.0153275
785.224	0.0155959
785.302	0.0154767
785.380	0.0155450
785.458	0.0155162
785.536	0.0154353
785.614	0.0153844
785.693	0.0152406
785.771	0.0153337
785.849	0.0153041
785.927	0.0153690
786.005	0.0153770
786.083	0.0153252
786.161	0.0153249
786.239	0.0151558
786.318	0.0151440
786.396	0.0153694
786.474	0.0153384
786.552	0.0153310
786.630	0.0152454
786.708	0.0153882
786.786	0.0154213
786.864	0.0154279
786.943	0.0154594
787.021	0.0156718
787.099	0.0156606
787.177	0.0158044
787.255	0.0158866
787.333	0.0157867
787.411	0.0159177
787.489	0.0160632
787.568	0.0158738
787.646	0.0160133
787.724	0.0159892
787.802	0.0158209
787.880	0.0157392
787.958	0.0157156
788.036	0.0156937
788.114	0.0155220
788.193	0.0154655
788.271	0.0154021
788.349	0.0152047
788.427	0.0150653
788.505	0.0150640
788.583	0.0150061
788.661	0.0148355
788.739	0.0148480
788.818	0.0147629
788.896	0.0149037
788.974	0.0149016
789.052	0.0148686
789.130	0.0148845
789.208	0.0150757
789.286	0.0153222
789.364	0.0151894
789.443	0.0154166
789.521	0.0155895
789.599	0.0157148
789.677	0.0160040
789.755	0.0159268
789.833	0.0161225
789.911	0.0163431
789.989	0.0162199
790.068	0.0162929
790.146	0.0162525
790.224	0.0163464
790.302	0.0165443
790.380	0.0163854
790.458	0.0161884
790.536	0.0162317
790.614	0.0163474
790.693	0.0161117
790.771	0.0159618
790.849	0.0157375
790.927	0.0157429
791.005	0.0158657
791.083	0.0155203
791.161	0.0154780
791.239	0.0153642
791.318	0.0153260
791.396	0.0152740
791.474	0.0150014
791.552	0.0150885
791.630	0.0148445
791.708	0.0149829
791.786	0.0147848
791.864	0.0147165
791.943	0.0146880
792.021	0.0147057
792.099	0.0147045
792.177	0.0146114
792.255	0.0146419
792.333	0.0148191
792.411	0.0148163
792.489	0.0150176
792.568	0.0149989
792.646	0.0152081
792.724	0.0153957
792.802	0.0154466
792.880	0.0155370
792.958	0.0157481
793.036	0.0157411
793.114	0.0160270
793.193	0.0160017
793.271	0.0161546
793.349	0.0160942
793.427	0.0162643
793.505	0.0161713
793.583	0.0162411
793.661	0.0161989
793.739	0.0162901
793.818	0.0162872
793.896	0.0161387
793.974	0.0160421
794.052	0.0160072
794.130	0.0158342
794.208	0.0157034
794.286	0.0156808
794.364	0.0155940
794.443	0.0155087
794.521	0.0153478
794.599	0.0154218
794.677	0.0153929
794.755	0.0152585
794.833	0.0152569
794.911	0.0152359
794.989	0.0152328
795.068	0.0152778
795.146	0.0153062
795.224	0.0152625
795.302	0.0152911
795.380	0.0154053
795.458	0.0154822
795.536	0.0153757
795.614	0.0154632
795.693	0.0155766
795.771	0.0154590
795.849	0.0155392
795.927	0.0154080
796.005	0.0155679
796.083	0.0156153
796.161	0.0155363
796.239	0.0156076
796.318	0.0156868
796.396	0.0155931
796.474	0.0155769
796.552	0.0155853
796.630	0.0154746
796.708	0.0155302
796.786	0.0155501
796.864	0.0155357
796.943	0.0155101
797.021	0.0154922
797.099	0.0154378
797.177	0.0156145
797.255	0.0155879
797.333	0.0154543
797.411	0.0154869
797.489	0.0156580
797.568	0.0156169
797.646	0.0156435
797.724	0.0155530
797.802	0.0155795
797.880	0.0154457
797.958	0.0155632
798.036	0.0154270
798.114	0.0155553
798.193	0.0155719
798.271	0.0154350
798.349	0.0154063
798.427	0.0154687
798.505	0.0153336
798.583	0.0155230
798.661	0.0155048
798.739	0.0154927
798.818	0.0155696
798.896	0.0155122
798.974	0.0154794
799.052	0.0155520
799.130	0.0156487
799.208	0.0157622
799.286	0.0156761
799.364	0.0154343
799.443	0.0156754
799.521	0.0155943
799.599	0.0156428
799.677	0.0156420
799.755	0.0156625
799.833	0.0154969
799.911	0.0155816
799.989	0.0155334
800.068	0.0155950
800.146	0.0154691
800.224	0.0154282
800.302	0.0154168
800.380	0.0154114
800.458	0.0154128
800.536	0.0153938
800.614	0.0153844
800.693	0.0154021
800.771	0.0153443
800.849	0.0153640
800.927	0.0154029
801.005	0.0155314
801.083	0.0156019
801.161	0.0155499
801.239	0.0154359
801.318	0.0155566
801.396	0.0155520
801.474	0.0156243
801.552	0.0155895
801.630	0.0156548
801.708	0.0154357
801.786	0.0155740
801.864	0.0154824
801.943	0.0154364
802.021	0.0154536
802.099	0.0153071
802.177	0.0153184
802.255	0.0153720
802.333	0.0152250
802.411	0.0153563
802.489	0.0153860
802.568	0.0153074
802.646	0.0154636
802.724	0.0154993
802.802	0.0155207
802.880	0.0156061
802.958	0.0155969
803.036	0.0156676
803.114	0.0157347
803.193	0.0157223
803.271	0.0157277
803.349	0.0158355
803.427	0.0157498
803.505	0.0156718
803.583	0.0156115
803.661	0.0157957
803.739	0.0156071
803.818	0.0157202
803.896	0.0156606
803.974	0.0155457
804.052	0.0156262
804.130	0.0156927
804.208	0.0157226
804.286	0.0155959
804.364	0.0156300
804.443	0.0155704
804.521	0.0153691
804.599	0.0155373
804.677	0.0156028
804.755	0.0154260
804.833	0.0154830
804.911	0.0156271
804.989	0.0155404
805.068	0.0155793
805.146	0.0155611
805.224	0.0155972
805.302	0.0155594
805.380	0.0157919
805.458	0.0155809
805.536	0.0154372
805.614	0.0155828
805.693	0.0154867
805.771	0.0154863
805.849	0.0155281
805.927	0.0155983
806.005	0.0155846
806.083	0.0156568
806.161	0.0155338
806.239	0.0155724
806.318	0.0155696
806.396	0.0156293
806.474	0.0154855
806.552	0.0155276
806.630	0.0154905
806.708	0.0155519
806.786	0.0154116
806.864	0.0154311
806.943	0.0155400
807.021	0.0156414
807.099	0.0155206
807.177	0.0154192
807.255	0.0154106
807.333	0.0154259
807.411	0.0153374
807.489	0.0153289
807.568	0.0152845
807.646	0.0153436
807.724	0.0153699
807.802	0.0154461
807.880	0.0152290
807.958	0.0152913
808.036	0.0153306
808.114	0.0154420
808.193	0.0153574
808.271	0.0153883
808.349	0.0156169
808.427	0.0155708
808.505	0.0153971
808.583	0.0154102
808.661	0.0155497
808.739	0.0155685
808.818	0.0155373
808.896	0.0155740
808.974	0.0156947
809.052	0.0156870
809.130	0.0158468
809.208	0.0157137
809.286	0.0157043
809.364	0.0158477
809.443	0.0157893
809.521	0.0158086
809.599	0.0158121
809.677	0.0157493
809.755	0.0157683
809.833	0.0157912
809.911	0.0156674
809.989	0.0157040
810.068	0.0156953
810.146	0.0156609
810.224	0.0155831
810.302	0.0157056
810.380	0.0155633
810.458	0.0155923
810.536	0.0156281
810.614	0.0155019
810.693	0.0154892
810.771	0.0155578
810.849	0.0154849
810.927	0.0155214
811.005	0.0155691
811.083	0.0156217
811.161	0.0155640
811.239	0.0154938
811.318	0.0154788
811.396	0.0153883
811.474	0.0153387
811.552	0.0154971
811.630	0.0153586
811.708	0.0152420
811.786	0.0153873
811.864	0.0153242
811.943	0.0152885
812.021	0.0151715
812.099	0.0153608
812.177	0.0152496
812.255	0.0150748
812.333	0.0153014
812.411	0.0152804
812.489	0.0154517
812.568	0.0155204
812.646	0.0154008
812.724	0.0154282
812.802	0.0154747
812.880	0.0154819
812.958	0.0155167
813.036	0.0155054
813.114	0.0155588
813.193	0.0156280
813.271	0.0156448
813.349	0.0155510
813.427	0.0156410
813.505	0.0155807
813.583	0.0156871
813.661	0.0157063
813.739	0.0155912
813.818	0.0156524
813.896	0.0156853
813.974	0.0156432
814.052	0.0158314
814.130	0.0156739
814.208	0.0155853
814.286	0.0157840
814.364	0.0156487
814.443	0.0156833
814.521	0.0157988
814.599	0.0157008
814.677	0.0158250
814.755	0.0158875
814.833	0.0157817
814.911	0.0158325
814.989	0.0157312
815.068	0.0157359
815.146	0.0157514
815.224	0.0157804
815.302	0.0156778
815.380	0.0156310
815.458	0.0156741
815.536	0.0155922
815.614	0.0155462
815.693	0.0154483
815.771	0.0154261
815.849	0.0152544
815.927	0.0151926
816.005	0.0152238
816.083	0.0152387
816.161	0.0151654
816.239	0.0152532
816.318	0.0152133
816.396	0.0151668
816.474	0.0151257
816.552	0.0150805
816.630	0.0152973
816.708	0.0153469
816.786	0.0153201
816.864	0.0155048
816.943	0.0153950
817.021	0.0155331
817.099	0.0156525
817.177	0.0155753
817.255	0.0156831
817.333	0.0157702
817.411	0.0158011
817.489	0.0159447
817.568	0.0158669
817.646	0.0159148
817.724	0.0158573
817.802	0.0156725
817.880	0.0157283
817.958	0.0157507
818.036	0.0156740
818.114	0.0157533
818.193	0.0156956
818.271	0.0156720
818.349	0.0156268
818.427	0.0157120
818.505	0.0156561
818.583	0.0156529
818.661	0.0156149
818.739	0.0156322
818.818	0.0154182
818.896	0.0155690
818.974	0.0155526
819.052	0.0154620
819.130	0.0155216
819.208	0.0153681
819.286	0.0154709
819.364	0.0154083
819.443	0.0154839
819.521	0.0153105
819.599	0.0153963
819.677	0.0155810
819.755	0.0154234
819.833	0.0153471
819.911	0.0155798
819.989	0.0156273
820.068	0.0156799
820.146	0.0156178
820.224	0.0155336
820.302	0.0156850
820.380	0.0157790
820.458	0.0157351
820.536	0.0159405
820.614	0.0159528
820.693	0.0158831
820.771	0.0159594
820.849	0.0159071
820.927	0.0158857
821.005	0.0158847
821.083	0.0158881
821.161	0.0159103
821.239	0.0157296
821.318	0.0155989
821.396	0.0156493
821.474	0.0156214
821.552	0.0155685
821.630	0.0155104
821.708	0.0153325
821.786	0.0152773
821.864	0.0152360
821.943	0.0152362
822.021	0.0152298
822.099	0.0152956
822.177	0.0151941
822.255	0.0151624
822.333	0.0152866
822.411	0.0152281
822.489	0.0151748
822.568	0.0152219
822.646	0.0151823
822.724	0.0153210
822.802	0.0154008
822.880	0.0155877
822.958	0.0155634
823.036	0.0156714
823.114	0.0157356
823.193	0.0157574
823.271	0.0157623
823.349	0.0157259
823.427	0.0156036
823.505	0.0155997
823.583	0.0157457
823.661	0.0156044
823.739	0.0155360
823.818	0.0156815
823.896	0.0157519
823.974	0.0155801
824.052	0.0156854
824.130	0.0156429
824.208	0.0156816
824.286	0.0156967
824.364	0.0156155
824.443	0.0156158
824.521	0.0156323
824.599	0.0155985
824.677	0.0156205
824.755	0.0157967
824.833	0.0156790
824.911	0.0156710
824.989	0.0156776
825.068	0.0156588
825.146	0.0156290
825.224	0.0157926
825.302	0.0157619
825.380	0.0157311
825.458	0.0158064
825.536	0.0156900
825.614	0.0155785
825.693	0.0156850
825.771	0.0155822
825.849	0.0156277
825.927	0.0154685
826.005	0.0156374
826.083	0.0154874
826.161	0.0155977
826.239	0.0156142
826.318	0.0156145
826.396	0.0155566
826.474	0.0155696
826.552	0.0155898
826.630	0.0156479
826.708	0.0156227
826.786	0.0156744
826.864	0.0157162
826.943	0.0155809
827.021	0.0156522
827.099	0.0154696
827.177	0.0155055
827.255	0.0154077
827.333	0.0154829
827.411	0.0154177
827.489	0.0152731
827.568	0.0152185
827.646	0.0151589
827.724	0.0152977
827.802	0.0152652
827.880	0.0151886
827.958	0.0151238
828.036	0.0152538
828.114	0.0152323
828.193	0.0153335
828.271	0.0153919
828.349	0.0153741
828.427	0.0154211
828.505	0.0154664
828.583	0.0156809
828.661	0.0157115
828.739	0.0157508
828.818	0.0156676
828.896	0.0157498
828.974	0.0158119
829.052	0.0157905
829.130	0.0157678
829.208	0.0158545
829.286	0.0157205
829.364	0.0157861
829.443	0.0156197
829.521	0.0156785
829.599	0.0157133
829.677	0.0154682
829.755	0.0155803
829.833	0.0155731
829.911	0.0156329
829.989	0.0153610
830.068	0.0156904
830.146	0.0155095
830.224	0.0155627
830.302	0.0155869
830.380	0.0154211
830.458	0.0155920
830.536	0.0156160
830.614	0.0156951
830.693	0.0155232
830.771	0.0156809
830.849	0.0156500
830.927	0.0157605
831.005	0.0157518
831.083	0.0157602
831.161	0.0157249
831.239	0.0154500
831.318	0.0156474
831.396	0.0157390
831.474	0.0156172
831.552	0.0155146
831.630	0.0155134
831.708	0.0154799
831.786	0.0154572
831.864	0.0154603
831.943	0.0153601
832.021	0.0153135
832.099	0.0154018
832.177	0.0153503
832.255	0.0155769
832.333	0.0153629
832.411	0.0152631
832.489	0.0154790
832.568	0.0156783
832.646	0.0156006
832.724	0.0154443
832.802	0.0155365
832.880	0.0155238
832.958	0.0156274
833.036	0.0155938
833.114	0.0155286
833.193	0.0154568
833.271	0.0156776
833.349	0.0155231
833.427	0.0155469
833.505	0.0156188
833.583	0.0155284
833.661	0.0155194
833.739	0.0155982
833.818	0.0154922
833.896	0.0155170
833.974	0.0155586
834.052	0.0155814
834.130	0.0157099
834.208	0.0156308
834.286	0.0157272
834.364	0.0156503
834.443	0.0156129
834.521	0.0156496
834.599	0.0156156
834.677	0.0157723
834.755	0.0157076
834.833	0.0157304
834.911	0.0156165
834.989	0.0157941
835.068	0.0157327
835.146	0.0156721
835.224	0.0156706
835.302	0.0156837
835.380	0.0156459
835.458	0.0157182
835.536	0.0157359
835.614	0.0156419
835.693	0.0157256
835.771	0.0156209
835.849	0.0156002
835.927	0.0155406
836.005	0.0155561
836.083	0.0154713
836.161	0.0154700
836.239	0.0154150
836.318	0.0154041
836.396	0.0154469
836.474	0.0155167
836.552	0.0153139
836.630	0.0153088
836.708	0.0154346
836.786	0.0154117
836.864	0.0154570
836.943	0.0154872
837.021	0.0154797
837.099	0.0154066
837.177	0.0154062
837.255	0.0155721
837.333	0.0157016
837.411	0.0155740
837.489	0.0155856
837.568	0.0155264
837.646	0.0155493
837.724	0.0153569
837.802	0.0154962
837.880	0.0154871
837.958	0.0155080
838.036	0.0155149
838.114	0.0154880
838.193	0.0154587
838.271	0.0155552
838.349	0.0154726
838.427	0.0153443
838.505	0.0154036
838.583	0.0154289
838.661	0.0154949
838.739	0.0154483
838.818	0.0156033
838.896	0.0156448
838.974	0.0154876
839.052	0.0155051
839.130	0.0157148
839.208	0.0155117
839.286	0.0156512
839.364	0.0156582
839.443	0.0156137
839.521	0.0155596
839.599	0.0156738
839.677	0.0155299
839.755	0.0156770
839.833	0.0156369
839.911	0.0156249
839.989	0.0155858
840.068	0.0154978
840.146	0.0154901
840.224	0.0153887
840.302	0.0154701
840.380	0.0154942
840.458	0.0155082
840.536	0.0154296
840.614	0.0155611
840.693	0.0156031
840.771	0.0157372
840.849	0.0157748
840.927	0.0155825
841.005	0.0155907
841.083	0.0157183
841.161	0.0158193
841.239	0.0157909
841.318	0.0158250
841.396	0.0158124
841.474	0.0156358
841.552	0.0156344
841.630	0.0155757
841.708	0.0156477
841.786	0.0155443
841.864	0.0155145
841.943	0.0156582
842.021	0.0154088
842.099	0.0153190
842.177	0.0154085
842.255	0.0155083
842.333	0.0154150
842.411	0.0154947
842.489	0.0154379
842.568	0.0155068
842.646	0.0153700
842.724	0.0154835
842.802	0.0155920
842.880	0.0155341
842.958	0.0156202
843.036	0.0155579
843.114	0.0155127
843.193	0.0155773
843.271	0.0156506
843.349	0.0155856
843.427	0.0155772
843.505	0.0155232
843.583	0.0155570
843.661	0.0154533
843.739	0.0154697
843.818	0.0155780
843.896	0.0154516
843.974	0.0153745
844.052	0.0156351
844.130	0.0156461
844.208	0.0154803
844.286	0.0155064
844.364	0.0155936
844.443	0.0154850
844.521	0.0155126
844.599	0.0154686
844.677	0.0156763
844.755	0.0156345
844.833	0.0156282
844.911	0.0157011
844.989	0.0156068
845.068	0.0156682
845.146	0.0157693
845.224	0.0158064
845.302	0.0157955
845.380	0.0156841
845.458	0.0156764
845.536	0.0157831
845.614	0.0157778
845.693	0.0157692
845.771	0.0157375
845.849	0.0156438
845.927	0.0156295
846.005	0.0156310
846.083	0.0157593
846.161	0.0156582
846.239	0.0156081
846.318	0.0156191
846.396	0.0156504
846.474	0.0156637
846.552	0.0156308
846.630	0.0156070
846.708	0.0156026
846.786	0.0155512
846.864	0.0155141
846.943	0.0155599
847.021	0.0157328
847.099	0.0155288
847.177	0.0153914
847.255	0.0155118
847.333	0.0154833
847.411	0.0155225
847.489	0.0153972
847.568	0.0155036
847.646	0.0154874
847.724	0.0155248
847.802	0.0154669
847.880	0.0154042
847.958	0.0153732
848.036	0.0153761
848.114	0.0153625
848.193	0.0153842
848.271	0.0153786
848.349	0.0154480
848.427	0.0154555
848.505	0.0154682
848.583	0.0154160
848.661	0.0154627
848.739	0.0154487
848.818	0.0154181
848.896	0.0155367
848.974	0.0153845
849.052	0.0156918
849.130	0.0155700
849.208	0.0156329
849.286	0.0155577
849.364	0.0155143
849.443	0.0156483
849.521	0.0157195
849.599	0.0156416
849.677	0.0156737
849.755	0.0158641
849.833	0.0157446
849.911	0.0156535
849.989	0.0157148
850.068	0.0156974
850.146	0.0157620
850.224	0.0157262
850.302	0.0157943
850.380	0.0158305
850.458	0.0158981
850.536	0.0156387
850.614	0.0157703
850.693	0.0158425
850.771	0.0158389
850.849	0.0157292
850.927	0.0156490
851.005	0.0157645
851.083	0.0157541
851.161	0.0157333
851.239	0.0155231
851.318	0.0155315
851.396	0.0154221
851.474	0.0155495
851.552	0.0154772
851.630	0.0154449
851.708	0.0154737
851.786	0.0153639
851.864	0.0156045
851.943	0.0155529
852.021	0.0154282
852.099	0.0155871
852.177	0.0155014
852.255	0.0154357
852.333	0.0154834
852.411	0.0155661
852.489	0.0156231
852.568	0.0153999
852.646	0.0155893
852.724	0.0155360
852.802	0.0154816
852.880	0.0154829
852.958	0.0155397
853.036	0.0157086
853.114	0.0156081
853.193	0.0155181
853.271	0.0155009
853.349	0.0155457
853.427	0.0155972
853.505	0.0155602
853.583	0.0156248
853.661	0.0154721
853.739	0.0156532
853.818	0.0155584
853.896	0.0155148
853.974	0.0154367
854.052	0.0155269
854.130	0.0155759
854.208	0.0154981
854.286	0.0155360
854.364	0.0155737
854.443	0.0155149
854.521	0.0156189
854.599	0.0154993
854.677	0.0153905
854.755	0.0153715
854.833	0.0152751
854.911	0.0153166
854.989	0.0155006
855.068	0.0154427
855.146	0.0154577
855.224	0.0156050
855.302	0.0153974
855.380	0.0154294
855.458	0.0154469
855.536	0.0154267
855.614	0.0155180
855.693	0.0155027
855.771	0.0156104
855.849	0.0156398
855.927	0.0157327
856.005	0.0156245
856.083	0.0158188
856.161	0.0156887
856.239	0.0157303
856.318	0.0156936
856.396	0.0156342
856.474	0.0158630
856.552	0.0158257
856.630	0.0158064
856.708	0.0157394
856.786	0.0157354
856.864	0.0157501
856.943	0.0156607
857.021	0.0157880
857.099	0.0157414
857.177	0.0155710
857.255	0.0157455
857.333	0.0157021
857.411	0.0156007
857.489	0.0156750
857.568	0.0156131
857.646	0.0155679
857.724	0.0154465
857.802	0.0155048
857.880	0.0155602
857.958	0.0155102
858.036	0.0154327
858.114	0.0155420
858.193	0.0154967
858.271	0.0155125
858.349	0.0155425
858.427	0.0155776
858.505	0.0154475
858.583	0.0154074
858.661	0.0153975
858.739	0.0153938
858.818	0.0154493
858.896	0.0152197
858.974	0.0154714
859.052	0.0154044
859.130	0.0154350
859.208	0.0154353
859.286	0.0153840
859.364	0.0154087
859.443	0.0154086
859.521	0.0155598
859.599	0.0154691
859.677	0.0154104
859.755	0.0155131
859.833	0.0155622
859.911	0.0155472
859.989	0.0154058
860.068	0.0154738
860.146	0.0155206
860.224	0.0155275
860.302	0.0153541
860.380	0.0155616
860.458	0.0154063
860.536	0.0155324
860.614	0.0156067
860.693	0.0156125
860.771	0.0156319
860.849	0.0156257
860.927	0.0157068
861.005	0.0155959
861.083	0.0156318
861.161	0.0155947
861.239	0.0156168
861.318	0.0156165
861.396	0.0156169
861.474	0.0155440
861.552	0.0154937
861.630	0.0155996
861.708	0.0155440
861.786	0.0155607
861.864	0.0154269
861.943	0.0153326
862.021	0.0155222
862.099	0.0155516
862.177	0.0154196
862.255	0.0155715
862.333	0.0152785
862.411	0.0155032
862.489	0.0154348
862.568	0.0154739
862.646	0.0154218
862.724	0.0153883
862.802	0.0154450
862.880	0.0154234
862.958	0.0153825
863.036	0.0154491
863.114	0.0153975
863.193	0.0155025
863.271	0.0154123
863.349	0.0153056
863.427	0.0153734
863.505	0.0155115
863.583	0.0153816
863.661	0.0154562
863.739	0.0153635
863.818	0.0154121
863.896	0.0155242
863.974	0.0153991
864.052	0.0156698
864.130	0.0155723
864.208	0.0153783
864.286	0.0155833
864.364	0.0157034
864.443	0.0155320
864.521	0.0154649
864.599	0.0154408
864.677	0.0155418
864.755	0.0156575
864.833	0.0155420
864.911	0.0156375
864.989	0.0154507
865.068	0.0155322
865.146	0.0154994
865.224	0.0154972
865.302	0.0155165
865.380	0.0154704
865.458	0.0155674
865.536	0.0155901
865.614	0.0154385
865.693	0.0155289
865.771	0.0155659
865.849	0.0154785
865.927	0.0154387
866.005	0.0155204
866.083	0.0155968
866.161	0.0155346
866.239	0.0155479
866.318	0.0154977
866.396	0.0154779
866.474	0.0155261
866.552	0.0154589
866.630	0.0154743
866.708	0.0153053
866.786	0.0154903
866.864	0.0154663
866.943	0.0154543
867.021	0.0154613
867.099	0.0153476
867.177	0.0153915
867.255	0.0153620
867.333	0.0154227
867.411	0.0154102
867.489	0.0154146
867.568	0.0155232
867.646	0.0154144
867.724	0.0154937
867.802	0.0154016
867.880	0.0153343
867.958	0.0154992
868.036	0.0156031
868.114	0.0155141
868.193	0.0154617
868.271	0.0153539
868.349	0.0156290
868.427	0.0155781
868.505	0.0155626
868.583	0.0155820
868.661	0.0154297
868.739	0.0155088
868.818	0.0155772
868.896	0.0155788
868.974	0.0155415
869.052	0.0156330
869.130	0.0156026
869.208	0.0155116
869.286	0.0155270
869.364	0.0154293
869.443	0.0155020
869.521	0.0155996
869.599	0.0155839
869.677	0.0155074
869.755	0.0154832
869.833	0.0154227
869.911	0.0153983
869.989	0.0154665
870.068	0.0153889
870.146	0.0155610
870.224	0.0155054
870.302	0.0153396
870.380	0.0154962
870.458	0.0154641
870.536	0.0153255
870.614	0.0154001
870.693	0.0153426
870.771	0.0152929
870.849	0.0152932
870.927	0.0152806
871.005	0.0153117
871.083	0.0154035
871.161	0.0154958
871.239	0.0153956
871.318	0.0153394
871.396	0.0154399
871.474	0.0155470
871.552	0.0154172
871.630	0.0153899
871.708	0.0155222
871.786	0.0156705
871.864	0.0156786
871.943	0.0155285
872.021	0.0155884
872.099	0.0157013
872.177	0.0155648
872.255	0.0156142
872.333	0.0157072
872.411	0.0157656
872.489	0.0156407
872.568	0.0157417
872.646	0.0156859
872.724	0.0155979
872.802	0.0156500
872.880	0.0154859
872.958	0.0155537
873.036	0.0156030
873.114	0.0155116
873.193	0.0156375
873.271	0.0156308
873.349	0.0155607
873.427	0.0153863
873.505	0.0155062
873.583	0.0155445
873.661	0.0155254
873.739	0.0155103
873.818	0.0155092
873.896	0.0156448
873.974	0.0155172
874.052	0.0154564
874.130	0.0155168
874.208	0.0156205
874.286	0.0154644
874.364	0.0154037
874.443	0.0155408
874.521	0.0154703
874.599	0.0154862
874.677	0.0154155
874.755	0.0154906
874.833	0.0154800
874.911	0.0154258
874.989	0.0153393
875.068	0.0152280
875.146	0.0154260
875.224	0.0153091
875.302	0.0152838
875.380	0.0152713
875.458	0.0153629
875.536	0.0152779
875.614	0.0154197
875.693	0.0154194
875.771	0.0153504
875.849	0.0154687
875.927	0.0152803
876.005	0.0154890
876.083	0.0154016
876.161	0.0155547
876.239	0.0155586
876.318	0.0156175
876.396	0.0155279
876.474	0.0156870
876.552	0.0155549
876.630	0.0156306
876.708	0.0156046
876.786	0.0157174
876.864	0.0156152
876.943	0.0157551
877.021	0.0156314
877.099	0.0156579
877.177	0.0156343
877.255	0.0156221
877.333	0.0155865
877.411	0.0155598
877.489	0.0155264
877.568	0.0155923
877.646	0.0155902
877.724	0.0153145
877.802	0.0156676
877.880	0.0156236
877.958	0.0154255
878.036	0.0155010
878.114	0.0152856
878.193	0.0152450
878.271	0.0154617
878.349	0.0151679
878.427	0.0153181
878.505	0.0153047
878.583	0.0152994
878.661	0.0153403
878.739	0.0153671
878.818	0.0154615
878.896	0.0154247
878.974	0.0156149
879.052	0.0155659
879.130	0.0154839
879.208	0.0156537
879.286	0.0157835
879.364	0.0156361
879.443	0.0154721
879.521	0.0155882
879.599	0.0156714
879.677	0.0155903
879.755	0.0155626
879.833	0.0157151
879.911	0.0156673
879.989	0.0154066
880.068	0.0154679
880.146	0.0154198
880.224	0.0152675
880.302	0.0152202
880.380	0.0154245
880.458	0.0154767
880.536	0.0152512
880.614	0.0153783
880.693	0.0153020
880.771	0.0153575
880.849	0.0153905
880.927	0.0154947
881.005	0.0155507
881.083	0.0155064
881.161	0.0156201
881.239	0.0155994
881.318	0.0156438
881.396	0.0155808
881.474	0.0156886
881.552	0.0158449
881.630	0.0157134
881.708	0.0157569
881.786	0.0157107
881.864	0.0157727
881.943	0.0157309
882.021	0.0156720
882.099	0.0157807
882.177	0.0157391
882.255	0.0155755
882.333	0.0156071
882.411	0.0155144
882.489	0.0155200
882.568	0.0155366
882.646	0.0154723
882.724	0.0153073
882.802	0.0152358
882.880	0.0152856
882.958	0.0153137
883.036	0.0152364
883.114	0.0150279
883.193	0.0150038
883.271	0.0150264
883.349	0.0149559
883.427	0.0149895
883.505	0.0149823
883.583	0.0149741
883.661	0.0150987
883.739	0.0150763
883.818	0.0151359
883.896	0.0151644
883.974	0.0155606
884.052	0.0157639
884.130	0.0156438
884.208	0.0157615
884.286	0.0158137
884.364	0.0158732
884.443	0.0160246
884.521	0.0160041
884.599	0.0161269
884.677	0.0162411
884.755	0.0160223
884.833	0.0162547
884.911	0.0161589
884.989	0.0161591
885.068	0.0160599
885.146	0.0160390
885.224	0.0159371
885.302	0.0157196
885.380	0.0158869
885.458	0.0154815
885.536	0.0154236
885.614	0.0153981
885.693	0.0151417
885.771	0.0151073
885.849	0.0149509
885.927	0.0149732
886.005	0.0148581
886.083	0.0149351
886.161	0.0149714
886.239	0.0149248
886.318	0.0147460
886.396	0.0148787
886.474	0.0148740
886.552	0.0150636
886.630	0.0150584
886.708	0.0150632
886.786	0.0150214
886.864	0.0150719
886.943	0.0150727
887.021	0.0153259
887.099	0.0154408
887.177	0.0155282
887.255	0.0155443
887.333	0.0155105
887.411	0.0156823
887.489	0.0159127
887.568	0.0158422
887.646	0.0159775
887.724	0.0159982
887.802	0.0161765
887.880	0.0160883
887.958	0.0161643
888.036	0.0162127
888.114	0.0162494
888.193	0.0163198
888.271	0.0161227
888.349	0.0162012
888.427	0.0161159
888.505	0.0158519
888.583	0.0156496
888.661	0.0157667
888.739	0.0154601
888.818	0.0153350
888.896	0.0154520
888.974	0.0152100
889.052	0.0150876
889.130	0.0151331
889.208	0.0150694
889.286	0.0150084
889.364	0.0149829
889.443	0.0149339
889.521	0.0149931
889.599	0.0150409
889.677	0.0150759
889.755	0.0150278
889.833	0.0149283
889.911	0.0150211
889.989	0.0151475
890.068	0.0150129
890.146	0.0152291
890.224	0.0150857
890.302	0.0151707
890.380	0.0152263
890.458	0.0153110
890.536	0.0153800
890.614	0.0154762
890.693	0.0154808
890.771	0.0155849
890.849	0.0157298
890.927	0.0156401
891.005	0.0157478
891.083	0.0157922
891.161	0.0157296
891.239	0.0157010
891.318	0.0159680
891.396	0.0157637
891.474	0.0157731
891.552	0.0158154
891.630	0.0157395
891.708	0.0155582
891.786	0.0156537
891.864	0.0155567
891.943	0.0155833
892.021	0.0155595
892.099	0.0155524
892.177	0.0155744
892.255	0.0155152
892.333	0.0154704
892.411	0.0153642
892.489	0.0154117
892.568	0.0153996
892.646	0.0154362
892.724	0.0153142
892.802	0.0153285
892.880	0.0156104
892.958	0.0154729
893.036	0.0153477
893.114	0.0154941
893.193	0.0154843
893.271	0.0154613
893.349	0.0153329
893.427	0.0155692
893.505	0.0155162
893.583	0.0154444
893.661	0.0153885
893.739	0.0154681
893.818	0.0152985
893.896	0.0153778
893.974	0.0154391
894.052	0.0153725
894.130	0.0154422
894.208	0.0154662
894.286	0.0154753
894.364	0.0156209
894.443	0.0156840
894.521	0.0155326
894.599	0.0155812
894.677	0.0155862
894.755	0.0156530
894.833	0.0156744
894.911	0.0156020
894.989	0.0155473
895.068	0.0155888
895.146	0.0155775
895.224	0.0154733
895.302	0.0155403
895.380	0.0155417
895.458	0.0154983
895.536	0.0156911
895.614	0.0156387
895.693	0.0154707
895.771	0.0154350
895.849	0.0155608
895.927	0.0155971
896.005	0.0155030
896.083	0.0155392
896.161	0.0156238
896.239	0.0154078
896.318	0.0155537
896.396	0.0155157
896.474	0.0154546
896.552	0.0154103
896.630	0.0154230
896.708	0.0155106
896.786	0.0153156
896.864	0.0155585
896.943	0.0153954
897.021	0.0155840
897.099	0.0155305
897.177	0.0154373
897.255	0.0156212
897.333	0.0155460
897.411	0.0155488
897.489	0.0155733
897.568	0.0156638
897.646	0.0156904
897.724	0.0156872
897.802	0.0157309
897.880	0.0157815
897.958	0.0156839
898.036	0.0156748
898.114	0.0157337
898.193	0.0156320
898.271	0.0156763
898.349	0.0156615
898.427	0.0155073
898.505	0.0155564
898.583	0.0154679
898.661	0.0154234
898.739	0.0154704
898.818	0.0153855
898.896	0.0153825
898.974	0.0153761
899.052	0.0153786
899.130	0.0154432
899.208	0.0152941
899.286	0.0153229
899.364	0.0152599
899.443	0.0153716
899.521	0.0153581
899.599	0.0153159
899.677	0.0154214
899.755	0.0154131
899.833	0.0155550
899.911	0.0155974
899.989	0.0156048
900.068	0.0155956
900.146	0.0156689
900.224	0.0156634
900.302	0.0158303
900.380	0.0157571
900.458	0.0157204
900.536	0.0156551
900.614	0.0157816
900.693	0.0157732
900.771	0.0158245
900.849	0.0157887
900.927	0.0157085
901.005	0.0157774
901.083	0.0156664
901.161	0.0157289
901.239	0.0155494
901.318	0.0156198
901.396	0.0156483
901.474	0.0155592
901.552	0.0156304
901.630	0.0155979
901.708	0.0156288
901.786	0.0154399
901.864	0.0154588
901.943	0.0153801
902.021	0.0152740
902.099	0.0155230
902.177	0.0152853
902.255	0.0151588
902.333	0.0153019
902.411	0.0152859
902.489	0.0151491
902.568	0.0152538
902.646	0.0152438
902.724	0.0152737
902.802	0.0152686
902.880	0.0154068
902.958	0.0153732
903.036	0.0152873
903.114	0.0152860
903.193	0.0154159
903.271	0.0155192
903.349	0.0155808
903.427	0.0156389
903.505	0.0156461
903.583	0.0157085
903.661	0.0157908
903.739	0.0155511
903.818	0.0156847
903.896	0.0157498
903.974	0.0157993
904.052	0.0158088
904.130	0.0156721
904.208	0.0157275
904.286	0.0156078
904.364	0.0157170
904.443	0.0157047
904.521	0.0157330
904.599	0.0159599
904.677	0.0159744
904.755	0.0158611
904.833	0.0158501
904.911	0.0158175
904.989	0.0158150
905.068	0.0158820
905.146	0.0157514
905.224	0.0155869
905.302	0.0155831
905.380	0.0157056
905.458	0.0156423
905.536	0.0154313
905.614	0.0155057
905.693	0.0154427
905.771	0.0153703
905.849	0.0153471
905.927	0.0152944
906.005	0.0153212
906.083	0.0152783
906.161	0.0152739
906.239	0.0153497
906.318	0.0153737
906.396	0.0152750
906.474	0.0153857
906.552	0.0154637
906.630	0.0153819
906.708	0.0153565
906.786	0.0154295
906.864	0.0155830
906.943	0.0156230
907.021	0.0154476
907.099	0.0154688
907.177	0.0155845
907.255	0.0156087
907.333	0.0157049
907.411	0.0155402
907.489	0.0154986
907.568	0.0156074
907.646	0.0155202
907.724	0.0156310
907.802	0.0155738
907.880	0.0156110
907.958	0.0155742
908.036	0.0156319
908.114	0.0156892
908.193	0.0157820
908.271	0.0158546
908.349	0.0159409
908.427	0.0158957
908.505	0.0157922
908.583	0.0157780
908.661	0.0160318
908.739	0.0157426
908.818	0.0156541
908.896	0.0156671
908.974	0.0155334
909.052	0.0155638
909.130	0.0155070
909.208	0.0152133
909.286	0.0152698
909.364	0.0153486
909.443	0.0152640
909.521	0.0151071
909.599	0.0152060
909.677	0.0152905
909.755	0.0151400
909.833	0.0151758
909.911	0.0153153
909.989	0.0153406
910.068	0.0154342
910.146	0.0155467
910.224	0.0155198
910.302	0.0154766
910.380	0.0154697
910.458	0.0154768
910.536	0.0154299
910.614	0.0154953
910.693	0.0155886
910.771	0.0155651
910.849	0.0154784
910.927	0.0154797
911.005	0.0155375
911.083	0.0156486
911.161	0.0155206
911.239	0.0155241
911.318	0.0154156
911.396	0.0156246
911.474	0.0156186
911.552	0.0155819
911.630	0.0155439
911.708	0.0157151
911.786	0.0155777
911.864	0.0156202
911.943	0.0156118
912.021	0.0156277
912.099	0.0155490
912.177	0.0156511
912.255	0.0156582
912.333	0.0155296
912.411	0.0156588
912.489	0.0156976
912.568	0.0157106
912.646	0.0156252
912.724	0.0155797
912.802	0.0155450
912.880	0.0157411
912.958	0.0156238
913.036	0.0156847
913.114	0.0157671
913.193	0.0157772
913.271	0.0158122
913.349	0.0155056
913.427	0.0156323
913.505	0.0156140
913.583	0.0155560
913.661	0.0154828
913.739	0.0155336
913.818	0.0155308
913.896	0.0153925
913.974	0.0153547
914.052	0.0154897
914.130	0.0152482
914.208	0.0152844
914.286	0.0154480
914.364	0.0153531
914.443	0.0153188
914.521	0.0153799
914.599	0.0154253
914.677	0.0153597
914.755	0.0153732
914.833	0.0153611
914.911	0.0153539
914.989	0.0153731
915.068	0.0154678
915.146	0.0155070
915.224	0.0153819
915.302	0.0155595
915.380	0.0155550
915.458	0.0154879
915.536	0.0154621
915.614	0.0156080
915.693	0.0156905
915.771	0.0156091
915.849	0.0156631
915.927	0.0156818
916.005	0.0155911
916.083	0.0156939
916.161	0.0157452
916.239	0.0155708
916.318	0.0156975
916.396	0.0156316
916.474	0.0156549
916.552	0.0157741
916.630	0.0156680
916.708	0.0157087
916.786	0.0156465
916.864	0.0156163
916.943	0.0158466
917.021	0.0157130
917.099	0.0157030
917.177	0.0155589
917.255	0.0157072
917.333	0.0157149
917.411	0.0157199
917.489	0.0156337
917.568	0.0157790
917.646	0.0156454
917.724	0.0155383
917.802	0.0155600
917.880	0.0156133
917.958	0.0155295
918.036	0.0153562
918.114	0.0153973
918.193	0.0154681
918.271	0.0154317
918.349	0.0154029
918.427	0.0154086
918.505	0.0153811
918.583	0.0154491
918.661	0.0153892
918.739	0.0155370
918.818	0.0154004
918.896	0.0155010
918.974	0.0155592
919.052	0.0155627
919.130	0.0156302
919.208	0.0157043
919.286	0.0154114
919.364	0.0155880
919.443	0.0156779
919.521	0.0156806
919.599	0.0158482
919.677	0.0156219
919.755	0.0155873
919.833	0.0157359
919.911	0.0156414
919.989	0.0157916
920.068	0.0157461
920.146	0.0157570
920.224	0.0154284
920.302	0.0157430
920.380	0.0157005
920.458	0.0158006
920.536	0.0155611
920.614	0.0155657
920.693	0.0156539
920.771	0.0155933
920.849	0.0156770
920.927	0.0156007
921.005	0.0156297
921.083	0.0156092
921.161	0.0156797
921.239	0.0156400
921.318	0.0156078
921.396	0.0155982
921.474	0.0155879
921.552	0.0155582
921.630	0.0157513
921.708	0.0155894
921.786	0.0156173
921.864	0.0156409
921.943	0.0156453
922.021	0.0155995
922.099	0.0157632
922.177	0.0157171
922.255	0.0156311
922.333	0.0156248
922.411	0.0157374
922.489	0.0156264
922.568	0.0156949
922.646	0.0156125
922.724	0.0155698
922.802	0.0155770
922.880	0.0156028
922.958	0.0155563
923.036	0.0155836
923.114	0.0155534
923.193	0.0156549
923.271	0.0156708
923.349	0.0155466
923.427	0.0155868
923.505	0.0156608
923.583	0.0156046
923.661	0.0155149
923.739	0.0155238
923.818	0.0155741
923.896	0.0155848
923.974	0.0155498
924.052	0.0154452
924.130	0.0155731
924.208	0.0155135
924.286	0.0154417
924.364	0.0153689
924.443	0.0155672
924.521	0.0154727
924.599	0.0154912
924.677	0.0153899
924.755	0.0156120
924.833	0.0155638
924.911	0.0154505
924.989	0.0154664
925.068	0.0155021
925.146	0.0155158
925.224	0.0155521
925.302	0.0156126
925.380	0.0155129
925.458	0.0156458
925.536	0.0157432
925.614	0.0155898
925.693	0.0154919
925.771	0.0155548
925.849	0.0156564
925.927	0.0156095
926.005	0.0156586
926.083	0.0155471
926.161	0.0154779
926.239	0.0155732
926.318	0.0155048
926.396	0.0155250
926.474	0.0155610
926.552	0.0155618
926.630	0.0156703
926.708	0.0156888
926.786	0.0154935
926.864	0.0155803
926.943	0.0156114
927.021	0.0155894
927.099	0.0156261
927.177	0.0156590
927.255	0.0156598
927.333	0.0156711
927.411	0.0156559
927.489	0.0155959
927.568	0.0155699
927.646	0.0155412
927.724	0.0154833
927.802	0.0155946
927.880	0.0156601
927.958	0.0155092
928.036	0.0156750
928.114	0.0156204
928.193	0.0156319
928.271	0.0155823
928.349	0.0154874
928.427	0.0155244
928.505	0.0155447
928.583	0.0156483
928.661	0.0155206
928.739	0.0155782
928.818	0.0155612
928.896	0.0156608
928.974	0.0155512
929.052	0.0156919
929.130	0.0157182
929.208	0.0156318
929.286	0.0156942
929.364	0.0156878
929.443	0.0155667
929.521	0.0156025
929.599	0.0155676
929.677	0.0156457
929.755	0.0156536
929.833	0.0158194
929.911	0.0157667
929.989	0.0156034
930.068	0.0156973
930.146	0.0156729
930.224	0.0157398
930.302	0.0155940
930.380	0.0156767
930.458	0.0156525
930.536	0.0156804
930.614	0.0156475
930.693	0.0155216
930.771	0.0155380
930.849	0.0157320
930.927	0.0155652
931.005	0.0155125
931.083	0.0155601
931.161	0.0156086
931.239	0.0156188
931.318	0.0156503
931.396	0.0156931
931.474	0.0155502
931.552	0.0156091
931.630	0.0156921
931.708	0.0156473
931.786	0.0157047
931.864	0.0156599
931.943	0.0156364
932.021	0.0157069
932.099	0.0158298
932.177	0.0157550
932.255	0.0156981
932.333	0.0157438
932.411	0.0157239
932.489	0.0158105
932.568	0.0157632
932.646	0.0157566
932.724	0.0157091
932.802	0.0155970
932.880	0.0156831
932.958	0.0154932
933.036	0.0156880
933.114	0.0156457
933.193	0.0155653
933.271	0.0156233
933.349	0.0154761
933.427	0.0155368
933.505	0.0154343
933.583	0.0154456
933.661	0.0155187
933.739	0.0154323
933.818	0.0155304
933.896	0.0155858
933.974	0.0154017
934.052	0.0154082
934.130	0.0153860
934.208	0.0154110
934.286	0.0155106
934.364	0.0154854
934.443	0.0153877
934.521	0.0157398
934.599	0.0156658
934.677	0.0153103
934.755	0.0155455
934.833	0.0155709
934.911	0.0156255
934.989	0.0155579
935.068	0.0155468
935.146	0.0155375
935.224	0.0155551
935.302	0.0156164
935.380	0.0156666
935.458	0.0156145
935.536	0.0157116
935.614	0.0156734
935.693	0.0156532
935.771	0.0156328
935.849	0.0155109
935.927	0.0157247
936.005	0.0155781
936.083	0.0156451
936.161	0.0156403
936.239	0.0156132
936.318	0.0155685
936.396	0.0155345
936.474	0.0155431
936.552	0.0154543
936.630	0.0155145
936.708	0.0155277
936.786	0.0154184
936.864	0.0156503
936.943	0.0155245
937.021	0.0155044
937.099	0.0155776
937.177	0.0157107
937.255	0.0157196
937.333	0.0154694
937.411	0.0155438
937.489	0.0156336
937.568	0.0156336
937.646	0.0155997
937.724	0.0156795
937.802	0.0157398
937.880	0.0157175
937.958	0.0157090
938.036	0.0157670
938.114	0.0157632
938.193	0.0157632
938.271	0.0154688
938.349	0.0155211
938.427	0.0157224
938.505	0.0156990
938.583	0.0156294
938.661	0.0155385
938.739	0.0155267
938.818	0.0154853
938.896	0.0154741
938.974	0.0154289
939.052	0.0154238
939.130	0.0154462
939.208	0.0154048
939.286	0.0153571
939.364	0.0153503
939.443	0.0151161
939.521	0.0152657
939.599	0.0153486
939.677	0.0153526
939.755	0.0153432
939.833	0.0152164
939.911	0.0154243
939.989	0.0153498
940.068	0.0154080
940.146	0.0155408
940.224	0.0154806
940.302	0.0156419
940.380	0.0158302
940.458	0.0158565
940.536	0.0158688
940.614	0.0159447
940.693	0.0159157
940.771	0.0159175
940.849	0.0160233
940.927	0.0158330
941.005	0.0158879
941.083	0.0158819
941.161	0.0158165
941.239	0.0158274
941.318	0.0157632
941.396	0.0156774
941.474	0.0154933
941.552	0.0154330
941.630	0.0154931
941.708	0.0154219
941.786	0.0153796
941.864	0.0154122
941.943	0.0153971
942.021	0.0153957
942.099	0.0153899
942.177	0.0153796
942.255	0.0152655
942.333	0.0153078
942.411	0.0152448
942.489	0.0153740
942.568	0.0154243
942.646	0.0152417
942.724	0.0153233
942.802	0.0153955
942.880	0.0155154
942.958	0.0155380
943.036	0.0154180
943.114	0.0153878
943.193	0.0155186
943.271	0.0155388
943.349	0.0154828
943.427	0.0156923
943.505	0.0156590
943.583	0.0156114
943.661	0.0156831
943.739	0.0155890
943.818	0.0156653
943.896	0.0157233
943.974	0.0157151
944.052	0.0155675
944.130	0.0155987
944.208	0.0156806
944.286	0.0156287
944.364	0.0156120
944.443	0.0156122
944.521	0.0155103
944.599	0.0156624
944.677	0.0155987
944.755	0.0154974
944.833	0.0155123
944.911	0.0155737
944.989	0.0155911
945.068	0.0154717
945.146	0.0155403
945.224	0.0155186
945.302	0.0155090
945.380	0.0154546
945.458	0.0154395
945.536	0.0153606
945.614	0.0153823
945.693	0.0153634
945.771	0.0153861
945.849	0.0152980
945.927	0.0153729
946.005	0.0153238
946.083	0.0153158
946.161	0.0154493
946.239	0.0153174
946.318	0.0153461
946.396	0.0153258
946.474	0.0153878
946.552	0.0155347
946.630	0.0154643
946.708	0.0155636
946.786	0.0155495
946.864	0.0155542
946.943	0.0156237
947.021	0.0156691
947.099	0.0155817
947.177	0.0155604
947.255	0.0156001
947.333	0.0156460
947.411	0.0157410
947.489	0.0157758
947.568	0.0158288
947.646	0.0156229
947.724	0.0155627
947.802	0.0157040
947.880	0.0155871
947.958	0.0156831
948.036	0.0156927
948.114	0.0157660
948.193	0.0157247
948.271	0.0155940
948.349	0.0155840
948.427	0.0156092
948.505	0.0157816
948.583	0.0156216
948.661	0.0155514
948.739	0.0156865
948.818	0.0156030
948.896	0.0155613
948.974	0.0153812
949.052	0.0155986
949.130	0.0155461
949.208	0.0155024
949.286	0.0155342
949.364	0.0154971
949.443	0.0155087
949.521	0.0155332
949.599	0.0154614
949.677	0.0153828
949.755	0.0154090
949.833	0.0154211
949.911	0.0154403
949.989	0.0154295
950.068	0.0154900
950.146	0.0155863
950.224	0.0154639
950.302	0.0154576
950.380	0.0155241
950.458	0.0155655
950.536	0.0155357
950.614	0.0155531
950.693	0.0156914
950.771	0.0155889
950.849	0.0154744
950.927	0.0155964
951.005	0.0155624
951.083	0.0157815
951.161	0.0156850
951.239	0.0155157
951.318	0.0155222
951.396	0.0156806
951.474	0.0156264
951.552	0.0156868
951.630	0.0156306
951.708	0.0156813
951.786	0.0157738
951.864	0.0155369
951.943	0.0157677
952.021	0.0155397
952.099	0.0155746
952.177	0.0156524
952.255	0.0155547
952.333	0.0154672
952.411	0.0154366
952.489	0.0155096
952.568	0.0154633
952.646	0.0155059
952.724	0.0155775
952.802	0.0154484
952.880	0.0153254
952.958	0.0154080
953.036	0.0155441
953.114	0.0155224
953.193	0.0155799
953.271	0.0155058
953.349	0.0154682
953.427	0.0157305
953.505	0.0156825
953.583	0.0155794
953.661	0.0156311
953.739	0.0156284
953.818	0.0156549
953.896	0.0155694
953.974	0.0156129
954.052	0.0157509
954.130	0.0155672
954.208	0.0156142
954.286	0.0155660
954.364	0.0155762
954.443	0.0154947
954.521	0.0155764
954.599	0.0155257
954.677	0.0154787
954.755	0.0154755
954.833	0.0154811
954.911	0.0155367
954.989	0.0154578
955.068	0.0154775
955.146	0.0154350
955.224	0.0154874
955.302	0.0154756
955.380	0.0154450
955.458	0.0154344
955.536	0.0156306
955.614	0.0155068
955.693	0.0154668
955.771	0.0154884
955.849	0.0154765
955.927	0.0155460
956.005	0.0155910
956.083	0.0156372
956.161	0.0154310
956.239	0.0154905
956.318	0.0154739
956.396	0.0155178
956.474	0.0153605
956.552	0.0154743
956.630	0.0156596
956.708	0.0154327
956.786	0.0154327
956.864	0.0155830
956.943	0.0156187
957.021	0.0156043
957.099	0.0155299
957.177	0.0155112
957.255	0.0156393
957.333	0.0155427
957.411	0.0155582
957.489	0.0156473
957.568	0.0154766
957.646	0.0155540
957.724	0.0156260
957.802	0.0155650
957.880	0.0153963
957.958	0.0155216
958.036	0.0155990
958.114	0.0155178
958.193	0.0154372
958.271	0.0154040
958.349	0.0155039
958.427	0.0155350
958.505	0.0155219
958.583	0.0154878
958.661	0.0156149
958.739	0.0155358
958.818	0.0155447
958.896	0.0155450
958.974	0.0156702
959.052	0.0155872
959.130	0.0155743
959.208	0.0156108
959.286	0.0157293
959.364	0.0156917
959.443	0.0155045
959.521	0.0155328
959.599	0.0156896
959.677	0.0156427
959.755	0.0156765
959.833	0.0156589
959.911	0.0154855
