05/17/2022	16:38:08	Ver.	4.1	UNKNOWN
Optical Delay	639.982744	Delta X		0.078125	Sweeps	1	Scan Rate	0/0
Coordinates	Axis 1	NaN	Axis 2	NaN	Axis 3	NaN	Axis 4	NaN	Axis 5	NaN	Axis 6	0.000000
TX Power	0.000000	RX Power	0.000000

639.983	0.0161169
640.061	0.0161523
640.139	0.0161041
640.217	0.0161777
640.295	0.0161447
640.373	0.0160554
640.451	0.0162102
640.530	0.0161137
640.608	0.0160219
640.686	0.0161371
640.764	0.0161414
640.842	0.0161000
640.920	0.0161486
640.998	0.0159199
641.076	0.0160721
641.155	0.0161757
641.233	0.0162029
641.311	0.0162772
641.389	0.0159946
641.467	0.0159361
641.545	0.0161470
641.623	0.0162165
641.701	0.0159418
641.780	0.0160260
641.858	0.0161268
641.936	0.0160942
642.014	0.0161837
642.092	0.0160316
642.170	0.0160783
642.248	0.0160651
642.326	0.0161018
642.405	0.0161103
642.483	0.0160681
642.561	0.0161197
642.639	0.0160869
642.717	0.0161822
642.795	0.0161443
642.873	0.0162128
642.951	0.0159950
643.030	0.0160374
643.108	0.0160500
643.186	0.0162247
643.264	0.0162050
643.342	0.0160154
643.420	0.0161441
643.498	0.0161629
643.576	0.0161493
643.655	0.0161275
643.733	0.0161283
643.811	0.0162432
643.889	0.0161465
643.967	0.0159113
644.045	0.0160494
644.123	0.0160654
644.201	0.0160381
644.280	0.0161956
644.358	0.0161414
644.436	0.0160407
644.514	0.0161892
644.592	0.0161270
644.670	0.0160299
644.748	0.0161858
644.826	0.0162350
644.905	0.0162000
644.983	0.0160362
645.061	0.0160816
645.139	0.0160847
645.217	0.0160373
645.295	0.0162583
645.373	0.0161943
645.451	0.0161192
645.530	0.0161054
645.608	0.0161861
645.686	0.0160569
645.764	0.0159311
645.842	0.0161591
645.920	0.0160562
645.998	0.0161581
646.076	0.0159462
646.155	0.0159973
646.233	0.0162943
646.311	0.0161363
646.389	0.0160740
646.467	0.0161504
646.545	0.0160593
646.623	0.0161652
646.701	0.0162476
646.780	0.0161541
646.858	0.0161599
646.936	0.0162154
647.014	0.0160339
647.092	0.0160547
647.170	0.0161450
647.248	0.0162426
647.326	0.0161867
647.405	0.0161702
647.483	0.0160851
647.561	0.0161658
647.639	0.0160779
647.717	0.0161685
647.795	0.0160898
647.873	0.0161275
647.951	0.0163247
648.030	0.0160313
648.108	0.0161383
648.186	0.0161407
648.264	0.0160806
648.342	0.0161825
648.420	0.0161314
648.498	0.0160789
648.576	0.0161012
648.655	0.0161189
648.733	0.0161314
648.811	0.0160861
648.889	0.0161523
648.967	0.0162292
649.045	0.0162026
649.123	0.0161246
649.201	0.0161407
649.280	0.0160917
649.358	0.0161194
649.436	0.0161710
649.514	0.0161391
649.592	0.0161884
649.670	0.0161690
649.748	0.0161673
649.826	0.0159949
649.905	0.0161198
649.983	0.0161385
650.061	0.0160373
650.139	0.0161922
650.217	0.0161338
650.295	0.0161505
650.373	0.0160508
650.451	0.0161680
650.530	0.0161394
650.608	0.0161346
650.686	0.0160850
650.764	0.0161999
650.842	0.0161358
650.920	0.0161884
650.998	0.0160834
651.076	0.0160760
651.155	0.0160620
651.233	0.0161206
651.311	0.0161610
651.389	0.0161347
651.467	0.0161389
651.545	0.0160976
651.623	0.0162832
651.701	0.0162028
651.780	0.0162000
651.858	0.0162061
651.936	0.0161437
652.014	0.0161612
652.092	0.0160754
652.170	0.0161089
652.248	0.0160480
652.326	0.0161360
652.405	0.0160342
652.483	0.0161890
652.561	0.0161018
652.639	0.0162476
652.717	0.0161837
652.795	0.0162089
652.873	0.0161218
652.951	0.0159838
653.030	0.0161133
653.108	0.0161037
653.186	0.0160471
653.264	0.0160697
653.342	0.0161162
653.420	0.0161619
653.498	0.0161440
653.576	0.0161172
653.655	0.0160555
653.733	0.0162308
653.811	0.0160754
653.889	0.0160514
653.967	0.0161981
654.045	0.0160820
654.123	0.0162134
654.201	0.0162240
654.280	0.0161541
654.358	0.0161403
654.436	0.0161973
654.514	0.0162786
654.592	0.0161044
654.670	0.0160477
654.748	0.0161264
654.826	0.0161620
654.905	0.0161411
654.983	0.0161414
655.061	0.0160679
655.139	0.0160815
655.217	0.0162570
655.295	0.0160310
655.373	0.0161356
655.451	0.0161367
655.530	0.0161545
655.608	0.0161420
655.686	0.0161861
655.764	0.0160508
655.842	0.0161636
655.920	0.0160767
655.998	0.0160567
656.076	0.0161877
656.155	0.0161507
656.233	0.0161734
656.311	0.0161471
656.389	0.0162046
656.467	0.0161092
656.545	0.0160538
656.623	0.0160907
656.701	0.0161453
656.780	0.0161198
656.858	0.0161404
656.936	0.0161681
657.014	0.0160640
657.092	0.0160746
657.170	0.0160403
657.248	0.0161312
657.326	0.0160726
657.405	0.0161350
657.483	0.0162261
657.561	0.0160143
657.639	0.0161175
657.717	0.0161304
657.795	0.0162302
657.873	0.0162373
657.951	0.0160346
658.030	0.0161607
658.108	0.0162072
658.186	0.0159418
658.264	0.0162164
658.342	0.0162329
658.420	0.0160713
658.498	0.0160131
658.576	0.0162047
658.655	0.0161326
658.733	0.0162322
658.811	0.0161013
658.889	0.0160402
658.967	0.0160714
659.045	0.0160266
659.123	0.0161429
659.201	0.0159985
659.280	0.0159773
659.358	0.0160638
659.436	0.0161050
659.514	0.0161536
659.592	0.0161091
659.670	0.0161067
659.748	0.0160204
659.826	0.0160478
659.905	0.0160566
659.983	0.0160760
660.061	0.0160079
660.139	0.0160266
660.217	0.0160522
660.295	0.0161469
660.373	0.0160867
660.451	0.0161069
660.530	0.0162281
660.608	0.0160930
660.686	0.0160838
660.764	0.0161327
660.842	0.0161474
660.920	0.0161905
660.998	0.0161275
661.076	0.0161013
661.155	0.0161477
661.233	0.0161275
661.311	0.0160870
661.389	0.0161565
661.467	0.0162156
661.545	0.0162566
661.623	0.0161430
661.701	0.0162350
661.780	0.0161642
661.858	0.0159371
661.936	0.0160861
662.014	0.0161002
662.092	0.0160094
662.170	0.0160744
662.248	0.0161455
662.326	0.0161821
662.405	0.0161607
662.483	0.0163370
662.561	0.0160728
662.639	0.0159211
662.717	0.0161962
662.795	0.0160756
662.873	0.0161850
662.951	0.0159895
663.030	0.0160301
663.108	0.0161019
663.186	0.0160142
663.264	0.0160760
663.342	0.0160188
663.420	0.0161082
663.498	0.0160736
663.576	0.0160410
663.655	0.0161729
663.733	0.0161955
663.811	0.0160336
663.889	0.0160375
663.967	0.0160001
664.045	0.0161638
664.123	0.0161478
664.201	0.0160825
664.280	0.0160911
664.358	0.0161502
664.436	0.0162074
664.514	0.0162301
664.592	0.0162682
664.670	0.0160283
664.748	0.0161357
664.826	0.0161613
664.905	0.0161912
664.983	0.0162076
665.061	0.0161743
665.139	0.0162654
665.217	0.0161969
665.295	0.0162177
665.373	0.0161316
665.451	0.0161916
665.530	0.0162291
665.608	0.0161694
665.686	0.0160706
665.764	0.0160787
665.842	0.0160758
665.920	0.0162115
665.998	0.0161727
666.076	0.0161007
666.155	0.0164025
666.233	0.0161372
666.311	0.0161367
666.389	0.0160883
666.467	0.0163055
666.545	0.0161224
666.623	0.0160995
666.701	0.0161104
666.780	0.0161189
666.858	0.0160867
666.936	0.0161781
667.014	0.0161306
667.092	0.0161022
667.170	0.0162102
667.248	0.0162132
667.326	0.0162151
667.405	0.0160637
667.483	0.0161057
667.561	0.0161549
667.639	0.0162164
667.717	0.0161070
667.795	0.0161819
667.873	0.0161983
667.951	0.0162814
668.030	0.0162191
668.108	0.0161993
668.186	0.0162128
668.264	0.0161692
668.342	0.0162704
668.420	0.0162115
668.498	0.0161157
668.576	0.0162231
668.655	0.0160384
668.733	0.0162349
668.811	0.0161937
668.889	0.0162299
668.967	0.0162233
669.045	0.0162298
669.123	0.0161794
669.201	0.0161122
669.280	0.0162824
669.358	0.0161046
669.436	0.0161707
669.514	0.0161487
669.592	0.0161887
669.670	0.0161757
669.748	0.0161034
669.826	0.0162893
669.905	0.0161163
669.983	0.0161123
670.061	0.0161143
670.139	0.0161863
670.217	0.0161524
670.295	0.0160896
670.373	0.0160272
670.451	0.0161374
670.530	0.0161131
670.608	0.0161237
670.686	0.0161448
670.764	0.0161926
670.842	0.0162057
670.920	0.0161008
670.998	0.0160982
671.076	0.0161590
671.155	0.0161237
671.233	0.0160468
671.311	0.0159867
671.389	0.0160538
671.467	0.0162453
671.545	0.0163191
671.623	0.0160740
671.701	0.0160967
671.780	0.0161391
671.858	0.0160766
671.936	0.0161892
672.014	0.0162320
672.092	0.0160724
672.170	0.0161192
672.248	0.0161559
672.326	0.0161816
672.405	0.0162727
672.483	0.0161588
672.561	0.0160552
672.639	0.0160967
672.717	0.0160212
672.795	0.0160326
672.873	0.0160516
672.951	0.0161311
673.030	0.0161516
673.108	0.0161883
673.186	0.0161469
673.264	0.0161145
673.342	0.0159391
673.420	0.0161204
673.498	0.0161260
673.576	0.0161951
673.655	0.0161436
673.733	0.0159977
673.811	0.0160910
673.889	0.0160974
673.967	0.0160599
674.045	0.0161975
674.123	0.0160941
674.201	0.0161887
674.280	0.0161420
674.358	0.0160365
674.436	0.0160862
674.514	0.0162402
674.592	0.0161514
674.670	0.0159908
674.748	0.0160905
674.826	0.0161955
674.905	0.0160888
674.983	0.0161450
675.061	0.0161311
675.139	0.0159955
675.217	0.0161588
675.295	0.0160671
675.373	0.0162460
675.451	0.0161743
675.530	0.0161271
675.608	0.0160207
675.686	0.0160845
675.764	0.0161893
675.842	0.0161365
675.920	0.0160339
675.998	0.0161167
676.076	0.0161083
676.155	0.0161649
676.233	0.0161249
676.311	0.0161655
676.389	0.0161570
676.467	0.0160702
676.545	0.0161391
676.623	0.0159702
676.701	0.0161913
676.780	0.0160714
676.858	0.0159705
676.936	0.0161156
677.014	0.0162659
677.092	0.0161180
677.170	0.0160628
677.248	0.0161048
677.326	0.0161920
677.405	0.0160954
677.483	0.0160468
677.561	0.0160069
677.639	0.0161165
677.717	0.0161552
677.795	0.0160712
677.873	0.0161122
677.951	0.0161034
678.030	0.0161998
678.108	0.0160235
678.186	0.0160808
678.264	0.0161661
678.342	0.0160336
678.420	0.0160985
678.498	0.0162646
678.576	0.0161845
678.655	0.0161336
678.733	0.0160412
678.811	0.0160692
678.889	0.0162521
678.967	0.0161086
679.045	0.0161594
679.123	0.0159984
679.201	0.0160784
679.280	0.0160334
679.358	0.0160113
679.436	0.0161061
679.514	0.0161715
679.592	0.0161393
679.670	0.0159966
679.748	0.0161152
679.826	0.0160928
679.905	0.0160205
679.983	0.0159400
680.061	0.0160690
680.139	0.0159431
680.217	0.0160989
680.295	0.0160580
680.373	0.0160854
680.451	0.0161330
680.530	0.0161983
680.608	0.0161423
680.686	0.0160731
680.764	0.0160947
680.842	0.0160555
680.920	0.0161757
680.998	0.0162457
681.076	0.0160806
681.155	0.0159644
681.233	0.0161465
681.311	0.0160605
681.389	0.0160342
681.467	0.0162048
681.545	0.0162569
681.623	0.0159710
681.701	0.0162071
681.780	0.0161201
681.858	0.0161469
681.936	0.0161148
682.014	0.0160975
682.092	0.0160795
682.170	0.0161195
682.248	0.0160548
682.326	0.0161410
682.405	0.0160108
682.483	0.0160727
682.561	0.0161483
682.639	0.0160136
682.717	0.0160931
682.795	0.0161594
682.873	0.0160806
682.951	0.0159769
683.030	0.0159785
683.108	0.0160741
683.186	0.0159817
683.264	0.0159924
683.342	0.0160467
683.420	0.0159750
683.498	0.0160277
683.576	0.0160004
683.655	0.0162905
683.733	0.0160946
683.811	0.0160934
683.889	0.0161137
683.967	0.0160902
684.045	0.0160969
684.123	0.0160629
684.201	0.0160996
684.280	0.0161424
684.358	0.0161488
684.436	0.0160813
684.514	0.0162337
684.592	0.0162762
684.670	0.0161590
684.748	0.0159865
684.826	0.0161938
684.905	0.0161913
684.983	0.0161939
685.061	0.0163450
685.139	0.0161954
685.217	0.0162584
685.295	0.0162512
685.373	0.0161869
685.451	0.0162982
685.530	0.0162876
685.608	0.0160849
685.686	0.0158556
685.764	0.0160277
685.842	0.0158826
685.920	0.0158574
685.998	0.0157498
686.076	0.0157356
686.155	0.0156892
686.233	0.0158268
686.311	0.0157500
686.389	0.0158804
686.467	0.0157320
686.545	0.0159193
686.623	0.0159278
686.701	0.0161524
686.780	0.0161757
686.858	0.0164755
686.936	0.0165328
687.014	0.0167352
687.092	0.0171039
687.170	0.0171370
687.248	0.0172237
687.326	0.0172307
687.405	0.0174269
687.483	0.0173985
687.561	0.0173386
687.639	0.0172984
687.717	0.0170477
687.795	0.0167953
687.873	0.0164003
687.951	0.0161294
688.030	0.0157793
688.108	0.0155340
688.186	0.0153954
688.264	0.0149947
688.342	0.0146848
688.420	0.0146157
688.498	0.0144966
688.576	0.0145222
688.655	0.0143716
688.733	0.0143407
688.811	0.0143958
688.889	0.0145165
688.967	0.0147054
689.045	0.0148142
689.123	0.0150419
689.201	0.0152502
689.280	0.0155609
689.358	0.0157455
689.436	0.0162473
689.514	0.0164610
689.592	0.0169163
689.670	0.0172897
689.748	0.0178211
689.826	0.0182372
689.905	0.0185224
689.983	0.0186122
690.061	0.0188102
690.139	0.0189233
690.217	0.0190728
690.295	0.0192075
690.373	0.0192087
690.451	0.0190465
690.530	0.0188602
690.608	0.0186440
690.686	0.0184297
690.764	0.0178605
690.842	0.0173055
690.920	0.0167048
690.998	0.0159985
691.076	0.0151868
691.155	0.0144566
691.233	0.0138166
691.311	0.0131612
691.389	0.0125230
691.467	0.0117272
691.545	0.0114880
691.623	0.0110874
691.701	0.0108425
691.780	0.0107378
691.858	0.0107909
691.936	0.0109576
692.014	0.0114410
692.092	0.0119759
692.170	0.0125685
692.248	0.0133361
692.326	0.0142818
692.405	0.0151711
692.483	0.0160027
692.561	0.0171231
692.639	0.0181150
692.717	0.0189217
692.795	0.0198923
692.873	0.0207034
692.951	0.0213400
693.030	0.0219357
693.108	0.0222897
693.186	0.0225014
693.264	0.0227489
693.342	0.0225793
693.420	0.0222961
693.498	0.0219125
693.576	0.0213675
693.655	0.0207823
693.733	0.0203842
693.811	0.0195380
693.889	0.0186095
693.967	0.0177470
694.045	0.0170171
694.123	0.0161211
694.201	0.0152306
694.280	0.0143506
694.358	0.0135464
694.436	0.0127525
694.514	0.0121122
694.592	0.0114275
694.670	0.0109444
694.748	0.0106162
694.826	0.0102248
694.905	0.00994171
694.983	0.00991348
695.061	0.0100252
695.139	0.0100587
695.217	0.0104829
695.295	0.0108482
695.373	0.0113908
695.451	0.0119597
695.530	0.0125150
695.608	0.0132435
695.686	0.0141732
695.764	0.0148132
695.842	0.0157314
695.920	0.0164333
695.998	0.0174577
696.076	0.0183553
696.155	0.0192175
696.233	0.0198800
696.311	0.0207161
696.389	0.0212660
696.467	0.0218117
696.545	0.0221225
696.623	0.0223785
696.701	0.0222891
696.780	0.0221629
696.858	0.0219627
696.936	0.0214500
697.014	0.0207507
697.092	0.0202621
697.170	0.0194675
697.248	0.0187473
697.326	0.0183132
697.405	0.0176148
697.483	0.0167832
697.561	0.0164202
697.639	0.0158202
697.717	0.0152400
697.795	0.0148092
697.873	0.0143632
697.951	0.0139389
698.030	0.0135234
698.108	0.0130382
698.186	0.0128583
698.264	0.0127667
698.342	0.0125714
698.420	0.0123801
698.498	0.0122388
698.576	0.0123649
698.655	0.0122797
698.733	0.0127042
698.811	0.0128739
698.889	0.0131379
698.967	0.0135204
699.045	0.0138113
699.123	0.0141058
699.201	0.0144439
699.280	0.0146649
699.358	0.0150927
699.436	0.0153167
699.514	0.0157190
699.592	0.0160694
699.670	0.0164409
699.748	0.0168322
699.826	0.0172633
699.905	0.0177223
699.983	0.0181354
700.061	0.0185955
700.139	0.0188016
700.217	0.0190707
700.295	0.0191750
700.373	0.0193475
700.451	0.0192532
700.530	0.0190540
700.608	0.0188853
700.686	0.0185844
700.764	0.0181585
700.842	0.0178512
700.920	0.0174058
700.998	0.0170435
701.076	0.0166808
701.155	0.0164694
701.233	0.0161589
701.311	0.0159463
701.389	0.0155772
701.467	0.0152876
701.545	0.0150602
701.623	0.0149774
701.701	0.0148067
701.780	0.0148815
701.858	0.0147818
701.936	0.0147310
702.014	0.0148942
702.092	0.0149264
702.170	0.0151176
702.248	0.0153793
702.326	0.0155350
702.405	0.0156936
702.483	0.0158665
702.561	0.0159685
702.639	0.0159911
702.717	0.0160897
702.795	0.0162417
702.873	0.0161459
702.951	0.0163712
703.030	0.0161926
703.108	0.0163449
703.186	0.0164790
703.264	0.0164194
703.342	0.0164777
703.420	0.0164943
703.498	0.0164520
703.576	0.0164301
703.655	0.0165991
703.733	0.0165627
703.811	0.0163835
703.889	0.0165088
703.967	0.0164994
704.045	0.0163055
704.123	0.0164591
704.201	0.0164971
704.280	0.0163728
704.358	0.0161613
704.436	0.0162288
704.514	0.0161821
704.592	0.0160101
704.670	0.0158288
704.748	0.0156599
704.826	0.0155726
704.905	0.0153882
704.983	0.0152638
705.061	0.0152457
705.139	0.0150951
705.217	0.0150148
705.295	0.0151725
705.373	0.0150166
705.451	0.0152988
705.530	0.0153728
705.608	0.0154987
705.686	0.0155337
705.764	0.0157188
705.842	0.0158221
705.920	0.0159091
705.998	0.0160963
706.076	0.0162256
706.155	0.0161352
706.233	0.0161928
706.311	0.0162193
706.389	0.0161015
706.467	0.0161802
706.545	0.0162272
706.623	0.0161890
706.701	0.0163358
706.780	0.0163634
706.858	0.0162720
706.936	0.0162003
707.014	0.0164048
707.092	0.0165784
707.170	0.0164645
707.248	0.0163741
707.326	0.0161671
707.405	0.0164153
707.483	0.0162088
707.561	0.0161554
707.639	0.0160532
707.717	0.0159348
707.795	0.0162192
707.873	0.0160820
707.951	0.0162199
708.030	0.0163818
708.108	0.0162382
708.186	0.0161595
708.264	0.0163081
708.342	0.0164087
708.420	0.0164831
708.498	0.0164967
708.576	0.0163785
708.655	0.0162278
708.733	0.0162900
708.811	0.0161024
708.889	0.0161234
708.967	0.0160603
709.045	0.0160923
709.123	0.0161145
709.201	0.0160762
709.280	0.0161459
709.358	0.0161916
709.436	0.0162215
709.514	0.0162222
709.592	0.0162904
709.670	0.0161781
709.748	0.0162482
709.826	0.0162758
709.905	0.0162809
709.983	0.0161646
710.061	0.0162259
710.139	0.0160796
710.217	0.0161650
710.295	0.0162142
710.373	0.0161308
710.451	0.0159508
710.530	0.0157256
710.608	0.0159388
710.686	0.0156161
710.764	0.0154317
710.842	0.0155038
710.920	0.0152630
710.998	0.0150617
711.076	0.0149646
711.155	0.0149374
711.233	0.0149270
711.311	0.0148741
711.389	0.0149111
711.467	0.0151680
711.545	0.0153717
711.623	0.0156266
711.701	0.0158427
711.780	0.0160208
711.858	0.0163052
711.936	0.0167146
712.014	0.0168284
712.092	0.0170867
712.170	0.0174274
712.248	0.0174976
712.326	0.0174640
712.405	0.0176868
712.483	0.0178161
712.561	0.0178664
712.639	0.0178277
712.717	0.0178878
712.795	0.0177228
712.873	0.0174660
712.951	0.0173055
713.030	0.0173298
713.108	0.0172136
713.186	0.0168911
713.264	0.0166465
713.342	0.0166005
713.420	0.0162623
713.498	0.0158321
713.576	0.0155844
713.655	0.0152982
713.733	0.0150932
713.811	0.0149100
713.889	0.0146991
713.967	0.0145544
714.045	0.0144459
714.123	0.0144936
714.201	0.0145746
714.280	0.0147340
714.358	0.0148674
714.436	0.0151526
714.514	0.0153889
714.592	0.0156306
714.670	0.0156583
714.748	0.0159128
714.826	0.0159933
714.905	0.0159666
714.983	0.0159832
715.061	0.0157367
715.139	0.0157635
715.217	0.0154719
715.295	0.0153226
715.373	0.0152988
715.451	0.0151714
715.530	0.0150195
715.608	0.0148119
715.686	0.0151267
715.764	0.0151041
715.842	0.0153469
715.920	0.0156818
715.998	0.0159867
716.076	0.0162697
716.155	0.0164475
716.233	0.0168426
716.311	0.0173515
716.389	0.0175475
716.467	0.0176528
716.545	0.0179086
716.623	0.0179495
716.701	0.0180554
716.780	0.0179245
716.858	0.0176921
716.936	0.0174113
717.014	0.0171551
717.092	0.0168771
717.170	0.0163122
717.248	0.0158166
717.326	0.0153623
717.405	0.0150841
717.483	0.0148638
717.561	0.0147762
717.639	0.0145842
717.717	0.0145560
717.795	0.0149247
717.873	0.0150850
717.951	0.0154153
718.030	0.0158558
718.108	0.0162833
718.186	0.0166933
718.264	0.0169923
718.342	0.0172519
718.420	0.0176591
718.498	0.0178778
718.576	0.0177181
718.655	0.0176571
718.733	0.0175072
718.811	0.0173424
718.889	0.0170306
718.967	0.0165926
719.045	0.0162601
719.123	0.0160311
719.201	0.0156023
719.280	0.0152654
719.358	0.0150568
719.436	0.0148521
719.514	0.0147322
719.592	0.0145848
719.670	0.0145448
719.748	0.0147302
719.826	0.0149068
719.905	0.0150777
719.983	0.0154216
720.061	0.0156081
720.139	0.0158352
720.217	0.0161433
720.295	0.0167209
720.373	0.0168414
720.451	0.0170846
720.530	0.0173520
720.608	0.0173141
720.686	0.0174288
720.764	0.0175261
720.842	0.0176283
720.920	0.0175473
720.998	0.0175378
721.076	0.0175397
721.155	0.0173636
721.233	0.0170927
721.311	0.0167248
721.389	0.0164996
721.467	0.0163377
721.545	0.0159889
721.623	0.0157564
721.701	0.0154500
721.780	0.0151644
721.858	0.0149065
721.936	0.0148401
722.014	0.0148076
722.092	0.0146298
722.170	0.0148250
722.248	0.0148030
722.326	0.0147884
722.405	0.0149112
722.483	0.0151366
722.561	0.0151720
722.639	0.0154540
722.717	0.0155387
722.795	0.0158534
722.873	0.0161266
722.951	0.0163045
723.030	0.0164546
723.108	0.0166699
723.186	0.0167732
723.264	0.0169762
723.342	0.0171362
723.420	0.0171703
723.498	0.0169644
723.576	0.0171675
723.655	0.0170724
723.733	0.0170587
723.811	0.0167817
723.889	0.0168421
723.967	0.0167509
724.045	0.0166283
724.123	0.0165561
724.201	0.0164987
724.280	0.0166570
724.358	0.0164715
724.436	0.0163288
724.514	0.0163688
724.592	0.0164139
724.670	0.0161751
724.748	0.0161613
724.826	0.0158500
724.905	0.0157092
724.983	0.0154056
725.061	0.0154134
725.139	0.0153333
725.217	0.0151076
725.295	0.0150463
725.373	0.0151861
725.451	0.0152603
725.530	0.0150403
725.608	0.0152505
725.686	0.0154140
725.764	0.0156395
725.842	0.0159157
725.920	0.0159736
725.998	0.0161315
726.076	0.0163911
726.155	0.0164801
726.233	0.0163448
726.311	0.0164415
726.389	0.0163670
726.467	0.0164456
726.545	0.0164299
726.623	0.0162344
726.701	0.0161572
726.780	0.0161395
726.858	0.0160129
726.936	0.0160823
727.014	0.0159454
727.092	0.0159650
727.170	0.0159560
727.248	0.0160458
727.326	0.0159543
727.405	0.0158822
727.483	0.0158212
727.561	0.0158931
727.639	0.0159658
727.717	0.0161481
727.795	0.0160941
727.873	0.0162898
727.951	0.0165239
728.030	0.0165723
728.108	0.0166451
728.186	0.0168082
728.264	0.0169298
728.342	0.0171346
728.420	0.0171929
728.498	0.0169520
728.576	0.0171233
728.655	0.0171437
728.733	0.0170103
728.811	0.0169296
728.889	0.0167847
728.967	0.0167302
729.045	0.0165887
729.123	0.0163520
729.201	0.0162359
729.280	0.0162450
729.358	0.0161305
729.436	0.0159307
729.514	0.0158326
729.592	0.0156281
729.670	0.0157699
729.748	0.0156181
729.826	0.0156046
729.905	0.0157255
729.983	0.0157291
730.061	0.0157682
730.139	0.0159274
730.217	0.0159164
730.295	0.0158725
730.373	0.0159758
730.451	0.0159845
730.530	0.0158653
730.608	0.0158758
730.686	0.0158585
730.764	0.0159109
730.842	0.0159556
730.920	0.0161166
730.998	0.0161819
731.076	0.0162350
731.155	0.0163429
731.233	0.0163792
731.311	0.0166142
731.389	0.0164172
731.467	0.0164644
731.545	0.0164945
731.623	0.0165119
731.701	0.0163657
731.780	0.0163870
731.858	0.0162442
731.936	0.0162293
732.014	0.0161126
732.092	0.0160809
732.170	0.0158791
732.248	0.0156434
732.326	0.0156748
732.405	0.0155869
732.483	0.0155804
732.561	0.0155237
732.639	0.0155688
732.717	0.0155361
732.795	0.0155775
732.873	0.0156770
732.951	0.0156786
733.030	0.0157963
733.108	0.0158834
733.186	0.0160651
733.264	0.0162318
733.342	0.0163167
733.420	0.0164213
733.498	0.0167049
733.576	0.0167589
733.655	0.0167219
733.733	0.0168170
733.811	0.0167918
733.889	0.0165816
733.967	0.0164632
734.045	0.0165312
734.123	0.0161824
734.201	0.0159965
734.280	0.0158496
734.358	0.0157916
734.436	0.0156233
734.514	0.0154124
734.592	0.0155439
734.670	0.0154327
734.748	0.0153740
734.826	0.0154895
734.905	0.0155911
734.983	0.0156256
735.061	0.0158797
735.139	0.0158465
735.217	0.0160618
735.295	0.0161624
735.373	0.0163618
735.451	0.0165087
735.530	0.0165211
735.608	0.0165041
735.686	0.0167348
735.764	0.0166846
735.842	0.0167393
735.920	0.0166549
735.998	0.0167850
736.076	0.0166283
736.155	0.0165591
736.233	0.0164350
736.311	0.0163453
736.389	0.0162647
736.467	0.0160617
736.545	0.0160806
736.623	0.0160557
736.701	0.0159583
736.780	0.0159998
736.858	0.0160713
736.936	0.0160923
737.014	0.0160278
737.092	0.0159789
737.170	0.0160338
737.248	0.0160413
737.326	0.0158192
737.405	0.0159078
737.483	0.0158663
737.561	0.0157473
737.639	0.0156242
737.717	0.0156223
737.795	0.0154083
737.873	0.0155347
737.951	0.0153779
738.030	0.0154238
738.108	0.0153755
738.186	0.0154515
738.264	0.0155155
738.342	0.0153291
738.420	0.0154214
738.498	0.0155782
738.576	0.0159253
738.655	0.0158878
738.733	0.0160018
738.811	0.0160944
738.889	0.0162169
738.967	0.0163155
739.045	0.0164363
739.123	0.0163921
739.201	0.0164584
739.280	0.0164429
739.358	0.0162512
739.436	0.0163349
739.514	0.0163498
739.592	0.0163635
739.670	0.0162444
739.748	0.0161488
739.826	0.0162257
739.905	0.0160616
739.983	0.0161172
740.061	0.0161996
740.139	0.0160313
740.217	0.0160152
740.295	0.0160888
740.373	0.0162791
740.451	0.0162835
740.530	0.0163733
740.608	0.0163818
740.686	0.0165110
740.764	0.0163876
740.842	0.0164397
740.920	0.0165659
740.998	0.0164964
741.076	0.0165264
741.155	0.0164978
741.233	0.0164733
741.311	0.0163205
741.389	0.0163735
741.467	0.0163644
741.545	0.0162584
741.623	0.0160976
741.701	0.0159202
741.780	0.0158113
741.858	0.0157322
741.936	0.0156419
742.014	0.0155420
742.092	0.0155328
742.170	0.0156043
742.248	0.0157269
742.326	0.0157757
742.405	0.0158019
742.483	0.0158646
742.561	0.0158601
742.639	0.0158968
742.717	0.0161076
742.795	0.0161244
742.873	0.0163575
742.951	0.0164954
743.030	0.0164849
743.108	0.0163499
743.186	0.0165701
743.264	0.0164011
743.342	0.0163766
743.420	0.0162475
743.498	0.0163393
743.576	0.0163107
743.655	0.0161429
743.733	0.0161485
743.811	0.0161877
743.889	0.0160360
743.967	0.0159928
744.045	0.0160719
744.123	0.0160698
744.201	0.0159583
744.280	0.0161688
744.358	0.0159627
744.436	0.0159691
744.514	0.0159299
744.592	0.0161614
744.670	0.0161856
744.748	0.0161534
744.826	0.0162389
744.905	0.0162675
744.983	0.0162608
745.061	0.0163514
745.139	0.0163013
745.217	0.0161958
745.295	0.0161626
745.373	0.0160299
745.451	0.0160017
745.530	0.0159320
745.608	0.0160762
745.686	0.0159925
745.764	0.0159765
745.842	0.0159772
745.920	0.0160057
745.998	0.0161677
746.076	0.0160522
746.155	0.0161189
746.233	0.0161452
746.311	0.0160279
746.389	0.0161841
746.467	0.0161492
746.545	0.0160217
746.623	0.0161889
746.701	0.0160156
746.780	0.0160232
746.858	0.0160538
746.936	0.0159442
747.014	0.0160359
747.092	0.0158958
747.170	0.0159132
747.248	0.0159084
747.326	0.0157869
747.405	0.0158562
747.483	0.0158482
747.561	0.0158324
747.639	0.0158178
747.717	0.0158027
747.795	0.0159830
747.873	0.0161624
747.951	0.0161323
748.030	0.0162013
748.108	0.0163200
748.186	0.0164347
748.264	0.0165630
748.342	0.0166633
748.420	0.0166271
748.498	0.0166807
748.576	0.0167936
748.655	0.0167921
748.733	0.0167823
748.811	0.0167724
748.889	0.0168098
748.967	0.0166006
749.045	0.0165453
749.123	0.0165546
749.201	0.0165675
749.280	0.0162878
749.358	0.0161958
749.436	0.0163092
749.514	0.0159194
749.592	0.0157573
749.670	0.0158247
749.748	0.0159529
749.826	0.0158207
749.905	0.0160073
749.983	0.0159342
750.061	0.0158710
750.139	0.0158257
750.217	0.0159226
750.295	0.0162083
750.373	0.0160649
750.451	0.0162193
750.530	0.0163526
750.608	0.0162878
750.686	0.0163980
750.764	0.0164462
750.842	0.0164115
750.920	0.0162641
750.998	0.0164494
751.076	0.0165054
751.155	0.0164687
751.233	0.0163914
751.311	0.0162489
751.389	0.0162926
751.467	0.0163002
751.545	0.0162627
751.623	0.0164258
751.701	0.0164108
751.780	0.0163103
751.858	0.0161374
751.936	0.0162321
752.014	0.0161021
752.092	0.0162167
752.170	0.0163120
752.248	0.0161858
752.326	0.0161890
752.405	0.0161335
752.483	0.0161690
752.561	0.0162778
752.639	0.0161776
752.717	0.0162395
752.795	0.0162923
752.873	0.0163288
752.951	0.0163757
753.030	0.0161649
753.108	0.0162378
753.186	0.0162730
753.264	0.0161798
753.342	0.0162060
753.420	0.0161736
753.498	0.0161742
753.576	0.0162119
753.655	0.0161256
753.733	0.0160422
753.811	0.0160269
753.889	0.0161766
753.967	0.0161559
754.045	0.0160445
754.123	0.0160777
754.201	0.0161800
754.280	0.0161213
754.358	0.0162295
754.436	0.0161335
754.514	0.0161525
754.592	0.0162006
754.670	0.0161048
754.748	0.0161217
754.826	0.0161096
754.905	0.0160411
754.983	0.0161481
755.061	0.0160507
755.139	0.0160583
755.217	0.0159334
755.295	0.0161165
755.373	0.0160996
755.451	0.0162316
755.530	0.0161243
755.608	0.0162714
755.686	0.0161026
755.764	0.0163014
755.842	0.0161918
755.920	0.0162248
755.998	0.0164552
756.076	0.0163549
756.155	0.0165254
756.233	0.0165881
756.311	0.0166975
756.389	0.0165555
756.467	0.0166626
756.545	0.0166497
756.623	0.0165956
756.701	0.0165366
756.780	0.0165292
756.858	0.0163216
756.936	0.0162945
757.014	0.0162466
757.092	0.0161776
757.170	0.0158999
757.248	0.0158973
757.326	0.0158731
757.405	0.0157946
757.483	0.0157027
757.561	0.0156870
757.639	0.0157021
757.717	0.0156502
757.795	0.0157342
757.873	0.0157411
757.951	0.0158382
758.030	0.0158894
758.108	0.0159361
758.186	0.0159093
758.264	0.0159666
758.342	0.0160874
758.420	0.0161753
758.498	0.0161696
758.576	0.0161549
758.655	0.0161823
758.733	0.0161735
758.811	0.0160958
758.889	0.0161550
758.967	0.0161794
759.045	0.0161604
759.123	0.0159830
759.201	0.0159937
759.280	0.0159480
759.358	0.0160747
759.436	0.0160053
759.514	0.0160997
759.592	0.0159177
759.670	0.0159377
759.748	0.0161137
759.826	0.0158953
759.905	0.0160364
759.983	0.0159762
760.061	0.0161330
760.139	0.0160589
760.217	0.0161099
760.295	0.0161293
760.373	0.0161338
760.451	0.0161573
760.530	0.0161621
760.608	0.0163751
760.686	0.0162487
760.764	0.0164618
760.842	0.0163116
760.920	0.0161681
760.998	0.0162280
761.076	0.0163289
761.155	0.0162414
761.233	0.0163634
761.311	0.0164033
761.389	0.0162940
761.467	0.0163116
761.545	0.0162328
761.623	0.0162566
761.701	0.0162521
761.780	0.0162083
761.858	0.0162572
761.936	0.0162650
762.014	0.0161253
762.092	0.0163218
762.170	0.0163395
762.248	0.0161925
762.326	0.0163384
762.405	0.0162637
762.483	0.0161056
762.561	0.0161563
762.639	0.0160561
762.717	0.0160507
762.795	0.0160065
762.873	0.0160416
762.951	0.0159621
763.030	0.0161716
763.108	0.0159699
763.186	0.0158891
763.264	0.0160753
763.342	0.0159494
763.420	0.0158614
763.498	0.0160792
763.576	0.0160582
763.655	0.0161037
763.733	0.0161578
763.811	0.0161184
763.889	0.0160123
763.967	0.0160147
764.045	0.0161452
764.123	0.0160916
764.201	0.0161051
764.280	0.0161539
764.358	0.0159650
764.436	0.0159425
764.514	0.0159715
764.592	0.0159828
764.670	0.0158206
764.748	0.0159644
764.826	0.0159518
764.905	0.0159483
764.983	0.0158616
765.061	0.0157314
765.139	0.0157594
765.217	0.0157672
765.295	0.0158067
765.373	0.0156428
765.451	0.0156725
765.530	0.0157469
765.608	0.0158181
765.686	0.0158366
765.764	0.0158125
765.842	0.0157410
765.920	0.0158477
765.998	0.0158779
766.076	0.0158878
766.155	0.0159048
766.233	0.0160226
766.311	0.0160432
766.389	0.0160741
766.467	0.0160914
766.545	0.0162030
766.623	0.0162225
766.701	0.0162733
766.780	0.0162601
766.858	0.0161903
766.936	0.0163634
767.014	0.0163318
767.092	0.0162794
767.170	0.0164150
767.248	0.0163248
767.326	0.0162846
767.405	0.0163515
767.483	0.0164827
767.561	0.0164619
767.639	0.0163835
767.717	0.0163648
767.795	0.0164392
767.873	0.0163684
767.951	0.0163113
768.030	0.0162287
768.108	0.0161703
768.186	0.0162222
768.264	0.0162482
768.342	0.0162103
768.420	0.0162708
768.498	0.0161413
768.576	0.0162974
768.655	0.0162733
768.733	0.0161761
768.811	0.0161388
768.889	0.0163198
768.967	0.0162067
769.045	0.0162530
769.123	0.0161811
769.201	0.0161754
769.280	0.0161590
769.358	0.0163085
769.436	0.0162489
769.514	0.0160709
769.592	0.0160238
769.670	0.0161427
769.748	0.0160184
769.826	0.0159737
769.905	0.0158784
769.983	0.0158704
770.061	0.0157665
770.139	0.0158821
770.217	0.0158729
770.295	0.0159333
770.373	0.0157957
770.451	0.0158773
770.530	0.0159196
770.608	0.0159483
770.686	0.0156975
770.764	0.0159297
770.842	0.0159603
770.920	0.0159551
770.998	0.0161394
771.076	0.0160880
771.155	0.0158932
771.233	0.0161591
771.311	0.0160941
771.389	0.0161438
771.467	0.0162861
771.545	0.0163005
771.623	0.0163439
771.701	0.0162954
771.780	0.0164255
771.858	0.0165189
771.936	0.0165203
772.014	0.0165256
772.092	0.0163763
772.170	0.0165044
772.248	0.0164778
772.326	0.0163795
772.405	0.0164073
772.483	0.0164054
772.561	0.0163028
772.639	0.0164198
772.717	0.0162813
772.795	0.0161892
772.873	0.0161215
772.951	0.0161118
773.030	0.0159904
773.108	0.0159524
773.186	0.0159367
773.264	0.0160236
773.342	0.0157548
773.420	0.0159518
773.498	0.0159171
773.576	0.0160435
773.655	0.0158353
773.733	0.0158476
773.811	0.0161793
773.889	0.0160012
773.967	0.0160384
774.045	0.0160690
774.123	0.0161606
774.201	0.0162453
774.280	0.0161954
774.358	0.0162087
774.436	0.0162276
774.514	0.0162106
774.592	0.0162235
774.670	0.0162211
774.748	0.0162087
774.826	0.0159768
774.905	0.0161127
774.983	0.0161516
775.061	0.0161938
775.139	0.0160679
775.217	0.0160111
775.295	0.0161526
775.373	0.0161112
775.451	0.0160519
775.530	0.0161199
775.608	0.0161412
775.686	0.0161301
775.764	0.0162257
775.842	0.0161212
775.920	0.0161549
775.998	0.0161245
776.076	0.0161623
776.155	0.0162208
776.233	0.0163296
776.311	0.0163186
776.389	0.0162896
776.467	0.0161837
776.545	0.0160869
776.623	0.0160735
776.701	0.0161438
776.780	0.0161717
776.858	0.0162199
776.936	0.0163408
777.014	0.0161871
777.092	0.0160912
777.170	0.0160399
777.248	0.0161624
777.326	0.0161550
777.405	0.0160513
777.483	0.0159670
777.561	0.0159563
777.639	0.0161216
777.717	0.0161639
777.795	0.0161227
777.873	0.0160171
777.951	0.0160491
778.030	0.0161349
778.108	0.0161657
778.186	0.0161639
778.264	0.0160963
778.342	0.0161448
778.420	0.0161204
778.498	0.0160193
778.576	0.0161024
778.655	0.0160861
778.733	0.0160439
778.811	0.0160405
778.889	0.0161515
778.967	0.0160629
779.045	0.0160344
779.123	0.0160773
779.201	0.0161324
779.280	0.0161195
779.358	0.0162556
779.436	0.0163885
779.514	0.0162917
779.592	0.0163840
779.670	0.0165276
779.748	0.0162508
779.826	0.0164931
779.905	0.0164580
779.983	0.0164488
780.061	0.0164238
780.139	0.0164301
780.217	0.0164546
780.295	0.0164412
780.373	0.0162379
780.451	0.0162428
780.530	0.0162386
780.608	0.0161823
780.686	0.0161876
780.764	0.0161758
780.842	0.0161069
780.920	0.0160828
780.998	0.0158782
781.076	0.0159776
781.155	0.0160542
781.233	0.0159515
781.311	0.0157899
781.389	0.0159107
781.467	0.0161000
781.545	0.0161198
781.623	0.0160011
781.701	0.0159527
781.780	0.0160242
781.858	0.0161042
781.936	0.0161741
782.014	0.0161931
782.092	0.0161202
782.170	0.0161213
782.248	0.0160760
782.326	0.0160915
782.405	0.0161905
782.483	0.0160055
782.561	0.0161464
782.639	0.0159336
782.717	0.0159365
782.795	0.0159223
782.873	0.0158442
782.951	0.0158939
783.030	0.0158786
783.108	0.0160526
783.186	0.0160232
783.264	0.0160072
783.342	0.0161012
783.420	0.0160952
783.498	0.0163183
783.576	0.0162411
783.655	0.0162342
783.733	0.0163511
783.811	0.0163132
783.889	0.0162325
783.967	0.0162315
784.045	0.0163049
784.123	0.0162334
784.201	0.0162650
784.280	0.0162331
784.358	0.0162514
784.436	0.0161998
784.514	0.0161890
784.592	0.0162099
784.670	0.0161034
784.748	0.0162210
784.826	0.0161704
784.905	0.0160109
784.983	0.0160738
785.061	0.0159770
785.139	0.0160438
785.217	0.0160939
785.295	0.0160850
785.373	0.0160755
785.451	0.0159110
785.530	0.0159629
785.608	0.0160745
785.686	0.0158909
785.764	0.0157853
785.842	0.0157508
785.920	0.0158812
785.998	0.0158316
786.076	0.0158127
786.155	0.0156993
786.233	0.0157391
786.311	0.0158610
786.389	0.0158781
786.467	0.0159552
786.545	0.0160215
786.623	0.0161133
786.701	0.0159904
786.780	0.0162139
786.858	0.0163858
786.936	0.0163055
787.014	0.0163994
787.092	0.0165337
787.170	0.0164323
787.248	0.0165679
787.326	0.0164532
787.405	0.0163127
787.483	0.0163235
787.561	0.0163019
787.639	0.0161902
787.717	0.0160303
787.795	0.0161552
787.873	0.0160438
787.951	0.0158103
788.030	0.0157484
788.108	0.0157292
788.186	0.0156879
788.264	0.0155923
788.342	0.0155007
788.420	0.0155899
788.498	0.0154081
788.576	0.0155238
788.655	0.0154351
788.733	0.0154832
788.811	0.0155408
788.889	0.0155594
788.967	0.0157206
789.045	0.0157959
789.123	0.0160114
789.201	0.0159361
789.280	0.0161634
789.358	0.0163824
789.436	0.0164019
789.514	0.0165617
789.592	0.0167325
789.670	0.0167655
789.748	0.0167734
789.826	0.0169088
789.905	0.0168532
789.983	0.0168857
790.061	0.0168385
790.139	0.0169584
790.217	0.0168639
790.295	0.0167068
790.373	0.0166814
790.451	0.0167508
790.530	0.0165939
790.608	0.0164983
790.686	0.0162994
790.764	0.0163346
790.842	0.0161134
790.920	0.0158993
790.998	0.0159377
791.076	0.0158186
791.155	0.0156581
791.233	0.0155669
791.311	0.0154352
791.389	0.0154271
791.467	0.0153564
791.545	0.0153733
791.623	0.0153204
791.701	0.0152554
791.780	0.0153310
791.858	0.0151936
791.936	0.0153906
792.014	0.0152877
792.092	0.0153400
792.170	0.0154329
792.248	0.0156231
792.326	0.0157005
792.405	0.0158458
792.483	0.0158884
792.561	0.0160288
792.639	0.0162317
792.717	0.0161759
792.795	0.0164392
792.873	0.0166324
792.951	0.0165562
793.030	0.0167656
793.108	0.0167581
793.186	0.0168211
793.264	0.0167754
793.342	0.0168648
793.420	0.0169876
793.498	0.0169064
793.576	0.0168289
793.655	0.0167995
793.733	0.0169046
793.811	0.0168299
793.889	0.0167454
793.967	0.0166479
794.045	0.0165461
794.123	0.0163757
794.201	0.0163654
794.280	0.0162532
794.358	0.0161694
794.436	0.0161888
794.514	0.0159425
794.592	0.0157753
794.670	0.0158237
794.748	0.0157740
794.826	0.0157607
794.905	0.0158602
794.983	0.0157371
795.061	0.0156731
795.139	0.0157992
795.217	0.0157767
795.295	0.0157442
795.373	0.0157992
795.451	0.0157716
795.530	0.0157159
795.608	0.0157761
795.686	0.0157657
795.764	0.0157892
795.842	0.0158137
795.920	0.0159569
795.998	0.0160104
796.076	0.0159196
796.155	0.0160162
796.233	0.0160630
796.311	0.0159740
796.389	0.0159790
796.467	0.0161563
796.545	0.0160443
796.623	0.0161408
796.701	0.0161929
796.780	0.0161512
796.858	0.0161276
796.936	0.0161600
797.014	0.0163617
797.092	0.0164376
797.170	0.0163030
797.248	0.0164374
797.326	0.0164666
797.405	0.0164222
797.483	0.0164775
797.561	0.0164947
797.639	0.0163407
797.717	0.0163587
797.795	0.0164354
797.873	0.0163627
797.951	0.0162655
798.030	0.0162216
798.108	0.0162470
798.186	0.0160890
798.264	0.0162103
798.342	0.0160926
798.420	0.0160198
798.498	0.0160604
798.576	0.0160152
798.655	0.0159422
798.733	0.0161026
798.811	0.0160503
798.889	0.0160861
798.967	0.0160730
799.045	0.0160706
799.123	0.0162117
799.201	0.0161326
799.280	0.0160753
799.358	0.0160228
799.436	0.0160896
799.514	0.0160688
799.592	0.0159947
799.670	0.0160067
799.748	0.0160519
799.826	0.0160081
799.905	0.0159528
799.983	0.0158714
800.061	0.0159056
800.139	0.0159783
800.217	0.0158408
800.295	0.0159714
800.373	0.0159399
800.451	0.0160735
800.530	0.0160348
800.608	0.0160441
800.686	0.0162891
800.764	0.0161524
800.842	0.0162045
800.920	0.0162061
800.998	0.0162399
801.076	0.0162514
801.155	0.0163577
801.233	0.0163358
801.311	0.0161327
801.389	0.0162172
801.467	0.0163205
801.545	0.0162189
801.623	0.0162215
801.701	0.0162646
801.780	0.0160820
801.858	0.0160994
801.936	0.0161443
802.014	0.0159911
802.092	0.0159181
802.170	0.0160853
802.248	0.0161251
802.326	0.0160880
802.405	0.0160379
802.483	0.0160954
802.561	0.0161285
802.639	0.0160661
802.717	0.0162496
802.795	0.0161369
802.873	0.0161884
802.951	0.0162005
803.030	0.0162543
803.108	0.0161546
803.186	0.0160680
803.264	0.0162441
803.342	0.0162571
803.420	0.0162215
803.498	0.0162996
803.576	0.0161532
803.655	0.0160164
803.733	0.0162285
803.811	0.0162623
803.889	0.0163053
803.967	0.0161292
804.045	0.0161713
804.123	0.0160238
804.201	0.0161173
804.280	0.0162137
804.358	0.0162342
804.436	0.0162097
804.514	0.0162684
804.592	0.0160415
804.670	0.0161523
804.748	0.0161822
804.826	0.0161923
804.905	0.0162299
804.983	0.0160323
805.061	0.0162440
805.139	0.0161285
805.217	0.0160611
805.295	0.0162131
805.373	0.0161147
805.451	0.0159990
805.530	0.0160862
805.608	0.0161829
805.686	0.0163334
805.764	0.0161744
805.842	0.0160069
805.920	0.0160279
805.998	0.0162417
806.076	0.0160818
806.155	0.0161851
806.233	0.0162114
806.311	0.0161669
806.389	0.0161771
806.467	0.0161878
806.545	0.0162353
806.623	0.0161819
806.701	0.0161425
806.780	0.0161525
806.858	0.0160242
806.936	0.0160794
807.014	0.0160595
807.092	0.0159347
807.170	0.0159068
807.248	0.0159303
807.326	0.0157899
807.405	0.0159191
807.483	0.0159070
807.561	0.0158150
807.639	0.0158191
807.717	0.0159931
807.795	0.0160118
807.873	0.0158656
807.951	0.0160213
808.030	0.0159496
808.108	0.0160677
808.186	0.0160896
808.264	0.0161463
808.342	0.0161672
808.420	0.0163305
808.498	0.0162384
808.576	0.0162571
808.655	0.0163332
808.733	0.0164015
808.811	0.0163687
808.889	0.0163542
808.967	0.0162610
809.045	0.0163044
809.123	0.0163408
809.201	0.0164590
809.280	0.0163876
809.358	0.0162682
809.436	0.0164228
809.514	0.0163606
809.592	0.0162846
809.670	0.0163522
809.748	0.0162489
809.826	0.0161905
809.905	0.0162891
809.983	0.0162777
810.061	0.0161757
810.139	0.0160712
810.217	0.0161195
810.295	0.0161674
810.373	0.0161202
810.451	0.0160490
810.530	0.0161234
810.608	0.0160378
810.686	0.0161730
810.764	0.0161770
810.842	0.0160040
810.920	0.0159492
810.998	0.0158978
811.076	0.0159406
811.155	0.0159090
811.233	0.0158820
811.311	0.0159147
811.389	0.0157838
811.467	0.0158418
811.545	0.0157299
811.623	0.0159325
811.701	0.0158157
811.780	0.0157540
811.858	0.0157471
811.936	0.0158733
812.014	0.0157734
812.092	0.0157805
812.170	0.0159779
812.248	0.0160999
812.326	0.0160118
812.405	0.0161176
812.483	0.0161114
812.561	0.0163174
812.639	0.0162786
812.717	0.0163182
812.795	0.0164064
812.873	0.0162745
812.951	0.0163963
813.030	0.0162493
813.108	0.0162019
813.186	0.0162727
813.264	0.0161375
813.342	0.0162602
813.420	0.0162960
813.498	0.0160872
813.576	0.0161164
813.655	0.0161837
813.733	0.0161450
813.811	0.0162340
813.889	0.0161330
813.967	0.0162354
814.045	0.0162259
814.123	0.0161256
814.201	0.0161800
814.280	0.0162370
814.358	0.0163547
814.436	0.0164503
814.514	0.0165153
814.592	0.0164688
814.670	0.0165627
814.748	0.0164690
814.826	0.0164397
814.905	0.0164212
814.983	0.0165405
815.061	0.0163673
815.139	0.0163245
815.217	0.0163087
815.295	0.0162460
815.373	0.0161122
815.451	0.0159430
815.530	0.0158720
815.608	0.0156770
815.686	0.0157098
815.764	0.0157101
815.842	0.0155558
815.920	0.0156689
815.998	0.0154845
816.076	0.0155238
816.155	0.0155614
816.233	0.0156458
816.311	0.0157745
816.389	0.0157073
816.467	0.0158152
816.545	0.0159401
816.623	0.0160848
816.701	0.0161597
816.780	0.0162132
816.858	0.0161514
816.936	0.0164597
817.014	0.0164034
817.092	0.0164394
817.170	0.0164331
817.248	0.0163812
817.326	0.0165004
817.405	0.0165060
817.483	0.0165034
817.561	0.0163342
817.639	0.0162879
817.717	0.0164056
817.795	0.0162943
817.873	0.0162684
817.951	0.0162244
818.030	0.0161787
818.108	0.0161062
818.186	0.0161788
818.264	0.0162192
818.342	0.0159913
818.420	0.0160816
818.498	0.0160423
818.576	0.0159496
818.655	0.0159744
818.733	0.0159343
818.811	0.0159364
818.889	0.0159052
818.967	0.0160349
819.045	0.0159034
819.123	0.0158588
819.201	0.0159362
819.280	0.0158770
819.358	0.0159541
819.436	0.0159426
819.514	0.0158778
819.592	0.0159354
819.670	0.0159281
819.748	0.0161198
819.826	0.0161063
819.905	0.0160716
819.983	0.0161248
820.061	0.0163893
820.139	0.0163531
820.217	0.0163387
820.295	0.0164080
820.373	0.0164158
820.451	0.0164598
820.530	0.0164987
820.608	0.0165044
820.686	0.0164656
820.764	0.0165685
820.842	0.0166163
820.920	0.0164114
820.998	0.0163881
821.076	0.0162855
821.155	0.0162004
821.233	0.0161475
821.311	0.0162017
821.389	0.0160838
821.467	0.0160606
821.545	0.0160028
821.623	0.0159267
821.701	0.0159941
821.780	0.0159016
821.858	0.0159456
821.936	0.0160479
822.014	0.0158287
822.092	0.0159306
822.170	0.0159612
822.248	0.0159865
822.326	0.0160126
822.405	0.0161465
822.483	0.0160760
822.561	0.0160510
822.639	0.0162204
822.717	0.0162556
822.795	0.0162933
822.873	0.0160351
822.951	0.0161292
823.030	0.0163887
823.108	0.0163232
823.186	0.0162881
823.264	0.0163117
823.342	0.0164219
823.420	0.0163021
823.498	0.0162032
823.576	0.0163038
823.655	0.0163535
823.733	0.0163826
823.811	0.0163226
823.889	0.0163503
823.967	0.0162182
824.045	0.0162394
824.123	0.0161766
824.201	0.0162354
824.280	0.0162527
824.358	0.0161417
824.436	0.0162954
824.514	0.0162170
824.592	0.0162754
824.670	0.0161504
824.748	0.0162915
824.826	0.0162148
824.905	0.0161670
824.983	0.0162280
825.061	0.0163268
825.139	0.0162045
825.217	0.0162381
825.295	0.0162674
825.373	0.0162314
825.451	0.0162136
825.530	0.0162070
825.608	0.0162579
825.686	0.0161791
825.764	0.0161487
825.842	0.0161393
825.920	0.0162543
825.998	0.0160832
826.076	0.0162268
826.155	0.0162457
826.233	0.0161317
826.311	0.0162714
826.389	0.0161087
826.467	0.0162891
826.545	0.0162421
826.623	0.0161405
826.701	0.0162064
826.780	0.0160883
826.858	0.0159620
826.936	0.0161056
827.014	0.0161238
827.092	0.0160768
827.170	0.0160941
827.248	0.0160459
827.326	0.0159100
827.405	0.0160246
827.483	0.0158173
827.561	0.0159586
827.639	0.0158818
827.717	0.0159435
827.795	0.0159047
827.873	0.0159032
827.951	0.0160892
828.030	0.0159913
828.108	0.0160612
828.186	0.0161984
828.264	0.0161882
828.342	0.0162328
828.420	0.0162937
828.498	0.0162923
828.576	0.0163006
828.655	0.0163961
828.733	0.0164360
828.811	0.0165016
828.889	0.0163784
828.967	0.0162320
829.045	0.0163424
829.123	0.0164558
829.201	0.0164526
829.280	0.0164042
829.358	0.0162493
829.436	0.0162595
829.514	0.0162086
829.592	0.0162147
829.670	0.0163062
829.748	0.0162103
829.826	0.0160873
829.905	0.0162941
829.983	0.0163303
830.061	0.0162689
830.139	0.0163928
830.217	0.0162821
830.295	0.0162359
830.373	0.0162503
830.451	0.0163766
830.530	0.0162122
830.608	0.0162341
830.686	0.0162907
830.764	0.0161362
830.842	0.0161758
830.920	0.0161742
830.998	0.0160210
831.076	0.0160919
831.155	0.0160741
831.233	0.0158651
831.311	0.0159675
831.389	0.0160118
831.467	0.0160264
831.545	0.0160384
831.623	0.0160065
831.701	0.0159254
831.780	0.0158253
831.858	0.0159382
831.936	0.0160213
832.014	0.0160602
832.092	0.0161193
832.170	0.0159686
832.248	0.0161219
832.326	0.0161278
832.405	0.0161395
832.483	0.0161768
832.561	0.0161127
832.639	0.0160799
832.717	0.0160052
832.795	0.0159311
832.873	0.0160391
832.951	0.0159586
833.030	0.0160220
833.108	0.0159457
833.186	0.0160908
833.264	0.0160069
833.342	0.0160259
833.420	0.0160271
833.498	0.0160857
833.576	0.0160964
833.655	0.0160477
833.733	0.0162134
833.811	0.0160973
833.889	0.0162135
833.967	0.0162304
834.045	0.0162894
834.123	0.0161831
834.201	0.0162588
834.280	0.0163446
834.358	0.0163776
834.436	0.0162863
834.514	0.0162885
834.592	0.0163648
834.670	0.0163472
834.748	0.0162228
834.826	0.0163212
834.905	0.0163129
834.983	0.0162700
835.061	0.0162109
835.139	0.0163318
835.217	0.0163528
835.295	0.0162520
835.373	0.0162674
835.451	0.0163347
835.530	0.0162505
835.608	0.0160466
835.686	0.0162836
835.764	0.0162862
835.842	0.0162347
835.920	0.0161198
835.998	0.0161805
836.076	0.0161074
836.155	0.0161266
836.233	0.0159486
836.311	0.0160228
836.389	0.0160152
836.467	0.0159661
836.545	0.0160088
836.623	0.0160155
836.701	0.0160947
836.780	0.0160289
836.858	0.0162033
836.936	0.0160183
837.014	0.0160026
837.092	0.0160840
837.170	0.0160990
837.248	0.0160682
837.326	0.0161537
837.405	0.0161238
837.483	0.0160905
837.561	0.0159933
837.639	0.0160522
837.717	0.0161570
837.795	0.0160191
837.873	0.0159249
837.951	0.0159672
838.030	0.0159500
838.108	0.0158086
838.186	0.0160063
838.264	0.0160693
838.342	0.0158415
838.420	0.0159474
838.498	0.0160359
838.576	0.0160091
838.655	0.0160773
838.733	0.0160253
838.811	0.0161679
838.889	0.0162051
838.967	0.0162522
839.045	0.0162040
839.123	0.0161741
839.201	0.0162916
839.280	0.0163925
839.358	0.0161844
839.436	0.0161729
839.514	0.0164151
839.592	0.0162193
839.670	0.0161633
839.748	0.0160555
839.826	0.0161744
839.905	0.0161422
839.983	0.0161060
840.061	0.0160928
840.139	0.0160471
840.217	0.0160690
840.295	0.0162875
840.373	0.0161616
840.451	0.0160845
840.530	0.0162392
840.608	0.0162334
840.686	0.0162299
840.764	0.0161903
840.842	0.0162386
840.920	0.0161550
840.998	0.0161952
841.076	0.0162697
841.155	0.0162521
841.233	0.0163126
841.311	0.0161756
841.389	0.0161886
841.467	0.0162255
841.545	0.0161888
841.623	0.0161601
841.701	0.0163208
841.780	0.0160289
841.858	0.0160495
841.936	0.0159912
842.014	0.0161561
842.092	0.0162219
842.170	0.0161045
842.248	0.0162069
842.326	0.0163087
842.405	0.0160574
842.483	0.0160814
842.561	0.0161989
842.639	0.0161865
842.717	0.0161956
842.795	0.0162194
842.873	0.0161628
842.951	0.0161289
843.030	0.0160424
843.108	0.0160783
843.186	0.0161119
843.264	0.0161966
843.342	0.0160587
843.420	0.0159654
843.498	0.0160174
843.576	0.0159956
843.655	0.0160271
843.733	0.0159949
843.811	0.0160575
843.889	0.0161030
843.967	0.0159809
844.045	0.0161033
844.123	0.0160836
844.201	0.0161078
844.280	0.0160462
844.358	0.0160899
844.436	0.0162165
844.514	0.0162067
844.592	0.0160261
844.670	0.0160576
844.748	0.0162694
844.826	0.0162063
844.905	0.0160988
844.983	0.0161794
845.061	0.0161760
845.139	0.0161758
845.217	0.0161509
845.295	0.0161270
845.373	0.0162442
845.451	0.0163342
845.530	0.0161416
845.608	0.0162112
845.686	0.0163477
845.764	0.0161679
845.842	0.0160796
845.920	0.0160711
845.998	0.0161677
846.076	0.0161900
846.155	0.0160657
846.233	0.0161520
846.311	0.0162739
846.389	0.0162074
846.467	0.0160735
846.545	0.0162360
846.623	0.0161169
846.701	0.0161491
846.780	0.0162548
846.858	0.0160660
846.936	0.0162234
847.014	0.0162482
847.092	0.0161757
847.170	0.0162199
847.248	0.0163220
847.326	0.0162597
847.405	0.0159541
847.483	0.0160771
847.561	0.0161106
847.639	0.0162282
847.717	0.0160384
847.795	0.0159326
847.873	0.0161877
847.951	0.0161261
848.030	0.0160769
848.108	0.0162570
848.186	0.0160794
848.264	0.0160355
848.342	0.0160629
848.420	0.0160328
848.498	0.0160549
848.576	0.0161629
848.655	0.0161624
848.733	0.0161244
848.811	0.0161996
848.889	0.0160816
848.967	0.0162575
849.045	0.0161556
849.123	0.0161238
849.201	0.0161014
849.280	0.0162962
849.358	0.0162141
849.436	0.0161442
849.514	0.0161515
849.592	0.0162481
849.670	0.0162270
849.748	0.0163502
849.826	0.0159898
849.905	0.0160899
849.983	0.0163200
850.061	0.0162331
850.139	0.0162868
850.217	0.0162724
850.295	0.0162367
850.373	0.0162433
850.451	0.0161828
850.530	0.0162948
850.608	0.0164487
850.686	0.0163318
850.764	0.0161841
850.842	0.0162361
850.920	0.0162798
850.998	0.0162347
851.076	0.0162856
851.155	0.0162025
851.233	0.0161998
851.311	0.0162119
851.389	0.0162524
851.467	0.0161069
851.545	0.0160792
851.623	0.0162641
851.701	0.0160391
851.780	0.0160061
851.858	0.0160634
851.936	0.0161385
852.014	0.0160266
852.092	0.0160669
852.170	0.0160904
852.248	0.0160263
852.326	0.0161407
852.405	0.0161372
852.483	0.0160490
852.561	0.0160445
852.639	0.0162000
852.717	0.0162070
852.795	0.0161990
852.873	0.0160994
852.951	0.0160517
853.030	0.0162517
853.108	0.0162038
853.186	0.0161176
853.264	0.0160004
853.342	0.0161671
853.420	0.0161555
853.498	0.0162431
853.576	0.0161833
853.655	0.0163045
853.733	0.0162814
853.811	0.0161798
853.889	0.0160396
853.967	0.0161293
854.045	0.0162948
854.123	0.0162125
854.201	0.0161780
854.280	0.0160430
854.358	0.0160650
854.436	0.0159258
854.514	0.0161482
854.592	0.0160674
854.670	0.0160322
854.748	0.0160324
854.826	0.0158808
854.905	0.0161836
854.983	0.0161641
855.061	0.0160901
855.139	0.0160443
855.217	0.0160480
855.295	0.0160737
855.373	0.0161723
855.451	0.0160586
855.530	0.0161636
855.608	0.0161057
855.686	0.0162121
855.764	0.0161930
855.842	0.0162812
855.920	0.0161780
855.998	0.0162586
856.076	0.0161951
856.155	0.0163044
856.233	0.0162624
856.311	0.0162492
856.389	0.0163582
856.467	0.0163757
856.545	0.0163266
856.623	0.0162863
856.701	0.0163652
856.780	0.0163617
856.858	0.0163382
856.936	0.0162778
857.014	0.0161688
857.092	0.0162389
857.170	0.0161907
857.248	0.0162567
857.326	0.0161126
857.405	0.0161894
857.483	0.0160598
857.561	0.0159980
857.639	0.0160663
857.717	0.0159737
857.795	0.0160995
857.873	0.0160578
857.951	0.0158752
858.030	0.0158212
858.108	0.0159185
858.186	0.0160232
858.264	0.0160862
858.342	0.0159605
858.420	0.0159260
858.498	0.0159641
858.576	0.0160033
858.655	0.0159509
858.733	0.0161134
858.811	0.0159796
858.889	0.0159931
858.967	0.0159782
859.045	0.0158358
859.123	0.0158627
859.201	0.0160668
859.280	0.0159931
859.358	0.0159191
859.436	0.0159364
859.514	0.0159608
859.592	0.0160381
859.670	0.0160002
859.748	0.0160319
859.826	0.0160535
859.905	0.0160442
859.983	0.0160569
860.061	0.0161481
860.139	0.0162337
860.217	0.0159989
860.295	0.0161019
860.373	0.0160986
860.451	0.0161958
860.530	0.0160903
860.608	0.0161747
860.686	0.0162664
860.764	0.0163305
860.842	0.0162227
860.920	0.0160742
860.998	0.0161649
861.076	0.0161758
861.155	0.0162964
861.233	0.0163049
861.311	0.0162521
861.389	0.0160864
861.467	0.0160940
861.545	0.0161073
861.623	0.0160728
861.701	0.0160033
861.780	0.0160889
861.858	0.0162265
861.936	0.0161312
862.014	0.0160105
862.092	0.0161682
862.170	0.0162392
862.248	0.0160350
862.326	0.0158873
862.405	0.0160511
862.483	0.0159830
862.561	0.0159460
862.639	0.0160683
862.717	0.0161533
862.795	0.0159839
862.873	0.0160685
862.951	0.0161078
863.030	0.0160101
863.108	0.0161379
863.186	0.0160155
863.264	0.0160423
863.342	0.0159771
863.420	0.0161319
863.498	0.0161881
863.576	0.0161274
863.655	0.0159875
863.733	0.0161086
863.811	0.0161790
863.889	0.0162161
863.967	0.0161822
864.045	0.0161084
864.123	0.0160491
864.201	0.0159656
864.280	0.0160382
864.358	0.0159754
864.436	0.0160664
864.514	0.0161066
864.592	0.0161499
864.670	0.0160754
864.748	0.0160822
864.826	0.0161038
864.905	0.0162875
864.983	0.0161208
865.061	0.0159747
865.139	0.0160847
865.217	0.0159510
865.295	0.0160895
865.373	0.0161214
865.451	0.0161418
865.530	0.0161276
865.608	0.0159857
865.686	0.0160139
865.764	0.0161229
865.842	0.0160938
865.920	0.0160888
865.998	0.0161903
866.076	0.0160856
866.155	0.0161238
866.233	0.0161511
866.311	0.0161375
866.389	0.0161353
866.467	0.0159653
866.545	0.0161607
866.623	0.0160600
866.701	0.0161143
866.780	0.0160328
866.858	0.0161039
866.936	0.0161514
867.014	0.0160229
867.092	0.0159832
867.170	0.0160371
867.248	0.0159511
867.326	0.0160699
867.405	0.0159706
867.483	0.0160128
867.561	0.0157710
867.639	0.0159374
867.717	0.0161829
867.795	0.0161409
867.873	0.0161301
867.951	0.0161534
868.030	0.0160987
868.108	0.0160994
868.186	0.0162231
868.264	0.0163290
868.342	0.0161165
868.420	0.0163222
868.498	0.0163492
868.576	0.0163830
868.655	0.0162793
868.733	0.0162289
868.811	0.0162621
868.889	0.0163327
868.967	0.0162880
869.045	0.0160334
869.123	0.0161854
869.201	0.0162828
869.280	0.0161298
869.358	0.0160646
869.436	0.0159335
869.514	0.0161114
869.592	0.0159644
869.670	0.0160156
869.748	0.0159222
869.826	0.0160240
869.905	0.0160174
869.983	0.0161420
870.061	0.0160776
870.139	0.0160136
870.217	0.0159682
870.295	0.0160940
870.373	0.0161707
870.451	0.0161676
870.530	0.0159966
870.608	0.0160249
870.686	0.0160629
870.764	0.0160740
870.842	0.0160321
870.920	0.0158524
870.998	0.0158663
871.076	0.0159025
871.155	0.0159885
871.233	0.0158964
871.311	0.0160075
871.389	0.0159834
871.467	0.0160129
871.545	0.0160610
871.623	0.0160928
871.701	0.0161092
871.780	0.0161201
871.858	0.0163438
871.936	0.0161246
872.014	0.0161064
872.092	0.0161462
872.170	0.0162048
872.248	0.0164046
872.326	0.0163676
872.405	0.0162179
872.483	0.0162698
872.561	0.0162680
872.639	0.0163082
872.717	0.0161620
872.795	0.0161790
872.873	0.0161842
872.951	0.0161252
873.030	0.0161331
873.108	0.0161710
873.186	0.0160482
873.264	0.0161484
873.342	0.0160976
873.420	0.0162041
873.498	0.0161729
873.576	0.0162117
873.655	0.0160017
873.733	0.0160555
873.811	0.0161874
873.889	0.0162018
873.967	0.0160855
874.045	0.0161407
874.123	0.0161859
874.201	0.0160365
874.280	0.0159460
874.358	0.0160162
874.436	0.0160333
874.514	0.0161930
874.592	0.0162118
874.670	0.0160690
874.748	0.0159830
874.826	0.0159594
874.905	0.0160646
874.983	0.0160629
875.061	0.0159130
875.139	0.0159214
875.217	0.0161062
875.295	0.0160185
875.373	0.0159701
875.451	0.0159754
875.530	0.0161113
875.608	0.0160165
875.686	0.0160938
875.764	0.0161861
875.842	0.0160170
875.920	0.0162234
875.998	0.0161538
876.076	0.0160998
876.155	0.0161368
876.233	0.0161292
876.311	0.0162574
876.389	0.0162761
876.467	0.0161734
876.545	0.0160446
876.623	0.0162926
876.701	0.0162041
876.780	0.0161248
876.858	0.0161681
876.936	0.0164024
877.014	0.0161578
877.092	0.0160618
877.170	0.0161761
877.248	0.0161933
877.326	0.0161429
877.405	0.0161645
877.483	0.0161085
877.561	0.0162659
877.639	0.0160691
877.717	0.0160807
877.795	0.0160274
877.873	0.0160567
877.951	0.0160232
878.030	0.0159864
878.108	0.0160940
878.186	0.0159632
878.264	0.0158942
878.342	0.0160729
878.420	0.0160249
878.498	0.0159792
878.576	0.0159553
878.655	0.0160466
878.733	0.0161504
878.811	0.0161530
878.889	0.0162009
878.967	0.0162098
879.045	0.0163092
879.123	0.0162357
879.201	0.0161449
879.280	0.0163081
879.358	0.0161255
879.436	0.0161699
879.514	0.0161535
879.592	0.0161489
879.670	0.0161894
879.748	0.0161230
879.826	0.0161269
879.905	0.0161201
879.983	0.0159415
880.061	0.0160620
880.139	0.0159814
880.217	0.0159867
880.295	0.0160995
880.373	0.0161954
880.451	0.0162315
880.530	0.0161054
880.608	0.0160979
880.686	0.0162313
880.764	0.0162508
880.842	0.0162396
880.920	0.0162083
880.998	0.0162331
881.076	0.0162033
881.155	0.0163127
881.233	0.0162932
881.311	0.0162333
881.389	0.0161910
881.467	0.0163361
881.545	0.0163587
881.623	0.0163340
881.701	0.0163206
881.780	0.0161743
881.858	0.0161819
881.936	0.0162838
882.014	0.0161707
882.092	0.0161033
882.170	0.0160650
882.248	0.0160827
882.326	0.0159683
882.405	0.0158545
882.483	0.0157635
882.561	0.0157647
882.639	0.0156459
882.717	0.0157398
882.795	0.0157046
882.873	0.0155980
882.951	0.0155917
883.030	0.0155914
883.108	0.0154119
883.186	0.0153759
883.264	0.0156557
883.342	0.0157324
883.420	0.0156847
883.498	0.0158045
883.576	0.0159879
883.655	0.0159557
883.733	0.0160951
883.811	0.0163526
883.889	0.0164415
883.967	0.0165108
884.045	0.0164880
884.123	0.0166022
884.201	0.0167888
884.280	0.0168408
884.358	0.0168626
884.436	0.0169386
884.514	0.0169138
884.592	0.0168072
884.670	0.0167468
884.748	0.0167484
884.826	0.0166489
884.905	0.0164688
884.983	0.0165316
885.061	0.0163948
885.139	0.0161932
885.217	0.0162201
885.295	0.0161230
885.373	0.0159052
885.451	0.0157667
885.530	0.0157500
885.608	0.0156077
885.686	0.0155389
885.764	0.0156037
885.842	0.0154793
885.920	0.0155862
885.998	0.0155000
886.076	0.0154749
886.155	0.0154132
886.233	0.0153796
886.311	0.0155405
886.389	0.0154448
886.467	0.0155386
886.545	0.0156072
886.623	0.0157066
886.701	0.0157883
886.780	0.0157668
886.858	0.0157856
886.936	0.0160345
887.014	0.0160153
887.092	0.0161922
887.170	0.0161195
887.248	0.0164239
887.326	0.0165475
887.405	0.0165164
887.483	0.0165710
887.561	0.0165826
887.639	0.0167588
887.717	0.0167239
887.795	0.0167155
887.873	0.0167178
887.951	0.0166843
888.030	0.0167086
888.108	0.0166256
888.186	0.0166843
888.264	0.0165002
888.342	0.0164527
888.420	0.0163102
888.498	0.0162515
888.576	0.0163453
888.655	0.0159859
888.733	0.0158812
888.811	0.0158437
888.889	0.0158228
888.967	0.0157982
889.045	0.0157388
889.123	0.0157922
889.201	0.0157242
889.280	0.0155985
889.358	0.0156484
889.436	0.0157294
889.514	0.0155510
889.592	0.0155005
889.670	0.0155934
889.748	0.0155640
889.826	0.0156496
889.905	0.0155770
889.983	0.0154949
890.061	0.0155836
890.139	0.0156586
890.217	0.0158028
890.295	0.0158477
890.373	0.0158859
890.451	0.0159987
890.530	0.0160861
890.608	0.0162067
890.686	0.0161436
890.764	0.0162938
890.842	0.0163313
890.920	0.0163966
890.998	0.0164198
891.076	0.0163338
891.155	0.0163773
891.233	0.0165383
891.311	0.0164875
891.389	0.0164766
891.467	0.0165687
891.545	0.0164647
891.623	0.0164517
891.701	0.0163140
891.780	0.0163041
891.858	0.0163979
891.936	0.0163173
892.014	0.0163776
892.092	0.0160694
892.170	0.0160421
892.248	0.0161132
892.326	0.0160556
892.405	0.0159405
892.483	0.0158609
892.561	0.0159356
892.639	0.0158981
892.717	0.0157575
892.795	0.0157504
892.873	0.0158219
892.951	0.0158559
893.030	0.0158338
893.108	0.0157989
893.186	0.0157726
893.264	0.0158450
893.342	0.0158165
893.420	0.0158115
893.498	0.0158634
893.576	0.0161092
893.655	0.0161050
893.733	0.0160939
893.811	0.0161089
893.889	0.0162059
893.967	0.0163000
894.045	0.0163158
894.123	0.0161146
894.201	0.0163366
894.280	0.0163461
894.358	0.0161875
894.436	0.0162363
894.514	0.0163121
894.592	0.0163095
894.670	0.0162941
894.748	0.0162606
894.826	0.0162726
894.905	0.0162380
894.983	0.0161854
895.061	0.0161714
895.139	0.0161153
895.217	0.0161253
895.295	0.0160402
895.373	0.0160851
895.451	0.0161266
895.530	0.0160992
895.608	0.0161765
895.686	0.0161430
895.764	0.0161276
895.842	0.0160551
895.920	0.0161224
895.998	0.0160835
896.076	0.0161848
896.155	0.0162813
896.233	0.0160993
896.311	0.0161326
896.389	0.0161563
896.467	0.0161247
896.545	0.0160043
896.623	0.0161871
896.701	0.0161086
896.780	0.0160995
896.858	0.0162258
896.936	0.0161298
897.014	0.0162193
897.092	0.0161439
897.170	0.0160429
897.248	0.0161555
897.326	0.0160726
897.405	0.0160857
897.483	0.0162348
897.561	0.0161382
897.639	0.0161154
897.717	0.0160851
897.795	0.0160497
897.873	0.0161462
897.951	0.0161420
898.030	0.0160856
898.108	0.0161646
898.186	0.0161508
898.264	0.0160787
898.342	0.0160474
898.420	0.0160561
898.498	0.0159704
898.576	0.0161341
898.655	0.0161791
898.733	0.0160662
898.811	0.0160793
898.889	0.0160928
898.967	0.0161584
899.045	0.0161935
899.123	0.0159849
899.201	0.0161412
899.280	0.0160914
899.358	0.0160377
899.436	0.0161972
899.514	0.0162221
899.592	0.0162527
899.670	0.0161666
899.748	0.0163541
899.826	0.0163518
899.905	0.0162193
899.983	0.0164144
900.061	0.0163432
900.139	0.0163766
900.217	0.0163931
900.295	0.0163686
900.373	0.0162327
900.451	0.0162843
900.530	0.0162854
900.608	0.0162150
900.686	0.0161170
900.764	0.0161446
900.842	0.0160818
900.920	0.0161304
900.998	0.0161803
901.076	0.0160243
901.155	0.0160947
901.233	0.0162016
901.311	0.0159110
901.389	0.0160983
901.467	0.0160526
901.545	0.0160203
901.623	0.0160948
901.701	0.0159933
901.780	0.0160320
901.858	0.0159987
901.936	0.0160106
902.014	0.0159127
902.092	0.0159951
902.170	0.0160478
902.248	0.0159683
902.326	0.0160905
902.405	0.0159827
902.483	0.0158805
902.561	0.0157455
902.639	0.0159507
902.717	0.0159731
902.795	0.0159090
902.873	0.0160772
902.951	0.0160134
903.030	0.0159247
903.108	0.0160551
903.186	0.0159447
903.264	0.0162463
903.342	0.0161780
903.420	0.0161157
903.498	0.0162184
903.576	0.0163451
903.655	0.0163751
903.733	0.0163159
903.811	0.0163104
903.889	0.0164065
903.967	0.0162837
904.045	0.0163779
904.123	0.0164957
904.201	0.0163597
904.280	0.0164037
904.358	0.0164898
904.436	0.0165501
904.514	0.0164825
904.592	0.0163437
904.670	0.0164544
904.748	0.0163721
904.826	0.0162686
904.905	0.0163865
904.983	0.0162028
905.061	0.0161149
905.139	0.0162418
905.217	0.0161416
905.295	0.0160634
905.373	0.0159920
905.451	0.0159002
905.530	0.0158561
905.608	0.0159973
905.686	0.0159379
905.764	0.0158331
905.842	0.0159934
905.920	0.0158452
905.998	0.0160014
906.076	0.0160410
906.155	0.0161908
906.233	0.0161707
906.311	0.0161550
906.389	0.0161435
906.467	0.0161192
906.545	0.0162806
906.623	0.0163210
906.701	0.0161385
906.780	0.0160176
906.858	0.0161343
906.936	0.0162109
907.014	0.0161650
907.092	0.0161955
907.170	0.0162078
907.248	0.0160414
907.326	0.0161243
907.405	0.0161671
907.483	0.0162624
907.561	0.0161656
907.639	0.0160696
907.717	0.0163219
907.795	0.0162502
907.873	0.0163239
907.951	0.0163937
908.030	0.0164583
908.108	0.0164566
908.186	0.0164180
908.264	0.0163251
908.342	0.0164081
908.420	0.0164391
908.498	0.0164615
908.576	0.0164334
908.655	0.0162151
908.733	0.0160729
908.811	0.0159478
908.889	0.0158477
908.967	0.0158801
909.045	0.0158658
909.123	0.0156394
909.201	0.0156792
909.280	0.0156988
909.358	0.0157008
909.436	0.0157103
909.514	0.0157616
909.592	0.0158454
909.670	0.0158672
909.748	0.0161324
909.826	0.0161471
909.905	0.0160989
909.983	0.0160807
910.061	0.0160787
910.139	0.0161444
910.217	0.0161053
910.295	0.0162226
910.373	0.0161050
910.451	0.0159624
910.530	0.0161422
910.608	0.0159406
910.686	0.0158871
910.764	0.0159274
910.842	0.0159537
910.920	0.0159630
910.998	0.0160416
911.076	0.0160571
911.155	0.0158312
911.233	0.0160717
911.311	0.0162521
911.389	0.0161877
911.467	0.0161320
911.545	0.0162473
911.623	0.0161665
911.701	0.0162779
911.780	0.0162965
911.858	0.0164407
911.936	0.0164819
912.014	0.0163208
912.092	0.0164069
912.170	0.0163805
912.248	0.0163184
912.326	0.0162147
912.405	0.0164266
912.483	0.0163110
912.561	0.0161452
912.639	0.0161433
912.717	0.0162315
912.795	0.0162115
912.873	0.0162554
912.951	0.0161608
913.030	0.0162547
913.108	0.0163446
913.186	0.0163057
913.264	0.0160871
913.342	0.0161599
913.420	0.0161841
913.498	0.0160202
913.576	0.0159893
913.655	0.0161942
913.733	0.0159403
913.811	0.0159070
913.889	0.0160060
913.967	0.0158310
914.045	0.0158889
914.123	0.0159764
914.201	0.0158379
914.280	0.0158766
914.358	0.0158860
914.436	0.0158475
914.514	0.0159040
914.592	0.0158450
914.670	0.0159910
914.748	0.0159454
914.826	0.0159855
914.905	0.0159226
914.983	0.0160765
915.061	0.0159705
915.139	0.0160878
915.217	0.0162673
915.295	0.0160043
915.373	0.0160242
915.451	0.0162103
915.530	0.0160125
915.608	0.0160231
915.686	0.0161603
915.764	0.0160835
915.842	0.0161627
915.920	0.0162672
915.998	0.0161398
916.076	0.0162778
916.155	0.0163594
916.233	0.0164452
916.311	0.0163281
916.389	0.0163298
916.467	0.0164072
916.545	0.0162742
916.623	0.0163172
916.701	0.0162350
916.780	0.0162397
916.858	0.0162250
916.936	0.0161658
917.014	0.0160294
917.092	0.0161727
917.170	0.0163422
917.248	0.0162823
917.326	0.0161366
917.405	0.0161615
917.483	0.0163169
917.561	0.0161726
917.639	0.0160390
917.717	0.0161018
917.795	0.0161005
917.873	0.0160962
917.951	0.0159933
918.030	0.0159818
918.108	0.0160246
918.186	0.0160966
918.264	0.0160138
918.342	0.0158284
918.420	0.0159594
918.498	0.0159599
918.576	0.0161489
918.655	0.0160920
918.733	0.0161029
918.811	0.0160627
918.889	0.0161574
918.967	0.0162663
919.045	0.0161034
919.123	0.0162067
919.201	0.0162294
919.280	0.0160872
919.358	0.0162920
919.436	0.0163449
919.514	0.0162160
919.592	0.0162574
919.670	0.0163506
919.748	0.0162975
919.826	0.0162270
919.905	0.0162316
919.983	0.0163626
920.061	0.0163177
920.139	0.0162952
920.217	0.0161362
920.295	0.0162129
920.373	0.0162605
920.451	0.0161246
920.530	0.0162116
920.608	0.0160895
920.686	0.0160877
920.764	0.0161710
920.842	0.0161934
920.920	0.0161226
920.998	0.0162981
921.076	0.0161450
921.155	0.0162901
921.233	0.0162198
921.311	0.0162632
921.389	0.0162421
921.467	0.0162047
921.545	0.0161556
921.623	0.0161906
921.701	0.0162803
921.780	0.0161501
921.858	0.0160503
921.936	0.0161082
922.014	0.0163527
922.092	0.0163438
922.170	0.0162000
922.248	0.0162517
922.326	0.0161334
922.405	0.0163023
922.483	0.0163257
922.561	0.0162314
922.639	0.0163239
922.717	0.0163570
922.795	0.0162765
922.873	0.0163139
922.951	0.0162271
923.030	0.0162837
923.108	0.0161449
923.186	0.0161866
923.264	0.0162794
923.342	0.0161649
923.420	0.0160812
923.498	0.0161003
923.576	0.0161535
923.655	0.0161163
923.733	0.0161765
923.811	0.0160798
923.889	0.0161696
923.967	0.0159915
924.045	0.0160535
924.123	0.0161895
924.201	0.0160981
924.280	0.0160530
924.358	0.0161505
924.436	0.0161928
924.514	0.0161669
924.592	0.0162081
924.670	0.0161770
924.748	0.0161040
924.826	0.0161273
924.905	0.0161205
924.983	0.0161909
925.061	0.0161925
925.139	0.0162553
925.217	0.0161202
925.295	0.0161423
925.373	0.0160635
925.451	0.0161765
925.530	0.0162095
925.608	0.0161158
925.686	0.0160731
925.764	0.0160204
925.842	0.0161523
925.920	0.0161365
925.998	0.0161123
926.076	0.0160751
926.155	0.0161845
926.233	0.0160715
926.311	0.0161493
926.389	0.0161626
926.467	0.0160880
926.545	0.0161867
926.623	0.0162064
926.701	0.0161604
926.780	0.0162538
926.858	0.0163139
926.936	0.0163166
927.014	0.0162431
927.092	0.0162260
927.170	0.0163473
927.248	0.0161932
927.326	0.0162287
927.405	0.0163712
927.483	0.0161568
927.561	0.0161047
927.639	0.0162425
927.717	0.0161230
927.795	0.0160500
927.873	0.0160532
927.951	0.0160702
928.030	0.0159113
928.108	0.0161508
928.186	0.0160395
928.264	0.0160025
928.342	0.0159879
928.420	0.0160018
928.498	0.0159438
928.576	0.0161214
928.655	0.0160461
928.733	0.0160506
928.811	0.0162561
928.889	0.0161752
928.967	0.0161617
929.045	0.0163749
929.123	0.0162605
929.201	0.0162143
929.280	0.0163089
929.358	0.0162601
929.436	0.0161839
929.514	0.0163255
929.592	0.0164201
929.670	0.0161158
929.748	0.0161592
929.826	0.0161581
929.905	0.0161172
929.983	0.0160933
930.061	0.0160761
930.139	0.0161215
930.217	0.0160267
930.295	0.0159993
930.373	0.0159429
930.451	0.0160751
930.530	0.0159272
930.608	0.0161896
930.686	0.0161942
930.764	0.0160529
930.842	0.0160711
930.920	0.0160236
930.998	0.0159988
931.076	0.0161028
931.155	0.0161304
931.233	0.0161632
931.311	0.0161816
931.389	0.0161185
931.467	0.0161512
931.545	0.0163005
931.623	0.0161567
931.701	0.0161272
931.780	0.0161204
931.858	0.0160915
931.936	0.0162035
932.014	0.0163120
932.092	0.0162007
932.170	0.0162218
932.248	0.0161189
932.326	0.0161124
932.405	0.0161504
932.483	0.0161362
932.561	0.0160711
932.639	0.0161389
932.717	0.0159775
932.795	0.0160311
932.873	0.0160844
932.951	0.0161391
933.030	0.0159644
933.108	0.0160015
933.186	0.0159568
933.264	0.0159092
933.342	0.0159631
933.420	0.0160387
933.498	0.0159618
933.576	0.0160421
933.655	0.0160316
933.733	0.0159330
933.811	0.0160250
933.889	0.0160136
933.967	0.0160529
934.045	0.0162056
934.123	0.0160947
934.201	0.0159988
934.280	0.0160169
934.358	0.0161903
934.436	0.0160443
934.514	0.0161295
934.592	0.0162151
934.670	0.0160991
934.748	0.0162162
934.826	0.0161501
934.905	0.0162289
934.983	0.0161596
935.061	0.0161168
935.139	0.0162738
935.217	0.0161346
935.295	0.0162257
935.373	0.0160421
935.451	0.0161176
935.530	0.0161207
935.608	0.0162173
935.686	0.0161076
935.764	0.0160582
935.842	0.0159848
935.920	0.0161288
935.998	0.0161124
936.076	0.0161865
936.155	0.0159872
936.233	0.0159832
936.311	0.0160467
936.389	0.0161166
936.467	0.0161491
936.545	0.0161587
936.623	0.0161484
936.701	0.0161198
936.780	0.0160653
936.858	0.0161315
936.936	0.0160841
937.014	0.0162325
937.092	0.0160771
937.170	0.0160754
937.248	0.0163152
937.326	0.0161269
937.405	0.0161436
937.483	0.0161816
937.561	0.0161526
937.639	0.0162402
937.717	0.0162225
937.795	0.0162373
937.873	0.0163990
937.951	0.0161249
938.030	0.0162717
938.108	0.0162061
938.186	0.0161518
938.264	0.0161456
938.342	0.0160868
938.420	0.0160586
938.498	0.0159832
938.576	0.0159422
938.655	0.0159440
938.733	0.0160506
938.811	0.0160830
938.889	0.0157565
938.967	0.0158387
939.045	0.0158578
939.123	0.0157914
939.201	0.0158946
939.280	0.0157419
939.358	0.0158745
939.436	0.0159440
939.514	0.0159511
939.592	0.0160164
939.670	0.0159557
939.748	0.0159766
939.826	0.0161438
939.905	0.0161066
939.983	0.0162220
940.061	0.0162421
940.139	0.0164140
940.217	0.0162962
940.295	0.0163658
940.373	0.0163585
940.451	0.0163648
940.530	0.0163026
940.608	0.0164651
940.686	0.0163570
940.764	0.0164816
940.842	0.0163466
940.920	0.0163689
940.998	0.0162686
941.076	0.0163374
941.155	0.0161993
941.233	0.0162441
941.311	0.0162914
941.389	0.0162907
941.467	0.0162160
941.545	0.0161918
941.623	0.0161092
941.701	0.0161251
941.780	0.0161650
941.858	0.0160144
941.936	0.0160204
942.014	0.0159724
942.092	0.0158691
942.170	0.0158946
942.248	0.0158526
942.326	0.0158608
942.405	0.0159824
942.483	0.0160085
942.561	0.0159751
942.639	0.0160603
942.717	0.0159079
942.795	0.0159678
942.873	0.0160481
942.951	0.0160960
943.030	0.0160715
943.108	0.0161111
943.186	0.0160664
943.264	0.0161061
943.342	0.0163418
943.420	0.0162258
943.498	0.0164265
943.576	0.0164133
943.655	0.0163261
943.733	0.0163252
943.811	0.0163379
943.889	0.0162563
943.967	0.0163536
944.045	0.0163200
944.123	0.0163044
944.201	0.0163554
944.280	0.0162000
944.358	0.0163158
944.436	0.0162633
944.514	0.0161803
944.592	0.0162303
944.670	0.0162267
944.748	0.0162663
944.826	0.0162399
944.905	0.0160143
944.983	0.0162955
945.061	0.0161615
945.139	0.0160226
945.217	0.0161342
945.295	0.0161804
945.373	0.0160178
945.451	0.0161274
945.530	0.0160197
945.608	0.0160115
945.686	0.0160886
945.764	0.0160418
945.842	0.0159337
945.920	0.0158669
945.998	0.0159698
946.076	0.0160020
946.155	0.0159533
946.233	0.0160050
946.311	0.0160136
946.389	0.0159761
946.467	0.0159942
946.545	0.0161111
946.623	0.0159423
946.701	0.0158826
946.780	0.0161479
946.858	0.0161713
946.936	0.0163297
947.014	0.0162494
947.092	0.0162518
947.170	0.0162674
947.248	0.0162375
947.326	0.0163474
947.405	0.0163229
947.483	0.0163045
947.561	0.0164632
947.639	0.0163432
947.717	0.0164528
947.795	0.0163926
947.873	0.0162741
947.951	0.0162889
948.030	0.0163860
948.108	0.0162108
948.186	0.0161257
948.264	0.0163563
948.342	0.0162138
948.420	0.0162299
948.498	0.0161539
948.576	0.0162425
948.655	0.0163132
948.733	0.0161530
948.811	0.0160179
948.889	0.0162499
948.967	0.0161494
949.045	0.0160556
949.123	0.0160876
949.201	0.0161206
949.280	0.0160722
949.358	0.0162408
949.436	0.0161271
949.514	0.0160827
949.592	0.0160899
949.670	0.0160882
949.748	0.0160282
949.826	0.0159639
949.905	0.0159749
949.983	0.0160240
950.061	0.0161123
950.139	0.0160280
950.217	0.0159608
950.295	0.0159601
950.373	0.0160631
950.451	0.0161877
950.530	0.0160165
950.608	0.0160126
950.686	0.0161407
950.764	0.0161991
950.842	0.0162058
950.920	0.0161404
950.998	0.0162470
951.076	0.0162617
951.155	0.0163301
951.233	0.0163050
951.311	0.0164050
951.389	0.0163150
951.467	0.0163918
951.545	0.0164086
951.623	0.0164262
951.701	0.0162617
951.780	0.0162622
951.858	0.0162447
951.936	0.0162373
952.014	0.0162321
952.092	0.0159605
952.170	0.0160934
952.248	0.0161746
952.326	0.0161215
952.405	0.0159073
952.483	0.0159276
952.561	0.0159200
952.639	0.0159664
952.717	0.0160533
952.795	0.0160102
952.873	0.0162027
952.951	0.0162469
953.030	0.0161279
953.108	0.0160928
953.186	0.0159325
953.264	0.0162143
953.342	0.0161097
953.420	0.0161085
953.498	0.0162540
953.576	0.0161354
953.655	0.0161231
953.733	0.0161481
953.811	0.0160799
953.889	0.0160577
953.967	0.0160207
954.045	0.0161476
954.123	0.0160948
954.201	0.0159483
954.280	0.0160027
954.358	0.0160593
954.436	0.0160961
954.514	0.0161606
954.592	0.0160340
954.670	0.0160659
954.748	0.0161245
954.826	0.0161744
954.905	0.0161465
954.983	0.0162227
955.061	0.0161729
955.139	0.0162152
955.217	0.0161816
955.295	0.0162716
955.373	0.0163556
955.451	0.0162103
955.530	0.0163089
955.608	0.0160163
955.686	0.0161372
955.764	0.0161326
955.842	0.0160802
955.920	0.0160689
955.998	0.0161536
956.076	0.0160648
956.155	0.0160670
956.233	0.0160606
956.311	0.0159248
956.389	0.0161504
956.467	0.0161653
956.545	0.0160879
956.623	0.0160192
956.701	0.0161274
956.780	0.0162374
956.858	0.0160523
956.936	0.0161848
957.014	0.0162547
957.092	0.0161136
957.170	0.0161617
957.248	0.0160249
957.326	0.0159953
957.405	0.0160628
957.483	0.0160689
957.561	0.0159986
957.639	0.0160215
957.717	0.0159595
957.795	0.0159663
957.873	0.0158816
957.951	0.0160808
958.030	0.0160976
958.108	0.0160065
958.186	0.0159471
958.264	0.0159424
958.342	0.0160329
958.420	0.0159626
958.498	0.0160400
958.576	0.0161597
958.655	0.0161809
958.733	0.0163091
958.811	0.0161784
958.889	0.0163049
958.967	0.0163683
959.045	0.0161927
959.123	0.0162144
959.201	0.0163287
959.280	0.0162803
959.358	0.0163892
959.436	0.0162137
959.514	0.0162222
959.592	0.0163180
959.670	0.0163525
959.748	0.0162835
959.826	0.0161221
959.905	0.0161327
