05/17/2022	16:38:23	Ver.	4.1	UNKNOWN
Optical Delay	639.989416	Delta X		0.078125	Sweeps	1	Scan Rate	0/0
Coordinates	Axis 1	NaN	Axis 2	NaN	Axis 3	NaN	Axis 4	NaN	Axis 5	NaN	Axis 6	0.000000
TX Power	0.000000	RX Power	0.000000

639.989	0.0159232
640.068	0.0158341
640.146	0.0159707
640.224	0.0158012
640.302	0.0158949
640.380	0.0160422
640.458	0.0159756
640.536	0.0157590
640.614	0.0160135
640.693	0.0158711
640.771	0.0158019
640.849	0.0159995
640.927	0.0160038
641.005	0.0159745
641.083	0.0159769
641.161	0.0158945
641.239	0.0159821
641.318	0.0158938
641.396	0.0158030
641.474	0.0160158
641.552	0.0159483
641.630	0.0160322
641.708	0.0158479
641.786	0.0160107
641.864	0.0159846
641.943	0.0158884
642.021	0.0159689
642.099	0.0160356
642.177	0.0158032
642.255	0.0159633
642.333	0.0159564
642.411	0.0159799
642.489	0.0159304
642.568	0.0158832
642.646	0.0159296
642.724	0.0159939
642.802	0.0160038
642.880	0.0159521
642.958	0.0158683
643.036	0.0160740
643.114	0.0159756
643.193	0.0158709
643.271	0.0160472
643.349	0.0158928
643.427	0.0158326
643.505	0.0158627
643.583	0.0157545
643.661	0.0159977
643.739	0.0159619
643.818	0.0158620
643.896	0.0159480
643.974	0.0159205
644.052	0.0158066
644.130	0.0158704
644.208	0.0158948
644.286	0.0159182
644.364	0.0158665
644.443	0.0159200
644.521	0.0159284
644.599	0.0159163
644.677	0.0160226
644.755	0.0159824
644.833	0.0159301
644.911	0.0159405
644.989	0.0158881
645.068	0.0158662
645.146	0.0159985
645.224	0.0160339
645.302	0.0159781
645.380	0.0158358
645.458	0.0159809
645.536	0.0158695
645.614	0.0159490
645.693	0.0157314
645.771	0.0159999
645.849	0.0160131
645.927	0.0159285
646.005	0.0160138
646.083	0.0160236
646.161	0.0159700
646.239	0.0158442
646.318	0.0158775
646.396	0.0160168
646.474	0.0159104
646.552	0.0160320
646.630	0.0160741
646.708	0.0159531
646.786	0.0159203
646.864	0.0159718
646.943	0.0158815
647.021	0.0160475
647.099	0.0159193
647.177	0.0158496
647.255	0.0159195
647.333	0.0160410
647.411	0.0160036
647.489	0.0159147
647.568	0.0158714
647.646	0.0159846
647.724	0.0160446
647.802	0.0158961
647.880	0.0160703
647.958	0.0159605
648.036	0.0159041
648.114	0.0160437
648.193	0.0159706
648.271	0.0157273
648.349	0.0158952
648.427	0.0159219
648.505	0.0159092
648.583	0.0158710
648.661	0.0161295
648.739	0.0160490
648.818	0.0160069
648.896	0.0160059
648.974	0.0158891
649.052	0.0159413
649.130	0.0160693
649.208	0.0158386
649.286	0.0159010
649.364	0.0160988
649.443	0.0158449
649.521	0.0158483
649.599	0.0158839
649.677	0.0159693
649.755	0.0158234
649.833	0.0158379
649.911	0.0159203
649.989	0.0158875
650.068	0.0158786
650.146	0.0159914
650.224	0.0158961
650.302	0.0160556
650.380	0.0159433
650.458	0.0160381
650.536	0.0159866
650.614	0.0159427
650.693	0.0158739
650.771	0.0159475
650.849	0.0158698
650.927	0.0159123
651.005	0.0159511
651.083	0.0159049
651.161	0.0158882
651.239	0.0159210
651.318	0.0158998
651.396	0.0158997
651.474	0.0159238
651.552	0.0160828
651.630	0.0159812
651.708	0.0159872
651.786	0.0158127
651.864	0.0160258
651.943	0.0159773
652.021	0.0159877
652.099	0.0159231
652.177	0.0159033
652.255	0.0160008
652.333	0.0160183
652.411	0.0159679
652.489	0.0159547
652.568	0.0160574
652.646	0.0158316
652.724	0.0158056
652.802	0.0158789
652.880	0.0160159
652.958	0.0159348
653.036	0.0158620
653.114	0.0158990
653.193	0.0159953
653.271	0.0161079
653.349	0.0158547
653.427	0.0159114
653.505	0.0159521
653.583	0.0160405
653.661	0.0159212
653.739	0.0160603
653.818	0.0160326
653.896	0.0160464
653.974	0.0159659
654.052	0.0157639
654.130	0.0160044
654.208	0.0159894
654.286	0.0160980
654.364	0.0158404
654.443	0.0159109
654.521	0.0158656
654.599	0.0159246
654.677	0.0158672
654.755	0.0158358
654.833	0.0160316
654.911	0.0159670
654.989	0.0159732
655.068	0.0159519
655.146	0.0158820
655.224	0.0159489
655.302	0.0160798
655.380	0.0158466
655.458	0.0159539
655.536	0.0159035
655.614	0.0158736
655.693	0.0158989
655.771	0.0159557
655.849	0.0159417
655.927	0.0159123
656.005	0.0158599
656.083	0.0160381
656.161	0.0160439
656.239	0.0158308
656.318	0.0159775
656.396	0.0158920
656.474	0.0159382
656.552	0.0158810
656.630	0.0158150
656.708	0.0158731
656.786	0.0158140
656.864	0.0158313
656.943	0.0159705
657.021	0.0159061
657.099	0.0159606
657.177	0.0159515
657.255	0.0157548
657.333	0.0158260
657.411	0.0158821
657.489	0.0159627
657.568	0.0159648
657.646	0.0157690
657.724	0.0160090
657.802	0.0159959
657.880	0.0159752
657.958	0.0158952
658.036	0.0158829
658.114	0.0159569
658.193	0.0157983
658.271	0.0158011
658.349	0.0158984
658.427	0.0159926
658.505	0.0159181
658.583	0.0157831
658.661	0.0158340
658.739	0.0159690
658.818	0.0161001
658.896	0.0157725
658.974	0.0158646
659.052	0.0159418
659.130	0.0158502
659.208	0.0159852
659.286	0.0159737
659.364	0.0158564
659.443	0.0158842
659.521	0.0158676
659.599	0.0157817
659.677	0.0158305
659.755	0.0158956
659.833	0.0159171
659.911	0.0158711
659.989	0.0158845
660.068	0.0158972
660.146	0.0158376
660.224	0.0159683
660.302	0.0158887
660.380	0.0158248
660.458	0.0158465
660.536	0.0158066
660.614	0.0159553
660.693	0.0157948
660.771	0.0159263
660.849	0.0160431
660.927	0.0159091
661.005	0.0159659
661.083	0.0158881
661.161	0.0158260
661.239	0.0157835
661.318	0.0158829
661.396	0.0159825
661.474	0.0159456
661.552	0.0158694
661.630	0.0158061
661.708	0.0159283
661.786	0.0159148
661.864	0.0160117
661.943	0.0159369
662.021	0.0158208
662.099	0.0160705
662.177	0.0158974
662.255	0.0158116
662.333	0.0158887
662.411	0.0159630
662.489	0.0158993
662.568	0.0159015
662.646	0.0158953
662.724	0.0159445
662.802	0.0159187
662.880	0.0159760
662.958	0.0158542
663.036	0.0158716
663.114	0.0157590
663.193	0.0158498
663.271	0.0158130
663.349	0.0159012
663.427	0.0160081
663.505	0.0159836
663.583	0.0160144
663.661	0.0159111
663.739	0.0159506
663.818	0.0159178
663.896	0.0159274
663.974	0.0159360
664.052	0.0160686
664.130	0.0159638
664.208	0.0157843
664.286	0.0160197
664.364	0.0158706
664.443	0.0159694
664.521	0.0159461
664.599	0.0158570
664.677	0.0160201
664.755	0.0158904
664.833	0.0158123
664.911	0.0159285
664.989	0.0158993
665.068	0.0160876
665.146	0.0160775
665.224	0.0158549
665.302	0.0159184
665.380	0.0158994
665.458	0.0158595
665.536	0.0160409
665.614	0.0159158
665.693	0.0158570
665.771	0.0159382
665.849	0.0159596
665.927	0.0159581
666.005	0.0159374
666.083	0.0159066
666.161	0.0159812
666.239	0.0159913
666.318	0.0159502
666.396	0.0159038
666.474	0.0159579
666.552	0.0160352
666.630	0.0159155
666.708	0.0160045
666.786	0.0159433
666.864	0.0159472
666.943	0.0157388
667.021	0.0160854
667.099	0.0159980
667.177	0.0159048
667.255	0.0158356
667.333	0.0159753
667.411	0.0158291
667.489	0.0158176
667.568	0.0159232
667.646	0.0159798
667.724	0.0158578
667.802	0.0159328
667.880	0.0159609
667.958	0.0160416
668.036	0.0160626
668.114	0.0161220
668.193	0.0160277
668.271	0.0160494
668.349	0.0158888
668.427	0.0160734
668.505	0.0159530
668.583	0.0160309
668.661	0.0160694
668.739	0.0159946
668.818	0.0159404
668.896	0.0159457
668.974	0.0160045
669.052	0.0159715
669.130	0.0158853
669.208	0.0160281
669.286	0.0159660
669.364	0.0159753
669.443	0.0159076
669.521	0.0160071
669.599	0.0158648
669.677	0.0160031
669.755	0.0159059
669.833	0.0159451
669.911	0.0160414
669.989	0.0158931
670.068	0.0159985
670.146	0.0158970
670.224	0.0159122
670.302	0.0158336
670.380	0.0159224
670.458	0.0160191
670.536	0.0158064
670.614	0.0159404
670.693	0.0159554
670.771	0.0159046
670.849	0.0159673
670.927	0.0159000
671.005	0.0159010
671.083	0.0159500
671.161	0.0159946
671.239	0.0160390
671.318	0.0160783
671.396	0.0159013
671.474	0.0159483
671.552	0.0159836
671.630	0.0159794
671.708	0.0159188
671.786	0.0159075
671.864	0.0159370
671.943	0.0158532
672.021	0.0158738
672.099	0.0157805
672.177	0.0159047
672.255	0.0159032
672.333	0.0159672
672.411	0.0159366
672.489	0.0158276
672.568	0.0158315
672.646	0.0158121
672.724	0.0158867
672.802	0.0158095
672.880	0.0158943
672.958	0.0158189
673.036	0.0161121
673.114	0.0159013
673.193	0.0158982
673.271	0.0160241
673.349	0.0158916
673.427	0.0157922
673.505	0.0158701
673.583	0.0158598
673.661	0.0159599
673.739	0.0159322
673.818	0.0159118
673.896	0.0160114
673.974	0.0159496
674.052	0.0159260
674.130	0.0160119
674.208	0.0158307
674.286	0.0159133
674.364	0.0159889
674.443	0.0159025
674.521	0.0159183
674.599	0.0159470
674.677	0.0160407
674.755	0.0159386
674.833	0.0159042
674.911	0.0157688
674.989	0.0159232
675.068	0.0160400
675.146	0.0160719
675.224	0.0158658
675.302	0.0159482
675.380	0.0159734
675.458	0.0159513
675.536	0.0159220
675.614	0.0159143
675.693	0.0158766
675.771	0.0159091
675.849	0.0160023
675.927	0.0158291
676.005	0.0159014
676.083	0.0158683
676.161	0.0159220
676.239	0.0160134
676.318	0.0158929
676.396	0.0158488
676.474	0.0158868
676.552	0.0159615
676.630	0.0159290
676.708	0.0159004
676.786	0.0158430
676.864	0.0158613
676.943	0.0158504
677.021	0.0158632
677.099	0.0159997
677.177	0.0159101
677.255	0.0158284
677.333	0.0157726
677.411	0.0158805
677.489	0.0159735
677.568	0.0158345
677.646	0.0158446
677.724	0.0159438
677.802	0.0158628
677.880	0.0158431
677.958	0.0158009
678.036	0.0160181
678.114	0.0159309
678.193	0.0158585
678.271	0.0157504
678.349	0.0159467
678.427	0.0160126
678.505	0.0160049
678.583	0.0159447
678.661	0.0157819
678.739	0.0159752
678.818	0.0159628
678.896	0.0159258
678.974	0.0159969
679.052	0.0159023
679.130	0.0159366
679.208	0.0158913
679.286	0.0158649
679.364	0.0159229
679.443	0.0158309
679.521	0.0157498
679.599	0.0158813
679.677	0.0160402
679.755	0.0158039
679.833	0.0157337
679.911	0.0157974
679.989	0.0158930
680.068	0.0157967
680.146	0.0159318
680.224	0.0159999
680.302	0.0159251
680.380	0.0158717
680.458	0.0160016
680.536	0.0159592
680.614	0.0159093
680.693	0.0159332
680.771	0.0159283
680.849	0.0159201
680.927	0.0158865
681.005	0.0158410
681.083	0.0159247
681.161	0.0158994
681.239	0.0158713
681.318	0.0158549
681.396	0.0158232
681.474	0.0159122
681.552	0.0160014
681.630	0.0159456
681.708	0.0160268
681.786	0.0159666
681.864	0.0161704
681.943	0.0159319
682.021	0.0160662
682.099	0.0159828
682.177	0.0160523
682.255	0.0158818
682.333	0.0159726
682.411	0.0159110
682.489	0.0159519
682.568	0.0159982
682.646	0.0159970
682.724	0.0158459
682.802	0.0157990
682.880	0.0158812
682.958	0.0158744
683.036	0.0159803
683.114	0.0158778
683.193	0.0157784
683.271	0.0159835
683.349	0.0159379
683.427	0.0158459
683.505	0.0159061
683.583	0.0157962
683.661	0.0159392
683.739	0.0158901
683.818	0.0159642
683.896	0.0158881
683.974	0.0158318
684.052	0.0158263
684.130	0.0160764
684.208	0.0158768
684.286	0.0161765
684.364	0.0159184
684.443	0.0161364
684.521	0.0159933
684.599	0.0161819
684.677	0.0159840
684.755	0.0160925
684.833	0.0161650
684.911	0.0160038
684.989	0.0158633
685.068	0.0159050
685.146	0.0159426
685.224	0.0160367
685.302	0.0159747
685.380	0.0157244
685.458	0.0156406
685.536	0.0157690
685.614	0.0158566
685.693	0.0155256
685.771	0.0154531
685.849	0.0155220
685.927	0.0155129
686.005	0.0156245
686.083	0.0156096
686.161	0.0155676
686.239	0.0157456
686.318	0.0158052
686.396	0.0159376
686.474	0.0162540
686.552	0.0164263
686.630	0.0166542
686.708	0.0168877
686.786	0.0171545
686.864	0.0172366
686.943	0.0172561
687.021	0.0171729
687.099	0.0172066
687.177	0.0170404
687.255	0.0169246
687.333	0.0167677
687.411	0.0164211
687.489	0.0163351
687.568	0.0158704
687.646	0.0156142
687.724	0.0153855
687.802	0.0149766
687.880	0.0146881
687.958	0.0147656
688.036	0.0143715
688.114	0.0142411
688.193	0.0141525
688.271	0.0140095
688.349	0.0139368
688.427	0.0140617
688.505	0.0142042
688.583	0.0141744
688.661	0.0144115
688.739	0.0149121
688.818	0.0150677
688.896	0.0154245
688.974	0.0158978
689.052	0.0162203
689.130	0.0165997
689.208	0.0170258
689.286	0.0173991
689.364	0.0177744
689.443	0.0181938
689.521	0.0182561
689.599	0.0184921
689.677	0.0189035
689.755	0.0188605
689.833	0.0190018
689.911	0.0191143
689.989	0.0189884
690.068	0.0189026
690.146	0.0187970
690.224	0.0186408
690.302	0.0181455
690.380	0.0175331
690.458	0.0169305
690.536	0.0164146
690.614	0.0156234
690.693	0.0148170
690.771	0.0140440
690.849	0.0133754
690.927	0.0127059
691.005	0.0122060
691.083	0.0116714
691.161	0.0113294
691.239	0.0109041
691.318	0.0106274
691.396	0.0106207
691.474	0.0107936
691.552	0.0110529
691.630	0.0114106
691.708	0.0119547
691.786	0.0124559
691.864	0.0132085
691.943	0.0141032
692.021	0.0150259
692.099	0.0159834
692.177	0.0168822
692.255	0.0177061
692.333	0.0189124
692.411	0.0196936
692.489	0.0205846
692.568	0.0213332
692.646	0.0216076
692.724	0.0218849
692.802	0.0220934
692.880	0.0221219
692.958	0.0218925
693.036	0.0216684
693.114	0.0215118
693.193	0.0208440
693.271	0.0203587
693.349	0.0197569
693.427	0.0190286
693.505	0.0182279
693.583	0.0174466
693.661	0.0165832
693.739	0.0158521
693.818	0.0151595
693.896	0.0143447
693.974	0.0136726
694.052	0.0132115
694.130	0.0126655
694.208	0.0122700
694.286	0.0118604
694.364	0.0115853
694.443	0.0112913
694.521	0.0112538
694.599	0.0109338
694.677	0.0107706
694.755	0.0108512
694.833	0.0106753
694.911	0.0107721
694.989	0.0109355
695.068	0.0110952
695.146	0.0113066
695.224	0.0117365
695.302	0.0122874
695.380	0.0129218
695.458	0.0135653
695.536	0.0143005
695.614	0.0153150
695.693	0.0162868
695.771	0.0173080
695.849	0.0182479
695.927	0.0191346
696.005	0.0202364
696.083	0.0209760
696.161	0.0215340
696.239	0.0221458
696.318	0.0224583
696.396	0.0227715
696.474	0.0226917
696.552	0.0225924
696.630	0.0221728
696.708	0.0217950
696.786	0.0212415
696.864	0.0205761
696.943	0.0199183
697.021	0.0191166
697.099	0.0183367
697.177	0.0175060
697.255	0.0166604
697.333	0.0156830
697.411	0.0148727
697.489	0.0141403
697.568	0.0133065
697.646	0.0127454
697.724	0.0122791
697.802	0.0116961
697.880	0.0116319
697.958	0.0114133
698.036	0.0115025
698.114	0.0116666
698.193	0.0118422
698.271	0.0121972
698.349	0.0123325
698.427	0.0126676
698.505	0.0129495
698.583	0.0130373
698.661	0.0134055
698.739	0.0135990
698.818	0.0136417
698.896	0.0139436
698.974	0.0142438
699.052	0.0146197
699.130	0.0149348
699.208	0.0152730
699.286	0.0156821
699.364	0.0160453
699.443	0.0164269
699.521	0.0168594
699.599	0.0172948
699.677	0.0176860
699.755	0.0178706
699.833	0.0181744
699.911	0.0183862
699.989	0.0186998
700.068	0.0187108
700.146	0.0189199
700.224	0.0190258
700.302	0.0189727
700.380	0.0190621
700.458	0.0188490
700.536	0.0185844
700.614	0.0183922
700.693	0.0179910
700.771	0.0176952
700.849	0.0171741
700.927	0.0167071
701.005	0.0162460
701.083	0.0158216
701.161	0.0154616
701.239	0.0152492
701.318	0.0149545
701.396	0.0147691
701.474	0.0146169
701.552	0.0145396
701.630	0.0145602
701.708	0.0145331
701.786	0.0147559
701.864	0.0146861
701.943	0.0148860
702.021	0.0149581
702.099	0.0152240
702.177	0.0152554
702.255	0.0153456
702.333	0.0153966
702.411	0.0155676
702.489	0.0156028
702.568	0.0155497
702.646	0.0156526
702.724	0.0157069
702.802	0.0155951
702.880	0.0154230
702.958	0.0154902
703.036	0.0156543
703.114	0.0155847
703.193	0.0155747
703.271	0.0156161
703.349	0.0157984
703.427	0.0159361
703.505	0.0160252
703.583	0.0159861
703.661	0.0160915
703.739	0.0161966
703.818	0.0163480
703.896	0.0164074
703.974	0.0163868
704.052	0.0166471
704.130	0.0165768
704.208	0.0165729
704.286	0.0165388
704.364	0.0164800
704.443	0.0163235
704.521	0.0161362
704.599	0.0159335
704.677	0.0156809
704.755	0.0155713
704.833	0.0155766
704.911	0.0153152
704.989	0.0151660
705.068	0.0150076
705.146	0.0149806
705.224	0.0148328
705.302	0.0147294
705.380	0.0148216
705.458	0.0148348
705.536	0.0149311
705.614	0.0150603
705.693	0.0153273
705.771	0.0156038
705.849	0.0156095
705.927	0.0158058
706.005	0.0162336
706.083	0.0163877
706.161	0.0166280
706.239	0.0168186
706.318	0.0168589
706.396	0.0167988
706.474	0.0168020
706.552	0.0164806
706.630	0.0162656
706.708	0.0163536
706.786	0.0162548
706.864	0.0160122
706.943	0.0157866
707.021	0.0157244
707.099	0.0156052
707.177	0.0155383
707.255	0.0154541
707.333	0.0155396
707.411	0.0155426
707.489	0.0156897
707.568	0.0157906
707.646	0.0158258
707.724	0.0158359
707.802	0.0159750
707.880	0.0162920
707.958	0.0160839
708.036	0.0162881
708.114	0.0161670
708.193	0.0164317
708.271	0.0165213
708.349	0.0163503
708.427	0.0164848
708.505	0.0164484
708.583	0.0165273
708.661	0.0164647
708.739	0.0163599
708.818	0.0162608
708.896	0.0160218
708.974	0.0157706
709.052	0.0157574
709.130	0.0158202
709.208	0.0157404
709.286	0.0156968
709.364	0.0156935
709.443	0.0156866
709.521	0.0158756
709.599	0.0158784
709.677	0.0160413
709.755	0.0160583
709.833	0.0160805
709.911	0.0159990
709.989	0.0160510
710.068	0.0159751
710.146	0.0156775
710.224	0.0156022
710.302	0.0153445
710.380	0.0149931
710.458	0.0148728
710.536	0.0147818
710.614	0.0146168
710.693	0.0144602
710.771	0.0143732
710.849	0.0144126
710.927	0.0144653
711.005	0.0145802
711.083	0.0148284
711.161	0.0151768
711.239	0.0153703
711.318	0.0157136
711.396	0.0159990
711.474	0.0163376
711.552	0.0166620
711.630	0.0170026
711.708	0.0171447
711.786	0.0172796
711.864	0.0173520
711.943	0.0176410
712.021	0.0178820
712.099	0.0178428
712.177	0.0177208
712.255	0.0176241
712.333	0.0176361
712.411	0.0175890
712.489	0.0174786
712.568	0.0172729
712.646	0.0171523
712.724	0.0167879
712.802	0.0167111
712.880	0.0164565
712.958	0.0163358
713.036	0.0160235
713.114	0.0157402
713.193	0.0156532
713.271	0.0154530
713.349	0.0153231
713.427	0.0151542
713.505	0.0150234
713.583	0.0149455
713.661	0.0149886
713.739	0.0149242
713.818	0.0149380
713.896	0.0147907
713.974	0.0146999
714.052	0.0148607
714.130	0.0149327
714.208	0.0150933
714.286	0.0150447
714.364	0.0150687
714.443	0.0151046
714.521	0.0152044
714.599	0.0151907
714.677	0.0151242
714.755	0.0150661
714.833	0.0149403
714.911	0.0148141
714.989	0.0148992
715.068	0.0148548
715.146	0.0146918
715.224	0.0147206
715.302	0.0147314
715.380	0.0148309
715.458	0.0148868
715.536	0.0151262
715.614	0.0155164
715.693	0.0159350
715.771	0.0164341
715.849	0.0168369
715.927	0.0172820
716.005	0.0177002
716.083	0.0177596
716.161	0.0180289
716.239	0.0181428
716.318	0.0181769
716.396	0.0179546
716.474	0.0178497
716.552	0.0173717
716.630	0.0169855
716.708	0.0167904
716.786	0.0161702
716.864	0.0156742
716.943	0.0153590
717.021	0.0151791
717.099	0.0149754
717.177	0.0147035
717.255	0.0146233
717.333	0.0146841
717.411	0.0148850
717.489	0.0148713
717.568	0.0150280
717.646	0.0153725
717.724	0.0157072
717.802	0.0160693
717.880	0.0163713
717.958	0.0165406
718.036	0.0168716
718.114	0.0170167
718.193	0.0171560
718.271	0.0173366
718.349	0.0172951
718.427	0.0171439
718.505	0.0169582
718.583	0.0168817
718.661	0.0164998
718.739	0.0162207
718.818	0.0159872
718.896	0.0155570
718.974	0.0152229
719.052	0.0149901
719.130	0.0147638
719.208	0.0146956
719.286	0.0144179
719.364	0.0143787
719.443	0.0145684
719.521	0.0145724
719.599	0.0147913
719.677	0.0148846
719.755	0.0149823
719.833	0.0154547
719.911	0.0156404
719.989	0.0158398
720.068	0.0162563
720.146	0.0165662
720.224	0.0167744
720.302	0.0169590
720.380	0.0171609
720.458	0.0175003
720.536	0.0175876
720.614	0.0175723
720.693	0.0176906
720.771	0.0176638
720.849	0.0174929
720.927	0.0172803
721.005	0.0172454
721.083	0.0168082
721.161	0.0163598
721.239	0.0161758
721.318	0.0157581
721.396	0.0155225
721.474	0.0151806
721.552	0.0148823
721.630	0.0146713
721.708	0.0144783
721.786	0.0143149
721.864	0.0143782
721.943	0.0143963
722.021	0.0144088
722.099	0.0147001
722.177	0.0148495
722.255	0.0150527
722.333	0.0152188
722.411	0.0153799
722.489	0.0156260
722.568	0.0156634
722.646	0.0159987
722.724	0.0161252
722.802	0.0163406
722.880	0.0164655
722.958	0.0165627
723.036	0.0165311
723.114	0.0167123
723.193	0.0166261
723.271	0.0165047
723.349	0.0167255
723.427	0.0166715
723.505	0.0168049
723.583	0.0166727
723.661	0.0167799
723.739	0.0167336
723.818	0.0166714
723.896	0.0165483
723.974	0.0166906
724.052	0.0166507
724.130	0.0163372
724.208	0.0164048
724.286	0.0162166
724.364	0.0159633
724.443	0.0158120
724.521	0.0156586
724.599	0.0154472
724.677	0.0155142
724.755	0.0153364
724.833	0.0152341
724.911	0.0152602
724.989	0.0150832
725.068	0.0150599
725.146	0.0150690
725.224	0.0151489
725.302	0.0151529
725.380	0.0151200
725.458	0.0152683
725.536	0.0153526
725.614	0.0153580
725.693	0.0153538
725.771	0.0155450
725.849	0.0157448
725.927	0.0158086
726.005	0.0159367
726.083	0.0160788
726.161	0.0161771
726.239	0.0161753
726.318	0.0162088
726.396	0.0164142
726.474	0.0163199
726.552	0.0162641
726.630	0.0162843
726.708	0.0160662
726.786	0.0161288
726.864	0.0159196
726.943	0.0158575
727.021	0.0157961
727.099	0.0157107
727.177	0.0156677
727.255	0.0156464
727.333	0.0157780
727.411	0.0157014
727.489	0.0157134
727.568	0.0159052
727.646	0.0159925
727.724	0.0161534
727.802	0.0161469
727.880	0.0162740
727.958	0.0165337
728.036	0.0166537
728.114	0.0167598
728.193	0.0169083
728.271	0.0169849
728.349	0.0170598
728.427	0.0170499
728.505	0.0170351
728.583	0.0170175
728.661	0.0167786
728.739	0.0167071
728.818	0.0164684
728.896	0.0162766
728.974	0.0160327
729.052	0.0160197
729.130	0.0157523
729.208	0.0155141
729.286	0.0153378
729.364	0.0152563
729.443	0.0152374
729.521	0.0153172
729.599	0.0152619
729.677	0.0152082
729.755	0.0152481
729.833	0.0153235
729.911	0.0151013
729.989	0.0154399
730.068	0.0155025
730.146	0.0153992
730.224	0.0156551
730.302	0.0155891
730.380	0.0158182
730.458	0.0160519
730.536	0.0160037
730.614	0.0159229
730.693	0.0160853
730.771	0.0162311
730.849	0.0163971
730.927	0.0163764
731.005	0.0164624
731.083	0.0164252
731.161	0.0164445
731.239	0.0166068
731.318	0.0163543
731.396	0.0162313
731.474	0.0161354
731.552	0.0160811
731.630	0.0160661
731.708	0.0160320
731.786	0.0158335
731.864	0.0157203
731.943	0.0156180
732.021	0.0154283
732.099	0.0153908
732.177	0.0152766
732.255	0.0154056
732.333	0.0153821
732.411	0.0152625
732.489	0.0155978
732.568	0.0156783
732.646	0.0156265
732.724	0.0157611
732.802	0.0158808
732.880	0.0159374
732.958	0.0160340
733.036	0.0162101
733.114	0.0162693
733.193	0.0163152
733.271	0.0164161
733.349	0.0162386
733.427	0.0163100
733.505	0.0161503
733.583	0.0161917
733.661	0.0160735
733.739	0.0160416
733.818	0.0159740
733.896	0.0158184
733.974	0.0156524
734.052	0.0155827
734.130	0.0155691
734.208	0.0153777
734.286	0.0153681
734.364	0.0153162
734.443	0.0153585
734.521	0.0152836
734.599	0.0153998
734.677	0.0156071
734.755	0.0155767
734.833	0.0156522
734.911	0.0157770
734.989	0.0158323
735.068	0.0161208
735.146	0.0162875
735.224	0.0163191
735.302	0.0165041
735.380	0.0165685
735.458	0.0165795
735.536	0.0165983
735.614	0.0166727
735.693	0.0165078
735.771	0.0165559
735.849	0.0165609
735.927	0.0164235
736.005	0.0164017
736.083	0.0161708
736.161	0.0162338
736.239	0.0159976
736.318	0.0158586
736.396	0.0160277
736.474	0.0157775
736.552	0.0156902
736.630	0.0158513
736.708	0.0157233
736.786	0.0157291
736.864	0.0157127
736.943	0.0157278
737.021	0.0156152
737.099	0.0156353
737.177	0.0155582
737.255	0.0155477
737.333	0.0155512
737.411	0.0154173
737.489	0.0154455
737.568	0.0154304
737.646	0.0152785
737.724	0.0153759
737.802	0.0153782
737.880	0.0153895
737.958	0.0153256
738.036	0.0154031
738.114	0.0154203
738.193	0.0153728
738.271	0.0156152
738.349	0.0156479
738.427	0.0158112
738.505	0.0158516
738.583	0.0159179
738.661	0.0159399
738.739	0.0160652
738.818	0.0161440
738.896	0.0161501
738.974	0.0160738
739.052	0.0160474
739.130	0.0161266
739.208	0.0162189
739.286	0.0163070
739.364	0.0162823
739.443	0.0160488
739.521	0.0162647
739.599	0.0162660
739.677	0.0162292
739.755	0.0163265
739.833	0.0162266
739.911	0.0161749
739.989	0.0161254
740.068	0.0161152
740.146	0.0160783
740.224	0.0160712
740.302	0.0161288
740.380	0.0161037
740.458	0.0161466
740.536	0.0160223
740.614	0.0160198
740.693	0.0163126
740.771	0.0162437
740.849	0.0161378
740.927	0.0161273
741.005	0.0161489
741.083	0.0159679
741.161	0.0159793
741.239	0.0158775
741.318	0.0157310
741.396	0.0155917
741.474	0.0157258
741.552	0.0155035
741.630	0.0153703
741.708	0.0154716
741.786	0.0154509
741.864	0.0154869
741.943	0.0153516
742.021	0.0155595
742.099	0.0155451
742.177	0.0157290
742.255	0.0157726
742.333	0.0159011
742.411	0.0158421
742.489	0.0160126
742.568	0.0160184
742.646	0.0160521
742.724	0.0162848
742.802	0.0161924
742.880	0.0162293
742.958	0.0163364
743.036	0.0162017
743.114	0.0163142
743.193	0.0162340
743.271	0.0163062
743.349	0.0162044
743.427	0.0160378
743.505	0.0160202
743.583	0.0160023
743.661	0.0159895
743.739	0.0158395
743.818	0.0158460
743.896	0.0158257
743.974	0.0158231
744.052	0.0159499
744.130	0.0158082
744.208	0.0157706
744.286	0.0159789
744.364	0.0159910
744.443	0.0160731
744.521	0.0162514
744.599	0.0162143
744.677	0.0161382
744.755	0.0160252
744.833	0.0159563
744.911	0.0159220
744.989	0.0158553
745.068	0.0160677
745.146	0.0159909
745.224	0.0158290
745.302	0.0158463
745.380	0.0159647
745.458	0.0158176
745.536	0.0159027
745.614	0.0159424
745.693	0.0158765
745.771	0.0157735
745.849	0.0157810
745.927	0.0157530
746.005	0.0159866
746.083	0.0158340
746.161	0.0158255
746.239	0.0158412
746.318	0.0159425
746.396	0.0159541
746.474	0.0158224
746.552	0.0158660
746.630	0.0158215
746.708	0.0157838
746.786	0.0156535
746.864	0.0157749
746.943	0.0156173
747.021	0.0155904
747.099	0.0156387
747.177	0.0155792
747.255	0.0155697
747.333	0.0156262
747.411	0.0157470
747.489	0.0159426
747.568	0.0158549
747.646	0.0159168
747.724	0.0160484
747.802	0.0161756
747.880	0.0161721
747.958	0.0162386
748.036	0.0163077
748.114	0.0164924
748.193	0.0166155
748.271	0.0166905
748.349	0.0165672
748.427	0.0165855
748.505	0.0167714
748.583	0.0165013
748.661	0.0165151
748.739	0.0163819
748.818	0.0163692
748.896	0.0163041
748.974	0.0160673
749.052	0.0159943
749.130	0.0159226
749.208	0.0158269
749.286	0.0156590
749.364	0.0155949
749.443	0.0156802
749.521	0.0157796
749.599	0.0156770
749.677	0.0155921
749.755	0.0157199
749.833	0.0158348
749.911	0.0158005
749.989	0.0158158
750.068	0.0158247
750.146	0.0160718
750.224	0.0160500
750.302	0.0161503
750.380	0.0161143
750.458	0.0163560
750.536	0.0161987
750.614	0.0163194
750.693	0.0162342
750.771	0.0162120
750.849	0.0160587
750.927	0.0161069
751.005	0.0161397
751.083	0.0160961
751.161	0.0160722
751.239	0.0159515
751.318	0.0161060
751.396	0.0159738
751.474	0.0157446
751.552	0.0159426
751.630	0.0158856
751.708	0.0158857
751.786	0.0157923
751.864	0.0158540
751.943	0.0158573
752.021	0.0157893
752.099	0.0158677
752.177	0.0159897
752.255	0.0161450
752.333	0.0159750
752.411	0.0158958
752.489	0.0159489
752.568	0.0160055
752.646	0.0160795
752.724	0.0160734
752.802	0.0162278
752.880	0.0159903
752.958	0.0158961
753.036	0.0159567
753.114	0.0158977
753.193	0.0159573
753.271	0.0159445
753.349	0.0158293
753.427	0.0157559
753.505	0.0157713
753.583	0.0158176
753.661	0.0156760
753.739	0.0157524
753.818	0.0159232
753.896	0.0156541
753.974	0.0157358
754.052	0.0159309
754.130	0.0158474
754.208	0.0159078
754.286	0.0158726
754.364	0.0159328
754.443	0.0158131
754.521	0.0159519
754.599	0.0159251
754.677	0.0159027
754.755	0.0159396
754.833	0.0160268
754.911	0.0159644
754.989	0.0158745
755.068	0.0157839
755.146	0.0159368
755.224	0.0158887
755.302	0.0159418
755.380	0.0159357
755.458	0.0161301
755.536	0.0161216
755.614	0.0160557
755.693	0.0162908
755.771	0.0161652
755.849	0.0163287
755.927	0.0163042
756.005	0.0162525
756.083	0.0163517
756.161	0.0164256
756.239	0.0163865
756.318	0.0163854
756.396	0.0164468
756.474	0.0162315
756.552	0.0162587
756.630	0.0161002
756.708	0.0161182
756.786	0.0157556
756.864	0.0157128
756.943	0.0157471
757.021	0.0156201
757.099	0.0155566
757.177	0.0154131
757.255	0.0154829
757.333	0.0154918
757.411	0.0154693
757.489	0.0154607
757.568	0.0155420
757.646	0.0154717
757.724	0.0156201
757.802	0.0157323
757.880	0.0157095
757.958	0.0158771
758.036	0.0157801
758.114	0.0157552
758.193	0.0158035
758.271	0.0157938
758.349	0.0158179
758.427	0.0158710
758.505	0.0159290
758.583	0.0158324
758.661	0.0158715
758.739	0.0158044
758.818	0.0158025
758.896	0.0157121
758.974	0.0158067
759.052	0.0158179
759.130	0.0158100
759.208	0.0159043
759.286	0.0157650
759.364	0.0157240
759.443	0.0158550
759.521	0.0159119
759.599	0.0159345
759.677	0.0158000
759.755	0.0157866
759.833	0.0158730
759.911	0.0159869
759.989	0.0159531
760.068	0.0160307
760.146	0.0160975
760.224	0.0160868
760.302	0.0160797
760.380	0.0161879
760.458	0.0160709
760.536	0.0160929
760.614	0.0161286
760.693	0.0160595
760.771	0.0160171
760.849	0.0160800
760.927	0.0160774
761.005	0.0160224
761.083	0.0160125
761.161	0.0160464
761.239	0.0160175
761.318	0.0159799
761.396	0.0160269
761.474	0.0160930
761.552	0.0161499
761.630	0.0160982
761.708	0.0158517
761.786	0.0161469
761.864	0.0161154
761.943	0.0159330
762.021	0.0160331
762.099	0.0160326
762.177	0.0159537
762.255	0.0158894
762.333	0.0161168
762.411	0.0160275
762.489	0.0158956
762.568	0.0158487
762.646	0.0160318
762.724	0.0158800
762.802	0.0158073
762.880	0.0157818
762.958	0.0157967
763.036	0.0158355
763.114	0.0159222
763.193	0.0159210
763.271	0.0158352
763.349	0.0157336
763.427	0.0158594
763.505	0.0159399
763.583	0.0160201
763.661	0.0158504
763.739	0.0158050
763.818	0.0160358
763.896	0.0158808
763.974	0.0157574
764.052	0.0159451
764.130	0.0159235
764.208	0.0159396
764.286	0.0157541
764.364	0.0157389
764.443	0.0158989
764.521	0.0157408
764.599	0.0154896
764.677	0.0156707
764.755	0.0156873
764.833	0.0155361
764.911	0.0156055
764.989	0.0154465
765.068	0.0155933
765.146	0.0155961
765.224	0.0155761
765.302	0.0156074
765.380	0.0157070
765.458	0.0157466
765.536	0.0157674
765.614	0.0157527
765.693	0.0157517
765.771	0.0156741
765.849	0.0158369
765.927	0.0157787
766.005	0.0159428
766.083	0.0157256
766.161	0.0159706
766.239	0.0158943
766.318	0.0158904
766.396	0.0159103
766.474	0.0159370
766.552	0.0161756
766.630	0.0161906
766.708	0.0161723
766.786	0.0161971
766.864	0.0159744
766.943	0.0161095
767.021	0.0161014
767.099	0.0161613
767.177	0.0160497
767.255	0.0161433
767.333	0.0160956
767.411	0.0162020
767.489	0.0161633
767.568	0.0159818
767.646	0.0161576
767.724	0.0161591
767.802	0.0160996
767.880	0.0161150
767.958	0.0161079
768.036	0.0161894
768.114	0.0160525
768.193	0.0160317
768.271	0.0160147
768.349	0.0161170
768.427	0.0159094
768.505	0.0160061
768.583	0.0162236
768.661	0.0160485
768.739	0.0158657
768.818	0.0159381
768.896	0.0160448
768.974	0.0159930
769.052	0.0159822
769.130	0.0159595
769.208	0.0159641
769.286	0.0159610
769.364	0.0159316
769.443	0.0158849
769.521	0.0158980
769.599	0.0156721
769.677	0.0158232
769.755	0.0156190
769.833	0.0155456
769.911	0.0154824
769.989	0.0156828
770.068	0.0156956
770.146	0.0156834
770.224	0.0156371
770.302	0.0155890
770.380	0.0156257
770.458	0.0157232
770.536	0.0157241
770.614	0.0158599
770.693	0.0159081
770.771	0.0159912
770.849	0.0159167
770.927	0.0158704
771.005	0.0159307
771.083	0.0159600
771.161	0.0161785
771.239	0.0162064
771.318	0.0162479
771.396	0.0162274
771.474	0.0161360
771.552	0.0162535
771.630	0.0163639
771.708	0.0163411
771.786	0.0163136
771.864	0.0162549
771.943	0.0163364
772.021	0.0162616
772.099	0.0163202
772.177	0.0162144
772.255	0.0163062
772.333	0.0160619
772.411	0.0160224
772.489	0.0160527
772.568	0.0159624
772.646	0.0160013
772.724	0.0158881
772.802	0.0158116
772.880	0.0157657
772.958	0.0157473
773.036	0.0157323
773.114	0.0157632
773.193	0.0157422
773.271	0.0157314
773.349	0.0158779
773.427	0.0157995
773.505	0.0157587
773.583	0.0159070
773.661	0.0159845
773.739	0.0159956
773.818	0.0159991
773.896	0.0159978
773.974	0.0160736
774.052	0.0159909
774.130	0.0161101
774.208	0.0159422
774.286	0.0159084
774.364	0.0159678
774.443	0.0157949
774.521	0.0158958
774.599	0.0159325
774.677	0.0159745
774.755	0.0157949
774.833	0.0158522
774.911	0.0158111
774.989	0.0157913
775.068	0.0158249
775.146	0.0157977
775.224	0.0157928
775.302	0.0158340
775.380	0.0158920
775.458	0.0160914
775.536	0.0161858
775.614	0.0159060
775.693	0.0159690
775.771	0.0161377
775.849	0.0160975
775.927	0.0160010
776.005	0.0160667
776.083	0.0160003
776.161	0.0159435
776.239	0.0160617
776.318	0.0160326
776.396	0.0159716
776.474	0.0159071
776.552	0.0158221
776.630	0.0158673
776.708	0.0158565
776.786	0.0160463
776.864	0.0158853
776.943	0.0157861
777.021	0.0159100
777.099	0.0159409
777.177	0.0159389
777.255	0.0158634
777.333	0.0159084
777.411	0.0157762
777.489	0.0158869
777.568	0.0158526
777.646	0.0157620
777.724	0.0158698
777.802	0.0157313
777.880	0.0157630
777.958	0.0157510
778.036	0.0157788
778.114	0.0157578
778.193	0.0158092
778.271	0.0157771
778.349	0.0156810
778.427	0.0158292
778.505	0.0157704
778.583	0.0158644
778.661	0.0158188
778.739	0.0159145
778.818	0.0159654
778.896	0.0160060
778.974	0.0159325
779.052	0.0160338
779.130	0.0160316
779.208	0.0160395
779.286	0.0161299
779.364	0.0161216
779.443	0.0161912
779.521	0.0161301
779.599	0.0162657
779.677	0.0162053
779.755	0.0162005
779.833	0.0161926
779.911	0.0163188
779.989	0.0162185
780.068	0.0160648
780.146	0.0161828
780.224	0.0159767
780.302	0.0160233
780.380	0.0159369
780.458	0.0158872
780.536	0.0158052
780.614	0.0158845
780.693	0.0159303
780.771	0.0157697
780.849	0.0155791
780.927	0.0157619
781.005	0.0158882
781.083	0.0158752
781.161	0.0158302
781.239	0.0158061
781.318	0.0158951
781.396	0.0158252
781.474	0.0158833
781.552	0.0158494
781.630	0.0158808
781.708	0.0158486
781.786	0.0158240
781.864	0.0159754
781.943	0.0159693
782.021	0.0159696
782.099	0.0157001
782.177	0.0159411
782.255	0.0160139
782.333	0.0157941
782.411	0.0157668
782.489	0.0157436
782.568	0.0157615
782.646	0.0157610
782.724	0.0158668
782.802	0.0156016
782.880	0.0159296
782.958	0.0159117
783.036	0.0159208
783.114	0.0158031
783.193	0.0160073
783.271	0.0159701
783.349	0.0159431
783.427	0.0161716
783.505	0.0160305
783.583	0.0159888
783.661	0.0161273
783.739	0.0160381
783.818	0.0160777
783.896	0.0162178
783.974	0.0161430
784.052	0.0160774
784.130	0.0160057
784.208	0.0160089
784.286	0.0159430
784.364	0.0159099
784.443	0.0158410
784.521	0.0160177
784.599	0.0157603
784.677	0.0158671
784.755	0.0159366
784.833	0.0158369
784.911	0.0157964
784.989	0.0158447
785.068	0.0158205
785.146	0.0158192
785.224	0.0158048
785.302	0.0157749
785.380	0.0157749
785.458	0.0156615
785.536	0.0155174
785.614	0.0157321
785.693	0.0158299
785.771	0.0155643
785.849	0.0158035
785.927	0.0157443
786.005	0.0157785
786.083	0.0159126
786.161	0.0158488
786.239	0.0159378
786.318	0.0159332
786.396	0.0160835
786.474	0.0161259
786.552	0.0159677
786.630	0.0160473
786.708	0.0161858
786.786	0.0162797
786.864	0.0162901
786.943	0.0161236
787.021	0.0161513
787.099	0.0162507
787.177	0.0160396
787.255	0.0160685
787.333	0.0160274
787.411	0.0159200
787.489	0.0158858
787.568	0.0157280
787.646	0.0157304
787.724	0.0155846
787.802	0.0154874
787.880	0.0153997
787.958	0.0154057
788.036	0.0153405
788.114	0.0152554
788.193	0.0151803
788.271	0.0152975
788.349	0.0153453
788.427	0.0154182
788.505	0.0155626
788.583	0.0153662
788.661	0.0155930
788.739	0.0156701
788.818	0.0157916
788.896	0.0158598
788.974	0.0159851
789.052	0.0160867
789.130	0.0161757
789.208	0.0161768
789.286	0.0164178
789.364	0.0165217
789.443	0.0166046
789.521	0.0166270
789.599	0.0167064
789.677	0.0166804
789.755	0.0166039
789.833	0.0164777
789.911	0.0166102
789.989	0.0166319
790.068	0.0165159
790.146	0.0163446
790.224	0.0161695
790.302	0.0163061
790.380	0.0159976
790.458	0.0159126
790.536	0.0159907
790.614	0.0157797
790.693	0.0155913
790.771	0.0156544
790.849	0.0154970
790.927	0.0154050
791.005	0.0153601
791.083	0.0152809
791.161	0.0151039
791.239	0.0151129
791.318	0.0150493
791.396	0.0150349
791.474	0.0149305
791.552	0.0150513
791.630	0.0150291
791.708	0.0150162
791.786	0.0151451
791.864	0.0154609
791.943	0.0153463
792.021	0.0153800
792.099	0.0155849
792.177	0.0157485
792.255	0.0159466
792.333	0.0159206
792.411	0.0161472
792.489	0.0162206
792.568	0.0163785
792.646	0.0165085
792.724	0.0165552
792.802	0.0167119
792.880	0.0166939
792.958	0.0168296
793.036	0.0167284
793.114	0.0167632
793.193	0.0166135
793.271	0.0166752
793.349	0.0167474
793.427	0.0167125
793.505	0.0165369
793.583	0.0164463
793.661	0.0162967
793.739	0.0163222
793.818	0.0162767
793.896	0.0161358
793.974	0.0159672
794.052	0.0158758
794.130	0.0157371
794.208	0.0156517
794.286	0.0156138
794.364	0.0155339
794.443	0.0155310
794.521	0.0154809
794.599	0.0155411
794.677	0.0155093
794.755	0.0155344
794.833	0.0156600
794.911	0.0155398
794.989	0.0154321
795.068	0.0155615
795.146	0.0154758
795.224	0.0155630
795.302	0.0154874
795.380	0.0156120
795.458	0.0155922
795.536	0.0155177
795.614	0.0157276
795.693	0.0156266
795.771	0.0156775
795.849	0.0157887
795.927	0.0157936
796.005	0.0156212
796.083	0.0157899
796.161	0.0158192
796.239	0.0157320
796.318	0.0160539
796.396	0.0161239
796.474	0.0161327
796.552	0.0160625
796.630	0.0160993
796.708	0.0162919
796.786	0.0162182
796.864	0.0162114
796.943	0.0163377
797.021	0.0162730
797.099	0.0162752
797.177	0.0161754
797.255	0.0163689
797.333	0.0162806
797.411	0.0162556
797.489	0.0160612
797.568	0.0161181
797.646	0.0161184
797.724	0.0160800
797.802	0.0161980
797.880	0.0160230
797.958	0.0159115
798.036	0.0160140
798.114	0.0159517
798.193	0.0160150
798.271	0.0157911
798.349	0.0159509
798.427	0.0158485
798.505	0.0158282
798.583	0.0158621
798.661	0.0158918
798.739	0.0158441
798.818	0.0159508
798.896	0.0157682
798.974	0.0158543
799.052	0.0157465
799.130	0.0158817
799.208	0.0157323
799.286	0.0157322
799.364	0.0156406
799.443	0.0157382
799.521	0.0156618
799.599	0.0156012
799.677	0.0156995
799.755	0.0156236
799.833	0.0156837
799.911	0.0157583
799.989	0.0157304
800.068	0.0158509
800.146	0.0159580
800.224	0.0158147
800.302	0.0160537
800.380	0.0159023
800.458	0.0159438
800.536	0.0158694
800.614	0.0161273
800.693	0.0161098
800.771	0.0161174
800.849	0.0161907
800.927	0.0160062
801.005	0.0159971
801.083	0.0162210
801.161	0.0159970
801.239	0.0161290
801.318	0.0159644
801.396	0.0159610
801.474	0.0158524
801.552	0.0158388
801.630	0.0157099
801.708	0.0158704
801.786	0.0159664
801.864	0.0157814
801.943	0.0157912
802.021	0.0159783
802.099	0.0158299
802.177	0.0157624
802.255	0.0158291
802.333	0.0158197
802.411	0.0159364
802.489	0.0158118
802.568	0.0159612
802.646	0.0159703
802.724	0.0159470
802.802	0.0160860
802.880	0.0158881
802.958	0.0159722
803.036	0.0160944
803.114	0.0159062
803.193	0.0159339
803.271	0.0160255
803.349	0.0159869
803.427	0.0158839
803.505	0.0158611
803.583	0.0158162
803.661	0.0157780
803.739	0.0158440
803.818	0.0159128
803.896	0.0157643
803.974	0.0158300
804.052	0.0158029
804.130	0.0159317
804.208	0.0158376
804.286	0.0159133
804.364	0.0159462
804.443	0.0159499
804.521	0.0160027
804.599	0.0159983
804.677	0.0159440
804.755	0.0159360
804.833	0.0158878
804.911	0.0160390
804.989	0.0159886
805.068	0.0158615
805.146	0.0159004
805.224	0.0159119
805.302	0.0159865
805.380	0.0160097
805.458	0.0159379
805.536	0.0159853
805.614	0.0161105
805.693	0.0159689
805.771	0.0159062
805.849	0.0159277
805.927	0.0160220
806.005	0.0160007
806.083	0.0158815
806.161	0.0159184
806.239	0.0158258
806.318	0.0158215
806.396	0.0159089
806.474	0.0157067
806.552	0.0158360
806.630	0.0158540
806.708	0.0157732
806.786	0.0156183
806.864	0.0157248
806.943	0.0156294
807.021	0.0155603
807.099	0.0157571
807.177	0.0156676
807.255	0.0157522
807.333	0.0157857
807.411	0.0157051
807.489	0.0157581
807.568	0.0159358
807.646	0.0159445
807.724	0.0158942
807.802	0.0161059
807.880	0.0160139
807.958	0.0160252
808.036	0.0159066
808.114	0.0160844
808.193	0.0161157
808.271	0.0161935
808.349	0.0162119
808.427	0.0161256
808.505	0.0161642
808.583	0.0162428
808.661	0.0161846
808.739	0.0161639
808.818	0.0162601
808.896	0.0162495
808.974	0.0162030
809.052	0.0161520
809.130	0.0162050
809.208	0.0160144
809.286	0.0159161
809.364	0.0159749
809.443	0.0161998
809.521	0.0160208
809.599	0.0160222
809.677	0.0160918
809.755	0.0159219
809.833	0.0159517
809.911	0.0159200
809.989	0.0159722
810.068	0.0159523
810.146	0.0159302
810.224	0.0157135
810.302	0.0158035
810.380	0.0157259
810.458	0.0157521
810.536	0.0158237
810.614	0.0156332
810.693	0.0155470
810.771	0.0156153
810.849	0.0155697
810.927	0.0155767
811.005	0.0155279
811.083	0.0154925
811.161	0.0155025
811.239	0.0156583
811.318	0.0155459
811.396	0.0155932
811.474	0.0156761
811.552	0.0156702
811.630	0.0156509
811.708	0.0156713
811.786	0.0156651
811.864	0.0157701
811.943	0.0158379
812.021	0.0158451
812.099	0.0158324
812.177	0.0158533
812.255	0.0160038
812.333	0.0160784
812.411	0.0159212
812.489	0.0159885
812.568	0.0159299
812.646	0.0160680
812.724	0.0161576
812.802	0.0161880
812.880	0.0161369
812.958	0.0160394
813.036	0.0161386
813.114	0.0159904
813.193	0.0160858
813.271	0.0160868
813.349	0.0160967
813.427	0.0160741
813.505	0.0159737
813.583	0.0160490
813.661	0.0159827
813.739	0.0160713
813.818	0.0160371
813.896	0.0160077
813.974	0.0160389
814.052	0.0161884
814.130	0.0161478
814.208	0.0161189
814.286	0.0161428
814.364	0.0162526
814.443	0.0163142
814.521	0.0162450
814.599	0.0161477
814.677	0.0162396
814.755	0.0160155
814.833	0.0159911
814.911	0.0159226
814.989	0.0158070
815.068	0.0157713
815.146	0.0157954
815.224	0.0157439
815.302	0.0156651
815.380	0.0155895
815.458	0.0154204
815.536	0.0153651
815.614	0.0154227
815.693	0.0154829
815.771	0.0155507
815.849	0.0154550
815.927	0.0154970
816.005	0.0156126
816.083	0.0156009
816.161	0.0157956
816.239	0.0158759
816.318	0.0159008
816.396	0.0160258
816.474	0.0160769
816.552	0.0161717
816.630	0.0160255
816.708	0.0161134
816.786	0.0160976
816.864	0.0161386
816.943	0.0163236
817.021	0.0162632
817.099	0.0160394
817.177	0.0160326
817.255	0.0161643
817.333	0.0161814
817.411	0.0162064
817.489	0.0161965
817.568	0.0161343
817.646	0.0160485
817.724	0.0160287
817.802	0.0160859
817.880	0.0159577
817.958	0.0159030
818.036	0.0159856
818.114	0.0159199
818.193	0.0158671
818.271	0.0158665
818.349	0.0157495
818.427	0.0157781
818.505	0.0157766
818.583	0.0156706
818.661	0.0156884
818.739	0.0155359
818.818	0.0157108
818.896	0.0157822
818.974	0.0156866
819.052	0.0156144
819.130	0.0157279
819.208	0.0156554
819.286	0.0155906
819.364	0.0156270
819.443	0.0159606
819.521	0.0159172
819.599	0.0159953
819.677	0.0160744
819.755	0.0160055
819.833	0.0161240
819.911	0.0162921
819.989	0.0164083
820.068	0.0162041
820.146	0.0162120
820.224	0.0163163
820.302	0.0163175
820.380	0.0162424
820.458	0.0162175
820.536	0.0161835
820.614	0.0161886
820.693	0.0161035
820.771	0.0160893
820.849	0.0162029
820.927	0.0158862
821.005	0.0158999
821.083	0.0158748
821.161	0.0158342
821.239	0.0156599
821.318	0.0156561
821.396	0.0158371
821.474	0.0156224
821.552	0.0156918
821.630	0.0157435
821.708	0.0156890
821.786	0.0157553
821.864	0.0157787
821.943	0.0157648
822.021	0.0156800
822.099	0.0158106
822.177	0.0159120
822.255	0.0158568
822.333	0.0158356
822.411	0.0158965
822.489	0.0159801
822.568	0.0158527
822.646	0.0160790
822.724	0.0159989
822.802	0.0158485
822.880	0.0159112
822.958	0.0161016
823.036	0.0160493
823.114	0.0160339
823.193	0.0161309
823.271	0.0160420
823.349	0.0160317
823.427	0.0159545
823.505	0.0159979
823.583	0.0161263
823.661	0.0160019
823.739	0.0158506
823.818	0.0159991
823.896	0.0160809
823.974	0.0159935
824.052	0.0160236
824.130	0.0161784
824.208	0.0160203
824.286	0.0160045
824.364	0.0158559
824.443	0.0160358
824.521	0.0160090
824.599	0.0160007
824.677	0.0161311
824.755	0.0160271
824.833	0.0160811
824.911	0.0160778
824.989	0.0158839
825.068	0.0159229
825.146	0.0160506
825.224	0.0160591
825.302	0.0159116
825.380	0.0159119
825.458	0.0159074
825.536	0.0158025
825.614	0.0159419
825.693	0.0160497
825.771	0.0160184
825.849	0.0160244
825.927	0.0159242
826.005	0.0158953
826.083	0.0159258
826.161	0.0159087
826.239	0.0159032
826.318	0.0160283
826.396	0.0158826
826.474	0.0159144
826.552	0.0158157
826.630	0.0158030
826.708	0.0159036
826.786	0.0156983
826.864	0.0158717
826.943	0.0156919
827.021	0.0157014
827.099	0.0157018
827.177	0.0157261
827.255	0.0156892
827.333	0.0156457
827.411	0.0157335
827.489	0.0157926
827.568	0.0157381
827.646	0.0157648
827.724	0.0160291
827.802	0.0159122
827.880	0.0159768
827.958	0.0160461
828.036	0.0161785
828.114	0.0161166
828.193	0.0161755
828.271	0.0162122
828.349	0.0163187
828.427	0.0162209
828.505	0.0162341
828.583	0.0162985
828.661	0.0161092
828.739	0.0161371
828.818	0.0160609
828.896	0.0159693
828.974	0.0160669
829.052	0.0162170
829.130	0.0160236
829.208	0.0159129
829.286	0.0161351
829.364	0.0160493
829.443	0.0158125
829.521	0.0160221
829.599	0.0159986
829.677	0.0160972
829.755	0.0160951
829.833	0.0160055
829.911	0.0159711
829.989	0.0160381
830.068	0.0159433
830.146	0.0159094
830.224	0.0160651
830.302	0.0160054
830.380	0.0159199
830.458	0.0160616
830.536	0.0160212
830.614	0.0158148
830.693	0.0158036
830.771	0.0158803
830.849	0.0157843
830.927	0.0157682
831.005	0.0158054
831.083	0.0159843
831.161	0.0157820
831.239	0.0157420
831.318	0.0156734
831.396	0.0156884
831.474	0.0157529
831.552	0.0157950
831.630	0.0158878
831.708	0.0158224
831.786	0.0159415
831.864	0.0158551
831.943	0.0157140
832.021	0.0158076
832.099	0.0158619
832.177	0.0157208
832.255	0.0158443
832.333	0.0159000
832.411	0.0159222
832.489	0.0159957
832.568	0.0157364
832.646	0.0157657
832.724	0.0158418
832.802	0.0159039
832.880	0.0156485
832.958	0.0157597
833.036	0.0158523
833.114	0.0157849
833.193	0.0158473
833.271	0.0159563
833.349	0.0159887
833.427	0.0158305
833.505	0.0160165
833.583	0.0161208
833.661	0.0160962
833.739	0.0159815
833.818	0.0160247
833.896	0.0161324
833.974	0.0161354
834.052	0.0159943
834.130	0.0161707
834.208	0.0160937
834.286	0.0160781
834.364	0.0161862
834.443	0.0160875
834.521	0.0159564
834.599	0.0162077
834.677	0.0161295
834.755	0.0161817
834.833	0.0159628
834.911	0.0160472
834.989	0.0159971
835.068	0.0158826
835.146	0.0159015
835.224	0.0158118
835.302	0.0159503
835.380	0.0159879
835.458	0.0158563
835.536	0.0158971
835.614	0.0158971
835.693	0.0158316
835.771	0.0158490
835.849	0.0158600
835.927	0.0159089
836.005	0.0158427
836.083	0.0158485
836.161	0.0157312
836.239	0.0157771
836.318	0.0158564
836.396	0.0158842
836.474	0.0157895
836.552	0.0160033
836.630	0.0158340
836.708	0.0157545
836.786	0.0158875
836.864	0.0161038
836.943	0.0158567
837.021	0.0157378
837.099	0.0157618
837.177	0.0157711
837.255	0.0158739
837.333	0.0158826
837.411	0.0157882
837.489	0.0157185
837.568	0.0157319
837.646	0.0157959
837.724	0.0157862
837.802	0.0157518
837.880	0.0158080
837.958	0.0158940
838.036	0.0158495
838.114	0.0158856
838.193	0.0159682
838.271	0.0159235
838.349	0.0159490
838.427	0.0160048
838.505	0.0159885
838.583	0.0158363
838.661	0.0159475
838.739	0.0160138
838.818	0.0161115
838.896	0.0161472
838.974	0.0159030
839.052	0.0159653
839.130	0.0160102
839.208	0.0158520
839.286	0.0159215
839.364	0.0158571
839.443	0.0159821
839.521	0.0159077
839.599	0.0159032
839.677	0.0157794
839.755	0.0157960
839.833	0.0157657
839.911	0.0159109
839.989	0.0159026
840.068	0.0160474
840.146	0.0160416
840.224	0.0159804
840.302	0.0160199
840.380	0.0160740
840.458	0.0160048
840.536	0.0162090
840.614	0.0160812
840.693	0.0160867
840.771	0.0160432
840.849	0.0160645
840.927	0.0160477
841.005	0.0159895
841.083	0.0159578
841.161	0.0159380
841.239	0.0160597
841.318	0.0159584
841.396	0.0159588
841.474	0.0159892
841.552	0.0160771
841.630	0.0159965
841.708	0.0160378
841.786	0.0160505
841.864	0.0158983
841.943	0.0159251
842.021	0.0160432
842.099	0.0161121
842.177	0.0162124
842.255	0.0160107
842.333	0.0160199
842.411	0.0159041
842.489	0.0159570
842.568	0.0159512
842.646	0.0160368
842.724	0.0159725
842.802	0.0159164
842.880	0.0159213
842.958	0.0159145
843.036	0.0158452
843.114	0.0158636
843.193	0.0159113
843.271	0.0159475
843.349	0.0158810
843.427	0.0157143
843.505	0.0157842
843.583	0.0156831
843.661	0.0158285
843.739	0.0155059
843.818	0.0157441
843.896	0.0159103
843.974	0.0159049
844.052	0.0158270
844.130	0.0158884
844.208	0.0158953
844.286	0.0158088
844.364	0.0159789
844.443	0.0159563
844.521	0.0159062
844.599	0.0159604
844.677	0.0159659
844.755	0.0160848
844.833	0.0159062
844.911	0.0161076
844.989	0.0161249
845.068	0.0158978
845.146	0.0159003
845.224	0.0159575
845.302	0.0160641
845.380	0.0158707
845.458	0.0160532
845.536	0.0160299
845.614	0.0158981
845.693	0.0158120
845.771	0.0159383
845.849	0.0158166
845.927	0.0159276
846.005	0.0160025
846.083	0.0159693
846.161	0.0159552
846.239	0.0159808
846.318	0.0160949
846.396	0.0160759
846.474	0.0158517
846.552	0.0160699
846.630	0.0161961
846.708	0.0160042
846.786	0.0158311
846.864	0.0160470
846.943	0.0159829
847.021	0.0161058
847.099	0.0159497
847.177	0.0158360
847.255	0.0159589
847.333	0.0159496
847.411	0.0157879
847.489	0.0157918
847.568	0.0159394
847.646	0.0158614
847.724	0.0157314
847.802	0.0157529
847.880	0.0158104
847.958	0.0158337
848.036	0.0160012
848.114	0.0158834
848.193	0.0159274
848.271	0.0159488
848.349	0.0160320
848.427	0.0159185
848.505	0.0158957
848.583	0.0158681
848.661	0.0159720
848.739	0.0159994
848.818	0.0160381
848.896	0.0160537
848.974	0.0161219
849.052	0.0159222
849.130	0.0158745
849.208	0.0158836
849.286	0.0159587
849.364	0.0159260
849.443	0.0159617
849.521	0.0159346
849.599	0.0160336
849.677	0.0158789
849.755	0.0160034
849.833	0.0159408
849.911	0.0160214
849.989	0.0160667
850.068	0.0160197
850.146	0.0160456
850.224	0.0160900
850.302	0.0160865
850.380	0.0161110
850.458	0.0158986
850.536	0.0158935
850.614	0.0160618
850.693	0.0158416
850.771	0.0158529
850.849	0.0158986
850.927	0.0160648
851.005	0.0160291
851.083	0.0159764
851.161	0.0159497
851.239	0.0159617
851.318	0.0158365
851.396	0.0159304
851.474	0.0158459
851.552	0.0158558
851.630	0.0158650
851.708	0.0158677
851.786	0.0157997
851.864	0.0159751
851.943	0.0158468
852.021	0.0158754
852.099	0.0158299
852.177	0.0158945
852.255	0.0159212
852.333	0.0161050
852.411	0.0160469
852.489	0.0158140
852.568	0.0158826
852.646	0.0159120
852.724	0.0160683
852.802	0.0159726
852.880	0.0159759
852.958	0.0159675
853.036	0.0159760
853.114	0.0161256
853.193	0.0160055
853.271	0.0159597
853.349	0.0159833
853.427	0.0159708
853.505	0.0158808
853.583	0.0160064
853.661	0.0159441
853.739	0.0158371
853.818	0.0158537
853.896	0.0158690
853.974	0.0158002
854.052	0.0157444
854.130	0.0158198
854.208	0.0158519
854.286	0.0158330
854.364	0.0158665
854.443	0.0158273
854.521	0.0157783
854.599	0.0156725
854.677	0.0158286
854.755	0.0157793
854.833	0.0158324
854.911	0.0159103
854.989	0.0158804
855.068	0.0158758
855.146	0.0159929
855.224	0.0159101
855.302	0.0159298
855.380	0.0159442
855.458	0.0158845
855.536	0.0159679
855.614	0.0157945
855.693	0.0161456
855.771	0.0160844
855.849	0.0160345
855.927	0.0160690
856.005	0.0160012
856.083	0.0160718
856.161	0.0159912
856.239	0.0160423
856.318	0.0159483
856.396	0.0159840
856.474	0.0161410
856.552	0.0160803
856.630	0.0159578
856.708	0.0159571
856.786	0.0160088
856.864	0.0159700
856.943	0.0159660
857.021	0.0158892
857.099	0.0159106
857.177	0.0156551
857.255	0.0158288
857.333	0.0158302
857.411	0.0158762
857.489	0.0159318
857.568	0.0158236
857.646	0.0157999
857.724	0.0158802
857.802	0.0158744
857.880	0.0157887
857.958	0.0159373
858.036	0.0157910
858.114	0.0157652
858.193	0.0157960
858.271	0.0158298
858.349	0.0158760
858.427	0.0157039
858.505	0.0157964
858.583	0.0157061
858.661	0.0157121
858.739	0.0156758
858.818	0.0158603
858.896	0.0157565
858.974	0.0156692
859.052	0.0156985
859.130	0.0158355
859.208	0.0157919
859.286	0.0158764
859.364	0.0158644
859.443	0.0158113
859.521	0.0159455
859.599	0.0158270
859.677	0.0158727
859.755	0.0159613
859.833	0.0159932
859.911	0.0160176
859.989	0.0159025
860.068	0.0160792
860.146	0.0161254
860.224	0.0163647
860.302	0.0158796
860.380	0.0160003
860.458	0.0160482
860.536	0.0161100
860.614	0.0160324
860.693	0.0160068
860.771	0.0160647
860.849	0.0160233
860.927	0.0159718
861.005	0.0160613
861.083	0.0159324
861.161	0.0158665
861.239	0.0159737
861.318	0.0159026
861.396	0.0159190
861.474	0.0158658
861.552	0.0158376
861.630	0.0158476
861.708	0.0158329
861.786	0.0157782
861.864	0.0157896
861.943	0.0159347
862.021	0.0158916
862.099	0.0158882
862.177	0.0158963
862.255	0.0158653
862.333	0.0159204
862.411	0.0158760
862.489	0.0159241
862.568	0.0159698
862.646	0.0158314
862.724	0.0158424
862.802	0.0157594
862.880	0.0159826
862.958	0.0159160
863.036	0.0158240
863.114	0.0157898
863.193	0.0158245
863.271	0.0159180
863.349	0.0158479
863.427	0.0159696
863.505	0.0158843
863.583	0.0158071
863.661	0.0159859
863.739	0.0159448
863.818	0.0159267
863.896	0.0159226
863.974	0.0159892
864.052	0.0159343
864.130	0.0159106
864.208	0.0159554
864.286	0.0158222
864.364	0.0159145
864.443	0.0159412
864.521	0.0158695
864.599	0.0158949
864.677	0.0158250
864.755	0.0157980
864.833	0.0159479
864.911	0.0157774
864.989	0.0158519
865.068	0.0160043
865.146	0.0159052
865.224	0.0158652
865.302	0.0159460
865.380	0.0158370
865.458	0.0158791
865.536	0.0160325
865.614	0.0159109
865.693	0.0159381
865.771	0.0160316
865.849	0.0159061
865.927	0.0158729
866.005	0.0158942
866.083	0.0159790
866.161	0.0159098
866.239	0.0158805
866.318	0.0158978
866.396	0.0159486
866.474	0.0158051
866.552	0.0160152
866.630	0.0159560
866.708	0.0158972
866.786	0.0159601
866.864	0.0158723
866.943	0.0159225
867.021	0.0158562
867.099	0.0158730
867.177	0.0158610
867.255	0.0158678
867.333	0.0158611
867.411	0.0158855
867.489	0.0160380
867.568	0.0159460
867.646	0.0160204
867.724	0.0159508
867.802	0.0158957
867.880	0.0160809
867.958	0.0159943
868.036	0.0159401
868.114	0.0161364
868.193	0.0162108
868.271	0.0161359
868.349	0.0160416
868.427	0.0159458
868.505	0.0160294
868.583	0.0160170
868.661	0.0159766
868.739	0.0159437
868.818	0.0159164
868.896	0.0158247
868.974	0.0158252
869.052	0.0157556
869.130	0.0159563
869.208	0.0158504
869.286	0.0157475
869.364	0.0159087
869.443	0.0157747
869.521	0.0158578
869.599	0.0158589
869.677	0.0157949
869.755	0.0158319
869.833	0.0158189
869.911	0.0158770
869.989	0.0158562
870.068	0.0157986
870.146	0.0157281
870.224	0.0158572
870.302	0.0157865
870.380	0.0156620
870.458	0.0158258
870.536	0.0157908
870.614	0.0157618
870.693	0.0157520
870.771	0.0158128
870.849	0.0157641
870.927	0.0157561
871.005	0.0158334
871.083	0.0158930
871.161	0.0158464
871.239	0.0158324
871.318	0.0159049
871.396	0.0159193
871.474	0.0159811
871.552	0.0160965
871.630	0.0160222
871.708	0.0159987
871.786	0.0162088
871.864	0.0161069
871.943	0.0161801
872.021	0.0161625
872.099	0.0160974
872.177	0.0160387
872.255	0.0162042
872.333	0.0160259
872.411	0.0160616
872.489	0.0160687
872.568	0.0161935
872.646	0.0161143
872.724	0.0159077
872.802	0.0159153
872.880	0.0159320
872.958	0.0159846
873.036	0.0159328
873.114	0.0160012
873.193	0.0159467
873.271	0.0158817
873.349	0.0158829
873.427	0.0159379
873.505	0.0159138
873.583	0.0158996
873.661	0.0159136
873.739	0.0159640
873.818	0.0158804
873.896	0.0159093
873.974	0.0158106
874.052	0.0157639
874.130	0.0158273
874.208	0.0157663
874.286	0.0158168
874.364	0.0159781
874.443	0.0157795
874.521	0.0158640
874.599	0.0157650
874.677	0.0157154
874.755	0.0158488
874.833	0.0157594
874.911	0.0159048
874.989	0.0159064
875.068	0.0158716
875.146	0.0158464
875.224	0.0158787
875.302	0.0159753
875.380	0.0159630
875.458	0.0159462
875.536	0.0158575
875.614	0.0160174
875.693	0.0161065
875.771	0.0160125
875.849	0.0158965
875.927	0.0160906
876.005	0.0162394
876.083	0.0160382
876.161	0.0160680
876.239	0.0159310
876.318	0.0159667
876.396	0.0160525
876.474	0.0160155
876.552	0.0160057
876.630	0.0160876
876.708	0.0160446
876.786	0.0159927
876.864	0.0158146
876.943	0.0159634
877.021	0.0160538
877.099	0.0159261
877.177	0.0159412
877.255	0.0159040
877.333	0.0159759
877.411	0.0157830
877.489	0.0158129
877.568	0.0158265
877.646	0.0158658
877.724	0.0158268
877.802	0.0158089
877.880	0.0156326
877.958	0.0158528
878.036	0.0157553
878.114	0.0157931
878.193	0.0156680
878.271	0.0158862
878.349	0.0158785
878.427	0.0158398
878.505	0.0160220
878.583	0.0159895
878.661	0.0159840
878.739	0.0159651
878.818	0.0160062
878.896	0.0160466
878.974	0.0160073
879.052	0.0158838
879.130	0.0159355
879.208	0.0159425
879.286	0.0158843
879.364	0.0158545
879.443	0.0157368
879.521	0.0159701
879.599	0.0158452
879.677	0.0158164
879.755	0.0158098
879.833	0.0158022
879.911	0.0158836
879.989	0.0156356
880.068	0.0160017
880.146	0.0160159
880.224	0.0160264
880.302	0.0160190
880.380	0.0160822
880.458	0.0160513
880.536	0.0159097
880.614	0.0160041
880.693	0.0159949
880.771	0.0161539
880.849	0.0161076
880.927	0.0161100
881.005	0.0161642
881.083	0.0160591
881.161	0.0160722
881.239	0.0161190
881.318	0.0161528
881.396	0.0160009
881.474	0.0158736
881.552	0.0160474
881.630	0.0159427
881.708	0.0160040
881.786	0.0158087
881.864	0.0159933
881.943	0.0158220
882.021	0.0157468
882.099	0.0155924
882.177	0.0156889
882.255	0.0155003
882.333	0.0155241
882.411	0.0153634
882.489	0.0154716
882.568	0.0154222
882.646	0.0152945
882.724	0.0152824
882.802	0.0154770
882.880	0.0156521
882.958	0.0155148
883.036	0.0155457
883.114	0.0157210
883.193	0.0158738
883.271	0.0159352
883.349	0.0158334
883.427	0.0160571
883.505	0.0161805
883.583	0.0163548
883.661	0.0164460
883.739	0.0164168
883.818	0.0163850
883.896	0.0164912
883.974	0.0165160
884.052	0.0165920
884.130	0.0164955
884.208	0.0166082
884.286	0.0165617
884.364	0.0164469
884.443	0.0164683
884.521	0.0163848
884.599	0.0162701
884.677	0.0161357
884.755	0.0160178
884.833	0.0158957
884.911	0.0159876
884.989	0.0159020
885.068	0.0156275
885.146	0.0155859
885.224	0.0153775
885.302	0.0154778
885.380	0.0153778
885.458	0.0153743
885.536	0.0154527
885.614	0.0153599
885.693	0.0153166
885.771	0.0153207
885.849	0.0152695
885.927	0.0152876
886.005	0.0154141
886.083	0.0155033
886.161	0.0153732
886.239	0.0153214
886.318	0.0155178
886.396	0.0155461
886.474	0.0156313
886.552	0.0157397
886.630	0.0157291
886.708	0.0158577
886.786	0.0158844
886.864	0.0159196
886.943	0.0159464
887.021	0.0160278
887.099	0.0162843
887.177	0.0163123
887.255	0.0164008
887.333	0.0164606
887.411	0.0165282
887.489	0.0165292
887.568	0.0167936
887.646	0.0166604
887.724	0.0166447
887.802	0.0164495
887.880	0.0163538
887.958	0.0164072
888.036	0.0164119
888.114	0.0162923
888.193	0.0161410
888.271	0.0160696
888.349	0.0158073
888.427	0.0157742
888.505	0.0157790
888.583	0.0156353
888.661	0.0155688
888.739	0.0153844
888.818	0.0154475
888.896	0.0155286
888.974	0.0154681
889.052	0.0154774
889.130	0.0153391
889.208	0.0153467
889.286	0.0153177
889.364	0.0153008
889.443	0.0153499
889.521	0.0154154
889.599	0.0154182
889.677	0.0154067
889.755	0.0154888
889.833	0.0155766
889.911	0.0156664
889.989	0.0156973
890.068	0.0157963
890.146	0.0158851
890.224	0.0158300
890.302	0.0159513
890.380	0.0159351
890.458	0.0159684
890.536	0.0161438
890.614	0.0162596
890.693	0.0162759
890.771	0.0163132
890.849	0.0161753
890.927	0.0163685
891.005	0.0164305
891.083	0.0163612
891.161	0.0163805
891.239	0.0162475
891.318	0.0163196
891.396	0.0162984
891.474	0.0162349
891.552	0.0161170
891.630	0.0161019
891.708	0.0160918
891.786	0.0160977
891.864	0.0158717
891.943	0.0158598
892.021	0.0158427
892.099	0.0158438
892.177	0.0157767
892.255	0.0157207
892.333	0.0156709
892.411	0.0155468
892.489	0.0155140
892.568	0.0156193
892.646	0.0154568
892.724	0.0154735
892.802	0.0156115
892.880	0.0156386
892.958	0.0156129
893.036	0.0155465
893.114	0.0156974
893.193	0.0157298
893.271	0.0158881
893.349	0.0157794
893.427	0.0158587
893.505	0.0159087
893.583	0.0159385
893.661	0.0160609
893.739	0.0162617
893.818	0.0161366
893.896	0.0160781
893.974	0.0161003
894.052	0.0161298
894.130	0.0161604
894.208	0.0161864
894.286	0.0161165
894.364	0.0159997
894.443	0.0160655
894.521	0.0162016
894.599	0.0160513
894.677	0.0159413
894.755	0.0159793
894.833	0.0161406
894.911	0.0160536
894.989	0.0161239
895.068	0.0158757
895.146	0.0159602
895.224	0.0159509
895.302	0.0158675
895.380	0.0159264
895.458	0.0159068
895.536	0.0158810
895.614	0.0160602
895.693	0.0160572
895.771	0.0159148
895.849	0.0158488
895.927	0.0160342
896.005	0.0159141
896.083	0.0158401
896.161	0.0160031
896.239	0.0159670
896.318	0.0158587
896.396	0.0159902
896.474	0.0159122
896.552	0.0159960
896.630	0.0157953
896.708	0.0160101
896.786	0.0159332
896.864	0.0159286
896.943	0.0159358
897.021	0.0158735
897.099	0.0158877
897.177	0.0159961
897.255	0.0158264
897.333	0.0159835
897.411	0.0159562
897.489	0.0159847
897.568	0.0159761
897.646	0.0158472
897.724	0.0158760
897.802	0.0160276
897.880	0.0159078
897.958	0.0159735
898.036	0.0158857
898.114	0.0158838
898.193	0.0159742
898.271	0.0159016
898.349	0.0157288
898.427	0.0157921
898.505	0.0159174
898.583	0.0158315
898.661	0.0158640
898.739	0.0159117
898.818	0.0158231
898.896	0.0159876
898.974	0.0161417
899.052	0.0161703
899.130	0.0160119
899.208	0.0160239
899.286	0.0162832
899.364	0.0160998
899.443	0.0161405
899.521	0.0161802
899.599	0.0161962
899.677	0.0162037
899.755	0.0161649
899.833	0.0162462
899.911	0.0161800
899.989	0.0161492
900.068	0.0161011
900.146	0.0161097
900.224	0.0159865
900.302	0.0161095
900.380	0.0159299
900.458	0.0159144
900.536	0.0159053
900.614	0.0158653
900.693	0.0158113
900.771	0.0157837
900.849	0.0157355
900.927	0.0158794
901.005	0.0159138
901.083	0.0158837
901.161	0.0159000
901.239	0.0157352
901.318	0.0158001
901.396	0.0158606
901.474	0.0158182
901.552	0.0157515
901.630	0.0159329
901.708	0.0158779
901.786	0.0157024
901.864	0.0157198
901.943	0.0156675
902.021	0.0157016
902.099	0.0157784
902.177	0.0156229
902.255	0.0157328
902.333	0.0156869
902.411	0.0157921
902.489	0.0158269
902.568	0.0157983
902.646	0.0157677
902.724	0.0158071
902.802	0.0160092
902.880	0.0161090
902.958	0.0160935
903.036	0.0161049
903.114	0.0161446
903.193	0.0161282
903.271	0.0162399
903.349	0.0161368
903.427	0.0162543
903.505	0.0163206
903.583	0.0163273
903.661	0.0160768
903.739	0.0161372
903.818	0.0163483
903.896	0.0162297
903.974	0.0160455
904.052	0.0162411
904.130	0.0163403
904.208	0.0162642
904.286	0.0161002
904.364	0.0160547
904.443	0.0161236
904.521	0.0159753
904.599	0.0160046
904.677	0.0160809
904.755	0.0157988
904.833	0.0157980
904.911	0.0157822
904.989	0.0157648
905.068	0.0156545
905.146	0.0156887
905.224	0.0157036
905.302	0.0156704
905.380	0.0157327
905.458	0.0157338
905.536	0.0157226
905.614	0.0157656
905.693	0.0158221
905.771	0.0157015
905.849	0.0158725
905.927	0.0159558
906.005	0.0158767
906.083	0.0158885
906.161	0.0161059
906.239	0.0160651
906.318	0.0159892
906.396	0.0160551
906.474	0.0160152
906.552	0.0159266
906.630	0.0159487
906.708	0.0159780
906.786	0.0158442
906.864	0.0160542
906.943	0.0159650
907.021	0.0159382
907.099	0.0160284
907.177	0.0160095
907.255	0.0159411
907.333	0.0160353
907.411	0.0161195
907.489	0.0162131
907.568	0.0161959
907.646	0.0163591
907.724	0.0162465
907.802	0.0161817
907.880	0.0161582
907.958	0.0163412
908.036	0.0163382
908.114	0.0161581
908.193	0.0161316
908.271	0.0159888
908.349	0.0159981
908.427	0.0158984
908.505	0.0157007
908.583	0.0156096
908.661	0.0156519
908.739	0.0155967
908.818	0.0156680
908.896	0.0156912
908.974	0.0156056
909.052	0.0155804
909.130	0.0156416
909.208	0.0157253
909.286	0.0157934
909.364	0.0156584
909.443	0.0158295
909.521	0.0158559
909.599	0.0157834
909.677	0.0160001
909.755	0.0159635
909.833	0.0160390
909.911	0.0159299
909.989	0.0159044
910.068	0.0157633
910.146	0.0159845
910.224	0.0159705
910.302	0.0158991
910.380	0.0157925
910.458	0.0157218
910.536	0.0158162
910.614	0.0157729
910.693	0.0157771
910.771	0.0159351
910.849	0.0158984
910.927	0.0158811
911.005	0.0158835
911.083	0.0159818
911.161	0.0158877
911.239	0.0160004
911.318	0.0160902
911.396	0.0160998
911.474	0.0162095
911.552	0.0162489
911.630	0.0162648
911.708	0.0162798
911.786	0.0162094
911.864	0.0162592
911.943	0.0161327
912.021	0.0162794
912.099	0.0162088
912.177	0.0162366
912.255	0.0162814
912.333	0.0161377
912.411	0.0161276
912.489	0.0160781
912.568	0.0162561
912.646	0.0160248
912.724	0.0160632
912.802	0.0160748
912.880	0.0159894
912.958	0.0159921
913.036	0.0159035
913.114	0.0158759
913.193	0.0158138
913.271	0.0157514
913.349	0.0158037
913.427	0.0157159
913.505	0.0156966
913.583	0.0156170
913.661	0.0155768
913.739	0.0155537
913.818	0.0157394
913.896	0.0156982
913.974	0.0157059
914.052	0.0157190
914.130	0.0157410
914.208	0.0157211
914.286	0.0158509
914.364	0.0157637
914.443	0.0157392
914.521	0.0158627
914.599	0.0158247
914.677	0.0158841
914.755	0.0159541
914.833	0.0160761
914.911	0.0159491
914.989	0.0160459
915.068	0.0160209
915.146	0.0160464
915.224	0.0159988
915.302	0.0160563
915.380	0.0159980
915.458	0.0161835
915.536	0.0162154
915.614	0.0160339
915.693	0.0161655
915.771	0.0161788
915.849	0.0160536
915.927	0.0162256
916.005	0.0161287
916.083	0.0160178
916.161	0.0160944
916.239	0.0160954
916.318	0.0160780
916.396	0.0158640
916.474	0.0160854
916.552	0.0162434
916.630	0.0160607
916.708	0.0160736
916.786	0.0161414
916.864	0.0159945
916.943	0.0162317
917.021	0.0160722
917.099	0.0160285
917.177	0.0160574
917.255	0.0160771
917.333	0.0159864
917.411	0.0159830
917.489	0.0159586
917.568	0.0159483
917.646	0.0160036
917.724	0.0159684
917.802	0.0158474
917.880	0.0159344
917.958	0.0158529
918.036	0.0159069
918.114	0.0158965
918.193	0.0158605
918.271	0.0158315
918.349	0.0159164
918.427	0.0159965
918.505	0.0159798
918.583	0.0158766
918.661	0.0160648
918.739	0.0160500
918.818	0.0159827
918.896	0.0159372
918.974	0.0160085
919.052	0.0159902
919.130	0.0160072
919.208	0.0159888
919.286	0.0161617
919.364	0.0161397
919.443	0.0161163
919.521	0.0161279
919.599	0.0161244
919.677	0.0160633
919.755	0.0160725
919.833	0.0160741
919.911	0.0160530
919.989	0.0159628
920.068	0.0160339
920.146	0.0160669
920.224	0.0161104
920.302	0.0160315
920.380	0.0159562
920.458	0.0159837
920.536	0.0159649
920.614	0.0159742
920.693	0.0159914
920.771	0.0158573
920.849	0.0159234
920.927	0.0160032
921.005	0.0159547
921.083	0.0160273
921.161	0.0159861
921.239	0.0159724
921.318	0.0158594
921.396	0.0159834
921.474	0.0159390
921.552	0.0160475
921.630	0.0159629
921.708	0.0159847
921.786	0.0159856
921.864	0.0161665
921.943	0.0161002
922.021	0.0162058
922.099	0.0162282
922.177	0.0160980
922.255	0.0161612
922.333	0.0161411
922.411	0.0162222
922.489	0.0163555
922.568	0.0162505
922.646	0.0160899
922.724	0.0161645
922.802	0.0160088
922.880	0.0160435
922.958	0.0160463
923.036	0.0160406
923.114	0.0159801
923.193	0.0160547
923.271	0.0160423
923.349	0.0159733
923.427	0.0159661
923.505	0.0160177
923.583	0.0158405
923.661	0.0159927
923.739	0.0158646
923.818	0.0159555
923.896	0.0158932
923.974	0.0160175
924.052	0.0159287
924.130	0.0158401
924.208	0.0159038
924.286	0.0160488
924.364	0.0159048
924.443	0.0158488
924.521	0.0157912
924.599	0.0160109
924.677	0.0159423
924.755	0.0158190
924.833	0.0159883
924.911	0.0159122
924.989	0.0159386
925.068	0.0159987
925.146	0.0159280
925.224	0.0159882
925.302	0.0159039
925.380	0.0159083
925.458	0.0160298
925.536	0.0160014
925.614	0.0158785
925.693	0.0159685
925.771	0.0160095
925.849	0.0159708
925.927	0.0158927
926.005	0.0160124
926.083	0.0161201
926.161	0.0159916
926.239	0.0161212
926.318	0.0159937
926.396	0.0160136
926.474	0.0161328
926.552	0.0162396
926.630	0.0160603
926.708	0.0160527
926.786	0.0162033
926.864	0.0161259
926.943	0.0160448
927.021	0.0160149
927.099	0.0160709
927.177	0.0158960
927.255	0.0160613
927.333	0.0159014
927.411	0.0159212
927.489	0.0159772
927.568	0.0159000
927.646	0.0158427
927.724	0.0158799
927.802	0.0158139
927.880	0.0158404
927.958	0.0160172
928.036	0.0158737
928.114	0.0158320
928.193	0.0156985
928.271	0.0159654
928.349	0.0160376
928.427	0.0159970
928.505	0.0160339
928.583	0.0160374
928.661	0.0160609
928.739	0.0158718
928.818	0.0160679
928.896	0.0159981
928.974	0.0159872
929.052	0.0160654
929.130	0.0160976
929.208	0.0161539
929.286	0.0160255
929.364	0.0159598
929.443	0.0160783
929.521	0.0160766
929.599	0.0160201
929.677	0.0158550
929.755	0.0159801
929.833	0.0159863
929.911	0.0159306
929.989	0.0159710
930.068	0.0159899
930.146	0.0159887
930.224	0.0159995
930.302	0.0160603
930.380	0.0159763
930.458	0.0159766
930.536	0.0160818
930.614	0.0160217
930.693	0.0159585
930.771	0.0161971
930.849	0.0160104
930.927	0.0160707
931.005	0.0161015
931.083	0.0160518
931.161	0.0159980
931.239	0.0161108
931.318	0.0160701
931.396	0.0159511
931.474	0.0160006
931.552	0.0159477
931.630	0.0160664
931.708	0.0157745
931.786	0.0159177
931.864	0.0158672
931.943	0.0158575
932.021	0.0158816
932.099	0.0157249
932.177	0.0157166
932.255	0.0158427
932.333	0.0159171
932.411	0.0157924
932.489	0.0157320
932.568	0.0157960
932.646	0.0157481
932.724	0.0157526
932.802	0.0157364
932.880	0.0158282
932.958	0.0159608
933.036	0.0157897
933.114	0.0158141
933.193	0.0156979
933.271	0.0158673
933.349	0.0159016
933.427	0.0160392
933.505	0.0158459
933.583	0.0158466
933.661	0.0158778
933.739	0.0158941
933.818	0.0157819
933.896	0.0159238
933.974	0.0158532
934.052	0.0159604
934.130	0.0159395
934.208	0.0158977
934.286	0.0159329
934.364	0.0159789
934.443	0.0158822
934.521	0.0159980
934.599	0.0158940
934.677	0.0159010
934.755	0.0160372
934.833	0.0159526
934.911	0.0160549
934.989	0.0159301
935.068	0.0159865
935.146	0.0160957
935.224	0.0160983
935.302	0.0159332
935.380	0.0159779
935.458	0.0158465
935.536	0.0160677
935.614	0.0159863
935.693	0.0160104
935.771	0.0160348
935.849	0.0159734
935.927	0.0159364
936.005	0.0158782
936.083	0.0158768
936.161	0.0159377
936.239	0.0158448
936.318	0.0159158
936.396	0.0159641
936.474	0.0158756
936.552	0.0159464
936.630	0.0159923
936.708	0.0158979
936.786	0.0158548
936.864	0.0159360
936.943	0.0160265
937.021	0.0159473
937.099	0.0159741
937.177	0.0160310
937.255	0.0162706
937.333	0.0162223
937.411	0.0160773
937.489	0.0159981
937.568	0.0160316
937.646	0.0161578
937.724	0.0161005
937.802	0.0160309
937.880	0.0159622
937.958	0.0158194
938.036	0.0158861
938.114	0.0159586
938.193	0.0158985
938.271	0.0158242
938.349	0.0157086
938.427	0.0157353
938.505	0.0157038
938.583	0.0156400
938.661	0.0156995
938.739	0.0155456
938.818	0.0157362
938.896	0.0157037
938.974	0.0157448
939.052	0.0155975
939.130	0.0157480
939.208	0.0158126
939.286	0.0158519
939.364	0.0158018
939.443	0.0158092
939.521	0.0159208
939.599	0.0160304
939.677	0.0160165
939.755	0.0160018
939.833	0.0161104
939.911	0.0161755
939.989	0.0161807
940.068	0.0161406
940.146	0.0161415
940.224	0.0161864
940.302	0.0162669
940.380	0.0160332
940.458	0.0161204
940.536	0.0162160
940.614	0.0161216
940.693	0.0161685
940.771	0.0160831
940.849	0.0161571
940.927	0.0160715
941.005	0.0160119
941.083	0.0160892
941.161	0.0160575
941.239	0.0160744
941.318	0.0158847
941.396	0.0158878
941.474	0.0158837
941.552	0.0158585
941.630	0.0158656
941.708	0.0159661
941.786	0.0157703
941.864	0.0157616
941.943	0.0158752
942.021	0.0156796
942.099	0.0157794
942.177	0.0158219
942.255	0.0157635
942.333	0.0156538
942.411	0.0156841
942.489	0.0157064
942.568	0.0157488
942.646	0.0159164
942.724	0.0157266
942.802	0.0158576
942.880	0.0159271
942.958	0.0160637
943.036	0.0161478
943.114	0.0160338
943.193	0.0161295
943.271	0.0163246
943.349	0.0161014
943.427	0.0160414
943.505	0.0160310
943.583	0.0161931
943.661	0.0162395
943.739	0.0160779
943.818	0.0161497
943.896	0.0160603
943.974	0.0160307
944.052	0.0160377
944.130	0.0159586
944.208	0.0161282
944.286	0.0159591
944.364	0.0160672
944.443	0.0160680
944.521	0.0160538
944.599	0.0159197
944.677	0.0159258
944.755	0.0160265
944.833	0.0158486
944.911	0.0158780
944.989	0.0158744
945.068	0.0159527
945.146	0.0158897
945.224	0.0156129
945.302	0.0156990
945.380	0.0158269
945.458	0.0157581
945.536	0.0158103
945.614	0.0157444
945.693	0.0157566
945.771	0.0157762
945.849	0.0158241
945.927	0.0156827
946.005	0.0158291
946.083	0.0158155
946.161	0.0158421
946.239	0.0158544
946.318	0.0158550
946.396	0.0158144
946.474	0.0159034
946.552	0.0159303
946.630	0.0160395
946.708	0.0161979
946.786	0.0160766
946.864	0.0160817
946.943	0.0162151
947.021	0.0162491
947.099	0.0162650
947.177	0.0164484
947.255	0.0161646
947.333	0.0161985
947.411	0.0161316
947.489	0.0161868
947.568	0.0159991
947.646	0.0161277
947.724	0.0162568
947.802	0.0161569
947.880	0.0159756
947.958	0.0159999
948.036	0.0161808
948.114	0.0160242
948.193	0.0158729
948.271	0.0160300
948.349	0.0160921
948.427	0.0160389
948.505	0.0159187
948.583	0.0159644
948.661	0.0159727
948.739	0.0158946
948.818	0.0159525
948.896	0.0159099
948.974	0.0159620
949.052	0.0159352
949.130	0.0157850
949.208	0.0160229
949.286	0.0158899
949.364	0.0160320
949.443	0.0158342
949.521	0.0158826
949.599	0.0158827
949.677	0.0159336
949.755	0.0157307
949.833	0.0158205
949.911	0.0157308
949.989	0.0158818
950.068	0.0157658
950.146	0.0158259
950.224	0.0159159
950.302	0.0158015
950.380	0.0159566
950.458	0.0159241
950.536	0.0160728
950.614	0.0159724
950.693	0.0160255
950.771	0.0161667
950.849	0.0162247
950.927	0.0161548
951.005	0.0161545
951.083	0.0160576
951.161	0.0162650
951.239	0.0162469
951.318	0.0162016
951.396	0.0161887
951.474	0.0161679
951.552	0.0160117
951.630	0.0160503
951.708	0.0159290
951.786	0.0158975
951.864	0.0159673
951.943	0.0158376
952.021	0.0158091
952.099	0.0157610
952.177	0.0158457
952.255	0.0156643
952.333	0.0157542
952.411	0.0156953
952.489	0.0157662
952.568	0.0158581
952.646	0.0158172
952.724	0.0159955
952.802	0.0160673
952.880	0.0158725
952.958	0.0158923
953.036	0.0159453
953.114	0.0160401
953.193	0.0159055
953.271	0.0159840
953.349	0.0158482
953.427	0.0159180
953.505	0.0158865
953.583	0.0158219
953.661	0.0157809
953.739	0.0157893
953.818	0.0158798
953.896	0.0157493
953.974	0.0158064
954.052	0.0158324
954.130	0.0158155
954.208	0.0157450
954.286	0.0158490
954.364	0.0158633
954.443	0.0159154
954.521	0.0158238
954.599	0.0159187
954.677	0.0158255
954.755	0.0158401
954.833	0.0160552
954.911	0.0160162
954.989	0.0161212
955.068	0.0159991
955.146	0.0159882
955.224	0.0160171
955.302	0.0160275
955.380	0.0159908
955.458	0.0158765
955.536	0.0159098
955.614	0.0159944
955.693	0.0160625
955.771	0.0160558
955.849	0.0160093
955.927	0.0159458
956.005	0.0158365
956.083	0.0158067
956.161	0.0158659
956.239	0.0158167
956.318	0.0158251
956.396	0.0159471
956.474	0.0159587
956.552	0.0159361
956.630	0.0159286
956.708	0.0158788
956.786	0.0160798
956.864	0.0159669
956.943	0.0159201
957.021	0.0159049
957.099	0.0159772
957.177	0.0158482
957.255	0.0157688
957.333	0.0158583
957.411	0.0157700
957.489	0.0157271
957.568	0.0157540
957.646	0.0157035
957.724	0.0159248
957.802	0.0157497
957.880	0.0158062
957.958	0.0156532
958.036	0.0158012
958.114	0.0158138
958.193	0.0157365
958.271	0.0157894
958.349	0.0159650
958.427	0.0160128
958.505	0.0160142
958.583	0.0161414
958.661	0.0160831
958.739	0.0159529
958.818	0.0161486
958.896	0.0160908
958.974	0.0161342
959.052	0.0162276
959.130	0.0162179
959.208	0.0159460
959.286	0.0159019
959.364	0.0160802
959.443	0.0160283
959.521	0.0159929
959.599	0.0159962
959.677	0.0158523
959.755	0.0157725
959.833	0.0157874
959.911	0.0158708
