05/17/2022	16:39:03	Ver.	4.1	UNKNOWN
Optical Delay	639.989416	Delta X		0.078125	Sweeps	1	Scan Rate	0/0
Coordinates	Axis 1	NaN	Axis 2	NaN	Axis 3	NaN	Axis 4	NaN	Axis 5	NaN	Axis 6	0.000000
TX Power	0.000000	RX Power	0.000000

639.989	0.0161635
640.068	0.0161501
640.146	0.0161604
640.224	0.0161482
640.302	0.0160397
640.380	0.0161591
640.458	0.0162087
640.536	0.0162321
640.614	0.0161414
640.693	0.0161597
640.771	0.0162135
640.849	0.0162044
640.927	0.0162087
641.005	0.0161761
641.083	0.0162611
641.161	0.0161098
641.239	0.0161370
641.318	0.0161909
641.396	0.0162459
641.474	0.0162077
641.552	0.0161774
641.630	0.0161447
641.708	0.0161420
641.786	0.0161419
641.864	0.0162274
641.943	0.0161314
642.021	0.0162750
642.099	0.0162328
642.177	0.0161152
642.255	0.0161044
642.333	0.0161222
642.411	0.0160436
642.489	0.0161116
642.568	0.0161313
642.646	0.0161786
642.724	0.0161535
642.802	0.0161230
642.880	0.0162921
642.958	0.0162924
643.036	0.0162275
643.114	0.0161834
643.193	0.0162041
643.271	0.0161551
643.349	0.0162230
643.427	0.0160426
643.505	0.0163135
643.583	0.0162266
643.661	0.0161716
643.739	0.0160476
643.818	0.0161781
643.896	0.0162186
643.974	0.0162471
644.052	0.0162841
644.130	0.0163093
644.208	0.0162694
644.286	0.0161314
644.364	0.0162824
644.443	0.0160349
644.521	0.0161829
644.599	0.0161058
644.677	0.0162341
644.755	0.0162363
644.833	0.0160541
644.911	0.0161704
644.989	0.0161467
645.068	0.0160652
645.146	0.0162817
645.224	0.0162182
645.302	0.0161678
645.380	0.0162631
645.458	0.0162262
645.536	0.0160420
645.614	0.0161098
645.693	0.0160918
645.771	0.0162409
645.849	0.0161772
645.927	0.0161629
646.005	0.0160989
646.083	0.0162011
646.161	0.0162590
646.239	0.0162039
646.318	0.0161599
646.396	0.0162363
646.474	0.0160710
646.552	0.0162224
646.630	0.0161770
646.708	0.0161073
646.786	0.0161652
646.864	0.0162640
646.943	0.0161993
647.021	0.0161466
647.099	0.0161877
647.177	0.0160953
647.255	0.0162885
647.333	0.0161304
647.411	0.0161187
647.489	0.0161449
647.568	0.0163721
647.646	0.0162486
647.724	0.0161211
647.802	0.0161774
647.880	0.0161231
647.958	0.0161393
648.036	0.0161681
648.114	0.0161618
648.193	0.0161431
648.271	0.0160860
648.349	0.0161935
648.427	0.0161279
648.505	0.0160542
648.583	0.0161467
648.661	0.0163383
648.739	0.0163117
648.818	0.0159789
648.896	0.0161274
648.974	0.0163054
649.052	0.0162405
649.130	0.0161695
649.208	0.0161761
649.286	0.0161432
649.364	0.0162330
649.443	0.0161181
649.521	0.0162592
649.599	0.0162458
649.677	0.0162444
649.755	0.0161411
649.833	0.0162306
649.911	0.0161642
649.989	0.0160297
650.068	0.0162555
650.146	0.0161179
650.224	0.0161407
650.302	0.0161668
650.380	0.0162685
650.458	0.0161669
650.536	0.0162032
650.614	0.0160827
650.693	0.0159966
650.771	0.0161478
650.849	0.0161234
650.927	0.0161862
651.005	0.0160928
651.083	0.0162550
651.161	0.0162663
651.239	0.0160873
651.318	0.0161784
651.396	0.0161815
651.474	0.0161708
651.552	0.0161182
651.630	0.0162012
651.708	0.0161846
651.786	0.0161880
651.864	0.0162070
651.943	0.0162209
652.021	0.0161002
652.099	0.0161457
652.177	0.0161701
652.255	0.0161770
652.333	0.0161501
652.411	0.0162131
652.489	0.0161584
652.568	0.0162138
652.646	0.0162087
652.724	0.0161739
652.802	0.0161464
652.880	0.0161746
652.958	0.0161390
653.036	0.0160753
653.114	0.0162132
653.193	0.0163103
653.271	0.0163435
653.349	0.0162495
653.427	0.0161600
653.505	0.0160375
653.583	0.0162073
653.661	0.0162169
653.739	0.0160661
653.818	0.0162753
653.896	0.0161007
653.974	0.0161219
654.052	0.0161897
654.130	0.0160887
654.208	0.0161983
654.286	0.0160052
654.364	0.0161120
654.443	0.0161852
654.521	0.0162111
654.599	0.0161461
654.677	0.0160220
654.755	0.0160672
654.833	0.0162449
654.911	0.0162347
654.989	0.0160938
655.068	0.0161567
655.146	0.0161379
655.224	0.0161481
655.302	0.0161179
655.380	0.0161833
655.458	0.0162363
655.536	0.0161802
655.614	0.0162125
655.693	0.0160896
655.771	0.0161986
655.849	0.0162010
655.927	0.0160707
656.005	0.0161671
656.083	0.0162695
656.161	0.0162160
656.239	0.0160841
656.318	0.0162191
656.396	0.0161472
656.474	0.0163258
656.552	0.0161954
656.630	0.0161259
656.708	0.0162348
656.786	0.0161545
656.864	0.0162551
656.943	0.0161659
657.021	0.0161295
657.099	0.0161349
657.177	0.0161864
657.255	0.0162997
657.333	0.0162481
657.411	0.0162070
657.489	0.0161247
657.568	0.0162220
657.646	0.0162460
657.724	0.0162260
657.802	0.0162371
657.880	0.0161622
657.958	0.0162550
658.036	0.0162337
658.114	0.0160848
658.193	0.0161530
658.271	0.0161086
658.349	0.0161710
658.427	0.0160981
658.505	0.0162614
658.583	0.0162793
658.661	0.0161286
658.739	0.0163103
658.818	0.0162300
658.896	0.0162080
658.974	0.0161398
659.052	0.0161830
659.130	0.0161143
659.208	0.0161824
659.286	0.0161845
659.364	0.0160941
659.443	0.0162457
659.521	0.0160822
659.599	0.0161799
659.677	0.0162547
659.755	0.0161941
659.833	0.0161488
659.911	0.0160532
659.989	0.0161562
660.068	0.0160837
660.146	0.0162277
660.224	0.0161871
660.302	0.0160780
660.380	0.0162878
660.458	0.0160841
660.536	0.0162165
660.614	0.0161268
660.693	0.0160448
660.771	0.0161459
660.849	0.0162865
660.927	0.0160404
661.005	0.0161543
661.083	0.0161592
661.161	0.0161593
661.239	0.0161124
661.318	0.0161281
661.396	0.0162476
661.474	0.0162394
661.552	0.0160818
661.630	0.0159715
661.708	0.0162064
661.786	0.0162672
661.864	0.0163390
661.943	0.0161264
662.021	0.0162634
662.099	0.0160431
662.177	0.0161947
662.255	0.0161528
662.333	0.0162115
662.411	0.0162569
662.489	0.0161278
662.568	0.0162119
662.646	0.0162644
662.724	0.0160268
662.802	0.0162058
662.880	0.0161972
662.958	0.0161395
663.036	0.0161622
663.114	0.0161683
663.193	0.0161470
663.271	0.0162560
663.349	0.0162814
663.427	0.0160549
663.505	0.0161455
663.583	0.0161625
663.661	0.0163487
663.739	0.0162688
663.818	0.0162994
663.896	0.0161916
663.974	0.0161964
664.052	0.0162192
664.130	0.0160946
664.208	0.0162307
664.286	0.0161764
664.364	0.0162301
664.443	0.0162273
664.521	0.0162144
664.599	0.0161633
664.677	0.0159973
664.755	0.0163374
664.833	0.0162181
664.911	0.0161566
664.989	0.0161099
665.068	0.0161148
665.146	0.0162332
665.224	0.0163216
665.302	0.0162956
665.380	0.0163653
665.458	0.0162096
665.536	0.0161325
665.614	0.0162262
665.693	0.0162288
665.771	0.0163783
665.849	0.0162595
665.927	0.0161172
666.005	0.0161777
666.083	0.0162000
666.161	0.0160818
666.239	0.0162442
666.318	0.0163171
666.396	0.0162939
666.474	0.0162398
666.552	0.0163241
666.630	0.0161726
666.708	0.0162103
666.786	0.0161496
666.864	0.0162331
666.943	0.0161623
667.021	0.0162179
667.099	0.0162267
667.177	0.0161775
667.255	0.0162515
667.333	0.0161390
667.411	0.0162121
667.489	0.0163258
667.568	0.0161249
667.646	0.0161761
667.724	0.0162506
667.802	0.0161757
667.880	0.0162858
667.958	0.0163655
668.036	0.0162424
668.114	0.0161771
668.193	0.0161797
668.271	0.0163018
668.349	0.0163804
668.427	0.0162054
668.505	0.0162054
668.583	0.0162533
668.661	0.0162124
668.739	0.0161555
668.818	0.0162027
668.896	0.0161497
668.974	0.0160739
669.052	0.0161326
669.130	0.0162020
669.208	0.0162853
669.286	0.0162239
669.364	0.0162379
669.443	0.0162073
669.521	0.0161324
669.599	0.0162411
669.677	0.0162742
669.755	0.0161459
669.833	0.0161983
669.911	0.0162576
669.989	0.0161790
670.068	0.0161024
670.146	0.0161199
670.224	0.0161139
670.302	0.0163372
670.380	0.0161323
670.458	0.0161890
670.536	0.0161453
670.614	0.0161103
670.693	0.0161426
670.771	0.0160695
670.849	0.0161430
670.927	0.0160057
671.005	0.0161691
671.083	0.0162079
671.161	0.0161124
671.239	0.0161491
671.318	0.0161493
671.396	0.0160661
671.474	0.0160848
671.552	0.0160793
671.630	0.0161868
671.708	0.0161790
671.786	0.0161386
671.864	0.0161067
671.943	0.0160931
672.021	0.0162632
672.099	0.0163081
672.177	0.0161592
672.255	0.0160892
672.333	0.0162458
672.411	0.0161511
672.489	0.0161835
672.568	0.0161774
672.646	0.0162461
672.724	0.0161269
672.802	0.0161218
672.880	0.0160952
672.958	0.0160849
673.036	0.0161292
673.114	0.0160182
673.193	0.0161260
673.271	0.0161179
673.349	0.0161279
673.427	0.0161433
673.505	0.0162471
673.583	0.0160960
673.661	0.0160727
673.739	0.0161931
673.818	0.0162745
673.896	0.0161047
673.974	0.0161138
674.052	0.0160355
674.130	0.0160352
674.208	0.0162313
674.286	0.0162061
674.364	0.0162633
674.443	0.0162955
674.521	0.0161179
674.599	0.0162248
674.677	0.0162585
674.755	0.0162516
674.833	0.0162095
674.911	0.0161562
674.989	0.0162669
675.068	0.0162221
675.146	0.0162089
675.224	0.0161998
675.302	0.0160578
675.380	0.0161986
675.458	0.0160390
675.536	0.0161546
675.614	0.0160035
675.693	0.0160566
675.771	0.0161395
675.849	0.0162910
675.927	0.0162512
676.005	0.0160358
676.083	0.0160598
676.161	0.0161744
676.239	0.0161160
676.318	0.0162548
676.396	0.0162702
676.474	0.0161114
676.552	0.0161684
676.630	0.0162753
676.708	0.0161919
676.786	0.0162753
676.864	0.0162401
676.943	0.0161562
677.021	0.0162545
677.099	0.0162536
677.177	0.0162408
677.255	0.0160117
677.333	0.0162011
677.411	0.0162112
677.489	0.0161307
677.568	0.0162502
677.646	0.0163286
677.724	0.0160903
677.802	0.0162231
677.880	0.0162411
677.958	0.0161477
678.036	0.0161610
678.114	0.0161875
678.193	0.0161942
678.271	0.0161995
678.349	0.0162238
678.427	0.0161204
678.505	0.0162617
678.583	0.0162184
678.661	0.0161884
678.739	0.0161189
678.818	0.0162930
678.896	0.0161858
678.974	0.0160461
679.052	0.0161514
679.130	0.0161111
679.208	0.0161662
679.286	0.0161913
679.364	0.0161478
679.443	0.0161835
679.521	0.0162398
679.599	0.0159427
679.677	0.0160794
679.755	0.0161869
679.833	0.0162893
679.911	0.0160183
679.989	0.0162300
680.068	0.0161263
680.146	0.0161993
680.224	0.0161881
680.302	0.0163225
680.380	0.0160952
680.458	0.0161838
680.536	0.0161754
680.614	0.0161815
680.693	0.0161057
680.771	0.0161415
680.849	0.0160754
680.927	0.0161588
681.005	0.0160802
681.083	0.0161883
681.161	0.0162718
681.239	0.0161157
681.318	0.0161980
681.396	0.0162746
681.474	0.0160683
681.552	0.0162350
681.630	0.0162556
681.708	0.0163029
681.786	0.0162602
681.864	0.0162395
681.943	0.0162323
682.021	0.0161195
682.099	0.0163097
682.177	0.0162234
682.255	0.0161396
682.333	0.0161295
682.411	0.0160625
682.489	0.0160336
682.568	0.0160751
682.646	0.0160879
682.724	0.0160220
682.802	0.0160980
682.880	0.0161410
682.958	0.0161714
683.036	0.0161164
683.114	0.0161307
683.193	0.0161777
683.271	0.0162366
683.349	0.0161324
683.427	0.0162305
683.505	0.0163086
683.583	0.0162850
683.661	0.0163100
683.739	0.0162974
683.818	0.0164553
683.896	0.0163126
683.974	0.0164777
684.052	0.0163461
684.130	0.0163290
684.208	0.0164201
684.286	0.0162878
684.364	0.0161175
684.443	0.0160179
684.521	0.0159399
684.599	0.0159007
684.677	0.0157435
684.755	0.0157417
684.833	0.0157568
684.911	0.0156091
684.989	0.0157040
685.068	0.0156849
685.146	0.0156521
685.224	0.0157365
685.302	0.0158338
685.380	0.0160249
685.458	0.0160436
685.536	0.0162133
685.614	0.0162555
685.693	0.0164933
685.771	0.0167188
685.849	0.0167414
685.927	0.0169289
686.005	0.0170558
686.083	0.0173100
686.161	0.0174576
686.239	0.0174432
686.318	0.0176138
686.396	0.0174065
686.474	0.0173409
686.552	0.0170496
686.630	0.0169351
686.708	0.0167300
686.786	0.0164989
686.864	0.0161000
686.943	0.0157957
687.021	0.0154005
687.099	0.0151274
687.177	0.0150375
687.255	0.0147602
687.333	0.0144245
687.411	0.0145257
687.489	0.0143451
687.568	0.0143406
687.646	0.0144022
687.724	0.0144864
687.802	0.0146999
687.880	0.0148055
687.958	0.0150267
688.036	0.0151882
688.114	0.0155414
688.193	0.0159501
688.271	0.0161742
688.349	0.0166158
688.427	0.0168713
688.505	0.0173441
688.583	0.0175799
688.661	0.0178487
688.739	0.0180260
688.818	0.0182333
688.896	0.0184390
688.974	0.0185194
689.052	0.0186472
689.130	0.0184027
689.208	0.0184985
689.286	0.0184518
689.364	0.0181094
689.443	0.0180202
689.521	0.0179946
689.599	0.0177490
689.677	0.0174876
689.755	0.0171110
689.833	0.0167790
689.911	0.0165176
689.989	0.0159326
690.068	0.0156781
690.146	0.0152187
690.224	0.0148228
690.302	0.0141294
690.380	0.0137653
690.458	0.0134610
690.536	0.0133022
690.614	0.0128447
690.693	0.0127203
690.771	0.0125104
690.849	0.0125454
690.927	0.0123447
691.005	0.0125092
691.083	0.0126906
691.161	0.0128638
691.239	0.0131935
691.318	0.0135959
691.396	0.0139999
691.474	0.0146493
691.552	0.0153732
691.630	0.0160582
691.708	0.0168111
691.786	0.0176185
691.864	0.0185014
691.943	0.0192380
692.021	0.0198759
692.099	0.0205198
692.177	0.0208995
692.255	0.0212103
692.333	0.0213747
692.411	0.0216296
692.489	0.0214996
692.568	0.0212617
692.646	0.0210670
692.724	0.0208437
692.802	0.0203397
692.880	0.0198740
692.958	0.0194176
693.036	0.0189700
693.114	0.0182414
693.193	0.0174133
693.271	0.0168690
693.349	0.0160756
693.427	0.0153028
693.505	0.0146516
693.583	0.0140116
693.661	0.0133557
693.739	0.0128439
693.818	0.0122342
693.896	0.0119443
693.974	0.0116661
694.052	0.0116020
694.130	0.0114272
694.208	0.0112759
694.286	0.0113415
694.364	0.0113554
694.443	0.0115195
694.521	0.0115543
694.599	0.0117901
694.677	0.0118823
694.755	0.0121031
694.833	0.0124248
694.911	0.0126096
694.989	0.0129642
695.068	0.0135246
695.146	0.0141165
695.224	0.0146850
695.302	0.0154173
695.380	0.0163862
695.458	0.0172275
695.536	0.0182099
695.614	0.0191630
695.693	0.0199993
695.771	0.0209824
695.849	0.0217742
695.927	0.0222831
696.005	0.0227558
696.083	0.0230948
696.161	0.0231906
696.239	0.0231377
696.318	0.0231887
696.396	0.0228073
696.474	0.0222844
696.552	0.0216959
696.630	0.0211316
696.708	0.0203183
696.786	0.0193508
696.864	0.0184151
696.943	0.0175228
697.021	0.0163634
697.099	0.0153018
697.177	0.0144735
697.255	0.0135059
697.333	0.0128508
697.411	0.0122324
697.489	0.0118675
697.568	0.0114810
697.646	0.0114362
697.724	0.0114294
697.802	0.0116118
697.880	0.0116857
697.958	0.0118239
698.036	0.0121279
698.114	0.0123383
698.193	0.0125485
698.271	0.0127546
698.349	0.0128699
698.427	0.0130011
698.505	0.0131775
698.583	0.0134062
698.661	0.0135607
698.739	0.0138052
698.818	0.0140343
698.896	0.0144060
698.974	0.0146976
699.052	0.0150634
699.130	0.0154348
699.208	0.0157780
699.286	0.0163889
699.364	0.0169413
699.443	0.0173609
699.521	0.0179121
699.599	0.0185680
699.677	0.0190137
699.755	0.0195899
699.833	0.0199990
699.911	0.0203819
699.989	0.0207495
700.068	0.0207973
700.146	0.0208004
700.224	0.0207231
700.302	0.0206776
700.380	0.0201556
700.458	0.0199003
700.536	0.0195178
700.614	0.0189088
700.693	0.0185055
700.771	0.0178172
700.849	0.0170735
700.927	0.0166669
701.005	0.0160571
701.083	0.0156256
701.161	0.0149886
701.239	0.0147157
701.318	0.0145839
701.396	0.0142929
701.474	0.0140630
701.552	0.0141702
701.630	0.0139314
701.708	0.0140321
701.786	0.0141413
701.864	0.0144370
701.943	0.0143327
702.021	0.0144676
702.099	0.0145088
702.177	0.0147700
702.255	0.0148764
702.333	0.0149171
702.411	0.0150880
702.489	0.0150296
702.568	0.0152338
702.646	0.0152789
702.724	0.0155112
702.802	0.0154821
702.880	0.0153788
702.958	0.0153553
703.036	0.0153150
703.114	0.0154944
703.193	0.0154085
703.271	0.0154569
703.349	0.0156705
703.427	0.0157130
703.505	0.0158927
703.583	0.0159792
703.661	0.0161827
703.739	0.0163255
703.818	0.0165807
703.896	0.0165977
703.974	0.0166144
704.052	0.0166095
704.130	0.0168325
704.208	0.0169210
704.286	0.0170658
704.364	0.0170391
704.443	0.0170889
704.521	0.0170586
704.599	0.0171734
704.677	0.0171684
704.755	0.0171691
704.833	0.0169370
704.911	0.0167322
704.989	0.0165191
705.068	0.0163028
705.146	0.0163466
705.224	0.0161205
705.302	0.0159259
705.380	0.0158110
705.458	0.0158419
705.536	0.0157470
705.614	0.0159468
705.693	0.0161199
705.771	0.0161036
705.849	0.0163905
705.927	0.0163989
706.005	0.0163493
706.083	0.0164178
706.161	0.0164538
706.239	0.0163715
706.318	0.0163628
706.396	0.0161800
706.474	0.0161419
706.552	0.0161032
706.630	0.0159203
706.708	0.0159272
706.786	0.0158031
706.864	0.0158969
706.943	0.0158740
707.021	0.0157236
707.099	0.0157390
707.177	0.0157972
707.255	0.0157327
707.333	0.0156840
707.411	0.0157232
707.489	0.0158067
707.568	0.0158762
707.646	0.0157386
707.724	0.0158440
707.802	0.0159995
707.880	0.0161389
707.958	0.0162705
708.036	0.0164413
708.114	0.0166599
708.193	0.0168251
708.271	0.0169867
708.349	0.0171279
708.427	0.0173082
708.505	0.0172604
708.583	0.0172725
708.661	0.0172640
708.739	0.0170802
708.818	0.0169116
708.896	0.0168286
708.974	0.0166843
709.052	0.0165628
709.130	0.0163682
709.208	0.0161295
709.286	0.0159177
709.364	0.0156083
709.443	0.0155838
709.521	0.0154572
709.599	0.0153928
709.677	0.0152200
709.755	0.0151251
709.833	0.0150501
709.911	0.0150011
709.989	0.0149564
710.068	0.0150585
710.146	0.0150953
710.224	0.0151350
710.302	0.0151052
710.380	0.0152736
710.458	0.0151541
710.536	0.0153252
710.614	0.0154032
710.693	0.0153474
710.771	0.0154840
710.849	0.0155480
710.927	0.0155204
711.005	0.0156847
711.083	0.0157932
711.161	0.0159878
711.239	0.0161803
711.318	0.0165083
711.396	0.0166806
711.474	0.0169050
711.552	0.0171632
711.630	0.0173466
711.708	0.0177449
711.786	0.0180051
711.864	0.0181744
711.943	0.0183627
712.021	0.0184889
712.099	0.0186455
712.177	0.0186926
712.255	0.0186441
712.333	0.0182804
712.411	0.0181129
712.489	0.0179374
712.568	0.0175146
712.646	0.0170170
712.724	0.0166228
712.802	0.0163422
712.880	0.0158616
712.958	0.0155665
713.036	0.0154330
713.114	0.0151334
713.193	0.0149450
713.271	0.0150099
713.349	0.0149320
713.427	0.0150721
713.505	0.0149672
713.583	0.0151601
713.661	0.0152300
713.739	0.0151629
713.818	0.0151013
713.896	0.0151077
713.974	0.0150784
714.052	0.0148753
714.130	0.0148502
714.208	0.0145235
714.286	0.0143887
714.364	0.0143165
714.443	0.0143582
714.521	0.0143828
714.599	0.0142607
714.677	0.0141713
714.755	0.0142988
714.833	0.0146883
714.911	0.0148985
714.989	0.0151115
715.068	0.0154091
715.146	0.0158907
715.224	0.0164309
715.302	0.0168385
715.380	0.0171712
715.458	0.0176119
715.536	0.0179277
715.614	0.0181676
715.693	0.0183543
715.771	0.0184167
715.849	0.0184995
715.927	0.0182222
716.005	0.0179936
716.083	0.0178389
716.161	0.0173895
716.239	0.0168452
716.318	0.0166302
716.396	0.0163158
716.474	0.0160757
716.552	0.0157866
716.630	0.0155426
716.708	0.0154996
716.786	0.0155450
716.864	0.0155982
716.943	0.0156503
717.021	0.0158961
717.099	0.0159022
717.177	0.0161256
717.255	0.0162916
717.333	0.0165443
717.411	0.0168133
717.489	0.0169974
717.568	0.0170218
717.646	0.0171449
717.724	0.0172892
717.802	0.0171358
717.880	0.0171252
717.958	0.0172831
718.036	0.0170021
718.114	0.0166398
718.193	0.0165093
718.271	0.0162684
718.349	0.0158361
718.427	0.0156618
718.505	0.0153848
718.583	0.0151949
718.661	0.0150912
718.739	0.0148347
718.818	0.0147118
718.896	0.0146711
718.974	0.0146791
719.052	0.0145746
719.130	0.0145878
719.208	0.0146835
719.286	0.0147467
719.364	0.0149175
719.443	0.0150412
719.521	0.0152526
719.599	0.0157337
719.677	0.0159208
719.755	0.0163770
719.833	0.0166862
719.911	0.0169053
719.989	0.0172733
720.068	0.0176429
720.146	0.0178140
720.224	0.0179292
720.302	0.0178558
720.380	0.0177534
720.458	0.0179013
720.536	0.0178093
720.614	0.0174281
720.693	0.0173605
720.771	0.0171093
720.849	0.0168116
720.927	0.0166832
721.005	0.0163946
721.083	0.0161652
721.161	0.0159232
721.239	0.0158738
721.318	0.0155802
721.396	0.0153032
721.474	0.0153320
721.552	0.0153000
721.630	0.0149729
721.708	0.0150894
721.786	0.0151752
721.864	0.0150284
721.943	0.0149899
722.021	0.0150424
722.099	0.0153423
722.177	0.0153075
722.255	0.0154090
722.333	0.0157913
722.411	0.0157980
722.489	0.0159782
722.568	0.0161722
722.646	0.0163583
722.724	0.0165406
722.802	0.0165064
722.880	0.0167394
722.958	0.0169258
723.036	0.0168511
723.114	0.0170452
723.193	0.0170287
723.271	0.0171229
723.349	0.0171098
723.427	0.0169746
723.505	0.0169712
723.583	0.0170110
723.661	0.0169096
723.739	0.0169300
723.818	0.0168569
723.896	0.0167242
723.974	0.0165510
724.052	0.0164861
724.130	0.0162784
724.208	0.0162356
724.286	0.0160938
724.364	0.0161452
724.443	0.0159867
724.521	0.0158190
724.599	0.0157059
724.677	0.0157697
724.755	0.0154195
724.833	0.0153506
724.911	0.0153278
724.989	0.0153245
725.068	0.0152320
725.146	0.0152475
725.224	0.0153004
725.302	0.0153485
725.380	0.0154732
725.458	0.0155478
725.536	0.0157767
725.614	0.0159327
725.693	0.0158746
725.771	0.0158955
725.849	0.0160717
725.927	0.0161865
726.005	0.0162859
726.083	0.0163322
726.161	0.0163297
726.239	0.0162203
726.318	0.0162811
726.396	0.0161893
726.474	0.0162555
726.552	0.0160490
726.630	0.0160145
726.708	0.0161290
726.786	0.0161652
726.864	0.0160015
726.943	0.0160046
727.021	0.0160412
727.099	0.0162530
727.177	0.0163536
727.255	0.0164410
727.333	0.0165143
727.411	0.0167464
727.489	0.0169386
727.568	0.0172414
727.646	0.0172353
727.724	0.0172536
727.802	0.0173749
727.880	0.0174258
727.958	0.0173800
728.036	0.0172027
728.114	0.0170865
728.193	0.0169378
728.271	0.0166476
728.349	0.0164188
728.427	0.0163251
728.505	0.0162122
728.583	0.0159616
728.661	0.0157281
728.739	0.0156934
728.818	0.0157664
728.896	0.0156547
728.974	0.0156450
729.052	0.0155344
729.130	0.0157082
729.208	0.0156765
729.286	0.0156629
729.364	0.0154460
729.443	0.0156015
729.521	0.0156461
729.599	0.0155344
729.677	0.0155590
729.755	0.0156422
729.833	0.0155140
729.911	0.0158242
729.989	0.0157135
730.068	0.0157835
730.146	0.0158945
730.224	0.0161900
730.302	0.0161852
730.380	0.0162994
730.458	0.0163738
730.536	0.0163912
730.614	0.0166350
730.693	0.0165229
730.771	0.0165341
730.849	0.0165952
730.927	0.0164982
731.005	0.0166005
731.083	0.0164528
731.161	0.0163327
731.239	0.0164428
731.318	0.0162408
731.396	0.0160862
731.474	0.0161586
731.552	0.0161025
731.630	0.0158965
731.708	0.0160549
731.786	0.0160287
731.864	0.0159788
731.943	0.0159081
732.021	0.0159628
732.099	0.0160310
732.177	0.0160601
732.255	0.0162487
732.333	0.0163598
732.411	0.0164439
732.489	0.0164367
732.568	0.0164011
732.646	0.0164449
732.724	0.0164063
732.802	0.0164904
732.880	0.0163210
732.958	0.0161865
733.036	0.0161073
733.114	0.0160091
733.193	0.0159773
733.271	0.0158299
733.349	0.0156853
733.427	0.0155993
733.505	0.0155922
733.583	0.0155957
733.661	0.0154398
733.739	0.0155791
733.818	0.0156059
733.896	0.0155607
733.974	0.0155662
734.052	0.0155249
734.130	0.0157615
734.208	0.0160098
734.286	0.0159991
734.364	0.0161152
734.443	0.0163395
734.521	0.0163842
734.599	0.0165281
734.677	0.0165719
734.755	0.0166298
734.833	0.0166979
734.911	0.0166998
734.989	0.0167362
735.068	0.0167758
735.146	0.0167237
735.224	0.0168674
735.302	0.0168205
735.380	0.0167240
735.458	0.0169284
735.536	0.0167262
735.614	0.0164645
735.693	0.0166940
735.771	0.0165361
735.849	0.0164188
735.927	0.0163233
736.005	0.0161822
736.083	0.0161850
736.161	0.0160670
736.239	0.0158981
736.318	0.0159444
736.396	0.0158744
736.474	0.0158537
736.552	0.0158611
736.630	0.0158087
736.708	0.0157191
736.786	0.0158118
736.864	0.0157134
736.943	0.0156986
737.021	0.0157439
737.099	0.0156483
737.177	0.0156098
737.255	0.0156106
737.333	0.0155732
737.411	0.0154699
737.489	0.0154306
737.568	0.0154705
737.646	0.0154803
737.724	0.0154073
737.802	0.0156342
737.880	0.0157201
737.958	0.0158168
738.036	0.0157626
738.114	0.0157991
738.193	0.0160921
738.271	0.0162040
738.349	0.0162875
738.427	0.0162426
738.505	0.0163827
738.583	0.0164452
738.661	0.0164297
738.739	0.0165072
738.818	0.0165730
738.896	0.0167467
738.974	0.0167344
739.052	0.0168323
739.130	0.0170045
739.208	0.0167780
739.286	0.0168784
739.364	0.0168417
739.443	0.0167349
739.521	0.0167832
739.599	0.0168749
739.677	0.0165460
739.755	0.0166550
739.833	0.0167011
739.911	0.0166698
739.989	0.0163364
740.068	0.0164686
740.146	0.0163817
740.224	0.0163615
740.302	0.0164502
740.380	0.0165075
740.458	0.0163424
740.536	0.0162454
740.614	0.0161821
740.693	0.0161889
740.771	0.0159934
740.849	0.0158177
740.927	0.0157716
741.005	0.0156827
741.083	0.0155809
741.161	0.0152990
741.239	0.0156841
741.318	0.0156992
741.396	0.0155157
741.474	0.0155397
741.552	0.0156764
741.630	0.0157708
741.708	0.0158909
741.786	0.0160726
741.864	0.0161023
741.943	0.0162327
742.021	0.0162081
742.099	0.0163049
742.177	0.0164191
742.255	0.0162186
742.333	0.0163366
742.411	0.0163121
742.489	0.0162108
742.568	0.0163163
742.646	0.0163802
742.724	0.0162318
742.802	0.0163415
742.880	0.0161971
742.958	0.0162370
743.036	0.0163943
743.114	0.0161312
743.193	0.0161190
743.271	0.0164242
743.349	0.0163488
743.427	0.0162250
743.505	0.0165054
743.583	0.0164503
743.661	0.0164935
743.739	0.0165245
743.818	0.0165679
743.896	0.0165199
743.974	0.0164751
744.052	0.0164972
744.130	0.0165884
744.208	0.0166679
744.286	0.0165409
744.364	0.0164383
744.443	0.0163764
744.521	0.0165445
744.599	0.0163902
744.677	0.0162926
744.755	0.0164077
744.833	0.0162429
744.911	0.0161305
744.989	0.0161850
745.068	0.0160664
745.146	0.0160602
745.224	0.0161080
745.302	0.0160172
745.380	0.0159942
745.458	0.0159873
745.536	0.0159635
745.614	0.0158965
745.693	0.0159786
745.771	0.0158710
745.849	0.0159444
745.927	0.0159496
746.005	0.0159229
746.083	0.0158469
746.161	0.0159744
746.239	0.0158107
746.318	0.0158630
746.396	0.0157879
746.474	0.0158120
746.552	0.0155682
746.630	0.0159441
746.708	0.0159441
746.786	0.0159703
746.864	0.0161338
746.943	0.0162703
747.021	0.0161398
747.099	0.0162572
747.177	0.0163929
747.255	0.0165131
747.333	0.0164677
747.411	0.0165178
747.489	0.0166555
747.568	0.0167149
747.646	0.0167872
747.724	0.0167635
747.802	0.0167700
747.880	0.0169209
747.958	0.0167682
748.036	0.0168600
748.114	0.0167509
748.193	0.0166685
748.271	0.0167017
748.349	0.0167382
748.427	0.0165452
748.505	0.0164816
748.583	0.0164403
748.661	0.0162836
748.739	0.0161343
748.818	0.0161626
748.896	0.0162025
748.974	0.0160849
749.052	0.0161393
749.130	0.0159509
749.208	0.0160873
749.286	0.0159580
749.364	0.0159994
749.443	0.0159906
749.521	0.0160493
749.599	0.0161047
749.677	0.0160790
749.755	0.0160288
749.833	0.0160086
749.911	0.0161648
749.989	0.0162684
750.068	0.0161060
750.146	0.0161818
750.224	0.0162339
750.302	0.0161452
750.380	0.0161418
750.458	0.0162518
750.536	0.0160168
750.614	0.0160734
750.693	0.0161284
750.771	0.0161830
750.849	0.0160998
750.927	0.0160149
751.005	0.0160099
751.083	0.0160364
751.161	0.0160084
751.239	0.0161491
751.318	0.0161178
751.396	0.0160806
751.474	0.0160734
751.552	0.0161053
751.630	0.0161519
751.708	0.0162165
751.786	0.0162693
751.864	0.0162165
751.943	0.0162469
752.021	0.0164477
752.099	0.0163934
752.177	0.0164328
752.255	0.0162989
752.333	0.0162824
752.411	0.0164483
752.489	0.0164780
752.568	0.0164181
752.646	0.0162397
752.724	0.0161898
752.802	0.0160950
752.880	0.0161190
752.958	0.0161077
753.036	0.0161529
753.114	0.0161208
753.193	0.0161356
753.271	0.0160713
753.349	0.0160171
753.427	0.0159988
753.505	0.0160426
753.583	0.0159258
753.661	0.0161048
753.739	0.0161184
753.818	0.0159841
753.896	0.0161030
753.974	0.0160409
754.052	0.0161620
754.130	0.0160873
754.208	0.0160930
754.286	0.0161578
754.364	0.0161063
754.443	0.0160809
754.521	0.0162095
754.599	0.0162831
754.677	0.0161498
754.755	0.0162141
754.833	0.0161839
754.911	0.0163253
754.989	0.0162141
755.068	0.0163399
755.146	0.0163830
755.224	0.0165010
755.302	0.0164793
755.380	0.0165450
755.458	0.0165662
755.536	0.0167022
755.614	0.0167765
755.693	0.0167995
755.771	0.0165397
755.849	0.0165746
755.927	0.0166308
756.005	0.0166965
756.083	0.0165893
756.161	0.0162641
756.239	0.0162981
756.318	0.0161752
756.396	0.0160873
756.474	0.0161541
756.552	0.0157736
756.630	0.0156814
756.708	0.0156265
756.786	0.0156378
756.864	0.0155977
756.943	0.0156097
757.021	0.0156124
757.099	0.0157365
757.177	0.0158007
757.255	0.0157330
757.333	0.0158356
757.411	0.0159065
757.489	0.0159222
757.568	0.0159272
757.646	0.0160220
757.724	0.0159866
757.802	0.0158883
757.880	0.0160493
757.958	0.0160278
758.036	0.0160918
758.114	0.0158881
758.193	0.0160283
758.271	0.0160207
758.349	0.0159005
758.427	0.0160197
758.505	0.0159728
758.583	0.0160925
758.661	0.0160962
758.739	0.0160670
758.818	0.0160489
758.896	0.0160690
758.974	0.0161404
759.052	0.0161610
759.130	0.0161571
759.208	0.0161877
759.286	0.0160625
759.364	0.0163361
759.443	0.0162334
759.521	0.0163927
759.599	0.0163272
759.677	0.0164369
759.755	0.0164455
759.833	0.0165481
759.911	0.0166933
759.989	0.0164967
760.068	0.0164870
760.146	0.0165738
760.224	0.0166104
760.302	0.0165668
760.380	0.0164893
760.458	0.0163859
760.536	0.0164941
760.614	0.0163232
760.693	0.0160641
760.771	0.0162952
760.849	0.0161404
760.927	0.0162009
761.005	0.0161871
761.083	0.0160336
761.161	0.0160704
761.239	0.0159947
761.318	0.0159741
761.396	0.0160845
761.474	0.0160373
761.552	0.0159331
761.630	0.0158986
761.708	0.0159502
761.786	0.0160941
761.864	0.0158661
761.943	0.0161149
762.021	0.0160678
762.099	0.0159755
762.177	0.0160824
762.255	0.0159889
762.333	0.0161674
762.411	0.0160156
762.489	0.0160026
762.568	0.0160807
762.646	0.0163154
762.724	0.0162826
762.802	0.0161072
762.880	0.0163284
762.958	0.0162178
763.036	0.0163878
763.114	0.0163081
763.193	0.0164158
763.271	0.0163408
763.349	0.0162045
763.427	0.0162611
763.505	0.0162759
763.583	0.0162864
763.661	0.0162624
763.739	0.0161836
763.818	0.0160278
763.896	0.0160224
763.974	0.0161051
764.052	0.0157867
764.130	0.0158241
764.208	0.0158485
764.286	0.0160004
764.364	0.0158279
764.443	0.0158894
764.521	0.0158150
764.599	0.0157959
764.677	0.0157996
764.755	0.0159110
764.833	0.0159394
764.911	0.0159378
764.989	0.0160600
765.068	0.0161549
765.146	0.0160928
765.224	0.0162154
765.302	0.0160902
765.380	0.0160945
765.458	0.0161862
765.536	0.0163215
765.614	0.0162495
765.693	0.0160915
765.771	0.0162331
765.849	0.0162492
765.927	0.0162605
766.005	0.0163180
766.083	0.0162398
766.161	0.0163718
766.239	0.0162491
766.318	0.0163319
766.396	0.0163107
766.474	0.0162306
766.552	0.0163534
766.630	0.0162741
766.708	0.0162471
766.786	0.0162021
766.864	0.0162406
766.943	0.0163292
767.021	0.0162878
767.099	0.0161790
767.177	0.0162552
767.255	0.0163768
767.333	0.0162699
767.411	0.0163280
767.489	0.0164449
767.568	0.0163457
767.646	0.0164179
767.724	0.0164109
767.802	0.0164763
767.880	0.0166132
767.958	0.0166648
768.036	0.0164200
768.114	0.0164115
768.193	0.0165395
768.271	0.0164890
768.349	0.0163975
768.427	0.0162637
768.505	0.0163373
768.583	0.0161940
768.661	0.0162644
768.739	0.0161517
768.818	0.0159811
768.896	0.0160386
768.974	0.0159222
769.052	0.0158372
769.130	0.0159028
769.208	0.0158322
769.286	0.0157096
769.364	0.0158115
769.443	0.0158282
769.521	0.0155602
769.599	0.0157267
769.677	0.0157712
769.755	0.0157814
769.833	0.0158409
769.911	0.0159007
769.989	0.0158742
770.068	0.0159795
770.146	0.0159675
770.224	0.0162237
770.302	0.0160904
770.380	0.0163418
770.458	0.0161841
770.536	0.0162881
770.614	0.0163928
770.693	0.0164025
770.771	0.0165653
770.849	0.0165340
770.927	0.0164900
771.005	0.0165762
771.083	0.0164142
771.161	0.0165594
771.239	0.0163983
771.318	0.0164017
771.396	0.0165525
771.474	0.0163820
771.552	0.0165321
771.630	0.0163868
771.708	0.0163945
771.786	0.0163193
771.864	0.0163378
771.943	0.0163275
772.021	0.0162863
772.099	0.0162369
772.177	0.0160418
772.255	0.0161055
772.333	0.0162977
772.411	0.0161327
772.489	0.0162057
772.568	0.0160613
772.646	0.0161353
772.724	0.0160695
772.802	0.0161359
772.880	0.0159113
772.958	0.0161504
773.036	0.0161390
773.114	0.0161122
773.193	0.0161308
773.271	0.0159071
773.349	0.0160055
773.427	0.0160850
773.505	0.0161089
773.583	0.0160518
773.661	0.0160959
773.739	0.0160659
773.818	0.0159342
773.896	0.0161789
773.974	0.0161733
774.052	0.0160584
774.130	0.0162336
774.208	0.0161781
774.286	0.0160171
774.364	0.0161227
774.443	0.0161076
774.521	0.0162349
774.599	0.0161272
774.677	0.0161668
774.755	0.0160032
774.833	0.0160036
774.911	0.0161252
774.989	0.0160284
775.068	0.0161829
775.146	0.0161422
775.224	0.0162110
775.302	0.0162459
775.380	0.0162946
775.458	0.0162296
775.536	0.0163656
775.614	0.0163593
775.693	0.0165265
775.771	0.0163634
775.849	0.0163967
775.927	0.0164024
776.005	0.0164714
776.083	0.0163361
776.161	0.0163020
776.239	0.0163794
776.318	0.0162890
776.396	0.0162564
776.474	0.0162509
776.552	0.0161888
776.630	0.0161694
776.708	0.0160373
776.786	0.0160389
776.864	0.0159937
776.943	0.0159695
777.021	0.0159225
777.099	0.0159214
777.177	0.0160847
777.255	0.0161163
777.333	0.0159395
777.411	0.0160463
777.489	0.0160571
777.568	0.0161209
777.646	0.0158282
777.724	0.0158974
777.802	0.0159915
777.880	0.0160503
777.958	0.0161392
778.036	0.0160262
778.114	0.0160098
778.193	0.0161344
778.271	0.0161568
778.349	0.0162004
778.427	0.0161668
778.505	0.0162597
778.583	0.0162933
778.661	0.0163349
778.739	0.0163374
778.818	0.0163343
778.896	0.0164096
778.974	0.0163422
779.052	0.0165191
779.130	0.0163329
779.208	0.0164066
779.286	0.0164629
779.364	0.0165314
779.443	0.0164864
779.521	0.0164370
779.599	0.0163280
779.677	0.0163618
779.755	0.0162341
779.833	0.0162617
779.911	0.0163889
779.989	0.0161354
780.068	0.0162204
780.146	0.0160905
780.224	0.0160162
780.302	0.0162052
780.380	0.0159498
780.458	0.0161053
780.536	0.0161356
780.614	0.0159698
780.693	0.0160037
780.771	0.0160505
780.849	0.0160627
780.927	0.0160558
781.005	0.0160799
781.083	0.0160038
781.161	0.0159881
781.239	0.0160429
781.318	0.0161629
781.396	0.0162351
781.474	0.0160886
781.552	0.0160371
781.630	0.0161060
781.708	0.0160633
781.786	0.0160275
781.864	0.0159570
781.943	0.0160004
782.021	0.0159914
782.099	0.0161451
782.177	0.0161784
782.255	0.0160794
782.333	0.0161349
782.411	0.0161096
782.489	0.0160526
782.568	0.0162112
782.646	0.0161402
782.724	0.0161679
782.802	0.0159698
782.880	0.0160649
782.958	0.0162957
783.036	0.0162293
783.114	0.0160787
783.193	0.0161784
783.271	0.0162608
783.349	0.0161781
783.427	0.0162106
783.505	0.0163122
783.583	0.0162656
783.661	0.0162261
783.739	0.0161811
783.818	0.0162885
783.896	0.0162228
783.974	0.0160371
784.052	0.0161359
784.130	0.0161823
784.208	0.0163429
784.286	0.0162679
784.364	0.0162620
784.443	0.0161512
784.521	0.0163210
784.599	0.0162160
784.677	0.0162540
784.755	0.0162627
784.833	0.0161407
784.911	0.0161379
784.989	0.0160592
785.068	0.0160788
785.146	0.0159676
785.224	0.0160400
785.302	0.0158504
785.380	0.0158784
785.458	0.0160310
785.536	0.0159883
785.614	0.0160493
785.693	0.0160486
785.771	0.0160535
785.849	0.0161626
785.927	0.0163155
786.005	0.0162487
786.083	0.0164158
786.161	0.0163401
786.239	0.0164455
786.318	0.0165643
786.396	0.0164371
786.474	0.0164318
786.552	0.0163658
786.630	0.0163380
786.708	0.0163122
786.786	0.0164248
786.864	0.0163614
786.943	0.0161348
787.021	0.0161442
787.099	0.0161658
787.177	0.0160049
787.255	0.0159161
787.333	0.0159487
787.411	0.0157069
787.489	0.0157509
787.568	0.0158044
787.646	0.0156627
787.724	0.0156961
787.802	0.0156876
787.880	0.0157430
787.958	0.0158657
788.036	0.0159160
788.114	0.0158757
788.193	0.0159847
788.271	0.0159998
788.349	0.0161346
788.427	0.0161700
788.505	0.0162996
788.583	0.0164524
788.661	0.0164779
788.739	0.0165741
788.818	0.0167063
788.896	0.0167950
788.974	0.0167967
789.052	0.0169669
789.130	0.0167767
789.208	0.0167458
789.286	0.0167943
789.364	0.0167168
789.443	0.0165631
789.521	0.0165891
789.599	0.0165242
789.677	0.0164664
789.755	0.0164352
789.833	0.0163780
789.911	0.0162527
789.989	0.0161098
790.068	0.0158875
790.146	0.0159710
790.224	0.0158321
790.302	0.0157433
790.380	0.0155836
790.458	0.0156905
790.536	0.0155148
790.614	0.0156987
790.693	0.0154927
790.771	0.0154212
790.849	0.0153445
790.927	0.0154405
791.005	0.0153202
791.083	0.0153822
791.161	0.0153212
791.239	0.0154991
791.318	0.0153547
791.396	0.0155000
791.474	0.0155009
791.552	0.0157221
791.630	0.0159155
791.708	0.0158070
791.786	0.0158202
791.864	0.0161193
791.943	0.0162248
792.021	0.0162702
792.099	0.0165643
792.177	0.0166668
792.255	0.0166824
792.333	0.0168080
792.411	0.0169349
792.489	0.0168716
792.568	0.0170768
792.646	0.0170592
792.724	0.0170330
792.802	0.0171069
792.880	0.0170977
792.958	0.0169265
793.036	0.0170477
793.114	0.0168679
793.193	0.0167330
793.271	0.0166450
793.349	0.0166766
793.427	0.0165347
793.505	0.0163585
793.583	0.0163065
793.661	0.0161993
793.739	0.0161829
793.818	0.0160957
793.896	0.0158720
793.974	0.0158971
794.052	0.0158804
794.130	0.0157209
794.208	0.0155877
794.286	0.0156013
794.364	0.0156775
794.443	0.0155477
794.521	0.0155997
794.599	0.0155231
794.677	0.0156834
794.755	0.0156335
794.833	0.0156570
794.911	0.0156244
794.989	0.0157308
795.068	0.0156441
795.146	0.0156625
795.224	0.0157552
795.302	0.0155418
795.380	0.0156540
795.458	0.0156728
795.536	0.0158309
795.614	0.0158008
795.693	0.0157612
795.771	0.0158830
795.849	0.0158485
795.927	0.0159882
796.005	0.0160931
796.083	0.0161887
796.161	0.0161820
796.239	0.0163345
796.318	0.0163801
796.396	0.0164194
796.474	0.0166560
796.552	0.0166962
796.630	0.0165153
796.708	0.0168236
796.786	0.0168007
796.864	0.0169661
796.943	0.0167507
797.021	0.0167831
797.099	0.0169066
797.177	0.0168382
797.255	0.0166802
797.333	0.0167548
797.411	0.0164006
797.489	0.0165585
797.568	0.0163839
797.646	0.0162795
797.724	0.0164127
797.802	0.0162366
797.880	0.0161506
797.958	0.0159565
798.036	0.0160181
798.114	0.0160805
798.193	0.0160361
798.271	0.0160101
798.349	0.0159101
798.427	0.0159805
798.505	0.0159287
798.583	0.0158868
798.661	0.0159225
798.739	0.0160208
798.818	0.0157768
798.896	0.0158523
798.974	0.0157928
799.052	0.0157748
799.130	0.0157329
799.208	0.0159013
799.286	0.0158040
799.364	0.0158152
799.443	0.0158883
799.521	0.0158624
799.599	0.0158631
799.677	0.0158480
799.755	0.0159561
799.833	0.0160450
799.911	0.0160620
799.989	0.0160690
800.068	0.0160580
800.146	0.0162206
800.224	0.0162802
800.302	0.0162426
800.380	0.0161446
800.458	0.0163406
800.536	0.0164061
800.614	0.0164901
800.693	0.0164816
800.771	0.0162726
800.849	0.0163122
800.927	0.0163112
801.005	0.0162179
801.083	0.0162424
801.161	0.0161044
801.239	0.0161588
801.318	0.0161563
801.396	0.0160810
801.474	0.0161373
801.552	0.0161828
801.630	0.0160911
801.708	0.0160217
801.786	0.0161115
801.864	0.0162405
801.943	0.0160651
802.021	0.0161926
802.099	0.0163508
802.177	0.0161958
802.255	0.0160802
802.333	0.0162139
802.411	0.0162576
802.489	0.0162640
802.568	0.0163322
802.646	0.0162865
802.724	0.0162990
802.802	0.0163373
802.880	0.0162115
802.958	0.0163568
803.036	0.0163530
803.114	0.0162263
803.193	0.0160500
803.271	0.0161805
803.349	0.0161230
803.427	0.0161518
803.505	0.0160510
803.583	0.0159820
803.661	0.0158810
803.739	0.0158043
803.818	0.0160371
803.896	0.0160550
803.974	0.0160546
804.052	0.0159662
804.130	0.0160310
804.208	0.0160263
804.286	0.0160490
804.364	0.0160400
804.443	0.0161414
804.521	0.0161630
804.599	0.0162110
804.677	0.0161674
804.755	0.0163049
804.833	0.0162160
804.911	0.0162067
804.989	0.0162814
805.068	0.0161411
805.146	0.0162480
805.224	0.0163267
805.302	0.0163451
805.380	0.0161658
805.458	0.0162180
805.536	0.0162898
805.614	0.0161720
805.693	0.0161385
805.771	0.0161389
805.849	0.0160344
805.927	0.0160825
806.005	0.0161887
806.083	0.0161211
806.161	0.0160583
806.239	0.0159581
806.318	0.0160239
806.396	0.0159907
806.474	0.0160364
806.552	0.0158798
806.630	0.0160114
806.708	0.0161012
806.786	0.0158923
806.864	0.0160249
806.943	0.0160563
807.021	0.0160896
807.099	0.0160956
807.177	0.0161460
807.255	0.0160464
807.333	0.0162412
807.411	0.0161980
807.489	0.0162498
807.568	0.0161912
807.646	0.0161575
807.724	0.0162815
807.802	0.0163039
807.880	0.0162859
807.958	0.0164711
808.036	0.0164996
808.114	0.0164913
808.193	0.0164247
808.271	0.0166161
808.349	0.0165211
808.427	0.0165700
808.505	0.0166147
808.583	0.0166570
808.661	0.0166034
808.739	0.0164850
808.818	0.0166099
808.896	0.0164832
808.974	0.0165897
809.052	0.0164053
809.130	0.0163613
809.208	0.0163386
809.286	0.0162782
809.364	0.0163457
809.443	0.0162851
809.521	0.0163959
809.599	0.0161852
809.677	0.0161118
809.755	0.0161634
809.833	0.0161276
809.911	0.0160577
809.989	0.0162000
810.068	0.0160336
810.146	0.0159674
810.224	0.0158875
810.302	0.0159376
810.380	0.0158498
810.458	0.0157550
810.536	0.0156771
810.614	0.0156914
810.693	0.0156272
810.771	0.0156517
810.849	0.0157718
810.927	0.0157142
811.005	0.0156034
811.083	0.0157199
811.161	0.0157101
811.239	0.0157882
811.318	0.0157594
811.396	0.0159939
811.474	0.0159845
811.552	0.0160223
811.630	0.0161139
811.708	0.0160509
811.786	0.0162809
811.864	0.0162024
811.943	0.0162877
812.021	0.0163049
812.099	0.0162862
812.177	0.0162786
812.255	0.0163243
812.333	0.0164093
812.411	0.0166711
812.489	0.0165862
812.568	0.0166753
812.646	0.0165850
812.724	0.0165601
812.802	0.0164919
812.880	0.0165216
812.958	0.0163268
813.036	0.0163923
813.114	0.0164594
813.193	0.0164604
813.271	0.0164027
813.349	0.0164326
813.427	0.0163764
813.505	0.0162663
813.583	0.0163237
813.661	0.0164440
813.739	0.0165601
813.818	0.0165081
813.896	0.0165250
813.974	0.0165446
814.052	0.0165298
814.130	0.0165184
814.208	0.0165230
814.286	0.0163479
814.364	0.0163006
814.443	0.0161951
814.521	0.0162553
814.599	0.0162501
814.677	0.0160506
814.755	0.0160049
814.833	0.0159587
814.911	0.0157802
814.989	0.0157837
815.068	0.0156812
815.146	0.0156380
815.224	0.0156565
815.302	0.0156853
815.380	0.0157067
815.458	0.0156704
815.536	0.0156699
815.614	0.0157041
815.693	0.0157122
815.771	0.0159348
815.849	0.0159317
815.927	0.0160289
816.005	0.0161207
816.083	0.0162131
816.161	0.0160845
816.239	0.0162216
816.318	0.0163357
816.396	0.0162410
816.474	0.0163452
816.552	0.0161858
816.630	0.0163393
816.708	0.0163415
816.786	0.0163985
816.864	0.0163692
816.943	0.0162290
817.021	0.0163193
817.099	0.0162142
817.177	0.0163036
817.255	0.0162897
817.333	0.0162566
817.411	0.0162797
817.489	0.0162194
817.568	0.0161546
817.646	0.0161147
817.724	0.0162295
817.802	0.0161281
817.880	0.0160550
817.958	0.0161470
818.036	0.0160405
818.114	0.0160507
818.193	0.0159961
818.271	0.0160522
818.349	0.0161385
818.427	0.0160881
818.505	0.0159595
818.583	0.0159973
818.661	0.0161292
818.739	0.0160400
818.818	0.0160316
818.896	0.0160538
818.974	0.0159986
819.052	0.0161586
819.130	0.0162086
819.208	0.0163838
819.286	0.0163563
819.364	0.0163443
819.443	0.0165540
819.521	0.0164973
819.599	0.0165182
819.677	0.0164861
819.755	0.0165517
819.833	0.0164808
819.911	0.0164987
819.989	0.0165592
820.068	0.0165154
820.146	0.0165588
820.224	0.0162849
820.302	0.0164043
820.380	0.0163075
820.458	0.0162324
820.536	0.0162517
820.614	0.0161617
820.693	0.0160417
820.771	0.0161157
820.849	0.0160361
820.927	0.0159507
821.005	0.0160248
821.083	0.0159473
821.161	0.0161446
821.239	0.0160134
821.318	0.0159175
821.396	0.0159699
821.474	0.0160191
821.552	0.0160309
821.630	0.0161446
821.708	0.0160385
821.786	0.0160324
821.864	0.0160216
821.943	0.0160731
822.021	0.0161850
822.099	0.0161367
822.177	0.0160719
822.255	0.0162083
822.333	0.0162927
822.411	0.0162084
822.489	0.0161411
822.568	0.0161570
822.646	0.0163134
822.724	0.0161027
822.802	0.0161023
822.880	0.0161066
822.958	0.0162598
823.036	0.0162769
823.114	0.0161198
823.193	0.0162542
823.271	0.0162676
823.349	0.0161403
823.427	0.0162560
823.505	0.0164079
823.583	0.0164043
823.661	0.0164825
823.739	0.0164655
823.818	0.0164314
823.896	0.0165007
823.974	0.0164298
824.052	0.0162718
824.130	0.0164614
824.208	0.0163635
824.286	0.0162240
824.364	0.0163476
824.443	0.0162533
824.521	0.0163852
824.599	0.0163685
824.677	0.0162055
824.755	0.0162846
824.833	0.0162724
824.911	0.0161227
824.989	0.0162743
825.068	0.0162516
825.146	0.0162636
825.224	0.0161977
825.302	0.0161900
825.380	0.0162171
825.458	0.0161414
825.536	0.0162164
825.614	0.0161141
825.693	0.0161216
825.771	0.0161348
825.849	0.0162121
825.927	0.0161955
826.005	0.0161803
826.083	0.0161656
826.161	0.0160680
826.239	0.0159760
826.318	0.0161095
826.396	0.0159826
826.474	0.0159811
826.552	0.0159280
826.630	0.0159800
826.708	0.0159296
826.786	0.0159412
826.864	0.0159652
826.943	0.0161655
827.021	0.0161994
827.099	0.0161250
827.177	0.0160672
827.255	0.0163373
827.333	0.0163771
827.411	0.0162848
827.489	0.0163790
827.568	0.0163318
827.646	0.0163712
827.724	0.0163642
827.802	0.0164529
827.880	0.0164506
827.958	0.0162605
828.036	0.0165089
828.114	0.0163556
828.193	0.0164605
828.271	0.0163700
828.349	0.0162575
828.427	0.0163522
828.505	0.0163029
828.583	0.0160441
828.661	0.0161135
828.739	0.0161877
828.818	0.0161934
828.896	0.0162073
828.974	0.0162432
829.052	0.0162257
829.130	0.0162775
829.208	0.0162678
829.286	0.0161992
829.364	0.0162606
829.443	0.0162670
829.521	0.0162131
829.599	0.0162231
829.677	0.0164595
829.755	0.0164593
829.833	0.0162364
829.911	0.0162030
829.989	0.0162614
830.068	0.0161638
830.146	0.0162007
830.224	0.0160228
830.302	0.0159343
830.380	0.0160957
830.458	0.0159825
830.536	0.0158911
830.614	0.0159997
830.693	0.0159605
830.771	0.0159708
830.849	0.0160000
830.927	0.0158829
831.005	0.0158852
831.083	0.0160606
831.161	0.0160265
831.239	0.0160384
831.318	0.0160101
831.396	0.0161444
831.474	0.0163087
831.552	0.0162787
831.630	0.0162996
831.708	0.0164410
831.786	0.0163143
831.864	0.0163565
831.943	0.0163857
832.021	0.0163307
832.099	0.0163574
832.177	0.0163221
832.255	0.0161927
832.333	0.0162019
832.411	0.0162612
832.489	0.0161636
832.568	0.0161791
832.646	0.0161829
832.724	0.0163001
832.802	0.0162867
832.880	0.0163449
832.958	0.0164294
833.036	0.0163692
833.114	0.0164313
833.193	0.0164552
833.271	0.0165032
833.349	0.0164376
833.427	0.0163372
833.505	0.0163233
833.583	0.0163754
833.661	0.0163912
833.739	0.0163737
833.818	0.0163349
833.896	0.0162982
833.974	0.0163661
834.052	0.0161788
834.130	0.0163451
834.208	0.0164317
834.286	0.0162821
834.364	0.0161940
834.443	0.0163360
834.521	0.0161655
834.599	0.0160690
834.677	0.0161724
834.755	0.0161885
834.833	0.0162247
834.911	0.0160209
834.989	0.0161035
835.068	0.0160836
835.146	0.0159605
835.224	0.0160844
835.302	0.0160962
835.380	0.0159980
835.458	0.0161598
835.536	0.0161699
835.614	0.0160925
835.693	0.0160038
835.771	0.0158832
835.849	0.0160104
835.927	0.0160819
836.005	0.0161087
836.083	0.0161740
836.161	0.0161677
836.239	0.0159698
836.318	0.0161910
836.396	0.0161221
836.474	0.0161739
836.552	0.0161937
836.630	0.0161864
836.708	0.0162983
836.786	0.0161422
836.864	0.0160456
836.943	0.0160740
837.021	0.0161919
837.099	0.0162635
837.177	0.0160770
837.255	0.0161005
837.333	0.0161945
837.411	0.0161109
837.489	0.0161971
837.568	0.0162236
837.646	0.0161735
837.724	0.0162233
837.802	0.0162097
837.880	0.0161925
837.958	0.0163519
838.036	0.0162831
838.114	0.0163814
838.193	0.0163815
838.271	0.0163333
838.349	0.0164802
838.427	0.0163740
838.505	0.0162630
838.583	0.0162743
838.661	0.0164336
838.739	0.0163667
838.818	0.0162771
838.896	0.0163721
838.974	0.0163137
839.052	0.0162483
839.130	0.0161859
839.208	0.0161815
839.286	0.0160996
839.364	0.0159881
839.443	0.0161528
839.521	0.0161028
839.599	0.0160577
839.677	0.0161095
839.755	0.0161501
839.833	0.0162543
839.911	0.0162112
839.989	0.0162137
840.068	0.0161292
840.146	0.0163311
840.224	0.0163173
840.302	0.0162344
840.380	0.0161530
840.458	0.0162350
840.536	0.0163222
840.614	0.0161867
840.693	0.0161616
840.771	0.0162125
840.849	0.0161572
840.927	0.0161520
841.005	0.0160789
841.083	0.0160391
841.161	0.0161884
841.239	0.0161073
841.318	0.0161691
841.396	0.0161552
841.474	0.0162846
841.552	0.0161839
841.630	0.0161510
841.708	0.0163029
841.786	0.0163296
841.864	0.0163644
841.943	0.0163439
842.021	0.0162862
842.099	0.0164272
842.177	0.0163827
842.255	0.0163792
842.333	0.0162995
842.411	0.0163066
842.489	0.0161975
842.568	0.0161437
842.646	0.0161671
842.724	0.0160639
842.802	0.0161533
842.880	0.0162138
842.958	0.0160577
843.036	0.0160093
843.114	0.0160710
843.193	0.0161147
843.271	0.0160889
843.349	0.0161621
843.427	0.0160445
843.505	0.0161108
843.583	0.0161124
843.661	0.0161963
843.739	0.0161146
843.818	0.0161271
843.896	0.0160262
843.974	0.0162116
844.052	0.0162280
844.130	0.0162114
844.208	0.0162492
844.286	0.0162563
844.364	0.0161467
844.443	0.0163083
844.521	0.0164130
844.599	0.0163575
844.677	0.0164114
844.755	0.0162687
844.833	0.0162876
844.911	0.0163365
844.989	0.0161273
845.068	0.0162344
845.146	0.0161433
845.224	0.0161739
845.302	0.0163229
845.380	0.0161655
845.458	0.0162616
845.536	0.0162096
845.614	0.0162016
845.693	0.0163517
845.771	0.0160305
845.849	0.0162475
845.927	0.0162222
846.005	0.0160897
846.083	0.0161291
846.161	0.0161521
846.239	0.0162121
846.318	0.0160756
846.396	0.0160794
846.474	0.0160807
846.552	0.0161254
846.630	0.0162760
846.708	0.0161932
846.786	0.0162220
846.864	0.0161305
846.943	0.0160780
847.021	0.0162331
847.099	0.0161278
847.177	0.0162344
847.255	0.0162337
847.333	0.0162405
847.411	0.0161195
847.489	0.0161076
847.568	0.0161954
847.646	0.0163535
847.724	0.0161789
847.802	0.0161549
847.880	0.0161980
847.958	0.0161377
848.036	0.0161572
848.114	0.0163103
848.193	0.0160108
848.271	0.0160920
848.349	0.0159856
848.427	0.0160561
848.505	0.0162740
848.583	0.0161377
848.661	0.0160475
848.739	0.0160923
848.818	0.0162099
848.896	0.0161925
848.974	0.0160358
849.052	0.0161463
849.130	0.0161836
849.208	0.0161667
849.286	0.0161820
849.364	0.0161563
849.443	0.0159767
849.521	0.0160795
849.599	0.0162585
849.677	0.0161945
849.755	0.0162917
849.833	0.0161491
849.911	0.0161705
849.989	0.0162370
850.068	0.0161514
850.146	0.0161483
850.224	0.0162155
850.302	0.0161311
850.380	0.0162429
850.458	0.0162181
850.536	0.0162051
850.614	0.0160631
850.693	0.0161784
850.771	0.0161486
850.849	0.0160921
850.927	0.0161635
851.005	0.0161740
851.083	0.0161087
851.161	0.0161915
851.239	0.0160625
851.318	0.0161461
851.396	0.0160536
851.474	0.0161369
851.552	0.0162011
851.630	0.0163380
851.708	0.0161343
851.786	0.0161552
851.864	0.0162253
851.943	0.0162692
852.021	0.0162359
852.099	0.0161827
852.177	0.0161548
852.255	0.0163087
852.333	0.0162807
852.411	0.0161771
852.489	0.0161913
852.568	0.0161756
852.646	0.0163287
852.724	0.0161291
852.802	0.0162012
852.880	0.0161970
852.958	0.0162146
853.036	0.0161386
853.114	0.0161869
853.193	0.0161663
853.271	0.0161411
853.349	0.0160276
853.427	0.0160867
853.505	0.0160235
853.583	0.0161574
853.661	0.0161561
853.739	0.0161530
853.818	0.0160051
853.896	0.0159332
853.974	0.0160916
854.052	0.0161710
854.130	0.0160271
854.208	0.0160253
854.286	0.0161631
854.364	0.0160482
854.443	0.0159768
854.521	0.0160413
854.599	0.0161291
854.677	0.0162346
854.755	0.0160788
854.833	0.0161166
854.911	0.0160853
854.989	0.0161732
855.068	0.0161603
855.146	0.0163174
855.224	0.0161866
855.302	0.0161803
855.380	0.0162441
855.458	0.0160323
855.536	0.0160938
855.614	0.0161588
855.693	0.0165127
855.771	0.0162730
855.849	0.0163788
855.927	0.0163119
856.005	0.0163945
856.083	0.0163195
856.161	0.0162183
856.239	0.0162018
856.318	0.0162083
856.396	0.0162162
856.474	0.0161577
856.552	0.0160780
856.630	0.0162855
856.708	0.0162954
856.786	0.0161288
856.864	0.0159896
856.943	0.0162733
857.021	0.0161810
857.099	0.0161482
857.177	0.0161182
857.255	0.0161626
857.333	0.0161646
857.411	0.0161404
857.489	0.0161209
857.568	0.0161575
857.646	0.0160106
857.724	0.0159696
857.802	0.0161029
857.880	0.0161508
857.958	0.0160499
858.036	0.0159432
858.114	0.0160876
858.193	0.0159998
858.271	0.0161230
858.349	0.0159534
858.427	0.0159622
858.505	0.0159582
858.583	0.0159566
858.661	0.0160130
858.739	0.0158761
858.818	0.0160000
858.896	0.0161165
858.974	0.0160365
859.052	0.0160878
859.130	0.0162954
859.208	0.0161069
859.286	0.0162270
859.364	0.0163103
859.443	0.0161878
859.521	0.0161440
859.599	0.0161800
859.677	0.0163618
859.755	0.0161126
859.833	0.0162230
859.911	0.0161698
859.989	0.0162288
860.068	0.0162402
860.146	0.0161618
860.224	0.0160916
860.302	0.0161364
860.380	0.0162768
860.458	0.0162296
860.536	0.0161372
860.614	0.0161653
860.693	0.0163229
860.771	0.0161431
860.849	0.0161176
860.927	0.0161758
861.005	0.0161946
861.083	0.0161610
861.161	0.0161822
861.239	0.0160480
861.318	0.0161526
861.396	0.0162331
861.474	0.0161723
861.552	0.0161066
861.630	0.0161564
861.708	0.0161627
861.786	0.0162479
861.864	0.0161611
861.943	0.0160769
862.021	0.0161221
862.099	0.0160617
862.177	0.0159605
862.255	0.0160764
862.333	0.0161906
862.411	0.0160693
862.489	0.0160460
862.568	0.0160651
862.646	0.0161870
862.724	0.0160717
862.802	0.0160720
862.880	0.0159983
862.958	0.0161121
863.036	0.0161745
863.114	0.0161758
863.193	0.0160591
863.271	0.0162814
863.349	0.0161480
863.427	0.0162610
863.505	0.0162196
863.583	0.0162356
863.661	0.0162169
863.739	0.0163914
863.818	0.0163477
863.896	0.0161706
863.974	0.0161407
864.052	0.0161623
864.130	0.0161077
864.208	0.0161185
864.286	0.0162177
864.364	0.0161671
864.443	0.0160468
864.521	0.0161147
864.599	0.0160750
864.677	0.0161641
864.755	0.0160914
864.833	0.0160195
864.911	0.0159811
864.989	0.0159924
865.068	0.0159728
865.146	0.0161667
865.224	0.0160611
865.302	0.0160826
865.380	0.0160367
865.458	0.0160439
865.536	0.0161580
865.614	0.0161421
865.693	0.0161413
865.771	0.0160308
865.849	0.0160904
865.927	0.0162315
866.005	0.0161954
866.083	0.0162706
866.161	0.0162531
866.239	0.0160489
866.318	0.0160374
866.396	0.0160706
866.474	0.0161220
866.552	0.0160777
866.630	0.0160222
866.708	0.0162173
866.786	0.0161236
866.864	0.0159604
866.943	0.0161172
867.021	0.0160613
867.099	0.0161150
867.177	0.0161679
867.255	0.0162261
867.333	0.0163345
867.411	0.0161362
867.489	0.0162320
867.568	0.0164140
867.646	0.0162901
867.724	0.0162809
867.802	0.0163321
867.880	0.0162605
867.958	0.0163256
868.036	0.0163089
868.114	0.0164233
868.193	0.0162768
868.271	0.0163000
868.349	0.0161909
868.427	0.0161981
868.505	0.0162864
868.583	0.0161723
868.661	0.0161008
868.739	0.0161642
868.818	0.0161736
868.896	0.0160786
868.974	0.0160538
869.052	0.0160101
869.130	0.0161027
869.208	0.0160602
869.286	0.0160641
869.364	0.0161349
869.443	0.0160101
869.521	0.0160255
869.599	0.0160678
869.677	0.0160829
869.755	0.0160591
869.833	0.0159420
869.911	0.0159092
869.989	0.0159709
870.068	0.0160429
870.146	0.0159725
870.224	0.0159936
870.302	0.0161305
870.380	0.0161681
870.458	0.0160100
870.536	0.0160748
870.614	0.0159448
870.693	0.0161366
870.771	0.0161333
870.849	0.0161674
870.927	0.0162303
871.005	0.0162895
871.083	0.0161464
871.161	0.0162224
871.239	0.0162476
871.318	0.0164056
871.396	0.0163844
871.474	0.0162917
871.552	0.0163296
871.630	0.0164327
871.708	0.0163161
871.786	0.0163031
871.864	0.0162849
871.943	0.0163007
872.021	0.0163068
872.099	0.0163317
872.177	0.0162897
872.255	0.0164056
872.333	0.0163707
872.411	0.0161600
872.489	0.0161569
872.568	0.0162434
872.646	0.0162421
872.724	0.0162920
872.802	0.0163840
872.880	0.0162095
872.958	0.0162755
873.036	0.0162265
873.114	0.0162698
873.193	0.0163052
873.271	0.0163303
873.349	0.0161371
873.427	0.0162334
873.505	0.0161668
873.583	0.0160359
873.661	0.0159919
873.739	0.0160313
873.818	0.0159708
873.896	0.0159241
873.974	0.0159561
874.052	0.0159840
874.130	0.0160712
874.208	0.0158788
874.286	0.0160287
874.364	0.0159013
874.443	0.0159418
874.521	0.0159265
874.599	0.0160105
874.677	0.0162380
874.755	0.0161799
874.833	0.0160986
874.911	0.0162137
874.989	0.0162974
875.068	0.0162140
875.146	0.0163879
875.224	0.0163029
875.302	0.0164151
875.380	0.0164027
875.458	0.0164792
875.536	0.0162713
875.614	0.0162531
875.693	0.0163207
875.771	0.0163094
875.849	0.0162498
875.927	0.0164164
876.005	0.0163811
876.083	0.0162881
876.161	0.0162125
876.239	0.0162956
876.318	0.0161842
876.396	0.0162921
876.474	0.0162556
876.552	0.0162130
876.630	0.0160906
876.708	0.0161042
876.786	0.0161844
876.864	0.0162453
876.943	0.0161010
877.021	0.0162292
877.099	0.0162267
877.177	0.0160454
877.255	0.0161127
877.333	0.0160513
877.411	0.0160565
877.489	0.0160094
877.568	0.0160469
877.646	0.0159792
877.724	0.0160378
877.802	0.0161876
877.880	0.0160448
877.958	0.0159908
878.036	0.0160126
878.114	0.0161108
878.193	0.0159795
878.271	0.0159567
878.349	0.0160591
878.427	0.0160754
878.505	0.0159578
878.583	0.0160799
878.661	0.0160703
878.739	0.0160474
878.818	0.0160261
878.896	0.0160490
878.974	0.0160351
879.052	0.0161351
879.130	0.0162344
879.208	0.0160320
879.286	0.0161850
879.364	0.0162279
879.443	0.0161719
879.521	0.0162563
879.599	0.0163530
879.677	0.0163869
879.755	0.0163537
879.833	0.0163373
879.911	0.0162982
879.989	0.0162445
880.068	0.0163490
880.146	0.0164181
880.224	0.0163392
880.302	0.0164247
880.380	0.0162540
880.458	0.0163277
880.536	0.0163776
880.614	0.0162857
880.693	0.0163725
880.771	0.0163316
880.849	0.0163950
880.927	0.0162779
881.005	0.0162824
881.083	0.0162224
881.161	0.0162770
881.239	0.0162770
881.318	0.0162766
881.396	0.0161144
881.474	0.0162144
881.552	0.0162552
881.630	0.0159416
881.708	0.0158456
881.786	0.0159409
881.864	0.0158688
881.943	0.0158938
882.021	0.0157387
882.099	0.0157448
882.177	0.0155992
882.255	0.0155917
882.333	0.0156549
882.411	0.0157420
882.489	0.0157201
882.568	0.0158145
882.646	0.0158885
882.724	0.0158549
882.802	0.0159772
882.880	0.0162118
882.958	0.0163360
883.036	0.0163728
883.114	0.0162869
883.193	0.0165401
883.271	0.0166263
883.349	0.0167101
883.427	0.0167023
883.505	0.0166843
883.583	0.0167799
883.661	0.0166824
883.739	0.0166801
883.818	0.0167162
883.896	0.0166644
883.974	0.0166887
884.052	0.0165412
884.130	0.0164483
884.208	0.0164743
884.286	0.0163241
884.364	0.0162873
884.443	0.0161629
884.521	0.0160878
884.599	0.0160882
884.677	0.0159063
884.755	0.0158675
884.833	0.0159782
884.911	0.0159235
884.989	0.0157282
885.068	0.0157661
885.146	0.0157352
885.224	0.0156730
885.302	0.0155252
885.380	0.0155106
885.458	0.0156196
885.536	0.0156812
885.614	0.0155891
885.693	0.0155504
885.771	0.0155785
885.849	0.0157854
885.927	0.0158033
886.005	0.0157905
886.083	0.0158735
886.161	0.0159792
886.239	0.0160707
886.318	0.0161604
886.396	0.0159706
886.474	0.0161279
886.552	0.0161567
886.630	0.0163347
886.708	0.0164034
886.786	0.0163312
886.864	0.0163686
886.943	0.0165997
887.021	0.0166554
887.099	0.0165592
887.177	0.0168246
887.255	0.0167570
887.333	0.0167319
887.411	0.0166824
887.489	0.0167068
887.568	0.0166434
887.646	0.0167334
887.724	0.0166341
887.802	0.0165150
887.880	0.0163902
887.958	0.0163461
888.036	0.0161744
888.114	0.0160976
888.193	0.0161787
888.271	0.0159876
888.349	0.0159566
888.427	0.0157685
888.505	0.0157682
888.583	0.0156315
888.661	0.0154985
888.739	0.0155148
888.818	0.0153948
888.896	0.0156505
888.974	0.0156036
889.052	0.0155788
889.130	0.0154742
889.208	0.0155741
889.286	0.0157198
889.364	0.0158971
889.443	0.0158904
889.521	0.0159227
889.599	0.0160787
889.677	0.0159807
889.755	0.0161952
889.833	0.0162440
889.911	0.0161591
889.989	0.0163107
890.068	0.0164928
890.146	0.0163927
890.224	0.0163655
890.302	0.0164522
890.380	0.0164477
890.458	0.0165560
890.536	0.0164332
890.614	0.0164867
890.693	0.0165166
890.771	0.0166697
890.849	0.0164034
890.927	0.0165682
891.005	0.0164679
891.083	0.0164768
891.161	0.0163897
891.239	0.0163476
891.318	0.0163923
891.396	0.0164137
891.474	0.0164151
891.552	0.0164375
891.630	0.0164016
891.708	0.0162690
891.786	0.0163730
891.864	0.0162797
891.943	0.0163072
892.021	0.0161546
892.099	0.0160471
892.177	0.0159917
892.255	0.0159607
892.333	0.0157632
892.411	0.0159314
892.489	0.0158185
892.568	0.0156693
892.646	0.0156687
892.724	0.0157465
892.802	0.0157951
892.880	0.0157743
892.958	0.0157081
893.036	0.0157506
893.114	0.0158694
893.193	0.0159585
893.271	0.0158967
893.349	0.0159476
893.427	0.0161723
893.505	0.0161664
893.583	0.0162461
893.661	0.0162466
893.739	0.0163570
893.818	0.0164360
893.896	0.0163552
893.974	0.0164505
894.052	0.0164448
894.130	0.0164778
894.208	0.0165127
894.286	0.0165638
894.364	0.0165388
894.443	0.0163848
894.521	0.0165272
894.599	0.0165131
894.677	0.0162785
894.755	0.0162475
894.833	0.0164021
894.911	0.0163351
894.989	0.0162283
895.068	0.0161118
895.146	0.0161248
895.224	0.0162894
895.302	0.0160900
895.380	0.0162346
895.458	0.0161240
895.536	0.0162994
895.614	0.0162531
895.693	0.0162613
895.771	0.0163712
895.849	0.0161935
895.927	0.0163451
896.005	0.0162898
896.083	0.0163708
896.161	0.0163140
896.239	0.0161964
896.318	0.0162364
896.396	0.0163583
896.474	0.0163400
896.552	0.0161727
896.630	0.0162246
896.708	0.0161891
896.786	0.0162556
896.864	0.0161295
896.943	0.0160452
897.021	0.0161202
897.099	0.0160889
897.177	0.0160304
897.255	0.0160398
897.333	0.0160966
897.411	0.0161121
897.489	0.0160433
897.568	0.0160602
897.646	0.0161266
897.724	0.0160748
897.802	0.0161232
897.880	0.0160730
897.958	0.0160500
898.036	0.0161356
898.114	0.0161179
898.193	0.0162849
898.271	0.0162179
898.349	0.0162002
898.427	0.0161853
898.505	0.0162742
898.583	0.0161539
898.661	0.0162948
898.739	0.0163411
898.818	0.0164011
898.896	0.0162845
898.974	0.0163605
899.052	0.0163566
899.130	0.0164702
899.208	0.0163605
899.286	0.0162698
899.364	0.0163131
899.443	0.0163108
899.521	0.0163791
899.599	0.0164564
899.677	0.0164098
899.755	0.0163493
899.833	0.0164584
899.911	0.0163329
899.989	0.0163116
900.068	0.0163334
900.146	0.0161388
900.224	0.0161330
900.302	0.0161915
900.380	0.0162861
900.458	0.0162248
900.536	0.0159403
900.614	0.0161558
900.693	0.0160233
900.771	0.0161587
900.849	0.0160213
900.927	0.0159518
901.005	0.0158627
901.083	0.0160812
901.161	0.0159721
901.239	0.0159109
901.318	0.0159843
901.396	0.0159521
901.474	0.0160756
901.552	0.0160311
901.630	0.0161088
901.708	0.0160709
901.786	0.0160230
901.864	0.0160915
901.943	0.0161729
902.021	0.0161752
902.099	0.0161114
902.177	0.0162682
902.255	0.0161118
902.333	0.0162510
902.411	0.0162572
902.489	0.0162189
902.568	0.0162181
902.646	0.0162394
902.724	0.0162341
902.802	0.0162639
902.880	0.0164514
902.958	0.0163440
903.036	0.0163992
903.114	0.0165256
903.193	0.0165079
903.271	0.0164417
903.349	0.0166171
903.427	0.0165093
903.505	0.0166595
903.583	0.0166225
903.661	0.0165343
903.739	0.0166412
903.818	0.0164481
903.896	0.0163926
903.974	0.0163843
904.052	0.0162831
904.130	0.0162434
904.208	0.0161560
904.286	0.0160580
904.364	0.0159431
904.443	0.0158382
904.521	0.0158959
904.599	0.0158083
904.677	0.0156196
904.755	0.0157691
904.833	0.0158264
904.911	0.0157335
904.989	0.0156709
905.068	0.0158256
905.146	0.0158887
905.224	0.0159535
905.302	0.0160781
905.380	0.0161269
905.458	0.0160372
905.536	0.0162782
905.614	0.0162328
905.693	0.0163363
905.771	0.0162514
905.849	0.0162775
905.927	0.0161908
906.005	0.0163754
906.083	0.0163398
906.161	0.0162855
906.239	0.0163177
906.318	0.0164366
906.396	0.0162312
906.474	0.0163073
906.552	0.0162672
906.630	0.0163314
906.708	0.0162904
906.786	0.0164558
906.864	0.0163464
906.943	0.0162453
907.021	0.0164198
907.099	0.0163228
907.177	0.0163515
907.255	0.0164340
907.333	0.0164183
907.411	0.0164188
907.489	0.0163379
907.568	0.0163384
907.646	0.0162081
907.724	0.0161622
907.802	0.0161516
907.880	0.0161885
907.958	0.0161267
908.036	0.0160638
908.114	0.0160603
908.193	0.0160349
908.271	0.0159889
908.349	0.0160219
908.427	0.0159380
908.505	0.0160210
908.583	0.0160804
908.661	0.0159760
908.739	0.0160966
908.818	0.0161251
908.896	0.0160175
908.974	0.0161691
909.052	0.0161900
909.130	0.0161005
909.208	0.0161191
909.286	0.0162524
909.364	0.0160542
909.443	0.0160160
909.521	0.0160521
909.599	0.0160316
909.677	0.0161336
909.755	0.0159886
909.833	0.0160994
909.911	0.0160400
909.989	0.0160396
910.068	0.0159178
910.146	0.0160001
910.224	0.0160347
910.302	0.0160276
910.380	0.0161088
910.458	0.0161455
910.536	0.0161783
910.614	0.0162355
910.693	0.0162704
910.771	0.0162531
910.849	0.0163309
910.927	0.0163352
911.005	0.0163705
911.083	0.0163659
911.161	0.0162579
911.239	0.0165213
911.318	0.0164666
911.396	0.0164759
911.474	0.0162967
911.552	0.0162447
911.630	0.0164065
911.708	0.0164932
911.786	0.0165166
911.864	0.0162551
911.943	0.0163719
912.021	0.0164146
912.099	0.0163674
912.177	0.0164268
912.255	0.0164365
912.333	0.0163319
912.411	0.0162775
912.489	0.0163744
912.568	0.0163749
912.646	0.0161370
912.724	0.0162018
912.802	0.0161551
912.880	0.0161084
912.958	0.0161254
913.036	0.0159124
913.114	0.0159669
913.193	0.0159287
913.271	0.0158369
913.349	0.0159361
913.427	0.0158808
913.505	0.0158263
913.583	0.0159208
913.661	0.0159663
913.739	0.0158678
913.818	0.0158228
913.896	0.0158420
913.974	0.0160874
914.052	0.0160278
914.130	0.0159885
914.208	0.0161098
914.286	0.0161848
914.364	0.0162789
914.443	0.0161926
914.521	0.0162244
914.599	0.0162762
914.677	0.0162794
914.755	0.0162045
914.833	0.0161779
914.911	0.0164320
914.989	0.0162827
915.068	0.0161732
915.146	0.0163309
915.224	0.0162195
915.302	0.0160722
915.380	0.0161218
915.458	0.0162229
915.536	0.0161540
915.614	0.0162868
915.693	0.0164049
915.771	0.0163056
915.849	0.0162170
915.927	0.0162812
916.005	0.0165350
916.083	0.0163702
916.161	0.0163923
916.239	0.0163481
916.318	0.0163293
916.396	0.0165192
916.474	0.0164027
916.552	0.0163693
916.630	0.0162903
916.708	0.0162275
916.786	0.0163979
916.864	0.0163405
916.943	0.0161807
917.021	0.0160672
917.099	0.0161403
917.177	0.0162207
917.255	0.0161192
917.333	0.0160796
917.411	0.0161356
917.489	0.0160110
917.568	0.0161414
917.646	0.0162093
917.724	0.0161948
917.802	0.0161514
917.880	0.0161714
917.958	0.0161148
918.036	0.0160077
918.114	0.0161222
918.193	0.0162206
918.271	0.0161472
918.349	0.0161082
918.427	0.0162114
918.505	0.0162070
918.583	0.0160805
918.661	0.0162637
918.739	0.0161209
918.818	0.0161317
918.896	0.0162558
918.974	0.0161997
919.052	0.0160562
919.130	0.0162647
919.208	0.0162280
919.286	0.0162792
919.364	0.0162150
919.443	0.0162713
919.521	0.0163365
919.599	0.0163077
919.677	0.0162639
919.755	0.0162730
919.833	0.0162198
919.911	0.0161221
919.989	0.0161803
920.068	0.0161604
920.146	0.0160960
920.224	0.0162337
920.302	0.0162259
920.380	0.0161443
920.458	0.0161212
920.536	0.0161477
920.614	0.0160400
920.693	0.0161677
920.771	0.0162115
920.849	0.0161786
920.927	0.0161012
921.005	0.0160419
921.083	0.0160387
921.161	0.0160197
921.239	0.0161745
921.318	0.0162853
921.396	0.0162706
921.474	0.0163443
921.552	0.0163932
921.630	0.0163385
921.708	0.0161965
921.786	0.0162978
921.864	0.0163875
921.943	0.0162476
922.021	0.0163225
922.099	0.0163914
922.177	0.0163557
922.255	0.0162943
922.333	0.0163802
922.411	0.0164044
922.489	0.0162027
922.568	0.0162659
922.646	0.0161518
922.724	0.0162086
922.802	0.0164120
922.880	0.0161958
922.958	0.0161562
923.036	0.0160809
923.114	0.0160616
923.193	0.0161285
923.271	0.0160918
923.349	0.0160714
923.427	0.0162788
923.505	0.0160228
923.583	0.0159423
923.661	0.0162396
923.739	0.0161587
923.818	0.0160889
923.896	0.0162131
923.974	0.0160735
924.052	0.0161291
924.130	0.0161631
924.208	0.0160883
924.286	0.0162119
924.364	0.0161078
924.443	0.0163240
924.521	0.0159807
924.599	0.0160742
924.677	0.0161986
924.755	0.0161489
924.833	0.0161212
924.911	0.0161555
924.989	0.0162119
925.068	0.0162424
925.146	0.0162102
925.224	0.0162546
925.302	0.0161330
925.380	0.0163155
925.458	0.0163356
925.536	0.0162991
925.614	0.0164198
925.693	0.0162891
925.771	0.0162754
925.849	0.0163212
925.927	0.0162814
926.005	0.0164457
926.083	0.0163273
926.161	0.0162023
926.239	0.0162695
926.318	0.0162992
926.396	0.0163477
926.474	0.0162378
926.552	0.0161208
926.630	0.0163277
926.708	0.0162357
926.786	0.0162527
926.864	0.0162747
926.943	0.0161739
927.021	0.0162280
927.099	0.0162714
927.177	0.0162242
927.255	0.0162357
927.333	0.0161675
927.411	0.0161004
927.489	0.0161224
927.568	0.0161515
927.646	0.0160610
927.724	0.0160844
927.802	0.0160516
927.880	0.0160498
927.958	0.0159878
928.036	0.0160513
928.114	0.0160743
928.193	0.0160939
928.271	0.0161648
928.349	0.0162357
928.427	0.0161191
928.505	0.0161606
928.583	0.0162250
928.661	0.0161259
928.739	0.0162761
928.818	0.0162676
928.896	0.0162952
928.974	0.0162859
929.052	0.0162793
929.130	0.0161945
929.208	0.0162469
929.286	0.0162622
929.364	0.0163473
929.443	0.0161753
929.521	0.0162083
929.599	0.0162462
929.677	0.0162860
929.755	0.0164061
929.833	0.0162878
929.911	0.0161983
929.989	0.0162935
930.068	0.0163318
930.146	0.0162632
930.224	0.0163226
930.302	0.0163587
930.380	0.0162633
930.458	0.0164108
930.536	0.0162529
930.614	0.0161940
930.693	0.0163511
930.771	0.0162873
930.849	0.0162688
930.927	0.0163009
931.005	0.0163741
931.083	0.0162004
931.161	0.0162586
931.239	0.0162255
931.318	0.0161585
931.396	0.0161355
931.474	0.0161089
931.552	0.0160586
931.630	0.0160825
931.708	0.0160627
931.786	0.0159672
931.864	0.0159760
931.943	0.0160272
932.021	0.0162259
932.099	0.0160436
932.177	0.0160321
932.255	0.0159829
932.333	0.0161330
932.411	0.0162779
932.489	0.0160911
932.568	0.0160395
932.646	0.0161953
932.724	0.0162093
932.802	0.0162786
932.880	0.0162290
932.958	0.0161983
933.036	0.0162346
933.114	0.0164176
933.193	0.0161237
933.271	0.0161617
933.349	0.0161510
933.427	0.0161369
933.505	0.0161614
933.583	0.0161796
933.661	0.0161265
933.739	0.0161246
933.818	0.0161725
933.896	0.0160825
933.974	0.0162691
934.052	0.0161360
934.130	0.0161620
934.208	0.0162815
934.286	0.0161772
934.364	0.0161399
934.443	0.0162312
934.521	0.0161407
934.599	0.0162242
934.677	0.0163133
934.755	0.0161072
934.833	0.0161990
934.911	0.0161683
934.989	0.0163731
935.068	0.0162139
935.146	0.0163273
935.224	0.0161813
935.302	0.0162026
935.380	0.0162947
935.458	0.0162000
935.536	0.0161459
935.614	0.0160835
935.693	0.0160432
935.771	0.0161215
935.849	0.0161077
935.927	0.0159982
936.005	0.0161002
936.083	0.0160827
936.161	0.0160462
936.239	0.0161820
936.318	0.0161446
936.396	0.0161198
936.474	0.0161954
936.552	0.0161222
936.630	0.0162870
936.708	0.0163353
936.786	0.0162981
936.864	0.0161548
936.943	0.0162097
937.021	0.0163865
937.099	0.0163829
937.177	0.0162596
937.255	0.0162693
937.333	0.0161672
937.411	0.0162067
937.489	0.0162815
937.568	0.0162257
937.646	0.0161965
937.724	0.0162344
937.802	0.0160474
937.880	0.0159663
937.958	0.0159579
938.036	0.0158456
938.114	0.0159373
938.193	0.0157839
938.271	0.0160058
938.349	0.0158619
938.427	0.0159306
938.505	0.0159190
938.583	0.0158958
938.661	0.0160234
938.739	0.0158946
938.818	0.0158884
938.896	0.0160930
938.974	0.0161537
939.052	0.0161939
939.130	0.0162821
939.208	0.0161587
939.286	0.0161179
939.364	0.0163715
939.443	0.0163401
939.521	0.0161841
939.599	0.0162615
939.677	0.0163235
939.755	0.0162831
939.833	0.0163301
939.911	0.0163573
939.989	0.0163489
940.068	0.0164242
940.146	0.0162344
940.224	0.0163084
940.302	0.0163309
940.380	0.0162333
940.458	0.0162944
940.536	0.0162436
940.614	0.0162091
940.693	0.0161406
940.771	0.0162634
940.849	0.0161964
940.927	0.0161972
941.005	0.0161765
941.083	0.0159566
941.161	0.0160545
941.239	0.0159787
941.318	0.0159508
941.396	0.0159349
941.474	0.0160616
941.552	0.0159070
941.630	0.0158830
941.708	0.0159538
941.786	0.0158816
941.864	0.0159130
941.943	0.0162006
942.021	0.0159740
942.099	0.0160033
942.177	0.0159055
942.255	0.0160957
942.333	0.0160892
942.411	0.0160958
942.489	0.0161649
942.568	0.0162617
942.646	0.0162676
942.724	0.0163200
942.802	0.0162919
942.880	0.0163628
942.958	0.0163224
943.036	0.0163465
943.114	0.0163074
943.193	0.0163454
943.271	0.0162820
943.349	0.0161890
943.427	0.0162865
943.505	0.0164352
943.583	0.0164059
943.661	0.0162501
943.739	0.0162533
943.818	0.0162128
943.896	0.0163594
943.974	0.0162323
944.052	0.0161385
944.130	0.0161503
944.208	0.0161532
944.286	0.0160797
944.364	0.0161538
944.443	0.0161307
944.521	0.0162248
944.599	0.0162238
944.677	0.0161440
944.755	0.0161679
944.833	0.0161384
944.911	0.0160675
944.989	0.0161017
945.068	0.0161257
945.146	0.0161535
945.224	0.0161928
945.302	0.0161251
945.380	0.0160158
945.458	0.0160625
945.536	0.0160725
945.614	0.0161553
945.693	0.0161707
945.771	0.0160764
945.849	0.0160315
945.927	0.0160379
946.005	0.0162008
946.083	0.0161565
946.161	0.0161733
946.239	0.0162610
946.318	0.0161599
946.396	0.0162267
946.474	0.0163347
946.552	0.0163384
946.630	0.0163240
946.708	0.0164122
946.786	0.0163979
946.864	0.0163670
946.943	0.0163525
947.021	0.0163772
947.099	0.0163809
947.177	0.0163477
947.255	0.0164729
947.333	0.0165067
947.411	0.0162025
947.489	0.0162814
947.568	0.0163012
947.646	0.0161901
947.724	0.0163202
947.802	0.0162627
947.880	0.0162874
947.958	0.0163242
948.036	0.0162211
948.114	0.0162402
948.193	0.0161774
948.271	0.0161258
948.349	0.0160780
948.427	0.0161791
948.505	0.0162433
948.583	0.0161510
948.661	0.0161675
948.739	0.0161937
948.818	0.0162452
948.896	0.0161485
948.974	0.0162509
949.052	0.0161079
949.130	0.0160014
949.208	0.0160971
949.286	0.0159266
949.364	0.0159801
949.443	0.0158549
949.521	0.0160240
949.599	0.0160297
949.677	0.0159129
949.755	0.0158935
949.833	0.0160355
949.911	0.0160475
949.989	0.0160226
950.068	0.0161810
950.146	0.0160789
950.224	0.0161105
950.302	0.0163497
950.380	0.0163024
950.458	0.0162924
950.536	0.0163027
950.614	0.0163201
950.693	0.0163574
950.771	0.0164777
950.849	0.0164901
950.927	0.0164915
951.005	0.0164260
951.083	0.0162905
951.161	0.0161902
951.239	0.0162643
951.318	0.0162758
951.396	0.0161697
951.474	0.0161793
951.552	0.0161937
951.630	0.0160487
951.708	0.0161378
951.786	0.0161201
951.864	0.0160915
951.943	0.0161066
952.021	0.0160093
952.099	0.0162513
952.177	0.0160787
952.255	0.0161604
952.333	0.0162951
952.411	0.0161464
952.489	0.0161443
952.568	0.0163445
952.646	0.0162299
952.724	0.0162402
952.802	0.0161765
952.880	0.0162901
952.958	0.0160860
953.036	0.0161024
953.114	0.0160694
953.193	0.0160938
953.271	0.0160436
953.349	0.0159732
953.427	0.0160715
953.505	0.0159791
953.583	0.0159405
953.661	0.0158845
953.739	0.0159328
953.818	0.0159523
953.896	0.0158856
953.974	0.0160075
954.052	0.0160119
954.130	0.0160784
954.208	0.0161911
954.286	0.0161884
954.364	0.0161449
954.443	0.0161806
954.521	0.0163192
954.599	0.0164907
954.677	0.0163186
954.755	0.0163253
954.833	0.0162183
954.911	0.0165158
954.989	0.0162349
955.068	0.0162227
955.146	0.0164131
955.224	0.0163858
955.302	0.0163287
955.380	0.0162216
955.458	0.0161185
955.536	0.0160085
955.614	0.0161064
955.693	0.0160123
955.771	0.0160306
955.849	0.0161089
955.927	0.0160128
956.005	0.0160468
956.083	0.0160268
956.161	0.0160334
956.239	0.0161367
956.318	0.0162543
956.396	0.0160915
956.474	0.0161197
956.552	0.0161102
956.630	0.0161053
956.708	0.0161025
956.786	0.0161533
956.864	0.0161057
956.943	0.0162384
957.021	0.0162616
957.099	0.0160192
957.177	0.0160603
957.255	0.0160558
957.333	0.0159998
957.411	0.0159989
957.489	0.0159557
957.568	0.0159103
957.646	0.0160329
957.724	0.0159177
957.802	0.0159486
957.880	0.0160757
957.958	0.0161105
958.036	0.0160485
958.114	0.0161189
958.193	0.0162111
958.271	0.0162346
958.349	0.0162591
958.427	0.0162945
958.505	0.0162848
958.583	0.0162755
958.661	0.0162369
958.739	0.0161698
958.818	0.0162605
958.896	0.0163940
958.974	0.0164676
959.052	0.0162619
959.130	0.0162059
959.208	0.0162552
959.286	0.0160884
959.364	0.0163741
959.443	0.0162463
959.521	0.0160942
959.599	0.0161942
959.677	0.0160561
959.755	0.0161024
959.833	0.0161166
959.911	0.0161271
