05/17/2022	16:39:28	Ver.	4.1	UNKNOWN
Optical Delay	639.989416	Delta X		0.078125	Sweeps	1	Scan Rate	0/0
Coordinates	Axis 1	NaN	Axis 2	NaN	Axis 3	NaN	Axis 4	NaN	Axis 5	NaN	Axis 6	0.000000
TX Power	0.000000	RX Power	0.000000

639.989	0.0155487
640.068	0.0155589
640.146	0.0156377
640.224	0.0154633
640.302	0.0154726
640.380	0.0155019
640.458	0.0156298
640.536	0.0154965
640.614	0.0154745
640.693	0.0155329
640.771	0.0155319
640.849	0.0156843
640.927	0.0155100
641.005	0.0155116
641.083	0.0155356
641.161	0.0155203
641.239	0.0155824
641.318	0.0156557
641.396	0.0155535
641.474	0.0156039
641.552	0.0153973
641.630	0.0153907
641.708	0.0154346
641.786	0.0156252
641.864	0.0155466
641.943	0.0156002
642.021	0.0155762
642.099	0.0155763
642.177	0.0155737
642.255	0.0156033
642.333	0.0154874
642.411	0.0155736
642.489	0.0156213
642.568	0.0154893
642.646	0.0155970
642.724	0.0155585
642.802	0.0155657
642.880	0.0155823
642.958	0.0156248
643.036	0.0155267
643.114	0.0155451
643.193	0.0155172
643.271	0.0155495
643.349	0.0155298
643.427	0.0155530
643.505	0.0156573
643.583	0.0155515
643.661	0.0157310
643.739	0.0157182
643.818	0.0156420
643.896	0.0155224
643.974	0.0155279
644.052	0.0155637
644.130	0.0156219
644.208	0.0154795
644.286	0.0155547
644.364	0.0155320
644.443	0.0156725
644.521	0.0157231
644.599	0.0155066
644.677	0.0154933
644.755	0.0157487
644.833	0.0154801
644.911	0.0154888
644.989	0.0156263
645.068	0.0155322
645.146	0.0155137
645.224	0.0155610
645.302	0.0156798
645.380	0.0155490
645.458	0.0155626
645.536	0.0156895
645.614	0.0156361
645.693	0.0155566
645.771	0.0156519
645.849	0.0155802
645.927	0.0156194
646.005	0.0156170
646.083	0.0155824
646.161	0.0155450
646.239	0.0156619
646.318	0.0156714
646.396	0.0154689
646.474	0.0154765
646.552	0.0155803
646.630	0.0155559
646.708	0.0155780
646.786	0.0157575
646.864	0.0154660
646.943	0.0155360
647.021	0.0156679
647.099	0.0155878
647.177	0.0155787
647.255	0.0155986
647.333	0.0156839
647.411	0.0154842
647.489	0.0155781
647.568	0.0155772
647.646	0.0155931
647.724	0.0155668
647.802	0.0156500
647.880	0.0154132
647.958	0.0157484
648.036	0.0156496
648.114	0.0155240
648.193	0.0155300
648.271	0.0156212
648.349	0.0156359
648.427	0.0155670
648.505	0.0155923
648.583	0.0156693
648.661	0.0156294
648.739	0.0154471
648.818	0.0155193
648.896	0.0156672
648.974	0.0155653
649.052	0.0155020
649.130	0.0155501
649.208	0.0155777
649.286	0.0154397
649.364	0.0155508
649.443	0.0155077
649.521	0.0155743
649.599	0.0155845
649.677	0.0155975
649.755	0.0156036
649.833	0.0155652
649.911	0.0156276
649.989	0.0155733
650.068	0.0155412
650.146	0.0155231
650.224	0.0156247
650.302	0.0156040
650.380	0.0155276
650.458	0.0155324
650.536	0.0154958
650.614	0.0155040
650.693	0.0155709
650.771	0.0156207
650.849	0.0156506
650.927	0.0154509
651.005	0.0156210
651.083	0.0156102
651.161	0.0156183
651.239	0.0156209
651.318	0.0155432
651.396	0.0155556
651.474	0.0155888
651.552	0.0155007
651.630	0.0155964
651.708	0.0155801
651.786	0.0154270
651.864	0.0154585
651.943	0.0155358
652.021	0.0155550
652.099	0.0154512
652.177	0.0155608
652.255	0.0155450
652.333	0.0155215
652.411	0.0154723
652.489	0.0155586
652.568	0.0155313
652.646	0.0154845
652.724	0.0155627
652.802	0.0156278
652.880	0.0155410
652.958	0.0154700
653.036	0.0156501
653.114	0.0155515
653.193	0.0156657
653.271	0.0156339
653.349	0.0156174
653.427	0.0153754
653.505	0.0154426
653.583	0.0155062
653.661	0.0156079
653.739	0.0156019
653.818	0.0154734
653.896	0.0155679
653.974	0.0156853
654.052	0.0155867
654.130	0.0153270
654.208	0.0154798
654.286	0.0155384
654.364	0.0157219
654.443	0.0155703
654.521	0.0155648
654.599	0.0155247
654.677	0.0156782
654.755	0.0155437
654.833	0.0154921
654.911	0.0155551
654.989	0.0156101
655.068	0.0156931
655.146	0.0156364
655.224	0.0155162
655.302	0.0155368
655.380	0.0157337
655.458	0.0155975
655.536	0.0154712
655.614	0.0155624
655.693	0.0155943
655.771	0.0156896
655.849	0.0155462
655.927	0.0155371
656.005	0.0157332
656.083	0.0155696
656.161	0.0153334
656.239	0.0155956
656.318	0.0154955
656.396	0.0156017
656.474	0.0154818
656.552	0.0155645
656.630	0.0156323
656.708	0.0155050
656.786	0.0154745
656.864	0.0156263
656.943	0.0154739
657.021	0.0155206
657.099	0.0156499
657.177	0.0155862
657.255	0.0156317
657.333	0.0155900
657.411	0.0155772
657.489	0.0155938
657.568	0.0156635
657.646	0.0155806
657.724	0.0156047
657.802	0.0154921
657.880	0.0156196
657.958	0.0155927
658.036	0.0154380
658.114	0.0155415
658.193	0.0155479
658.271	0.0154821
658.349	0.0154401
658.427	0.0154505
658.505	0.0154916
658.583	0.0155396
658.661	0.0156827
658.739	0.0156413
658.818	0.0155740
658.896	0.0155085
658.974	0.0155225
659.052	0.0155499
659.130	0.0154917
659.208	0.0154828
659.286	0.0155399
659.364	0.0155706
659.443	0.0155962
659.521	0.0154513
659.599	0.0156232
659.677	0.0156863
659.755	0.0156523
659.833	0.0154830
659.911	0.0157117
659.989	0.0156401
660.068	0.0156365
660.146	0.0155865
660.224	0.0154879
660.302	0.0156273
660.380	0.0155594
660.458	0.0155809
660.536	0.0155583
660.614	0.0154986
660.693	0.0157354
660.771	0.0156624
660.849	0.0156046
660.927	0.0154925
661.005	0.0155984
661.083	0.0155201
661.161	0.0156123
661.239	0.0156689
661.318	0.0155715
661.396	0.0155553
661.474	0.0154620
661.552	0.0155134
661.630	0.0154176
661.708	0.0154938
661.786	0.0156001
661.864	0.0155934
661.943	0.0156255
662.021	0.0156044
662.099	0.0156538
662.177	0.0155666
662.255	0.0155510
662.333	0.0155547
662.411	0.0155121
662.489	0.0156929
662.568	0.0155671
662.646	0.0154669
662.724	0.0156034
662.802	0.0156617
662.880	0.0155970
662.958	0.0156087
663.036	0.0157178
663.114	0.0157307
663.193	0.0156481
663.271	0.0156208
663.349	0.0156656
663.427	0.0156160
663.505	0.0156168
663.583	0.0156736
663.661	0.0155951
663.739	0.0156384
663.818	0.0156459
663.896	0.0156343
663.974	0.0155019
664.052	0.0155714
664.130	0.0155933
664.208	0.0155277
664.286	0.0156377
664.364	0.0155394
664.443	0.0156314
664.521	0.0156613
664.599	0.0157060
664.677	0.0157043
664.755	0.0155563
664.833	0.0156667
664.911	0.0155339
664.989	0.0156249
665.068	0.0156379
665.146	0.0155178
665.224	0.0156870
665.302	0.0156107
665.380	0.0157418
665.458	0.0156432
665.536	0.0156166
665.614	0.0156627
665.693	0.0156258
665.771	0.0156254
665.849	0.0155974
665.927	0.0156467
666.005	0.0156213
666.083	0.0155993
666.161	0.0156512
666.239	0.0156020
666.318	0.0156004
666.396	0.0157393
666.474	0.0155842
666.552	0.0157261
666.630	0.0156844
666.708	0.0155045
666.786	0.0156116
666.864	0.0154995
666.943	0.0154064
667.021	0.0156194
667.099	0.0154866
667.177	0.0154045
667.255	0.0157171
667.333	0.0155994
667.411	0.0155663
667.489	0.0155342
667.568	0.0155871
667.646	0.0156815
667.724	0.0156185
667.802	0.0155989
667.880	0.0155005
667.958	0.0157106
668.036	0.0155478
668.114	0.0155030
668.193	0.0156382
668.271	0.0155130
668.349	0.0155223
668.427	0.0155990
668.505	0.0156335
668.583	0.0156024
668.661	0.0156068
668.739	0.0154876
668.818	0.0155502
668.896	0.0156757
668.974	0.0155709
669.052	0.0155061
669.130	0.0156158
669.208	0.0156100
669.286	0.0155708
669.364	0.0156814
669.443	0.0154549
669.521	0.0156353
669.599	0.0155550
669.677	0.0156023
669.755	0.0155065
669.833	0.0154726
669.911	0.0155519
669.989	0.0155025
670.068	0.0155962
670.146	0.0155998
670.224	0.0154544
670.302	0.0155834
670.380	0.0157015
670.458	0.0155187
670.536	0.0155766
670.614	0.0155531
670.693	0.0155304
670.771	0.0154799
670.849	0.0155457
670.927	0.0155879
671.005	0.0156483
671.083	0.0154355
671.161	0.0156001
671.239	0.0155597
671.318	0.0156512
671.396	0.0154332
671.474	0.0155898
671.552	0.0156154
671.630	0.0155595
671.708	0.0156344
671.786	0.0156148
671.864	0.0155099
671.943	0.0154939
672.021	0.0155569
672.099	0.0155006
672.177	0.0156158
672.255	0.0156425
672.333	0.0155608
672.411	0.0155679
672.489	0.0157204
672.568	0.0155307
672.646	0.0154911
672.724	0.0154105
672.802	0.0155819
672.880	0.0156400
672.958	0.0156141
673.036	0.0154639
673.114	0.0154525
673.193	0.0155286
673.271	0.0155911
673.349	0.0154969
673.427	0.0156298
673.505	0.0154589
673.583	0.0156038
673.661	0.0155558
673.739	0.0156525
673.818	0.0157135
673.896	0.0155482
673.974	0.0155895
674.052	0.0155560
674.130	0.0156161
674.208	0.0156649
674.286	0.0154880
674.364	0.0154606
674.443	0.0154666
674.521	0.0156456
674.599	0.0155219
674.677	0.0154823
674.755	0.0154971
674.833	0.0155634
674.911	0.0155047
674.989	0.0154899
675.068	0.0156796
675.146	0.0154630
675.224	0.0154823
675.302	0.0156406
675.380	0.0156323
675.458	0.0156145
675.536	0.0155201
675.614	0.0155544
675.693	0.0155441
675.771	0.0154874
675.849	0.0154896
675.927	0.0155392
676.005	0.0156605
676.083	0.0155926
676.161	0.0155932
676.239	0.0155132
676.318	0.0155400
676.396	0.0154906
676.474	0.0155849
676.552	0.0155212
676.630	0.0155601
676.708	0.0155455
676.786	0.0155701
676.864	0.0156355
676.943	0.0155696
677.021	0.0155061
677.099	0.0156364
677.177	0.0156450
677.255	0.0155825
677.333	0.0156786
677.411	0.0155884
677.489	0.0154552
677.568	0.0154463
677.646	0.0157430
677.724	0.0157668
677.802	0.0156476
677.880	0.0154852
677.958	0.0154935
678.036	0.0155886
678.114	0.0157026
678.193	0.0157253
678.271	0.0155943
678.349	0.0156183
678.427	0.0156475
678.505	0.0155077
678.583	0.0155001
678.661	0.0154071
678.739	0.0155218
678.818	0.0156942
678.896	0.0156310
678.974	0.0155930
679.052	0.0154833
679.130	0.0155632
679.208	0.0155070
679.286	0.0155779
679.364	0.0154740
679.443	0.0154553
679.521	0.0155277
679.599	0.0155444
679.677	0.0156788
679.755	0.0153978
679.833	0.0154877
679.911	0.0155024
679.989	0.0154150
680.068	0.0156873
680.146	0.0155621
680.224	0.0155828
680.302	0.0154319
680.380	0.0156322
680.458	0.0156484
680.536	0.0156171
680.614	0.0155491
680.693	0.0153587
680.771	0.0155783
680.849	0.0156077
680.927	0.0156261
681.005	0.0155831
681.083	0.0155512
681.161	0.0155461
681.239	0.0154723
681.318	0.0154912
681.396	0.0155406
681.474	0.0156249
681.552	0.0155360
681.630	0.0154863
681.708	0.0155271
681.786	0.0154205
681.864	0.0156133
681.943	0.0153825
682.021	0.0153799
682.099	0.0155729
682.177	0.0154875
682.255	0.0154909
682.333	0.0154098
682.411	0.0155700
682.489	0.0155717
682.568	0.0155532
682.646	0.0153976
682.724	0.0157059
682.802	0.0155693
682.880	0.0155182
682.958	0.0155756
683.036	0.0156844
683.114	0.0156203
683.193	0.0157697
683.271	0.0155635
683.349	0.0158605
683.427	0.0158437
683.505	0.0157381
683.583	0.0156120
683.661	0.0156861
683.739	0.0156429
683.818	0.0154835
683.896	0.0152956
683.974	0.0153026
684.052	0.0153672
684.130	0.0152592
684.208	0.0152940
684.286	0.0152336
684.364	0.0152267
684.443	0.0153657
684.521	0.0153355
684.599	0.0152895
684.677	0.0152435
684.755	0.0152821
684.833	0.0153854
684.911	0.0154449
684.989	0.0154627
685.068	0.0155029
685.146	0.0156093
685.224	0.0155832
685.302	0.0157642
685.380	0.0159202
685.458	0.0160458
685.536	0.0160698
685.614	0.0161649
685.693	0.0163497
685.771	0.0163092
685.849	0.0164667
685.927	0.0164463
686.005	0.0164152
686.083	0.0164080
686.161	0.0162318
686.239	0.0160256
686.318	0.0159630
686.396	0.0158397
686.474	0.0154974
686.552	0.0154863
686.630	0.0153813
686.708	0.0150510
686.786	0.0148577
686.864	0.0148415
686.943	0.0146956
687.021	0.0144994
687.099	0.0144123
687.177	0.0142415
687.255	0.0142561
687.333	0.0144047
687.411	0.0143147
687.489	0.0143304
687.568	0.0146131
687.646	0.0147144
687.724	0.0149525
687.802	0.0151513
687.880	0.0152528
687.958	0.0154001
688.036	0.0157826
688.114	0.0157781
688.193	0.0159023
688.271	0.0160870
688.349	0.0162656
688.427	0.0165234
688.505	0.0164648
688.583	0.0165089
688.661	0.0166093
688.739	0.0168152
688.818	0.0168295
688.896	0.0170171
688.974	0.0171853
689.052	0.0173769
689.130	0.0174361
689.208	0.0175774
689.286	0.0175445
689.364	0.0173614
689.443	0.0173017
689.521	0.0171004
689.599	0.0169144
689.677	0.0165630
689.755	0.0163075
689.833	0.0159118
689.911	0.0155379
689.989	0.0151192
690.068	0.0144713
690.146	0.0141076
690.224	0.0135495
690.302	0.0131359
690.380	0.0127763
690.458	0.0124030
690.536	0.0119503
690.614	0.0118621
690.693	0.0117451
690.771	0.0116592
690.849	0.0117191
690.927	0.0117800
691.005	0.0120883
691.083	0.0125983
691.161	0.0128416
691.239	0.0134108
691.318	0.0140747
691.396	0.0147796
691.474	0.0152388
691.552	0.0160881
691.630	0.0168538
691.708	0.0175970
691.786	0.0180486
691.864	0.0190840
691.943	0.0195958
692.021	0.0200080
692.099	0.0205997
692.177	0.0206895
692.255	0.0209078
692.333	0.0210212
692.411	0.0209032
692.489	0.0204513
692.568	0.0202009
692.646	0.0196416
692.724	0.0188940
692.802	0.0183273
692.880	0.0176186
692.958	0.0169310
693.036	0.0163198
693.114	0.0157710
693.193	0.0152003
693.271	0.0146133
693.349	0.0143787
693.427	0.0139363
693.505	0.0135903
693.583	0.0133055
693.661	0.0127945
693.739	0.0126492
693.818	0.0124467
693.896	0.0121240
693.974	0.0117239
694.052	0.0114960
694.130	0.0112138
694.208	0.0109077
694.286	0.0108875
694.364	0.0106882
694.443	0.0107875
694.521	0.0107458
694.599	0.0109747
694.677	0.0111186
694.755	0.0115192
694.833	0.0119080
694.911	0.0124487
694.989	0.0129955
695.068	0.0135399
695.146	0.0143056
695.224	0.0150026
695.302	0.0156113
695.380	0.0165091
695.458	0.0172551
695.536	0.0180872
695.614	0.0191801
695.693	0.0199263
695.771	0.0207861
695.849	0.0215739
695.927	0.0221335
696.005	0.0226387
696.083	0.0227578
696.161	0.0229092
696.239	0.0226443
696.318	0.0222104
696.396	0.0216475
696.474	0.0211417
696.552	0.0204049
696.630	0.0194401
696.708	0.0186279
696.786	0.0177389
696.864	0.0168011
696.943	0.0160870
697.021	0.0152380
697.099	0.0144810
697.177	0.0138655
697.255	0.0132669
697.333	0.0126995
697.411	0.0123089
697.489	0.0120422
697.568	0.0116367
697.646	0.0115324
697.724	0.0114095
697.802	0.0113739
697.880	0.0112901
697.958	0.0114787
698.036	0.0115063
698.114	0.0116442
698.193	0.0116592
698.271	0.0117825
698.349	0.0118690
698.427	0.0119166
698.505	0.0119409
698.583	0.0121338
698.661	0.0122700
698.739	0.0124673
698.818	0.0126669
698.896	0.0128316
698.974	0.0133348
699.052	0.0135126
699.130	0.0139160
699.208	0.0145864
699.286	0.0151802
699.364	0.0158309
699.443	0.0164857
699.521	0.0170634
699.599	0.0178181
699.677	0.0185468
699.755	0.0189016
699.833	0.0195904
699.911	0.0201168
699.989	0.0203522
700.068	0.0207764
700.146	0.0209838
700.224	0.0212247
700.302	0.0211013
700.380	0.0209383
700.458	0.0207990
700.536	0.0202132
700.614	0.0196208
700.693	0.0190171
700.771	0.0183273
700.849	0.0175871
700.927	0.0168866
701.005	0.0160410
701.083	0.0152551
701.161	0.0145901
701.239	0.0139081
701.318	0.0135223
701.396	0.0130663
701.474	0.0127963
701.552	0.0126354
701.630	0.0125050
701.708	0.0125868
701.786	0.0127429
701.864	0.0129482
701.943	0.0131489
702.021	0.0133551
702.099	0.0135226
702.177	0.0136210
702.255	0.0138218
702.333	0.0140245
702.411	0.0140517
702.489	0.0141644
702.568	0.0143044
702.646	0.0142151
702.724	0.0142167
702.802	0.0143297
702.880	0.0144137
702.958	0.0143314
703.036	0.0142097
703.114	0.0142407
703.193	0.0142593
703.271	0.0143414
703.349	0.0144123
703.427	0.0146582
703.505	0.0148624
703.583	0.0150800
703.661	0.0152993
703.739	0.0155280
703.818	0.0159824
703.896	0.0162110
703.974	0.0165412
704.052	0.0166174
704.130	0.0167587
704.208	0.0169014
704.286	0.0169389
704.364	0.0170124
704.443	0.0169035
704.521	0.0167998
704.599	0.0167479
704.677	0.0166876
704.755	0.0166893
704.833	0.0166228
704.911	0.0165472
704.989	0.0165898
705.068	0.0166369
705.146	0.0164482
705.224	0.0164473
705.302	0.0165503
705.380	0.0162846
705.458	0.0160634
705.536	0.0162215
705.614	0.0160014
705.693	0.0158990
705.771	0.0158392
705.849	0.0158424
705.927	0.0157887
706.005	0.0156277
706.083	0.0156252
706.161	0.0157247
706.239	0.0156295
706.318	0.0156821
706.396	0.0155986
706.474	0.0153757
706.552	0.0153441
706.630	0.0149792
706.708	0.0150059
706.786	0.0147956
706.864	0.0145556
706.943	0.0143306
707.021	0.0142798
707.099	0.0142374
707.177	0.0142649
707.255	0.0142224
707.333	0.0141337
707.411	0.0143398
707.489	0.0145358
707.568	0.0148072
707.646	0.0149704
707.724	0.0153022
707.802	0.0154581
707.880	0.0156181
707.958	0.0159861
708.036	0.0162497
708.114	0.0163485
708.193	0.0165297
708.271	0.0166846
708.349	0.0167479
708.427	0.0165517
708.505	0.0166711
708.583	0.0165853
708.661	0.0164281
708.739	0.0162487
708.818	0.0162746
708.896	0.0158866
708.974	0.0157956
709.052	0.0156391
709.130	0.0155495
709.208	0.0153748
709.286	0.0152577
709.364	0.0152037
709.443	0.0152773
709.521	0.0152203
709.599	0.0153108
709.677	0.0151921
709.755	0.0153262
709.833	0.0153151
709.911	0.0151398
709.989	0.0153045
710.068	0.0150168
710.146	0.0149059
710.224	0.0148528
710.302	0.0147812
710.380	0.0146012
710.458	0.0145803
710.536	0.0143182
710.614	0.0142873
710.693	0.0141416
710.771	0.0141690
710.849	0.0142778
710.927	0.0143086
711.005	0.0143872
711.083	0.0146729
711.161	0.0149901
711.239	0.0153525
711.318	0.0158192
711.396	0.0161722
711.474	0.0164407
711.552	0.0169849
711.630	0.0173923
711.708	0.0178090
711.786	0.0180099
711.864	0.0181468
711.943	0.0181566
712.021	0.0182234
712.099	0.0181972
712.177	0.0180967
712.255	0.0178341
712.333	0.0176515
712.411	0.0173695
712.489	0.0169366
712.568	0.0168433
712.646	0.0165653
712.724	0.0161026
712.802	0.0156278
712.880	0.0155175
712.958	0.0151685
713.036	0.0148219
713.114	0.0145688
713.193	0.0143758
713.271	0.0143475
713.349	0.0142636
713.427	0.0143376
713.505	0.0142474
713.583	0.0143159
713.661	0.0145354
713.739	0.0144723
713.818	0.0145803
713.896	0.0144144
713.974	0.0145506
714.052	0.0144125
714.130	0.0140767
714.208	0.0138942
714.286	0.0138401
714.364	0.0136091
714.443	0.0135139
714.521	0.0134969
714.599	0.0134368
714.677	0.0135217
714.755	0.0138152
714.833	0.0142387
714.911	0.0145735
714.989	0.0147497
715.068	0.0154001
715.146	0.0157791
715.224	0.0160406
715.302	0.0163781
715.380	0.0165963
715.458	0.0169623
715.536	0.0172437
715.614	0.0172890
715.693	0.0172536
715.771	0.0173205
715.849	0.0171065
715.927	0.0170551
716.005	0.0170111
716.083	0.0169399
716.161	0.0165665
716.239	0.0163404
716.318	0.0163159
716.396	0.0160980
716.474	0.0159886
716.552	0.0158118
716.630	0.0156264
716.708	0.0156755
716.786	0.0157595
716.864	0.0155772
716.943	0.0157481
717.021	0.0159657
717.099	0.0160704
717.177	0.0162700
717.255	0.0161592
717.333	0.0163753
717.411	0.0162988
717.489	0.0165580
717.568	0.0164180
717.646	0.0164207
717.724	0.0163240
717.802	0.0163168
717.880	0.0161887
717.958	0.0159507
718.036	0.0157674
718.114	0.0155341
718.193	0.0153761
718.271	0.0151256
718.349	0.0149503
718.427	0.0146743
718.505	0.0144033
718.583	0.0144308
718.661	0.0141943
718.739	0.0140734
718.818	0.0141582
718.896	0.0140822
718.974	0.0139729
719.052	0.0141840
719.130	0.0140303
719.208	0.0141707
719.286	0.0143831
719.364	0.0144845
719.443	0.0146648
719.521	0.0148004
719.599	0.0151178
719.677	0.0152235
719.755	0.0156596
719.833	0.0158380
719.911	0.0161891
719.989	0.0163416
720.068	0.0165320
720.146	0.0168774
720.224	0.0169759
720.302	0.0170873
720.380	0.0171660
720.458	0.0170339
720.536	0.0170609
720.614	0.0168993
720.693	0.0166705
720.771	0.0165273
720.849	0.0163263
720.927	0.0159370
721.005	0.0156669
721.083	0.0154198
721.161	0.0152276
721.239	0.0151165
721.318	0.0150446
721.396	0.0149547
721.474	0.0148518
721.552	0.0148066
721.630	0.0147677
721.708	0.0148106
721.786	0.0147299
721.864	0.0147924
721.943	0.0149680
722.021	0.0149524
722.099	0.0149207
722.177	0.0151315
722.255	0.0151615
722.333	0.0150942
722.411	0.0151846
722.489	0.0153585
722.568	0.0153486
722.646	0.0155612
722.724	0.0157452
722.802	0.0156090
722.880	0.0157761
722.958	0.0157999
723.036	0.0158243
723.114	0.0160516
723.193	0.0161605
723.271	0.0162845
723.349	0.0162856
723.427	0.0162483
723.505	0.0164097
723.583	0.0162214
723.661	0.0162628
723.739	0.0162569
723.818	0.0162236
723.896	0.0162134
723.974	0.0159035
724.052	0.0159032
724.130	0.0158651
724.208	0.0157168
724.286	0.0153577
724.364	0.0154488
724.443	0.0152754
724.521	0.0150830
724.599	0.0149482
724.677	0.0148012
724.755	0.0148734
724.833	0.0149520
724.911	0.0148717
724.989	0.0149929
725.068	0.0150791
725.146	0.0151456
725.224	0.0151562
725.302	0.0152579
725.380	0.0153368
725.458	0.0154005
725.536	0.0154191
725.614	0.0152607
725.693	0.0152889
725.771	0.0153270
725.849	0.0153305
725.927	0.0154173
726.005	0.0151641
726.083	0.0151511
726.161	0.0151528
726.239	0.0150504
726.318	0.0149838
726.396	0.0148512
726.474	0.0149596
726.552	0.0147985
726.630	0.0149986
726.708	0.0151073
726.786	0.0153065
726.864	0.0154458
726.943	0.0156480
727.021	0.0158699
727.099	0.0161806
727.177	0.0162585
727.255	0.0164329
727.333	0.0165961
727.411	0.0169343
727.489	0.0168865
727.568	0.0169700
727.646	0.0168890
727.724	0.0168309
727.802	0.0169238
727.880	0.0166894
727.958	0.0166703
728.036	0.0163676
728.114	0.0160787
728.193	0.0158585
728.271	0.0155861
728.349	0.0155123
728.427	0.0152278
728.505	0.0149911
728.583	0.0148698
728.661	0.0147727
728.739	0.0147546
728.818	0.0147508
728.896	0.0147491
728.974	0.0147704
729.052	0.0148644
729.130	0.0148225
729.208	0.0151953
729.286	0.0153393
729.364	0.0151242
729.443	0.0151982
729.521	0.0153583
729.599	0.0151842
729.677	0.0152092
729.755	0.0152787
729.833	0.0153305
729.911	0.0153413
729.989	0.0154560
730.068	0.0155233
730.146	0.0155073
730.224	0.0154578
730.302	0.0156492
730.380	0.0156886
730.458	0.0158755
730.536	0.0158648
730.614	0.0160441
730.693	0.0159634
730.771	0.0158534
730.849	0.0158195
730.927	0.0157641
731.005	0.0157312
731.083	0.0154113
731.161	0.0153564
731.239	0.0153272
731.318	0.0152311
731.396	0.0152453
731.474	0.0152567
731.552	0.0152126
731.630	0.0153578
731.708	0.0155284
731.786	0.0154586
731.864	0.0155286
731.943	0.0155289
732.021	0.0156643
732.099	0.0158633
732.177	0.0158270
732.255	0.0158670
732.333	0.0158356
732.411	0.0159373
732.489	0.0159604
732.568	0.0159986
732.646	0.0159896
732.724	0.0159081
732.802	0.0157478
732.880	0.0156607
732.958	0.0157764
733.036	0.0153094
733.114	0.0152026
733.193	0.0152847
733.271	0.0150856
733.349	0.0149763
733.427	0.0149444
733.505	0.0147915
733.583	0.0148128
733.661	0.0148004
733.739	0.0149849
733.818	0.0149086
733.896	0.0150147
733.974	0.0151394
734.052	0.0151336
734.130	0.0153661
734.208	0.0155669
734.286	0.0154826
734.364	0.0157588
734.443	0.0158638
734.521	0.0158585
734.599	0.0160430
734.677	0.0161654
734.755	0.0162084
734.833	0.0161966
734.911	0.0162836
734.989	0.0162560
735.068	0.0163331
735.146	0.0162153
735.224	0.0162700
735.302	0.0163659
735.380	0.0164266
735.458	0.0162919
735.536	0.0162485
735.614	0.0161106
735.693	0.0160242
735.771	0.0160352
735.849	0.0158897
735.927	0.0158061
736.005	0.0156656
736.083	0.0155020
736.161	0.0154391
736.239	0.0153254
736.318	0.0151586
736.396	0.0151487
736.474	0.0152631
736.552	0.0150262
736.630	0.0149885
736.708	0.0147760
736.786	0.0147228
736.864	0.0148003
736.943	0.0148759
737.021	0.0149429
737.099	0.0147628
737.177	0.0148449
737.255	0.0149699
737.333	0.0149191
737.411	0.0147764
737.489	0.0150530
737.568	0.0151734
737.646	0.0151145
737.724	0.0150819
737.802	0.0152022
737.880	0.0152380
737.958	0.0154264
738.036	0.0154518
738.114	0.0154214
738.193	0.0156586
738.271	0.0156248
738.349	0.0155915
738.427	0.0156432
738.505	0.0156568
738.583	0.0156763
738.661	0.0158109
738.739	0.0159404
738.818	0.0160762
738.896	0.0160916
738.974	0.0159846
739.052	0.0160778
739.130	0.0160710
739.208	0.0162328
739.286	0.0161842
739.364	0.0162175
739.443	0.0162009
739.521	0.0164047
739.599	0.0162689
739.677	0.0161388
739.755	0.0164560
739.833	0.0164623
739.911	0.0163076
739.989	0.0162151
740.068	0.0161259
740.146	0.0161082
740.224	0.0160889
740.302	0.0158834
740.380	0.0159324
740.458	0.0156200
740.536	0.0155889
740.614	0.0153261
740.693	0.0153078
740.771	0.0151186
740.849	0.0150751
740.927	0.0149580
741.005	0.0149482
741.083	0.0148342
741.161	0.0149033
741.239	0.0147955
741.318	0.0149018
741.396	0.0147763
741.474	0.0147514
741.552	0.0150336
741.630	0.0150535
741.708	0.0151459
741.786	0.0153233
741.864	0.0152802
741.943	0.0155700
742.021	0.0156295
742.099	0.0157001
742.177	0.0155769
742.255	0.0157080
742.333	0.0158183
742.411	0.0156585
742.489	0.0156832
742.568	0.0155598
742.646	0.0156275
742.724	0.0155963
742.802	0.0154216
742.880	0.0155245
742.958	0.0155972
743.036	0.0153887
743.114	0.0154346
743.193	0.0156304
743.271	0.0155768
743.349	0.0155589
743.427	0.0156544
743.505	0.0156597
743.583	0.0159123
743.661	0.0159026
743.739	0.0159882
743.818	0.0160625
743.896	0.0160492
743.974	0.0161398
744.052	0.0160960
744.130	0.0159677
744.208	0.0160651
744.286	0.0159789
744.364	0.0158512
744.443	0.0158166
744.521	0.0158041
744.599	0.0157935
744.677	0.0156143
744.755	0.0155267
744.833	0.0154996
744.911	0.0153777
744.989	0.0153506
745.068	0.0153487
745.146	0.0152936
745.224	0.0153458
745.302	0.0153049
745.380	0.0152280
745.458	0.0150809
745.536	0.0152432
745.614	0.0151643
745.693	0.0152135
745.771	0.0151525
745.849	0.0151863
745.927	0.0151168
746.005	0.0152663
746.083	0.0151149
746.161	0.0152413
746.239	0.0151322
746.318	0.0152168
746.396	0.0152143
746.474	0.0151105
746.552	0.0153764
746.630	0.0153928
746.708	0.0154240
746.786	0.0152814
746.864	0.0153752
746.943	0.0155194
747.021	0.0155442
747.099	0.0156097
747.177	0.0157573
747.255	0.0159502
747.333	0.0159206
747.411	0.0160307
747.489	0.0161108
747.568	0.0162466
747.646	0.0162178
747.724	0.0161258
747.802	0.0163104
747.880	0.0162016
747.958	0.0161349
748.036	0.0161821
748.114	0.0161269
748.193	0.0160319
748.271	0.0158080
748.349	0.0158251
748.427	0.0156998
748.505	0.0156093
748.583	0.0156152
748.661	0.0154090
748.739	0.0154889
748.818	0.0155484
748.896	0.0154596
748.974	0.0153666
749.052	0.0154910
749.130	0.0154443
749.208	0.0155318
749.286	0.0155284
749.364	0.0155038
749.443	0.0154827
749.521	0.0155133
749.599	0.0157470
749.677	0.0155286
749.755	0.0156274
749.833	0.0155542
749.911	0.0154053
749.989	0.0155261
750.068	0.0154580
750.146	0.0154061
750.224	0.0153493
750.302	0.0152219
750.380	0.0154276
750.458	0.0152253
750.536	0.0151608
750.614	0.0152679
750.693	0.0152442
750.771	0.0151239
750.849	0.0152151
750.927	0.0153246
751.005	0.0152345
751.083	0.0153525
751.161	0.0154701
751.239	0.0153739
751.318	0.0156121
751.396	0.0156322
751.474	0.0156499
751.552	0.0157211
751.630	0.0157117
751.708	0.0158603
751.786	0.0158500
751.864	0.0158893
751.943	0.0158617
752.021	0.0157942
752.099	0.0157077
752.177	0.0157253
752.255	0.0156884
752.333	0.0157574
752.411	0.0156320
752.489	0.0155545
752.568	0.0154987
752.646	0.0154443
752.724	0.0154208
752.802	0.0153948
752.880	0.0155734
752.958	0.0155976
753.036	0.0154778
753.114	0.0153534
753.193	0.0155074
753.271	0.0154343
753.349	0.0153430
753.427	0.0153538
753.505	0.0153842
753.583	0.0155621
753.661	0.0154731
753.739	0.0155898
753.818	0.0154189
753.896	0.0155502
753.974	0.0155286
754.052	0.0154666
754.130	0.0154472
754.208	0.0154465
754.286	0.0154708
754.364	0.0153812
754.443	0.0154672
754.521	0.0153341
754.599	0.0154014
754.677	0.0154434
754.755	0.0153288
754.833	0.0155327
754.911	0.0155707
754.989	0.0154091
755.068	0.0156641
755.146	0.0157542
755.224	0.0158005
755.302	0.0158246
755.380	0.0160722
755.458	0.0160400
755.536	0.0160674
755.614	0.0160748
755.693	0.0160699
755.771	0.0160625
755.849	0.0159177
755.927	0.0160143
756.005	0.0158555
756.083	0.0157643
756.161	0.0157146
756.239	0.0154391
756.318	0.0154783
756.396	0.0152209
756.474	0.0152557
756.552	0.0150948
756.630	0.0152259
756.708	0.0149134
756.786	0.0149713
756.864	0.0150034
756.943	0.0151744
757.021	0.0151794
757.099	0.0150860
757.177	0.0152024
757.255	0.0152843
757.333	0.0151321
757.411	0.0152406
757.489	0.0154277
757.568	0.0154004
757.646	0.0154598
757.724	0.0155266
757.802	0.0155183
757.880	0.0155092
757.958	0.0154777
758.036	0.0155694
758.114	0.0154781
758.193	0.0154420
758.271	0.0154033
758.349	0.0155142
758.427	0.0154020
758.505	0.0154301
758.583	0.0152097
758.661	0.0153062
758.739	0.0152355
758.818	0.0153194
758.896	0.0153516
758.974	0.0153742
759.052	0.0153729
759.130	0.0154179
759.208	0.0153634
759.286	0.0155048
759.364	0.0155595
759.443	0.0156071
759.521	0.0157162
759.599	0.0158221
759.677	0.0158617
759.755	0.0158421
759.833	0.0158936
759.911	0.0159579
759.989	0.0160783
760.068	0.0160235
760.146	0.0159718
760.224	0.0159593
760.302	0.0159866
760.380	0.0158356
760.458	0.0158557
760.536	0.0157262
760.614	0.0156473
760.693	0.0156228
760.771	0.0157748
760.849	0.0155192
760.927	0.0155047
761.005	0.0154392
761.083	0.0154844
761.161	0.0153827
761.239	0.0152782
761.318	0.0152120
761.396	0.0152083
761.474	0.0152303
761.552	0.0152335
761.630	0.0153688
761.708	0.0152380
761.786	0.0152291
761.864	0.0153370
761.943	0.0152638
762.021	0.0154730
762.099	0.0154343
762.177	0.0154118
762.255	0.0154552
762.333	0.0155836
762.411	0.0155806
762.489	0.0155421
762.568	0.0156287
762.646	0.0157135
762.724	0.0155978
762.802	0.0157785
762.880	0.0158842
762.958	0.0157425
763.036	0.0156957
763.114	0.0157137
763.193	0.0156872
763.271	0.0157576
763.349	0.0156625
763.427	0.0155666
763.505	0.0157201
763.583	0.0155986
763.661	0.0154262
763.739	0.0154500
763.818	0.0154839
763.896	0.0154317
763.974	0.0153678
764.052	0.0153576
764.130	0.0153698
764.208	0.0153720
764.286	0.0153039
764.364	0.0153075
764.443	0.0154017
764.521	0.0152897
764.599	0.0152033
764.677	0.0152912
764.755	0.0153684
764.833	0.0152954
764.911	0.0152920
764.989	0.0155264
765.068	0.0154346
765.146	0.0154695
765.224	0.0154628
765.302	0.0154034
765.380	0.0156092
765.458	0.0154803
765.536	0.0154747
765.614	0.0154209
765.693	0.0155077
765.771	0.0154602
765.849	0.0155622
765.927	0.0154864
766.005	0.0155755
766.083	0.0155970
766.161	0.0155584
766.239	0.0155400
766.318	0.0155219
766.396	0.0156007
766.474	0.0154961
766.552	0.0154479
766.630	0.0156451
766.708	0.0154517
766.786	0.0153478
766.864	0.0156009
766.943	0.0156191
767.021	0.0154589
767.099	0.0155261
767.177	0.0155586
767.255	0.0156030
767.333	0.0156861
767.411	0.0156660
767.489	0.0158453
767.568	0.0157893
767.646	0.0159178
767.724	0.0159637
767.802	0.0158652
767.880	0.0159704
767.958	0.0160139
768.036	0.0159581
768.114	0.0158808
768.193	0.0158006
768.271	0.0157128
768.349	0.0157222
768.427	0.0156737
768.505	0.0154293
768.583	0.0153681
768.661	0.0153049
768.739	0.0151902
768.818	0.0151131
768.896	0.0152051
768.974	0.0151154
769.052	0.0150594
769.130	0.0150893
769.208	0.0152008
769.286	0.0150468
769.364	0.0152711
769.443	0.0152548
769.521	0.0152641
769.599	0.0151899
769.677	0.0152193
769.755	0.0153661
769.833	0.0152807
769.911	0.0153291
769.989	0.0155568
770.068	0.0154701
770.146	0.0154234
770.224	0.0155722
770.302	0.0154255
770.380	0.0155701
770.458	0.0156463
770.536	0.0155993
770.614	0.0158154
770.693	0.0158327
770.771	0.0157665
770.849	0.0157986
770.927	0.0158154
771.005	0.0159410
771.083	0.0158701
771.161	0.0158780
771.239	0.0157341
771.318	0.0159130
771.396	0.0158247
771.474	0.0158154
771.552	0.0157248
771.630	0.0157002
771.708	0.0157058
771.786	0.0157146
771.864	0.0155644
771.943	0.0156195
772.021	0.0155869
772.099	0.0156178
772.177	0.0154547
772.255	0.0154370
772.333	0.0153918
772.411	0.0155184
772.489	0.0154079
772.568	0.0153401
772.646	0.0153932
772.724	0.0153191
772.802	0.0154509
772.880	0.0154698
772.958	0.0155220
773.036	0.0154065
773.114	0.0154133
773.193	0.0154116
773.271	0.0154366
773.349	0.0154578
773.427	0.0155407
773.505	0.0156227
773.583	0.0154381
773.661	0.0153511
773.739	0.0152605
773.818	0.0154646
773.896	0.0154480
773.974	0.0154069
774.052	0.0155090
774.130	0.0153926
774.208	0.0155608
774.286	0.0155151
774.364	0.0155317
774.443	0.0153976
774.521	0.0155223
774.599	0.0154939
774.677	0.0153669
774.755	0.0154340
774.833	0.0154472
774.911	0.0155487
774.989	0.0155254
775.068	0.0155360
775.146	0.0156676
775.224	0.0156583
775.302	0.0156754
775.380	0.0157970
775.458	0.0158150
775.536	0.0157439
775.614	0.0157183
775.693	0.0158140
775.771	0.0157726
775.849	0.0157411
775.927	0.0157291
776.005	0.0157746
776.083	0.0157734
776.161	0.0157964
776.239	0.0156237
776.318	0.0155500
776.396	0.0154930
776.474	0.0156419
776.552	0.0155161
776.630	0.0155002
776.708	0.0153792
776.786	0.0153458
776.864	0.0153587
776.943	0.0155145
777.021	0.0152660
777.099	0.0153750
777.177	0.0152565
777.255	0.0152394
777.333	0.0154218
777.411	0.0153365
777.489	0.0152775
777.568	0.0153860
777.646	0.0152371
777.724	0.0153643
777.802	0.0152763
777.880	0.0152832
777.958	0.0154095
778.036	0.0153576
778.114	0.0154968
778.193	0.0155773
778.271	0.0155811
778.349	0.0156136
778.427	0.0156894
778.505	0.0157298
778.583	0.0157273
778.661	0.0156075
778.739	0.0158035
778.818	0.0159048
778.896	0.0158115
778.974	0.0156611
779.052	0.0157670
779.130	0.0158438
779.208	0.0158041
779.286	0.0156602
779.364	0.0157227
779.443	0.0157828
779.521	0.0157113
779.599	0.0157637
779.677	0.0157122
779.755	0.0156971
779.833	0.0157196
779.911	0.0155579
779.989	0.0157046
780.068	0.0155803
780.146	0.0156001
780.224	0.0155311
780.302	0.0156453
780.380	0.0156516
780.458	0.0154081
780.536	0.0154723
780.614	0.0155830
780.693	0.0154675
780.771	0.0155103
780.849	0.0155933
780.927	0.0155758
781.005	0.0155961
781.083	0.0153257
781.161	0.0154376
781.239	0.0154211
781.318	0.0155589
781.396	0.0154243
781.474	0.0155671
781.552	0.0154073
781.630	0.0153836
781.708	0.0154989
781.786	0.0156304
781.864	0.0152594
781.943	0.0154485
782.021	0.0153953
782.099	0.0154365
782.177	0.0155485
782.255	0.0153464
782.333	0.0155049
782.411	0.0154886
782.489	0.0155782
782.568	0.0154057
782.646	0.0155797
782.724	0.0155106
782.802	0.0155602
782.880	0.0155231
782.958	0.0153836
783.036	0.0154226
783.114	0.0156784
783.193	0.0157398
783.271	0.0156892
783.349	0.0155359
783.427	0.0156827
783.505	0.0157111
783.583	0.0156353
783.661	0.0156734
783.739	0.0157053
783.818	0.0157570
783.896	0.0156223
783.974	0.0157576
784.052	0.0157813
784.130	0.0157047
784.208	0.0155883
784.286	0.0156562
784.364	0.0156230
784.443	0.0155130
784.521	0.0154406
784.599	0.0155290
784.677	0.0154913
784.755	0.0153706
784.833	0.0154578
784.911	0.0153070
784.989	0.0153917
785.068	0.0154335
785.146	0.0154157
785.224	0.0154276
785.302	0.0154024
785.380	0.0154536
785.458	0.0153642
785.536	0.0154958
785.614	0.0155722
785.693	0.0156647
785.771	0.0155692
785.849	0.0156735
785.927	0.0156611
786.005	0.0156729
786.083	0.0158056
786.161	0.0157882
786.239	0.0156421
786.318	0.0156210
786.396	0.0157906
786.474	0.0157590
786.552	0.0156818
786.630	0.0156126
786.708	0.0156474
786.786	0.0155269
786.864	0.0154535
786.943	0.0154856
787.021	0.0153211
787.099	0.0153426
787.177	0.0151322
787.255	0.0151554
787.333	0.0151566
787.411	0.0151308
787.489	0.0150609
787.568	0.0150198
787.646	0.0152995
787.724	0.0152235
787.802	0.0152612
787.880	0.0152808
787.958	0.0153946
788.036	0.0155070
788.114	0.0154675
788.193	0.0155508
788.271	0.0157694
788.349	0.0156503
788.427	0.0157696
788.505	0.0157493
788.583	0.0159269
788.661	0.0159629
788.739	0.0160867
788.818	0.0161148
788.896	0.0160044
788.974	0.0160976
789.052	0.0160500
789.130	0.0160490
789.208	0.0160335
789.286	0.0160966
789.364	0.0158617
789.443	0.0159109
789.521	0.0160004
789.599	0.0159383
789.677	0.0157220
789.755	0.0156861
789.833	0.0154896
789.911	0.0154031
789.989	0.0154377
790.068	0.0153444
790.146	0.0152663
790.224	0.0151501
790.302	0.0149581
790.380	0.0149494
790.458	0.0149267
790.536	0.0148195
790.614	0.0148183
790.693	0.0147843
790.771	0.0148541
790.849	0.0147243
790.927	0.0146970
791.005	0.0147975
791.083	0.0147905
791.161	0.0149030
791.239	0.0147543
791.318	0.0148640
791.396	0.0152005
791.474	0.0152569
791.552	0.0152917
791.630	0.0153531
791.708	0.0154652
791.786	0.0156220
791.864	0.0155545
791.943	0.0157996
792.021	0.0158448
792.099	0.0160550
792.177	0.0161756
792.255	0.0161133
792.333	0.0163196
792.411	0.0164050
792.489	0.0164613
792.568	0.0163884
792.646	0.0164528
792.724	0.0164093
792.802	0.0163505
792.880	0.0164657
792.958	0.0163951
793.036	0.0164065
793.114	0.0162060
793.193	0.0162521
793.271	0.0162433
793.349	0.0161005
793.427	0.0158732
793.505	0.0158820
793.583	0.0157823
793.661	0.0155795
793.739	0.0155382
793.818	0.0153828
793.896	0.0153400
793.974	0.0151714
794.052	0.0151311
794.130	0.0151855
794.208	0.0150574
794.286	0.0149550
794.364	0.0149325
794.443	0.0149479
794.521	0.0150535
794.599	0.0150090
794.677	0.0149075
794.755	0.0149615
794.833	0.0149940
794.911	0.0149880
794.989	0.0149000
795.068	0.0149885
795.146	0.0150223
795.224	0.0148743
795.302	0.0150188
795.380	0.0150924
795.458	0.0149739
795.536	0.0151572
795.614	0.0151865
795.693	0.0151665
795.771	0.0153229
795.849	0.0153781
795.927	0.0153814
796.005	0.0156818
796.083	0.0155653
796.161	0.0156975
796.239	0.0158514
796.318	0.0159623
796.396	0.0159387
796.474	0.0159978
796.552	0.0161916
796.630	0.0161064
796.708	0.0162375
796.786	0.0164279
796.864	0.0163095
796.943	0.0162334
797.021	0.0163410
797.099	0.0162720
797.177	0.0161755
797.255	0.0161500
797.333	0.0161089
797.411	0.0160687
797.489	0.0160529
797.568	0.0158989
797.646	0.0158408
797.724	0.0158723
797.802	0.0157961
797.880	0.0156803
797.958	0.0156091
798.036	0.0155663
798.114	0.0153262
798.193	0.0154985
798.271	0.0154439
798.349	0.0152774
798.427	0.0151860
798.505	0.0153318
798.583	0.0152515
798.661	0.0151289
798.739	0.0149837
798.818	0.0150417
798.896	0.0150764
798.974	0.0151902
799.052	0.0151363
799.130	0.0151379
799.208	0.0150275
799.286	0.0151247
799.364	0.0151630
799.443	0.0151261
799.521	0.0154021
799.599	0.0153963
799.677	0.0153838
799.755	0.0153532
799.833	0.0154905
799.911	0.0153209
799.989	0.0154819
800.068	0.0155531
800.146	0.0156968
800.224	0.0155958
800.302	0.0155219
800.380	0.0157039
800.458	0.0156757
800.536	0.0156384
800.614	0.0156750
800.693	0.0155017
800.771	0.0156020
800.849	0.0156806
800.927	0.0156371
801.005	0.0157633
801.083	0.0156425
801.161	0.0155557
801.239	0.0156106
801.318	0.0156554
801.396	0.0156095
801.474	0.0155744
801.552	0.0155769
801.630	0.0157014
801.708	0.0157517
801.786	0.0156211
801.864	0.0157278
801.943	0.0157100
802.021	0.0158263
802.099	0.0157856
802.177	0.0157549
802.255	0.0159072
802.333	0.0159329
802.411	0.0157841
802.489	0.0159787
802.568	0.0158231
802.646	0.0157110
802.724	0.0157075
802.802	0.0156452
802.880	0.0154022
802.958	0.0155159
803.036	0.0155236
803.114	0.0153979
803.193	0.0153979
803.271	0.0153569
803.349	0.0152648
803.427	0.0153172
803.505	0.0151733
803.583	0.0152632
803.661	0.0151778
803.739	0.0152151
803.818	0.0152544
803.896	0.0152214
803.974	0.0154273
804.052	0.0153172
804.130	0.0154485
804.208	0.0153732
804.286	0.0155172
804.364	0.0155911
804.443	0.0155850
804.521	0.0156501
804.599	0.0157423
804.677	0.0155983
804.755	0.0155645
804.833	0.0156657
804.911	0.0155589
804.989	0.0156393
805.068	0.0153973
805.146	0.0156027
805.224	0.0155428
805.302	0.0154932
805.380	0.0154777
805.458	0.0155103
805.536	0.0154778
805.614	0.0153907
805.693	0.0155057
805.771	0.0154572
805.849	0.0154845
805.927	0.0154667
806.005	0.0154533
806.083	0.0156615
806.161	0.0155859
806.239	0.0155054
806.318	0.0156764
806.396	0.0155933
806.474	0.0155180
806.552	0.0156757
806.630	0.0155215
806.708	0.0153982
806.786	0.0155306
806.864	0.0155582
806.943	0.0155310
807.021	0.0154621
807.099	0.0155471
807.177	0.0154369
807.255	0.0154707
807.333	0.0154276
807.411	0.0155417
807.489	0.0155669
807.568	0.0155962
807.646	0.0156930
807.724	0.0157368
807.802	0.0155809
807.880	0.0158250
807.958	0.0158053
808.036	0.0158537
808.114	0.0158744
808.193	0.0161531
808.271	0.0160542
808.349	0.0160291
808.427	0.0161841
808.505	0.0160348
808.583	0.0161213
808.661	0.0163046
808.739	0.0160461
808.818	0.0159239
808.896	0.0160258
808.974	0.0157964
809.052	0.0159063
809.130	0.0157841
809.208	0.0157211
809.286	0.0156197
809.364	0.0156712
809.443	0.0156719
809.521	0.0155305
809.599	0.0155167
809.677	0.0155231
809.755	0.0155954
809.833	0.0153649
809.911	0.0152350
809.989	0.0153134
810.068	0.0151809
810.146	0.0151588
810.224	0.0152852
810.302	0.0151816
810.380	0.0150365
810.458	0.0149915
810.536	0.0150614
810.614	0.0151833
810.693	0.0149818
810.771	0.0149960
810.849	0.0148994
810.927	0.0151560
811.005	0.0150728
811.083	0.0151468
811.161	0.0151120
811.239	0.0152192
811.318	0.0152687
811.396	0.0152209
811.474	0.0151636
811.552	0.0154765
811.630	0.0155624
811.708	0.0154794
811.786	0.0155326
811.864	0.0156102
811.943	0.0156779
812.021	0.0156978
812.099	0.0157911
812.177	0.0158724
812.255	0.0158968
812.333	0.0159708
812.411	0.0160011
812.489	0.0158910
812.568	0.0161076
812.646	0.0158785
812.724	0.0159278
812.802	0.0158155
812.880	0.0160482
812.958	0.0160420
813.036	0.0160117
813.114	0.0158856
813.193	0.0159204
813.271	0.0158632
813.349	0.0159772
813.427	0.0159003
813.505	0.0158556
813.583	0.0159869
813.661	0.0159148
813.739	0.0158719
813.818	0.0159155
813.896	0.0157791
813.974	0.0158183
814.052	0.0157322
814.130	0.0157230
814.208	0.0157375
814.286	0.0156938
814.364	0.0155272
814.443	0.0154192
814.521	0.0154016
814.599	0.0152145
814.677	0.0152795
814.755	0.0151763
814.833	0.0150421
814.911	0.0151218
814.989	0.0151806
815.068	0.0151127
815.146	0.0150688
815.224	0.0150014
815.302	0.0150495
815.380	0.0150839
815.458	0.0150862
815.536	0.0151951
815.614	0.0152425
815.693	0.0150665
815.771	0.0152972
815.849	0.0152221
815.927	0.0151619
816.005	0.0153123
816.083	0.0155424
816.161	0.0155217
816.239	0.0154347
816.318	0.0155363
816.396	0.0155555
816.474	0.0156670
816.552	0.0156049
816.630	0.0156215
816.708	0.0157001
816.786	0.0156612
816.864	0.0157486
816.943	0.0157251
817.021	0.0157337
817.099	0.0157272
817.177	0.0157504
817.255	0.0157671
817.333	0.0157925
817.411	0.0158912
817.489	0.0158421
817.568	0.0158158
817.646	0.0155611
817.724	0.0158175
817.802	0.0157302
817.880	0.0155181
817.958	0.0155865
818.036	0.0156020
818.114	0.0155348
818.193	0.0155741
818.271	0.0154811
818.349	0.0153731
818.427	0.0154665
818.505	0.0154452
818.583	0.0153931
818.661	0.0154535
818.739	0.0152891
818.818	0.0155039
818.896	0.0154896
818.974	0.0154541
819.052	0.0155794
819.130	0.0155618
819.208	0.0155221
819.286	0.0155585
819.364	0.0155749
819.443	0.0157023
819.521	0.0158754
819.599	0.0159201
819.677	0.0158302
819.755	0.0156934
819.833	0.0157102
819.911	0.0158591
819.989	0.0158337
820.068	0.0157712
820.146	0.0158348
820.224	0.0155482
820.302	0.0156472
820.380	0.0157014
820.458	0.0154860
820.536	0.0153448
820.614	0.0154601
820.693	0.0153022
820.771	0.0152345
820.849	0.0153267
820.927	0.0152307
821.005	0.0152008
821.083	0.0152881
821.161	0.0153171
821.239	0.0152621
821.318	0.0154255
821.396	0.0154188
821.474	0.0154111
821.552	0.0155350
821.630	0.0153062
821.708	0.0154519
821.786	0.0156504
821.864	0.0155778
821.943	0.0155848
822.021	0.0154025
822.099	0.0154250
822.177	0.0154990
822.255	0.0156055
822.333	0.0155402
822.411	0.0153848
822.489	0.0154639
822.568	0.0153483
822.646	0.0153390
822.724	0.0155181
822.802	0.0154184
822.880	0.0155415
822.958	0.0155991
823.036	0.0155992
823.114	0.0156018
823.193	0.0157120
823.271	0.0158010
823.349	0.0158213
823.427	0.0157376
823.505	0.0157088
823.583	0.0157351
823.661	0.0157960
823.739	0.0158161
823.818	0.0158434
823.896	0.0159348
823.974	0.0159610
824.052	0.0157453
824.130	0.0156460
824.208	0.0157099
824.286	0.0155759
824.364	0.0155365
824.443	0.0157096
824.521	0.0156156
824.599	0.0155171
824.677	0.0154183
824.755	0.0153043
824.833	0.0154176
824.911	0.0155101
824.989	0.0155969
825.068	0.0155608
825.146	0.0155425
825.224	0.0154886
825.302	0.0154786
825.380	0.0155670
825.458	0.0156533
825.536	0.0156287
825.614	0.0155573
825.693	0.0157114
825.771	0.0153812
825.849	0.0154510
825.927	0.0155219
826.005	0.0154335
826.083	0.0155602
826.161	0.0153258
826.239	0.0153758
826.318	0.0152908
826.396	0.0151545
826.474	0.0151729
826.552	0.0152061
826.630	0.0151788
826.708	0.0152009
826.786	0.0154290
826.864	0.0153027
826.943	0.0154765
827.021	0.0155758
827.099	0.0155108
827.177	0.0155257
827.255	0.0156796
827.333	0.0156432
827.411	0.0156552
827.489	0.0157572
827.568	0.0158337
827.646	0.0157841
827.724	0.0157145
827.802	0.0157758
827.880	0.0158873
827.958	0.0159531
828.036	0.0158598
828.114	0.0158311
828.193	0.0158196
828.271	0.0157609
828.349	0.0157384
828.427	0.0158214
828.505	0.0157340
828.583	0.0155806
828.661	0.0157009
828.739	0.0156683
828.818	0.0155776
828.896	0.0155266
828.974	0.0157295
829.052	0.0157270
829.130	0.0157143
829.208	0.0155975
829.286	0.0155672
829.364	0.0154716
829.443	0.0156414
829.521	0.0155769
829.599	0.0154474
829.677	0.0156168
829.755	0.0155283
829.833	0.0154523
829.911	0.0155465
829.989	0.0156678
830.068	0.0154354
830.146	0.0154756
830.224	0.0154689
830.302	0.0153799
830.380	0.0154866
830.458	0.0153893
830.536	0.0153106
830.614	0.0152277
830.693	0.0153283
830.771	0.0154447
830.849	0.0153007
830.927	0.0153566
831.005	0.0153722
831.083	0.0155602
831.161	0.0154727
831.239	0.0154910
831.318	0.0154208
831.396	0.0156483
831.474	0.0154966
831.552	0.0155112
831.630	0.0156095
831.708	0.0156692
831.786	0.0157814
831.864	0.0156844
831.943	0.0158442
832.021	0.0158149
832.099	0.0156410
832.177	0.0157490
832.255	0.0157467
832.333	0.0158810
832.411	0.0158656
832.489	0.0156863
832.568	0.0156927
832.646	0.0157297
832.724	0.0158112
832.802	0.0156649
832.880	0.0156236
832.958	0.0155846
833.036	0.0156509
833.114	0.0156592
833.193	0.0156755
833.271	0.0156708
833.349	0.0156891
833.427	0.0156908
833.505	0.0155974
833.583	0.0157168
833.661	0.0157343
833.739	0.0158230
833.818	0.0157067
833.896	0.0157390
833.974	0.0157838
834.052	0.0156322
834.130	0.0156904
834.208	0.0155137
834.286	0.0155920
834.364	0.0155589
834.443	0.0154848
834.521	0.0153825
834.599	0.0154620
834.677	0.0154538
834.755	0.0154449
834.833	0.0153103
834.911	0.0152127
834.989	0.0153010
835.068	0.0154077
835.146	0.0152209
835.224	0.0152042
835.302	0.0152141
835.380	0.0152092
835.458	0.0151800
835.536	0.0152624
835.614	0.0152975
835.693	0.0153456
835.771	0.0153750
835.849	0.0154559
835.927	0.0155094
836.005	0.0156391
836.083	0.0155387
836.161	0.0156532
836.239	0.0156098
836.318	0.0156853
836.396	0.0155813
836.474	0.0154568
836.552	0.0155094
836.630	0.0154922
836.708	0.0153967
836.786	0.0154411
836.864	0.0154791
836.943	0.0155424
837.021	0.0155406
837.099	0.0154824
837.177	0.0154668
837.255	0.0154854
837.333	0.0155824
837.411	0.0156660
837.489	0.0156318
837.568	0.0154829
837.646	0.0156634
837.724	0.0155923
837.802	0.0157299
837.880	0.0156379
837.958	0.0157538
838.036	0.0156023
838.114	0.0157041
838.193	0.0158631
838.271	0.0157132
838.349	0.0156979
838.427	0.0158106
838.505	0.0157005
838.583	0.0155718
838.661	0.0155253
838.739	0.0156918
838.818	0.0155832
838.896	0.0154790
838.974	0.0155756
839.052	0.0155811
839.130	0.0156204
839.208	0.0155474
839.286	0.0154753
839.364	0.0155360
839.443	0.0154681
839.521	0.0155257
839.599	0.0154235
839.677	0.0154409
839.755	0.0155370
839.833	0.0156610
839.911	0.0154908
839.989	0.0154909
840.068	0.0155277
840.146	0.0155579
840.224	0.0155444
840.302	0.0155231
840.380	0.0153252
840.458	0.0154762
840.536	0.0152404
840.614	0.0152972
840.693	0.0153834
840.771	0.0154786
840.849	0.0155083
840.927	0.0154310
841.005	0.0154492
841.083	0.0155526
841.161	0.0155267
841.239	0.0156092
841.318	0.0154955
841.396	0.0155344
841.474	0.0155647
841.552	0.0155477
841.630	0.0156787
841.708	0.0155698
841.786	0.0155441
841.864	0.0157240
841.943	0.0156595
842.021	0.0156548
842.099	0.0156008
842.177	0.0157806
842.255	0.0157127
842.333	0.0155900
842.411	0.0156093
842.489	0.0155260
842.568	0.0156064
842.646	0.0154680
842.724	0.0154007
842.802	0.0155212
842.880	0.0154922
842.958	0.0153838
843.036	0.0154021
843.114	0.0154587
843.193	0.0154488
843.271	0.0153629
843.349	0.0154796
843.427	0.0154996
843.505	0.0154828
843.583	0.0154082
843.661	0.0155680
843.739	0.0155621
843.818	0.0156220
843.896	0.0156396
843.974	0.0156369
844.052	0.0155864
844.130	0.0157437
844.208	0.0157895
844.286	0.0157816
844.364	0.0156255
844.443	0.0156531
844.521	0.0156511
844.599	0.0154648
844.677	0.0154421
844.755	0.0155441
844.833	0.0157079
844.911	0.0155918
844.989	0.0155855
845.068	0.0156254
845.146	0.0154658
845.224	0.0154596
845.302	0.0155196
845.380	0.0154009
845.458	0.0155692
845.536	0.0154443
845.614	0.0154446
845.693	0.0154380
845.771	0.0153957
845.849	0.0155273
845.927	0.0155633
846.005	0.0155268
846.083	0.0153440
846.161	0.0154435
846.239	0.0153768
846.318	0.0154532
846.396	0.0155552
846.474	0.0153787
846.552	0.0153883
846.630	0.0154208
846.708	0.0154234
846.786	0.0154495
846.864	0.0154871
846.943	0.0155091
847.021	0.0154545
847.099	0.0154319
847.177	0.0155695
847.255	0.0154646
847.333	0.0154893
847.411	0.0153258
847.489	0.0155761
847.568	0.0153853
847.646	0.0152859
847.724	0.0155897
847.802	0.0154747
847.880	0.0154060
847.958	0.0152979
848.036	0.0154543
848.114	0.0154108
848.193	0.0154570
848.271	0.0155502
848.349	0.0154647
848.427	0.0154784
848.505	0.0154278
848.583	0.0155305
848.661	0.0155299
848.739	0.0157117
848.818	0.0155718
848.896	0.0155218
848.974	0.0155682
849.052	0.0155557
849.130	0.0155213
849.208	0.0155531
849.286	0.0156940
849.364	0.0156583
849.443	0.0155663
849.521	0.0155917
849.599	0.0156379
849.677	0.0156334
849.755	0.0155641
849.833	0.0156973
849.911	0.0157044
849.989	0.0154278
850.068	0.0155444
850.146	0.0155537
850.224	0.0156275
850.302	0.0155360
850.380	0.0154832
850.458	0.0154555
850.536	0.0156237
850.614	0.0154024
850.693	0.0155372
850.771	0.0155768
850.849	0.0155692
850.927	0.0155194
851.005	0.0154143
851.083	0.0157095
851.161	0.0155494
851.239	0.0155496
851.318	0.0154700
851.396	0.0154885
851.474	0.0156475
851.552	0.0154312
851.630	0.0157029
851.708	0.0155298
851.786	0.0153786
851.864	0.0155951
851.943	0.0154153
852.021	0.0154884
852.099	0.0155166
852.177	0.0155347
852.255	0.0155283
852.333	0.0156160
852.411	0.0155934
852.489	0.0155033
852.568	0.0154735
852.646	0.0154977
852.724	0.0156281
852.802	0.0155608
852.880	0.0155682
852.958	0.0155337
853.036	0.0154626
853.114	0.0155595
853.193	0.0155846
853.271	0.0155631
853.349	0.0154540
853.427	0.0156661
853.505	0.0155395
853.583	0.0154238
853.661	0.0154640
853.739	0.0155544
853.818	0.0154079
853.896	0.0154185
853.974	0.0154648
854.052	0.0154742
854.130	0.0154142
854.208	0.0154660
854.286	0.0154457
854.364	0.0154810
854.443	0.0154849
854.521	0.0155029
854.599	0.0155096
854.677	0.0154864
854.755	0.0156210
854.833	0.0155331
854.911	0.0156423
854.989	0.0156179
855.068	0.0156637
855.146	0.0155588
855.224	0.0156389
855.302	0.0155447
855.380	0.0156993
855.458	0.0157415
855.536	0.0156980
855.614	0.0156799
855.693	0.0156853
855.771	0.0157270
855.849	0.0158306
855.927	0.0156769
856.005	0.0156453
856.083	0.0156339
856.161	0.0156686
856.239	0.0156524
856.318	0.0156176
856.396	0.0155511
856.474	0.0154845
856.552	0.0155808
856.630	0.0156652
856.708	0.0155748
856.786	0.0155521
856.864	0.0154290
856.943	0.0154601
857.021	0.0155559
857.099	0.0154324
857.177	0.0156259
857.255	0.0155846
857.333	0.0155798
857.411	0.0154821
857.489	0.0156853
857.568	0.0155611
857.646	0.0155434
857.724	0.0155227
857.802	0.0154744
857.880	0.0154346
857.958	0.0154114
858.036	0.0154809
858.114	0.0154650
858.193	0.0153941
858.271	0.0153289
858.349	0.0154037
858.427	0.0154401
858.505	0.0154157
858.583	0.0154053
858.661	0.0154562
858.739	0.0154162
858.818	0.0154912
858.896	0.0155094
858.974	0.0154458
859.052	0.0155195
859.130	0.0155898
859.208	0.0155953
859.286	0.0155149
859.364	0.0156667
859.443	0.0156206
859.521	0.0155577
859.599	0.0156530
859.677	0.0156377
859.755	0.0157018
859.833	0.0156775
859.911	0.0156516
859.989	0.0156880
860.068	0.0157187
860.146	0.0157531
860.224	0.0155069
860.302	0.0156075
860.380	0.0155391
860.458	0.0156194
860.536	0.0155605
860.614	0.0156809
860.693	0.0155743
860.771	0.0155347
860.849	0.0156202
860.927	0.0155657
861.005	0.0156711
861.083	0.0154478
861.161	0.0156429
861.239	0.0155187
861.318	0.0154240
861.396	0.0156406
861.474	0.0154603
861.552	0.0155951
861.630	0.0155755
861.708	0.0155648
861.786	0.0154922
861.864	0.0153516
861.943	0.0154207
862.021	0.0153708
862.099	0.0154680
862.177	0.0153317
862.255	0.0152304
862.333	0.0153861
862.411	0.0153911
862.489	0.0154032
862.568	0.0152768
862.646	0.0153001
862.724	0.0155406
862.802	0.0152686
862.880	0.0154821
862.958	0.0154837
863.036	0.0154156
863.114	0.0154276
863.193	0.0155530
863.271	0.0156610
863.349	0.0155550
863.427	0.0155727
863.505	0.0156179
863.583	0.0156373
863.661	0.0156611
863.739	0.0155546
863.818	0.0156096
863.896	0.0157336
863.974	0.0157046
864.052	0.0156712
864.130	0.0157040
864.208	0.0156316
864.286	0.0156214
864.364	0.0155025
864.443	0.0155994
864.521	0.0155355
864.599	0.0153986
864.677	0.0154573
864.755	0.0156026
864.833	0.0155520
864.911	0.0155883
864.989	0.0154725
865.068	0.0154456
865.146	0.0155888
865.224	0.0156424
865.302	0.0154455
865.380	0.0154278
865.458	0.0156338
865.536	0.0155473
865.614	0.0154930
865.693	0.0156065
865.771	0.0154917
865.849	0.0155147
865.927	0.0155551
866.005	0.0155067
866.083	0.0155979
866.161	0.0155095
866.239	0.0155947
866.318	0.0156241
866.396	0.0155219
866.474	0.0154123
866.552	0.0155031
866.630	0.0154975
866.708	0.0153368
866.786	0.0155352
866.864	0.0155740
866.943	0.0156989
867.021	0.0154675
867.099	0.0154266
867.177	0.0155274
867.255	0.0156183
867.333	0.0155891
867.411	0.0155228
867.489	0.0156203
867.568	0.0156017
867.646	0.0156326
867.724	0.0155537
867.802	0.0156086
867.880	0.0156487
867.958	0.0156216
868.036	0.0156018
868.114	0.0156587
868.193	0.0156481
868.271	0.0156139
868.349	0.0156705
868.427	0.0155856
868.505	0.0155540
868.583	0.0156525
868.661	0.0154400
868.739	0.0153838
868.818	0.0154657
868.896	0.0153548
868.974	0.0152763
869.052	0.0154401
869.130	0.0154556
869.208	0.0155689
869.286	0.0154575
869.364	0.0154395
869.443	0.0154375
869.521	0.0153831
869.599	0.0154560
869.677	0.0154449
869.755	0.0154767
869.833	0.0154562
869.911	0.0154801
869.989	0.0154835
870.068	0.0153979
870.146	0.0152722
870.224	0.0154173
870.302	0.0154307
870.380	0.0154704
870.458	0.0154978
870.536	0.0154130
870.614	0.0154944
870.693	0.0154834
870.771	0.0155733
870.849	0.0155358
870.927	0.0155269
871.005	0.0157792
871.083	0.0156063
871.161	0.0156525
871.239	0.0157205
871.318	0.0156683
871.396	0.0156835
871.474	0.0156908
871.552	0.0156989
871.630	0.0157491
871.708	0.0157460
871.786	0.0156060
871.864	0.0156866
871.943	0.0157845
872.021	0.0157587
872.099	0.0156973
872.177	0.0156459
872.255	0.0157053
872.333	0.0156397
872.411	0.0157253
872.489	0.0158597
872.568	0.0157053
872.646	0.0156224
872.724	0.0155931
872.802	0.0157147
872.880	0.0156728
872.958	0.0155690
873.036	0.0155648
873.114	0.0155984
873.193	0.0155862
873.271	0.0152939
873.349	0.0154259
873.427	0.0154411
873.505	0.0152768
873.583	0.0153691
873.661	0.0152721
873.739	0.0152478
873.818	0.0153903
873.896	0.0152336
873.974	0.0152045
874.052	0.0153665
874.130	0.0153288
874.208	0.0152077
874.286	0.0153214
874.364	0.0154289
874.443	0.0152865
874.521	0.0153841
874.599	0.0153742
874.677	0.0154690
874.755	0.0154932
874.833	0.0155411
874.911	0.0156709
874.989	0.0157481
875.068	0.0156097
875.146	0.0157474
875.224	0.0158009
875.302	0.0157990
875.380	0.0157464
875.458	0.0158298
875.536	0.0157744
875.614	0.0157262
875.693	0.0158354
875.771	0.0158504
875.849	0.0157150
875.927	0.0157253
876.005	0.0157495
876.083	0.0156917
876.161	0.0156434
876.239	0.0155660
876.318	0.0156286
876.396	0.0157300
876.474	0.0157444
876.552	0.0156316
876.630	0.0155999
876.708	0.0155816
876.786	0.0155051
876.864	0.0156918
876.943	0.0156599
877.021	0.0155250
877.099	0.0155301
877.177	0.0155792
877.255	0.0156448
877.333	0.0155132
877.411	0.0154898
877.489	0.0155142
877.568	0.0156219
877.646	0.0154426
877.724	0.0154487
877.802	0.0155198
877.880	0.0154135
877.958	0.0152990
878.036	0.0154048
878.114	0.0153825
878.193	0.0152689
878.271	0.0152837
878.349	0.0151360
878.427	0.0153891
878.505	0.0153683
878.583	0.0153188
878.661	0.0155144
878.739	0.0154600
878.818	0.0155347
878.896	0.0155541
878.974	0.0155310
879.052	0.0154731
879.130	0.0155121
879.208	0.0156177
879.286	0.0158166
879.364	0.0157596
879.443	0.0157079
879.521	0.0157693
879.599	0.0156646
879.677	0.0157348
879.755	0.0156324
879.833	0.0156945
879.911	0.0157033
879.989	0.0157314
880.068	0.0156412
880.146	0.0156248
880.224	0.0156256
880.302	0.0155852
880.380	0.0156686
880.458	0.0156219
880.536	0.0156160
880.614	0.0159219
880.693	0.0156806
880.771	0.0158318
880.849	0.0157843
880.927	0.0157248
881.005	0.0158789
881.083	0.0156751
881.161	0.0157261
881.239	0.0158072
881.318	0.0156633
881.396	0.0155920
881.474	0.0155360
881.552	0.0153033
881.630	0.0152692
881.708	0.0152503
881.786	0.0152115
881.864	0.0151030
881.943	0.0150640
882.021	0.0149605
882.099	0.0148468
882.177	0.0151166
882.255	0.0150903
882.333	0.0150907
882.411	0.0150558
882.489	0.0153200
882.568	0.0151664
882.646	0.0154183
882.724	0.0154641
882.802	0.0155156
882.880	0.0155744
882.958	0.0158204
883.036	0.0159894
883.114	0.0159104
883.193	0.0159004
883.271	0.0161088
883.349	0.0162122
883.427	0.0160540
883.505	0.0161123
883.583	0.0160916
883.661	0.0160303
883.739	0.0161472
883.818	0.0161346
883.896	0.0160027
883.974	0.0159944
884.052	0.0159009
884.130	0.0156768
884.208	0.0156390
884.286	0.0156119
884.364	0.0153927
884.443	0.0153989
884.521	0.0154477
884.599	0.0152850
884.677	0.0152589
884.755	0.0151312
884.833	0.0152351
884.911	0.0150626
884.989	0.0151530
885.068	0.0151548
885.146	0.0151723
885.224	0.0151440
885.302	0.0152479
885.380	0.0152612
885.458	0.0151630
885.536	0.0153431
885.614	0.0151309
885.693	0.0152483
885.771	0.0151465
885.849	0.0151981
885.927	0.0152355
886.005	0.0154057
886.083	0.0154475
886.161	0.0152956
886.239	0.0153696
886.318	0.0153690
886.396	0.0155104
886.474	0.0156313
886.552	0.0156387
886.630	0.0155583
886.708	0.0157291
886.786	0.0157722
886.864	0.0159303
886.943	0.0159012
887.021	0.0159585
887.099	0.0160205
887.177	0.0159692
887.255	0.0160462
887.333	0.0160187
887.411	0.0160810
887.489	0.0161192
887.568	0.0161554
887.646	0.0160841
887.724	0.0159670
887.802	0.0159775
887.880	0.0158359
887.958	0.0157574
888.036	0.0157413
888.114	0.0156287
888.193	0.0155595
888.271	0.0154119
888.349	0.0152743
888.427	0.0151972
888.505	0.0152979
888.583	0.0151546
888.661	0.0150981
888.739	0.0150938
888.818	0.0149228
888.896	0.0150217
888.974	0.0150952
889.052	0.0150827
889.130	0.0149786
889.208	0.0150834
889.286	0.0151298
889.364	0.0152207
889.443	0.0150666
889.521	0.0152663
889.599	0.0152422
889.677	0.0153500
889.755	0.0153609
889.833	0.0154478
889.911	0.0154512
889.989	0.0154908
890.068	0.0157312
890.146	0.0156374
890.224	0.0157343
890.302	0.0159515
890.380	0.0157464
890.458	0.0157803
890.536	0.0159483
890.614	0.0159835
890.693	0.0159418
890.771	0.0159405
890.849	0.0158172
890.927	0.0158609
891.005	0.0158960
891.083	0.0158981
891.161	0.0157317
891.239	0.0159010
891.318	0.0157455
891.396	0.0158157
891.474	0.0158238
891.552	0.0156472
891.630	0.0155506
891.708	0.0156683
891.786	0.0155532
891.864	0.0155280
891.943	0.0156207
892.021	0.0154453
892.099	0.0152402
892.177	0.0153900
892.255	0.0152338
892.333	0.0151628
892.411	0.0151580
892.489	0.0151743
892.568	0.0151450
892.646	0.0150349
892.724	0.0152136
892.802	0.0151035
892.880	0.0150915
892.958	0.0151910
893.036	0.0150614
893.114	0.0152470
893.193	0.0153092
893.271	0.0152917
893.349	0.0152698
893.427	0.0152831
893.505	0.0156071
893.583	0.0155947
893.661	0.0155608
893.739	0.0155965
893.818	0.0155923
893.896	0.0157935
893.974	0.0156677
894.052	0.0157274
894.130	0.0157513
894.208	0.0157722
894.286	0.0157755
894.364	0.0157780
894.443	0.0158665
894.521	0.0156794
894.599	0.0157882
894.677	0.0157630
894.755	0.0156425
894.833	0.0156982
894.911	0.0154794
894.989	0.0155559
895.068	0.0154977
895.146	0.0155376
895.224	0.0155235
895.302	0.0156209
895.380	0.0155885
895.458	0.0156210
895.536	0.0155588
895.614	0.0156574
895.693	0.0156991
895.771	0.0156889
895.849	0.0156590
895.927	0.0158810
896.005	0.0157499
896.083	0.0156636
896.161	0.0156093
896.239	0.0156654
896.318	0.0156802
896.396	0.0157523
896.474	0.0156487
896.552	0.0156570
896.630	0.0155841
896.708	0.0156487
896.786	0.0154141
896.864	0.0154231
896.943	0.0154156
897.021	0.0153448
897.099	0.0153063
897.177	0.0152543
897.255	0.0153764
897.333	0.0153673
897.411	0.0152556
897.489	0.0153513
897.568	0.0153593
897.646	0.0155791
897.724	0.0153950
897.802	0.0153558
897.880	0.0155149
897.958	0.0154459
898.036	0.0154681
898.114	0.0153845
898.193	0.0156431
898.271	0.0155411
898.349	0.0154126
898.427	0.0156701
898.505	0.0155990
898.583	0.0156032
898.661	0.0158923
898.739	0.0157215
898.818	0.0156884
898.896	0.0157394
898.974	0.0157340
899.052	0.0157578
899.130	0.0157536
899.208	0.0157594
899.286	0.0158353
899.364	0.0158287
899.443	0.0157655
899.521	0.0157696
899.599	0.0158353
899.677	0.0157517
899.755	0.0156394
899.833	0.0157494
899.911	0.0157225
899.989	0.0154832
900.068	0.0155502
900.146	0.0156044
900.224	0.0154521
900.302	0.0154157
900.380	0.0154347
900.458	0.0155515
900.536	0.0155743
900.614	0.0154277
900.693	0.0153259
900.771	0.0155594
900.849	0.0153600
900.927	0.0153745
901.005	0.0153542
901.083	0.0154266
901.161	0.0153809
901.239	0.0154368
901.318	0.0155226
901.396	0.0155403
901.474	0.0154885
901.552	0.0155511
901.630	0.0157047
901.708	0.0156496
901.786	0.0155865
901.864	0.0156006
901.943	0.0154996
902.021	0.0154681
902.099	0.0154395
902.177	0.0155959
902.255	0.0155697
902.333	0.0155564
902.411	0.0156037
902.489	0.0154513
902.568	0.0155069
902.646	0.0155649
902.724	0.0155782
902.802	0.0157260
902.880	0.0156420
902.958	0.0158532
903.036	0.0158897
903.114	0.0158266
903.193	0.0159686
903.271	0.0158881
903.349	0.0159389
903.427	0.0159560
903.505	0.0160321
903.583	0.0160468
903.661	0.0158198
903.739	0.0157720
903.818	0.0157846
903.896	0.0157615
903.974	0.0156916
904.052	0.0155823
904.130	0.0154609
904.208	0.0154044
904.286	0.0153373
904.364	0.0152648
904.443	0.0149784
904.521	0.0152052
904.599	0.0149815
904.677	0.0150253
904.755	0.0151424
904.833	0.0151322
904.911	0.0151607
904.989	0.0151585
905.068	0.0152434
905.146	0.0152711
905.224	0.0154382
905.302	0.0154471
905.380	0.0154853
905.458	0.0157104
905.536	0.0157436
905.614	0.0157494
905.693	0.0156355
905.771	0.0156940
905.849	0.0158243
905.927	0.0157674
906.005	0.0157127
906.083	0.0157091
906.161	0.0156889
906.239	0.0155756
906.318	0.0157436
906.396	0.0157240
906.474	0.0157029
906.552	0.0156641
906.630	0.0158155
906.708	0.0157788
906.786	0.0158102
906.864	0.0157761
906.943	0.0157941
907.021	0.0157870
907.099	0.0157954
907.177	0.0157486
907.255	0.0157322
907.333	0.0156600
907.411	0.0157779
907.489	0.0157033
907.568	0.0156338
907.646	0.0156386
907.724	0.0155556
907.802	0.0155309
907.880	0.0154916
907.958	0.0154458
908.036	0.0155626
908.114	0.0154770
908.193	0.0154498
908.271	0.0154395
908.349	0.0153700
908.427	0.0154083
908.505	0.0154784
908.583	0.0155484
908.661	0.0155351
908.739	0.0155180
908.818	0.0153671
908.896	0.0154949
908.974	0.0153936
909.052	0.0155153
909.130	0.0155475
909.208	0.0155189
909.286	0.0155365
909.364	0.0154560
909.443	0.0154163
909.521	0.0153876
909.599	0.0154855
909.677	0.0153790
909.755	0.0154449
909.833	0.0154307
909.911	0.0154495
909.989	0.0154016
910.068	0.0154767
910.146	0.0154287
910.224	0.0152788
910.302	0.0153400
910.380	0.0153622
910.458	0.0154438
910.536	0.0155173
910.614	0.0155135
910.693	0.0153636
910.771	0.0155975
910.849	0.0156319
910.927	0.0157638
911.005	0.0157909
911.083	0.0159016
911.161	0.0158373
911.239	0.0157339
911.318	0.0158692
911.396	0.0159832
911.474	0.0156886
911.552	0.0157516
911.630	0.0158260
911.708	0.0158672
911.786	0.0157835
911.864	0.0158228
911.943	0.0159194
912.021	0.0157816
912.099	0.0156250
912.177	0.0157008
912.255	0.0157715
912.333	0.0155734
912.411	0.0156122
912.489	0.0156155
912.568	0.0154798
912.646	0.0154117
912.724	0.0154715
912.802	0.0155045
912.880	0.0152908
912.958	0.0153121
913.036	0.0153351
913.114	0.0152903
913.193	0.0152570
913.271	0.0151597
913.349	0.0153219
913.427	0.0152663
913.505	0.0154665
913.583	0.0152844
913.661	0.0152865
913.739	0.0154300
913.818	0.0152917
913.896	0.0153208
913.974	0.0155324
914.052	0.0155441
914.130	0.0154903
914.208	0.0156567
914.286	0.0155932
914.364	0.0157177
914.443	0.0156185
914.521	0.0155183
914.599	0.0155466
914.677	0.0154345
914.755	0.0156079
914.833	0.0154680
914.911	0.0155423
914.989	0.0155391
915.068	0.0155000
915.146	0.0155812
915.224	0.0155929
915.302	0.0155252
915.380	0.0156009
915.458	0.0156492
915.536	0.0157109
915.614	0.0155496
915.693	0.0157634
915.771	0.0157764
915.849	0.0156582
915.927	0.0158492
916.005	0.0157957
916.083	0.0156468
916.161	0.0157295
916.239	0.0158204
916.318	0.0158236
916.396	0.0157082
916.474	0.0156638
916.552	0.0156689
916.630	0.0158295
916.708	0.0157448
916.786	0.0156083
916.864	0.0157187
916.943	0.0157294
917.021	0.0155500
917.099	0.0156728
917.177	0.0156115
917.255	0.0154908
917.333	0.0154532
917.411	0.0155667
917.489	0.0154179
917.568	0.0154390
917.646	0.0153837
917.724	0.0154015
917.802	0.0154156
917.880	0.0154710
917.958	0.0154823
918.036	0.0154581
918.114	0.0154546
918.193	0.0153893
918.271	0.0154528
918.349	0.0155760
918.427	0.0156364
918.505	0.0154954
918.583	0.0155608
918.661	0.0155987
918.739	0.0155166
918.818	0.0156113
918.896	0.0157380
918.974	0.0157213
919.052	0.0156419
919.130	0.0156346
919.208	0.0155717
919.286	0.0156646
919.364	0.0155940
919.443	0.0155979
919.521	0.0157753
919.599	0.0156544
919.677	0.0157810
919.755	0.0156133
919.833	0.0155886
919.911	0.0155424
919.989	0.0156554
920.068	0.0156350
920.146	0.0155108
920.224	0.0154588
920.302	0.0155654
920.380	0.0155841
920.458	0.0156001
920.536	0.0155741
920.614	0.0155998
920.693	0.0154395
920.771	0.0155367
920.849	0.0155560
920.927	0.0154739
921.005	0.0156025
921.083	0.0154295
921.161	0.0155116
921.239	0.0156650
921.318	0.0155502
921.396	0.0156747
921.474	0.0155589
921.552	0.0156099
921.630	0.0156809
921.708	0.0156154
921.786	0.0156303
921.864	0.0156814
921.943	0.0156828
922.021	0.0156498
922.099	0.0156691
922.177	0.0156683
922.255	0.0158246
922.333	0.0156776
922.411	0.0156912
922.489	0.0157509
922.568	0.0156326
922.646	0.0156738
922.724	0.0156258
922.802	0.0155894
922.880	0.0155640
922.958	0.0155891
923.036	0.0155795
923.114	0.0154562
923.193	0.0154041
923.271	0.0155600
923.349	0.0155823
923.427	0.0154393
923.505	0.0153935
923.583	0.0154032
923.661	0.0155089
923.739	0.0155248
923.818	0.0155997
923.896	0.0155514
923.974	0.0154586
924.052	0.0154394
924.130	0.0155684
924.208	0.0156084
924.286	0.0155918
924.364	0.0156576
924.443	0.0154140
924.521	0.0154797
924.599	0.0156258
924.677	0.0155678
924.755	0.0155338
924.833	0.0155853
924.911	0.0155159
924.989	0.0156227
925.068	0.0156147
925.146	0.0155236
925.224	0.0156586
925.302	0.0157117
925.380	0.0157108
925.458	0.0156673
925.536	0.0157352
925.614	0.0156642
925.693	0.0156525
925.771	0.0157951
925.849	0.0156498
925.927	0.0157069
926.005	0.0155855
926.083	0.0156520
926.161	0.0157101
926.239	0.0155505
926.318	0.0156044
926.396	0.0157182
926.474	0.0155984
926.552	0.0155243
926.630	0.0156208
926.708	0.0156615
926.786	0.0155846
926.864	0.0155579
926.943	0.0155771
927.021	0.0155531
927.099	0.0155186
927.177	0.0154312
927.255	0.0155464
927.333	0.0155791
927.411	0.0155494
927.489	0.0155361
927.568	0.0155178
927.646	0.0154313
927.724	0.0155366
927.802	0.0153759
927.880	0.0154041
927.958	0.0153504
928.036	0.0155054
928.114	0.0153936
928.193	0.0154940
928.271	0.0155065
928.349	0.0154125
928.427	0.0155695
928.505	0.0155262
928.583	0.0155733
928.661	0.0155630
928.739	0.0155125
928.818	0.0155383
928.896	0.0156129
928.974	0.0155581
929.052	0.0157038
929.130	0.0156178
929.208	0.0156087
929.286	0.0155718
929.364	0.0155032
929.443	0.0155885
929.521	0.0155987
929.599	0.0155568
929.677	0.0156359
929.755	0.0157857
929.833	0.0156205
929.911	0.0155128
929.989	0.0157007
930.068	0.0156659
930.146	0.0156837
930.224	0.0157522
930.302	0.0157602
930.380	0.0156959
930.458	0.0156661
930.536	0.0156514
930.614	0.0155587
930.693	0.0156760
930.771	0.0155877
930.849	0.0155994
930.927	0.0157128
931.005	0.0156071
931.083	0.0154554
931.161	0.0153495
931.239	0.0155459
931.318	0.0156208
931.396	0.0154835
931.474	0.0152847
931.552	0.0154272
931.630	0.0153319
931.708	0.0152635
931.786	0.0154178
931.864	0.0151987
931.943	0.0152026
932.021	0.0152887
932.099	0.0153464
932.177	0.0153323
932.255	0.0155185
932.333	0.0153957
932.411	0.0153445
932.489	0.0153803
932.568	0.0155261
932.646	0.0155881
932.724	0.0154594
932.802	0.0155091
932.880	0.0155232
932.958	0.0154401
933.036	0.0155311
933.114	0.0155722
933.193	0.0157072
933.271	0.0155847
933.349	0.0155386
933.427	0.0155304
933.505	0.0154529
933.583	0.0155957
933.661	0.0155459
933.739	0.0155808
933.818	0.0155801
933.896	0.0154874
933.974	0.0155425
934.052	0.0155379
934.130	0.0155431
934.208	0.0155371
934.286	0.0156532
934.364	0.0156969
934.443	0.0156635
934.521	0.0155287
934.599	0.0155079
934.677	0.0156734
934.755	0.0156296
934.833	0.0154998
934.911	0.0155710
934.989	0.0155843
935.068	0.0157648
935.146	0.0155961
935.224	0.0156242
935.302	0.0155150
935.380	0.0156476
935.458	0.0156725
935.536	0.0155730
935.614	0.0154367
935.693	0.0154496
935.771	0.0155481
935.849	0.0155531
935.927	0.0154458
936.005	0.0154545
936.083	0.0154910
936.161	0.0154847
936.239	0.0155470
936.318	0.0155421
936.396	0.0154140
936.474	0.0155814
936.552	0.0154865
936.630	0.0156517
936.708	0.0155682
936.786	0.0155342
936.864	0.0156209
936.943	0.0155566
937.021	0.0156417
937.099	0.0155292
937.177	0.0155157
937.255	0.0157009
937.333	0.0156628
937.411	0.0154370
937.489	0.0155611
937.568	0.0155348
937.646	0.0155527
937.724	0.0154453
937.802	0.0154694
937.880	0.0154086
937.958	0.0152485
938.036	0.0152248
938.114	0.0153021
938.193	0.0153092
938.271	0.0151440
938.349	0.0152462
938.427	0.0154164
938.505	0.0153662
938.583	0.0153915
938.661	0.0155172
938.739	0.0154293
938.818	0.0153967
938.896	0.0154676
938.974	0.0155590
939.052	0.0156564
939.130	0.0157530
939.208	0.0157092
939.286	0.0159382
939.364	0.0158251
939.443	0.0157579
939.521	0.0158700
939.599	0.0157838
939.677	0.0158338
939.755	0.0157961
939.833	0.0157919
939.911	0.0157564
939.989	0.0157286
940.068	0.0154914
940.146	0.0157840
940.224	0.0157244
940.302	0.0156204
940.380	0.0156451
940.458	0.0155452
940.536	0.0155826
940.614	0.0156091
940.693	0.0155634
940.771	0.0156291
940.849	0.0155727
940.927	0.0156551
941.005	0.0154721
941.083	0.0155769
941.161	0.0154832
941.239	0.0153970
941.318	0.0153800
941.396	0.0154713
941.474	0.0155149
941.552	0.0154508
941.630	0.0154276
941.708	0.0152804
941.786	0.0153490
941.864	0.0153951
941.943	0.0153934
942.021	0.0154596
942.099	0.0155685
942.177	0.0154494
942.255	0.0154458
942.333	0.0156507
942.411	0.0154488
942.489	0.0155055
942.568	0.0155331
942.646	0.0156132
942.724	0.0157357
942.802	0.0155894
942.880	0.0156567
942.958	0.0157610
943.036	0.0157963
943.114	0.0157811
943.193	0.0157607
943.271	0.0156671
943.349	0.0156942
943.427	0.0157133
943.505	0.0156751
943.583	0.0156590
943.661	0.0156372
943.739	0.0156965
943.818	0.0156819
943.896	0.0154155
943.974	0.0154813
944.052	0.0156204
944.130	0.0155138
944.208	0.0155880
944.286	0.0154682
944.364	0.0155163
944.443	0.0155571
944.521	0.0154861
944.599	0.0154432
944.677	0.0154625
944.755	0.0155332
944.833	0.0155209
944.911	0.0154580
944.989	0.0155869
945.068	0.0154866
945.146	0.0155823
945.224	0.0154498
945.302	0.0155857
945.380	0.0155089
945.458	0.0156469
945.536	0.0154849
945.614	0.0154341
945.693	0.0155892
945.771	0.0154610
945.849	0.0154233
945.927	0.0155005
946.005	0.0155199
946.083	0.0156483
946.161	0.0154530
946.239	0.0155501
946.318	0.0155467
946.396	0.0156549
946.474	0.0156292
946.552	0.0156136
946.630	0.0155792
946.708	0.0156519
946.786	0.0158067
946.864	0.0157406
946.943	0.0157352
947.021	0.0157190
947.099	0.0156923
947.177	0.0158297
947.255	0.0156583
947.333	0.0157957
947.411	0.0156519
947.489	0.0157033
947.568	0.0157111
947.646	0.0157200
947.724	0.0157059
947.802	0.0154336
947.880	0.0155260
947.958	0.0154137
948.036	0.0154983
948.114	0.0154976
948.193	0.0155061
948.271	0.0153217
948.349	0.0153468
948.427	0.0154760
948.505	0.0153344
948.583	0.0154270
948.661	0.0153991
948.739	0.0154200
948.818	0.0154134
948.896	0.0154411
948.974	0.0155621
949.052	0.0154951
949.130	0.0155064
949.208	0.0154775
949.286	0.0153063
949.364	0.0152862
949.443	0.0154873
949.521	0.0153700
949.599	0.0153250
949.677	0.0153207
949.755	0.0155038
949.833	0.0156168
949.911	0.0154432
949.989	0.0154373
950.068	0.0154907
950.146	0.0155480
950.224	0.0156790
950.302	0.0155756
950.380	0.0157647
950.458	0.0157014
950.536	0.0156532
950.614	0.0157508
950.693	0.0157754
950.771	0.0159230
950.849	0.0157102
950.927	0.0157535
951.005	0.0156812
951.083	0.0156934
951.161	0.0157329
951.239	0.0155402
951.318	0.0156606
951.396	0.0155633
951.474	0.0154349
951.552	0.0154910
951.630	0.0155305
951.708	0.0154072
951.786	0.0154076
951.864	0.0155195
951.943	0.0155805
952.021	0.0154341
952.099	0.0154815
952.177	0.0154214
952.255	0.0155098
952.333	0.0155833
952.411	0.0155950
952.489	0.0156573
952.568	0.0154762
952.646	0.0155554
952.724	0.0156145
952.802	0.0156036
952.880	0.0154547
952.958	0.0155346
953.036	0.0154781
953.114	0.0154654
953.193	0.0152832
953.271	0.0152384
953.349	0.0153572
953.427	0.0153294
953.505	0.0153237
953.583	0.0152557
953.661	0.0153035
953.739	0.0152360
953.818	0.0152689
953.896	0.0153102
953.974	0.0153690
954.052	0.0153557
954.130	0.0154074
954.208	0.0152708
954.286	0.0154440
954.364	0.0155576
954.443	0.0155251
954.521	0.0155324
954.599	0.0155671
954.677	0.0157607
954.755	0.0155620
954.833	0.0157252
954.911	0.0155966
954.989	0.0157153
955.068	0.0156229
955.146	0.0154951
955.224	0.0155518
955.302	0.0155372
955.380	0.0155271
955.458	0.0156033
955.536	0.0155145
955.614	0.0155518
955.693	0.0154987
955.771	0.0154083
955.849	0.0153978
955.927	0.0152894
956.005	0.0153196
956.083	0.0156056
956.161	0.0155045
956.239	0.0155195
956.318	0.0154449
956.396	0.0155002
956.474	0.0156482
956.552	0.0155431
956.630	0.0155302
956.708	0.0156072
956.786	0.0155133
956.864	0.0155167
956.943	0.0155686
957.021	0.0153752
957.099	0.0154061
957.177	0.0152802
957.255	0.0153500
957.333	0.0153469
957.411	0.0152757
957.489	0.0153278
957.568	0.0153340
957.646	0.0152924
957.724	0.0152708
957.802	0.0152205
957.880	0.0153640
957.958	0.0153646
958.036	0.0152726
958.114	0.0153943
958.193	0.0154707
958.271	0.0155365
958.349	0.0155740
958.427	0.0155020
958.505	0.0156343
958.583	0.0156315
958.661	0.0156264
958.739	0.0156661
958.818	0.0156576
958.896	0.0156570
958.974	0.0157811
959.052	0.0156827
959.130	0.0155376
959.208	0.0157299
959.286	0.0155257
959.364	0.0156893
959.443	0.0155666
959.521	0.0154385
959.599	0.0154451
959.677	0.0155199
959.755	0.0154532
959.833	0.0154897
959.911	0.0154010
