05/17/2022	16:39:48	Ver.	4.1	UNKNOWN
Optical Delay	639.982744	Delta X		0.078125	Sweeps	1	Scan Rate	0/0
Coordinates	Axis 1	NaN	Axis 2	NaN	Axis 3	NaN	Axis 4	NaN	Axis 5	NaN	Axis 6	0.000000
TX Power	0.000000	RX Power	0.000000

639.983	0.0157063
640.061	0.0156049
640.139	0.0157192
640.217	0.0156935
640.295	0.0157224
640.373	0.0156933
640.451	0.0157048
640.530	0.0159212
640.608	0.0156966
640.686	0.0157609
640.764	0.0156679
640.842	0.0157117
640.920	0.0157680
640.998	0.0157076
641.076	0.0156514
641.155	0.0157482
641.233	0.0158157
641.311	0.0156991
641.389	0.0158122
641.467	0.0157678
641.545	0.0156710
641.623	0.0158077
641.701	0.0156805
641.780	0.0155630
641.858	0.0157213
641.936	0.0155923
642.014	0.0156812
642.092	0.0157390
642.170	0.0158427
642.248	0.0157182
642.326	0.0156846
642.405	0.0157448
642.483	0.0156924
642.561	0.0156797
642.639	0.0156857
642.717	0.0157938
642.795	0.0157320
642.873	0.0156750
642.951	0.0157817
643.030	0.0157670
643.108	0.0155527
643.186	0.0156332
643.264	0.0159079
643.342	0.0157943
643.420	0.0157912
643.498	0.0157194
643.576	0.0155949
643.655	0.0157150
643.733	0.0157676
643.811	0.0156837
643.889	0.0157763
643.967	0.0156541
644.045	0.0157156
644.123	0.0156920
644.201	0.0156947
644.280	0.0155944
644.358	0.0156372
644.436	0.0156857
644.514	0.0157745
644.592	0.0157043
644.670	0.0156834
644.748	0.0156158
644.826	0.0156679
644.905	0.0157037
644.983	0.0157098
645.061	0.0157164
645.139	0.0158349
645.217	0.0154828
645.295	0.0155605
645.373	0.0157699
645.451	0.0157276
645.530	0.0156571
645.608	0.0156413
645.686	0.0157579
645.764	0.0157632
645.842	0.0156155
645.920	0.0156577
645.998	0.0156759
646.076	0.0158249
646.155	0.0155824
646.233	0.0156992
646.311	0.0155962
646.389	0.0156897
646.467	0.0156705
646.545	0.0156081
646.623	0.0157185
646.701	0.0157076
646.780	0.0156892
646.858	0.0157114
646.936	0.0155559
647.014	0.0156045
647.092	0.0156810
647.170	0.0155647
647.248	0.0156944
647.326	0.0157170
647.405	0.0156838
647.483	0.0155553
647.561	0.0156664
647.639	0.0156822
647.717	0.0157485
647.795	0.0157407
647.873	0.0156670
647.951	0.0156269
648.030	0.0157655
648.108	0.0158153
648.186	0.0156252
648.264	0.0157584
648.342	0.0157294
648.420	0.0157282
648.498	0.0157184
648.576	0.0156242
648.655	0.0155833
648.733	0.0155814
648.811	0.0156838
648.889	0.0157730
648.967	0.0155827
649.045	0.0156326
649.123	0.0157731
649.201	0.0156413
649.280	0.0157039
649.358	0.0157159
649.436	0.0157611
649.514	0.0156945
649.592	0.0156934
649.670	0.0157522
649.748	0.0156866
649.826	0.0158031
649.905	0.0156654
649.983	0.0156337
650.061	0.0158212
650.139	0.0158214
650.217	0.0156867
650.295	0.0156139
650.373	0.0155986
650.451	0.0156046
650.530	0.0156760
650.608	0.0157142
650.686	0.0156571
650.764	0.0156833
650.842	0.0157039
650.920	0.0157259
650.998	0.0157538
651.076	0.0156207
651.155	0.0155934
651.233	0.0156425
651.311	0.0157883
651.389	0.0157297
651.467	0.0156383
651.545	0.0156490
651.623	0.0157216
651.701	0.0157192
651.780	0.0158205
651.858	0.0155457
651.936	0.0156425
652.014	0.0157068
652.092	0.0156275
652.170	0.0156242
652.248	0.0156139
652.326	0.0155569
652.405	0.0156560
652.483	0.0156837
652.561	0.0157693
652.639	0.0158465
652.717	0.0156152
652.795	0.0156027
652.873	0.0155112
652.951	0.0156365
653.030	0.0156254
653.108	0.0157889
653.186	0.0157061
653.264	0.0156841
653.342	0.0156971
653.420	0.0155253
653.498	0.0156630
653.576	0.0155910
653.655	0.0156326
653.733	0.0156364
653.811	0.0155767
653.889	0.0155431
653.967	0.0157403
654.045	0.0156329
654.123	0.0155849
654.201	0.0155628
654.280	0.0156660
654.358	0.0158303
654.436	0.0156612
654.514	0.0155408
654.592	0.0157371
654.670	0.0157066
654.748	0.0155531
654.826	0.0156647
654.905	0.0155641
654.983	0.0156635
655.061	0.0156422
655.139	0.0156327
655.217	0.0156764
655.295	0.0157393
655.373	0.0157241
655.451	0.0157574
655.530	0.0156686
655.608	0.0158189
655.686	0.0156579
655.764	0.0157069
655.842	0.0156757
655.920	0.0157458
655.998	0.0156526
656.076	0.0155648
656.155	0.0157301
656.233	0.0155786
656.311	0.0156787
656.389	0.0157440
656.467	0.0157877
656.545	0.0156752
656.623	0.0157401
656.701	0.0157355
656.780	0.0156818
656.858	0.0157467
656.936	0.0155840
657.014	0.0156938
657.092	0.0157162
657.170	0.0156973
657.248	0.0156689
657.326	0.0157350
657.405	0.0157507
657.483	0.0157040
657.561	0.0156165
657.639	0.0157439
657.717	0.0157268
657.795	0.0157364
657.873	0.0157955
657.951	0.0156818
658.030	0.0156940
658.108	0.0157527
658.186	0.0155915
658.264	0.0155584
658.342	0.0157613
658.420	0.0157244
658.498	0.0156336
658.576	0.0157439
658.655	0.0157994
658.733	0.0156654
658.811	0.0156947
658.889	0.0156441
658.967	0.0156548
659.045	0.0157517
659.123	0.0157614
659.201	0.0157480
659.280	0.0157322
659.358	0.0156686
659.436	0.0157403
659.514	0.0155157
659.592	0.0156705
659.670	0.0157616
659.748	0.0157076
659.826	0.0157825
659.905	0.0157047
659.983	0.0158181
660.061	0.0156654
660.139	0.0157861
660.217	0.0156365
660.295	0.0157456
660.373	0.0156955
660.451	0.0156856
660.530	0.0159030
660.608	0.0156945
660.686	0.0157993
660.764	0.0157447
660.842	0.0158236
660.920	0.0157470
660.998	0.0157369
661.076	0.0157900
661.155	0.0158231
661.233	0.0156985
661.311	0.0156986
661.389	0.0157038
661.467	0.0155914
661.545	0.0156997
661.623	0.0158405
661.701	0.0157005
661.780	0.0156461
661.858	0.0157542
661.936	0.0158738
662.014	0.0156934
662.092	0.0157648
662.170	0.0158308
662.248	0.0158176
662.326	0.0158176
662.405	0.0157860
662.483	0.0156863
662.561	0.0156909
662.639	0.0156985
662.717	0.0158236
662.795	0.0156763
662.873	0.0157614
662.951	0.0157054
663.030	0.0157004
663.108	0.0157122
663.186	0.0156567
663.264	0.0157616
663.342	0.0156275
663.420	0.0157253
663.498	0.0158047
663.576	0.0157541
663.655	0.0155775
663.733	0.0155943
663.811	0.0155988
663.889	0.0157354
663.967	0.0156522
664.045	0.0156397
664.123	0.0157009
664.201	0.0156500
664.280	0.0157118
664.358	0.0156708
664.436	0.0155125
664.514	0.0157452
664.592	0.0156854
664.670	0.0157385
664.748	0.0157409
664.826	0.0157054
664.905	0.0156666
664.983	0.0157354
665.061	0.0157969
665.139	0.0157303
665.217	0.0156390
665.295	0.0157086
665.373	0.0156823
665.451	0.0157357
665.530	0.0156532
665.608	0.0155833
665.686	0.0156897
665.764	0.0157164
665.842	0.0156966
665.920	0.0156569
665.998	0.0156259
666.076	0.0156107
666.155	0.0156926
666.233	0.0156551
666.311	0.0157877
666.389	0.0156098
666.467	0.0157584
666.545	0.0157670
666.623	0.0156768
666.701	0.0157264
666.780	0.0157008
666.858	0.0156992
666.936	0.0156600
667.014	0.0156683
667.092	0.0155646
667.170	0.0157276
667.248	0.0157831
667.326	0.0157427
667.405	0.0157864
667.483	0.0156528
667.561	0.0157376
667.639	0.0157591
667.717	0.0156883
667.795	0.0157999
667.873	0.0156611
667.951	0.0159011
668.030	0.0157594
668.108	0.0157079
668.186	0.0157270
668.264	0.0156764
668.342	0.0156133
668.420	0.0156262
668.498	0.0157308
668.576	0.0157122
668.655	0.0157190
668.733	0.0158366
668.811	0.0157157
668.889	0.0157350
668.967	0.0157035
669.045	0.0156872
669.123	0.0155930
669.201	0.0155942
669.280	0.0156505
669.358	0.0156065
669.436	0.0156482
669.514	0.0156926
669.592	0.0157749
669.670	0.0157858
669.748	0.0155502
669.826	0.0156365
669.905	0.0157306
669.983	0.0154942
670.061	0.0157320
670.139	0.0157284
670.217	0.0156988
670.295	0.0156040
670.373	0.0156296
670.451	0.0156214
670.530	0.0156805
670.608	0.0156488
670.686	0.0156424
670.764	0.0156473
670.842	0.0155421
670.920	0.0156374
670.998	0.0156938
671.076	0.0156577
671.155	0.0156686
671.233	0.0156141
671.311	0.0155369
671.389	0.0156371
671.467	0.0156272
671.545	0.0157490
671.623	0.0156071
671.701	0.0155723
671.780	0.0155903
671.858	0.0156957
671.936	0.0156847
672.014	0.0156595
672.092	0.0157494
672.170	0.0157428
672.248	0.0156796
672.326	0.0156906
672.405	0.0157931
672.483	0.0155784
672.561	0.0156221
672.639	0.0155745
672.717	0.0157168
672.795	0.0156567
672.873	0.0157128
672.951	0.0157411
673.030	0.0156545
673.108	0.0156503
673.186	0.0155827
673.264	0.0157323
673.342	0.0155280
673.420	0.0156031
673.498	0.0157605
673.576	0.0156872
673.655	0.0157754
673.733	0.0158569
673.811	0.0157233
673.889	0.0156776
673.967	0.0156082
674.045	0.0157574
674.123	0.0156123
674.201	0.0158157
674.280	0.0157299
674.358	0.0156139
674.436	0.0156639
674.514	0.0157697
674.592	0.0156866
674.670	0.0156692
674.748	0.0157789
674.826	0.0157705
674.905	0.0156767
674.983	0.0157518
675.061	0.0155977
675.139	0.0156653
675.217	0.0156321
675.295	0.0156201
675.373	0.0155798
675.451	0.0156447
675.530	0.0155839
675.608	0.0157896
675.686	0.0157946
675.764	0.0157362
675.842	0.0156857
675.920	0.0155621
675.998	0.0156794
676.076	0.0156786
676.155	0.0157230
676.233	0.0156854
676.311	0.0156024
676.389	0.0156550
676.467	0.0158324
676.545	0.0156753
676.623	0.0154486
676.701	0.0156116
676.780	0.0157482
676.858	0.0156601
676.936	0.0155827
677.014	0.0155207
677.092	0.0156910
677.170	0.0156538
677.248	0.0157677
677.326	0.0156703
677.405	0.0157825
677.483	0.0157594
677.561	0.0156389
677.639	0.0156131
677.717	0.0157130
677.795	0.0156598
677.873	0.0155618
677.951	0.0156048
678.030	0.0156364
678.108	0.0156142
678.186	0.0154829
678.264	0.0154867
678.342	0.0157187
678.420	0.0155894
678.498	0.0157941
678.576	0.0156190
678.655	0.0158261
678.733	0.0157695
678.811	0.0154950
678.889	0.0156619
678.967	0.0156197
679.045	0.0156337
679.123	0.0155951
679.201	0.0156726
679.280	0.0156342
679.358	0.0157108
679.436	0.0155576
679.514	0.0157299
679.592	0.0156234
679.670	0.0154548
679.748	0.0157262
679.826	0.0156607
679.905	0.0156968
679.983	0.0156158
680.061	0.0156876
680.139	0.0156370
680.217	0.0157519
680.295	0.0157132
680.373	0.0157570
680.451	0.0156203
680.530	0.0157412
680.608	0.0157794
680.686	0.0155465
680.764	0.0155381
680.842	0.0156280
680.920	0.0154713
680.998	0.0157019
681.076	0.0157580
681.155	0.0156238
681.233	0.0156835
681.311	0.0156522
681.389	0.0156377
681.467	0.0156900
681.545	0.0155787
681.623	0.0156174
681.701	0.0155543
681.780	0.0156751
681.858	0.0157804
681.936	0.0156879
682.014	0.0155719
682.092	0.0156004
682.170	0.0156707
682.248	0.0157141
682.326	0.0157951
682.405	0.0157563
682.483	0.0158343
682.561	0.0159196
682.639	0.0157346
682.717	0.0156956
682.795	0.0156766
682.873	0.0157467
682.951	0.0157290
683.030	0.0157164
683.108	0.0155012
683.186	0.0156316
683.264	0.0154356
683.342	0.0153477
683.420	0.0153142
683.498	0.0153809
683.576	0.0155030
683.655	0.0155137
683.733	0.0155948
683.811	0.0155363
683.889	0.0155576
683.967	0.0156863
684.045	0.0155540
684.123	0.0155710
684.201	0.0156377
684.280	0.0155915
684.358	0.0156041
684.436	0.0154652
684.514	0.0157443
684.592	0.0158487
684.670	0.0156487
684.748	0.0157932
684.826	0.0158044
684.905	0.0158421
684.983	0.0159711
685.061	0.0158530
685.139	0.0158745
685.217	0.0159193
685.295	0.0160638
685.373	0.0161238
685.451	0.0160019
685.530	0.0159843
685.608	0.0159834
685.686	0.0160526
685.764	0.0159079
685.842	0.0160038
685.920	0.0160365
685.998	0.0161619
686.076	0.0159324
686.155	0.0157667
686.233	0.0156916
686.311	0.0154063
686.389	0.0153042
686.467	0.0152400
686.545	0.0152323
686.623	0.0151575
686.701	0.0149810
686.780	0.0149866
686.858	0.0148286
686.936	0.0149549
687.014	0.0150635
687.092	0.0150502
687.170	0.0149473
687.248	0.0149611
687.326	0.0150977
687.405	0.0149190
687.483	0.0150015
687.561	0.0151873
687.639	0.0151640
687.717	0.0153157
687.795	0.0153777
687.873	0.0155416
687.951	0.0156616
688.030	0.0156916
688.108	0.0159521
688.186	0.0162377
688.264	0.0163024
688.342	0.0164542
688.420	0.0169181
688.498	0.0170830
688.576	0.0174365
688.655	0.0174092
688.733	0.0175237
688.811	0.0174426
688.889	0.0176031
688.967	0.0176942
689.045	0.0175919
689.123	0.0174950
689.201	0.0174749
689.280	0.0171670
689.358	0.0169427
689.436	0.0166946
689.514	0.0161782
689.592	0.0156512
689.670	0.0153358
689.748	0.0149196
689.826	0.0142969
689.905	0.0137029
689.983	0.0132906
690.061	0.0128967
690.139	0.0126968
690.217	0.0122374
690.295	0.0120476
690.373	0.0117834
690.451	0.0117251
690.530	0.0118051
690.608	0.0118915
690.686	0.0122752
690.764	0.0124866
690.842	0.0128791
690.920	0.0133262
690.998	0.0139237
691.076	0.0147911
691.155	0.0154212
691.233	0.0159960
691.311	0.0167499
691.389	0.0176216
691.467	0.0182005
691.545	0.0189876
691.623	0.0194638
691.701	0.0198515
691.780	0.0199506
691.858	0.0203326
691.936	0.0205610
692.014	0.0204008
692.092	0.0203844
692.170	0.0200801
692.248	0.0197280
692.326	0.0194866
692.405	0.0191793
692.483	0.0186874
692.561	0.0181879
692.639	0.0178524
692.717	0.0172526
692.795	0.0168699
692.873	0.0161004
692.951	0.0156153
693.030	0.0149415
693.108	0.0144044
693.186	0.0138036
693.264	0.0131971
693.342	0.0128532
693.420	0.0123470
693.498	0.0120628
693.576	0.0117704
693.655	0.0115597
693.733	0.0113802
693.811	0.0114275
693.889	0.0113638
693.967	0.0113567
694.045	0.0115202
694.123	0.0115973
694.201	0.0117575
694.280	0.0120163
694.358	0.0120738
694.436	0.0122708
694.514	0.0125843
694.592	0.0126640
694.670	0.0130259
694.748	0.0133160
694.826	0.0135693
694.905	0.0142670
694.983	0.0149834
695.061	0.0157874
695.139	0.0163610
695.217	0.0171445
695.295	0.0179881
695.373	0.0187997
695.451	0.0191859
695.530	0.0199921
695.608	0.0204986
695.686	0.0208628
695.764	0.0213007
695.842	0.0213198
695.920	0.0215738
695.998	0.0215645
696.076	0.0216581
696.155	0.0215156
696.233	0.0213608
696.311	0.0209156
696.389	0.0203174
696.467	0.0198474
696.545	0.0191518
696.623	0.0182070
696.701	0.0174947
696.780	0.0165522
696.858	0.0157772
696.936	0.0149409
697.014	0.0141444
697.092	0.0135220
697.170	0.0130087
697.248	0.0127886
697.326	0.0124157
697.405	0.0120965
697.483	0.0120687
697.561	0.0118073
697.639	0.0115651
697.717	0.0117969
697.795	0.0117491
697.873	0.0116937
697.951	0.0116247
698.030	0.0116461
698.108	0.0115292
698.186	0.0115464
698.264	0.0115690
698.342	0.0117531
698.420	0.0116457
698.498	0.0119007
698.576	0.0119506
698.655	0.0123553
698.733	0.0124135
698.811	0.0128113
698.889	0.0133052
698.967	0.0137817
699.045	0.0143407
699.123	0.0149743
699.201	0.0157359
699.280	0.0164382
699.358	0.0172251
699.436	0.0180567
699.514	0.0188209
699.592	0.0193412
699.670	0.0201751
699.748	0.0206612
699.826	0.0210006
699.905	0.0215782
699.983	0.0217445
700.061	0.0217357
700.139	0.0217226
700.217	0.0217158
700.295	0.0214573
700.373	0.0209093
700.451	0.0205945
700.530	0.0199053
700.608	0.0191649
700.686	0.0185390
700.764	0.0178351
700.842	0.0170398
700.920	0.0161208
700.998	0.0152911
701.076	0.0145804
701.155	0.0138547
701.233	0.0132256
701.311	0.0126817
701.389	0.0123949
701.467	0.0120139
701.545	0.0117536
701.623	0.0117540
701.701	0.0118667
701.780	0.0119469
701.858	0.0121778
701.936	0.0125856
702.014	0.0127618
702.092	0.0130102
702.170	0.0134555
702.248	0.0137763
702.326	0.0139131
702.405	0.0140755
702.483	0.0142567
702.561	0.0143301
702.639	0.0142757
702.717	0.0143240
702.795	0.0144923
702.873	0.0145193
702.951	0.0146036
703.030	0.0148363
703.108	0.0148185
703.186	0.0149966
703.264	0.0150294
703.342	0.0150888
703.420	0.0154995
703.498	0.0155495
703.576	0.0154054
703.655	0.0156660
703.733	0.0157816
703.811	0.0158025
703.889	0.0159980
703.967	0.0161046
704.045	0.0163048
704.123	0.0165506
704.201	0.0167386
704.280	0.0168726
704.358	0.0171577
704.436	0.0172182
704.514	0.0175551
704.592	0.0177223
704.670	0.0177288
704.748	0.0176942
704.826	0.0178408
704.905	0.0179106
704.983	0.0177156
705.061	0.0176485
705.139	0.0174706
705.217	0.0174490
705.295	0.0174821
705.373	0.0172072
705.451	0.0170177
705.530	0.0168997
705.608	0.0166662
705.686	0.0164279
705.764	0.0162192
705.842	0.0159158
705.920	0.0155594
705.998	0.0151196
706.076	0.0147598
706.155	0.0144541
706.233	0.0142809
706.311	0.0138522
706.389	0.0137952
706.467	0.0136933
706.545	0.0135376
706.623	0.0135574
706.701	0.0138385
706.780	0.0139148
706.858	0.0141678
706.936	0.0143439
707.014	0.0144747
707.092	0.0145751
707.170	0.0150896
707.248	0.0152040
707.326	0.0154652
707.405	0.0157742
707.483	0.0159347
707.561	0.0160672
707.639	0.0161492
707.717	0.0163617
707.795	0.0165405
707.873	0.0164565
707.951	0.0164320
708.030	0.0165189
708.108	0.0163212
708.186	0.0162053
708.264	0.0161317
708.342	0.0158215
708.420	0.0157274
708.498	0.0154675
708.576	0.0153811
708.655	0.0153177
708.733	0.0152405
708.811	0.0151074
708.889	0.0153256
708.967	0.0154324
709.045	0.0155875
709.123	0.0156583
709.201	0.0159785
709.280	0.0160915
709.358	0.0164061
709.436	0.0165138
709.514	0.0166303
709.592	0.0166903
709.670	0.0167980
709.748	0.0165874
709.826	0.0162939
709.905	0.0159569
709.983	0.0157410
710.061	0.0152899
710.139	0.0149432
710.217	0.0146906
710.295	0.0144868
710.373	0.0140916
710.451	0.0139571
710.530	0.0137169
710.608	0.0137552
710.686	0.0138390
710.764	0.0139005
710.842	0.0142180
710.920	0.0145430
710.998	0.0149209
711.076	0.0152782
711.155	0.0157091
711.233	0.0162363
711.311	0.0168094
711.389	0.0171673
711.467	0.0174864
711.545	0.0177365
711.623	0.0180478
711.701	0.0183506
711.780	0.0185008
711.858	0.0185006
711.936	0.0184450
712.014	0.0182424
712.092	0.0181488
712.170	0.0178056
712.248	0.0174381
712.326	0.0170322
712.405	0.0166607
712.483	0.0162661
712.561	0.0158638
712.639	0.0155154
712.717	0.0151094
712.795	0.0151817
712.873	0.0150111
712.951	0.0147681
713.030	0.0147984
713.108	0.0147478
713.186	0.0145110
713.264	0.0144212
713.342	0.0146204
713.420	0.0144519
713.498	0.0143909
713.576	0.0143707
713.655	0.0141856
713.733	0.0141563
713.811	0.0139308
713.889	0.0138721
713.967	0.0138331
714.045	0.0137128
714.123	0.0137082
714.201	0.0137720
714.280	0.0140584
714.358	0.0141071
714.436	0.0142346
714.514	0.0145082
714.592	0.0146855
714.670	0.0150889
714.748	0.0153809
714.826	0.0156109
714.905	0.0160249
714.983	0.0162226
715.061	0.0163772
715.139	0.0167200
715.217	0.0168361
715.295	0.0166741
715.373	0.0168503
715.451	0.0168813
715.530	0.0167046
715.608	0.0166684
715.686	0.0165642
715.764	0.0165225
715.842	0.0164921
715.920	0.0162961
715.998	0.0163004
716.076	0.0162805
716.155	0.0163492
716.233	0.0163548
716.311	0.0164300
716.389	0.0167009
716.467	0.0168275
716.545	0.0167032
716.623	0.0168436
716.701	0.0170512
716.780	0.0169332
716.858	0.0169930
716.936	0.0169114
717.014	0.0169418
717.092	0.0169340
717.170	0.0168903
717.248	0.0166693
717.326	0.0164497
717.405	0.0163612
717.483	0.0161259
717.561	0.0157477
717.639	0.0155577
717.717	0.0152997
717.795	0.0150102
717.873	0.0149728
717.951	0.0146500
718.030	0.0146725
718.108	0.0147697
718.186	0.0144839
718.264	0.0143122
718.342	0.0143365
718.420	0.0142895
718.498	0.0145436
718.576	0.0144311
718.655	0.0145885
718.733	0.0146452
718.811	0.0146051
718.889	0.0147092
718.967	0.0148367
719.045	0.0149721
719.123	0.0151368
719.201	0.0151365
719.280	0.0153284
719.358	0.0153864
719.436	0.0156602
719.514	0.0156199
719.592	0.0158506
719.670	0.0160973
719.748	0.0159427
719.826	0.0160798
719.905	0.0160880
719.983	0.0161507
720.061	0.0163050
720.139	0.0162547
720.217	0.0163616
720.295	0.0163622
720.373	0.0163726
720.451	0.0162952
720.530	0.0163960
720.608	0.0163408
720.686	0.0164438
720.764	0.0164085
720.842	0.0163627
720.920	0.0162228
720.998	0.0161125
721.076	0.0160093
721.155	0.0159155
721.233	0.0157517
721.311	0.0156869
721.389	0.0156000
721.467	0.0154809
721.545	0.0153671
721.623	0.0153175
721.701	0.0151978
721.780	0.0151376
721.858	0.0149918
721.936	0.0150210
722.014	0.0150507
722.092	0.0151201
722.170	0.0152610
722.248	0.0152396
722.326	0.0153249
722.405	0.0154494
722.483	0.0155695
722.561	0.0156165
722.639	0.0156540
722.717	0.0157308
722.795	0.0159783
722.873	0.0158762
722.951	0.0159002
723.030	0.0161335
723.108	0.0162731
723.186	0.0162572
723.264	0.0163615
723.342	0.0161814
723.420	0.0162701
723.498	0.0162955
723.576	0.0161941
723.655	0.0161242
723.733	0.0161698
723.811	0.0160461
723.889	0.0159583
723.967	0.0160297
724.045	0.0159912
724.123	0.0158007
724.201	0.0156736
724.280	0.0156507
724.358	0.0156767
724.436	0.0155535
724.514	0.0154795
724.592	0.0154491
724.670	0.0153185
724.748	0.0151992
724.826	0.0152998
724.905	0.0153447
724.983	0.0153270
725.061	0.0151698
725.139	0.0153773
725.217	0.0153255
725.295	0.0150366
725.373	0.0152455
725.451	0.0151764
725.530	0.0152000
725.608	0.0150990
725.686	0.0151260
725.764	0.0150362
725.842	0.0150861
725.920	0.0150335
725.998	0.0151102
726.076	0.0150976
726.155	0.0151246
726.233	0.0151111
726.311	0.0152719
726.389	0.0153542
726.467	0.0154975
726.545	0.0155387
726.623	0.0158703
726.701	0.0161040
726.780	0.0161277
726.858	0.0163035
726.936	0.0164366
727.014	0.0166496
727.092	0.0167738
727.170	0.0169385
727.248	0.0169371
727.326	0.0170171
727.405	0.0169788
727.483	0.0169019
727.561	0.0168208
727.639	0.0165669
727.717	0.0163678
727.795	0.0163180
727.873	0.0160178
727.951	0.0158990
728.030	0.0156228
728.108	0.0154753
728.186	0.0153703
728.264	0.0152327
728.342	0.0151751
728.420	0.0151719
728.498	0.0150804
728.576	0.0151762
728.655	0.0152707
728.733	0.0153252
728.811	0.0151323
728.889	0.0153971
728.967	0.0153828
729.045	0.0154156
729.123	0.0155120
729.201	0.0154204
729.280	0.0154649
729.358	0.0153871
729.436	0.0152763
729.514	0.0154867
729.592	0.0154084
729.670	0.0154322
729.748	0.0154732
729.826	0.0155978
729.905	0.0156850
729.983	0.0158860
730.061	0.0158276
730.139	0.0159379
730.217	0.0159878
730.295	0.0159830
730.373	0.0160941
730.451	0.0158869
730.530	0.0159150
730.608	0.0159735
730.686	0.0158321
730.764	0.0156528
730.842	0.0157635
730.920	0.0156888
730.998	0.0157126
731.076	0.0155005
731.155	0.0155400
731.233	0.0155015
731.311	0.0156649
731.389	0.0156821
731.467	0.0154966
731.545	0.0155951
731.623	0.0158247
731.701	0.0157178
731.780	0.0157494
731.858	0.0158917
731.936	0.0160136
732.014	0.0159934
732.092	0.0159330
732.170	0.0158977
732.248	0.0160317
732.326	0.0160552
732.405	0.0162119
732.483	0.0158993
732.561	0.0157594
732.639	0.0157881
732.717	0.0156284
732.795	0.0153923
732.873	0.0154092
732.951	0.0153729
733.030	0.0152451
733.108	0.0150384
733.186	0.0149973
733.264	0.0150405
733.342	0.0150254
733.420	0.0150215
733.498	0.0152370
733.576	0.0152028
733.655	0.0153070
733.733	0.0153900
733.811	0.0154713
733.889	0.0156869
733.967	0.0156385
734.045	0.0159502
734.123	0.0159912
734.201	0.0161375
734.280	0.0162288
734.358	0.0162754
734.436	0.0161780
734.514	0.0162058
734.592	0.0163663
734.670	0.0163008
734.748	0.0162059
734.826	0.0162735
734.905	0.0162209
734.983	0.0161270
735.061	0.0162842
735.139	0.0162415
735.217	0.0161716
735.295	0.0161918
735.373	0.0161810
735.451	0.0161218
735.530	0.0160007
735.608	0.0160491
735.686	0.0158652
735.764	0.0159063
735.842	0.0158601
735.920	0.0157195
735.998	0.0155637
736.076	0.0154399
736.155	0.0155370
736.233	0.0153246
736.311	0.0153362
736.389	0.0152355
736.467	0.0151473
736.545	0.0150961
736.623	0.0151266
736.701	0.0150832
736.780	0.0150414
736.858	0.0150211
736.936	0.0149096
737.014	0.0149463
737.092	0.0149498
737.170	0.0149554
737.248	0.0149625
737.326	0.0151723
737.405	0.0150539
737.483	0.0150855
737.561	0.0151227
737.639	0.0153372
737.717	0.0153615
737.795	0.0154492
737.873	0.0154321
737.951	0.0154345
738.030	0.0155747
738.108	0.0155650
738.186	0.0156725
738.264	0.0157632
738.342	0.0157207
738.420	0.0158077
738.498	0.0159779
738.576	0.0160423
738.655	0.0161349
738.733	0.0159993
738.811	0.0162133
738.889	0.0162001
738.967	0.0163435
739.045	0.0165107
739.123	0.0165093
739.201	0.0166036
739.280	0.0165250
739.358	0.0163744
739.436	0.0165175
739.514	0.0165341
739.592	0.0164384
739.670	0.0165716
739.748	0.0164121
739.826	0.0162362
739.905	0.0161295
739.983	0.0161304
740.061	0.0159553
740.139	0.0160077
740.217	0.0157835
740.295	0.0156155
740.373	0.0156628
740.451	0.0153397
740.530	0.0153257
740.608	0.0152396
740.686	0.0151153
740.764	0.0148666
740.842	0.0148038
740.920	0.0148510
740.998	0.0150407
741.076	0.0148902
741.155	0.0150424
741.233	0.0150452
741.311	0.0152744
741.389	0.0151967
741.467	0.0154581
741.545	0.0154111
741.623	0.0154427
741.701	0.0154733
741.780	0.0156384
741.858	0.0157360
741.936	0.0156583
742.014	0.0156462
742.092	0.0157214
742.170	0.0156972
742.248	0.0156516
742.326	0.0156621
742.405	0.0156387
742.483	0.0156884
742.561	0.0157038
742.639	0.0155629
742.717	0.0157441
742.795	0.0156559
742.873	0.0157217
742.951	0.0156534
743.030	0.0157065
743.108	0.0158552
743.186	0.0159651
743.264	0.0159543
743.342	0.0160067
743.420	0.0160879
743.498	0.0160441
743.576	0.0162171
743.655	0.0159734
743.733	0.0160071
743.811	0.0161320
743.889	0.0161514
743.967	0.0160506
744.045	0.0160619
744.123	0.0159425
744.201	0.0159440
744.280	0.0158257
744.358	0.0159393
744.436	0.0157792
744.514	0.0156815
744.592	0.0157655
744.670	0.0156372
744.748	0.0156207
744.826	0.0154641
744.905	0.0155393
744.983	0.0154962
745.061	0.0154755
745.139	0.0154461
745.217	0.0152714
745.295	0.0152952
745.373	0.0152403
745.451	0.0151231
745.530	0.0151999
745.608	0.0150836
745.686	0.0150764
745.764	0.0150289
745.842	0.0150765
745.920	0.0150661
745.998	0.0150165
746.076	0.0150735
746.155	0.0150310
746.233	0.0151495
746.311	0.0151479
746.389	0.0153940
746.467	0.0152928
746.545	0.0155450
746.623	0.0155640
746.701	0.0156355
746.780	0.0157381
746.858	0.0158959
746.936	0.0159531
747.014	0.0160890
747.092	0.0161237
747.170	0.0162536
747.248	0.0161847
747.326	0.0161925
747.405	0.0161769
747.483	0.0164432
747.561	0.0164388
747.639	0.0163200
747.717	0.0163583
747.795	0.0162835
747.873	0.0163074
747.951	0.0162141
748.030	0.0161783
748.108	0.0159159
748.186	0.0159836
748.264	0.0158275
748.342	0.0157883
748.420	0.0157211
748.498	0.0157049
748.576	0.0155354
748.655	0.0157619
748.733	0.0156474
748.811	0.0157397
748.889	0.0156821
748.967	0.0156993
749.045	0.0156154
749.123	0.0156592
749.201	0.0157021
749.280	0.0158612
749.358	0.0157133
749.436	0.0156381
749.514	0.0156886
749.592	0.0155859
749.670	0.0153992
749.748	0.0155131
749.826	0.0154139
749.905	0.0153744
749.983	0.0153288
750.061	0.0151795
750.139	0.0151985
750.217	0.0151871
750.295	0.0152129
750.373	0.0152689
750.451	0.0153121
750.530	0.0152801
750.608	0.0153704
750.686	0.0154397
750.764	0.0153757
750.842	0.0153171
750.920	0.0153203
750.998	0.0154689
751.076	0.0155988
751.155	0.0156634
751.233	0.0157635
751.311	0.0157940
751.389	0.0157755
751.467	0.0157983
751.545	0.0158694
751.623	0.0158629
751.701	0.0159265
751.780	0.0158006
751.858	0.0159377
751.936	0.0159305
752.014	0.0158028
752.092	0.0159650
752.170	0.0159697
752.248	0.0159911
752.326	0.0158319
752.405	0.0159182
752.483	0.0158015
752.561	0.0158263
752.639	0.0159304
752.717	0.0158740
752.795	0.0159233
752.873	0.0157226
752.951	0.0157526
753.030	0.0158237
753.108	0.0158011
753.186	0.0157682
753.264	0.0159016
753.342	0.0158107
753.420	0.0156450
753.498	0.0157465
753.576	0.0157652
753.655	0.0156968
753.733	0.0156689
753.811	0.0157350
753.889	0.0156023
753.967	0.0155360
754.045	0.0155140
754.123	0.0153996
754.201	0.0155767
754.280	0.0154504
754.358	0.0155457
754.436	0.0155001
754.514	0.0155486
754.592	0.0156455
754.670	0.0157179
754.748	0.0157591
754.826	0.0157558
754.905	0.0158717
754.983	0.0159217
755.061	0.0160203
755.139	0.0160757
755.217	0.0160745
755.295	0.0161594
755.373	0.0162598
755.451	0.0161678
755.530	0.0160944
755.608	0.0160859
755.686	0.0160192
755.764	0.0160770
755.842	0.0159177
755.920	0.0157535
755.998	0.0157151
756.076	0.0157523
756.155	0.0155395
756.233	0.0154855
756.311	0.0153756
756.389	0.0154239
756.467	0.0154338
756.545	0.0154216
756.623	0.0153495
756.701	0.0152634
756.780	0.0153204
756.858	0.0154355
756.936	0.0154803
757.014	0.0153471
757.092	0.0153621
757.170	0.0154786
757.248	0.0155869
757.326	0.0154800
757.405	0.0155011
757.483	0.0155882
757.561	0.0156458
757.639	0.0155180
757.717	0.0156146
757.795	0.0155083
757.873	0.0155225
757.951	0.0156940
758.030	0.0156587
758.108	0.0157635
758.186	0.0155921
758.264	0.0156009
758.342	0.0155699
758.420	0.0155585
758.498	0.0154928
758.576	0.0156731
758.655	0.0156139
758.733	0.0155014
758.811	0.0155483
758.889	0.0157350
758.967	0.0156224
759.045	0.0157175
759.123	0.0156672
759.201	0.0156796
759.280	0.0157243
759.358	0.0159576
759.436	0.0158109
759.514	0.0159795
759.592	0.0160037
759.670	0.0160455
759.748	0.0159122
759.826	0.0160838
759.905	0.0160393
759.983	0.0160078
760.061	0.0160239
760.139	0.0159576
760.217	0.0160542
760.295	0.0159315
760.373	0.0158346
760.451	0.0158176
760.530	0.0158918
760.608	0.0156966
760.686	0.0157566
760.764	0.0156602
760.842	0.0155246
760.920	0.0155040
760.998	0.0155920
761.076	0.0154753
761.155	0.0155010
761.233	0.0153821
761.311	0.0154850
761.389	0.0154026
761.467	0.0153365
761.545	0.0153281
761.623	0.0153515
761.701	0.0154510
761.780	0.0154712
761.858	0.0155309
761.936	0.0155231
762.014	0.0155386
762.092	0.0155829
762.170	0.0157177
762.248	0.0157690
762.326	0.0157375
762.405	0.0157655
762.483	0.0157600
762.561	0.0158743
762.639	0.0158385
762.717	0.0158813
762.795	0.0159063
762.873	0.0159036
762.951	0.0158893
763.030	0.0160059
763.108	0.0157835
763.186	0.0158202
763.264	0.0158511
763.342	0.0157829
763.420	0.0156577
763.498	0.0156844
763.576	0.0156397
763.655	0.0154497
763.733	0.0155355
763.811	0.0154025
763.889	0.0155128
763.967	0.0154418
764.045	0.0153529
764.123	0.0154523
764.201	0.0152859
764.280	0.0151313
764.358	0.0154485
764.436	0.0154923
764.514	0.0154071
764.592	0.0155190
764.670	0.0156026
764.748	0.0155986
764.826	0.0155700
764.905	0.0156899
764.983	0.0154982
765.061	0.0154893
765.139	0.0156155
765.217	0.0158260
765.295	0.0155714
765.373	0.0156696
765.451	0.0156065
765.530	0.0156197
765.608	0.0156353
765.686	0.0157263
765.764	0.0156895
765.842	0.0156678
765.920	0.0156918
765.998	0.0157021
766.076	0.0157076
766.155	0.0157973
766.233	0.0156565
766.311	0.0155269
766.389	0.0157606
766.467	0.0156076
766.545	0.0155997
766.623	0.0155297
766.701	0.0156702
766.780	0.0155973
766.858	0.0156637
766.936	0.0158824
767.014	0.0158748
767.092	0.0157816
767.170	0.0157494
767.248	0.0158769
767.326	0.0158678
767.405	0.0160451
767.483	0.0158350
767.561	0.0159384
767.639	0.0161436
767.717	0.0159044
767.795	0.0157142
767.873	0.0158295
767.951	0.0158625
768.030	0.0157767
768.108	0.0157576
768.186	0.0156874
768.264	0.0154224
768.342	0.0155059
768.420	0.0155692
768.498	0.0153548
768.576	0.0154672
768.655	0.0153405
768.733	0.0153649
768.811	0.0152505
768.889	0.0153320
768.967	0.0153406
769.045	0.0154286
769.123	0.0154076
769.201	0.0154228
769.280	0.0154070
769.358	0.0153052
769.436	0.0155735
769.514	0.0153580
769.592	0.0155048
769.670	0.0154720
769.748	0.0154536
769.826	0.0155354
769.905	0.0155439
769.983	0.0155228
770.061	0.0156737
770.139	0.0156477
770.217	0.0155647
770.295	0.0156886
770.373	0.0157984
770.451	0.0158181
770.530	0.0159534
770.608	0.0158229
770.686	0.0160095
770.764	0.0158511
770.842	0.0158539
770.920	0.0160348
770.998	0.0160071
771.076	0.0160234
771.155	0.0159209
771.233	0.0159919
771.311	0.0159231
771.389	0.0158482
771.467	0.0158165
771.545	0.0158839
771.623	0.0158025
771.701	0.0155856
771.780	0.0157097
771.858	0.0156316
771.936	0.0155619
772.014	0.0154726
772.092	0.0156299
772.170	0.0155413
772.248	0.0155764
772.326	0.0155379
772.405	0.0155896
772.483	0.0156044
772.561	0.0155807
772.639	0.0155733
772.717	0.0155262
772.795	0.0155286
772.873	0.0154951
772.951	0.0155225
773.030	0.0156489
773.108	0.0155862
773.186	0.0155972
773.264	0.0155553
773.342	0.0155499
773.420	0.0154668
773.498	0.0156673
773.576	0.0155472
773.655	0.0155185
773.733	0.0154974
773.811	0.0154953
773.889	0.0153720
773.967	0.0154963
774.045	0.0156255
774.123	0.0154476
774.201	0.0156914
774.280	0.0154077
774.358	0.0154787
774.436	0.0156464
774.514	0.0157903
774.592	0.0156658
774.670	0.0156414
774.748	0.0158111
774.826	0.0157848
774.905	0.0158584
774.983	0.0158369
775.061	0.0160735
775.139	0.0158916
775.217	0.0161185
775.295	0.0160773
775.373	0.0159670
775.451	0.0159658
775.530	0.0159032
775.608	0.0159641
775.686	0.0160654
775.764	0.0159525
775.842	0.0158946
775.920	0.0158361
775.998	0.0157684
776.076	0.0158425
776.155	0.0157007
776.233	0.0156863
776.311	0.0156520
776.389	0.0156478
776.467	0.0156223
776.545	0.0156080
776.623	0.0156230
776.701	0.0156641
776.780	0.0156007
776.858	0.0154758
776.936	0.0154981
777.014	0.0154458
777.092	0.0155058
777.170	0.0154886
777.248	0.0153417
777.326	0.0153253
777.405	0.0151528
777.483	0.0153246
777.561	0.0154974
777.639	0.0154055
777.717	0.0153778
777.795	0.0154615
777.873	0.0155437
777.951	0.0155849
778.030	0.0155344
778.108	0.0156849
778.186	0.0156748
778.264	0.0158179
778.342	0.0158371
778.420	0.0157700
778.498	0.0159007
778.576	0.0159876
778.655	0.0159332
778.733	0.0159116
778.811	0.0158852
778.889	0.0158879
778.967	0.0158279
779.045	0.0160027
779.123	0.0161124
779.201	0.0158746
779.280	0.0159266
779.358	0.0159361
779.436	0.0158636
779.514	0.0158575
779.592	0.0158283
779.670	0.0158004
779.748	0.0158147
779.826	0.0157317
779.905	0.0158911
779.983	0.0156860
780.061	0.0156496
780.139	0.0157211
780.217	0.0157380
780.295	0.0156951
780.373	0.0157371
780.451	0.0158410
780.530	0.0155164
780.608	0.0156243
780.686	0.0156582
780.764	0.0156641
780.842	0.0156802
780.920	0.0157132
780.998	0.0156245
781.076	0.0156580
781.155	0.0156038
781.233	0.0154642
781.311	0.0155224
781.389	0.0156379
781.467	0.0154771
781.545	0.0154674
781.623	0.0155154
781.701	0.0155602
781.780	0.0154386
781.858	0.0154690
781.936	0.0155329
782.014	0.0156001
782.092	0.0154607
782.170	0.0155544
782.248	0.0155930
782.326	0.0155341
782.405	0.0155383
782.483	0.0156220
782.561	0.0156362
782.639	0.0156659
782.717	0.0157522
782.795	0.0157210
782.873	0.0156549
782.951	0.0157999
783.030	0.0157603
783.108	0.0156885
783.186	0.0158041
783.264	0.0158593
783.342	0.0157965
783.420	0.0158488
783.498	0.0158369
783.576	0.0158735
783.655	0.0157780
783.733	0.0157102
783.811	0.0157868
783.889	0.0158875
783.967	0.0158246
784.045	0.0156693
784.123	0.0157894
784.201	0.0158716
784.280	0.0158602
784.358	0.0156901
784.436	0.0156977
784.514	0.0155423
784.592	0.0157177
784.670	0.0158044
784.748	0.0156231
784.826	0.0156149
784.905	0.0156149
784.983	0.0155447
785.061	0.0156030
785.139	0.0155546
785.217	0.0156033
785.295	0.0157652
785.373	0.0155852
785.451	0.0156825
785.530	0.0156859
785.608	0.0157855
785.686	0.0158038
785.764	0.0157028
785.842	0.0157903
785.920	0.0158427
785.998	0.0158431
786.076	0.0158964
786.155	0.0157265
786.233	0.0156693
786.311	0.0155885
786.389	0.0156674
786.467	0.0155912
786.545	0.0155952
786.623	0.0154460
786.701	0.0153250
786.780	0.0153937
786.858	0.0152689
786.936	0.0152911
787.014	0.0152348
787.092	0.0153561
787.170	0.0154674
787.248	0.0153207
787.326	0.0153072
787.405	0.0153355
787.483	0.0153773
787.561	0.0153669
787.639	0.0154836
787.717	0.0155202
787.795	0.0155289
787.873	0.0156311
787.951	0.0157092
788.030	0.0159374
788.108	0.0157845
788.186	0.0159294
788.264	0.0160178
788.342	0.0161097
788.420	0.0161489
788.498	0.0161509
788.576	0.0161988
788.655	0.0164284
788.733	0.0164101
788.811	0.0162463
788.889	0.0162438
788.967	0.0162174
789.045	0.0160265
789.123	0.0160916
789.201	0.0159797
789.280	0.0158291
789.358	0.0157741
789.436	0.0157872
789.514	0.0156397
789.592	0.0155544
789.670	0.0153715
789.748	0.0153266
789.826	0.0154009
789.905	0.0152052
789.983	0.0153097
790.061	0.0151147
790.139	0.0150269
790.217	0.0151369
790.295	0.0150619
790.373	0.0149708
790.451	0.0148921
790.530	0.0150658
790.608	0.0149946
790.686	0.0149583
790.764	0.0148753
790.842	0.0149762
790.920	0.0150251
790.998	0.0151083
791.076	0.0151466
791.155	0.0153215
791.233	0.0154592
791.311	0.0154155
791.389	0.0154479
791.467	0.0154912
791.545	0.0155340
791.623	0.0156646
791.701	0.0158156
791.780	0.0158417
791.858	0.0160065
791.936	0.0159930
792.014	0.0160928
792.092	0.0161594
792.170	0.0162690
792.248	0.0164580
792.326	0.0165015
792.405	0.0166608
792.483	0.0165799
792.561	0.0165498
792.639	0.0165089
792.717	0.0165241
792.795	0.0165326
792.873	0.0166013
792.951	0.0165466
793.030	0.0162861
793.108	0.0161044
793.186	0.0160713
793.264	0.0160641
793.342	0.0160117
793.420	0.0156663
793.498	0.0156593
793.576	0.0155058
793.655	0.0155231
793.733	0.0152610
793.811	0.0153104
793.889	0.0152173
793.967	0.0150384
794.045	0.0149800
794.123	0.0149151
794.201	0.0150187
794.280	0.0152496
794.358	0.0151122
794.436	0.0149306
794.514	0.0150212
794.592	0.0150188
794.670	0.0151151
794.748	0.0151488
794.826	0.0150082
794.905	0.0151309
794.983	0.0151305
795.061	0.0151611
795.139	0.0153262
795.217	0.0152593
795.295	0.0152924
795.373	0.0151804
795.451	0.0151661
795.530	0.0152921
795.608	0.0154859
795.686	0.0155624
795.764	0.0155677
795.842	0.0157091
795.920	0.0158244
795.998	0.0157506
796.076	0.0159885
796.155	0.0160946
796.233	0.0161343
796.311	0.0161487
796.389	0.0163840
796.467	0.0164746
796.545	0.0163006
796.623	0.0164661
796.701	0.0165409
796.780	0.0164981
796.858	0.0164413
796.936	0.0164110
797.014	0.0163448
797.092	0.0164524
797.170	0.0163795
797.248	0.0163019
797.326	0.0162321
797.405	0.0161234
797.483	0.0159927
797.561	0.0159701
797.639	0.0159168
797.717	0.0158878
797.795	0.0157390
797.873	0.0156224
797.951	0.0156407
798.030	0.0156044
798.108	0.0155610
798.186	0.0153645
798.264	0.0152862
798.342	0.0153619
798.420	0.0152121
798.498	0.0151788
798.576	0.0150655
798.655	0.0150682
798.733	0.0152066
798.811	0.0150370
798.889	0.0151994
798.967	0.0150975
799.045	0.0150120
799.123	0.0151267
799.201	0.0153033
799.280	0.0153371
799.358	0.0153690
799.436	0.0153871
799.514	0.0154427
799.592	0.0154690
799.670	0.0154351
799.748	0.0155640
799.826	0.0155260
799.905	0.0155460
799.983	0.0156976
800.061	0.0155674
800.139	0.0157206
800.217	0.0156976
800.295	0.0157810
800.373	0.0157045
800.451	0.0158569
800.530	0.0158984
800.608	0.0158543
800.686	0.0159782
800.764	0.0159471
800.842	0.0157655
800.920	0.0158829
800.998	0.0158556
801.076	0.0160079
801.155	0.0158767
801.233	0.0158887
801.311	0.0160735
801.389	0.0159458
801.467	0.0158192
801.545	0.0159888
801.623	0.0159198
801.701	0.0159777
801.780	0.0160835
801.858	0.0160745
801.936	0.0161414
802.014	0.0161375
802.092	0.0160211
802.170	0.0160181
802.248	0.0159836
802.326	0.0160884
802.405	0.0160028
802.483	0.0159274
802.561	0.0159564
802.639	0.0158903
802.717	0.0157384
802.795	0.0157891
802.873	0.0158289
802.951	0.0156243
803.030	0.0155069
803.108	0.0153841
803.186	0.0154430
803.264	0.0153645
803.342	0.0153242
803.420	0.0153583
803.498	0.0153502
803.576	0.0155130
803.655	0.0153745
803.733	0.0152773
803.811	0.0155247
803.889	0.0156294
803.967	0.0156426
804.045	0.0156495
804.123	0.0155795
804.201	0.0158292
804.280	0.0157684
804.358	0.0156651
804.436	0.0157500
804.514	0.0157664
804.592	0.0156745
804.670	0.0156773
804.748	0.0157050
804.826	0.0154530
804.905	0.0156710
804.983	0.0154990
805.061	0.0155145
805.139	0.0156420
805.217	0.0155608
805.295	0.0155267
805.373	0.0157256
805.451	0.0156422
805.530	0.0156411
805.608	0.0156332
805.686	0.0157545
805.764	0.0158220
805.842	0.0157812
805.920	0.0157818
805.998	0.0157008
806.076	0.0156750
806.155	0.0157954
806.233	0.0158662
806.311	0.0157916
806.389	0.0157540
806.467	0.0157368
806.545	0.0156787
806.623	0.0157984
806.701	0.0158070
806.780	0.0156844
806.858	0.0157046
806.936	0.0156400
807.014	0.0156298
807.092	0.0157374
807.170	0.0156430
807.248	0.0157522
807.326	0.0157076
807.405	0.0158524
807.483	0.0158846
807.561	0.0158319
807.639	0.0161167
807.717	0.0159940
807.795	0.0160564
807.873	0.0160893
807.951	0.0162341
808.030	0.0161902
808.108	0.0162538
808.186	0.0161920
808.264	0.0161758
808.342	0.0161935
808.420	0.0161855
808.498	0.0161099
808.576	0.0161971
808.655	0.0162640
808.733	0.0161082
808.811	0.0160537
808.889	0.0160678
808.967	0.0158884
809.045	0.0159879
809.123	0.0158551
809.201	0.0158016
809.280	0.0155422
809.358	0.0157021
809.436	0.0155471
809.514	0.0155029
809.592	0.0155404
809.670	0.0152862
809.748	0.0153311
809.826	0.0152679
809.905	0.0152041
809.983	0.0151696
810.061	0.0151700
810.139	0.0151218
810.217	0.0151331
810.295	0.0150703
810.373	0.0150867
810.451	0.0149791
810.530	0.0150728
810.608	0.0153308
810.686	0.0151403
810.764	0.0151170
810.842	0.0152760
810.920	0.0153991
810.998	0.0154070
811.076	0.0153479
811.155	0.0155544
811.233	0.0156736
811.311	0.0156167
811.389	0.0156349
811.467	0.0155898
811.545	0.0156017
811.623	0.0158242
811.701	0.0158730
811.780	0.0159799
811.858	0.0160197
811.936	0.0160633
812.014	0.0159118
812.092	0.0160957
812.170	0.0161517
812.248	0.0161235
812.326	0.0160738
812.405	0.0162653
812.483	0.0161618
812.561	0.0161034
812.639	0.0162105
812.717	0.0161462
812.795	0.0161377
812.873	0.0162158
812.951	0.0162401
813.030	0.0158676
813.108	0.0159395
813.186	0.0160434
813.264	0.0159149
813.342	0.0161030
813.420	0.0160130
813.498	0.0161504
813.576	0.0159932
813.655	0.0158200
813.733	0.0159387
813.811	0.0157542
813.889	0.0157111
813.967	0.0159160
814.045	0.0157198
814.123	0.0156655
814.201	0.0154823
814.280	0.0155124
814.358	0.0155379
814.436	0.0153608
814.514	0.0152918
814.592	0.0152126
814.670	0.0151682
814.748	0.0151911
814.826	0.0151401
814.905	0.0150623
814.983	0.0150439
815.061	0.0151019
815.139	0.0150399
815.217	0.0150667
815.295	0.0149689
815.373	0.0150243
815.451	0.0152787
815.530	0.0152377
815.608	0.0152572
815.686	0.0153059
815.764	0.0154094
815.842	0.0157111
815.920	0.0156570
815.998	0.0156071
816.076	0.0158112
816.155	0.0157186
816.233	0.0158791
816.311	0.0158902
816.389	0.0158991
816.467	0.0159844
816.545	0.0159724
816.623	0.0159515
816.701	0.0160053
816.780	0.0160635
816.858	0.0160129
816.936	0.0161019
817.014	0.0159636
817.092	0.0159821
817.170	0.0160457
817.248	0.0159836
817.326	0.0159318
817.405	0.0158807
817.483	0.0159734
817.561	0.0159642
817.639	0.0157525
817.717	0.0157533
817.795	0.0158337
817.873	0.0158663
817.951	0.0157373
818.030	0.0157320
818.108	0.0157177
818.186	0.0156639
818.264	0.0156624
818.342	0.0156200
818.420	0.0157023
818.498	0.0156493
818.576	0.0157728
818.655	0.0155818
818.733	0.0156110
818.811	0.0156068
818.889	0.0156921
818.967	0.0156849
819.045	0.0156979
819.123	0.0157050
819.201	0.0159192
819.280	0.0159170
819.358	0.0158707
819.436	0.0157772
819.514	0.0157836
819.592	0.0157533
819.670	0.0159962
819.748	0.0158750
819.826	0.0157908
819.905	0.0157677
819.983	0.0157319
820.061	0.0157368
820.139	0.0157153
820.217	0.0155615
820.295	0.0154729
820.373	0.0156220
820.451	0.0156463
820.530	0.0156644
820.608	0.0154524
820.686	0.0154675
820.764	0.0155055
820.842	0.0155686
820.920	0.0154314
820.998	0.0155585
821.076	0.0155093
821.155	0.0154707
821.233	0.0155739
821.311	0.0157120
821.389	0.0156332
821.467	0.0156511
821.545	0.0155676
821.623	0.0156084
821.701	0.0155564
821.780	0.0156620
821.858	0.0156377
821.936	0.0155836
822.014	0.0156309
822.092	0.0156669
822.170	0.0156512
822.248	0.0155803
822.326	0.0157703
822.405	0.0156855
822.483	0.0158054
822.561	0.0156918
822.639	0.0157359
822.717	0.0156815
822.795	0.0157465
822.873	0.0157233
822.951	0.0157969
823.030	0.0160588
823.108	0.0159473
823.186	0.0158247
823.264	0.0160829
823.342	0.0159401
823.420	0.0158286
823.498	0.0160119
823.576	0.0161642
823.655	0.0160288
823.733	0.0159352
823.811	0.0160279
823.889	0.0159981
823.967	0.0159029
824.045	0.0159230
824.123	0.0158795
824.201	0.0157437
824.280	0.0158135
824.358	0.0157970
824.436	0.0156044
824.514	0.0155701
824.592	0.0155410
824.670	0.0155799
824.748	0.0155850
824.826	0.0156850
824.905	0.0158326
824.983	0.0155664
825.061	0.0156194
825.139	0.0156479
825.217	0.0155585
825.295	0.0156425
825.373	0.0155042
825.451	0.0155635
825.530	0.0156242
825.608	0.0154412
825.686	0.0156000
825.764	0.0156363
825.842	0.0156122
825.920	0.0154221
825.998	0.0154557
826.076	0.0154112
826.155	0.0153014
826.233	0.0155312
826.311	0.0155009
826.389	0.0154327
826.467	0.0154572
826.545	0.0153927
826.623	0.0154435
826.701	0.0155406
826.780	0.0155031
826.858	0.0156837
826.936	0.0157184
827.014	0.0157687
827.092	0.0159396
827.170	0.0159040
827.248	0.0159193
827.326	0.0161452
827.405	0.0160571
827.483	0.0159557
827.561	0.0161246
827.639	0.0161133
827.717	0.0161523
827.795	0.0162443
827.873	0.0160919
827.951	0.0159164
828.030	0.0159663
828.108	0.0159348
828.186	0.0160862
828.264	0.0158251
828.342	0.0157766
828.420	0.0157441
828.498	0.0156498
828.576	0.0157515
828.655	0.0157587
828.733	0.0157417
828.811	0.0156725
828.889	0.0156787
828.967	0.0157555
829.045	0.0156680
829.123	0.0155569
829.201	0.0155860
829.280	0.0156741
829.358	0.0156023
829.436	0.0156038
829.514	0.0155569
829.592	0.0156895
829.670	0.0156044
829.748	0.0156190
829.826	0.0154717
829.905	0.0155741
829.983	0.0155973
830.061	0.0155426
830.139	0.0154568
830.217	0.0154414
830.295	0.0154657
830.373	0.0153998
830.451	0.0154822
830.530	0.0155417
830.608	0.0154306
830.686	0.0153842
830.764	0.0154808
830.842	0.0154591
830.920	0.0155442
830.998	0.0155764
831.076	0.0155479
831.155	0.0155447
831.233	0.0158728
831.311	0.0157681
831.389	0.0156300
831.467	0.0157018
831.545	0.0158506
831.623	0.0158192
831.701	0.0157151
831.780	0.0158716
831.858	0.0158141
831.936	0.0157751
832.014	0.0157892
832.092	0.0158479
832.170	0.0157724
832.248	0.0158118
832.326	0.0159228
832.405	0.0158340
832.483	0.0157576
832.561	0.0159012
832.639	0.0158678
832.717	0.0158263
832.795	0.0158090
832.873	0.0158803
832.951	0.0158289
833.030	0.0159774
833.108	0.0159411
833.186	0.0158189
833.264	0.0156814
833.342	0.0158080
833.420	0.0157754
833.498	0.0159349
833.576	0.0159580
833.655	0.0158256
833.733	0.0158521
833.811	0.0158882
833.889	0.0158836
833.967	0.0158147
834.045	0.0157661
834.123	0.0158898
834.201	0.0156335
834.280	0.0155149
834.358	0.0154842
834.436	0.0155003
834.514	0.0155326
834.592	0.0154224
834.670	0.0154140
834.748	0.0154016
834.826	0.0153274
834.905	0.0154809
834.983	0.0152974
835.061	0.0152071
835.139	0.0155161
835.217	0.0154044
835.295	0.0154667
835.373	0.0155591
835.451	0.0156521
835.530	0.0155222
835.608	0.0155749
835.686	0.0156781
835.764	0.0156557
835.842	0.0156780
835.920	0.0156566
835.998	0.0155769
836.076	0.0156514
836.155	0.0157739
836.233	0.0156513
836.311	0.0156049
836.389	0.0157357
836.467	0.0157185
836.545	0.0156254
836.623	0.0156310
836.701	0.0155432
836.780	0.0157260
836.858	0.0156841
836.936	0.0157038
837.014	0.0157180
837.092	0.0156651
837.170	0.0157152
837.248	0.0158175
837.326	0.0157596
837.405	0.0157113
837.483	0.0158650
837.561	0.0157821
837.639	0.0156567
837.717	0.0157075
837.795	0.0159641
837.873	0.0158555
837.951	0.0157581
838.030	0.0158212
838.108	0.0157185
838.186	0.0158839
838.264	0.0159248
838.342	0.0159000
838.420	0.0157581
838.498	0.0159004
838.576	0.0156696
838.655	0.0156554
838.733	0.0157735
838.811	0.0157149
838.889	0.0157620
838.967	0.0157695
839.045	0.0155623
839.123	0.0157109
839.201	0.0157941
839.280	0.0156653
839.358	0.0157809
839.436	0.0156258
839.514	0.0155293
839.592	0.0156168
839.670	0.0154993
839.748	0.0156036
839.826	0.0154598
839.905	0.0156103
839.983	0.0154166
840.061	0.0155527
840.139	0.0155556
840.217	0.0154401
840.295	0.0155830
840.373	0.0156097
840.451	0.0154940
840.530	0.0155152
840.608	0.0156060
840.686	0.0155521
840.764	0.0155501
840.842	0.0156686
840.920	0.0156515
840.998	0.0155883
841.076	0.0156008
841.155	0.0154868
841.233	0.0156088
841.311	0.0157320
841.389	0.0155337
841.467	0.0156129
841.545	0.0156506
841.623	0.0156413
841.701	0.0156187
841.780	0.0157301
841.858	0.0157043
841.936	0.0157256
842.014	0.0158621
842.092	0.0156017
842.170	0.0156735
842.248	0.0156322
842.326	0.0156026
842.405	0.0157161
842.483	0.0156237
842.561	0.0157584
842.639	0.0155742
842.717	0.0155116
842.795	0.0156406
842.873	0.0155661
842.951	0.0156203
843.030	0.0156136
843.108	0.0156248
843.186	0.0157726
843.264	0.0157837
843.342	0.0157075
843.420	0.0156700
843.498	0.0157928
843.576	0.0158942
843.655	0.0158307
843.733	0.0157158
843.811	0.0157199
843.889	0.0157658
843.967	0.0159047
844.045	0.0159872
844.123	0.0160662
844.201	0.0159443
844.280	0.0157468
844.358	0.0157568
844.436	0.0158215
844.514	0.0158226
844.592	0.0158135
844.670	0.0158056
844.748	0.0158013
844.826	0.0157639
844.905	0.0157330
844.983	0.0157465
845.061	0.0156686
845.139	0.0156278
845.217	0.0155907
845.295	0.0156544
845.373	0.0157268
845.451	0.0156036
845.530	0.0156570
845.608	0.0155790
845.686	0.0155029
845.764	0.0155717
845.842	0.0156474
845.920	0.0154842
845.998	0.0156094
846.076	0.0157319
846.155	0.0153946
846.233	0.0154194
846.311	0.0155329
846.389	0.0154526
846.467	0.0154463
846.545	0.0154617
846.623	0.0156240
846.701	0.0155074
846.780	0.0155724
846.858	0.0155185
846.936	0.0154968
847.014	0.0156796
847.092	0.0155521
847.170	0.0155991
847.248	0.0155898
847.326	0.0155903
847.405	0.0155560
847.483	0.0155125
847.561	0.0156843
847.639	0.0154649
847.717	0.0155466
847.795	0.0157420
847.873	0.0157441
847.951	0.0156481
848.030	0.0158628
848.108	0.0157535
848.186	0.0156071
848.264	0.0156977
848.342	0.0158064
848.420	0.0158434
848.498	0.0156301
848.576	0.0158237
848.655	0.0158167
848.733	0.0158230
848.811	0.0158143
848.889	0.0157056
848.967	0.0158009
849.045	0.0157933
849.123	0.0157172
849.201	0.0156935
849.280	0.0157384
849.358	0.0157671
849.436	0.0157810
849.514	0.0158952
849.592	0.0156712
849.670	0.0156082
849.748	0.0157244
849.826	0.0155479
849.905	0.0157401
849.983	0.0157558
850.061	0.0156634
850.139	0.0156873
850.217	0.0157195
850.295	0.0156271
850.373	0.0156454
850.451	0.0157809
850.530	0.0156367
850.608	0.0156501
850.686	0.0156901
850.764	0.0156702
850.842	0.0155782
850.920	0.0157444
850.998	0.0156204
851.076	0.0155868
851.155	0.0156947
851.233	0.0156820
851.311	0.0156535
851.389	0.0156854
851.467	0.0157264
851.545	0.0158184
851.623	0.0157586
851.701	0.0156269
851.780	0.0158216
851.858	0.0156522
851.936	0.0157526
852.014	0.0157534
852.092	0.0157571
852.170	0.0157204
852.248	0.0158094
852.326	0.0157573
852.405	0.0156591
852.483	0.0157037
852.561	0.0157373
852.639	0.0157206
852.717	0.0156646
852.795	0.0156351
852.873	0.0155901
852.951	0.0156363
853.030	0.0156618
853.108	0.0155257
853.186	0.0155733
853.264	0.0155090
853.342	0.0155624
853.420	0.0156308
853.498	0.0157362
853.576	0.0156841
853.655	0.0155537
853.733	0.0156230
853.811	0.0155816
853.889	0.0155448
853.967	0.0155756
854.045	0.0156074
854.123	0.0156406
854.201	0.0157544
854.280	0.0157488
854.358	0.0154958
854.436	0.0156659
854.514	0.0156676
854.592	0.0157246
854.670	0.0156053
854.748	0.0156944
854.826	0.0155776
854.905	0.0156098
854.983	0.0157927
855.061	0.0158395
855.139	0.0157867
855.217	0.0158076
855.295	0.0157879
855.373	0.0157748
855.451	0.0158836
855.530	0.0159121
855.608	0.0157831
855.686	0.0158133
855.764	0.0158677
855.842	0.0157010
855.920	0.0158529
855.998	0.0158337
856.076	0.0158132
856.155	0.0156634
856.233	0.0157771
856.311	0.0157432
856.389	0.0157471
856.467	0.0157124
856.545	0.0157130
856.623	0.0155869
856.701	0.0156048
856.780	0.0156303
856.858	0.0157204
856.936	0.0156094
857.014	0.0155586
857.092	0.0156005
857.170	0.0157083
857.248	0.0156429
857.326	0.0156070
857.405	0.0157439
857.483	0.0156225
857.561	0.0155677
857.639	0.0154993
857.717	0.0154858
857.795	0.0155640
857.873	0.0156351
857.951	0.0155350
858.030	0.0155290
858.108	0.0155786
858.186	0.0155843
858.264	0.0155698
858.342	0.0153824
858.420	0.0154666
858.498	0.0154925
858.576	0.0155901
858.655	0.0156718
858.733	0.0157332
858.811	0.0157067
858.889	0.0157074
858.967	0.0157009
859.045	0.0156803
859.123	0.0157696
859.201	0.0156563
859.280	0.0159016
859.358	0.0159248
859.436	0.0158300
859.514	0.0159253
859.592	0.0158920
859.670	0.0159496
859.748	0.0159137
859.826	0.0157932
859.905	0.0158794
859.983	0.0157553
860.061	0.0157443
860.139	0.0158563
860.217	0.0157076
860.295	0.0157220
860.373	0.0157629
860.451	0.0157582
860.530	0.0157217
860.608	0.0157039
860.686	0.0156759
860.764	0.0156361
860.842	0.0156891
860.920	0.0155870
860.998	0.0155533
861.076	0.0156303
861.155	0.0155536
861.233	0.0157019
861.311	0.0156100
861.389	0.0155157
861.467	0.0155970
861.545	0.0155234
861.623	0.0155836
861.701	0.0155011
861.780	0.0154348
861.858	0.0155000
861.936	0.0155175
862.014	0.0154744
862.092	0.0155083
862.170	0.0154380
862.248	0.0153870
862.326	0.0154936
862.405	0.0154862
862.483	0.0155543
862.561	0.0155498
862.639	0.0154760
862.717	0.0155740
862.795	0.0156005
862.873	0.0157352
862.951	0.0156703
863.030	0.0155769
863.108	0.0157138
863.186	0.0156924
863.264	0.0158373
863.342	0.0158269
863.420	0.0156474
863.498	0.0157977
863.576	0.0157751
863.655	0.0158920
863.733	0.0157882
863.811	0.0158859
863.889	0.0157784
863.967	0.0159200
864.045	0.0158472
864.123	0.0158453
864.201	0.0157112
864.280	0.0156905
864.358	0.0158320
864.436	0.0157408
864.514	0.0157397
864.592	0.0156503
864.670	0.0155667
864.748	0.0157919
864.826	0.0157682
864.905	0.0156577
864.983	0.0157454
865.061	0.0158316
865.139	0.0156780
865.217	0.0156578
865.295	0.0156249
865.373	0.0157317
865.451	0.0157318
865.530	0.0156178
865.608	0.0155564
865.686	0.0157001
865.764	0.0155757
865.842	0.0156169
865.920	0.0155798
865.998	0.0156332
866.076	0.0155956
866.155	0.0154904
866.233	0.0156022
866.311	0.0156919
866.389	0.0155838
866.467	0.0155253
866.545	0.0155486
866.623	0.0155357
866.701	0.0156010
866.780	0.0155407
866.858	0.0156485
866.936	0.0156036
867.014	0.0156431
867.092	0.0156101
867.170	0.0157344
867.248	0.0157306
867.326	0.0156384
867.405	0.0156586
867.483	0.0156004
867.561	0.0157958
867.639	0.0156850
867.717	0.0156886
867.795	0.0157763
867.873	0.0157417
867.951	0.0157674
868.030	0.0157931
868.108	0.0159068
868.186	0.0156816
868.264	0.0157511
868.342	0.0157094
868.420	0.0156714
868.498	0.0156525
868.576	0.0157400
868.655	0.0156567
868.733	0.0156163
868.811	0.0155262
868.889	0.0156758
868.967	0.0155509
869.045	0.0156116
869.123	0.0155579
869.201	0.0155216
869.280	0.0155785
869.358	0.0155721
869.436	0.0154803
869.514	0.0156002
869.592	0.0155173
869.670	0.0154717
869.748	0.0156703
869.826	0.0155359
869.905	0.0155177
869.983	0.0156157
870.061	0.0154788
870.139	0.0155927
870.217	0.0156257
870.295	0.0156742
870.373	0.0155551
870.451	0.0155626
870.530	0.0156962
870.608	0.0157792
870.686	0.0157484
870.764	0.0156493
870.842	0.0156905
870.920	0.0158171
870.998	0.0158087
871.076	0.0157839
871.155	0.0158347
871.233	0.0157571
871.311	0.0158212
871.389	0.0158392
871.467	0.0157593
871.545	0.0158398
871.623	0.0158722
871.701	0.0158746
871.780	0.0156914
871.858	0.0158006
871.936	0.0157371
872.014	0.0157616
872.092	0.0156858
872.170	0.0157713
872.248	0.0157416
872.326	0.0157514
872.405	0.0156791
872.483	0.0159190
872.561	0.0157347
872.639	0.0156523
872.717	0.0157150
872.795	0.0156817
872.873	0.0156133
872.951	0.0155646
873.030	0.0155274
873.108	0.0157491
873.186	0.0156721
873.264	0.0156151
873.342	0.0154763
873.420	0.0153568
873.498	0.0154957
873.576	0.0153395
873.655	0.0154234
873.733	0.0153916
873.811	0.0153934
873.889	0.0155041
873.967	0.0154802
874.045	0.0153908
874.123	0.0153833
874.201	0.0153474
874.280	0.0153736
874.358	0.0155431
874.436	0.0155830
874.514	0.0154668
874.592	0.0156679
874.670	0.0156148
874.748	0.0157011
874.826	0.0157465
874.905	0.0158442
874.983	0.0157998
875.061	0.0159121
875.139	0.0158492
875.217	0.0158144
875.295	0.0160172
875.373	0.0158486
875.451	0.0159207
875.530	0.0158585
875.608	0.0158814
875.686	0.0159142
875.764	0.0158021
875.842	0.0158511
875.920	0.0158852
875.998	0.0157322
876.076	0.0157439
876.155	0.0158083
876.233	0.0158537
876.311	0.0157563
876.389	0.0156269
876.467	0.0157747
876.545	0.0156996
876.623	0.0158067
876.701	0.0157943
876.780	0.0157220
876.858	0.0157755
876.936	0.0156616
877.014	0.0157523
877.092	0.0157689
877.170	0.0158038
877.248	0.0157577
877.326	0.0156370
877.405	0.0155343
877.483	0.0155558
877.561	0.0154321
877.639	0.0154708
877.717	0.0154451
877.795	0.0154372
877.873	0.0153126
877.951	0.0154544
878.030	0.0155242
878.108	0.0152684
878.186	0.0155112
878.264	0.0154151
878.342	0.0154030
878.420	0.0155112
878.498	0.0155755
878.576	0.0155045
878.655	0.0157469
878.733	0.0156878
878.811	0.0156387
878.889	0.0157641
878.967	0.0157714
879.045	0.0157901
879.123	0.0157349
879.201	0.0158269
879.280	0.0158513
879.358	0.0158361
879.436	0.0158228
879.514	0.0157482
879.592	0.0159158
879.670	0.0159055
879.748	0.0159035
879.826	0.0158862
879.905	0.0157040
879.983	0.0158089
880.061	0.0159148
880.139	0.0160348
880.217	0.0160345
880.295	0.0158996
880.373	0.0158743
880.451	0.0159742
880.530	0.0160098
880.608	0.0158637
880.686	0.0161228
880.764	0.0158776
880.842	0.0157491
880.920	0.0156583
880.998	0.0157295
881.076	0.0158282
881.155	0.0156693
881.233	0.0155421
881.311	0.0155309
881.389	0.0154918
881.467	0.0153384
881.545	0.0152536
881.623	0.0152122
881.701	0.0151093
881.780	0.0152496
881.858	0.0153813
881.936	0.0152647
882.014	0.0152395
882.092	0.0152093
882.170	0.0152731
882.248	0.0154716
882.326	0.0156624
882.405	0.0155969
882.483	0.0157455
882.561	0.0157361
882.639	0.0158698
882.717	0.0159647
882.795	0.0158723
882.873	0.0160961
882.951	0.0161441
883.030	0.0162047
883.108	0.0163143
883.186	0.0162675
883.264	0.0163020
883.342	0.0161165
883.420	0.0160979
883.498	0.0162191
883.576	0.0160425
883.655	0.0160423
883.733	0.0161599
883.811	0.0158955
883.889	0.0157782
883.967	0.0156841
884.045	0.0156371
884.123	0.0157478
884.201	0.0156614
884.280	0.0154770
884.358	0.0155187
884.436	0.0154020
884.514	0.0154729
884.592	0.0154546
884.670	0.0153391
884.748	0.0154058
884.826	0.0153299
884.905	0.0153973
884.983	0.0153207
885.061	0.0153429
885.139	0.0153245
885.217	0.0153875
885.295	0.0153725
885.373	0.0153396
885.451	0.0155958
885.530	0.0154745
885.608	0.0154077
885.686	0.0155155
885.764	0.0155052
885.842	0.0155082
885.920	0.0155158
885.998	0.0154639
886.076	0.0154612
886.155	0.0156069
886.233	0.0154330
886.311	0.0155750
886.389	0.0156412
886.467	0.0157852
886.545	0.0158575
886.623	0.0158539
886.701	0.0157425
886.780	0.0160415
886.858	0.0160426
886.936	0.0161098
887.014	0.0161023
887.092	0.0161128
887.170	0.0161187
887.248	0.0161504
887.326	0.0160519
887.405	0.0162531
887.483	0.0162011
887.561	0.0160799
887.639	0.0161807
887.717	0.0160828
887.795	0.0160119
887.873	0.0157528
887.951	0.0157855
888.030	0.0157909
888.108	0.0156949
888.186	0.0154731
888.264	0.0152777
888.342	0.0153956
888.420	0.0153403
888.498	0.0151714
888.576	0.0150803
888.655	0.0152701
888.733	0.0150574
888.811	0.0150954
888.889	0.0151328
888.967	0.0151498
889.045	0.0151396
889.123	0.0151604
889.201	0.0152790
889.280	0.0153185
889.358	0.0154607
889.436	0.0155701
889.514	0.0155477
889.592	0.0156033
889.670	0.0156586
889.748	0.0156577
889.826	0.0157870
889.905	0.0158524
889.983	0.0158044
890.061	0.0158178
890.139	0.0159245
890.217	0.0161449
890.295	0.0160641
890.373	0.0158774
890.451	0.0159570
890.530	0.0160134
890.608	0.0160091
890.686	0.0159775
890.764	0.0160054
890.842	0.0160885
890.920	0.0159158
890.998	0.0160005
891.076	0.0158906
891.155	0.0159804
891.233	0.0158659
891.311	0.0159059
891.389	0.0158201
891.467	0.0157649
891.545	0.0158716
891.623	0.0156979
891.701	0.0156963
891.780	0.0157490
891.858	0.0155634
891.936	0.0156068
892.014	0.0154607
892.092	0.0153433
892.170	0.0155154
892.248	0.0153844
892.326	0.0153966
892.405	0.0154053
892.483	0.0154181
892.561	0.0154111
892.639	0.0152331
892.717	0.0152674
892.795	0.0152058
892.873	0.0153012
892.951	0.0152782
893.030	0.0152733
893.108	0.0154333
893.186	0.0153003
893.264	0.0154996
893.342	0.0155862
893.420	0.0155863
893.498	0.0157622
893.576	0.0155330
893.655	0.0157481
893.733	0.0159211
893.811	0.0159112
893.889	0.0158315
893.967	0.0158477
894.045	0.0160068
894.123	0.0159901
894.201	0.0158440
894.280	0.0159234
894.358	0.0159474
894.436	0.0159503
894.514	0.0157482
894.592	0.0157537
894.670	0.0157903
894.748	0.0158450
894.826	0.0157137
894.905	0.0157156
894.983	0.0155818
895.061	0.0157117
895.139	0.0156559
895.217	0.0158034
895.295	0.0157111
895.373	0.0157405
895.451	0.0158361
895.530	0.0158292
895.608	0.0157293
895.686	0.0158752
895.764	0.0158114
895.842	0.0159314
895.920	0.0159692
895.998	0.0158996
896.076	0.0158141
896.155	0.0158867
896.233	0.0158614
896.311	0.0157967
896.389	0.0157284
896.467	0.0156569
896.545	0.0156984
896.623	0.0155962
896.701	0.0156668
896.780	0.0156597
896.858	0.0156601
896.936	0.0154723
897.014	0.0155554
897.092	0.0154856
897.170	0.0152628
897.248	0.0153670
897.326	0.0154750
897.405	0.0154053
897.483	0.0154087
897.561	0.0155571
897.639	0.0152484
897.717	0.0153561
897.795	0.0154587
897.873	0.0154540
897.951	0.0155445
898.030	0.0156702
898.108	0.0157041
898.186	0.0155815
898.264	0.0157832
898.342	0.0157810
898.420	0.0159798
898.498	0.0160744
898.576	0.0159736
898.655	0.0159300
898.733	0.0160945
898.811	0.0160349
898.889	0.0159261
898.967	0.0159550
899.045	0.0158601
899.123	0.0160239
899.201	0.0159457
899.280	0.0159449
899.358	0.0158063
899.436	0.0158550
899.514	0.0157408
899.592	0.0157199
899.670	0.0156931
899.748	0.0156942
899.826	0.0157797
899.905	0.0156488
899.983	0.0155672
900.061	0.0156216
900.139	0.0155743
900.217	0.0155206
900.295	0.0155924
900.373	0.0154700
900.451	0.0156207
900.530	0.0155701
900.608	0.0154905
900.686	0.0156823
900.764	0.0157635
900.842	0.0154913
900.920	0.0155206
900.998	0.0156764
901.076	0.0159451
901.155	0.0157039
901.233	0.0158047
901.311	0.0157981
901.389	0.0156631
901.467	0.0158307
901.545	0.0157970
901.623	0.0156987
901.701	0.0157607
901.780	0.0157366
901.858	0.0156964
901.936	0.0156785
902.014	0.0157164
902.092	0.0156496
902.170	0.0157041
902.248	0.0155275
902.326	0.0157026
902.405	0.0156346
902.483	0.0158200
902.561	0.0157285
902.639	0.0158114
902.717	0.0158894
902.795	0.0159461
902.873	0.0159129
902.951	0.0160178
903.030	0.0160433
903.108	0.0161590
903.186	0.0161081
903.264	0.0161829
903.342	0.0160555
903.420	0.0159822
903.498	0.0159859
903.576	0.0159678
903.655	0.0159527
903.733	0.0157550
903.811	0.0157840
903.889	0.0155919
903.967	0.0154269
904.045	0.0155354
904.123	0.0153267
904.201	0.0152557
904.280	0.0153914
904.358	0.0152076
904.436	0.0152293
904.514	0.0151617
904.592	0.0152211
904.670	0.0152714
904.748	0.0153719
904.826	0.0153008
904.905	0.0154196
904.983	0.0153603
905.061	0.0154767
905.139	0.0157926
905.217	0.0155294
905.295	0.0157375
905.373	0.0158158
905.451	0.0157414
905.530	0.0159219
905.608	0.0159256
905.686	0.0158938
905.764	0.0158601
905.842	0.0159169
905.920	0.0158913
905.998	0.0157530
906.076	0.0158111
906.155	0.0158921
906.233	0.0157658
906.311	0.0160031
906.389	0.0159969
906.467	0.0160552
906.545	0.0160004
906.623	0.0158221
906.701	0.0157934
906.780	0.0157610
906.858	0.0159379
906.936	0.0159472
907.014	0.0158974
907.092	0.0157552
907.170	0.0157233
907.248	0.0157803
907.326	0.0157561
907.405	0.0157417
907.483	0.0155627
907.561	0.0156230
907.639	0.0155886
907.717	0.0155475
907.795	0.0154899
907.873	0.0156157
907.951	0.0155420
908.030	0.0155267
908.108	0.0155720
908.186	0.0156030
908.264	0.0155130
908.342	0.0155525
908.420	0.0155235
908.498	0.0155496
908.576	0.0156676
908.655	0.0157156
908.733	0.0157097
908.811	0.0156187
908.889	0.0155741
908.967	0.0155075
909.045	0.0155722
909.123	0.0155889
909.201	0.0156541
909.280	0.0156204
909.358	0.0155436
909.436	0.0155650
909.514	0.0156083
909.592	0.0153779
909.670	0.0155125
909.748	0.0155511
909.826	0.0154176
909.905	0.0154513
909.983	0.0155969
910.061	0.0155270
910.139	0.0156108
910.217	0.0156069
910.295	0.0156827
910.373	0.0156915
910.451	0.0157529
910.530	0.0156964
910.608	0.0157044
910.686	0.0157369
910.764	0.0158233
910.842	0.0158424
910.920	0.0159965
910.998	0.0159808
911.076	0.0160309
911.155	0.0158990
911.233	0.0158871
911.311	0.0160514
911.389	0.0160164
911.467	0.0159720
911.545	0.0159854
911.623	0.0159749
911.701	0.0159151
911.780	0.0160309
911.858	0.0158113
911.936	0.0158916
912.014	0.0159650
912.092	0.0158762
912.170	0.0158314
912.248	0.0156712
912.326	0.0157835
912.405	0.0157233
912.483	0.0156091
912.561	0.0156599
912.639	0.0156973
912.717	0.0155840
912.795	0.0154636
912.873	0.0155523
912.951	0.0154664
913.030	0.0154706
913.108	0.0153709
913.186	0.0153838
913.264	0.0153676
913.342	0.0153507
913.420	0.0154868
913.498	0.0153445
913.576	0.0154131
913.655	0.0153987
913.733	0.0154685
913.811	0.0155646
913.889	0.0155990
913.967	0.0156517
914.045	0.0157466
914.123	0.0157114
914.201	0.0156547
914.280	0.0157677
914.358	0.0156659
914.436	0.0155450
914.514	0.0156950
914.592	0.0158637
914.670	0.0157167
914.748	0.0156478
914.826	0.0159269
914.905	0.0157923
914.983	0.0157781
915.061	0.0156032
915.139	0.0156258
915.217	0.0157040
915.295	0.0157079
915.373	0.0157928
915.451	0.0156538
915.530	0.0157378
915.608	0.0157448
915.686	0.0159368
915.764	0.0159106
915.842	0.0157491
915.920	0.0159226
915.998	0.0158640
916.076	0.0157526
916.155	0.0158853
916.233	0.0158289
916.311	0.0157718
916.389	0.0158475
916.467	0.0158792
916.545	0.0157158
916.623	0.0158026
916.701	0.0157581
916.780	0.0158334
916.858	0.0158027
916.936	0.0156344
917.014	0.0156187
917.092	0.0155900
917.170	0.0157294
917.248	0.0156259
917.326	0.0156348
917.405	0.0156699
917.483	0.0157525
917.561	0.0156382
917.639	0.0156359
917.717	0.0156272
917.795	0.0156422
917.873	0.0156094
917.951	0.0156154
918.030	0.0156039
918.108	0.0155820
918.186	0.0157936
918.264	0.0155875
918.342	0.0157305
918.420	0.0158141
918.498	0.0157610
918.576	0.0156429
918.655	0.0156397
918.733	0.0157870
918.811	0.0156759
918.889	0.0157195
918.967	0.0157464
919.045	0.0157659
919.123	0.0156345
919.201	0.0156580
919.280	0.0157422
919.358	0.0157911
919.436	0.0158057
919.514	0.0157310
919.592	0.0157249
919.670	0.0158222
919.748	0.0157969
919.826	0.0158302
919.905	0.0157654
919.983	0.0158034
920.061	0.0158497
920.139	0.0157710
920.217	0.0156348
920.295	0.0156507
920.373	0.0157438
920.451	0.0157058
920.530	0.0156699
920.608	0.0156636
920.686	0.0156635
920.764	0.0155421
920.842	0.0156278
920.920	0.0157618
920.998	0.0156546
921.076	0.0157970
921.155	0.0157160
921.233	0.0155853
921.311	0.0157194
921.389	0.0158309
921.467	0.0156750
921.545	0.0158424
921.623	0.0158183
921.701	0.0157523
921.780	0.0158160
921.858	0.0157369
921.936	0.0157563
922.014	0.0159254
922.092	0.0159144
922.170	0.0158990
922.248	0.0158109
922.326	0.0157903
922.405	0.0157877
922.483	0.0158640
922.561	0.0158251
922.639	0.0157183
922.717	0.0157608
922.795	0.0157253
922.873	0.0157628
922.951	0.0157454
923.030	0.0158312
923.108	0.0156368
923.186	0.0157785
923.264	0.0157079
923.342	0.0156541
923.420	0.0155510
923.498	0.0156377
923.576	0.0156979
923.655	0.0157643
923.733	0.0155894
923.811	0.0156449
923.889	0.0157319
923.967	0.0156655
924.045	0.0156602
924.123	0.0156659
924.201	0.0156622
924.280	0.0157730
924.358	0.0156966
924.436	0.0156995
924.514	0.0156596
924.592	0.0156029
924.670	0.0157418
924.748	0.0157848
924.826	0.0156963
924.905	0.0158017
924.983	0.0158318
925.061	0.0158416
925.139	0.0157314
925.217	0.0157262
925.295	0.0157558
925.373	0.0158441
925.451	0.0157028
925.530	0.0157884
925.608	0.0158331
925.686	0.0159353
925.764	0.0159077
925.842	0.0157645
925.920	0.0157961
925.998	0.0158358
926.076	0.0156125
926.155	0.0156969
926.233	0.0159188
926.311	0.0156893
926.389	0.0157883
926.467	0.0158315
926.545	0.0156931
926.623	0.0157590
926.701	0.0158443
926.780	0.0156483
926.858	0.0157665
926.936	0.0156841
927.014	0.0157941
927.092	0.0156149
927.170	0.0155685
927.248	0.0156939
927.326	0.0156751
927.405	0.0156702
927.483	0.0155434
927.561	0.0155235
927.639	0.0155374
927.717	0.0156184
927.795	0.0156631
927.873	0.0154465
927.951	0.0157835
928.030	0.0156280
928.108	0.0156991
928.186	0.0156179
928.264	0.0156712
928.342	0.0157021
928.420	0.0156830
928.498	0.0156044
928.576	0.0154938
928.655	0.0156354
928.733	0.0155794
928.811	0.0157059
928.889	0.0157772
928.967	0.0157137
929.045	0.0157484
929.123	0.0156377
929.201	0.0156982
929.280	0.0156773
929.358	0.0158558
929.436	0.0156736
929.514	0.0157306
929.592	0.0159016
929.670	0.0157937
929.748	0.0157886
929.826	0.0158064
929.905	0.0157909
929.983	0.0157704
930.061	0.0159064
930.139	0.0158078
930.217	0.0158579
930.295	0.0157239
930.373	0.0158577
930.451	0.0158064
930.530	0.0157992
930.608	0.0158837
930.686	0.0157414
930.764	0.0157137
930.842	0.0156606
930.920	0.0157243
930.998	0.0155898
931.076	0.0156610
931.155	0.0154682
931.233	0.0156061
931.311	0.0156267
931.389	0.0154158
931.467	0.0154427
931.545	0.0154578
931.623	0.0155730
931.701	0.0155318
931.780	0.0154657
931.858	0.0155193
931.936	0.0154348
932.014	0.0154138
932.092	0.0153541
932.170	0.0155025
932.248	0.0155444
932.326	0.0155391
932.405	0.0155434
932.483	0.0156657
932.561	0.0157770
932.639	0.0157407
932.717	0.0157280
932.795	0.0156501
932.873	0.0156805
932.951	0.0156968
933.030	0.0156965
933.108	0.0156292
933.186	0.0156311
933.264	0.0157048
933.342	0.0157345
933.420	0.0156964
933.498	0.0157587
933.576	0.0156843
933.655	0.0157361
933.733	0.0157513
933.811	0.0156751
933.889	0.0157320
933.967	0.0156653
934.045	0.0156425
934.123	0.0156246
934.201	0.0156213
934.280	0.0157474
934.358	0.0157488
934.436	0.0156474
934.514	0.0157238
934.592	0.0156051
934.670	0.0157527
934.748	0.0156861
934.826	0.0156902
934.905	0.0157793
934.983	0.0156986
935.061	0.0156611
935.139	0.0156960
935.217	0.0158286
935.295	0.0157247
935.373	0.0157671
935.451	0.0157203
935.530	0.0157872
935.608	0.0157179
935.686	0.0158327
935.764	0.0157144
935.842	0.0156855
935.920	0.0156010
935.998	0.0156660
936.076	0.0155292
936.155	0.0156422
936.233	0.0157990
936.311	0.0157623
936.389	0.0157509
936.467	0.0157331
936.545	0.0158218
936.623	0.0158975
936.701	0.0158291
936.780	0.0158212
936.858	0.0158128
936.936	0.0157722
937.014	0.0157358
937.092	0.0155385
937.170	0.0156357
937.248	0.0157327
937.326	0.0157549
937.405	0.0156361
937.483	0.0155795
937.561	0.0154926
937.639	0.0154861
937.717	0.0155560
937.795	0.0154141
937.873	0.0155029
937.951	0.0153078
938.030	0.0154348
938.108	0.0154269
938.186	0.0155976
938.264	0.0154933
938.342	0.0155572
938.420	0.0155295
938.498	0.0156126
938.576	0.0156676
938.655	0.0158595
938.733	0.0158186
938.811	0.0157587
938.889	0.0158778
938.967	0.0159156
939.045	0.0158979
939.123	0.0159630
939.201	0.0159442
939.280	0.0159460
939.358	0.0159226
939.436	0.0159111
939.514	0.0158621
939.592	0.0158418
939.670	0.0158202
939.748	0.0158725
939.826	0.0157714
939.905	0.0157208
939.983	0.0157631
940.061	0.0158121
940.139	0.0158345
940.217	0.0157635
940.295	0.0156779
940.373	0.0156934
940.451	0.0156315
940.530	0.0157878
940.608	0.0155801
940.686	0.0156161
940.764	0.0157044
940.842	0.0157233
940.920	0.0156879
940.998	0.0156761
941.076	0.0155745
941.155	0.0156859
941.233	0.0156758
941.311	0.0155019
941.389	0.0156154
941.467	0.0155712
941.545	0.0154391
941.623	0.0155215
941.701	0.0156222
941.780	0.0155000
941.858	0.0154847
941.936	0.0154784
942.014	0.0155908
942.092	0.0154041
942.170	0.0156190
942.248	0.0156406
942.326	0.0155800
942.405	0.0157419
942.483	0.0157899
942.561	0.0157275
942.639	0.0157211
942.717	0.0156207
942.795	0.0158405
942.873	0.0159997
942.951	0.0158429
943.030	0.0158971
943.108	0.0158957
943.186	0.0158264
943.264	0.0160088
943.342	0.0158327
943.420	0.0158257
943.498	0.0158429
943.576	0.0157113
943.655	0.0158668
943.733	0.0156818
943.811	0.0155334
943.889	0.0157023
943.967	0.0156439
944.045	0.0155934
944.123	0.0156295
944.201	0.0155098
944.280	0.0155607
944.358	0.0154874
944.436	0.0157323
944.514	0.0156790
944.592	0.0156610
944.670	0.0155614
944.748	0.0155564
944.826	0.0156474
944.905	0.0157198
944.983	0.0156408
945.061	0.0156298
945.139	0.0156037
945.217	0.0156727
945.295	0.0156133
945.373	0.0156768
945.451	0.0155994
945.530	0.0156573
945.608	0.0156593
945.686	0.0157060
945.764	0.0155954
945.842	0.0155684
945.920	0.0156390
945.998	0.0157595
946.076	0.0156712
946.155	0.0156475
946.233	0.0158239
946.311	0.0158538
946.389	0.0158981
946.467	0.0159040
946.545	0.0159216
946.623	0.0159506
946.701	0.0159435
946.780	0.0157974
946.858	0.0159319
946.936	0.0159087
947.014	0.0158346
947.092	0.0157384
947.170	0.0158428
947.248	0.0158326
947.326	0.0157864
947.405	0.0156896
947.483	0.0156109
947.561	0.0157700
947.639	0.0156944
947.717	0.0156130
947.795	0.0155489
947.873	0.0157304
947.951	0.0156688
948.030	0.0155960
948.108	0.0157401
948.186	0.0156261
948.264	0.0157310
948.342	0.0156478
948.420	0.0156596
948.498	0.0155045
948.576	0.0155799
948.655	0.0156362
948.733	0.0155015
948.811	0.0156004
948.889	0.0155627
948.967	0.0155378
949.045	0.0156155
949.123	0.0154983
949.201	0.0155107
949.280	0.0156322
949.358	0.0154557
949.436	0.0154647
949.514	0.0155139
949.592	0.0155383
949.670	0.0153944
949.748	0.0155706
949.826	0.0155885
949.905	0.0155901
949.983	0.0156970
950.061	0.0158553
950.139	0.0159236
950.217	0.0158719
950.295	0.0160047
950.373	0.0159022
950.451	0.0158878
950.530	0.0159367
950.608	0.0159165
950.686	0.0158047
950.764	0.0158497
950.842	0.0158916
950.920	0.0158633
950.998	0.0158631
951.076	0.0157729
951.155	0.0156178
951.233	0.0157465
951.311	0.0157487
951.389	0.0157413
951.467	0.0156479
951.545	0.0155511
951.623	0.0153595
951.701	0.0156244
951.780	0.0155197
951.858	0.0156211
951.936	0.0156224
952.014	0.0156090
952.092	0.0155868
952.170	0.0156286
952.248	0.0157408
952.326	0.0157492
952.405	0.0157912
952.483	0.0156354
952.561	0.0157157
952.639	0.0158123
952.717	0.0156423
952.795	0.0156741
952.873	0.0155859
952.951	0.0156419
953.030	0.0155480
953.108	0.0154959
953.186	0.0154460
953.264	0.0154937
953.342	0.0155349
953.420	0.0154584
953.498	0.0154667
953.576	0.0155102
953.655	0.0154912
953.733	0.0154871
953.811	0.0155069
953.889	0.0155189
953.967	0.0155693
954.045	0.0155786
954.123	0.0158065
954.201	0.0157906
954.280	0.0156668
954.358	0.0158277
954.436	0.0157172
954.514	0.0159571
954.592	0.0159282
954.670	0.0159006
954.748	0.0156989
954.826	0.0158414
954.905	0.0158196
954.983	0.0157127
955.061	0.0158317
955.139	0.0157379
955.217	0.0158182
955.295	0.0156882
955.373	0.0156833
955.451	0.0157544
955.530	0.0157091
955.608	0.0155705
955.686	0.0157058
955.764	0.0157004
955.842	0.0156490
955.920	0.0157260
955.998	0.0156178
956.076	0.0156525
956.155	0.0157116
956.233	0.0158105
956.311	0.0157021
956.389	0.0155887
956.467	0.0156631
956.545	0.0156310
956.623	0.0156421
956.701	0.0157871
956.780	0.0156814
956.858	0.0155392
956.936	0.0156082
957.014	0.0156003
957.092	0.0154951
957.170	0.0155545
957.248	0.0155329
957.326	0.0155534
957.405	0.0157050
957.483	0.0155285
957.561	0.0154757
957.639	0.0155417
957.717	0.0156429
957.795	0.0155669
957.873	0.0155867
957.951	0.0157055
958.030	0.0158005
958.108	0.0157057
958.186	0.0157738
958.264	0.0158884
958.342	0.0157848
958.420	0.0158448
958.498	0.0158245
958.576	0.0159264
958.655	0.0160664
958.733	0.0159174
958.811	0.0160355
958.889	0.0159464
958.967	0.0158914
959.045	0.0158096
959.123	0.0158160
959.201	0.0156967
959.280	0.0157545
959.358	0.0158748
959.436	0.0157644
959.514	0.0158204
959.592	0.0156812
959.670	0.0155784
959.748	0.0156303
959.826	0.0156054
959.905	0.0156451
