05/17/2022	16:40:08	Ver.	4.1	UNKNOWN
Optical Delay	639.989416	Delta X		0.078125	Sweeps	1	Scan Rate	0/0
Coordinates	Axis 1	NaN	Axis 2	NaN	Axis 3	NaN	Axis 4	NaN	Axis 5	NaN	Axis 6	0.000000
TX Power	0.000000	RX Power	0.000000

639.989	0.0155981
640.068	0.0155705
640.146	0.0157117
640.224	0.0156650
640.302	0.0155716
640.380	0.0156503
640.458	0.0154214
640.536	0.0155117
640.614	0.0156414
640.693	0.0156735
640.771	0.0154212
640.849	0.0155389
640.927	0.0155262
641.005	0.0155402
641.083	0.0155531
641.161	0.0155996
641.239	0.0156071
641.318	0.0155244
641.396	0.0156946
641.474	0.0156787
641.552	0.0156367
641.630	0.0156432
641.708	0.0156505
641.786	0.0156092
641.864	0.0155768
641.943	0.0157007
642.021	0.0157207
642.099	0.0156933
642.177	0.0156985
642.255	0.0154849
642.333	0.0156331
642.411	0.0155930
642.489	0.0156709
642.568	0.0155292
642.646	0.0156740
642.724	0.0156147
642.802	0.0156219
642.880	0.0155403
642.958	0.0155103
643.036	0.0155209
643.114	0.0157001
643.193	0.0155930
643.271	0.0155592
643.349	0.0154192
643.427	0.0155448
643.505	0.0155499
643.583	0.0154361
643.661	0.0156825
643.739	0.0157030
643.818	0.0155608
643.896	0.0155669
643.974	0.0155743
644.052	0.0157098
644.130	0.0155975
644.208	0.0155198
644.286	0.0155603
644.364	0.0155123
644.443	0.0155655
644.521	0.0155798
644.599	0.0155766
644.677	0.0155553
644.755	0.0155506
644.833	0.0155894
644.911	0.0154684
644.989	0.0155608
645.068	0.0156625
645.146	0.0157097
645.224	0.0154904
645.302	0.0154321
645.380	0.0154851
645.458	0.0154540
645.536	0.0155379
645.614	0.0155413
645.693	0.0156498
645.771	0.0155569
645.849	0.0154983
645.927	0.0154669
646.005	0.0155896
646.083	0.0155171
646.161	0.0155946
646.239	0.0155856
646.318	0.0155691
646.396	0.0156329
646.474	0.0155873
646.552	0.0156672
646.630	0.0154452
646.708	0.0155267
646.786	0.0157467
646.864	0.0155730
646.943	0.0155140
647.021	0.0156874
647.099	0.0156016
647.177	0.0155901
647.255	0.0156355
647.333	0.0155755
647.411	0.0155242
647.489	0.0156461
647.568	0.0155569
647.646	0.0155820
647.724	0.0156295
647.802	0.0155833
647.880	0.0154913
647.958	0.0156900
648.036	0.0155853
648.114	0.0155719
648.193	0.0156380
648.271	0.0155853
648.349	0.0155698
648.427	0.0157286
648.505	0.0155327
648.583	0.0154797
648.661	0.0156664
648.739	0.0156351
648.818	0.0154818
648.896	0.0155849
648.974	0.0155734
649.052	0.0155965
649.130	0.0156392
649.208	0.0155135
649.286	0.0156778
649.364	0.0157464
649.443	0.0154835
649.521	0.0156647
649.599	0.0156676
649.677	0.0155244
649.755	0.0156065
649.833	0.0155594
649.911	0.0155093
649.989	0.0154926
650.068	0.0155800
650.146	0.0155863
650.224	0.0155428
650.302	0.0155273
650.380	0.0155790
650.458	0.0154576
650.536	0.0155179
650.614	0.0154839
650.693	0.0156057
650.771	0.0156500
650.849	0.0155014
650.927	0.0156043
651.005	0.0155624
651.083	0.0154607
651.161	0.0155601
651.239	0.0155230
651.318	0.0155627
651.396	0.0156331
651.474	0.0155367
651.552	0.0155364
651.630	0.0156189
651.708	0.0156484
651.786	0.0156121
651.864	0.0155858
651.943	0.0154766
652.021	0.0155588
652.099	0.0155029
652.177	0.0156316
652.255	0.0156485
652.333	0.0157220
652.411	0.0157397
652.489	0.0156536
652.568	0.0158064
652.646	0.0156572
652.724	0.0155309
652.802	0.0155455
652.880	0.0155209
652.958	0.0156066
653.036	0.0155434
653.114	0.0156600
653.193	0.0157000
653.271	0.0155432
653.349	0.0156039
653.427	0.0155747
653.505	0.0155719
653.583	0.0155919
653.661	0.0156005
653.739	0.0155936
653.818	0.0155781
653.896	0.0156169
653.974	0.0156476
654.052	0.0155812
654.130	0.0156008
654.208	0.0155583
654.286	0.0154192
654.364	0.0157040
654.443	0.0156535
654.521	0.0155277
654.599	0.0156926
654.677	0.0155222
654.755	0.0155749
654.833	0.0155999
654.911	0.0155803
654.989	0.0154866
655.068	0.0154464
655.146	0.0155460
655.224	0.0156919
655.302	0.0154720
655.380	0.0155117
655.458	0.0156107
655.536	0.0155013
655.614	0.0156403
655.693	0.0155003
655.771	0.0156377
655.849	0.0156574
655.927	0.0155506
656.005	0.0155560
656.083	0.0156203
656.161	0.0156058
656.239	0.0155016
656.318	0.0154878
656.396	0.0156462
656.474	0.0155080
656.552	0.0155682
656.630	0.0155930
656.708	0.0155833
656.786	0.0155373
656.864	0.0156460
656.943	0.0155890
657.021	0.0156593
657.099	0.0156158
657.177	0.0156319
657.255	0.0155479
657.333	0.0155106
657.411	0.0155599
657.489	0.0155784
657.568	0.0155789
657.646	0.0157175
657.724	0.0156193
657.802	0.0155432
657.880	0.0155499
657.958	0.0155214
658.036	0.0155663
658.114	0.0156374
658.193	0.0155968
658.271	0.0156496
658.349	0.0157967
658.427	0.0157717
658.505	0.0156252
658.583	0.0155809
658.661	0.0154375
658.739	0.0155852
658.818	0.0156573
658.896	0.0157104
658.974	0.0156212
659.052	0.0155257
659.130	0.0156171
659.208	0.0155371
659.286	0.0156284
659.364	0.0154749
659.443	0.0154559
659.521	0.0154740
659.599	0.0156088
659.677	0.0155566
659.755	0.0155988
659.833	0.0155865
659.911	0.0156508
659.989	0.0154697
660.068	0.0155553
660.146	0.0156783
660.224	0.0156233
660.302	0.0155753
660.380	0.0155618
660.458	0.0156168
660.536	0.0157397
660.614	0.0156985
660.693	0.0156440
660.771	0.0156311
660.849	0.0156577
660.927	0.0157512
661.005	0.0155005
661.083	0.0154874
661.161	0.0155746
661.239	0.0155672
661.318	0.0155995
661.396	0.0156381
661.474	0.0156336
661.552	0.0156036
661.630	0.0155979
661.708	0.0156574
661.786	0.0155679
661.864	0.0155918
661.943	0.0156557
662.021	0.0156367
662.099	0.0156689
662.177	0.0155570
662.255	0.0157053
662.333	0.0156527
662.411	0.0155983
662.489	0.0155921
662.568	0.0156418
662.646	0.0156770
662.724	0.0155559
662.802	0.0154976
662.880	0.0155386
662.958	0.0157201
663.036	0.0155125
663.114	0.0156062
663.193	0.0156198
663.271	0.0156431
663.349	0.0155899
663.427	0.0155858
663.505	0.0155927
663.583	0.0156356
663.661	0.0156600
663.739	0.0155954
663.818	0.0155483
663.896	0.0155460
663.974	0.0155740
664.052	0.0155730
664.130	0.0155391
664.208	0.0155892
664.286	0.0155603
664.364	0.0154420
664.443	0.0154505
664.521	0.0156776
664.599	0.0156120
664.677	0.0155582
664.755	0.0155997
664.833	0.0155750
664.911	0.0155999
664.989	0.0155879
665.068	0.0154594
665.146	0.0154305
665.224	0.0155379
665.302	0.0155560
665.380	0.0155634
665.458	0.0155888
665.536	0.0154523
665.614	0.0156408
665.693	0.0154546
665.771	0.0156400
665.849	0.0156264
665.927	0.0156145
666.005	0.0155736
666.083	0.0156570
666.161	0.0154902
666.239	0.0155769
666.318	0.0156464
666.396	0.0155979
666.474	0.0155965
666.552	0.0155542
666.630	0.0155190
666.708	0.0156151
666.786	0.0156138
666.864	0.0156767
666.943	0.0156505
667.021	0.0156787
667.099	0.0155300
667.177	0.0155392
667.255	0.0156069
667.333	0.0157309
667.411	0.0155266
667.489	0.0154369
667.568	0.0155870
667.646	0.0155230
667.724	0.0156042
667.802	0.0157178
667.880	0.0157653
667.958	0.0156461
668.036	0.0156236
668.114	0.0155259
668.193	0.0155846
668.271	0.0156792
668.349	0.0156246
668.427	0.0154738
668.505	0.0156430
668.583	0.0156719
668.661	0.0158180
668.739	0.0156570
668.818	0.0154829
668.896	0.0155240
668.974	0.0156776
669.052	0.0156993
669.130	0.0156112
669.208	0.0155420
669.286	0.0154874
669.364	0.0156275
669.443	0.0156812
669.521	0.0157027
669.599	0.0156549
669.677	0.0155039
669.755	0.0155416
669.833	0.0155824
669.911	0.0157427
669.989	0.0156483
670.068	0.0156157
670.146	0.0156643
670.224	0.0155193
670.302	0.0156149
670.380	0.0156447
670.458	0.0154922
670.536	0.0155367
670.614	0.0156717
670.693	0.0155840
670.771	0.0155305
670.849	0.0156467
670.927	0.0156943
671.005	0.0155627
671.083	0.0154225
671.161	0.0155235
671.239	0.0156095
671.318	0.0157849
671.396	0.0156656
671.474	0.0156508
671.552	0.0156225
671.630	0.0156995
671.708	0.0156237
671.786	0.0155579
671.864	0.0156132
671.943	0.0155793
672.021	0.0156293
672.099	0.0155998
672.177	0.0156164
672.255	0.0155694
672.333	0.0156391
672.411	0.0157004
672.489	0.0155738
672.568	0.0155668
672.646	0.0155659
672.724	0.0155936
672.802	0.0156522
672.880	0.0157626
672.958	0.0155135
673.036	0.0156679
673.114	0.0157027
673.193	0.0156902
673.271	0.0156559
673.349	0.0155666
673.427	0.0154468
673.505	0.0155827
673.583	0.0156313
673.661	0.0155225
673.739	0.0156908
673.818	0.0155972
673.896	0.0155883
673.974	0.0156225
674.052	0.0156044
674.130	0.0156513
674.208	0.0156006
674.286	0.0155684
674.364	0.0157237
674.443	0.0156448
674.521	0.0156433
674.599	0.0154818
674.677	0.0157116
674.755	0.0156683
674.833	0.0155763
674.911	0.0157008
674.989	0.0155331
675.068	0.0155174
675.146	0.0155559
675.224	0.0156088
675.302	0.0157365
675.380	0.0157298
675.458	0.0155082
675.536	0.0153537
675.614	0.0155460
675.693	0.0156461
675.771	0.0156855
675.849	0.0156334
675.927	0.0156722
676.005	0.0155721
676.083	0.0155824
676.161	0.0156231
676.239	0.0154064
676.318	0.0157182
676.396	0.0156002
676.474	0.0157300
676.552	0.0155487
676.630	0.0157614
676.708	0.0156020
676.786	0.0155608
676.864	0.0156419
676.943	0.0157093
677.021	0.0156683
677.099	0.0155698
677.177	0.0156795
677.255	0.0155643
677.333	0.0157133
677.411	0.0156152
677.489	0.0156041
677.568	0.0155149
677.646	0.0156502
677.724	0.0155231
677.802	0.0154020
677.880	0.0154788
677.958	0.0155264
678.036	0.0156686
678.114	0.0156264
678.193	0.0155521
678.271	0.0154830
678.349	0.0154240
678.427	0.0154977
678.505	0.0156232
678.583	0.0155792
678.661	0.0156237
678.739	0.0154650
678.818	0.0156480
678.896	0.0154882
678.974	0.0156247
679.052	0.0155000
679.130	0.0155412
679.208	0.0157126
679.286	0.0156227
679.364	0.0156300
679.443	0.0156251
679.521	0.0157070
679.599	0.0156553
679.677	0.0156816
679.755	0.0156937
679.833	0.0155903
679.911	0.0154881
679.989	0.0154847
680.068	0.0156300
680.146	0.0153959
680.224	0.0156450
680.302	0.0156332
680.380	0.0156317
680.458	0.0156128
680.536	0.0156061
680.614	0.0154623
680.693	0.0155695
680.771	0.0156802
680.849	0.0157336
680.927	0.0155738
681.005	0.0155973
681.083	0.0156255
681.161	0.0155386
681.239	0.0157614
681.318	0.0157368
681.396	0.0156971
681.474	0.0156693
681.552	0.0156075
681.630	0.0157165
681.708	0.0157727
681.786	0.0157339
681.864	0.0155802
681.943	0.0156194
682.021	0.0153806
682.099	0.0155383
682.177	0.0153983
682.255	0.0154327
682.333	0.0153650
682.411	0.0153159
682.489	0.0153353
682.568	0.0153538
682.646	0.0155179
682.724	0.0155666
682.802	0.0156434
682.880	0.0155182
682.958	0.0155994
683.036	0.0155301
683.114	0.0156187
683.193	0.0155936
683.271	0.0155517
683.349	0.0155950
683.427	0.0155292
683.505	0.0157224
683.583	0.0156871
683.661	0.0158754
683.739	0.0155363
683.818	0.0156393
683.896	0.0156769
683.974	0.0156927
684.052	0.0154424
684.130	0.0154849
684.208	0.0155148
684.286	0.0154720
684.364	0.0155140
684.443	0.0154327
684.521	0.0155276
684.599	0.0154028
684.677	0.0155339
684.755	0.0155964
684.833	0.0157161
684.911	0.0159446
684.989	0.0159254
685.068	0.0160206
685.146	0.0157421
685.224	0.0159496
685.302	0.0160371
685.380	0.0160603
685.458	0.0159314
685.536	0.0159828
685.614	0.0159261
685.693	0.0158052
685.771	0.0156475
685.849	0.0155667
685.927	0.0155640
686.005	0.0154002
686.083	0.0152248
686.161	0.0151523
686.239	0.0151589
686.318	0.0148512
686.396	0.0146887
686.474	0.0146950
686.552	0.0145375
686.630	0.0146436
686.708	0.0145607
686.786	0.0145255
686.864	0.0147180
686.943	0.0148126
687.021	0.0146606
687.099	0.0148512
687.177	0.0150548
687.255	0.0152432
687.333	0.0152448
687.411	0.0155441
687.489	0.0159528
687.568	0.0158670
687.646	0.0160562
687.724	0.0163455
687.802	0.0165317
687.880	0.0167611
687.958	0.0168874
688.036	0.0172219
688.114	0.0175192
688.193	0.0174950
688.271	0.0175742
688.349	0.0174889
688.427	0.0175638
688.505	0.0175716
688.583	0.0173578
688.661	0.0172827
688.739	0.0171170
688.818	0.0169922
688.896	0.0166355
688.974	0.0161534
689.052	0.0157862
689.130	0.0155031
689.208	0.0150591
689.286	0.0143899
689.364	0.0140392
689.443	0.0137328
689.521	0.0133569
689.599	0.0128650
689.677	0.0123660
689.755	0.0120258
689.833	0.0118852
689.911	0.0116940
689.989	0.0117525
690.068	0.0117606
690.146	0.0119105
690.224	0.0123505
690.302	0.0129345
690.380	0.0132989
690.458	0.0139875
690.536	0.0144928
690.614	0.0151939
690.693	0.0159339
690.771	0.0167020
690.849	0.0173647
690.927	0.0179967
691.005	0.0184926
691.083	0.0190021
691.161	0.0194558
691.239	0.0197955
691.318	0.0200782
691.396	0.0201402
691.474	0.0201366
691.552	0.0201454
691.630	0.0200492
691.708	0.0198180
691.786	0.0194177
691.864	0.0191831
691.943	0.0185865
692.021	0.0180898
692.099	0.0175992
692.177	0.0169421
692.255	0.0161934
692.333	0.0155401
692.411	0.0150534
692.489	0.0144057
692.568	0.0138551
692.646	0.0133610
692.724	0.0132466
692.802	0.0129707
692.880	0.0127179
692.958	0.0126466
693.036	0.0127588
693.114	0.0126608
693.193	0.0126394
693.271	0.0126112
693.349	0.0125874
693.427	0.0126498
693.505	0.0125713
693.583	0.0126939
693.661	0.0125303
693.739	0.0125597
693.818	0.0125446
693.896	0.0126360
693.974	0.0129517
694.052	0.0129907
694.130	0.0130477
694.208	0.0131914
694.286	0.0133418
694.364	0.0133947
694.443	0.0137492
694.521	0.0140165
694.599	0.0142964
694.677	0.0146028
694.755	0.0151806
694.833	0.0158772
694.911	0.0166196
694.989	0.0172911
695.068	0.0181920
695.146	0.0189978
695.224	0.0198490
695.302	0.0205766
695.380	0.0211649
695.458	0.0218874
695.536	0.0219604
695.614	0.0221771
695.693	0.0221715
695.771	0.0220534
695.849	0.0216735
695.927	0.0213123
696.005	0.0206815
696.083	0.0200253
696.161	0.0193158
696.239	0.0186781
696.318	0.0176830
696.396	0.0168668
696.474	0.0160756
696.552	0.0150129
696.630	0.0142993
696.708	0.0136053
696.786	0.0130138
696.864	0.0125969
696.943	0.0120760
697.021	0.0115871
697.099	0.0115594
697.177	0.0114113
697.255	0.0112978
697.333	0.0113302
697.411	0.0112799
697.489	0.0112897
697.568	0.0113843
697.646	0.0112720
697.724	0.0113841
697.802	0.0114047
697.880	0.0115561
697.958	0.0115249
698.036	0.0118457
698.114	0.0119627
698.193	0.0121349
698.271	0.0125487
698.349	0.0129056
698.427	0.0130151
698.505	0.0132589
698.583	0.0137003
698.661	0.0142042
698.739	0.0146423
698.818	0.0153500
698.896	0.0157404
698.974	0.0164720
699.052	0.0169593
699.130	0.0176711
699.208	0.0183264
699.286	0.0190746
699.364	0.0197444
699.443	0.0203165
699.521	0.0207471
699.599	0.0213515
699.677	0.0217154
699.755	0.0219160
699.833	0.0220871
699.911	0.0219137
699.989	0.0218584
700.068	0.0215418
700.146	0.0210038
700.224	0.0206115
700.302	0.0199487
700.380	0.0191162
700.458	0.0182195
700.536	0.0173807
700.614	0.0164819
700.693	0.0155071
700.771	0.0145896
700.849	0.0138284
700.927	0.0131288
701.005	0.0125214
701.083	0.0120675
701.161	0.0117204
701.239	0.0113712
701.318	0.0110564
701.396	0.0111184
701.474	0.0109996
701.552	0.0110864
701.630	0.0113471
701.708	0.0115930
701.786	0.0120679
701.864	0.0123396
701.943	0.0127561
702.021	0.0131612
702.099	0.0133618
702.177	0.0137704
702.255	0.0139708
702.333	0.0142073
702.411	0.0143076
702.489	0.0143276
702.568	0.0143240
702.646	0.0144051
702.724	0.0146410
702.802	0.0146215
702.880	0.0145373
702.958	0.0147545
703.036	0.0149781
703.114	0.0149782
703.193	0.0151832
703.271	0.0154230
703.349	0.0155296
703.427	0.0158852
703.505	0.0160562
703.583	0.0161640
703.661	0.0164161
703.739	0.0165807
703.818	0.0167776
703.896	0.0170791
703.974	0.0172182
704.052	0.0174223
704.130	0.0176855
704.208	0.0179754
704.286	0.0181032
704.364	0.0186090
704.443	0.0186975
704.521	0.0189083
704.599	0.0191678
704.677	0.0190632
704.755	0.0190279
704.833	0.0188017
704.911	0.0186318
704.989	0.0181248
705.068	0.0178118
705.146	0.0174066
705.224	0.0169053
705.302	0.0163253
705.380	0.0159715
705.458	0.0151704
705.536	0.0148147
705.614	0.0144219
705.693	0.0139143
705.771	0.0136446
705.849	0.0133350
705.927	0.0130701
706.005	0.0131667
706.083	0.0130374
706.161	0.0130802
706.239	0.0131510
706.318	0.0132354
706.396	0.0134930
706.474	0.0137920
706.552	0.0141869
706.630	0.0144482
706.708	0.0148444
706.786	0.0150568
706.864	0.0153192
706.943	0.0154713
707.021	0.0156274
707.099	0.0158286
707.177	0.0158667
707.255	0.0159958
707.333	0.0158587
707.411	0.0156939
707.489	0.0157271
707.568	0.0156985
707.646	0.0156070
707.724	0.0153983
707.802	0.0154041
707.880	0.0154189
707.958	0.0153741
708.036	0.0151871
708.114	0.0152740
708.193	0.0151003
708.271	0.0152934
708.349	0.0153545
708.427	0.0155366
708.505	0.0155466
708.583	0.0157363
708.661	0.0158485
708.739	0.0160031
708.818	0.0159919
708.896	0.0160243
708.974	0.0163934
709.052	0.0163931
709.130	0.0164510
709.208	0.0166673
709.286	0.0166516
709.364	0.0166094
709.443	0.0165534
709.521	0.0165568
709.599	0.0163528
709.677	0.0161304
709.755	0.0158575
709.833	0.0155990
709.911	0.0152972
709.989	0.0150953
710.068	0.0145967
710.146	0.0144095
710.224	0.0142252
710.302	0.0141638
710.380	0.0140701
710.458	0.0140461
710.536	0.0141615
710.614	0.0143899
710.693	0.0146904
710.771	0.0148983
710.849	0.0153564
710.927	0.0158299
711.005	0.0161343
711.083	0.0164757
711.161	0.0170029
711.239	0.0170739
711.318	0.0174637
711.396	0.0177057
711.474	0.0177641
711.552	0.0178435
711.630	0.0180148
711.708	0.0178519
711.786	0.0176293
711.864	0.0175509
711.943	0.0173896
712.021	0.0170274
712.099	0.0166882
712.177	0.0163228
712.255	0.0161045
712.333	0.0156748
712.411	0.0153354
712.489	0.0149874
712.568	0.0147013
712.646	0.0145908
712.724	0.0143865
712.802	0.0141695
712.880	0.0139716
712.958	0.0137504
713.036	0.0137321
713.114	0.0135696
713.193	0.0133329
713.271	0.0134780
713.349	0.0133611
713.427	0.0134112
713.505	0.0133320
713.583	0.0133049
713.661	0.0135638
713.739	0.0136968
713.818	0.0138667
713.896	0.0140497
713.974	0.0145383
714.052	0.0148351
714.130	0.0150420
714.208	0.0153419
714.286	0.0157180
714.364	0.0161310
714.443	0.0163039
714.521	0.0164834
714.599	0.0165930
714.677	0.0166862
714.755	0.0167244
714.833	0.0166303
714.911	0.0163663
714.989	0.0162676
715.068	0.0161583
715.146	0.0160741
715.224	0.0157887
715.302	0.0157143
715.380	0.0158013
715.458	0.0158360
715.536	0.0157990
715.614	0.0159469
715.693	0.0159901
715.771	0.0162162
715.849	0.0164484
715.927	0.0166767
716.005	0.0169167
716.083	0.0171844
716.161	0.0171775
716.239	0.0173875
716.318	0.0175044
716.396	0.0173885
716.474	0.0171638
716.552	0.0171096
716.630	0.0171225
716.708	0.0169156
716.786	0.0166113
716.864	0.0162708
716.943	0.0160347
717.021	0.0157597
717.099	0.0156159
717.177	0.0155101
717.255	0.0151801
717.333	0.0149349
717.411	0.0148269
717.489	0.0145659
717.568	0.0145872
717.646	0.0144437
717.724	0.0144276
717.802	0.0141817
717.880	0.0142039
717.958	0.0142570
718.036	0.0139246
718.114	0.0140672
718.193	0.0139259
718.271	0.0137888
718.349	0.0140084
718.427	0.0140836
718.505	0.0142079
718.583	0.0143674
718.661	0.0146321
718.739	0.0147586
718.818	0.0150233
718.896	0.0152637
718.974	0.0155899
719.052	0.0156989
719.130	0.0158099
719.208	0.0158572
719.286	0.0161026
719.364	0.0160807
719.443	0.0160778
719.521	0.0162207
719.599	0.0161279
719.677	0.0161754
719.755	0.0160881
719.833	0.0160184
719.911	0.0159531
719.989	0.0159232
720.068	0.0158485
720.146	0.0157835
720.224	0.0158332
720.302	0.0157311
720.380	0.0157150
720.458	0.0158759
720.536	0.0158979
720.614	0.0160052
720.693	0.0160072
720.771	0.0161679
720.849	0.0162089
720.927	0.0162306
721.005	0.0160394
721.083	0.0161954
721.161	0.0161984
721.239	0.0159594
721.318	0.0158785
721.396	0.0155977
721.474	0.0154620
721.552	0.0154556
721.630	0.0151105
721.708	0.0150465
721.786	0.0149518
721.864	0.0149622
721.943	0.0149390
722.021	0.0150179
722.099	0.0150145
722.177	0.0151358
722.255	0.0152200
722.333	0.0152674
722.411	0.0152840
722.489	0.0154962
722.568	0.0155160
722.646	0.0156338
722.724	0.0158272
722.802	0.0158079
722.880	0.0158970
722.958	0.0159995
723.036	0.0161572
723.114	0.0161336
723.193	0.0161108
723.271	0.0162911
723.349	0.0164021
723.427	0.0163129
723.505	0.0161966
723.583	0.0163544
723.661	0.0161940
723.739	0.0160771
723.818	0.0160273
723.896	0.0160005
723.974	0.0160213
724.052	0.0157198
724.130	0.0157589
724.208	0.0155613
724.286	0.0152533
724.364	0.0151741
724.443	0.0150645
724.521	0.0148938
724.599	0.0148024
724.677	0.0147447
724.755	0.0147147
724.833	0.0146795
724.911	0.0146381
724.989	0.0146828
725.068	0.0147800
725.146	0.0148101
725.224	0.0148985
725.302	0.0150240
725.380	0.0149790
725.458	0.0151221
725.536	0.0152809
725.614	0.0155137
725.693	0.0154475
725.771	0.0155057
725.849	0.0154816
725.927	0.0155929
726.005	0.0157388
726.083	0.0157478
726.161	0.0158920
726.239	0.0160201
726.318	0.0160120
726.396	0.0160284
726.474	0.0162020
726.552	0.0160161
726.630	0.0161443
726.708	0.0162879
726.786	0.0163213
726.864	0.0161578
726.943	0.0162361
727.021	0.0161103
727.099	0.0162419
727.177	0.0161658
727.255	0.0160448
727.333	0.0158588
727.411	0.0158320
727.489	0.0158627
727.568	0.0158959
727.646	0.0155939
727.724	0.0158331
727.802	0.0155658
727.880	0.0156326
727.958	0.0156567
728.036	0.0155042
728.114	0.0154787
728.193	0.0154602
728.271	0.0155352
728.349	0.0154218
728.427	0.0154523
728.505	0.0153120
728.583	0.0153766
728.661	0.0153084
728.739	0.0152570
728.818	0.0154234
728.896	0.0152103
728.974	0.0153668
729.052	0.0151543
729.130	0.0153275
729.208	0.0153100
729.286	0.0152705
729.364	0.0153272
729.443	0.0153181
729.521	0.0155350
729.599	0.0154468
729.677	0.0155206
729.755	0.0157778
729.833	0.0158822
729.911	0.0159011
729.989	0.0158543
730.068	0.0158617
730.146	0.0159547
730.224	0.0157345
730.302	0.0158579
730.380	0.0156368
730.458	0.0156558
730.536	0.0156641
730.614	0.0156361
730.693	0.0155157
730.771	0.0154865
730.849	0.0155801
730.927	0.0154044
731.005	0.0154678
731.083	0.0157278
731.161	0.0157302
731.239	0.0157602
731.318	0.0158117
731.396	0.0158414
731.474	0.0157988
731.552	0.0158609
731.630	0.0157803
731.708	0.0157560
731.786	0.0157567
731.864	0.0156924
731.943	0.0155723
732.021	0.0154520
732.099	0.0153893
732.177	0.0153089
732.255	0.0151801
732.333	0.0150508
732.411	0.0150446
732.489	0.0149480
732.568	0.0149113
732.646	0.0149199
732.724	0.0149828
732.802	0.0148396
732.880	0.0148430
732.958	0.0150045
733.036	0.0151987
733.114	0.0154646
733.193	0.0156461
733.271	0.0157717
733.349	0.0158942
733.427	0.0160128
733.505	0.0161300
733.583	0.0163556
733.661	0.0161820
733.739	0.0162173
733.818	0.0163022
733.896	0.0161528
733.974	0.0161306
734.052	0.0160959
734.130	0.0160117
734.208	0.0158475
734.286	0.0158984
734.364	0.0158247
734.443	0.0158731
734.521	0.0157041
734.599	0.0155269
734.677	0.0157314
734.755	0.0156000
734.833	0.0157925
734.911	0.0156639
734.989	0.0156352
735.068	0.0158646
735.146	0.0158601
735.224	0.0158512
735.302	0.0158366
735.380	0.0158965
735.458	0.0158243
735.536	0.0157648
735.614	0.0156628
735.693	0.0156543
735.771	0.0156668
735.849	0.0154714
735.927	0.0154762
736.005	0.0152073
736.083	0.0152291
736.161	0.0152364
736.239	0.0149910
736.318	0.0148654
736.396	0.0149001
736.474	0.0146648
736.552	0.0147604
736.630	0.0146426
736.708	0.0146407
736.786	0.0146915
736.864	0.0146835
736.943	0.0146452
737.021	0.0145464
737.099	0.0146975
737.177	0.0147864
737.255	0.0148638
737.333	0.0149015
737.411	0.0149992
737.489	0.0150821
737.568	0.0152787
737.646	0.0152820
737.724	0.0153593
737.802	0.0156089
737.880	0.0156860
737.958	0.0159090
738.036	0.0160183
738.114	0.0159908
738.193	0.0159808
738.271	0.0161672
738.349	0.0162386
738.427	0.0163579
738.505	0.0163499
738.583	0.0163251
738.661	0.0163428
738.739	0.0163876
738.818	0.0163846
738.896	0.0163315
738.974	0.0165896
739.052	0.0164414
739.130	0.0165508
739.208	0.0165468
739.286	0.0162376
739.364	0.0164115
739.443	0.0160977
739.521	0.0160318
739.599	0.0160708
739.677	0.0157409
739.755	0.0155424
739.833	0.0154323
739.911	0.0153313
739.989	0.0151862
740.068	0.0150081
740.146	0.0149316
740.224	0.0149097
740.302	0.0147960
740.380	0.0147552
740.458	0.0149064
740.536	0.0149147
740.614	0.0149783
740.693	0.0150281
740.771	0.0150670
740.849	0.0151621
740.927	0.0151862
741.005	0.0152038
741.083	0.0152470
741.161	0.0155408
741.239	0.0153836
741.318	0.0153403
741.396	0.0155962
741.474	0.0154297
741.552	0.0154849
741.630	0.0154900
741.708	0.0154770
741.786	0.0155222
741.864	0.0154325
741.943	0.0153888
742.021	0.0154005
742.099	0.0154050
742.177	0.0153278
742.255	0.0154848
742.333	0.0151957
742.411	0.0152689
742.489	0.0152494
742.568	0.0154877
742.646	0.0154824
742.724	0.0157698
742.802	0.0157084
742.880	0.0159035
742.958	0.0159327
743.036	0.0158408
743.114	0.0160277
743.193	0.0160471
743.271	0.0160810
743.349	0.0162124
743.427	0.0162045
743.505	0.0161348
743.583	0.0160688
743.661	0.0160293
743.739	0.0159590
743.818	0.0158888
743.896	0.0158754
743.974	0.0156803
744.052	0.0155962
744.130	0.0156592
744.208	0.0156386
744.286	0.0155099
744.364	0.0153995
744.443	0.0153789
744.521	0.0152927
744.599	0.0152082
744.677	0.0152859
744.755	0.0151211
744.833	0.0151930
744.911	0.0151141
744.989	0.0149934
745.068	0.0151559
745.146	0.0150020
745.224	0.0149565
745.302	0.0149535
745.380	0.0149865
745.458	0.0150177
745.536	0.0149828
745.614	0.0149243
745.693	0.0149559
745.771	0.0149075
745.849	0.0150388
745.927	0.0151221
746.005	0.0151740
746.083	0.0151583
746.161	0.0152917
746.239	0.0154281
746.318	0.0155225
746.396	0.0156877
746.474	0.0157427
746.552	0.0158550
746.630	0.0160191
746.708	0.0161643
746.786	0.0161730
746.864	0.0163982
746.943	0.0163417
747.021	0.0163509
747.099	0.0163402
747.177	0.0162831
747.255	0.0161881
747.333	0.0160938
747.411	0.0161554
747.489	0.0160773
747.568	0.0158009
747.646	0.0156483
747.724	0.0157253
747.802	0.0157377
747.880	0.0156492
747.958	0.0156178
748.036	0.0156787
748.114	0.0154237
748.193	0.0155109
748.271	0.0154476
748.349	0.0156796
748.427	0.0156403
748.505	0.0156080
748.583	0.0156007
748.661	0.0157830
748.739	0.0156885
748.818	0.0158013
748.896	0.0156383
748.974	0.0155629
749.052	0.0157082
749.130	0.0155354
749.208	0.0154630
749.286	0.0153733
749.364	0.0153811
749.443	0.0153700
749.521	0.0153006
749.599	0.0151238
749.677	0.0150465
749.755	0.0150288
749.833	0.0148689
749.911	0.0150120
749.989	0.0149150
750.068	0.0149754
750.146	0.0149671
750.224	0.0149510
750.302	0.0148848
750.380	0.0149814
750.458	0.0150484
750.536	0.0151584
750.614	0.0152136
750.693	0.0153255
750.771	0.0153586
750.849	0.0155413
750.927	0.0156583
751.005	0.0156211
751.083	0.0155581
751.161	0.0157731
751.239	0.0156625
751.318	0.0159705
751.396	0.0158245
751.474	0.0158903
751.552	0.0156716
751.630	0.0159139
751.708	0.0158878
751.786	0.0160862
751.864	0.0159275
751.943	0.0158926
752.021	0.0157680
752.099	0.0159436
752.177	0.0160388
752.255	0.0160253
752.333	0.0158463
752.411	0.0158167
752.489	0.0157838
752.568	0.0159762
752.646	0.0157066
752.724	0.0157862
752.802	0.0157791
752.880	0.0156463
752.958	0.0156950
753.036	0.0157253
753.114	0.0154301
753.193	0.0153712
753.271	0.0153937
753.349	0.0153587
753.427	0.0152772
753.505	0.0152762
753.583	0.0153196
753.661	0.0154492
753.739	0.0153645
753.818	0.0154337
753.896	0.0154092
753.974	0.0156303
754.052	0.0157142
754.130	0.0156158
754.208	0.0155827
754.286	0.0157152
754.364	0.0156879
754.443	0.0158273
754.521	0.0159647
754.599	0.0158945
754.677	0.0158096
754.755	0.0158675
754.833	0.0159277
754.911	0.0158527
754.989	0.0158592
755.068	0.0158321
755.146	0.0158031
755.224	0.0155925
755.302	0.0155891
755.380	0.0155329
755.458	0.0154296
755.536	0.0154359
755.614	0.0156226
755.693	0.0154575
755.771	0.0153747
755.849	0.0153566
755.927	0.0154226
756.005	0.0154227
756.083	0.0154214
756.161	0.0152110
756.239	0.0152153
756.318	0.0154179
756.396	0.0154126
756.474	0.0153773
756.552	0.0153162
756.630	0.0154066
756.708	0.0155758
756.786	0.0155649
756.864	0.0153341
756.943	0.0154424
757.021	0.0156586
757.099	0.0154778
757.177	0.0155987
757.255	0.0156035
757.333	0.0155792
757.411	0.0155303
757.489	0.0156320
757.568	0.0155822
757.646	0.0155884
757.724	0.0156532
757.802	0.0154882
757.880	0.0154021
757.958	0.0154907
758.036	0.0154223
758.114	0.0154704
758.193	0.0154292
758.271	0.0153400
758.349	0.0155400
758.427	0.0153028
758.505	0.0155154
758.583	0.0154913
758.661	0.0155758
758.739	0.0155454
758.818	0.0156216
758.896	0.0157018
758.974	0.0157523
759.052	0.0157645
759.130	0.0158718
759.208	0.0158280
759.286	0.0159521
759.364	0.0158850
759.443	0.0158335
759.521	0.0159206
759.599	0.0158613
759.677	0.0157671
759.755	0.0159048
759.833	0.0157065
759.911	0.0157852
759.989	0.0157483
760.068	0.0155946
760.146	0.0155663
760.224	0.0155304
760.302	0.0155344
760.380	0.0154556
760.458	0.0155022
760.536	0.0153373
760.614	0.0151543
760.693	0.0152557
760.771	0.0151070
760.849	0.0152833
760.927	0.0152087
761.005	0.0152009
761.083	0.0153612
761.161	0.0153326
761.239	0.0154433
761.318	0.0152982
761.396	0.0154398
761.474	0.0154052
761.552	0.0153763
761.630	0.0154124
761.708	0.0154253
761.786	0.0155936
761.864	0.0155019
761.943	0.0156001
762.021	0.0155695
762.099	0.0157203
762.177	0.0156329
762.255	0.0158094
762.333	0.0157815
762.411	0.0157626
762.489	0.0157992
762.568	0.0157835
762.646	0.0158405
762.724	0.0156448
762.802	0.0155977
762.880	0.0156106
762.958	0.0154939
763.036	0.0154414
763.114	0.0155869
763.193	0.0153645
763.271	0.0153053
763.349	0.0153944
763.427	0.0153712
763.505	0.0155207
763.583	0.0153201
763.661	0.0153316
763.739	0.0152494
763.818	0.0153919
763.896	0.0154053
763.974	0.0152658
764.052	0.0152827
764.130	0.0153990
764.208	0.0153875
764.286	0.0154187
764.364	0.0155396
764.443	0.0154225
764.521	0.0154327
764.599	0.0156264
764.677	0.0156172
764.755	0.0155793
764.833	0.0155144
764.911	0.0154901
764.989	0.0156570
765.068	0.0157687
765.146	0.0155279
765.224	0.0156033
765.302	0.0155434
765.380	0.0155486
765.458	0.0155750
765.536	0.0157090
765.614	0.0156417
765.693	0.0156061
765.771	0.0154680
765.849	0.0154923
765.927	0.0154720
766.005	0.0154153
766.083	0.0155255
766.161	0.0153428
766.239	0.0153577
766.318	0.0156055
766.396	0.0155459
766.474	0.0155006
766.552	0.0156342
766.630	0.0154857
766.708	0.0155704
766.786	0.0157349
766.864	0.0157535
766.943	0.0157739
767.021	0.0157772
767.099	0.0157952
767.177	0.0157441
767.255	0.0158056
767.333	0.0158585
767.411	0.0157531
767.489	0.0157538
767.568	0.0156136
767.646	0.0156273
767.724	0.0156753
767.802	0.0155453
767.880	0.0154542
767.958	0.0154390
768.036	0.0153855
768.114	0.0153620
768.193	0.0152327
768.271	0.0152209
768.349	0.0152769
768.427	0.0151980
768.505	0.0152224
768.583	0.0152112
768.661	0.0151611
768.739	0.0151995
768.818	0.0152525
768.896	0.0152879
768.974	0.0152079
769.052	0.0153750
769.130	0.0154712
769.208	0.0154461
769.286	0.0154865
769.364	0.0155491
769.443	0.0154546
769.521	0.0154469
769.599	0.0155858
769.677	0.0156179
769.755	0.0157211
769.833	0.0156795
769.911	0.0156676
769.989	0.0158106
770.068	0.0158810
770.146	0.0158195
770.224	0.0159662
770.302	0.0158750
770.380	0.0158331
770.458	0.0160138
770.536	0.0159047
770.614	0.0159457
770.693	0.0158458
770.771	0.0158978
770.849	0.0158245
770.927	0.0158014
771.005	0.0158139
771.083	0.0156648
771.161	0.0155183
771.239	0.0155473
771.318	0.0155016
771.396	0.0154834
771.474	0.0155714
771.552	0.0155233
771.630	0.0154137
771.708	0.0154057
771.786	0.0153321
771.864	0.0153724
771.943	0.0154160
772.021	0.0154656
772.099	0.0154032
772.177	0.0154383
772.255	0.0153639
772.333	0.0156065
772.411	0.0155259
772.489	0.0156559
772.568	0.0154807
772.646	0.0154297
772.724	0.0155857
772.802	0.0155139
772.880	0.0155125
772.958	0.0154797
773.036	0.0155526
773.114	0.0154995
773.193	0.0153654
773.271	0.0154745
773.349	0.0155136
773.427	0.0153120
773.505	0.0153838
773.583	0.0154072
773.661	0.0153885
773.739	0.0153965
773.818	0.0155742
773.896	0.0153936
773.974	0.0154491
774.052	0.0153678
774.130	0.0155833
774.208	0.0156422
774.286	0.0156810
774.364	0.0156316
774.443	0.0156008
774.521	0.0158146
774.599	0.0157300
774.677	0.0156409
774.755	0.0157718
774.833	0.0159409
774.911	0.0160686
774.989	0.0158985
775.068	0.0158937
775.146	0.0159447
775.224	0.0158112
775.302	0.0159328
775.380	0.0159066
775.458	0.0159651
775.536	0.0159064
775.614	0.0157887
775.693	0.0157613
775.771	0.0157406
775.849	0.0155975
775.927	0.0157114
776.005	0.0156237
776.083	0.0153842
776.161	0.0154482
776.239	0.0154167
776.318	0.0155527
776.396	0.0154682
776.474	0.0153426
776.552	0.0153007
776.630	0.0153793
776.708	0.0152135
776.786	0.0153545
776.864	0.0153185
776.943	0.0151884
777.021	0.0152091
777.099	0.0152900
777.177	0.0153011
777.255	0.0153495
777.333	0.0153616
777.411	0.0155000
777.489	0.0154169
777.568	0.0154095
777.646	0.0154845
777.724	0.0155082
777.802	0.0156599
777.880	0.0156948
777.958	0.0157414
778.036	0.0158328
778.114	0.0159482
778.193	0.0158220
778.271	0.0158615
778.349	0.0160003
778.427	0.0159119
778.505	0.0159639
778.583	0.0157246
778.661	0.0157448
778.739	0.0157453
778.818	0.0157420
778.896	0.0158330
778.974	0.0156024
779.052	0.0158162
779.130	0.0158487
779.208	0.0156540
779.286	0.0156596
779.364	0.0156363
779.443	0.0155887
779.521	0.0155795
779.599	0.0155850
779.677	0.0156665
779.755	0.0157396
779.833	0.0157101
779.911	0.0155799
779.989	0.0156369
780.068	0.0156503
780.146	0.0155888
780.224	0.0155381
780.302	0.0155038
780.380	0.0155662
780.458	0.0154963
780.536	0.0154563
780.614	0.0153794
780.693	0.0153629
780.771	0.0154518
780.849	0.0154491
780.927	0.0153310
781.005	0.0152363
781.083	0.0152141
781.161	0.0152289
781.239	0.0154155
781.318	0.0153168
781.396	0.0153074
781.474	0.0153819
781.552	0.0152097
781.630	0.0154547
781.708	0.0154577
781.786	0.0153786
781.864	0.0153300
781.943	0.0155096
782.021	0.0154263
782.099	0.0155424
782.177	0.0155744
782.255	0.0154972
782.333	0.0156187
782.411	0.0155538
782.489	0.0155792
782.568	0.0155569
782.646	0.0156664
782.724	0.0156783
782.802	0.0156512
782.880	0.0159285
782.958	0.0157803
783.036	0.0156790
783.114	0.0158485
783.193	0.0156231
783.271	0.0159167
783.349	0.0157082
783.427	0.0156829
783.505	0.0158524
783.583	0.0156520
783.661	0.0156998
783.739	0.0157732
783.818	0.0156576
783.896	0.0156570
783.974	0.0156881
784.052	0.0157292
784.130	0.0156088
784.208	0.0156044
784.286	0.0155280
784.364	0.0156167
784.443	0.0156452
784.521	0.0154702
784.599	0.0154665
784.677	0.0155692
784.755	0.0156532
784.833	0.0155984
784.911	0.0156541
784.989	0.0155865
785.068	0.0155006
785.146	0.0154881
785.224	0.0154797
785.302	0.0156161
785.380	0.0155835
785.458	0.0155595
785.536	0.0155874
785.614	0.0155568
785.693	0.0155542
785.771	0.0155812
785.849	0.0153704
785.927	0.0153936
786.005	0.0155176
786.083	0.0154990
786.161	0.0152892
786.239	0.0152766
786.318	0.0152333
786.396	0.0154675
786.474	0.0151551
786.552	0.0150964
786.630	0.0152644
786.708	0.0152484
786.786	0.0151446
786.864	0.0152155
786.943	0.0152320
787.021	0.0152258
787.099	0.0152833
787.177	0.0154460
787.255	0.0153234
787.333	0.0154321
787.411	0.0155863
787.489	0.0156183
787.568	0.0157553
787.646	0.0156854
787.724	0.0156961
787.802	0.0158957
787.880	0.0162239
787.958	0.0160879
788.036	0.0160910
788.114	0.0162083
788.193	0.0161662
788.271	0.0162430
788.349	0.0162579
788.427	0.0160215
788.505	0.0162381
788.583	0.0160864
788.661	0.0160394
788.739	0.0158952
788.818	0.0159259
788.896	0.0156715
788.974	0.0156451
789.052	0.0155616
789.130	0.0155167
789.208	0.0155427
789.286	0.0153761
789.364	0.0152084
789.443	0.0152100
789.521	0.0152390
789.599	0.0150402
789.677	0.0149711
789.755	0.0149741
789.833	0.0151926
789.911	0.0149419
789.989	0.0149072
790.068	0.0148829
790.146	0.0149111
790.224	0.0148383
790.302	0.0148939
790.380	0.0148885
790.458	0.0149060
790.536	0.0149692
790.614	0.0149537
790.693	0.0151815
790.771	0.0152287
790.849	0.0153754
790.927	0.0153547
791.005	0.0153547
791.083	0.0155205
791.161	0.0155502
791.239	0.0157456
791.318	0.0156187
791.396	0.0157415
791.474	0.0158821
791.552	0.0159180
791.630	0.0160825
791.708	0.0161766
791.786	0.0162379
791.864	0.0162784
791.943	0.0164394
792.021	0.0164603
792.099	0.0164473
792.177	0.0164210
792.255	0.0165458
792.333	0.0163428
792.411	0.0162267
792.489	0.0163644
792.568	0.0163015
792.646	0.0161368
792.724	0.0161549
792.802	0.0158305
792.880	0.0158693
792.958	0.0156831
793.036	0.0156246
793.114	0.0155335
793.193	0.0154383
793.271	0.0154800
793.349	0.0152777
793.427	0.0151006
793.505	0.0150427
793.583	0.0150741
793.661	0.0150686
793.739	0.0150262
793.818	0.0150347
793.896	0.0149596
793.974	0.0149831
794.052	0.0150149
794.130	0.0149649
794.208	0.0149143
794.286	0.0151988
794.364	0.0150343
794.443	0.0150661
794.521	0.0151100
794.599	0.0151182
794.677	0.0150198
794.755	0.0149192
794.833	0.0150953
794.911	0.0151031
794.989	0.0150566
795.068	0.0150108
795.146	0.0151163
795.224	0.0152097
795.302	0.0152292
795.380	0.0153392
795.458	0.0154800
795.536	0.0157174
795.614	0.0156147
795.693	0.0157561
795.771	0.0158398
795.849	0.0159171
795.927	0.0161210
796.005	0.0161723
796.083	0.0162875
796.161	0.0163042
796.239	0.0163406
796.318	0.0165017
796.396	0.0165195
796.474	0.0164185
796.552	0.0163927
796.630	0.0164910
796.708	0.0164710
796.786	0.0164120
796.864	0.0164854
796.943	0.0161719
797.021	0.0160876
797.099	0.0160944
797.177	0.0160802
797.255	0.0158572
797.333	0.0157596
797.411	0.0156927
797.489	0.0157463
797.568	0.0154308
797.646	0.0154241
797.724	0.0153829
797.802	0.0152374
797.880	0.0151318
797.958	0.0150545
798.036	0.0149616
798.114	0.0149081
798.193	0.0149418
798.271	0.0149289
798.349	0.0149532
798.427	0.0147784
798.505	0.0148490
798.583	0.0149329
798.661	0.0148606
798.739	0.0150571
798.818	0.0150109
798.896	0.0149599
798.974	0.0151212
799.052	0.0150720
799.130	0.0151852
799.208	0.0152657
799.286	0.0153957
799.364	0.0153701
799.443	0.0154403
799.521	0.0156164
799.599	0.0155584
799.677	0.0155963
799.755	0.0156216
799.833	0.0158960
799.911	0.0158018
799.989	0.0157367
800.068	0.0158216
800.146	0.0157967
800.224	0.0157686
800.302	0.0158457
800.380	0.0158768
800.458	0.0157523
800.536	0.0159267
800.614	0.0158930
800.693	0.0158882
800.771	0.0158341
800.849	0.0158691
800.927	0.0158326
801.005	0.0157811
801.083	0.0159210
801.161	0.0158669
801.239	0.0157279
801.318	0.0160433
801.396	0.0160358
801.474	0.0160471
801.552	0.0159971
801.630	0.0160085
801.708	0.0159354
801.786	0.0161332
801.864	0.0161317
801.943	0.0160553
802.021	0.0158441
802.099	0.0157719
802.177	0.0158881
802.255	0.0156733
802.333	0.0156461
802.411	0.0156081
802.489	0.0155901
802.568	0.0154071
802.646	0.0153529
802.724	0.0153334
802.802	0.0152940
802.880	0.0151540
802.958	0.0152101
803.036	0.0150935
803.114	0.0150417
803.193	0.0152265
803.271	0.0150972
803.349	0.0150899
803.427	0.0152529
803.505	0.0151965
803.583	0.0153136
803.661	0.0153355
803.739	0.0152055
803.818	0.0153529
803.896	0.0154188
803.974	0.0155980
804.052	0.0155739
804.130	0.0154733
804.208	0.0154554
804.286	0.0155285
804.364	0.0155442
804.443	0.0154509
804.521	0.0154821
804.599	0.0155242
804.677	0.0155913
804.755	0.0155474
804.833	0.0154203
804.911	0.0155713
804.989	0.0154376
805.068	0.0154829
805.146	0.0154847
805.224	0.0156099
805.302	0.0155653
805.380	0.0155754
805.458	0.0157194
805.536	0.0155975
805.614	0.0155758
805.693	0.0155879
805.771	0.0156454
805.849	0.0158279
805.927	0.0157011
806.005	0.0158321
806.083	0.0158038
806.161	0.0157549
806.239	0.0157608
806.318	0.0156862
806.396	0.0158019
806.474	0.0157793
806.552	0.0156080
806.630	0.0156287
806.708	0.0156685
806.786	0.0157035
806.864	0.0157405
806.943	0.0156367
807.021	0.0155760
807.099	0.0157830
807.177	0.0158572
807.255	0.0159353
807.333	0.0158647
807.411	0.0157855
807.489	0.0158023
807.568	0.0159323
807.646	0.0160570
807.724	0.0159713
807.802	0.0160004
807.880	0.0159457
807.958	0.0158688
808.036	0.0159999
808.114	0.0160132
808.193	0.0161047
808.271	0.0159412
808.349	0.0159335
808.427	0.0158906
808.505	0.0157348
808.583	0.0157183
808.661	0.0156982
808.739	0.0156484
808.818	0.0156264
808.896	0.0154524
808.974	0.0154211
809.052	0.0154029
809.130	0.0152582
809.208	0.0151682
809.286	0.0152057
809.364	0.0152303
809.443	0.0150073
809.521	0.0149519
809.599	0.0150376
809.677	0.0149911
809.755	0.0148558
809.833	0.0148252
809.911	0.0149281
809.989	0.0149963
810.068	0.0149894
810.146	0.0150259
810.224	0.0150119
810.302	0.0151233
810.380	0.0151397
810.458	0.0151619
810.536	0.0151520
810.614	0.0152552
810.693	0.0154011
810.771	0.0154224
810.849	0.0154913
810.927	0.0156719
811.005	0.0155231
811.083	0.0155499
811.161	0.0156829
811.239	0.0157761
811.318	0.0156997
811.396	0.0158965
811.474	0.0159736
811.552	0.0159129
811.630	0.0160133
811.708	0.0159763
811.786	0.0158570
811.864	0.0158706
811.943	0.0159912
812.021	0.0160421
812.099	0.0160058
812.177	0.0161176
812.255	0.0160660
812.333	0.0159715
812.411	0.0160370
812.489	0.0158627
812.568	0.0158931
812.646	0.0160464
812.724	0.0160194
812.802	0.0160011
812.880	0.0158710
812.958	0.0159497
813.036	0.0159228
813.114	0.0159921
813.193	0.0159150
813.271	0.0158624
813.349	0.0157408
813.427	0.0157584
813.505	0.0157193
813.583	0.0155754
813.661	0.0154691
813.739	0.0154319
813.818	0.0154164
813.896	0.0152084
813.974	0.0152294
814.052	0.0152863
814.130	0.0150694
814.208	0.0148088
814.286	0.0150287
814.364	0.0148557
814.443	0.0149606
814.521	0.0149886
814.599	0.0149187
814.677	0.0149942
814.755	0.0150656
814.833	0.0150133
814.911	0.0149669
814.989	0.0150772
815.068	0.0152260
815.146	0.0153593
815.224	0.0152704
815.302	0.0153492
815.380	0.0154624
815.458	0.0154758
815.536	0.0155122
815.614	0.0155080
815.693	0.0155987
815.771	0.0155090
815.849	0.0155929
815.927	0.0156234
816.005	0.0157747
816.083	0.0156033
816.161	0.0157202
816.239	0.0157515
816.318	0.0156801
816.396	0.0157932
816.474	0.0158634
816.552	0.0157420
816.630	0.0157726
816.708	0.0158614
816.786	0.0157950
816.864	0.0157729
816.943	0.0158362
817.021	0.0157413
817.099	0.0156798
817.177	0.0156174
817.255	0.0156261
817.333	0.0156971
817.411	0.0156866
817.489	0.0155624
817.568	0.0155462
817.646	0.0156516
817.724	0.0155376
817.802	0.0156648
817.880	0.0155272
817.958	0.0156066
818.036	0.0155018
818.114	0.0154124
818.193	0.0155154
818.271	0.0155231
818.349	0.0155930
818.427	0.0155190
818.505	0.0156412
818.583	0.0157294
818.661	0.0156452
818.739	0.0156293
818.818	0.0156573
818.896	0.0155672
818.974	0.0155671
819.052	0.0155154
819.130	0.0156126
819.208	0.0155850
819.286	0.0155845
819.364	0.0155797
819.443	0.0154883
819.521	0.0154193
819.599	0.0155145
819.677	0.0154911
819.755	0.0153792
819.833	0.0155085
819.911	0.0154694
819.989	0.0152898
820.068	0.0152846
820.146	0.0154576
820.224	0.0154707
820.302	0.0152882
820.380	0.0154642
820.458	0.0154985
820.536	0.0155173
820.614	0.0154718
820.693	0.0153738
820.771	0.0154596
820.849	0.0155535
820.927	0.0155159
821.005	0.0153566
821.083	0.0155826
821.161	0.0155163
821.239	0.0155210
821.318	0.0154767
821.396	0.0154994
821.474	0.0155146
821.552	0.0155153
821.630	0.0155024
821.708	0.0154951
821.786	0.0153285
821.864	0.0155357
821.943	0.0156283
822.021	0.0155682
822.099	0.0156092
822.177	0.0155739
822.255	0.0156627
822.333	0.0158280
822.411	0.0156888
822.489	0.0158234
822.568	0.0158868
822.646	0.0159625
822.724	0.0158678
822.802	0.0159572
822.880	0.0158638
822.958	0.0160806
823.036	0.0158527
823.114	0.0159225
823.193	0.0159562
823.271	0.0161126
823.349	0.0160345
823.427	0.0159190
823.505	0.0159146
823.583	0.0156831
823.661	0.0156064
823.739	0.0155022
823.818	0.0156914
823.896	0.0156776
823.974	0.0154556
824.052	0.0156283
824.130	0.0155290
824.208	0.0153699
824.286	0.0153538
824.364	0.0153855
824.443	0.0154041
824.521	0.0154698
824.599	0.0154640
824.677	0.0154421
824.755	0.0154594
824.833	0.0153608
824.911	0.0154993
824.989	0.0154411
825.068	0.0153385
825.146	0.0155412
825.224	0.0154723
825.302	0.0153037
825.380	0.0152690
825.458	0.0153271
825.536	0.0153153
825.614	0.0152850
825.693	0.0151635
825.771	0.0152041
825.849	0.0153371
825.927	0.0153429
826.005	0.0153483
826.083	0.0152294
826.161	0.0153870
826.239	0.0154829
826.318	0.0155865
826.396	0.0154335
826.474	0.0156860
826.552	0.0156563
826.630	0.0157472
826.708	0.0157723
826.786	0.0159032
826.864	0.0159755
826.943	0.0161313
827.021	0.0160683
827.099	0.0160352
827.177	0.0159972
827.255	0.0160114
827.333	0.0162613
827.411	0.0160529
827.489	0.0159905
827.568	0.0158109
827.646	0.0159707
827.724	0.0160234
827.802	0.0158324
827.880	0.0158555
827.958	0.0157160
828.036	0.0156959
828.114	0.0156666
828.193	0.0154447
828.271	0.0154485
828.349	0.0155141
828.427	0.0155357
828.505	0.0154970
828.583	0.0155437
828.661	0.0154513
828.739	0.0153169
828.818	0.0153364
828.896	0.0153107
828.974	0.0154964
829.052	0.0153858
829.130	0.0155080
829.208	0.0156621
829.286	0.0154484
829.364	0.0153749
829.443	0.0156551
829.521	0.0155195
829.599	0.0154808
829.677	0.0154089
829.755	0.0153634
829.833	0.0153172
829.911	0.0154230
829.989	0.0154479
830.068	0.0154842
830.146	0.0154775
830.224	0.0153673
830.302	0.0153342
830.380	0.0154537
830.458	0.0154066
830.536	0.0153976
830.614	0.0155989
830.693	0.0154755
830.771	0.0154882
830.849	0.0154800
830.927	0.0154790
831.005	0.0156166
831.083	0.0156866
831.161	0.0156541
831.239	0.0157022
831.318	0.0155735
831.396	0.0158411
831.474	0.0156483
831.552	0.0157338
831.630	0.0158026
831.708	0.0158131
831.786	0.0158314
831.864	0.0158978
831.943	0.0158198
832.021	0.0158315
832.099	0.0157404
832.177	0.0157092
832.255	0.0158039
832.333	0.0158339
832.411	0.0158292
832.489	0.0157995
832.568	0.0159385
832.646	0.0157004
832.724	0.0156985
832.802	0.0157273
832.880	0.0157802
832.958	0.0156867
833.036	0.0158199
833.114	0.0157449
833.193	0.0156587
833.271	0.0156627
833.349	0.0156676
833.427	0.0156201
833.505	0.0155345
833.583	0.0156091
833.661	0.0155093
833.739	0.0154804
833.818	0.0155141
833.896	0.0154585
833.974	0.0153532
834.052	0.0153849
834.130	0.0154358
834.208	0.0153425
834.286	0.0152452
834.364	0.0153126
834.443	0.0152277
834.521	0.0152197
834.599	0.0153268
834.677	0.0154643
834.755	0.0153313
834.833	0.0153979
834.911	0.0154002
834.989	0.0154266
835.068	0.0155262
835.146	0.0155514
835.224	0.0156316
835.302	0.0155013
835.380	0.0155598
835.458	0.0156817
835.536	0.0154205
835.614	0.0155939
835.693	0.0155637
835.771	0.0155313
835.849	0.0154837
835.927	0.0155535
836.005	0.0154604
836.083	0.0154115
836.161	0.0154402
836.239	0.0155782
836.318	0.0155888
836.396	0.0155255
836.474	0.0156186
836.552	0.0154947
836.630	0.0156349
836.708	0.0155682
836.786	0.0156287
836.864	0.0156821
836.943	0.0156979
837.021	0.0156797
837.099	0.0156741
837.177	0.0157638
837.255	0.0156924
837.333	0.0157021
837.411	0.0156077
837.489	0.0156911
837.568	0.0156625
837.646	0.0157712
837.724	0.0157555
837.802	0.0157053
837.880	0.0156059
837.958	0.0156402
838.036	0.0155549
838.114	0.0156580
838.193	0.0155995
838.271	0.0156684
838.349	0.0154687
838.427	0.0155808
838.505	0.0155630
838.583	0.0154506
838.661	0.0154124
838.739	0.0155566
838.818	0.0154986
838.896	0.0154153
838.974	0.0154770
839.052	0.0153489
839.130	0.0154339
839.208	0.0156091
839.286	0.0153738
839.364	0.0152464
839.443	0.0153412
839.521	0.0152586
839.599	0.0154198
839.677	0.0153017
839.755	0.0154005
839.833	0.0153637
839.911	0.0152115
839.989	0.0154575
840.068	0.0152957
840.146	0.0154057
840.224	0.0152539
840.302	0.0152816
840.380	0.0155348
840.458	0.0154753
840.536	0.0153655
840.614	0.0152997
840.693	0.0153894
840.771	0.0154171
840.849	0.0154572
840.927	0.0155045
841.005	0.0154216
841.083	0.0153770
841.161	0.0154278
841.239	0.0154360
841.318	0.0154343
841.396	0.0155029
841.474	0.0154548
841.552	0.0155748
841.630	0.0155231
841.708	0.0155565
841.786	0.0155396
841.864	0.0156121
841.943	0.0156311
842.021	0.0156343
842.099	0.0155568
842.177	0.0155113
842.255	0.0154661
842.333	0.0155704
842.411	0.0155245
842.489	0.0156875
842.568	0.0156984
842.646	0.0156275
842.724	0.0156491
842.802	0.0156092
842.880	0.0156925
842.958	0.0157575
843.036	0.0157800
843.114	0.0156612
843.193	0.0156200
843.271	0.0157614
843.349	0.0157212
843.427	0.0157668
843.505	0.0156709
843.583	0.0157070
843.661	0.0156708
843.739	0.0157840
843.818	0.0156723
843.896	0.0156573
843.974	0.0155550
844.052	0.0157671
844.130	0.0154462
844.208	0.0156991
844.286	0.0156284
844.364	0.0155890
844.443	0.0156725
844.521	0.0155582
844.599	0.0156291
844.677	0.0154922
844.755	0.0154803
844.833	0.0154748
844.911	0.0153879
844.989	0.0156021
845.068	0.0155836
845.146	0.0155206
845.224	0.0153999
845.302	0.0154587
845.380	0.0155215
845.458	0.0155074
845.536	0.0154966
845.614	0.0155518
845.693	0.0154016
845.771	0.0154176
845.849	0.0153841
845.927	0.0155421
846.005	0.0153186
846.083	0.0153449
846.161	0.0155257
846.239	0.0151863
846.318	0.0153319
846.396	0.0152732
846.474	0.0153696
846.552	0.0153846
846.630	0.0152909
846.708	0.0154167
846.786	0.0155267
846.864	0.0154616
846.943	0.0153104
847.021	0.0155948
847.099	0.0155083
847.177	0.0152913
847.255	0.0154914
847.333	0.0155029
847.411	0.0154767
847.489	0.0153934
847.568	0.0156745
847.646	0.0155788
847.724	0.0155212
847.802	0.0154894
847.880	0.0156360
847.958	0.0156341
848.036	0.0156033
848.114	0.0155284
848.193	0.0156258
848.271	0.0157106
848.349	0.0157594
848.427	0.0156734
848.505	0.0157918
848.583	0.0157183
848.661	0.0156820
848.739	0.0157445
848.818	0.0158492
848.896	0.0157600
848.974	0.0156456
849.052	0.0157742
849.130	0.0157146
849.208	0.0155375
849.286	0.0154880
849.364	0.0156497
849.443	0.0157221
849.521	0.0157691
849.599	0.0155111
849.677	0.0154400
849.755	0.0155798
849.833	0.0156043
849.911	0.0156294
849.989	0.0155103
850.068	0.0154856
850.146	0.0154805
850.224	0.0155730
850.302	0.0153878
850.380	0.0156139
850.458	0.0154006
850.536	0.0155647
850.614	0.0157065
850.693	0.0155764
850.771	0.0154968
850.849	0.0155553
850.927	0.0156199
851.005	0.0155843
851.083	0.0155718
851.161	0.0155777
851.239	0.0154738
851.318	0.0155839
851.396	0.0156029
851.474	0.0156081
851.552	0.0154706
851.630	0.0155663
851.708	0.0155560
851.786	0.0153969
851.864	0.0155470
851.943	0.0155340
852.021	0.0154607
852.099	0.0153613
852.177	0.0155522
852.255	0.0154644
852.333	0.0155141
852.411	0.0155293
852.489	0.0153541
852.568	0.0155293
852.646	0.0155114
852.724	0.0154420
852.802	0.0153418
852.880	0.0153665
852.958	0.0157137
853.036	0.0156164
853.114	0.0156115
853.193	0.0155476
853.271	0.0155986
853.349	0.0156112
853.427	0.0157228
853.505	0.0156651
853.583	0.0156472
853.661	0.0155479
853.739	0.0156331
853.818	0.0157830
853.896	0.0157027
853.974	0.0156004
854.052	0.0155638
854.130	0.0155667
854.208	0.0155223
854.286	0.0155272
854.364	0.0155839
854.443	0.0155895
854.521	0.0156440
854.599	0.0156290
854.677	0.0156698
854.755	0.0157243
854.833	0.0157104
854.911	0.0156481
854.989	0.0156418
855.068	0.0156658
855.146	0.0156620
855.224	0.0156577
855.302	0.0156234
855.380	0.0156958
855.458	0.0156720
855.536	0.0156031
855.614	0.0156980
855.693	0.0156937
855.771	0.0156787
855.849	0.0156135
855.927	0.0156534
856.005	0.0154708
856.083	0.0155766
856.161	0.0154535
856.239	0.0153930
856.318	0.0155349
856.396	0.0156047
856.474	0.0154803
856.552	0.0155280
856.630	0.0154552
856.708	0.0154736
856.786	0.0155328
856.864	0.0155140
856.943	0.0154926
857.021	0.0155029
857.099	0.0155062
857.177	0.0155629
857.255	0.0154175
857.333	0.0155162
857.411	0.0154241
857.489	0.0153993
857.568	0.0154325
857.646	0.0155245
857.724	0.0154099
857.802	0.0153376
857.880	0.0155943
857.958	0.0153971
858.036	0.0152914
858.114	0.0155260
858.193	0.0154922
858.271	0.0155143
858.349	0.0154894
858.427	0.0156026
858.505	0.0156168
858.583	0.0155820
858.661	0.0155781
858.739	0.0156961
858.818	0.0157367
858.896	0.0157153
858.974	0.0157332
859.052	0.0157087
859.130	0.0157561
859.208	0.0157666
859.286	0.0156708
859.364	0.0156834
859.443	0.0156897
859.521	0.0158361
859.599	0.0157072
859.677	0.0157167
859.755	0.0157151
859.833	0.0155232
859.911	0.0155788
859.989	0.0154708
860.068	0.0155781
860.146	0.0156306
860.224	0.0155636
860.302	0.0154858
860.380	0.0155244
860.458	0.0155704
860.536	0.0155762
860.614	0.0154912
860.693	0.0155222
860.771	0.0154397
860.849	0.0155986
860.927	0.0154305
861.005	0.0153557
861.083	0.0156739
861.161	0.0153110
861.239	0.0154955
861.318	0.0153791
861.396	0.0153618
861.474	0.0154348
861.552	0.0153402
861.630	0.0154887
861.708	0.0153594
861.786	0.0155003
861.864	0.0154716
861.943	0.0153872
862.021	0.0152484
862.099	0.0152904
862.177	0.0153278
862.255	0.0153900
862.333	0.0153281
862.411	0.0153761
862.489	0.0152969
862.568	0.0154250
862.646	0.0155159
862.724	0.0153149
862.802	0.0154755
862.880	0.0155610
862.958	0.0155383
863.036	0.0155216
863.114	0.0156169
863.193	0.0155165
863.271	0.0156721
863.349	0.0157426
863.427	0.0156074
863.505	0.0157185
863.583	0.0157775
863.661	0.0157214
863.739	0.0157561
863.818	0.0155351
863.896	0.0155788
863.974	0.0158994
864.052	0.0156851
864.130	0.0158277
864.208	0.0157458
864.286	0.0155527
864.364	0.0155203
864.443	0.0155865
864.521	0.0157175
864.599	0.0156051
864.677	0.0155402
864.755	0.0155688
864.833	0.0156081
864.911	0.0155408
864.989	0.0155863
865.068	0.0154633
865.146	0.0155771
865.224	0.0155518
865.302	0.0155659
865.380	0.0154841
865.458	0.0154812
865.536	0.0153844
865.614	0.0154658
865.693	0.0155691
865.771	0.0155356
865.849	0.0155463
865.927	0.0154099
866.005	0.0154913
866.083	0.0154754
866.161	0.0154620
866.239	0.0153786
866.318	0.0156924
866.396	0.0154609
866.474	0.0156091
866.552	0.0155739
866.630	0.0154379
866.708	0.0156326
866.786	0.0155772
866.864	0.0156056
866.943	0.0156133
867.021	0.0156184
867.099	0.0156480
867.177	0.0155692
867.255	0.0155662
867.333	0.0157059
867.411	0.0156873
867.489	0.0156164
867.568	0.0155465
867.646	0.0155891
867.724	0.0155165
867.802	0.0156692
867.880	0.0156005
867.958	0.0155302
868.036	0.0154664
868.114	0.0154943
868.193	0.0155053
868.271	0.0154635
868.349	0.0156207
868.427	0.0154257
868.505	0.0155230
868.583	0.0156049
868.661	0.0154884
868.739	0.0153143
868.818	0.0154597
868.896	0.0154385
868.974	0.0153868
869.052	0.0153394
869.130	0.0154664
869.208	0.0153710
869.286	0.0153191
869.364	0.0153679
869.443	0.0154124
869.521	0.0154221
869.599	0.0153727
869.677	0.0155798
869.755	0.0155095
869.833	0.0154548
869.911	0.0156191
869.989	0.0155013
870.068	0.0156380
870.146	0.0155161
870.224	0.0155969
870.302	0.0155733
870.380	0.0155965
870.458	0.0156768
870.536	0.0156299
870.614	0.0158040
870.693	0.0156710
870.771	0.0158490
870.849	0.0157633
870.927	0.0156911
871.005	0.0158366
871.083	0.0157521
871.161	0.0157356
871.239	0.0156596
871.318	0.0155736
871.396	0.0156327
871.474	0.0157732
871.552	0.0157018
871.630	0.0156937
871.708	0.0155206
871.786	0.0157277
871.864	0.0158270
871.943	0.0157256
872.021	0.0156957
872.099	0.0157124
872.177	0.0156196
872.255	0.0157251
872.333	0.0156837
872.411	0.0156061
872.489	0.0155376
872.568	0.0154720
872.646	0.0154662
872.724	0.0155720
872.802	0.0155930
872.880	0.0154904
872.958	0.0153468
873.036	0.0152827
873.114	0.0152784
873.193	0.0152098
873.271	0.0152691
873.349	0.0153716
873.427	0.0153712
873.505	0.0151205
873.583	0.0151813
873.661	0.0152822
873.739	0.0154264
873.818	0.0153253
873.896	0.0151992
873.974	0.0153603
874.052	0.0153345
874.130	0.0155137
874.208	0.0154597
874.286	0.0154003
874.364	0.0155489
874.443	0.0156393
874.521	0.0157008
874.599	0.0157558
874.677	0.0158764
874.755	0.0157392
874.833	0.0157677
874.911	0.0157613
874.989	0.0157797
875.068	0.0158562
875.146	0.0158934
875.224	0.0158836
875.302	0.0157424
875.380	0.0158583
875.458	0.0157254
875.536	0.0157557
875.614	0.0157809
875.693	0.0156751
875.771	0.0157005
875.849	0.0156450
875.927	0.0156863
876.005	0.0156797
876.083	0.0157261
876.161	0.0157364
876.239	0.0155688
876.318	0.0156727
876.396	0.0158367
876.474	0.0156914
876.552	0.0157331
876.630	0.0156533
876.708	0.0156316
876.786	0.0155968
876.864	0.0156753
876.943	0.0156308
877.021	0.0156757
877.099	0.0155150
877.177	0.0154562
877.255	0.0153286
877.333	0.0153945
877.411	0.0153806
877.489	0.0153725
877.568	0.0153563
877.646	0.0152160
877.724	0.0154492
877.802	0.0153432
877.880	0.0152580
877.958	0.0153357
878.036	0.0153425
878.114	0.0154418
878.193	0.0153412
878.271	0.0153614
878.349	0.0153817
878.427	0.0155766
878.505	0.0154465
878.583	0.0156480
878.661	0.0157082
878.739	0.0156803
878.818	0.0157406
878.896	0.0157952
878.974	0.0159280
879.052	0.0157859
879.130	0.0159155
879.208	0.0158626
879.286	0.0157561
879.364	0.0157953
879.443	0.0158195
879.521	0.0157126
879.599	0.0158205
879.677	0.0157817
879.755	0.0157627
879.833	0.0157340
879.911	0.0157564
879.989	0.0158208
880.068	0.0157102
880.146	0.0159092
880.224	0.0156703
880.302	0.0158446
880.380	0.0155322
880.458	0.0154814
880.536	0.0154955
880.614	0.0154843
880.693	0.0154107
880.771	0.0153160
880.849	0.0153899
880.927	0.0154386
881.005	0.0153852
881.083	0.0152030
881.161	0.0152572
881.239	0.0152557
881.318	0.0151974
881.396	0.0153248
881.474	0.0153726
881.552	0.0152338
881.630	0.0153114
881.708	0.0154608
881.786	0.0153864
881.864	0.0154034
881.943	0.0154393
882.021	0.0156084
882.099	0.0157445
882.177	0.0158584
882.255	0.0159155
882.333	0.0157772
882.411	0.0159269
882.489	0.0159187
882.568	0.0159532
882.646	0.0159340
882.724	0.0159579
882.802	0.0160354
882.880	0.0160656
882.958	0.0160450
883.036	0.0158805
883.114	0.0159406
883.193	0.0158022
883.271	0.0159525
883.349	0.0158243
883.427	0.0156602
883.505	0.0156316
883.583	0.0157133
883.661	0.0156351
883.739	0.0154420
883.818	0.0153931
883.896	0.0153794
883.974	0.0153216
884.052	0.0153588
884.130	0.0152983
884.208	0.0152834
884.286	0.0151924
884.364	0.0153313
884.443	0.0153848
884.521	0.0153632
884.599	0.0152840
884.677	0.0153568
884.755	0.0154687
884.833	0.0153610
884.911	0.0153853
884.989	0.0155122
885.068	0.0153467
885.146	0.0152898
885.224	0.0153975
885.302	0.0154612
885.380	0.0154745
885.458	0.0153125
885.536	0.0152274
885.614	0.0154968
885.693	0.0154296
885.771	0.0154171
885.849	0.0154368
885.927	0.0155058
886.005	0.0155143
886.083	0.0155133
886.161	0.0156669
886.239	0.0157524
886.318	0.0155631
886.396	0.0157455
886.474	0.0158273
886.552	0.0158570
886.630	0.0158076
886.708	0.0159109
886.786	0.0160556
886.864	0.0159898
886.943	0.0160269
887.021	0.0161823
887.099	0.0161813
887.177	0.0161593
887.255	0.0160181
887.333	0.0159975
887.411	0.0160455
887.489	0.0157177
887.568	0.0159632
887.646	0.0157471
887.724	0.0154707
887.802	0.0153739
887.880	0.0153965
887.958	0.0153536
888.036	0.0151698
888.114	0.0149619
888.193	0.0150320
888.271	0.0149781
888.349	0.0148852
888.427	0.0149223
888.505	0.0149290
888.583	0.0149754
888.661	0.0151033
888.739	0.0150073
888.818	0.0151383
888.896	0.0152730
888.974	0.0153612
889.052	0.0153390
889.130	0.0156129
889.208	0.0156088
889.286	0.0157076
889.364	0.0157692
889.443	0.0158395
889.521	0.0158733
889.599	0.0159904
889.677	0.0158620
889.755	0.0158755
889.833	0.0158627
889.911	0.0158958
889.989	0.0159632
890.068	0.0158827
890.146	0.0157846
890.224	0.0157527
890.302	0.0159062
890.380	0.0157467
890.458	0.0157307
890.536	0.0156792
890.614	0.0156524
890.693	0.0158059
890.771	0.0158064
890.849	0.0156708
890.927	0.0157510
891.005	0.0156050
891.083	0.0158617
891.161	0.0158994
891.239	0.0157140
891.318	0.0157434
891.396	0.0158471
891.474	0.0158649
891.552	0.0157671
891.630	0.0156879
891.708	0.0155058
891.786	0.0157275
891.864	0.0156042
891.943	0.0156081
892.021	0.0154123
892.099	0.0153788
892.177	0.0152309
892.255	0.0152892
892.333	0.0151769
892.411	0.0153669
892.489	0.0152843
892.568	0.0152123
892.646	0.0152488
892.724	0.0153162
892.802	0.0152509
892.880	0.0152516
892.958	0.0152396
893.036	0.0153496
893.114	0.0153141
893.193	0.0155053
893.271	0.0154763
893.349	0.0156873
893.427	0.0156739
893.505	0.0157529
893.583	0.0158786
893.661	0.0159114
893.739	0.0159400
893.818	0.0159370
893.896	0.0158556
893.974	0.0159378
894.052	0.0159985
894.130	0.0159026
894.208	0.0159470
894.286	0.0157816
894.364	0.0157452
894.443	0.0156761
894.521	0.0157598
894.599	0.0155505
894.677	0.0154698
894.755	0.0155356
894.833	0.0155901
894.911	0.0156667
894.989	0.0156451
895.068	0.0156254
895.146	0.0156517
895.224	0.0156587
895.302	0.0157623
895.380	0.0157748
895.458	0.0156945
895.536	0.0157404
895.614	0.0157728
895.693	0.0156256
895.771	0.0157063
895.849	0.0157961
895.927	0.0158072
896.005	0.0156135
896.083	0.0157477
896.161	0.0157249
896.239	0.0156509
896.318	0.0157285
896.396	0.0156000
896.474	0.0155890
896.552	0.0156377
896.630	0.0156516
896.708	0.0154646
896.786	0.0153727
896.864	0.0154479
896.943	0.0153713
897.021	0.0154098
897.099	0.0153787
897.177	0.0151786
897.255	0.0152766
897.333	0.0153278
897.411	0.0152522
897.489	0.0152507
897.568	0.0154007
897.646	0.0154557
897.724	0.0154861
897.802	0.0155224
897.880	0.0155606
897.958	0.0156853
898.036	0.0157294
898.114	0.0157925
898.193	0.0159286
898.271	0.0159124
898.349	0.0158592
898.427	0.0159071
898.505	0.0159695
898.583	0.0160382
898.661	0.0160376
898.739	0.0158833
898.818	0.0157528
898.896	0.0158628
898.974	0.0159727
899.052	0.0157970
899.130	0.0157179
899.208	0.0156036
899.286	0.0155841
899.364	0.0155727
899.443	0.0155026
899.521	0.0155360
899.599	0.0154216
899.677	0.0154536
899.755	0.0152964
899.833	0.0154247
899.911	0.0153173
899.989	0.0154019
900.068	0.0155116
900.146	0.0153439
900.224	0.0153979
900.302	0.0154638
900.380	0.0154015
900.458	0.0154661
900.536	0.0155201
900.614	0.0154943
900.693	0.0156331
900.771	0.0154964
900.849	0.0155953
900.927	0.0157096
901.005	0.0156209
901.083	0.0155328
901.161	0.0156558
901.239	0.0157174
901.318	0.0156013
901.396	0.0156008
901.474	0.0157263
901.552	0.0157049
901.630	0.0154575
901.708	0.0155302
901.786	0.0155612
901.864	0.0155897
901.943	0.0156460
902.021	0.0155980
902.099	0.0155151
902.177	0.0155359
902.255	0.0156961
902.333	0.0156296
902.411	0.0156752
902.489	0.0158015
902.568	0.0157673
902.646	0.0158681
902.724	0.0160129
902.802	0.0159011
902.880	0.0159148
902.958	0.0159263
903.036	0.0158436
903.114	0.0158316
903.193	0.0158447
903.271	0.0156886
903.349	0.0156998
903.427	0.0156969
903.505	0.0155827
903.583	0.0154730
903.661	0.0153793
903.739	0.0153616
903.818	0.0151276
903.896	0.0151462
903.974	0.0151418
904.052	0.0149464
904.130	0.0149908
904.208	0.0150179
904.286	0.0151453
904.364	0.0150980
904.443	0.0150967
904.521	0.0153171
904.599	0.0153092
904.677	0.0154044
904.755	0.0153675
904.833	0.0155075
904.911	0.0155560
904.989	0.0155154
905.068	0.0155923
905.146	0.0156997
905.224	0.0156376
905.302	0.0157399
905.380	0.0157749
905.458	0.0158150
905.536	0.0158088
905.614	0.0157970
905.693	0.0158318
905.771	0.0158904
905.849	0.0159019
905.927	0.0159120
906.005	0.0159763
906.083	0.0159015
906.161	0.0158263
906.239	0.0158811
906.318	0.0158171
906.396	0.0157150
906.474	0.0156518
906.552	0.0158022
906.630	0.0156562
906.708	0.0156429
906.786	0.0157003
906.864	0.0155846
906.943	0.0156349
907.021	0.0153941
907.099	0.0153330
907.177	0.0154900
907.255	0.0154662
907.333	0.0154501
907.411	0.0153683
907.489	0.0154738
907.568	0.0155023
907.646	0.0155069
907.724	0.0154871
907.802	0.0155417
907.880	0.0153742
907.958	0.0154480
908.036	0.0155566
908.114	0.0155650
908.193	0.0155577
908.271	0.0154880
908.349	0.0156374
908.427	0.0153691
908.505	0.0154957
908.583	0.0155250
908.661	0.0153973
908.739	0.0153836
908.818	0.0153561
908.896	0.0153932
908.974	0.0154107
909.052	0.0154237
909.130	0.0153222
909.208	0.0153687
909.286	0.0154189
909.364	0.0153833
909.443	0.0153568
909.521	0.0154718
909.599	0.0154651
909.677	0.0153222
909.755	0.0153180
909.833	0.0154243
909.911	0.0154344
909.989	0.0155314
910.068	0.0155949
910.146	0.0155413
910.224	0.0155650
910.302	0.0155664
910.380	0.0155234
910.458	0.0156619
910.536	0.0156936
910.614	0.0155746
910.693	0.0157342
910.771	0.0156818
910.849	0.0160086
910.927	0.0158825
911.005	0.0158986
911.083	0.0157879
911.161	0.0158002
911.239	0.0158730
911.318	0.0157509
911.396	0.0157621
911.474	0.0157985
911.552	0.0158804
911.630	0.0157465
911.708	0.0157865
911.786	0.0155775
911.864	0.0157262
911.943	0.0156316
912.021	0.0155785
912.099	0.0156100
912.177	0.0155685
912.255	0.0155477
912.333	0.0154325
912.411	0.0153393
912.489	0.0153170
912.568	0.0153473
912.646	0.0153046
912.724	0.0153414
912.802	0.0152139
912.880	0.0152145
912.958	0.0152785
913.036	0.0152043
913.114	0.0151746
913.193	0.0153906
913.271	0.0151857
913.349	0.0152888
913.427	0.0151784
913.505	0.0152919
913.583	0.0154638
913.661	0.0155992
913.739	0.0154299
913.818	0.0155914
913.896	0.0155401
913.974	0.0156104
914.052	0.0155567
914.130	0.0155476
914.208	0.0156139
914.286	0.0155856
914.364	0.0157034
914.443	0.0156723
914.521	0.0155851
914.599	0.0157005
914.677	0.0156226
914.755	0.0157014
914.833	0.0156765
914.911	0.0156921
914.989	0.0155380
915.068	0.0156761
915.146	0.0156118
915.224	0.0155602
915.302	0.0155373
915.380	0.0156142
915.458	0.0157767
915.536	0.0158385
915.614	0.0157519
915.693	0.0156247
915.771	0.0156841
915.849	0.0156393
915.927	0.0157903
916.005	0.0157281
916.083	0.0157816
916.161	0.0156420
916.239	0.0156160
916.318	0.0155950
916.396	0.0157662
916.474	0.0156552
916.552	0.0157167
916.630	0.0155459
916.708	0.0155815
916.786	0.0155750
916.864	0.0155266
916.943	0.0155850
917.021	0.0155488
917.099	0.0154537
917.177	0.0154848
917.255	0.0154001
917.333	0.0155222
917.411	0.0154922
917.489	0.0155746
917.568	0.0154971
917.646	0.0154089
917.724	0.0154279
917.802	0.0154121
917.880	0.0153857
917.958	0.0153059
918.036	0.0153833
918.114	0.0154868
918.193	0.0155718
918.271	0.0155752
918.349	0.0154867
918.427	0.0154273
918.505	0.0155064
918.583	0.0155779
918.661	0.0155738
918.739	0.0154874
918.818	0.0155547
918.896	0.0155587
918.974	0.0156728
919.052	0.0156383
919.130	0.0154835
919.208	0.0157106
919.286	0.0157264
919.364	0.0159225
919.443	0.0156870
919.521	0.0157102
919.599	0.0158511
919.677	0.0155856
919.755	0.0156310
919.833	0.0156702
919.911	0.0156711
919.989	0.0157439
920.068	0.0156812
920.146	0.0156189
920.224	0.0155708
920.302	0.0155045
920.380	0.0155851
920.458	0.0155241
920.536	0.0156298
920.614	0.0154992
920.693	0.0154395
920.771	0.0155915
920.849	0.0155125
920.927	0.0155357
921.005	0.0154311
921.083	0.0154773
921.161	0.0155154
921.239	0.0157245
921.318	0.0156377
921.396	0.0155551
921.474	0.0155521
921.552	0.0156571
921.630	0.0156551
921.708	0.0156923
921.786	0.0157936
921.864	0.0156303
921.943	0.0155646
922.021	0.0156708
922.099	0.0157877
922.177	0.0156025
922.255	0.0155071
922.333	0.0155432
922.411	0.0157370
922.489	0.0156471
922.568	0.0154507
922.646	0.0154861
922.724	0.0156877
922.802	0.0155035
922.880	0.0154163
922.958	0.0154742
923.036	0.0154266
923.114	0.0155597
923.193	0.0154681
923.271	0.0153240
923.349	0.0154180
923.427	0.0154897
923.505	0.0153981
923.583	0.0154253
923.661	0.0154739
923.739	0.0155030
923.818	0.0155680
923.896	0.0155173
923.974	0.0155579
924.052	0.0155075
924.130	0.0156323
924.208	0.0155881
924.286	0.0155743
924.364	0.0156184
924.443	0.0155384
924.521	0.0156006
924.599	0.0156306
924.677	0.0155721
924.755	0.0157495
924.833	0.0156805
924.911	0.0156323
924.989	0.0155949
925.068	0.0156849
925.146	0.0157401
925.224	0.0157486
925.302	0.0157571
925.380	0.0156354
925.458	0.0156658
925.536	0.0157182
925.614	0.0156273
925.693	0.0156813
925.771	0.0156841
925.849	0.0155576
925.927	0.0157681
926.005	0.0156636
926.083	0.0157164
926.161	0.0155305
926.239	0.0156355
926.318	0.0155078
926.396	0.0155247
926.474	0.0155395
926.552	0.0153639
926.630	0.0155739
926.708	0.0154981
926.786	0.0154508
926.864	0.0154380
926.943	0.0155108
927.021	0.0155116
927.099	0.0154501
927.177	0.0155692
927.255	0.0155836
927.333	0.0153733
927.411	0.0154166
927.489	0.0154400
927.568	0.0153712
927.646	0.0154626
927.724	0.0154595
927.802	0.0154566
927.880	0.0155144
927.958	0.0155048
928.036	0.0155231
928.114	0.0154909
928.193	0.0155642
928.271	0.0154984
928.349	0.0154850
928.427	0.0154979
928.505	0.0156597
928.583	0.0154581
928.661	0.0155878
928.739	0.0155495
928.818	0.0155698
928.896	0.0156241
928.974	0.0156239
929.052	0.0155969
929.130	0.0156436
929.208	0.0156385
929.286	0.0155841
929.364	0.0156815
929.443	0.0156908
929.521	0.0157658
929.599	0.0156824
929.677	0.0156897
929.755	0.0157669
929.833	0.0156991
929.911	0.0158407
929.989	0.0158995
930.068	0.0155520
930.146	0.0155229
930.224	0.0157750
930.302	0.0157117
930.380	0.0155935
930.458	0.0155685
930.536	0.0155787
930.614	0.0155911
930.693	0.0155225
930.771	0.0153647
930.849	0.0154857
930.927	0.0154286
931.005	0.0151717
931.083	0.0152511
931.161	0.0152843
931.239	0.0153075
931.318	0.0153859
931.396	0.0151692
931.474	0.0152050
931.552	0.0152024
931.630	0.0155390
931.708	0.0152477
931.786	0.0152201
931.864	0.0153241
931.943	0.0155029
932.021	0.0155815
932.099	0.0155904
932.177	0.0156290
932.255	0.0156685
932.333	0.0155554
932.411	0.0155125
932.489	0.0156512
932.568	0.0156880
932.646	0.0156867
932.724	0.0155912
932.802	0.0157885
932.880	0.0154998
932.958	0.0154302
933.036	0.0156885
933.114	0.0155597
933.193	0.0156140
933.271	0.0155538
933.349	0.0155826
933.427	0.0156118
933.505	0.0154942
933.583	0.0155150
933.661	0.0154160
933.739	0.0155319
933.818	0.0155198
933.896	0.0155483
933.974	0.0155299
934.052	0.0154900
934.130	0.0155303
934.208	0.0154976
934.286	0.0158469
934.364	0.0156281
934.443	0.0156438
934.521	0.0156580
934.599	0.0157458
934.677	0.0156877
934.755	0.0156007
934.833	0.0157391
934.911	0.0157881
934.989	0.0156514
935.068	0.0155806
935.146	0.0156984
935.224	0.0156049
935.302	0.0156123
935.380	0.0155140
935.458	0.0155396
935.536	0.0155811
935.614	0.0156448
935.693	0.0155492
935.771	0.0154955
935.849	0.0156042
935.927	0.0155904
936.005	0.0155463
936.083	0.0154720
936.161	0.0156156
936.239	0.0156360
936.318	0.0157658
936.396	0.0155263
936.474	0.0156181
936.552	0.0156252
936.630	0.0155521
936.708	0.0155904
936.786	0.0155051
936.864	0.0154205
936.943	0.0154332
937.021	0.0153938
937.099	0.0154238
937.177	0.0153464
937.255	0.0155067
937.333	0.0152762
937.411	0.0152391
937.489	0.0151650
937.568	0.0154327
937.646	0.0152808
937.724	0.0152930
937.802	0.0153837
937.880	0.0155779
937.958	0.0154581
938.036	0.0155987
938.114	0.0155907
938.193	0.0158836
938.271	0.0156283
938.349	0.0157550
938.427	0.0156445
938.505	0.0156715
938.583	0.0158968
938.661	0.0159162
938.739	0.0159480
938.818	0.0158205
938.896	0.0157475
938.974	0.0156604
939.052	0.0156002
939.130	0.0156808
939.208	0.0156428
939.286	0.0157639
939.364	0.0156454
939.443	0.0155036
939.521	0.0157390
939.599	0.0156712
939.677	0.0156426
939.755	0.0156017
939.833	0.0155158
939.911	0.0155424
939.989	0.0155997
940.068	0.0156257
940.146	0.0154921
940.224	0.0156274
940.302	0.0157413
940.380	0.0155698
940.458	0.0154471
940.536	0.0155946
940.614	0.0155095
940.693	0.0155724
940.771	0.0156184
940.849	0.0153582
940.927	0.0154448
941.005	0.0154314
941.083	0.0152024
941.161	0.0153336
941.239	0.0153853
941.318	0.0154677
941.396	0.0153622
941.474	0.0153535
941.552	0.0154150
941.630	0.0155035
941.708	0.0154770
941.786	0.0154770
941.864	0.0155269
941.943	0.0157310
942.021	0.0155727
942.099	0.0155733
942.177	0.0156651
942.255	0.0156083
942.333	0.0156232
942.411	0.0156154
942.489	0.0157091
942.568	0.0155704
942.646	0.0155052
942.724	0.0155896
942.802	0.0156323
942.880	0.0156968
942.958	0.0156686
943.036	0.0156281
943.114	0.0156905
943.193	0.0157129
943.271	0.0157215
943.349	0.0156390
943.427	0.0157153
943.505	0.0155447
943.583	0.0156738
943.661	0.0154721
943.739	0.0155630
943.818	0.0155959
943.896	0.0153490
943.974	0.0155579
944.052	0.0156089
944.130	0.0155387
944.208	0.0155274
944.286	0.0154530
944.364	0.0153715
944.443	0.0155421
944.521	0.0155779
944.599	0.0155164
944.677	0.0154417
944.755	0.0154315
944.833	0.0154113
944.911	0.0154198
944.989	0.0154569
945.068	0.0154351
945.146	0.0153864
945.224	0.0154455
945.302	0.0154817
945.380	0.0154748
945.458	0.0157005
945.536	0.0155974
945.614	0.0156361
945.693	0.0156304
945.771	0.0157011
945.849	0.0157848
945.927	0.0157448
946.005	0.0157445
946.083	0.0156078
946.161	0.0157244
946.239	0.0156969
946.318	0.0157562
946.396	0.0156583
946.474	0.0156693
946.552	0.0155821
946.630	0.0155953
946.708	0.0155688
946.786	0.0155293
946.864	0.0154731
946.943	0.0156532
947.021	0.0153757
947.099	0.0156020
947.177	0.0156087
947.255	0.0156009
947.333	0.0156586
947.411	0.0156206
947.489	0.0154935
947.568	0.0155711
947.646	0.0155843
947.724	0.0156816
947.802	0.0156527
947.880	0.0156222
947.958	0.0155959
948.036	0.0155186
948.114	0.0154733
948.193	0.0155653
948.271	0.0154549
948.349	0.0153976
948.427	0.0154399
948.505	0.0153866
948.583	0.0153182
948.661	0.0153797
948.739	0.0152396
948.818	0.0152720
948.896	0.0151328
948.974	0.0152199
949.052	0.0154202
949.130	0.0153180
949.208	0.0152811
949.286	0.0153172
949.364	0.0154758
949.443	0.0155560
949.521	0.0156039
949.599	0.0156352
949.677	0.0157918
949.755	0.0156876
949.833	0.0157629
949.911	0.0158121
949.989	0.0159546
950.068	0.0158694
950.146	0.0158553
950.224	0.0159071
950.302	0.0157290
950.380	0.0157944
950.458	0.0158461
950.536	0.0158576
950.614	0.0155692
950.693	0.0156490
950.771	0.0155278
950.849	0.0155869
950.927	0.0154518
951.005	0.0154906
951.083	0.0156447
951.161	0.0154525
951.239	0.0154691
951.318	0.0154540
951.396	0.0155840
951.474	0.0155209
951.552	0.0155318
951.630	0.0153608
951.708	0.0154353
951.786	0.0157128
951.864	0.0155316
951.943	0.0155848
952.021	0.0156942
952.099	0.0155671
952.177	0.0155843
952.255	0.0156088
952.333	0.0155914
952.411	0.0155492
952.489	0.0155501
952.568	0.0155261
952.646	0.0154635
952.724	0.0153739
952.802	0.0153048
952.880	0.0153282
952.958	0.0153763
953.036	0.0153065
953.114	0.0152885
953.193	0.0152225
953.271	0.0152193
953.349	0.0153286
953.427	0.0154372
953.505	0.0155035
953.583	0.0153403
953.661	0.0154109
953.739	0.0154084
953.818	0.0155892
953.896	0.0155893
953.974	0.0157732
954.052	0.0157994
954.130	0.0157726
954.208	0.0157291
954.286	0.0157785
954.364	0.0156796
954.443	0.0157939
954.521	0.0156976
954.599	0.0157639
954.677	0.0157486
954.755	0.0156863
954.833	0.0155939
954.911	0.0156882
954.989	0.0156127
955.068	0.0156429
955.146	0.0155309
955.224	0.0155704
955.302	0.0155492
955.380	0.0156049
955.458	0.0154771
955.536	0.0154847
955.614	0.0155460
955.693	0.0154678
955.771	0.0152676
955.849	0.0155161
955.927	0.0156469
956.005	0.0155180
956.083	0.0154870
956.161	0.0155929
956.239	0.0156231
956.318	0.0155296
956.396	0.0155692
956.474	0.0156002
956.552	0.0156742
956.630	0.0155789
956.708	0.0155671
956.786	0.0155311
956.864	0.0156060
956.943	0.0153631
957.021	0.0154116
957.099	0.0154160
957.177	0.0154793
957.255	0.0154743
957.333	0.0154601
957.411	0.0154590
957.489	0.0155487
957.568	0.0154598
957.646	0.0155357
957.724	0.0155280
957.802	0.0154692
957.880	0.0154699
957.958	0.0155145
958.036	0.0156887
958.114	0.0156289
958.193	0.0157157
958.271	0.0156790
958.349	0.0156294
958.427	0.0155862
958.505	0.0157239
958.583	0.0155942
958.661	0.0156539
958.739	0.0158408
958.818	0.0157618
958.896	0.0156834
958.974	0.0156767
959.052	0.0156187
959.130	0.0156553
959.208	0.0156355
959.286	0.0156408
959.364	0.0155274
959.443	0.0154175
959.521	0.0154795
959.599	0.0155270
959.677	0.0155353
959.755	0.0156240
959.833	0.0155602
959.911	0.0156032
