05/17/2022	16:40:53	Ver.	4.1	UNKNOWN
Optical Delay	639.989416	Delta X		0.078125	Sweeps	1	Scan Rate	0/0
Coordinates	Axis 1	NaN	Axis 2	NaN	Axis 3	NaN	Axis 4	NaN	Axis 5	NaN	Axis 6	0.000000
TX Power	0.000000	RX Power	0.000000

639.989	0.0153339
640.068	0.0152966
640.146	0.0152890
640.224	0.0153941
640.302	0.0154055
640.380	0.0153413
640.458	0.0153207
640.536	0.0152563
640.614	0.0154026
640.693	0.0154028
640.771	0.0153313
640.849	0.0154442
640.927	0.0153787
641.005	0.0152993
641.083	0.0155306
641.161	0.0153278
641.239	0.0153197
641.318	0.0151844
641.396	0.0154362
641.474	0.0153999
641.552	0.0153164
641.630	0.0154523
641.708	0.0152706
641.786	0.0153941
641.864	0.0153154
641.943	0.0152753
642.021	0.0153004
642.099	0.0153776
642.177	0.0154527
642.255	0.0153209
642.333	0.0152734
642.411	0.0153594
642.489	0.0153597
642.568	0.0153332
642.646	0.0152982
642.724	0.0153379
642.802	0.0152825
642.880	0.0154192
642.958	0.0152676
643.036	0.0153431
643.114	0.0153434
643.193	0.0153380
643.271	0.0154060
643.349	0.0152975
643.427	0.0152260
643.505	0.0153527
643.583	0.0153679
643.661	0.0153951
643.739	0.0153844
643.818	0.0153886
643.896	0.0153394
643.974	0.0152441
644.052	0.0152870
644.130	0.0153699
644.208	0.0153942
644.286	0.0154378
644.364	0.0154037
644.443	0.0153410
644.521	0.0154153
644.599	0.0152977
644.677	0.0153113
644.755	0.0152425
644.833	0.0154112
644.911	0.0153671
644.989	0.0154229
645.068	0.0153670
645.146	0.0152338
645.224	0.0153116
645.302	0.0153677
645.380	0.0152779
645.458	0.0153094
645.536	0.0154303
645.614	0.0154135
645.693	0.0153462
645.771	0.0154826
645.849	0.0151904
645.927	0.0152914
646.005	0.0152520
646.083	0.0153441
646.161	0.0153900
646.239	0.0153072
646.318	0.0152061
646.396	0.0153450
646.474	0.0153106
646.552	0.0153302
646.630	0.0155326
646.708	0.0152789
646.786	0.0152982
646.864	0.0154066
646.943	0.0153522
647.021	0.0154198
647.099	0.0153793
647.177	0.0153980
647.255	0.0152054
647.333	0.0153739
647.411	0.0153278
647.489	0.0152915
647.568	0.0153828
647.646	0.0153394
647.724	0.0153169
647.802	0.0153894
647.880	0.0153181
647.958	0.0154084
648.036	0.0154148
648.114	0.0153067
648.193	0.0152003
648.271	0.0152623
648.349	0.0153403
648.427	0.0153914
648.505	0.0152627
648.583	0.0153600
648.661	0.0153444
648.739	0.0154333
648.818	0.0153808
648.896	0.0152452
648.974	0.0153014
649.052	0.0153801
649.130	0.0152624
649.208	0.0153634
649.286	0.0154444
649.364	0.0154189
649.443	0.0153696
649.521	0.0153310
649.599	0.0153907
649.677	0.0155057
649.755	0.0152135
649.833	0.0152686
649.911	0.0154990
649.989	0.0154399
650.068	0.0153836
650.146	0.0152394
650.224	0.0153170
650.302	0.0154046
650.380	0.0154412
650.458	0.0154742
650.536	0.0153709
650.614	0.0153011
650.693	0.0153232
650.771	0.0154258
650.849	0.0153231
650.927	0.0153709
651.005	0.0154789
651.083	0.0153820
651.161	0.0154149
651.239	0.0154118
651.318	0.0154763
651.396	0.0152914
651.474	0.0152982
651.552	0.0153503
651.630	0.0153766
651.708	0.0152662
651.786	0.0152699
651.864	0.0152083
651.943	0.0154365
652.021	0.0154371
652.099	0.0153463
652.177	0.0152806
652.255	0.0152927
652.333	0.0152902
652.411	0.0153659
652.489	0.0154576
652.568	0.0153590
652.646	0.0153188
652.724	0.0152537
652.802	0.0154546
652.880	0.0153396
652.958	0.0154129
653.036	0.0154711
653.114	0.0154075
653.193	0.0154838
653.271	0.0153072
653.349	0.0155203
653.427	0.0153663
653.505	0.0152766
653.583	0.0154146
653.661	0.0154717
653.739	0.0154645
653.818	0.0153640
653.896	0.0154298
653.974	0.0153632
654.052	0.0153178
654.130	0.0153519
654.208	0.0153366
654.286	0.0155142
654.364	0.0152343
654.443	0.0153756
654.521	0.0152358
654.599	0.0154634
654.677	0.0154472
654.755	0.0153071
654.833	0.0154346
654.911	0.0154375
654.989	0.0155269
655.068	0.0154502
655.146	0.0153809
655.224	0.0153144
655.302	0.0153812
655.380	0.0154161
655.458	0.0154266
655.536	0.0154433
655.614	0.0153988
655.693	0.0153513
655.771	0.0153680
655.849	0.0153699
655.927	0.0154619
656.005	0.0153982
656.083	0.0151676
656.161	0.0153442
656.239	0.0152883
656.318	0.0153502
656.396	0.0152731
656.474	0.0152525
656.552	0.0152829
656.630	0.0152702
656.708	0.0152937
656.786	0.0152554
656.864	0.0152775
656.943	0.0153355
657.021	0.0153667
657.099	0.0155096
657.177	0.0153341
657.255	0.0153828
657.333	0.0152999
657.411	0.0155733
657.489	0.0154281
657.568	0.0154081
657.646	0.0152755
657.724	0.0154913
657.802	0.0153983
657.880	0.0152802
657.958	0.0154117
658.036	0.0154041
658.114	0.0152249
658.193	0.0153918
658.271	0.0154676
658.349	0.0154062
658.427	0.0153682
658.505	0.0154532
658.583	0.0154294
658.661	0.0153242
658.739	0.0154308
658.818	0.0153313
658.896	0.0153100
658.974	0.0152238
659.052	0.0153110
659.130	0.0152966
659.208	0.0152839
659.286	0.0153419
659.364	0.0152975
659.443	0.0154308
659.521	0.0153342
659.599	0.0153774
659.677	0.0154725
659.755	0.0154308
659.833	0.0153086
659.911	0.0154144
659.989	0.0154667
660.068	0.0153858
660.146	0.0154060
660.224	0.0153579
660.302	0.0153956
660.380	0.0154388
660.458	0.0153041
660.536	0.0154235
660.614	0.0154288
660.693	0.0154423
660.771	0.0153619
660.849	0.0154332
660.927	0.0153515
661.005	0.0153110
661.083	0.0152893
661.161	0.0154097
661.239	0.0154589
661.318	0.0153880
661.396	0.0153880
661.474	0.0152544
661.552	0.0153939
661.630	0.0154063
661.708	0.0153488
661.786	0.0153931
661.864	0.0153948
661.943	0.0154353
662.021	0.0155148
662.099	0.0154399
662.177	0.0153621
662.255	0.0153621
662.333	0.0154362
662.411	0.0153751
662.489	0.0154353
662.568	0.0152930
662.646	0.0152484
662.724	0.0152994
662.802	0.0152808
662.880	0.0153165
662.958	0.0154133
663.036	0.0152271
663.114	0.0153182
663.193	0.0154285
663.271	0.0153457
663.349	0.0153175
663.427	0.0153034
663.505	0.0154832
663.583	0.0153268
663.661	0.0152991
663.739	0.0153715
663.818	0.0154066
663.896	0.0152140
663.974	0.0153849
664.052	0.0154617
664.130	0.0153836
664.208	0.0152798
664.286	0.0153139
664.364	0.0154091
664.443	0.0153712
664.521	0.0154179
664.599	0.0154161
664.677	0.0153078
664.755	0.0153699
664.833	0.0154102
664.911	0.0153987
664.989	0.0153024
665.068	0.0153197
665.146	0.0153419
665.224	0.0154201
665.302	0.0153484
665.380	0.0154090
665.458	0.0154506
665.536	0.0152804
665.614	0.0152608
665.693	0.0154719
665.771	0.0153206
665.849	0.0153724
665.927	0.0152129
666.005	0.0153459
666.083	0.0153330
666.161	0.0153882
666.239	0.0154824
666.318	0.0154951
666.396	0.0153188
666.474	0.0152686
666.552	0.0152829
666.630	0.0154071
666.708	0.0153582
666.786	0.0154828
666.864	0.0152911
666.943	0.0153647
667.021	0.0153645
667.099	0.0153113
667.177	0.0154879
667.255	0.0153532
667.333	0.0151591
667.411	0.0154136
667.489	0.0152800
667.568	0.0151883
667.646	0.0153696
667.724	0.0154825
667.802	0.0153449
667.880	0.0154095
667.958	0.0153703
668.036	0.0154379
668.114	0.0153838
668.193	0.0154800
668.271	0.0152277
668.349	0.0152731
668.427	0.0154372
668.505	0.0152320
668.583	0.0153442
668.661	0.0153902
668.739	0.0153732
668.818	0.0153529
668.896	0.0155202
668.974	0.0154561
669.052	0.0154148
669.130	0.0153395
669.208	0.0154353
669.286	0.0153319
669.364	0.0153389
669.443	0.0155157
669.521	0.0154591
669.599	0.0154250
669.677	0.0154374
669.755	0.0154619
669.833	0.0154913
669.911	0.0153390
669.989	0.0154714
670.068	0.0154799
670.146	0.0153002
670.224	0.0154550
670.302	0.0152869
670.380	0.0153734
670.458	0.0152946
670.536	0.0154099
670.614	0.0154407
670.693	0.0153252
670.771	0.0153202
670.849	0.0153632
670.927	0.0153944
671.005	0.0152895
671.083	0.0155933
671.161	0.0154591
671.239	0.0153059
671.318	0.0153401
671.396	0.0154543
671.474	0.0155470
671.552	0.0154276
671.630	0.0153736
671.708	0.0153526
671.786	0.0154003
671.864	0.0153314
671.943	0.0152782
672.021	0.0152247
672.099	0.0153556
672.177	0.0155206
672.255	0.0154354
672.333	0.0154205
672.411	0.0154759
672.489	0.0153993
672.568	0.0153373
672.646	0.0154577
672.724	0.0154501
672.802	0.0153611
672.880	0.0154238
672.958	0.0154288
673.036	0.0154553
673.114	0.0153774
673.193	0.0154515
673.271	0.0154003
673.349	0.0153236
673.427	0.0154759
673.505	0.0152812
673.583	0.0154447
673.661	0.0154262
673.739	0.0153699
673.818	0.0153475
673.896	0.0152022
673.974	0.0153518
674.052	0.0154240
674.130	0.0153371
674.208	0.0155365
674.286	0.0154489
674.364	0.0153408
674.443	0.0151894
674.521	0.0152643
674.599	0.0153728
674.677	0.0154861
674.755	0.0153085
674.833	0.0153721
674.911	0.0154394
674.989	0.0152914
675.068	0.0153059
675.146	0.0153205
675.224	0.0153801
675.302	0.0153087
675.380	0.0153860
675.458	0.0154288
675.536	0.0153507
675.614	0.0153745
675.693	0.0154384
675.771	0.0153806
675.849	0.0153426
675.927	0.0154190
676.005	0.0153927
676.083	0.0154375
676.161	0.0154453
676.239	0.0153808
676.318	0.0153960
676.396	0.0153550
676.474	0.0152518
676.552	0.0154164
676.630	0.0153590
676.708	0.0152300
676.786	0.0153957
676.864	0.0152930
676.943	0.0151983
677.021	0.0154346
677.099	0.0152963
677.177	0.0153640
677.255	0.0155280
677.333	0.0152755
677.411	0.0152723
677.489	0.0153449
677.568	0.0152843
677.646	0.0153181
677.724	0.0153358
677.802	0.0153465
677.880	0.0151395
677.958	0.0152798
678.036	0.0153224
678.114	0.0153915
678.193	0.0154279
678.271	0.0154121
678.349	0.0152483
678.427	0.0152560
678.505	0.0153059
678.583	0.0153268
678.661	0.0152940
678.739	0.0153455
678.818	0.0153554
678.896	0.0153094
678.974	0.0153457
679.052	0.0152458
679.130	0.0153532
679.208	0.0155266
679.286	0.0154990
679.364	0.0153356
679.443	0.0152604
679.521	0.0154887
679.599	0.0154607
679.677	0.0154260
679.755	0.0156064
679.833	0.0155441
679.911	0.0154362
679.989	0.0153485
680.068	0.0155095
680.146	0.0155385
680.224	0.0153747
680.302	0.0153089
680.380	0.0153297
680.458	0.0152261
680.536	0.0152444
680.614	0.0151806
680.693	0.0151628
680.771	0.0151920
680.849	0.0150923
680.927	0.0150288
681.005	0.0151942
681.083	0.0152655
681.161	0.0152273
681.239	0.0153013
681.318	0.0153815
681.396	0.0154073
681.474	0.0152353
681.552	0.0153619
681.630	0.0153017
681.708	0.0154472
681.786	0.0154962
681.864	0.0155936
681.943	0.0154946
682.021	0.0156050
682.099	0.0156187
682.177	0.0156682
682.255	0.0156175
682.333	0.0154737
682.411	0.0154055
682.489	0.0153940
682.568	0.0154346
682.646	0.0153073
682.724	0.0151496
682.802	0.0149400
682.880	0.0149963
682.958	0.0149842
683.036	0.0148897
683.114	0.0148901
683.193	0.0148261
683.271	0.0150301
683.349	0.0148920
683.427	0.0149467
683.505	0.0150253
683.583	0.0150744
683.661	0.0151582
683.739	0.0151866
683.818	0.0153461
683.896	0.0154476
683.974	0.0156938
684.052	0.0158266
684.130	0.0159312
684.208	0.0158588
684.286	0.0160529
684.364	0.0162285
684.443	0.0162043
684.521	0.0162095
684.599	0.0162375
684.677	0.0159917
684.755	0.0159425
684.833	0.0158993
684.911	0.0156287
684.989	0.0154652
685.068	0.0152775
685.146	0.0150496
685.224	0.0149993
685.302	0.0146738
685.380	0.0145287
685.458	0.0142301
685.536	0.0141580
685.614	0.0141238
685.693	0.0140994
685.771	0.0141235
685.849	0.0142421
685.927	0.0143202
686.005	0.0143040
686.083	0.0142789
686.161	0.0146387
686.239	0.0148280
686.318	0.0149519
686.396	0.0151646
686.474	0.0154958
686.552	0.0155517
686.630	0.0158230
686.708	0.0159837
686.786	0.0159869
686.864	0.0161340
686.943	0.0162736
687.021	0.0163016
687.099	0.0164915
687.177	0.0164437
687.255	0.0164084
687.333	0.0166058
687.411	0.0166052
687.489	0.0165836
687.568	0.0166096
687.646	0.0166826
687.724	0.0165430
687.802	0.0165760
687.880	0.0164310
687.958	0.0163107
688.036	0.0162070
688.114	0.0160760
688.193	0.0157348
688.271	0.0157777
688.349	0.0154187
688.427	0.0151963
688.505	0.0148512
688.583	0.0148168
688.661	0.0145206
688.739	0.0141937
688.818	0.0140134
688.896	0.0139453
688.974	0.0136964
689.052	0.0135461
689.130	0.0133403
689.208	0.0132162
689.286	0.0131270
689.364	0.0130102
689.443	0.0131446
689.521	0.0130195
689.599	0.0131528
689.677	0.0132925
689.755	0.0133656
689.833	0.0137922
689.911	0.0140887
689.989	0.0144474
690.068	0.0149595
690.146	0.0155156
690.224	0.0158826
690.302	0.0165178
690.380	0.0170432
690.458	0.0173085
690.536	0.0177336
690.614	0.0178743
690.693	0.0182265
690.771	0.0183482
690.849	0.0185245
690.927	0.0184417
691.005	0.0183714
691.083	0.0182731
691.161	0.0180490
691.239	0.0179343
691.318	0.0178075
691.396	0.0176074
691.474	0.0173307
691.552	0.0172178
691.630	0.0167925
691.708	0.0166068
691.786	0.0162839
691.864	0.0158315
691.943	0.0155173
692.021	0.0152396
692.099	0.0149793
692.177	0.0145805
692.255	0.0143155
692.333	0.0142386
692.411	0.0139522
692.489	0.0138734
692.568	0.0136103
692.646	0.0134820
692.724	0.0132246
692.802	0.0129620
692.880	0.0125806
692.958	0.0122955
693.036	0.0119902
693.114	0.0119997
693.193	0.0118288
693.271	0.0116219
693.349	0.0118635
693.427	0.0119703
693.505	0.0119848
693.583	0.0121169
693.661	0.0124970
693.739	0.0127319
693.818	0.0130730
693.896	0.0134386
693.974	0.0137954
694.052	0.0139881
694.130	0.0144391
694.208	0.0149052
694.286	0.0155550
694.364	0.0159460
694.443	0.0165704
694.521	0.0171472
694.599	0.0177830
694.677	0.0184135
694.755	0.0192039
694.833	0.0197992
694.911	0.0203947
694.989	0.0206400
695.068	0.0210652
695.146	0.0213364
695.224	0.0215520
695.302	0.0213458
695.380	0.0209932
695.458	0.0207288
695.536	0.0204194
695.614	0.0198016
695.693	0.0191423
695.771	0.0182851
695.849	0.0175121
695.927	0.0169410
696.005	0.0159500
696.083	0.0152959
696.161	0.0144994
696.239	0.0138259
696.318	0.0131760
696.396	0.0125529
696.474	0.0121600
696.552	0.0119134
696.630	0.0118607
696.708	0.0118379
696.786	0.0117344
696.864	0.0120264
696.943	0.0120039
697.021	0.0123353
697.099	0.0125023
697.177	0.0125492
697.255	0.0128236
697.333	0.0127636
697.411	0.0127943
697.489	0.0127813
697.568	0.0128345
697.646	0.0126093
697.724	0.0125211
697.802	0.0123392
697.880	0.0122305
697.958	0.0122506
698.036	0.0120381
698.114	0.0120978
698.193	0.0122865
698.271	0.0124960
698.349	0.0127190
698.427	0.0131442
698.505	0.0134301
698.583	0.0140246
698.661	0.0145667
698.739	0.0151655
698.818	0.0157864
698.896	0.0166981
698.974	0.0173215
699.052	0.0181198
699.130	0.0188704
699.208	0.0197659
699.286	0.0205168
699.364	0.0213805
699.443	0.0219005
699.521	0.0223431
699.599	0.0226698
699.677	0.0229168
699.755	0.0227778
699.833	0.0222592
699.911	0.0222302
699.989	0.0216778
700.068	0.0209972
700.146	0.0201587
700.224	0.0192275
700.302	0.0182780
700.380	0.0172611
700.458	0.0161327
700.536	0.0152150
700.614	0.0142370
700.693	0.0133745
700.771	0.0125086
700.849	0.0117365
700.927	0.0109681
701.005	0.0105376
701.083	0.0100085
701.161	0.00987572
701.239	0.00975243
701.318	0.00981125
701.396	0.00989815
701.474	0.0102873
701.552	0.0105457
701.630	0.0110119
701.708	0.0114384
701.786	0.0118026
701.864	0.0122621
701.943	0.0125420
702.021	0.0129263
702.099	0.0133194
702.177	0.0135378
702.255	0.0135327
702.333	0.0138572
702.411	0.0140115
702.489	0.0141110
702.568	0.0142412
702.646	0.0145992
702.724	0.0147889
702.802	0.0149593
702.880	0.0151615
702.958	0.0155052
703.036	0.0155807
703.114	0.0157508
703.193	0.0159389
703.271	0.0160857
703.349	0.0162804
703.427	0.0165693
703.505	0.0167351
703.583	0.0168999
703.661	0.0170438
703.739	0.0175054
703.818	0.0179239
703.896	0.0181493
703.974	0.0185347
704.052	0.0188318
704.130	0.0192146
704.208	0.0196317
704.286	0.0198515
704.364	0.0199907
704.443	0.0199608
704.521	0.0200528
704.599	0.0198636
704.677	0.0197467
704.755	0.0195334
704.833	0.0189367
704.911	0.0184934
704.989	0.0178942
705.068	0.0173048
705.146	0.0165552
705.224	0.0159505
705.302	0.0152774
705.380	0.0145483
705.458	0.0139591
705.536	0.0133633
705.614	0.0126976
705.693	0.0122698
705.771	0.0120181
705.849	0.0116370
705.927	0.0115414
706.005	0.0114321
706.083	0.0114253
706.161	0.0116032
706.239	0.0118723
706.318	0.0121378
706.396	0.0124017
706.474	0.0126952
706.552	0.0131250
706.630	0.0135818
706.708	0.0140287
706.786	0.0145901
706.864	0.0149221
706.943	0.0150697
707.021	0.0152169
707.099	0.0155564
707.177	0.0156967
707.255	0.0156025
707.333	0.0157480
707.411	0.0157124
707.489	0.0156981
707.568	0.0155519
707.646	0.0153819
707.724	0.0155750
707.802	0.0155770
707.880	0.0153320
707.958	0.0152808
708.036	0.0151283
708.114	0.0152148
708.193	0.0151794
708.271	0.0149399
708.349	0.0151649
708.427	0.0151609
708.505	0.0150340
708.583	0.0152216
708.661	0.0153340
708.739	0.0154719
708.818	0.0156761
708.896	0.0158868
708.974	0.0161629
709.052	0.0163886
709.130	0.0167857
709.208	0.0169775
709.286	0.0168941
709.364	0.0172639
709.443	0.0173326
709.521	0.0172374
709.599	0.0171052
709.677	0.0170448
709.755	0.0167873
709.833	0.0165371
709.911	0.0162200
709.989	0.0160744
710.068	0.0159692
710.146	0.0157706
710.224	0.0155926
710.302	0.0154251
710.380	0.0154427
710.458	0.0153313
710.536	0.0153944
710.614	0.0151578
710.693	0.0149641
710.771	0.0150150
710.849	0.0150892
710.927	0.0151417
711.005	0.0153321
711.083	0.0153770
711.161	0.0153998
711.239	0.0154624
711.318	0.0157176
711.396	0.0159026
711.474	0.0161034
711.552	0.0163866
711.630	0.0163141
711.708	0.0163582
711.786	0.0163999
711.864	0.0164024
711.943	0.0164384
712.021	0.0162183
712.099	0.0159758
712.177	0.0156462
712.255	0.0152731
712.333	0.0149056
712.411	0.0144794
712.489	0.0141921
712.568	0.0136831
712.646	0.0134010
712.724	0.0129414
712.802	0.0126813
712.880	0.0124809
712.958	0.0123920
713.036	0.0120588
713.114	0.0123588
713.193	0.0123946
713.271	0.0125521
713.349	0.0128582
713.427	0.0131048
713.505	0.0136703
713.583	0.0138796
713.661	0.0143373
713.739	0.0148187
713.818	0.0154485
713.896	0.0157079
713.974	0.0161436
714.052	0.0164207
714.130	0.0166399
714.208	0.0168547
714.286	0.0169198
714.364	0.0172449
714.443	0.0170878
714.521	0.0170300
714.599	0.0168666
714.677	0.0166065
714.755	0.0163966
714.833	0.0161868
714.911	0.0159327
714.989	0.0160009
715.068	0.0159526
715.146	0.0157681
715.224	0.0157247
715.302	0.0157347
715.380	0.0159206
715.458	0.0159566
715.536	0.0160205
715.614	0.0162389
715.693	0.0165777
715.771	0.0166553
715.849	0.0167709
715.927	0.0168839
716.005	0.0169857
716.083	0.0170817
716.161	0.0169952
716.239	0.0169080
716.318	0.0169579
716.396	0.0166616
716.474	0.0163233
716.552	0.0162186
716.630	0.0162109
716.708	0.0157948
716.786	0.0154049
716.864	0.0151580
716.943	0.0149442
717.021	0.0148171
717.099	0.0144645
717.177	0.0142770
717.255	0.0139796
717.333	0.0136591
717.411	0.0134765
717.489	0.0134783
717.568	0.0134609
717.646	0.0133742
717.724	0.0133622
717.802	0.0134262
717.880	0.0135158
717.958	0.0137772
718.036	0.0137799
718.114	0.0140307
718.193	0.0141859
718.271	0.0144921
718.349	0.0146502
718.427	0.0146027
718.505	0.0149062
718.583	0.0150876
718.661	0.0151948
718.739	0.0152049
718.818	0.0153442
718.896	0.0152687
718.974	0.0153500
719.052	0.0155566
719.130	0.0154889
719.208	0.0155126
719.286	0.0156321
719.364	0.0156832
719.443	0.0157085
719.521	0.0160657
719.599	0.0161993
719.677	0.0161107
719.755	0.0162169
719.833	0.0162668
719.911	0.0164520
719.989	0.0163990
720.068	0.0162846
720.146	0.0163128
720.224	0.0162468
720.302	0.0162582
720.380	0.0160419
720.458	0.0162188
720.536	0.0159740
720.614	0.0157209
720.693	0.0157961
720.771	0.0156390
720.849	0.0156235
720.927	0.0155312
721.005	0.0154069
721.083	0.0154205
721.161	0.0154186
721.239	0.0154558
721.318	0.0155534
721.396	0.0154967
721.474	0.0155094
721.552	0.0154889
721.630	0.0155117
721.708	0.0153342
721.786	0.0153862
721.864	0.0156007
721.943	0.0153370
722.021	0.0151009
722.099	0.0150481
722.177	0.0150034
722.255	0.0149938
722.333	0.0149248
722.411	0.0148443
722.489	0.0148631
722.568	0.0146385
722.646	0.0147912
722.724	0.0148857
722.802	0.0149632
722.880	0.0150530
722.958	0.0152995
723.036	0.0154554
723.114	0.0153687
723.193	0.0156644
723.271	0.0156962
723.349	0.0159505
723.427	0.0159409
723.505	0.0161952
723.583	0.0161054
723.661	0.0161454
723.739	0.0161350
723.818	0.0159646
723.896	0.0157952
723.974	0.0157371
724.052	0.0154674
724.130	0.0153233
724.208	0.0154361
724.286	0.0150400
724.364	0.0149545
724.443	0.0148670
724.521	0.0147256
724.599	0.0147579
724.677	0.0145795
724.755	0.0146083
724.833	0.0147879
724.911	0.0148227
724.989	0.0148321
725.068	0.0149577
725.146	0.0150231
725.224	0.0149874
725.302	0.0149995
725.380	0.0151451
725.458	0.0152504
725.536	0.0152077
725.614	0.0153839
725.693	0.0154895
725.771	0.0156100
725.849	0.0157291
725.927	0.0158150
726.005	0.0159817
726.083	0.0160746
726.161	0.0162827
726.239	0.0163401
726.318	0.0162140
726.396	0.0161774
726.474	0.0161617
726.552	0.0161394
726.630	0.0158818
726.708	0.0158347
726.786	0.0156131
726.864	0.0156135
726.943	0.0154982
727.021	0.0153164
727.099	0.0152661
727.177	0.0150874
727.255	0.0151296
727.333	0.0151607
727.411	0.0150259
727.489	0.0150703
727.568	0.0150622
727.646	0.0151306
727.724	0.0150777
727.802	0.0151657
727.880	0.0150267
727.958	0.0150703
728.036	0.0151459
728.114	0.0152843
728.193	0.0153667
728.271	0.0155024
728.349	0.0154162
728.427	0.0155893
728.505	0.0156578
728.583	0.0157986
728.661	0.0157880
728.739	0.0159590
728.818	0.0158454
728.896	0.0158804
728.974	0.0157186
729.052	0.0158052
729.130	0.0158226
729.208	0.0156313
729.286	0.0156614
729.364	0.0156489
729.443	0.0155740
729.521	0.0154682
729.599	0.0154097
729.677	0.0152248
729.755	0.0152352
729.833	0.0150896
729.911	0.0150990
729.989	0.0151505
730.068	0.0150859
730.146	0.0150915
730.224	0.0151823
730.302	0.0151402
730.380	0.0152747
730.458	0.0153673
730.536	0.0153601
730.614	0.0154048
730.693	0.0154890
730.771	0.0156102
730.849	0.0156804
730.927	0.0156763
731.005	0.0156675
731.083	0.0155795
731.161	0.0156306
731.239	0.0156040
731.318	0.0156656
731.396	0.0155354
731.474	0.0154671
731.552	0.0152965
731.630	0.0152756
731.708	0.0150399
731.786	0.0148517
731.864	0.0148621
731.943	0.0147327
732.021	0.0146683
732.099	0.0145560
732.177	0.0145588
732.255	0.0144325
732.333	0.0144978
732.411	0.0146415
732.489	0.0146346
732.568	0.0147485
732.646	0.0148660
732.724	0.0150911
732.802	0.0150324
732.880	0.0153277
732.958	0.0153768
733.036	0.0155320
733.114	0.0156766
733.193	0.0157666
733.271	0.0158954
733.349	0.0160776
733.427	0.0161083
733.505	0.0161874
733.583	0.0161339
733.661	0.0164120
733.739	0.0164526
733.818	0.0162524
733.896	0.0162438
733.974	0.0162645
734.052	0.0162984
734.130	0.0160887
734.208	0.0159023
734.286	0.0157906
734.364	0.0157792
734.443	0.0156983
734.521	0.0155879
734.599	0.0154845
734.677	0.0155453
734.755	0.0151905
734.833	0.0153309
734.911	0.0152966
734.989	0.0153629
735.068	0.0151962
735.146	0.0150333
735.224	0.0151796
735.302	0.0150890
735.380	0.0150224
735.458	0.0149226
735.536	0.0150822
735.614	0.0148404
735.693	0.0148132
735.771	0.0148211
735.849	0.0147216
735.927	0.0148329
736.005	0.0147483
736.083	0.0147575
736.161	0.0149664
736.239	0.0148373
736.318	0.0147794
736.396	0.0147900
736.474	0.0149095
736.552	0.0149126
736.630	0.0148196
736.708	0.0146783
736.786	0.0147377
736.864	0.0147540
736.943	0.0147709
737.021	0.0147018
737.099	0.0147046
737.177	0.0147544
737.255	0.0148932
737.333	0.0149981
737.411	0.0151347
737.489	0.0151626
737.568	0.0152626
737.646	0.0154633
737.724	0.0156139
737.802	0.0157327
737.880	0.0158389
737.958	0.0158517
738.036	0.0159389
738.114	0.0161088
738.193	0.0162389
738.271	0.0162377
738.349	0.0163042
738.427	0.0162443
738.505	0.0161942
738.583	0.0163245
738.661	0.0163268
738.739	0.0163516
738.818	0.0160641
738.896	0.0161974
738.974	0.0160446
739.052	0.0158978
739.130	0.0159277
739.208	0.0158131
739.286	0.0156318
739.364	0.0153581
739.443	0.0154146
739.521	0.0152222
739.599	0.0152798
739.677	0.0150761
739.755	0.0149924
739.833	0.0150552
739.911	0.0148582
739.989	0.0148606
740.068	0.0149310
740.146	0.0148537
740.224	0.0146679
740.302	0.0147592
740.380	0.0147624
740.458	0.0148283
740.536	0.0148008
740.614	0.0147593
740.693	0.0147178
740.771	0.0149444
740.849	0.0148513
740.927	0.0149065
741.005	0.0149098
741.083	0.0150666
741.161	0.0150439
741.239	0.0150990
741.318	0.0150832
741.396	0.0151087
741.474	0.0153558
741.552	0.0153011
741.630	0.0153383
741.708	0.0153841
741.786	0.0151234
741.864	0.0152660
741.943	0.0152825
742.021	0.0154279
742.099	0.0153976
742.177	0.0152663
742.255	0.0154385
742.333	0.0154506
742.411	0.0155062
742.489	0.0155321
742.568	0.0156501
742.646	0.0156589
742.724	0.0156203
742.802	0.0155730
742.880	0.0157265
742.958	0.0158471
743.036	0.0157162
743.114	0.0157945
743.193	0.0158832
743.271	0.0158354
743.349	0.0159023
743.427	0.0157932
743.505	0.0158289
743.583	0.0158549
743.661	0.0156811
743.739	0.0157984
743.818	0.0157806
743.896	0.0155577
743.974	0.0155263
744.052	0.0154709
744.130	0.0155025
744.208	0.0154180
744.286	0.0153284
744.364	0.0152274
744.443	0.0151679
744.521	0.0149851
744.599	0.0148863
744.677	0.0148417
744.755	0.0147500
744.833	0.0147163
744.911	0.0146285
744.989	0.0147157
745.068	0.0145410
745.146	0.0146522
745.224	0.0147495
745.302	0.0148236
745.380	0.0148820
745.458	0.0148718
745.536	0.0151123
745.614	0.0152165
745.693	0.0151951
745.771	0.0154530
745.849	0.0154597
745.927	0.0155930
746.005	0.0156673
746.083	0.0158315
746.161	0.0158855
746.239	0.0157361
746.318	0.0157352
746.396	0.0158720
746.474	0.0158371
746.552	0.0157917
746.630	0.0158864
746.708	0.0159106
746.786	0.0157882
746.864	0.0158018
746.943	0.0157556
747.021	0.0158048
747.099	0.0157303
747.177	0.0157258
747.255	0.0158066
747.333	0.0157702
747.411	0.0156185
747.489	0.0156632
747.568	0.0156491
747.646	0.0157089
747.724	0.0155616
747.802	0.0156593
747.880	0.0155709
747.958	0.0157545
748.036	0.0158318
748.114	0.0156361
748.193	0.0154971
748.271	0.0157113
748.349	0.0158206
748.427	0.0157108
748.505	0.0157623
748.583	0.0158241
748.661	0.0157462
748.739	0.0156846
748.818	0.0155806
748.896	0.0155602
748.974	0.0153733
749.052	0.0153567
749.130	0.0151051
749.208	0.0151923
749.286	0.0148807
749.364	0.0148125
749.443	0.0145772
749.521	0.0147183
749.599	0.0144929
749.677	0.0143532
749.755	0.0145385
749.833	0.0145367
749.911	0.0146654
749.989	0.0145697
750.068	0.0145966
750.146	0.0148247
750.224	0.0149745
750.302	0.0148649
750.380	0.0150382
750.458	0.0152039
750.536	0.0151828
750.614	0.0153982
750.693	0.0155160
750.771	0.0155574
750.849	0.0158026
750.927	0.0158092
751.005	0.0157372
751.083	0.0157268
751.161	0.0158717
751.239	0.0158303
751.318	0.0157501
751.396	0.0159171
751.474	0.0157655
751.552	0.0158882
751.630	0.0159250
751.708	0.0158218
751.786	0.0157897
751.864	0.0158534
751.943	0.0157545
752.021	0.0157998
752.099	0.0158219
752.177	0.0158319
752.255	0.0156825
752.333	0.0156792
752.411	0.0158110
752.489	0.0155731
752.568	0.0155277
752.646	0.0156777
752.724	0.0155431
752.802	0.0155169
752.880	0.0155590
752.958	0.0155363
753.036	0.0153332
753.114	0.0154387
753.193	0.0155438
753.271	0.0155611
753.349	0.0153806
753.427	0.0155608
753.505	0.0154353
753.583	0.0154787
753.661	0.0155064
753.739	0.0155482
753.818	0.0154959
753.896	0.0154276
753.974	0.0154201
754.052	0.0155250
754.130	0.0153852
754.208	0.0154099
754.286	0.0152261
754.364	0.0152873
754.443	0.0152768
754.521	0.0152054
754.599	0.0152316
754.677	0.0151659
754.755	0.0151474
754.833	0.0149604
754.911	0.0151421
754.989	0.0150673
755.068	0.0150048
755.146	0.0149255
755.224	0.0150996
755.302	0.0152839
755.380	0.0151961
755.458	0.0152035
755.536	0.0153107
755.614	0.0153693
755.693	0.0154705
755.771	0.0154829
755.849	0.0155122
755.927	0.0155252
756.005	0.0155170
756.083	0.0156088
756.161	0.0155208
756.239	0.0154376
756.318	0.0156081
756.396	0.0154728
756.474	0.0155981
756.552	0.0155685
756.630	0.0155885
756.708	0.0154989
756.786	0.0154083
756.864	0.0153307
756.943	0.0153342
757.021	0.0153396
757.099	0.0153921
757.177	0.0152328
757.255	0.0152769
757.333	0.0151521
757.411	0.0151077
757.489	0.0150841
757.568	0.0151911
757.646	0.0152374
757.724	0.0151086
757.802	0.0152097
757.880	0.0152996
757.958	0.0152430
758.036	0.0152563
758.114	0.0153631
758.193	0.0156242
758.271	0.0155910
758.349	0.0154568
758.427	0.0155535
758.505	0.0154253
758.583	0.0154302
758.661	0.0156573
758.739	0.0156185
758.818	0.0156602
758.896	0.0157611
758.974	0.0156104
759.052	0.0157027
759.130	0.0156209
759.208	0.0156543
759.286	0.0157693
759.364	0.0156371
759.443	0.0154192
759.521	0.0154342
759.599	0.0154633
759.677	0.0154166
759.755	0.0153297
759.833	0.0151805
759.911	0.0152135
759.989	0.0151952
760.068	0.0150832
760.146	0.0150553
760.224	0.0150068
760.302	0.0148942
760.380	0.0149009
760.458	0.0149427
760.536	0.0148901
760.614	0.0149663
760.693	0.0149650
760.771	0.0151099
760.849	0.0152196
760.927	0.0150988
761.005	0.0150689
761.083	0.0152026
761.161	0.0152000
761.239	0.0153071
761.318	0.0153777
761.396	0.0153883
761.474	0.0154578
761.552	0.0156466
761.630	0.0155368
761.708	0.0154388
761.786	0.0155280
761.864	0.0155824
761.943	0.0155951
762.021	0.0154984
762.099	0.0154047
762.177	0.0153618
762.255	0.0154107
762.333	0.0154140
762.411	0.0153750
762.489	0.0152366
762.568	0.0155198
762.646	0.0153676
762.724	0.0152199
762.802	0.0152174
762.880	0.0153128
762.958	0.0151784
763.036	0.0151566
763.114	0.0150824
763.193	0.0151977
763.271	0.0151442
763.349	0.0151143
763.427	0.0152795
763.505	0.0152296
763.583	0.0152055
763.661	0.0152083
763.739	0.0153294
763.818	0.0155204
763.896	0.0155475
763.974	0.0154404
764.052	0.0154756
764.130	0.0155568
764.208	0.0154916
764.286	0.0155807
764.364	0.0156560
764.443	0.0155812
764.521	0.0154694
764.599	0.0154906
764.677	0.0153892
764.755	0.0154960
764.833	0.0152991
764.911	0.0152937
764.989	0.0152850
765.068	0.0151643
765.146	0.0152350
765.224	0.0151775
765.302	0.0149795
765.380	0.0150980
765.458	0.0152609
765.536	0.0151672
765.614	0.0151231
765.693	0.0151361
765.771	0.0151643
765.849	0.0151067
765.927	0.0153821
766.005	0.0154539
766.083	0.0154557
766.161	0.0152795
766.239	0.0154612
766.318	0.0155642
766.396	0.0158114
766.474	0.0157606
766.552	0.0157085
766.630	0.0157564
766.708	0.0157412
766.786	0.0158295
766.864	0.0158304
766.943	0.0158541
767.021	0.0156293
767.099	0.0155887
767.177	0.0155807
767.255	0.0154620
767.333	0.0153281
767.411	0.0151868
767.489	0.0152428
767.568	0.0152709
767.646	0.0150768
767.724	0.0149594
767.802	0.0150699
767.880	0.0149857
767.958	0.0148685
768.036	0.0148191
768.114	0.0147371
768.193	0.0149007
768.271	0.0149968
768.349	0.0150517
768.427	0.0150381
768.505	0.0149857
768.583	0.0150901
768.661	0.0149783
768.739	0.0151484
768.818	0.0153449
768.896	0.0152753
768.974	0.0153868
769.052	0.0154399
769.130	0.0155442
769.208	0.0156752
769.286	0.0156812
769.364	0.0156181
769.443	0.0156731
769.521	0.0157368
769.599	0.0157079
769.677	0.0157043
769.755	0.0159650
769.833	0.0158017
769.911	0.0156511
769.989	0.0157174
770.068	0.0156664
770.146	0.0156147
770.224	0.0156815
770.302	0.0157013
770.380	0.0154482
770.458	0.0154351
770.536	0.0154115
770.614	0.0154370
770.693	0.0153233
770.771	0.0153571
770.849	0.0154185
770.927	0.0152530
771.005	0.0151569
771.083	0.0153389
771.161	0.0154308
771.239	0.0152905
771.318	0.0152779
771.396	0.0153719
771.474	0.0152445
771.552	0.0152919
771.630	0.0153672
771.708	0.0153072
771.786	0.0153883
771.864	0.0154095
771.943	0.0152651
772.021	0.0153236
772.099	0.0153602
772.177	0.0154019
772.255	0.0152575
772.333	0.0152890
772.411	0.0153207
772.489	0.0152310
772.568	0.0154307
772.646	0.0153200
772.724	0.0152920
772.802	0.0152664
772.880	0.0152617
772.958	0.0153245
773.036	0.0152682
773.114	0.0152234
773.193	0.0151665
773.271	0.0151724
773.349	0.0152139
773.427	0.0152606
773.505	0.0152383
773.583	0.0152460
773.661	0.0152048
773.739	0.0152363
773.818	0.0152383
773.896	0.0152296
773.974	0.0154061
774.052	0.0154755
774.130	0.0155681
774.208	0.0157043
774.286	0.0156766
774.364	0.0157522
774.443	0.0157187
774.521	0.0157122
774.599	0.0158864
774.677	0.0159373
774.755	0.0158659
774.833	0.0157341
774.911	0.0156673
774.989	0.0158447
775.068	0.0156644
775.146	0.0156799
775.224	0.0156532
775.302	0.0156493
775.380	0.0155324
775.458	0.0156616
775.536	0.0154370
775.614	0.0154894
775.693	0.0153181
775.771	0.0153946
775.849	0.0151901
775.927	0.0151748
776.005	0.0151712
776.083	0.0150247
776.161	0.0150590
776.239	0.0151279
776.318	0.0149487
776.396	0.0150980
776.474	0.0149947
776.552	0.0151848
776.630	0.0149946
776.708	0.0151070
776.786	0.0151287
776.864	0.0151842
776.943	0.0151565
777.021	0.0151378
777.099	0.0153513
777.177	0.0154092
777.255	0.0154572
777.333	0.0154484
777.411	0.0156216
777.489	0.0156271
777.568	0.0156445
777.646	0.0157510
777.724	0.0156950
777.802	0.0157155
777.880	0.0157025
777.958	0.0157481
778.036	0.0156621
778.114	0.0156484
778.193	0.0156842
778.271	0.0156087
778.349	0.0155701
778.427	0.0155077
778.505	0.0154255
778.583	0.0154899
778.661	0.0154858
778.739	0.0153376
778.818	0.0153710
778.896	0.0154765
778.974	0.0154376
779.052	0.0152545
779.130	0.0152344
779.208	0.0152368
779.286	0.0153116
779.364	0.0154150
779.443	0.0152501
779.521	0.0154012
779.599	0.0152843
779.677	0.0153342
779.755	0.0153819
779.833	0.0154148
779.911	0.0153925
779.989	0.0153750
780.068	0.0154114
780.146	0.0153582
780.224	0.0153098
780.302	0.0152637
780.380	0.0151865
780.458	0.0152205
780.536	0.0152795
780.614	0.0151145
780.693	0.0151269
780.771	0.0151622
780.849	0.0151228
780.927	0.0152031
781.005	0.0151114
781.083	0.0150684
781.161	0.0150296
781.239	0.0150240
781.318	0.0150873
781.396	0.0150995
781.474	0.0151859
781.552	0.0150282
781.630	0.0150838
781.708	0.0151836
781.786	0.0152693
781.864	0.0152665
781.943	0.0151693
782.021	0.0152505
782.099	0.0153773
782.177	0.0154095
782.255	0.0155170
782.333	0.0156623
782.411	0.0155747
782.489	0.0154665
782.568	0.0157301
782.646	0.0157327
782.724	0.0156337
782.802	0.0158566
782.880	0.0158333
782.958	0.0156834
783.036	0.0156126
783.114	0.0156860
783.193	0.0156921
783.271	0.0155698
783.349	0.0156602
783.427	0.0157372
783.505	0.0156318
783.583	0.0155607
783.661	0.0155112
783.739	0.0155913
783.818	0.0153655
783.896	0.0152797
783.974	0.0154367
784.052	0.0154700
784.130	0.0153283
784.208	0.0151893
784.286	0.0151972
784.364	0.0152840
784.443	0.0151830
784.521	0.0152025
784.599	0.0152114
784.677	0.0152808
784.755	0.0151424
784.833	0.0152866
784.911	0.0153170
784.989	0.0153750
785.068	0.0153465
785.146	0.0153606
785.224	0.0152718
785.302	0.0153477
785.380	0.0153538
785.458	0.0153062
785.536	0.0151604
785.614	0.0152793
785.693	0.0152880
785.771	0.0151915
785.849	0.0151409
785.927	0.0150908
786.005	0.0151794
786.083	0.0150419
786.161	0.0150040
786.239	0.0149664
786.318	0.0149258
786.396	0.0148911
786.474	0.0148454
786.552	0.0149176
786.630	0.0149204
786.708	0.0148112
786.786	0.0151187
786.864	0.0149471
786.943	0.0150757
787.021	0.0151559
787.099	0.0152329
787.177	0.0154042
787.255	0.0155158
787.333	0.0155872
787.411	0.0157716
787.489	0.0157710
787.568	0.0160514
787.646	0.0161192
787.724	0.0160643
787.802	0.0160493
787.880	0.0161539
787.958	0.0159053
788.036	0.0160800
788.114	0.0159811
788.193	0.0159364
788.271	0.0159190
788.349	0.0157806
788.427	0.0157174
788.505	0.0156229
788.583	0.0156148
788.661	0.0154552
788.739	0.0151736
788.818	0.0151186
788.896	0.0151572
788.974	0.0148692
789.052	0.0150268
789.130	0.0149120
789.208	0.0147472
789.286	0.0147659
789.364	0.0148579
789.443	0.0148587
789.521	0.0147856
789.599	0.0147971
789.677	0.0148571
789.755	0.0148504
789.833	0.0148658
789.911	0.0148581
789.989	0.0150704
790.068	0.0149459
790.146	0.0150554
790.224	0.0150318
790.302	0.0150112
790.380	0.0151984
790.458	0.0152106
790.536	0.0151519
790.614	0.0151998
790.693	0.0153170
790.771	0.0153515
790.849	0.0153904
790.927	0.0154076
791.005	0.0154413
791.083	0.0155181
791.161	0.0156571
791.239	0.0157452
791.318	0.0157343
791.396	0.0157177
791.474	0.0159847
791.552	0.0159757
791.630	0.0160188
791.708	0.0159856
791.786	0.0160129
791.864	0.0160532
791.943	0.0160080
792.021	0.0160386
792.099	0.0160213
792.177	0.0158973
792.255	0.0157379
792.333	0.0157256
792.411	0.0157838
792.489	0.0155945
792.568	0.0155056
792.646	0.0155882
792.724	0.0155456
792.802	0.0154060
792.880	0.0151863
792.958	0.0150713
793.036	0.0151876
793.114	0.0150998
793.193	0.0150391
793.271	0.0148503
793.349	0.0149622
793.427	0.0149167
793.505	0.0148689
793.583	0.0149098
793.661	0.0148096
793.739	0.0148827
793.818	0.0149144
793.896	0.0149297
793.974	0.0148218
794.052	0.0149516
794.130	0.0149310
794.208	0.0148438
794.286	0.0148926
794.364	0.0149377
794.443	0.0150181
794.521	0.0150651
794.599	0.0149588
794.677	0.0151739
794.755	0.0149788
794.833	0.0149945
794.911	0.0150841
794.989	0.0151543
795.068	0.0152317
795.146	0.0154459
795.224	0.0153275
795.302	0.0155657
795.380	0.0156275
795.458	0.0157059
795.536	0.0157435
795.614	0.0158926
795.693	0.0160037
795.771	0.0160973
795.849	0.0160284
795.927	0.0163139
796.005	0.0163053
796.083	0.0162007
796.161	0.0163841
796.239	0.0164480
796.318	0.0163687
796.396	0.0164455
796.474	0.0164360
796.552	0.0163906
796.630	0.0163261
796.708	0.0162398
796.786	0.0161924
796.864	0.0160390
796.943	0.0157744
797.021	0.0158441
797.099	0.0156528
797.177	0.0155617
797.255	0.0154561
797.333	0.0152360
797.411	0.0151791
797.489	0.0149935
797.568	0.0150332
797.646	0.0148496
797.724	0.0146339
797.802	0.0144908
797.880	0.0143986
797.958	0.0145546
798.036	0.0144486
798.114	0.0144800
798.193	0.0144434
798.271	0.0145248
798.349	0.0145499
798.427	0.0146947
798.505	0.0147276
798.583	0.0148272
798.661	0.0149301
798.739	0.0150359
798.818	0.0151208
798.896	0.0152388
798.974	0.0152698
799.052	0.0152295
799.130	0.0151182
799.208	0.0155530
799.286	0.0155676
799.364	0.0153267
799.443	0.0153967
799.521	0.0155923
799.599	0.0154962
799.677	0.0155449
799.755	0.0154742
799.833	0.0155539
799.911	0.0155679
799.989	0.0156908
800.068	0.0157105
800.146	0.0155185
800.224	0.0155119
800.302	0.0156009
800.380	0.0155462
800.458	0.0155959
800.536	0.0155750
800.614	0.0157199
800.693	0.0157635
800.771	0.0158652
800.849	0.0157851
800.927	0.0158945
801.005	0.0160062
801.083	0.0160730
801.161	0.0161522
801.239	0.0161790
801.318	0.0162129
801.396	0.0161253
801.474	0.0162218
801.552	0.0160214
801.630	0.0160496
801.708	0.0160323
801.786	0.0158947
801.864	0.0157371
801.943	0.0156628
802.021	0.0156448
802.099	0.0153323
802.177	0.0153185
802.255	0.0151460
802.333	0.0149622
802.411	0.0150208
802.489	0.0146142
802.568	0.0149038
802.646	0.0147390
802.724	0.0146166
802.802	0.0146715
802.880	0.0147135
802.958	0.0146285
803.036	0.0146383
803.114	0.0147757
803.193	0.0149100
803.271	0.0149034
803.349	0.0148591
803.427	0.0151788
803.505	0.0151202
803.583	0.0152637
803.661	0.0153067
803.739	0.0153720
803.818	0.0152654
803.896	0.0152697
803.974	0.0153796
804.052	0.0153832
804.130	0.0154330
804.208	0.0154664
804.286	0.0153881
804.364	0.0153231
804.443	0.0154470
804.521	0.0153864
804.599	0.0152387
804.677	0.0152130
804.755	0.0152107
804.833	0.0152648
804.911	0.0152000
804.989	0.0150953
805.068	0.0153081
805.146	0.0152150
805.224	0.0152007
805.302	0.0152834
805.380	0.0154150
805.458	0.0152636
805.536	0.0152875
805.614	0.0153532
805.693	0.0156370
805.771	0.0154578
805.849	0.0155394
805.927	0.0157903
806.005	0.0155534
806.083	0.0155610
806.161	0.0156598
806.239	0.0158165
806.318	0.0158521
806.396	0.0158991
806.474	0.0159850
806.552	0.0160434
806.630	0.0158221
806.708	0.0156116
806.786	0.0158411
806.864	0.0157822
806.943	0.0157872
807.021	0.0157733
807.099	0.0154944
807.177	0.0156810
807.255	0.0156136
807.333	0.0155915
807.411	0.0154256
807.489	0.0154623
807.568	0.0154708
807.646	0.0156769
807.724	0.0155648
807.802	0.0155717
807.880	0.0155906
807.958	0.0155518
808.036	0.0154140
808.114	0.0156190
808.193	0.0154588
808.271	0.0154765
808.349	0.0154321
808.427	0.0154514
808.505	0.0153636
808.583	0.0153798
808.661	0.0152389
808.739	0.0153104
808.818	0.0150772
808.896	0.0149398
808.974	0.0150063
809.052	0.0148421
809.130	0.0148000
809.208	0.0148531
809.286	0.0147685
809.364	0.0147044
809.443	0.0146638
809.521	0.0145987
809.599	0.0146162
809.677	0.0146158
809.755	0.0146648
809.833	0.0147819
809.911	0.0147202
809.989	0.0147818
810.068	0.0148503
810.146	0.0148852
810.224	0.0150526
810.302	0.0150436
810.380	0.0151709
810.458	0.0151495
810.536	0.0152702
810.614	0.0153063
810.693	0.0153460
810.771	0.0153458
810.849	0.0154378
810.927	0.0155647
811.005	0.0156351
811.083	0.0155267
811.161	0.0157435
811.239	0.0158704
811.318	0.0156959
811.396	0.0158817
811.474	0.0160487
811.552	0.0160182
811.630	0.0159402
811.708	0.0160005
811.786	0.0160126
811.864	0.0159570
811.943	0.0158964
812.021	0.0161864
812.099	0.0160096
812.177	0.0159469
812.255	0.0158754
812.333	0.0159136
812.411	0.0159392
812.489	0.0158813
812.568	0.0158936
812.646	0.0156209
812.724	0.0155183
812.802	0.0155532
812.880	0.0155379
812.958	0.0154336
813.036	0.0154266
813.114	0.0153451
813.193	0.0152708
813.271	0.0152174
813.349	0.0154040
813.427	0.0151984
813.505	0.0150754
813.583	0.0151326
813.661	0.0151041
813.739	0.0150920
813.818	0.0149884
813.896	0.0150497
813.974	0.0150266
814.052	0.0149084
814.130	0.0149240
814.208	0.0148392
814.286	0.0147824
814.364	0.0147549
814.443	0.0147968
814.521	0.0148943
814.599	0.0147409
814.677	0.0148443
814.755	0.0149038
814.833	0.0147993
814.911	0.0148464
814.989	0.0149183
815.068	0.0148629
815.146	0.0149701
815.224	0.0150452
815.302	0.0151597
815.380	0.0151260
815.458	0.0152245
815.536	0.0152326
815.614	0.0154202
815.693	0.0154371
815.771	0.0154919
815.849	0.0155019
815.927	0.0156081
816.005	0.0157835
816.083	0.0156579
816.161	0.0156008
816.239	0.0157463
816.318	0.0156879
816.396	0.0158361
816.474	0.0158292
816.552	0.0156453
816.630	0.0154993
816.708	0.0154778
816.786	0.0154905
816.864	0.0155535
816.943	0.0153966
817.021	0.0155132
817.099	0.0155847
817.177	0.0153873
817.255	0.0154062
817.333	0.0152873
817.411	0.0153742
817.489	0.0155554
817.568	0.0154848
817.646	0.0154037
817.724	0.0154163
817.802	0.0155654
817.880	0.0156997
817.958	0.0156634
818.036	0.0155116
818.114	0.0155716
818.193	0.0155096
818.271	0.0155074
818.349	0.0154716
818.427	0.0154203
818.505	0.0154084
818.583	0.0154586
818.661	0.0152532
818.739	0.0152658
818.818	0.0154408
818.896	0.0153323
818.974	0.0153654
819.052	0.0152431
819.130	0.0152997
819.208	0.0152177
819.286	0.0152020
819.364	0.0151357
819.443	0.0150987
819.521	0.0150263
819.599	0.0151991
819.677	0.0152156
819.755	0.0152374
819.833	0.0152654
819.911	0.0151835
819.989	0.0154620
820.068	0.0154168
820.146	0.0154136
820.224	0.0153661
820.302	0.0153129
820.380	0.0153969
820.458	0.0153828
820.536	0.0154244
820.614	0.0154657
820.693	0.0154433
820.771	0.0153616
820.849	0.0155795
820.927	0.0152402
821.005	0.0153281
821.083	0.0153727
821.161	0.0154109
821.239	0.0154844
821.318	0.0154751
821.396	0.0153074
821.474	0.0153622
821.552	0.0154579
821.630	0.0154416
821.708	0.0154465
821.786	0.0154826
821.864	0.0156283
821.943	0.0156543
822.021	0.0155927
822.099	0.0156139
822.177	0.0156941
822.255	0.0157159
822.333	0.0156348
822.411	0.0155488
822.489	0.0156380
822.568	0.0156978
822.646	0.0157359
822.724	0.0158715
822.802	0.0158102
822.880	0.0156201
822.958	0.0157497
823.036	0.0157558
823.114	0.0156604
823.193	0.0157289
823.271	0.0155697
823.349	0.0154842
823.427	0.0155175
823.505	0.0153932
823.583	0.0153742
823.661	0.0154214
823.739	0.0153983
823.818	0.0153212
823.896	0.0153075
823.974	0.0151640
824.052	0.0151202
824.130	0.0152859
824.208	0.0150883
824.286	0.0152676
824.364	0.0152041
824.443	0.0152042
824.521	0.0151862
824.599	0.0152024
824.677	0.0152219
824.755	0.0152137
824.833	0.0152701
824.911	0.0152342
824.989	0.0152014
825.068	0.0152485
825.146	0.0152489
825.224	0.0152866
825.302	0.0152847
825.380	0.0152356
825.458	0.0151830
825.536	0.0152803
825.614	0.0154186
825.693	0.0153521
825.771	0.0153146
825.849	0.0154269
825.927	0.0155855
826.005	0.0156030
826.083	0.0155778
826.161	0.0154054
826.239	0.0155201
826.318	0.0157341
826.396	0.0156939
826.474	0.0157571
826.552	0.0156604
826.630	0.0156985
826.708	0.0158405
826.786	0.0157818
826.864	0.0158091
826.943	0.0158463
827.021	0.0159985
827.099	0.0156843
827.177	0.0157040
827.255	0.0158027
827.333	0.0156612
827.411	0.0159348
827.489	0.0155867
827.568	0.0156758
827.646	0.0158327
827.724	0.0156568
827.802	0.0156094
827.880	0.0155801
827.958	0.0155674
828.036	0.0154320
828.114	0.0153011
828.193	0.0154777
828.271	0.0153689
828.349	0.0154801
828.427	0.0153028
828.505	0.0153267
828.583	0.0153024
828.661	0.0150956
828.739	0.0151946
828.818	0.0150141
828.896	0.0150963
828.974	0.0152243
829.052	0.0150243
829.130	0.0151402
829.208	0.0150953
829.286	0.0150398
829.364	0.0150005
829.443	0.0151928
829.521	0.0151644
829.599	0.0151885
829.677	0.0151399
829.755	0.0151679
829.833	0.0151487
829.911	0.0151083
829.989	0.0151667
830.068	0.0154276
830.146	0.0153152
830.224	0.0152402
830.302	0.0154373
830.380	0.0154904
830.458	0.0153979
830.536	0.0153762
830.614	0.0154140
830.693	0.0156057
830.771	0.0155475
830.849	0.0154339
830.927	0.0154842
831.005	0.0154754
831.083	0.0154228
831.161	0.0155737
831.239	0.0156012
831.318	0.0154810
831.396	0.0156583
831.474	0.0157864
831.552	0.0156058
831.630	0.0155159
831.708	0.0155273
831.786	0.0156254
831.864	0.0155260
831.943	0.0154818
832.021	0.0154823
832.099	0.0155110
832.177	0.0155254
832.255	0.0155367
832.333	0.0155573
832.411	0.0154984
832.489	0.0155702
832.568	0.0155084
832.646	0.0155197
832.724	0.0153860
832.802	0.0154646
832.880	0.0154881
832.958	0.0153526
833.036	0.0152789
833.114	0.0153030
833.193	0.0152476
833.271	0.0153449
833.349	0.0152605
833.427	0.0152495
833.505	0.0152390
833.583	0.0152361
833.661	0.0151854
833.739	0.0151492
833.818	0.0151195
833.896	0.0150958
833.974	0.0151151
834.052	0.0151500
834.130	0.0151552
834.208	0.0151484
834.286	0.0151624
834.364	0.0150935
834.443	0.0150938
834.521	0.0152410
834.599	0.0152580
834.677	0.0150898
834.755	0.0151881
834.833	0.0152504
834.911	0.0152444
834.989	0.0153123
835.068	0.0153059
835.146	0.0154156
835.224	0.0153548
835.302	0.0156223
835.380	0.0155295
835.458	0.0153093
835.536	0.0152789
835.614	0.0154714
835.693	0.0155432
835.771	0.0155165
835.849	0.0154457
835.927	0.0154357
836.005	0.0155005
836.083	0.0155714
836.161	0.0153757
836.239	0.0155592
836.318	0.0154689
836.396	0.0155092
836.474	0.0155068
836.552	0.0154235
836.630	0.0153892
836.708	0.0154874
836.786	0.0155447
836.864	0.0155109
836.943	0.0154914
837.021	0.0153958
837.099	0.0154596
837.177	0.0154227
837.255	0.0153818
837.333	0.0154541
837.411	0.0154085
837.489	0.0153393
837.568	0.0153438
837.646	0.0154950
837.724	0.0155389
837.802	0.0153278
837.880	0.0152358
837.958	0.0153400
838.036	0.0153303
838.114	0.0153606
838.193	0.0155042
838.271	0.0153433
838.349	0.0153112
838.427	0.0153062
838.505	0.0152113
838.583	0.0153439
838.661	0.0153104
838.739	0.0153120
838.818	0.0152242
838.896	0.0152737
838.974	0.0151321
839.052	0.0150993
839.130	0.0152900
839.208	0.0151253
839.286	0.0148781
839.364	0.0151308
839.443	0.0150188
839.521	0.0151945
839.599	0.0152165
839.677	0.0149504
839.755	0.0152062
839.833	0.0152409
839.911	0.0150524
839.989	0.0151734
840.068	0.0153388
840.146	0.0152374
840.224	0.0152167
840.302	0.0154266
840.380	0.0152566
840.458	0.0153266
840.536	0.0154172
840.614	0.0153270
840.693	0.0152790
840.771	0.0154614
840.849	0.0155820
840.927	0.0154415
841.005	0.0153606
841.083	0.0155109
841.161	0.0154511
841.239	0.0155811
841.318	0.0155448
841.396	0.0155618
841.474	0.0155484
841.552	0.0154549
841.630	0.0154769
841.708	0.0154962
841.786	0.0156020
841.864	0.0154862
841.943	0.0154317
842.021	0.0155552
842.099	0.0153595
842.177	0.0154420
842.255	0.0153637
842.333	0.0154749
842.411	0.0153815
842.489	0.0153893
842.568	0.0153846
842.646	0.0154603
842.724	0.0155361
842.802	0.0154751
842.880	0.0155032
842.958	0.0156206
843.036	0.0156366
843.114	0.0155028
843.193	0.0155680
843.271	0.0156213
843.349	0.0155222
843.427	0.0155072
843.505	0.0156170
843.583	0.0154965
843.661	0.0154135
843.739	0.0155191
843.818	0.0155069
843.896	0.0154398
843.974	0.0153727
844.052	0.0153914
844.130	0.0153557
844.208	0.0153172
844.286	0.0153004
844.364	0.0153448
844.443	0.0154230
844.521	0.0153914
844.599	0.0153571
844.677	0.0153584
844.755	0.0152943
844.833	0.0151632
844.911	0.0151501
844.989	0.0152655
845.068	0.0152508
845.146	0.0152634
845.224	0.0153226
845.302	0.0151470
845.380	0.0151947
845.458	0.0151958
845.536	0.0150976
845.614	0.0151268
845.693	0.0152365
845.771	0.0152840
845.849	0.0151727
845.927	0.0151696
846.005	0.0153173
846.083	0.0152423
846.161	0.0151459
846.239	0.0152838
846.318	0.0153656
846.396	0.0153574
846.474	0.0153201
846.552	0.0154134
846.630	0.0154570
846.708	0.0153749
846.786	0.0154988
846.864	0.0154819
846.943	0.0153810
847.021	0.0153949
847.099	0.0153571
847.177	0.0153910
847.255	0.0154231
847.333	0.0153996
847.411	0.0155711
847.489	0.0154893
847.568	0.0154044
847.646	0.0156854
847.724	0.0154842
847.802	0.0155997
847.880	0.0155645
847.958	0.0155435
848.036	0.0155347
848.114	0.0156156
848.193	0.0155278
848.271	0.0154722
848.349	0.0156180
848.427	0.0156236
848.505	0.0156656
848.583	0.0156547
848.661	0.0154898
848.739	0.0155915
848.818	0.0156317
848.896	0.0156116
848.974	0.0155136
849.052	0.0156241
849.130	0.0155255
849.208	0.0154330
849.286	0.0153569
849.364	0.0153397
849.443	0.0154139
849.521	0.0153314
849.599	0.0153529
849.677	0.0153867
849.755	0.0153120
849.833	0.0152785
849.911	0.0153321
849.989	0.0153242
850.068	0.0153388
850.146	0.0152372
850.224	0.0153172
850.302	0.0153266
850.380	0.0152065
850.458	0.0152838
850.536	0.0155013
850.614	0.0153986
850.693	0.0154734
850.771	0.0153741
850.849	0.0155113
850.927	0.0154040
851.005	0.0153719
851.083	0.0154697
851.161	0.0153805
851.239	0.0152672
851.318	0.0153868
851.396	0.0153471
851.474	0.0153397
851.552	0.0153937
851.630	0.0153136
851.708	0.0153574
851.786	0.0153579
851.864	0.0152501
851.943	0.0151903
852.021	0.0151994
852.099	0.0151288
852.177	0.0153644
852.255	0.0152134
852.333	0.0152583
852.411	0.0151438
852.489	0.0153665
852.568	0.0152328
852.646	0.0152785
852.724	0.0153780
852.802	0.0153220
852.880	0.0155143
852.958	0.0153901
853.036	0.0154481
853.114	0.0153441
853.193	0.0153896
853.271	0.0155282
853.349	0.0155200
853.427	0.0154272
853.505	0.0155433
853.583	0.0155182
853.661	0.0154656
853.739	0.0155074
853.818	0.0154840
853.896	0.0154222
853.974	0.0154308
854.052	0.0155033
854.130	0.0152432
854.208	0.0153974
854.286	0.0154877
854.364	0.0154568
854.443	0.0155739
854.521	0.0154824
854.599	0.0156528
854.677	0.0153996
854.755	0.0155339
854.833	0.0155239
854.911	0.0152868
854.989	0.0155860
855.068	0.0155443
855.146	0.0154247
855.224	0.0156055
855.302	0.0154559
855.380	0.0152571
855.458	0.0155445
855.536	0.0153438
855.614	0.0153301
855.693	0.0153693
855.771	0.0153230
855.849	0.0152724
855.927	0.0152701
856.005	0.0152654
856.083	0.0151570
856.161	0.0152084
856.239	0.0153386
856.318	0.0153425
856.396	0.0152896
856.474	0.0152061
856.552	0.0151884
856.630	0.0153097
856.708	0.0153339
856.786	0.0153185
856.864	0.0152682
856.943	0.0151761
857.021	0.0153936
857.099	0.0153411
857.177	0.0153291
857.255	0.0152390
857.333	0.0152049
857.411	0.0152762
857.489	0.0153543
857.568	0.0152515
857.646	0.0152296
857.724	0.0153380
857.802	0.0152614
857.880	0.0152884
857.958	0.0153232
858.036	0.0151955
858.114	0.0154599
858.193	0.0153059
858.271	0.0152464
858.349	0.0151256
858.427	0.0153809
858.505	0.0153991
858.583	0.0152935
858.661	0.0153991
858.739	0.0155497
858.818	0.0155161
858.896	0.0155910
858.974	0.0153796
859.052	0.0154589
859.130	0.0156229
859.208	0.0154520
859.286	0.0153831
859.364	0.0154256
859.443	0.0154134
859.521	0.0155944
859.599	0.0154278
859.677	0.0155186
859.755	0.0154378
859.833	0.0154394
859.911	0.0153294
859.989	0.0154391
860.068	0.0154249
860.146	0.0153422
860.224	0.0153662
860.302	0.0154039
860.380	0.0153870
860.458	0.0152950
860.536	0.0153486
860.614	0.0152250
860.693	0.0152245
860.771	0.0151402
860.849	0.0152187
860.927	0.0151124
861.005	0.0151857
861.083	0.0152724
861.161	0.0152024
861.239	0.0151393
861.318	0.0151774
861.396	0.0152070
861.474	0.0151066
861.552	0.0151581
861.630	0.0152161
861.708	0.0150599
861.786	0.0151859
861.864	0.0151183
861.943	0.0152218
862.021	0.0151247
862.099	0.0152712
862.177	0.0153109
862.255	0.0152673
862.333	0.0153393
862.411	0.0153469
862.489	0.0153276
862.568	0.0153847
862.646	0.0153615
862.724	0.0154043
862.802	0.0152901
862.880	0.0153831
862.958	0.0154663
863.036	0.0155105
863.114	0.0153544
863.193	0.0155583
863.271	0.0155360
863.349	0.0156377
863.427	0.0154138
863.505	0.0153844
863.583	0.0154094
863.661	0.0153906
863.739	0.0154838
863.818	0.0154533
863.896	0.0153605
863.974	0.0153817
864.052	0.0154185
864.130	0.0151991
864.208	0.0151753
864.286	0.0153387
864.364	0.0153043
864.443	0.0151014
864.521	0.0153519
864.599	0.0153370
864.677	0.0153862
864.755	0.0152113
864.833	0.0153178
864.911	0.0152759
864.989	0.0152716
865.068	0.0154857
865.146	0.0153806
865.224	0.0152637
865.302	0.0153214
865.380	0.0153738
865.458	0.0151745
865.536	0.0153263
865.614	0.0154100
865.693	0.0153292
865.771	0.0152229
865.849	0.0154460
865.927	0.0155060
866.005	0.0152512
866.083	0.0154095
866.161	0.0153395
866.239	0.0153414
866.318	0.0153430
866.396	0.0153862
866.474	0.0155376
866.552	0.0154493
866.630	0.0154409
866.708	0.0154263
866.786	0.0153699
866.864	0.0153272
866.943	0.0154572
867.021	0.0153435
867.099	0.0153640
867.177	0.0153779
867.255	0.0153344
867.333	0.0153156
867.411	0.0152827
867.489	0.0153886
867.568	0.0154087
867.646	0.0151340
867.724	0.0153160
867.802	0.0154177
867.880	0.0153948
867.958	0.0153225
868.036	0.0153827
868.114	0.0153340
868.193	0.0152876
868.271	0.0153252
868.349	0.0153284
868.427	0.0154248
868.505	0.0154126
868.583	0.0152661
868.661	0.0153178
868.739	0.0151576
868.818	0.0151919
868.896	0.0151678
868.974	0.0152670
869.052	0.0152575
869.130	0.0151429
869.208	0.0151362
869.286	0.0152768
869.364	0.0154179
869.443	0.0151821
869.521	0.0153497
869.599	0.0153442
869.677	0.0154531
869.755	0.0154787
869.833	0.0154028
869.911	0.0153840
869.989	0.0154510
870.068	0.0155332
870.146	0.0155804
870.224	0.0155499
870.302	0.0154156
870.380	0.0155305
870.458	0.0156176
870.536	0.0156761
870.614	0.0155510
870.693	0.0154910
870.771	0.0154571
870.849	0.0156178
870.927	0.0155538
871.005	0.0154958
871.083	0.0155172
871.161	0.0155482
871.239	0.0155561
871.318	0.0155441
871.396	0.0157126
871.474	0.0155487
871.552	0.0154925
871.630	0.0155997
871.708	0.0155615
871.786	0.0156544
871.864	0.0154882
871.943	0.0154939
872.021	0.0155442
872.099	0.0154393
872.177	0.0153992
872.255	0.0153915
872.333	0.0153643
872.411	0.0152935
872.489	0.0151977
872.568	0.0152431
872.646	0.0153364
872.724	0.0152722
872.802	0.0151750
872.880	0.0150678
872.958	0.0152015
873.036	0.0152114
873.114	0.0151463
873.193	0.0152400
873.271	0.0152195
873.349	0.0151466
873.427	0.0152159
873.505	0.0151733
873.583	0.0152102
873.661	0.0152235
873.739	0.0153410
873.818	0.0154459
873.896	0.0153245
873.974	0.0154276
874.052	0.0153968
874.130	0.0153663
874.208	0.0153226
874.286	0.0155575
874.364	0.0154836
874.443	0.0154520
874.521	0.0154822
874.599	0.0154997
874.677	0.0154228
874.755	0.0155650
874.833	0.0154511
874.911	0.0155466
874.989	0.0154873
875.068	0.0153794
875.146	0.0154919
875.224	0.0155329
875.302	0.0155105
875.380	0.0156963
875.458	0.0155529
875.536	0.0155623
875.614	0.0155660
875.693	0.0155814
875.771	0.0155531
875.849	0.0156232
875.927	0.0155679
876.005	0.0156306
876.083	0.0155458
876.161	0.0154792
876.239	0.0156003
876.318	0.0156364
876.396	0.0155926
876.474	0.0155092
876.552	0.0153378
876.630	0.0153963
876.708	0.0153093
876.786	0.0153565
876.864	0.0153315
876.943	0.0151982
877.021	0.0150737
877.099	0.0152727
877.177	0.0150328
877.255	0.0151453
877.333	0.0150740
877.411	0.0151450
877.489	0.0152465
877.568	0.0152463
877.646	0.0151026
877.724	0.0152108
877.802	0.0152485
877.880	0.0154028
877.958	0.0153146
878.036	0.0153547
878.114	0.0153457
878.193	0.0155069
878.271	0.0155260
878.349	0.0156257
878.427	0.0155913
878.505	0.0155431
878.583	0.0155341
878.661	0.0155557
878.739	0.0155491
878.818	0.0155653
878.896	0.0156049
878.974	0.0155994
879.052	0.0155193
879.130	0.0153790
879.208	0.0155485
879.286	0.0154769
879.364	0.0155151
879.443	0.0155591
879.521	0.0155280
879.599	0.0155084
879.677	0.0154844
879.755	0.0156315
879.833	0.0153759
879.911	0.0153305
879.989	0.0154292
880.068	0.0153859
880.146	0.0152099
880.224	0.0152326
880.302	0.0153371
880.380	0.0152898
880.458	0.0152765
880.536	0.0151463
880.614	0.0150735
880.693	0.0151083
880.771	0.0152190
880.849	0.0152011
880.927	0.0150743
881.005	0.0150323
881.083	0.0151227
881.161	0.0151205
881.239	0.0150663
881.318	0.0150177
881.396	0.0152809
881.474	0.0153226
881.552	0.0152257
881.630	0.0153763
881.708	0.0154742
881.786	0.0154064
881.864	0.0156044
881.943	0.0155303
882.021	0.0154700
882.099	0.0154739
882.177	0.0157781
882.255	0.0157364
882.333	0.0156788
882.411	0.0155753
882.489	0.0155472
882.568	0.0157187
882.646	0.0156525
882.724	0.0154884
882.802	0.0155269
882.880	0.0155444
882.958	0.0154687
883.036	0.0154195
883.114	0.0154103
883.193	0.0153242
883.271	0.0155046
883.349	0.0153800
883.427	0.0153302
883.505	0.0152929
883.583	0.0154008
883.661	0.0152409
883.739	0.0152200
883.818	0.0153910
883.896	0.0151530
883.974	0.0150174
884.052	0.0151139
884.130	0.0150902
884.208	0.0151497
884.286	0.0150463
884.364	0.0151377
884.443	0.0151453
884.521	0.0152246
884.599	0.0150823
884.677	0.0151912
884.755	0.0152337
884.833	0.0151401
884.911	0.0152507
884.989	0.0152304
885.068	0.0152186
885.146	0.0152231
885.224	0.0153995
885.302	0.0154008
885.380	0.0153371
885.458	0.0153428
885.536	0.0153712
885.614	0.0153042
885.693	0.0152510
885.771	0.0154546
885.849	0.0155038
885.927	0.0155151
886.005	0.0154832
886.083	0.0156067
886.161	0.0156754
886.239	0.0157928
886.318	0.0157068
886.396	0.0157702
886.474	0.0158347
886.552	0.0158326
886.630	0.0157489
886.708	0.0160178
886.786	0.0157692
886.864	0.0157283
886.943	0.0157202
887.021	0.0156568
887.099	0.0154871
887.177	0.0156408
887.255	0.0154755
887.333	0.0154085
887.411	0.0152981
887.489	0.0152193
887.568	0.0151973
887.646	0.0150426
887.724	0.0150518
887.802	0.0148980
887.880	0.0148981
887.958	0.0148143
888.036	0.0148621
888.114	0.0149619
888.193	0.0149628
888.271	0.0150413
888.349	0.0149692
888.427	0.0150861
888.505	0.0150900
888.583	0.0151659
888.661	0.0153751
888.739	0.0152800
888.818	0.0153054
888.896	0.0154733
888.974	0.0153797
889.052	0.0153895
889.130	0.0154449
889.208	0.0155646
889.286	0.0154849
889.364	0.0155677
889.443	0.0155641
889.521	0.0155996
889.599	0.0155893
889.677	0.0154919
889.755	0.0155066
889.833	0.0154623
889.911	0.0154352
889.989	0.0154733
890.068	0.0156188
890.146	0.0155280
890.224	0.0154733
890.302	0.0155006
890.380	0.0154446
890.458	0.0155947
890.536	0.0156618
890.614	0.0156161
890.693	0.0157363
890.771	0.0156879
890.849	0.0156027
890.927	0.0156207
891.005	0.0155978
891.083	0.0155961
891.161	0.0156142
891.239	0.0156559
891.318	0.0156136
891.396	0.0156943
891.474	0.0154935
891.552	0.0154591
891.630	0.0155324
891.708	0.0153653
891.786	0.0151859
891.864	0.0152814
891.943	0.0151324
892.021	0.0150836
892.099	0.0150462
892.177	0.0149471
892.255	0.0148853
892.333	0.0149553
892.411	0.0150126
892.489	0.0149196
892.568	0.0149537
892.646	0.0149377
892.724	0.0151392
892.802	0.0151215
892.880	0.0151485
892.958	0.0151630
893.036	0.0151968
893.114	0.0153873
893.193	0.0154314
893.271	0.0154420
893.349	0.0156421
893.427	0.0156406
893.505	0.0156718
893.583	0.0156656
893.661	0.0158783
893.739	0.0156650
893.818	0.0156327
893.896	0.0157264
893.974	0.0155975
894.052	0.0156846
894.130	0.0155208
894.208	0.0153635
894.286	0.0154022
894.364	0.0154931
894.443	0.0153720
894.521	0.0152623
894.599	0.0153550
894.677	0.0154426
894.755	0.0152277
894.833	0.0153408
894.911	0.0154479
894.989	0.0153187
895.068	0.0153018
895.146	0.0152966
895.224	0.0153004
895.302	0.0153903
895.380	0.0155139
895.458	0.0156689
895.536	0.0154742
895.614	0.0155400
895.693	0.0154910
895.771	0.0155363
895.849	0.0155672
895.927	0.0156001
896.005	0.0156290
896.083	0.0154482
896.161	0.0153662
896.239	0.0154421
896.318	0.0153694
896.396	0.0152994
896.474	0.0153295
896.552	0.0152130
896.630	0.0152628
896.708	0.0151913
896.786	0.0151376
896.864	0.0151140
896.943	0.0152750
897.021	0.0150979
897.099	0.0151195
897.177	0.0152011
897.255	0.0151743
897.333	0.0151171
897.411	0.0152550
897.489	0.0152639
897.568	0.0154490
897.646	0.0153665
897.724	0.0153966
897.802	0.0155067
897.880	0.0155417
897.958	0.0156583
898.036	0.0157529
898.114	0.0157938
898.193	0.0159448
898.271	0.0157030
898.349	0.0157434
898.427	0.0157208
898.505	0.0157442
898.583	0.0156983
898.661	0.0156933
898.739	0.0156584
898.818	0.0155942
898.896	0.0155407
898.974	0.0154274
899.052	0.0154707
899.130	0.0154699
899.208	0.0153447
899.286	0.0152127
899.364	0.0152453
899.443	0.0153085
899.521	0.0151277
899.599	0.0152702
899.677	0.0151801
899.755	0.0151800
899.833	0.0151609
899.911	0.0150889
899.989	0.0151841
900.068	0.0151488
900.146	0.0152497
900.224	0.0152715
900.302	0.0152905
900.380	0.0153243
900.458	0.0152291
900.536	0.0152359
900.614	0.0154577
900.693	0.0156223
900.771	0.0155245
900.849	0.0154163
900.927	0.0153412
901.005	0.0154706
901.083	0.0154155
901.161	0.0153481
901.239	0.0154565
901.318	0.0153938
901.396	0.0154072
901.474	0.0154201
901.552	0.0153595
901.630	0.0153648
901.708	0.0155658
901.786	0.0156030
901.864	0.0154469
901.943	0.0154379
902.021	0.0155138
902.099	0.0155645
902.177	0.0155273
902.255	0.0155331
902.333	0.0156435
902.411	0.0155587
902.489	0.0154084
902.568	0.0155345
902.646	0.0155338
902.724	0.0155206
902.802	0.0154246
902.880	0.0155496
902.958	0.0154700
903.036	0.0154684
903.114	0.0153754
903.193	0.0155225
903.271	0.0154970
903.349	0.0153403
903.427	0.0152322
903.505	0.0152634
903.583	0.0151260
903.661	0.0151390
903.739	0.0151192
903.818	0.0150566
903.896	0.0150080
903.974	0.0149890
904.052	0.0149590
904.130	0.0147295
904.208	0.0148242
904.286	0.0148226
904.364	0.0149471
904.443	0.0150152
904.521	0.0149936
904.599	0.0150185
904.677	0.0150129
904.755	0.0150957
904.833	0.0151951
904.911	0.0154268
904.989	0.0155724
905.068	0.0156310
905.146	0.0155637
905.224	0.0156979
905.302	0.0157793
905.380	0.0157964
905.458	0.0158595
905.536	0.0158035
905.614	0.0157843
905.693	0.0157909
905.771	0.0158071
905.849	0.0159188
905.927	0.0157376
906.005	0.0157423
906.083	0.0156911
906.161	0.0156604
906.239	0.0155367
906.318	0.0153580
906.396	0.0153745
906.474	0.0153305
906.552	0.0153389
906.630	0.0151933
906.708	0.0153590
906.786	0.0153879
906.864	0.0152525
906.943	0.0152216
907.021	0.0151887
907.099	0.0153674
907.177	0.0152750
907.255	0.0152353
907.333	0.0154488
907.411	0.0152991
907.489	0.0153450
907.568	0.0153805
907.646	0.0154052
907.724	0.0154239
907.802	0.0154118
907.880	0.0152587
907.958	0.0154183
908.036	0.0153943
908.114	0.0152421
908.193	0.0152660
908.271	0.0153214
908.349	0.0153596
908.427	0.0151479
908.505	0.0152737
908.583	0.0152334
908.661	0.0152625
908.739	0.0153108
908.818	0.0152657
908.896	0.0150745
908.974	0.0152252
909.052	0.0153616
909.130	0.0152038
909.208	0.0152505
909.286	0.0153020
909.364	0.0152821
909.443	0.0153560
909.521	0.0153594
909.599	0.0153696
909.677	0.0154530
909.755	0.0154935
909.833	0.0155132
909.911	0.0155740
909.989	0.0156487
910.068	0.0157574
910.146	0.0157884
910.224	0.0156345
910.302	0.0155135
910.380	0.0156723
910.458	0.0156557
910.536	0.0155843
910.614	0.0156959
910.693	0.0156725
910.771	0.0156409
910.849	0.0155737
910.927	0.0154959
911.005	0.0154664
911.083	0.0157027
911.161	0.0156600
911.239	0.0155859
911.318	0.0154289
911.396	0.0157340
911.474	0.0155077
911.552	0.0153423
911.630	0.0154810
911.708	0.0155534
911.786	0.0153244
911.864	0.0151366
911.943	0.0153028
912.021	0.0152856
912.099	0.0153358
912.177	0.0153407
912.255	0.0152720
912.333	0.0152275
912.411	0.0151646
912.489	0.0150637
912.568	0.0152033
912.646	0.0151398
912.724	0.0152017
912.802	0.0152592
912.880	0.0152373
912.958	0.0151760
913.036	0.0153485
913.114	0.0152406
913.193	0.0152289
913.271	0.0153157
913.349	0.0151617
913.427	0.0152291
913.505	0.0152751
913.583	0.0151677
913.661	0.0151537
913.739	0.0152981
913.818	0.0152144
913.896	0.0152482
913.974	0.0152879
914.052	0.0151849
914.130	0.0154221
914.208	0.0153898
914.286	0.0152724
914.364	0.0153522
914.443	0.0154167
914.521	0.0156264
914.599	0.0155472
914.677	0.0154115
914.755	0.0155849
914.833	0.0157884
914.911	0.0156229
914.989	0.0158345
915.068	0.0157134
915.146	0.0158077
915.224	0.0157671
915.302	0.0156931
915.380	0.0156892
915.458	0.0156317
915.536	0.0156022
915.614	0.0155132
915.693	0.0155013
915.771	0.0154810
915.849	0.0155730
915.927	0.0154351
916.005	0.0154005
916.083	0.0151986
916.161	0.0153475
916.239	0.0153939
916.318	0.0152560
916.396	0.0152354
916.474	0.0153529
916.552	0.0152918
916.630	0.0152850
916.708	0.0153678
916.786	0.0152817
916.864	0.0153801
916.943	0.0153115
917.021	0.0152192
917.099	0.0153773
917.177	0.0152883
917.255	0.0153725
917.333	0.0153707
917.411	0.0153807
917.489	0.0153871
917.568	0.0152944
917.646	0.0154493
917.724	0.0153502
917.802	0.0154044
917.880	0.0154239
917.958	0.0154184
918.036	0.0153912
918.114	0.0155073
918.193	0.0154752
918.271	0.0152663
918.349	0.0153754
918.427	0.0154472
918.505	0.0153671
918.583	0.0153204
918.661	0.0152459
918.739	0.0153754
918.818	0.0155420
918.896	0.0153408
918.974	0.0153127
919.052	0.0153983
919.130	0.0154906
919.208	0.0155383
919.286	0.0153837
919.364	0.0154214
919.443	0.0153725
919.521	0.0154477
919.599	0.0154758
919.677	0.0154714
919.755	0.0154276
919.833	0.0154543
919.911	0.0154794
919.989	0.0153633
920.068	0.0155807
920.146	0.0158241
920.224	0.0155290
920.302	0.0155405
920.380	0.0154470
920.458	0.0153716
920.536	0.0154602
920.614	0.0153461
920.693	0.0153819
920.771	0.0156480
920.849	0.0154397
920.927	0.0154533
921.005	0.0155234
921.083	0.0153000
921.161	0.0151714
921.239	0.0153129
921.318	0.0154195
921.396	0.0154051
921.474	0.0153313
921.552	0.0153111
921.630	0.0153918
921.708	0.0152386
921.786	0.0153401
921.864	0.0152812
921.943	0.0152834
922.021	0.0153401
922.099	0.0153561
922.177	0.0153181
922.255	0.0154453
922.333	0.0154362
922.411	0.0152986
922.489	0.0152248
922.568	0.0151479
922.646	0.0153661
922.724	0.0152547
922.802	0.0153239
922.880	0.0154556
922.958	0.0154018
923.036	0.0153822
923.114	0.0155007
923.193	0.0153870
923.271	0.0154169
923.349	0.0154357
923.427	0.0153577
923.505	0.0152691
923.583	0.0154103
923.661	0.0153291
923.739	0.0152745
923.818	0.0152663
923.896	0.0153119
923.974	0.0152010
924.052	0.0151716
924.130	0.0153406
924.208	0.0152635
924.286	0.0153407
924.364	0.0153322
924.443	0.0153784
924.521	0.0154073
924.599	0.0154199
924.677	0.0153804
924.755	0.0154822
924.833	0.0155246
924.911	0.0153815
924.989	0.0154514
925.068	0.0155519
925.146	0.0155745
925.224	0.0154013
925.302	0.0155271
925.380	0.0156113
925.458	0.0155503
925.536	0.0154317
925.614	0.0153893
925.693	0.0155820
925.771	0.0153652
925.849	0.0153516
925.927	0.0154393
926.005	0.0154642
926.083	0.0153836
926.161	0.0152409
926.239	0.0152706
926.318	0.0153806
926.396	0.0154237
926.474	0.0153159
926.552	0.0153484
926.630	0.0153661
926.708	0.0152924
926.786	0.0152246
926.864	0.0152168
926.943	0.0152501
927.021	0.0152962
927.099	0.0152496
927.177	0.0152009
927.255	0.0153223
927.333	0.0153621
927.411	0.0153278
927.489	0.0153127
927.568	0.0153265
927.646	0.0153118
927.724	0.0153838
927.802	0.0154297
927.880	0.0154230
927.958	0.0154715
928.036	0.0153263
928.114	0.0153912
928.193	0.0154532
928.271	0.0154919
928.349	0.0153425
928.427	0.0154734
928.505	0.0155067
928.583	0.0154457
928.661	0.0155397
928.739	0.0154552
928.818	0.0155923
928.896	0.0154720
928.974	0.0155824
929.052	0.0154951
929.130	0.0154751
929.208	0.0155329
929.286	0.0155096
929.364	0.0154176
929.443	0.0154027
929.521	0.0154893
929.599	0.0154320
929.677	0.0155091
929.755	0.0152993
929.833	0.0152953
929.911	0.0153014
929.989	0.0152595
930.068	0.0154305
930.146	0.0151908
930.224	0.0153484
930.302	0.0153162
930.380	0.0153804
930.458	0.0152583
930.536	0.0152164
930.614	0.0153410
930.693	0.0154050
930.771	0.0152476
930.849	0.0151588
930.927	0.0154001
931.005	0.0152132
931.083	0.0152524
931.161	0.0154204
931.239	0.0152227
931.318	0.0151914
931.396	0.0151865
931.474	0.0152125
931.552	0.0152000
931.630	0.0152309
931.708	0.0153099
931.786	0.0152876
931.864	0.0152303
931.943	0.0152612
932.021	0.0152237
932.099	0.0151626
932.177	0.0152121
932.255	0.0154893
932.333	0.0153328
932.411	0.0153766
932.489	0.0153335
932.568	0.0152839
932.646	0.0153020
932.724	0.0153545
932.802	0.0153944
932.880	0.0154720
932.958	0.0155607
933.036	0.0154851
933.114	0.0155646
933.193	0.0155019
933.271	0.0154198
933.349	0.0154599
933.427	0.0155453
933.505	0.0154462
933.583	0.0154331
933.661	0.0155021
933.739	0.0156303
933.818	0.0155090
933.896	0.0154314
933.974	0.0154027
934.052	0.0156097
934.130	0.0154810
934.208	0.0155491
934.286	0.0153821
934.364	0.0153857
934.443	0.0154283
934.521	0.0154681
934.599	0.0153900
934.677	0.0154649
934.755	0.0155638
934.833	0.0154298
934.911	0.0153783
934.989	0.0153779
935.068	0.0153681
935.146	0.0152606
935.224	0.0153600
935.302	0.0153271
935.380	0.0153708
935.458	0.0154915
935.536	0.0153093
935.614	0.0152795
935.693	0.0153365
935.771	0.0153360
935.849	0.0154095
935.927	0.0153072
936.005	0.0152132
936.083	0.0153316
936.161	0.0153868
936.239	0.0153075
936.318	0.0152439
936.396	0.0151975
936.474	0.0152370
936.552	0.0152824
936.630	0.0152448
936.708	0.0152475
936.786	0.0151390
936.864	0.0151930
936.943	0.0151623
937.021	0.0151353
937.099	0.0152128
937.177	0.0152912
937.255	0.0151173
937.333	0.0151046
937.411	0.0151824
937.489	0.0150846
937.568	0.0152450
937.646	0.0151882
937.724	0.0153229
937.802	0.0153120
937.880	0.0154349
937.958	0.0154678
938.036	0.0154098
938.114	0.0154952
938.193	0.0155013
938.271	0.0155740
938.349	0.0155529
938.427	0.0156091
938.505	0.0155988
938.583	0.0157053
938.661	0.0156972
938.739	0.0155920
938.818	0.0157286
938.896	0.0155638
938.974	0.0155845
939.052	0.0155799
939.130	0.0155463
939.208	0.0155486
939.286	0.0155659
939.364	0.0155308
939.443	0.0154896
939.521	0.0154337
939.599	0.0153541
939.677	0.0154000
939.755	0.0152359
939.833	0.0152688
939.911	0.0151974
939.989	0.0152822
940.068	0.0151850
940.146	0.0151617
940.224	0.0151933
940.302	0.0150847
940.380	0.0151617
940.458	0.0151899
940.536	0.0151735
940.614	0.0152954
940.693	0.0152062
940.771	0.0151936
940.849	0.0152952
940.927	0.0152448
941.005	0.0153120
941.083	0.0152517
941.161	0.0152550
941.239	0.0152275
941.318	0.0152831
941.396	0.0151991
941.474	0.0152563
941.552	0.0152180
941.630	0.0152080
941.708	0.0152810
941.786	0.0152425
941.864	0.0153335
941.943	0.0153042
942.021	0.0153377
942.099	0.0152627
942.177	0.0154066
942.255	0.0153702
942.333	0.0154090
942.411	0.0154828
942.489	0.0154005
942.568	0.0154514
942.646	0.0154683
942.724	0.0155104
942.802	0.0155299
942.880	0.0155035
942.958	0.0153878
943.036	0.0155837
943.114	0.0154855
943.193	0.0154871
943.271	0.0153429
943.349	0.0154655
943.427	0.0153355
943.505	0.0152217
943.583	0.0153373
943.661	0.0152821
943.739	0.0153245
943.818	0.0151908
943.896	0.0152264
943.974	0.0152557
944.052	0.0153345
944.130	0.0153291
944.208	0.0152312
944.286	0.0152652
944.364	0.0152360
944.443	0.0152870
944.521	0.0153410
944.599	0.0152155
944.677	0.0152763
944.755	0.0153973
944.833	0.0153780
944.911	0.0154653
944.989	0.0154539
945.068	0.0154081
945.146	0.0154768
945.224	0.0155668
945.302	0.0155227
945.380	0.0154655
945.458	0.0156121
945.536	0.0157449
945.614	0.0155802
945.693	0.0154651
945.771	0.0155800
945.849	0.0155264
945.927	0.0154718
946.005	0.0155579
946.083	0.0153866
946.161	0.0154066
946.239	0.0154639
946.318	0.0153778
946.396	0.0154790
946.474	0.0153092
946.552	0.0152468
946.630	0.0153622
946.708	0.0152685
946.786	0.0153629
946.864	0.0153478
946.943	0.0153990
947.021	0.0154256
947.099	0.0153056
947.177	0.0151728
947.255	0.0153067
947.333	0.0151729
947.411	0.0153118
947.489	0.0153319
947.568	0.0154404
947.646	0.0153439
947.724	0.0151422
947.802	0.0151630
947.880	0.0153176
947.958	0.0151946
948.036	0.0151894
948.114	0.0152426
948.193	0.0151338
948.271	0.0152196
948.349	0.0150813
948.427	0.0152177
948.505	0.0151635
948.583	0.0150813
948.661	0.0152640
948.739	0.0151259
948.818	0.0151289
948.896	0.0152874
948.974	0.0152899
949.052	0.0153210
949.130	0.0154527
949.208	0.0154991
949.286	0.0155510
949.364	0.0155352
949.443	0.0155560
949.521	0.0155933
949.599	0.0155998
949.677	0.0156760
949.755	0.0156595
949.833	0.0158005
949.911	0.0156876
949.989	0.0157474
950.068	0.0158000
950.146	0.0156483
950.224	0.0155827
950.302	0.0156622
950.380	0.0155948
950.458	0.0155058
950.536	0.0155754
950.614	0.0155278
950.693	0.0154836
950.771	0.0153276
950.849	0.0153187
950.927	0.0154623
951.005	0.0153951
951.083	0.0152744
951.161	0.0153395
951.239	0.0152530
951.318	0.0152180
951.396	0.0152725
951.474	0.0153061
951.552	0.0154211
951.630	0.0150948
951.708	0.0152752
951.786	0.0152601
951.864	0.0153297
951.943	0.0152809
952.021	0.0153571
952.099	0.0153835
952.177	0.0152929
952.255	0.0151984
952.333	0.0153926
952.411	0.0153265
952.489	0.0152136
952.568	0.0153542
952.646	0.0151830
952.724	0.0151849
952.802	0.0152061
952.880	0.0151017
952.958	0.0149136
953.036	0.0151917
953.114	0.0149431
953.193	0.0152242
953.271	0.0152158
953.349	0.0151994
953.427	0.0151247
953.505	0.0153327
953.583	0.0152139
953.661	0.0153191
953.739	0.0154009
953.818	0.0154166
953.896	0.0154614
953.974	0.0154630
954.052	0.0155678
954.130	0.0155590
954.208	0.0153905
954.286	0.0154838
954.364	0.0155032
954.443	0.0155296
954.521	0.0155401
954.599	0.0156434
954.677	0.0156583
954.755	0.0156994
954.833	0.0154606
954.911	0.0156394
954.989	0.0155285
955.068	0.0154800
955.146	0.0155550
955.224	0.0154974
955.302	0.0155500
955.380	0.0154244
955.458	0.0153608
955.536	0.0153594
955.614	0.0153582
955.693	0.0152986
955.771	0.0151915
955.849	0.0152529
955.927	0.0153302
956.005	0.0153167
956.083	0.0152788
956.161	0.0153261
956.239	0.0152753
956.318	0.0153210
956.396	0.0153152
956.474	0.0152889
956.552	0.0153752
956.630	0.0152072
956.708	0.0152888
956.786	0.0152403
956.864	0.0152539
956.943	0.0152074
957.021	0.0153014
957.099	0.0153407
957.177	0.0154630
957.255	0.0154305
957.333	0.0155710
957.411	0.0154369
957.489	0.0154017
957.568	0.0154420
957.646	0.0153777
957.724	0.0155153
957.802	0.0154335
957.880	0.0154122
957.958	0.0153375
958.036	0.0153094
958.114	0.0154745
958.193	0.0153259
958.271	0.0153171
958.349	0.0152798
958.427	0.0153841
958.505	0.0153822
958.583	0.0154683
958.661	0.0152792
958.739	0.0153370
958.818	0.0153458
958.896	0.0153282
958.974	0.0153938
959.052	0.0152142
959.130	0.0152894
959.208	0.0154286
959.286	0.0154449
959.364	0.0154221
959.443	0.0153602
959.521	0.0153802
959.599	0.0155280
959.677	0.0154607
959.755	0.0154903
959.833	0.0154721
959.911	0.0154345
