05/17/2022	16:44:18	Ver.	4.1	UNKNOWN
Optical Delay	639.982744	Delta X		0.078125	Sweeps	1	Scan Rate	0/0
Coordinates	Axis 1	NaN	Axis 2	NaN	Axis 3	NaN	Axis 4	NaN	Axis 5	NaN	Axis 6	0.000000
TX Power	0.000000	RX Power	0.000000

639.983	0.0162953
640.061	0.0162667
640.139	0.0164000
640.217	0.0163893
640.295	0.0162749
640.373	0.0161898
640.451	0.0162714
640.530	0.0163286
640.608	0.0164411
640.686	0.0164056
640.764	0.0163615
640.842	0.0164925
640.920	0.0164024
640.998	0.0163503
641.076	0.0163000
641.155	0.0163097
641.233	0.0165273
641.311	0.0162099
641.389	0.0163995
641.467	0.0163644
641.545	0.0162815
641.623	0.0162138
641.701	0.0162951
641.780	0.0163306
641.858	0.0162720
641.936	0.0162921
642.014	0.0163087
642.092	0.0162854
642.170	0.0163039
642.248	0.0162621
642.326	0.0162912
642.405	0.0163279
642.483	0.0163050
642.561	0.0162874
642.639	0.0162318
642.717	0.0162188
642.795	0.0164106
642.873	0.0163864
642.951	0.0161167
643.030	0.0162770
643.108	0.0163382
643.186	0.0163782
643.264	0.0164111
643.342	0.0163535
643.420	0.0163251
643.498	0.0162502
643.576	0.0162669
643.655	0.0162225
643.733	0.0162714
643.811	0.0162290
643.889	0.0163136
643.967	0.0163740
644.045	0.0162790
644.123	0.0162220
644.201	0.0163399
644.280	0.0163459
644.358	0.0163005
644.436	0.0162738
644.514	0.0163932
644.592	0.0161846
644.670	0.0162687
644.748	0.0163525
644.826	0.0164003
644.905	0.0162615
644.983	0.0162518
645.061	0.0162684
645.139	0.0162368
645.217	0.0163649
645.295	0.0163634
645.373	0.0161202
645.451	0.0161962
645.530	0.0162423
645.608	0.0161888
645.686	0.0163032
645.764	0.0162287
645.842	0.0163026
645.920	0.0163643
645.998	0.0162930
646.076	0.0162334
646.155	0.0162303
646.233	0.0162748
646.311	0.0162772
646.389	0.0163020
646.467	0.0162201
646.545	0.0162180
646.623	0.0163066
646.701	0.0164845
646.780	0.0162949
646.858	0.0161381
646.936	0.0162906
647.014	0.0161978
647.092	0.0162795
647.170	0.0164144
647.248	0.0162663
647.326	0.0162286
647.405	0.0163376
647.483	0.0163326
647.561	0.0162119
647.639	0.0161796
647.717	0.0162560
647.795	0.0162125
647.873	0.0162191
647.951	0.0162395
648.030	0.0162614
648.108	0.0162620
648.186	0.0161870
648.264	0.0162037
648.342	0.0162748
648.420	0.0163133
648.498	0.0162868
648.576	0.0163825
648.655	0.0163734
648.733	0.0163778
648.811	0.0162643
648.889	0.0162179
648.967	0.0163032
649.045	0.0163740
649.123	0.0162587
649.201	0.0162018
649.280	0.0162305
649.358	0.0162508
649.436	0.0164312
649.514	0.0162337
649.592	0.0163849
649.670	0.0163864
649.748	0.0162199
649.826	0.0162528
649.905	0.0163713
649.983	0.0162338
650.061	0.0162736
650.139	0.0162982
650.217	0.0161722
650.295	0.0163274
650.373	0.0161825
650.451	0.0162130
650.530	0.0162296
650.608	0.0163337
650.686	0.0162871
650.764	0.0162217
650.842	0.0163169
650.920	0.0162363
650.998	0.0164026
651.076	0.0162275
651.155	0.0161731
651.233	0.0164307
651.311	0.0162671
651.389	0.0161375
651.467	0.0162759
651.545	0.0163075
651.623	0.0162801
651.701	0.0163056
651.780	0.0162086
651.858	0.0163496
651.936	0.0163296
652.014	0.0162695
652.092	0.0161853
652.170	0.0163400
652.248	0.0162191
652.326	0.0162894
652.405	0.0163914
652.483	0.0162734
652.561	0.0161217
652.639	0.0162785
652.717	0.0163846
652.795	0.0162734
652.873	0.0162467
652.951	0.0161804
653.030	0.0163909
653.108	0.0162833
653.186	0.0162245
653.264	0.0162355
653.342	0.0163609
653.420	0.0162708
653.498	0.0161731
653.576	0.0162875
653.655	0.0161837
653.733	0.0162242
653.811	0.0162976
653.889	0.0162112
653.967	0.0163506
654.045	0.0164035
654.123	0.0162460
654.201	0.0162416
654.280	0.0162491
654.358	0.0162570
654.436	0.0163830
654.514	0.0161899
654.592	0.0162694
654.670	0.0163165
654.748	0.0161530
654.826	0.0162071
654.905	0.0164608
654.983	0.0163178
655.061	0.0162759
655.139	0.0161808
655.217	0.0163599
655.295	0.0163545
655.373	0.0163318
655.451	0.0163757
655.530	0.0162334
655.608	0.0162881
655.686	0.0161469
655.764	0.0163053
655.842	0.0163870
655.920	0.0161910
655.998	0.0163571
656.076	0.0164404
656.155	0.0163572
656.233	0.0163954
656.311	0.0164486
656.389	0.0163964
656.467	0.0163503
656.545	0.0163665
656.623	0.0163795
656.701	0.0163313
656.780	0.0164111
656.858	0.0163396
656.936	0.0163007
657.014	0.0164047
657.092	0.0163535
657.170	0.0162598
657.248	0.0163382
657.326	0.0164429
657.405	0.0163316
657.483	0.0163139
657.561	0.0163296
657.639	0.0162338
657.717	0.0163256
657.795	0.0164178
657.873	0.0163993
657.951	0.0164953
658.030	0.0164312
658.108	0.0162875
658.186	0.0162522
658.264	0.0163915
658.342	0.0164430
658.420	0.0163949
658.498	0.0164084
658.576	0.0163083
658.655	0.0164185
658.733	0.0163337
658.811	0.0165070
658.889	0.0163399
658.967	0.0161864
659.045	0.0163692
659.123	0.0164808
659.201	0.0163274
659.280	0.0162715
659.358	0.0163129
659.436	0.0164079
659.514	0.0163697
659.592	0.0162329
659.670	0.0163857
659.748	0.0163553
659.826	0.0163595
659.905	0.0163564
659.983	0.0163548
660.061	0.0163425
660.139	0.0163622
660.217	0.0163659
660.295	0.0163303
660.373	0.0163567
660.451	0.0163423
660.530	0.0162928
660.608	0.0161571
660.686	0.0163655
660.764	0.0164748
660.842	0.0163788
660.920	0.0162000
660.998	0.0162791
661.076	0.0163815
661.155	0.0163133
661.233	0.0163294
661.311	0.0162549
661.389	0.0163463
661.467	0.0163931
661.545	0.0164240
661.623	0.0163889
661.701	0.0162585
661.780	0.0161675
661.858	0.0163905
661.936	0.0162066
662.014	0.0162486
662.092	0.0162066
662.170	0.0163302
662.248	0.0163684
662.326	0.0161877
662.405	0.0163736
662.483	0.0163505
662.561	0.0162767
662.639	0.0162833
662.717	0.0162133
662.795	0.0162955
662.873	0.0162613
662.951	0.0161871
663.030	0.0163307
663.108	0.0163281
663.186	0.0163252
663.264	0.0163247
663.342	0.0162289
663.420	0.0162653
663.498	0.0163441
663.576	0.0162512
663.655	0.0163475
663.733	0.0162620
663.811	0.0162698
663.889	0.0163244
663.967	0.0163249
664.045	0.0163222
664.123	0.0162632
664.201	0.0162786
664.280	0.0162705
664.358	0.0163822
664.436	0.0162925
664.514	0.0162668
664.592	0.0162531
664.670	0.0163657
664.748	0.0163219
664.826	0.0163264
664.905	0.0161803
664.983	0.0163205
665.061	0.0163137
665.139	0.0162864
665.217	0.0161977
665.295	0.0163313
665.373	0.0162138
665.451	0.0164014
665.530	0.0163308
665.608	0.0162514
665.686	0.0161646
665.764	0.0162531
665.842	0.0163997
665.920	0.0163183
665.998	0.0162589
666.076	0.0162187
666.155	0.0162436
666.233	0.0163338
666.311	0.0162823
666.389	0.0162134
666.467	0.0163827
666.545	0.0161966
666.623	0.0163671
666.701	0.0163110
666.780	0.0163181
666.858	0.0162288
666.936	0.0163906
667.014	0.0162762
667.092	0.0162603
667.170	0.0163479
667.248	0.0163477
667.326	0.0162943
667.405	0.0163431
667.483	0.0163187
667.561	0.0162872
667.639	0.0162381
667.717	0.0161789
667.795	0.0163189
667.873	0.0161709
667.951	0.0162917
668.030	0.0162034
668.108	0.0162652
668.186	0.0163819
668.264	0.0164501
668.342	0.0162848
668.420	0.0162850
668.498	0.0162115
668.576	0.0163262
668.655	0.0163055
668.733	0.0162481
668.811	0.0162241
668.889	0.0162962
668.967	0.0164124
669.045	0.0163750
669.123	0.0163414
669.201	0.0163607
669.280	0.0163838
669.358	0.0162708
669.436	0.0161408
669.514	0.0163835
669.592	0.0162286
669.670	0.0162870
669.748	0.0162962
669.826	0.0164097
669.905	0.0161691
669.983	0.0161938
670.061	0.0163237
670.139	0.0161937
670.217	0.0162423
670.295	0.0162751
670.373	0.0162361
670.451	0.0162782
670.530	0.0163469
670.608	0.0162651
670.686	0.0161971
670.764	0.0163522
670.842	0.0163439
670.920	0.0162920
670.998	0.0163253
671.076	0.0163011
671.155	0.0163240
671.233	0.0164086
671.311	0.0162895
671.389	0.0162270
671.467	0.0162815
671.545	0.0163428
671.623	0.0162954
671.701	0.0162836
671.780	0.0163809
671.858	0.0163006
671.936	0.0162472
672.014	0.0162231
672.092	0.0162829
672.170	0.0163165
672.248	0.0161478
672.326	0.0162388
672.405	0.0162498
672.483	0.0161301
672.561	0.0163235
672.639	0.0162389
672.717	0.0162364
672.795	0.0162719
672.873	0.0163781
672.951	0.0161985
673.030	0.0161160
673.108	0.0162547
673.186	0.0161637
673.264	0.0161449
673.342	0.0161900
673.420	0.0162316
673.498	0.0161714
673.576	0.0162563
673.655	0.0161867
673.733	0.0162691
673.811	0.0161746
673.889	0.0162050
673.967	0.0162062
674.045	0.0162515
674.123	0.0162892
674.201	0.0162567
674.280	0.0163404
674.358	0.0163480
674.436	0.0161451
674.514	0.0164639
674.592	0.0163033
674.670	0.0161445
674.748	0.0161640
674.826	0.0162257
674.905	0.0162489
674.983	0.0162846
675.061	0.0162647
675.139	0.0162018
675.217	0.0162297
675.295	0.0164336
675.373	0.0161490
675.451	0.0162606
675.530	0.0161697
675.608	0.0162955
675.686	0.0162886
675.764	0.0163493
675.842	0.0163399
675.920	0.0162132
675.998	0.0162665
676.076	0.0163567
676.155	0.0163565
676.233	0.0162487
676.311	0.0163595
676.389	0.0165240
676.467	0.0164404
676.545	0.0162769
676.623	0.0163086
676.701	0.0164307
676.780	0.0163570
676.858	0.0162667
676.936	0.0163769
677.014	0.0162662
677.092	0.0161701
677.170	0.0161267
677.248	0.0160641
677.326	0.0161240
677.405	0.0160947
677.483	0.0159487
677.561	0.0160282
677.639	0.0162511
677.717	0.0162231
677.795	0.0161511
677.873	0.0163303
677.951	0.0162198
678.030	0.0161755
678.108	0.0164535
678.186	0.0163650
678.264	0.0163137
678.342	0.0163882
678.420	0.0164464
678.498	0.0165000
678.576	0.0165829
678.655	0.0165449
678.733	0.0166769
678.811	0.0165355
678.889	0.0165691
678.967	0.0166225
679.045	0.0164861
679.123	0.0163483
679.201	0.0162792
679.280	0.0162769
679.358	0.0163196
679.436	0.0161079
679.514	0.0158963
679.592	0.0158633
679.670	0.0159142
679.748	0.0159933
679.826	0.0157302
679.905	0.0157248
679.983	0.0159159
680.061	0.0158885
680.139	0.0159946
680.217	0.0160614
680.295	0.0161989
680.373	0.0162984
680.451	0.0164144
680.530	0.0163264
680.608	0.0163721
680.686	0.0164944
680.764	0.0165729
680.842	0.0166534
680.920	0.0166938
680.998	0.0168536
681.076	0.0167167
681.155	0.0167570
681.233	0.0167091
681.311	0.0166145
681.389	0.0164143
681.467	0.0163038
681.545	0.0163629
681.623	0.0161437
681.701	0.0161271
681.780	0.0159936
681.858	0.0159651
681.936	0.0158903
682.014	0.0157001
682.092	0.0156678
682.170	0.0158193
682.248	0.0158138
682.326	0.0158247
682.405	0.0158472
682.483	0.0160593
682.561	0.0161834
682.639	0.0163496
682.717	0.0164569
682.795	0.0165653
682.873	0.0165402
682.951	0.0167868
683.030	0.0167313
683.108	0.0168115
683.186	0.0169603
683.264	0.0167901
683.342	0.0168995
683.420	0.0169033
683.498	0.0168727
683.576	0.0168239
683.655	0.0168132
683.733	0.0166167
683.811	0.0162884
683.889	0.0163322
683.967	0.0161019
684.045	0.0159833
684.123	0.0158354
684.201	0.0156763
684.280	0.0154711
684.358	0.0154157
684.436	0.0155878
684.514	0.0154240
684.592	0.0154537
684.670	0.0155585
684.748	0.0156771
684.826	0.0156362
684.905	0.0157773
684.983	0.0159243
685.061	0.0160005
685.139	0.0162624
685.217	0.0165847
685.295	0.0167905
685.373	0.0168176
685.451	0.0171973
685.530	0.0172748
685.608	0.0172681
685.686	0.0172398
685.764	0.0172726
685.842	0.0173144
685.920	0.0172491
685.998	0.0173475
686.076	0.0172004
686.155	0.0169668
686.233	0.0169161
686.311	0.0169311
686.389	0.0167919
686.467	0.0167250
686.545	0.0166756
686.623	0.0166519
686.701	0.0164482
686.780	0.0166618
686.858	0.0166441
686.936	0.0165249
687.014	0.0164645
687.092	0.0162868
687.170	0.0161581
687.248	0.0158913
687.326	0.0158062
687.405	0.0156040
687.483	0.0154967
687.561	0.0152985
687.639	0.0152709
687.717	0.0152140
687.795	0.0152193
687.873	0.0153106
687.951	0.0153123
688.030	0.0154001
688.108	0.0154069
688.186	0.0155086
688.264	0.0155181
688.342	0.0155870
688.420	0.0156568
688.498	0.0157570
688.576	0.0157498
688.655	0.0158951
688.733	0.0160336
688.811	0.0163005
688.889	0.0164748
688.967	0.0168091
689.045	0.0168932
689.123	0.0171241
689.201	0.0172551
689.280	0.0175691
689.358	0.0176692
689.436	0.0175710
689.514	0.0176923
689.592	0.0176031
689.670	0.0176272
689.748	0.0175611
689.826	0.0174039
689.905	0.0174658
689.983	0.0174137
690.061	0.0174672
690.139	0.0174281
690.217	0.0175903
690.295	0.0174143
690.373	0.0173683
690.451	0.0172878
690.530	0.0172885
690.608	0.0171947
690.686	0.0171817
690.764	0.0170922
690.842	0.0169526
690.920	0.0169548
690.998	0.0167548
691.076	0.0165228
691.155	0.0162391
691.233	0.0161687
691.311	0.0160653
691.389	0.0156940
691.467	0.0154322
691.545	0.0154534
691.623	0.0150330
691.701	0.0148103
691.780	0.0146225
691.858	0.0142419
691.936	0.0140755
692.014	0.0138268
692.092	0.0136185
692.170	0.0134500
692.248	0.0134963
692.326	0.0134657
692.405	0.0133329
692.483	0.0136790
692.561	0.0136340
692.639	0.0137536
692.717	0.0140123
692.795	0.0143665
692.873	0.0145031
692.951	0.0151472
693.030	0.0156104
693.108	0.0162440
693.186	0.0166605
693.264	0.0170673
693.342	0.0177109
693.420	0.0182576
693.498	0.0190223
693.576	0.0196288
693.655	0.0200444
693.733	0.0204494
693.811	0.0206261
693.889	0.0210940
693.967	0.0212086
694.045	0.0211660
694.123	0.0211485
694.201	0.0210605
694.280	0.0207488
694.358	0.0205213
694.436	0.0201031
694.514	0.0196861
694.592	0.0190294
694.670	0.0186681
694.748	0.0181087
694.826	0.0172927
694.905	0.0168715
694.983	0.0162040
695.061	0.0155267
695.139	0.0149655
695.217	0.0145654
695.295	0.0141927
695.373	0.0136127
695.451	0.0135479
695.530	0.0132233
695.608	0.0131668
695.686	0.0129861
695.764	0.0131997
695.842	0.0133808
695.920	0.0133956
695.998	0.0136736
696.076	0.0140163
696.155	0.0141815
696.233	0.0142890
696.311	0.0144642
696.389	0.0146117
696.467	0.0149570
696.545	0.0149151
696.623	0.0150543
696.701	0.0150447
696.780	0.0151103
696.858	0.0151304
696.936	0.0153497
697.014	0.0153503
697.092	0.0153577
697.170	0.0150389
697.248	0.0150115
697.326	0.0149900
697.405	0.0148571
697.483	0.0147003
697.561	0.0146501
697.639	0.0145390
697.717	0.0144457
697.795	0.0146272
697.873	0.0146088
697.951	0.0147868
698.030	0.0152374
698.108	0.0156590
698.186	0.0163355
698.264	0.0167568
698.342	0.0174135
698.420	0.0182446
698.498	0.0190251
698.576	0.0196584
698.655	0.0203258
698.733	0.0209766
698.811	0.0215803
698.889	0.0219357
698.967	0.0222562
699.045	0.0224056
699.123	0.0224581
699.201	0.0224082
699.280	0.0223072
699.358	0.0219173
699.436	0.0215475
699.514	0.0207510
699.592	0.0202788
699.670	0.0193595
699.748	0.0183022
699.826	0.0173331
699.905	0.0162650
699.983	0.0154848
700.061	0.0144483
700.139	0.0137391
700.217	0.0130277
700.295	0.0123261
700.373	0.0118165
700.451	0.0114691
700.530	0.0112582
700.608	0.0111626
700.686	0.0113681
700.764	0.0113046
700.842	0.0116676
700.920	0.0119524
700.998	0.0122896
701.076	0.0125798
701.155	0.0130322
701.233	0.0134235
701.311	0.0138227
701.389	0.0140075
701.467	0.0143895
701.545	0.0144111
701.623	0.0145135
701.701	0.0147637
701.780	0.0146659
701.858	0.0147775
701.936	0.0149158
702.014	0.0146920
702.092	0.0147842
702.170	0.0148188
702.248	0.0149075
702.326	0.0150050
702.405	0.0150341
702.483	0.0152625
702.561	0.0154772
702.639	0.0158502
702.717	0.0162596
702.795	0.0166247
702.873	0.0171463
702.951	0.0176017
703.030	0.0180125
703.108	0.0185365
703.186	0.0190984
703.264	0.0196037
703.342	0.0201518
703.420	0.0203886
703.498	0.0208743
703.576	0.0212113
703.655	0.0214991
703.733	0.0214899
703.811	0.0216840
703.889	0.0217287
703.967	0.0216374
704.045	0.0216640
704.123	0.0215655
704.201	0.0213489
704.280	0.0211223
704.358	0.0207703
704.436	0.0202958
704.514	0.0198483
704.592	0.0192548
704.670	0.0186330
704.748	0.0178010
704.826	0.0172307
704.905	0.0163914
704.983	0.0154861
705.061	0.0145641
705.139	0.0137041
705.217	0.0130785
705.295	0.0123067
705.373	0.0116567
705.451	0.0111577
705.530	0.0107117
705.608	0.0105196
705.686	0.0103786
705.764	0.0103237
705.842	0.0104449
705.920	0.0106295
705.998	0.0109740
706.076	0.0111849
706.155	0.0117288
706.233	0.0122048
706.311	0.0128373
706.389	0.0132581
706.467	0.0137866
706.545	0.0140868
706.623	0.0148180
706.701	0.0153423
706.780	0.0157191
706.858	0.0160825
706.936	0.0165063
707.014	0.0167924
707.092	0.0169070
707.170	0.0170105
707.248	0.0170444
707.326	0.0170412
707.405	0.0170998
707.483	0.0170799
707.561	0.0169879
707.639	0.0168832
707.717	0.0168224
707.795	0.0167987
707.873	0.0168616
707.951	0.0168512
708.030	0.0168147
708.108	0.0166831
708.186	0.0168333
708.264	0.0168946
708.342	0.0170901
708.420	0.0173103
708.498	0.0173399
708.576	0.0176626
708.655	0.0177785
708.733	0.0179183
708.811	0.0182800
708.889	0.0186612
708.967	0.0189491
709.045	0.0194791
709.123	0.0196836
709.201	0.0199354
709.280	0.0203101
709.358	0.0205877
709.436	0.0206401
709.514	0.0208131
709.592	0.0208962
709.670	0.0208145
709.748	0.0205462
709.826	0.0203041
709.905	0.0199200
709.983	0.0197309
710.061	0.0190782
710.139	0.0184224
710.217	0.0177435
710.295	0.0172209
710.373	0.0165691
710.451	0.0157939
710.530	0.0152452
710.608	0.0145959
710.686	0.0139204
710.764	0.0133024
710.842	0.0127997
710.920	0.0123385
710.998	0.0119017
711.076	0.0117087
711.155	0.0114345
711.233	0.0114201
711.311	0.0113314
711.389	0.0113066
711.467	0.0115144
711.545	0.0117947
711.623	0.0120354
711.701	0.0124324
711.780	0.0130319
711.858	0.0133562
711.936	0.0139809
712.014	0.0144286
712.092	0.0150532
712.170	0.0156187
712.248	0.0158567
712.326	0.0162936
712.405	0.0168269
712.483	0.0168546
712.561	0.0170863
712.639	0.0171511
712.717	0.0173091
712.795	0.0172397
712.873	0.0172403
712.951	0.0171820
713.030	0.0170605
713.108	0.0169250
713.186	0.0167278
713.264	0.0167144
713.342	0.0165495
713.420	0.0165559
713.498	0.0163443
713.576	0.0164153
713.655	0.0165038
713.733	0.0163781
713.811	0.0165404
713.889	0.0164785
713.967	0.0167276
714.045	0.0168418
714.123	0.0169559
714.201	0.0172236
714.280	0.0175393
714.358	0.0177666
714.436	0.0181905
714.514	0.0184724
714.592	0.0189943
714.670	0.0191743
714.748	0.0195545
714.826	0.0197397
714.905	0.0199651
714.983	0.0201273
715.061	0.0201272
715.139	0.0202845
715.217	0.0201255
715.295	0.0198827
715.373	0.0196500
715.451	0.0194540
715.530	0.0189636
715.608	0.0184804
715.686	0.0178737
715.764	0.0173522
715.842	0.0167272
715.920	0.0160432
715.998	0.0153593
716.076	0.0147396
716.155	0.0141455
716.233	0.0134454
716.311	0.0130180
716.389	0.0125790
716.467	0.0122159
716.545	0.0119123
716.623	0.0117580
716.701	0.0118200
716.780	0.0119660
716.858	0.0121645
716.936	0.0125269
717.014	0.0128682
717.092	0.0133250
717.170	0.0138985
717.248	0.0143768
717.326	0.0148775
717.405	0.0154196
717.483	0.0161042
717.561	0.0165163
717.639	0.0168021
717.717	0.0170706
717.795	0.0172866
717.873	0.0174147
717.951	0.0176086
718.030	0.0175976
718.108	0.0174337
718.186	0.0172978
718.264	0.0172215
718.342	0.0169926
718.420	0.0165977
718.498	0.0166029
718.576	0.0164329
718.655	0.0162511
718.733	0.0162305
718.811	0.0160128
718.889	0.0160173
718.967	0.0157613
719.045	0.0159608
719.123	0.0158109
719.201	0.0158675
719.280	0.0159538
719.358	0.0162114
719.436	0.0163344
719.514	0.0165379
719.592	0.0168523
719.670	0.0170474
719.748	0.0173380
719.826	0.0177351
719.905	0.0182031
719.983	0.0184632
720.061	0.0186639
720.139	0.0188863
720.217	0.0192045
720.295	0.0192837
720.373	0.0192724
720.451	0.0192796
720.530	0.0192033
720.608	0.0190095
720.686	0.0188796
720.764	0.0185046
720.842	0.0179956
720.920	0.0177075
720.998	0.0173166
721.076	0.0168045
721.155	0.0163350
721.233	0.0158783
721.311	0.0154581
721.389	0.0149471
721.467	0.0146620
721.545	0.0142888
721.623	0.0138693
721.701	0.0135471
721.780	0.0134182
721.858	0.0132173
721.936	0.0132066
722.014	0.0133167
722.092	0.0133765
722.170	0.0134769
722.248	0.0137161
722.326	0.0138181
722.405	0.0141396
722.483	0.0146676
722.561	0.0150023
722.639	0.0153908
722.717	0.0158281
722.795	0.0160919
722.873	0.0165254
722.951	0.0168736
723.030	0.0170423
723.108	0.0173472
723.186	0.0174074
723.264	0.0173632
723.342	0.0176361
723.420	0.0174339
723.498	0.0174076
723.576	0.0173076
723.655	0.0172865
723.733	0.0169594
723.811	0.0168270
723.889	0.0165295
723.967	0.0164137
724.045	0.0161354
724.123	0.0157837
724.201	0.0157315
724.280	0.0157687
724.358	0.0155610
724.436	0.0154055
724.514	0.0154433
724.592	0.0153884
724.670	0.0156940
724.748	0.0158640
724.826	0.0159647
724.905	0.0161665
724.983	0.0163216
725.061	0.0167205
725.139	0.0165922
725.217	0.0168562
725.295	0.0171800
725.373	0.0170897
725.451	0.0172180
725.530	0.0174964
725.608	0.0174748
725.686	0.0175632
725.764	0.0175220
725.842	0.0174872
725.920	0.0174210
725.998	0.0174159
726.076	0.0171244
726.155	0.0169093
726.233	0.0165898
726.311	0.0164428
726.389	0.0160614
726.467	0.0157867
726.545	0.0154381
726.623	0.0152887
726.701	0.0153219
726.780	0.0149936
726.858	0.0148607
726.936	0.0148636
727.014	0.0148380
727.092	0.0149616
727.170	0.0150991
727.248	0.0151550
727.326	0.0155214
727.405	0.0156519
727.483	0.0157041
727.561	0.0161336
727.639	0.0163785
727.717	0.0165917
727.795	0.0166685
727.873	0.0168871
727.951	0.0170583
728.030	0.0170635
728.108	0.0171826
728.186	0.0172383
728.264	0.0171837
728.342	0.0172221
728.420	0.0171558
728.498	0.0170345
728.576	0.0170218
728.655	0.0170236
728.733	0.0168370
728.811	0.0168060
728.889	0.0168312
728.967	0.0167384
729.045	0.0165467
729.123	0.0163409
729.201	0.0162981
729.280	0.0162947
729.358	0.0162077
729.436	0.0162390
729.514	0.0161295
729.592	0.0161208
729.670	0.0161918
729.748	0.0162103
729.826	0.0160536
729.905	0.0161643
729.983	0.0162244
730.061	0.0161504
730.139	0.0161628
730.217	0.0162347
730.295	0.0161212
730.373	0.0160931
730.451	0.0160471
730.530	0.0160483
730.608	0.0161888
730.686	0.0160966
730.764	0.0160571
730.842	0.0159447
730.920	0.0159547
730.998	0.0160300
731.076	0.0159347
731.155	0.0158464
731.233	0.0159013
731.311	0.0158074
731.389	0.0158101
731.467	0.0158463
731.545	0.0157381
731.623	0.0158414
731.701	0.0157744
731.780	0.0157411
731.858	0.0158112
731.936	0.0158424
732.014	0.0159896
732.092	0.0159941
732.170	0.0160993
732.248	0.0161213
732.326	0.0162888
732.405	0.0164759
732.483	0.0165482
732.561	0.0165289
732.639	0.0165982
732.717	0.0166603
732.795	0.0168132
732.873	0.0169690
732.951	0.0169678
733.030	0.0168748
733.108	0.0169433
733.186	0.0171716
733.264	0.0170083
733.342	0.0171247
733.420	0.0170482
733.498	0.0172425
733.576	0.0170393
733.655	0.0171352
733.733	0.0171777
733.811	0.0170300
733.889	0.0170061
733.967	0.0169986
734.045	0.0167867
734.123	0.0167477
734.201	0.0165636
734.280	0.0163908
734.358	0.0163419
734.436	0.0163467
734.514	0.0161302
734.592	0.0160362
734.670	0.0160694
734.748	0.0157005
734.826	0.0157465
734.905	0.0159973
734.983	0.0157140
735.061	0.0156531
735.139	0.0157391
735.217	0.0156802
735.295	0.0158470
735.373	0.0156686
735.451	0.0158840
735.530	0.0157275
735.608	0.0158103
735.686	0.0158866
735.764	0.0158106
735.842	0.0159109
735.920	0.0160663
735.998	0.0159636
736.076	0.0160629
736.155	0.0161704
736.233	0.0160822
736.311	0.0162263
736.389	0.0160922
736.467	0.0160541
736.545	0.0161582
736.623	0.0161786
736.701	0.0160632
736.780	0.0161789
736.858	0.0161011
736.936	0.0162550
737.014	0.0162746
737.092	0.0162540
737.170	0.0162403
737.248	0.0162720
737.326	0.0163780
737.405	0.0164489
737.483	0.0164569
737.561	0.0165314
737.639	0.0167341
737.717	0.0167127
737.795	0.0167782
737.873	0.0168468
737.951	0.0168133
738.030	0.0170385
738.108	0.0170480
738.186	0.0170928
738.264	0.0170293
738.342	0.0171128
738.420	0.0171070
738.498	0.0172923
738.576	0.0173351
738.655	0.0173216
738.733	0.0173034
738.811	0.0171169
738.889	0.0172115
738.967	0.0169535
739.045	0.0168543
739.123	0.0167649
739.201	0.0165655
739.280	0.0164025
739.358	0.0161902
739.436	0.0159220
739.514	0.0158962
739.592	0.0155525
739.670	0.0154842
739.748	0.0154110
739.826	0.0153402
739.905	0.0151960
739.983	0.0151896
740.061	0.0153111
740.139	0.0152333
740.217	0.0154178
740.295	0.0154926
740.373	0.0158026
740.451	0.0157593
740.530	0.0160476
740.608	0.0162252
740.686	0.0162641
740.764	0.0164079
740.842	0.0165303
740.920	0.0165396
740.998	0.0166796
741.076	0.0168170
741.155	0.0165647
741.233	0.0166485
741.311	0.0166496
741.389	0.0164998
741.467	0.0164285
741.545	0.0163026
741.623	0.0163426
741.701	0.0161051
741.780	0.0161576
741.858	0.0161381
741.936	0.0160009
742.014	0.0157964
742.092	0.0158704
742.170	0.0158101
742.248	0.0157872
742.326	0.0157484
742.405	0.0157823
742.483	0.0159693
742.561	0.0159517
742.639	0.0160500
742.717	0.0161203
742.795	0.0163376
742.873	0.0164161
742.951	0.0165533
743.030	0.0167579
743.108	0.0167928
743.186	0.0168809
743.264	0.0170552
743.342	0.0171134
743.420	0.0171037
743.498	0.0169941
743.576	0.0170536
743.655	0.0169350
743.733	0.0169412
743.811	0.0167739
743.889	0.0167822
743.967	0.0163943
744.045	0.0163867
744.123	0.0162716
744.201	0.0162221
744.280	0.0161230
744.358	0.0160676
744.436	0.0160014
744.514	0.0159328
744.592	0.0158132
744.670	0.0158826
744.748	0.0157941
744.826	0.0157759
744.905	0.0159749
744.983	0.0158342
745.061	0.0159638
745.139	0.0161285
745.217	0.0160966
745.295	0.0160999
745.373	0.0161720
745.451	0.0161311
745.530	0.0161030
745.608	0.0161263
745.686	0.0162539
745.764	0.0161831
745.842	0.0163705
745.920	0.0163530
745.998	0.0162754
746.076	0.0164959
746.155	0.0164947
746.233	0.0165433
746.311	0.0165903
746.389	0.0166756
746.467	0.0167635
746.545	0.0167764
746.623	0.0168235
746.701	0.0167537
746.780	0.0167124
746.858	0.0166544
746.936	0.0167181
747.014	0.0164702
747.092	0.0163693
747.170	0.0162690
747.248	0.0162068
747.326	0.0161404
747.405	0.0160391
747.483	0.0160984
747.561	0.0157931
747.639	0.0159038
747.717	0.0160265
747.795	0.0160397
747.873	0.0160914
747.951	0.0160929
748.030	0.0161135
748.108	0.0162577
748.186	0.0162883
748.264	0.0163826
748.342	0.0164204
748.420	0.0164243
748.498	0.0165649
748.576	0.0164363
748.655	0.0164729
748.733	0.0166093
748.811	0.0165147
748.889	0.0164870
748.967	0.0165179
749.045	0.0162424
749.123	0.0162647
749.201	0.0161935
749.280	0.0161636
749.358	0.0160583
749.436	0.0158718
749.514	0.0158743
749.592	0.0157510
749.670	0.0158824
749.748	0.0158029
749.826	0.0157783
749.905	0.0157961
749.983	0.0158492
750.061	0.0158343
750.139	0.0160155
750.217	0.0159674
750.295	0.0161553
750.373	0.0161906
750.451	0.0161984
750.530	0.0163136
750.608	0.0164342
750.686	0.0163853
750.764	0.0166869
750.842	0.0168970
750.920	0.0168067
750.998	0.0169164
751.076	0.0171182
751.155	0.0169203
751.233	0.0170345
751.311	0.0170493
751.389	0.0170789
751.467	0.0169006
751.545	0.0169859
751.623	0.0170454
751.701	0.0167939
751.780	0.0167043
751.858	0.0165742
751.936	0.0166609
752.014	0.0165337
752.092	0.0163825
752.170	0.0163036
752.248	0.0163276
752.326	0.0162766
752.405	0.0163144
752.483	0.0160672
752.561	0.0160204
752.639	0.0161088
752.717	0.0160447
752.795	0.0157868
752.873	0.0159856
752.951	0.0157404
753.030	0.0158539
753.108	0.0157775
753.186	0.0157668
753.264	0.0157798
753.342	0.0157741
753.420	0.0159802
753.498	0.0158939
753.576	0.0159779
753.655	0.0160097
753.733	0.0161587
753.811	0.0161099
753.889	0.0162691
753.967	0.0162290
754.045	0.0162485
754.123	0.0163001
754.201	0.0162910
754.280	0.0163733
754.358	0.0162286
754.436	0.0162949
754.514	0.0163757
754.592	0.0162865
754.670	0.0161919
754.748	0.0161469
754.826	0.0162116
754.905	0.0162010
754.983	0.0161517
755.061	0.0160918
755.139	0.0160695
755.217	0.0160133
755.295	0.0160805
755.373	0.0160453
755.451	0.0160896
755.530	0.0162373
755.608	0.0163523
755.686	0.0163486
755.764	0.0162742
755.842	0.0163515
755.920	0.0165213
755.998	0.0164916
756.076	0.0165147
756.155	0.0165716
756.233	0.0165212
756.311	0.0165919
756.389	0.0167038
756.467	0.0166949
756.545	0.0165478
756.623	0.0165742
756.701	0.0166003
756.780	0.0165041
756.858	0.0163727
756.936	0.0164158
757.014	0.0164449
757.092	0.0162330
757.170	0.0163033
757.248	0.0163190
757.326	0.0162830
757.405	0.0161678
757.483	0.0162312
757.561	0.0161913
757.639	0.0161267
757.717	0.0160848
757.795	0.0160249
757.873	0.0160296
757.951	0.0161016
758.030	0.0160285
758.108	0.0161069
758.186	0.0160568
758.264	0.0161050
758.342	0.0162500
758.420	0.0162267
758.498	0.0162652
758.576	0.0163792
758.655	0.0163422
758.733	0.0163430
758.811	0.0164716
758.889	0.0165652
758.967	0.0166949
759.045	0.0165128
759.123	0.0165862
759.201	0.0166856
759.280	0.0167428
759.358	0.0167583
759.436	0.0166593
759.514	0.0166824
759.592	0.0167287
759.670	0.0165949
759.748	0.0164902
759.826	0.0164084
759.905	0.0165154
759.983	0.0165307
760.061	0.0163240
760.139	0.0162736
760.217	0.0161387
760.295	0.0161535
760.373	0.0161285
760.451	0.0160328
760.530	0.0158437
760.608	0.0160104
760.686	0.0160835
760.764	0.0159763
760.842	0.0158276
760.920	0.0158752
760.998	0.0159557
761.076	0.0160363
761.155	0.0159883
761.233	0.0161115
761.311	0.0161930
761.389	0.0162109
761.467	0.0161433
761.545	0.0163638
761.623	0.0165662
761.701	0.0164983
761.780	0.0164551
761.858	0.0166756
761.936	0.0166290
762.014	0.0166251
762.092	0.0167004
762.170	0.0166167
762.248	0.0166037
762.326	0.0164883
762.405	0.0164510
762.483	0.0164764
762.561	0.0164301
762.639	0.0163531
762.717	0.0163900
762.795	0.0162407
762.873	0.0160212
762.951	0.0160863
763.030	0.0160153
763.108	0.0160101
763.186	0.0159940
763.264	0.0159438
763.342	0.0161017
763.420	0.0157961
763.498	0.0158786
763.576	0.0159657
763.655	0.0159734
763.733	0.0158714
763.811	0.0158880
763.889	0.0160928
763.967	0.0162067
764.045	0.0162551
764.123	0.0162057
764.201	0.0163091
764.280	0.0163285
764.358	0.0165230
764.436	0.0166174
764.514	0.0165291
764.592	0.0166087
764.670	0.0166497
764.748	0.0166249
764.826	0.0166100
764.905	0.0167863
764.983	0.0166936
765.061	0.0166566
765.139	0.0166685
765.217	0.0165563
765.295	0.0165598
765.373	0.0164688
765.451	0.0164668
765.530	0.0162886
765.608	0.0163725
765.686	0.0163681
765.764	0.0163203
765.842	0.0161967
765.920	0.0161755
765.998	0.0162087
766.076	0.0162490
766.155	0.0162096
766.233	0.0162321
766.311	0.0163193
766.389	0.0161378
766.467	0.0162321
766.545	0.0164761
766.623	0.0163597
766.701	0.0162997
766.780	0.0163925
766.858	0.0163124
766.936	0.0163737
767.014	0.0163679
767.092	0.0163371
767.170	0.0163591
767.248	0.0164255
767.326	0.0164229
767.405	0.0162772
767.483	0.0162033
767.561	0.0161893
767.639	0.0163608
767.717	0.0163132
767.795	0.0160765
767.873	0.0162762
767.951	0.0161362
768.030	0.0161329
768.108	0.0162083
768.186	0.0162211
768.264	0.0161807
768.342	0.0161957
768.420	0.0163007
768.498	0.0161375
768.576	0.0162217
768.655	0.0160752
768.733	0.0162708
768.811	0.0163687
768.889	0.0160750
768.967	0.0162155
769.045	0.0162166
769.123	0.0162191
769.201	0.0162563
769.280	0.0162271
769.358	0.0163538
769.436	0.0164212
769.514	0.0165471
769.592	0.0165706
769.670	0.0165729
769.748	0.0165289
769.826	0.0166004
769.905	0.0165357
769.983	0.0164805
770.061	0.0166801
770.139	0.0166882
770.217	0.0165786
770.295	0.0165121
770.373	0.0164405
770.451	0.0165758
770.530	0.0164544
770.608	0.0164464
770.686	0.0162692
770.764	0.0162324
770.842	0.0161765
770.920	0.0161086
770.998	0.0160351
771.076	0.0161426
771.155	0.0159629
771.233	0.0159859
771.311	0.0160319
771.389	0.0159889
771.467	0.0158836
771.545	0.0158805
771.623	0.0159206
771.701	0.0159591
771.780	0.0159806
771.858	0.0160889
771.936	0.0160627
772.014	0.0161632
772.092	0.0163261
772.170	0.0162712
772.248	0.0162698
772.326	0.0164032
772.405	0.0164405
772.483	0.0164120
772.561	0.0164307
772.639	0.0163593
772.717	0.0165238
772.795	0.0164641
772.873	0.0164867
772.951	0.0165176
773.030	0.0165876
773.108	0.0165327
773.186	0.0164474
773.264	0.0165974
773.342	0.0164909
773.420	0.0166056
773.498	0.0166264
773.576	0.0165343
773.655	0.0165548
773.733	0.0164918
773.811	0.0164561
773.889	0.0163900
773.967	0.0163519
774.045	0.0164600
774.123	0.0163082
774.201	0.0164030
774.280	0.0161852
774.358	0.0163870
774.436	0.0162254
774.514	0.0162022
774.592	0.0162578
774.670	0.0162367
774.748	0.0162121
774.826	0.0163402
774.905	0.0162060
774.983	0.0162615
775.061	0.0162188
775.139	0.0163372
775.217	0.0162912
775.295	0.0162299
775.373	0.0163187
775.451	0.0162392
775.530	0.0162286
775.608	0.0163439
775.686	0.0162621
775.764	0.0162146
775.842	0.0163204
775.920	0.0161655
775.998	0.0161495
776.076	0.0160686
776.155	0.0161352
776.233	0.0160789
776.311	0.0159588
776.389	0.0161450
776.467	0.0161270
776.545	0.0161170
776.623	0.0160426
776.701	0.0161254
776.780	0.0161610
776.858	0.0160606
776.936	0.0162411
777.014	0.0163148
777.092	0.0163046
777.170	0.0162914
777.248	0.0163301
777.326	0.0165813
777.405	0.0164961
777.483	0.0165874
777.561	0.0165527
777.639	0.0166296
777.717	0.0165782
777.795	0.0166432
777.873	0.0168224
777.951	0.0166507
778.030	0.0166316
778.108	0.0165842
778.186	0.0165265
778.264	0.0165319
778.342	0.0165221
778.420	0.0163802
778.498	0.0163087
778.576	0.0164018
778.655	0.0163033
778.733	0.0162601
778.811	0.0161682
778.889	0.0162402
778.967	0.0161368
779.045	0.0159509
779.123	0.0162504
779.201	0.0160608
779.280	0.0160696
779.358	0.0160999
779.436	0.0159767
779.514	0.0158678
779.592	0.0159631
779.670	0.0160938
779.748	0.0161412
779.826	0.0160485
779.905	0.0160585
779.983	0.0161349
780.061	0.0162329
780.139	0.0160590
780.217	0.0162006
780.295	0.0163065
780.373	0.0162160
780.451	0.0161924
780.530	0.0162697
780.608	0.0163860
780.686	0.0163252
780.764	0.0164295
780.842	0.0163361
780.920	0.0164060
780.998	0.0164859
781.076	0.0164088
781.155	0.0164178
781.233	0.0164008
781.311	0.0163840
781.389	0.0164600
781.467	0.0163413
781.545	0.0163461
781.623	0.0164955
781.701	0.0164759
781.780	0.0164368
781.858	0.0164296
781.936	0.0164417
782.014	0.0164851
782.092	0.0164497
782.170	0.0164934
782.248	0.0166250
782.326	0.0164902
782.405	0.0165429
782.483	0.0165961
782.561	0.0167108
782.639	0.0167520
782.717	0.0166586
782.795	0.0166428
782.873	0.0166400
782.951	0.0166561
783.030	0.0166177
783.108	0.0166708
783.186	0.0164857
783.264	0.0165012
783.342	0.0162616
783.420	0.0164362
783.498	0.0165068
783.576	0.0163795
783.655	0.0163972
783.733	0.0163058
783.811	0.0160480
783.889	0.0162177
783.967	0.0161942
784.045	0.0161395
784.123	0.0161302
784.201	0.0161271
784.280	0.0160516
784.358	0.0161575
784.436	0.0160735
784.514	0.0160754
784.592	0.0161671
784.670	0.0161364
784.748	0.0160400
784.826	0.0159108
784.905	0.0159725
784.983	0.0160500
785.061	0.0160106
785.139	0.0160815
785.217	0.0158463
785.295	0.0159609
785.373	0.0162557
785.451	0.0161085
785.530	0.0162035
785.608	0.0162391
785.686	0.0161410
785.764	0.0162245
785.842	0.0161793
785.920	0.0162941
785.998	0.0163495
786.076	0.0162357
786.155	0.0164820
786.233	0.0163047
786.311	0.0162394
786.389	0.0164811
786.467	0.0164816
786.545	0.0164100
786.623	0.0164720
786.701	0.0165971
786.780	0.0165942
786.858	0.0164748
786.936	0.0165663
787.014	0.0165211
787.092	0.0165931
787.170	0.0165868
787.248	0.0164953
787.326	0.0165780
787.405	0.0166345
787.483	0.0165485
787.561	0.0164703
787.639	0.0164323
787.717	0.0164103
787.795	0.0165129
787.873	0.0164632
787.951	0.0164727
788.030	0.0164001
788.108	0.0164255
788.186	0.0163991
788.264	0.0163686
788.342	0.0164776
788.420	0.0163830
788.498	0.0162234
788.576	0.0162775
788.655	0.0163595
788.733	0.0162698
788.811	0.0162170
788.889	0.0161527
788.967	0.0162376
789.045	0.0160774
789.123	0.0161577
789.201	0.0162684
789.280	0.0161454
789.358	0.0161095
789.436	0.0161913
789.514	0.0161140
789.592	0.0162115
789.670	0.0161871
789.748	0.0159698
789.826	0.0162025
789.905	0.0163029
789.983	0.0161874
790.061	0.0162437
790.139	0.0164317
790.217	0.0163031
790.295	0.0163289
790.373	0.0164349
790.451	0.0165527
790.530	0.0166171
790.608	0.0167272
790.686	0.0168826
790.764	0.0169210
790.842	0.0168253
790.920	0.0168621
790.998	0.0167397
791.076	0.0167253
791.155	0.0167750
791.233	0.0167122
791.311	0.0167778
791.389	0.0167155
791.467	0.0163978
791.545	0.0164672
791.623	0.0164710
791.701	0.0163624
791.780	0.0162447
791.858	0.0162144
791.936	0.0160462
792.014	0.0159434
792.092	0.0159287
792.170	0.0158888
792.248	0.0158005
792.326	0.0157831
792.405	0.0156489
792.483	0.0156860
792.561	0.0157674
792.639	0.0157949
792.717	0.0157034
792.795	0.0158482
792.873	0.0161393
792.951	0.0160193
793.030	0.0160822
793.108	0.0161395
793.186	0.0161687
793.264	0.0162405
793.342	0.0162275
793.420	0.0162482
793.498	0.0164557
793.576	0.0164120
793.655	0.0164327
793.733	0.0163692
793.811	0.0164616
793.889	0.0164368
793.967	0.0164114
794.045	0.0164616
794.123	0.0163785
794.201	0.0164034
794.280	0.0164314
794.358	0.0163953
794.436	0.0164455
794.514	0.0164818
794.592	0.0163805
794.670	0.0164864
794.748	0.0164546
794.826	0.0165202
794.905	0.0165804
794.983	0.0165342
795.061	0.0167333
795.139	0.0167953
795.217	0.0168641
795.295	0.0168321
795.373	0.0168790
795.451	0.0168732
795.530	0.0170056
795.608	0.0171652
795.686	0.0171369
795.764	0.0171063
795.842	0.0170841
795.920	0.0170189
795.998	0.0170669
796.076	0.0170905
796.155	0.0168668
796.233	0.0170107
796.311	0.0170023
796.389	0.0167802
796.467	0.0167799
796.545	0.0166050
796.623	0.0163855
796.701	0.0162691
796.780	0.0161398
796.858	0.0161381
796.936	0.0158396
797.014	0.0158075
797.092	0.0155811
797.170	0.0155356
797.248	0.0154779
797.326	0.0154233
797.405	0.0152528
797.483	0.0152677
797.561	0.0154565
797.639	0.0154291
797.717	0.0153767
797.795	0.0154021
797.873	0.0153439
797.951	0.0154488
798.030	0.0153798
798.108	0.0156569
798.186	0.0156988
798.264	0.0157126
798.342	0.0158842
798.420	0.0158850
798.498	0.0160075
798.576	0.0161459
798.655	0.0162094
798.733	0.0162963
798.811	0.0163029
798.889	0.0163647
798.967	0.0163544
799.045	0.0163913
799.123	0.0164657
799.201	0.0166872
799.280	0.0164119
799.358	0.0165622
799.436	0.0167014
799.514	0.0166267
799.592	0.0166594
799.670	0.0165825
799.748	0.0166386
799.826	0.0167995
799.905	0.0166648
799.983	0.0167996
800.061	0.0168216
800.139	0.0169324
800.217	0.0169250
800.295	0.0169458
800.373	0.0169450
800.451	0.0171524
800.530	0.0171899
800.608	0.0170796
800.686	0.0171819
800.764	0.0172098
800.842	0.0172404
800.920	0.0172355
800.998	0.0172906
801.076	0.0170212
801.155	0.0169626
801.233	0.0170423
801.311	0.0166696
801.389	0.0166887
801.467	0.0163406
801.545	0.0163626
801.623	0.0161765
801.701	0.0159237
801.780	0.0159683
801.858	0.0159045
801.936	0.0156485
802.014	0.0155120
802.092	0.0155638
802.170	0.0154515
802.248	0.0154396
802.326	0.0153621
802.405	0.0152150
802.483	0.0152529
802.561	0.0152391
802.639	0.0153391
802.717	0.0153730
802.795	0.0153727
802.873	0.0153493
802.951	0.0155161
803.030	0.0156232
803.108	0.0155579
803.186	0.0157497
803.264	0.0157935
803.342	0.0157622
803.420	0.0157380
803.498	0.0158444
803.576	0.0157734
803.655	0.0161163
803.733	0.0161587
803.811	0.0160664
803.889	0.0162208
803.967	0.0161784
804.045	0.0163051
804.123	0.0164301
804.201	0.0163737
804.280	0.0163941
804.358	0.0163914
804.436	0.0163964
804.514	0.0164512
804.592	0.0164890
804.670	0.0165598
804.748	0.0165142
804.826	0.0166425
804.905	0.0164373
804.983	0.0165475
805.061	0.0165864
805.139	0.0167487
805.217	0.0166728
805.295	0.0166673
805.373	0.0167831
805.451	0.0167932
805.530	0.0168488
805.608	0.0168594
805.686	0.0169009
805.764	0.0169395
805.842	0.0171239
805.920	0.0170525
805.998	0.0171314
806.076	0.0172566
806.155	0.0170580
806.233	0.0171548
806.311	0.0172208
806.389	0.0171407
806.467	0.0171606
806.545	0.0171210
806.623	0.0169405
806.701	0.0169550
806.780	0.0168992
806.858	0.0166599
806.936	0.0166176
807.014	0.0165876
807.092	0.0164253
807.170	0.0163519
807.248	0.0162910
807.326	0.0164144
807.405	0.0161745
807.483	0.0159612
807.561	0.0158538
807.639	0.0157324
807.717	0.0156920
807.795	0.0156305
807.873	0.0155220
807.951	0.0153306
808.030	0.0153292
808.108	0.0153102
808.186	0.0154589
808.264	0.0154366
808.342	0.0154188
808.420	0.0154709
808.498	0.0155328
808.576	0.0155113
808.655	0.0155556
808.733	0.0156989
808.811	0.0156625
808.889	0.0157884
808.967	0.0158456
809.045	0.0157404
809.123	0.0158999
809.201	0.0159919
809.280	0.0161036
809.358	0.0161103
809.436	0.0161521
809.514	0.0162154
809.592	0.0161747
809.670	0.0163444
809.748	0.0163447
809.826	0.0165478
809.905	0.0165969
809.983	0.0166543
810.061	0.0167782
810.139	0.0166382
810.217	0.0168905
810.295	0.0168816
810.373	0.0168347
810.451	0.0168871
810.530	0.0169695
810.608	0.0169644
810.686	0.0170003
810.764	0.0170127
810.842	0.0168519
810.920	0.0169363
810.998	0.0171118
811.076	0.0169160
811.155	0.0170865
811.233	0.0168459
811.311	0.0170789
811.389	0.0170519
811.467	0.0171990
811.545	0.0171676
811.623	0.0170083
811.701	0.0170126
811.780	0.0171165
811.858	0.0170318
811.936	0.0170580
812.014	0.0170070
812.092	0.0168716
812.170	0.0170062
812.248	0.0167688
812.326	0.0167828
812.405	0.0167555
812.483	0.0165148
812.561	0.0164668
812.639	0.0164039
812.717	0.0162099
812.795	0.0161330
812.873	0.0159699
812.951	0.0156804
813.030	0.0156305
813.108	0.0155597
813.186	0.0154775
813.264	0.0153256
813.342	0.0151642
813.420	0.0151778
813.498	0.0152142
813.576	0.0152524
813.655	0.0152106
813.733	0.0151611
813.811	0.0152716
813.889	0.0151331
813.967	0.0152923
814.045	0.0155836
814.123	0.0154723
814.201	0.0155460
814.280	0.0158159
814.358	0.0158900
814.436	0.0160162
814.514	0.0160775
814.592	0.0161722
814.670	0.0163889
814.748	0.0163850
814.826	0.0165305
814.905	0.0165694
814.983	0.0166539
815.061	0.0167840
815.139	0.0165779
815.217	0.0166632
815.295	0.0167729
815.373	0.0166429
815.451	0.0168577
815.530	0.0167064
815.608	0.0164881
815.686	0.0165634
815.764	0.0166175
815.842	0.0165543
815.920	0.0165327
815.998	0.0166642
816.076	0.0166386
816.155	0.0165546
816.233	0.0165115
816.311	0.0166967
816.389	0.0166787
816.467	0.0166587
816.545	0.0167671
816.623	0.0168488
816.701	0.0169293
816.780	0.0169263
816.858	0.0169399
816.936	0.0168250
817.014	0.0170568
817.092	0.0169525
817.170	0.0169633
817.248	0.0169285
817.326	0.0168658
817.405	0.0169207
817.483	0.0168510
817.561	0.0167222
817.639	0.0166991
817.717	0.0164993
817.795	0.0163099
817.873	0.0164333
817.951	0.0163128
818.030	0.0160478
818.108	0.0160540
818.186	0.0160021
818.264	0.0159176
818.342	0.0158148
818.420	0.0155379
818.498	0.0158006
818.576	0.0156114
818.655	0.0155286
818.733	0.0156361
818.811	0.0156177
818.889	0.0155028
818.967	0.0156769
819.045	0.0156454
819.123	0.0156395
819.201	0.0157037
819.280	0.0157075
819.358	0.0158334
819.436	0.0160186
819.514	0.0161081
819.592	0.0161323
819.670	0.0162340
819.748	0.0163848
819.826	0.0161923
819.905	0.0162139
819.983	0.0163504
820.061	0.0164010
820.139	0.0165295
820.217	0.0163890
820.295	0.0164455
820.373	0.0165059
820.451	0.0163988
820.530	0.0165334
820.608	0.0165632
820.686	0.0165522
820.764	0.0165046
820.842	0.0166213
820.920	0.0164867
820.998	0.0165279
821.076	0.0165879
821.155	0.0166193
821.233	0.0164187
821.311	0.0163528
821.389	0.0165910
821.467	0.0166563
821.545	0.0164635
821.623	0.0164802
821.701	0.0165027
821.780	0.0164429
821.858	0.0165367
821.936	0.0166209
822.014	0.0166023
822.092	0.0165483
822.170	0.0165543
822.248	0.0165312
822.326	0.0165089
822.405	0.0166386
822.483	0.0164294
822.561	0.0163582
822.639	0.0164633
822.717	0.0164950
822.795	0.0164096
822.873	0.0165000
822.951	0.0163370
823.030	0.0163053
823.108	0.0163158
823.186	0.0161512
823.264	0.0161909
823.342	0.0162730
823.420	0.0161565
823.498	0.0159824
823.576	0.0160723
823.655	0.0161034
823.733	0.0160387
823.811	0.0160693
823.889	0.0159844
823.967	0.0158607
824.045	0.0157661
824.123	0.0159082
824.201	0.0156907
824.280	0.0157182
824.358	0.0157227
824.436	0.0158344
824.514	0.0157557
824.592	0.0158686
824.670	0.0159547
824.748	0.0159308
824.826	0.0159229
824.905	0.0161362
824.983	0.0162366
825.061	0.0161943
825.139	0.0163490
825.217	0.0162525
825.295	0.0163809
825.373	0.0164725
825.451	0.0166790
825.530	0.0166307
825.608	0.0163646
825.686	0.0164181
825.764	0.0165234
825.842	0.0168117
825.920	0.0167419
825.998	0.0168104
826.076	0.0167062
826.155	0.0166200
826.233	0.0166738
826.311	0.0164989
826.389	0.0165228
826.467	0.0165154
826.545	0.0164436
826.623	0.0164075
826.701	0.0164584
826.780	0.0163145
826.858	0.0163876
826.936	0.0163627
827.014	0.0163533
827.092	0.0163000
827.170	0.0162959
827.248	0.0163692
827.326	0.0163413
827.405	0.0161970
827.483	0.0163081
827.561	0.0161414
827.639	0.0162505
827.717	0.0162424
827.795	0.0161577
827.873	0.0162942
827.951	0.0160467
828.030	0.0161348
828.108	0.0161632
828.186	0.0161023
828.264	0.0159255
828.342	0.0161621
828.420	0.0159828
828.498	0.0160970
828.576	0.0160473
828.655	0.0160226
828.733	0.0159846
828.811	0.0161406
828.889	0.0160698
828.967	0.0160452
829.045	0.0160931
829.123	0.0159924
829.201	0.0161277
829.280	0.0162163
829.358	0.0161460
829.436	0.0161511
829.514	0.0160640
829.592	0.0162228
829.670	0.0161002
829.748	0.0161674
829.826	0.0161747
829.905	0.0164208
829.983	0.0162658
830.061	0.0161405
830.139	0.0162093
830.217	0.0161720
830.295	0.0163120
830.373	0.0161963
830.451	0.0163815
830.530	0.0163483
830.608	0.0162321
830.686	0.0163521
830.764	0.0164367
830.842	0.0165752
830.920	0.0165117
830.998	0.0165405
831.076	0.0164495
831.155	0.0165199
831.233	0.0166042
831.311	0.0165932
831.389	0.0164261
831.467	0.0164267
831.545	0.0164761
831.623	0.0163789
831.701	0.0164305
831.780	0.0163736
831.858	0.0163062
831.936	0.0163161
832.014	0.0161092
832.092	0.0159924
832.170	0.0160101
832.248	0.0161950
832.326	0.0161250
832.405	0.0160868
832.483	0.0159949
832.561	0.0159615
832.639	0.0160717
832.717	0.0161243
832.795	0.0160489
832.873	0.0161517
832.951	0.0160685
833.030	0.0161040
833.108	0.0161977
833.186	0.0160871
833.264	0.0161332
833.342	0.0161813
833.420	0.0161876
833.498	0.0161536
833.576	0.0161419
833.655	0.0161607
833.733	0.0160895
833.811	0.0160751
833.889	0.0162778
833.967	0.0162074
834.045	0.0161827
834.123	0.0161609
834.201	0.0161790
834.280	0.0162189
834.358	0.0161447
834.436	0.0161884
834.514	0.0161774
834.592	0.0162987
834.670	0.0161095
834.748	0.0161733
834.826	0.0161756
834.905	0.0163441
834.983	0.0161477
835.061	0.0163573
835.139	0.0163165
835.217	0.0163333
835.295	0.0164376
835.373	0.0163105
835.451	0.0163946
835.530	0.0164565
835.608	0.0164895
835.686	0.0164715
835.764	0.0164232
835.842	0.0166306
835.920	0.0165835
835.998	0.0164574
836.076	0.0166477
836.155	0.0165743
836.233	0.0164710
836.311	0.0164609
836.389	0.0166122
836.467	0.0166647
836.545	0.0164651
836.623	0.0163947
836.701	0.0166014
836.780	0.0165499
836.858	0.0163390
836.936	0.0164236
837.014	0.0164637
837.092	0.0161981
837.170	0.0163361
837.248	0.0161986
837.326	0.0160648
837.405	0.0161641
837.483	0.0162627
837.561	0.0161261
837.639	0.0161750
837.717	0.0161176
837.795	0.0159826
837.873	0.0161504
837.951	0.0160709
838.030	0.0159892
838.108	0.0160386
838.186	0.0160059
838.264	0.0161191
838.342	0.0160936
838.420	0.0160041
838.498	0.0160642
838.576	0.0160068
838.655	0.0160880
838.733	0.0160851
838.811	0.0161768
838.889	0.0160928
838.967	0.0162214
839.045	0.0161803
839.123	0.0162084
839.201	0.0161784
839.280	0.0161748
839.358	0.0162100
839.436	0.0162398
839.514	0.0162701
839.592	0.0162774
839.670	0.0163166
839.748	0.0162495
839.826	0.0162444
839.905	0.0164203
839.983	0.0163519
840.061	0.0164194
840.139	0.0162466
840.217	0.0162594
840.295	0.0163134
840.373	0.0163148
840.451	0.0164021
840.530	0.0163683
840.608	0.0165376
840.686	0.0163183
840.764	0.0164158
840.842	0.0163773
840.920	0.0164189
840.998	0.0163773
841.076	0.0164214
841.155	0.0164755
841.233	0.0163023
841.311	0.0165656
841.389	0.0165195
841.467	0.0163691
841.545	0.0165376
841.623	0.0165789
841.701	0.0166422
841.780	0.0165347
841.858	0.0166497
841.936	0.0168077
842.014	0.0166297
842.092	0.0166374
842.170	0.0166891
842.248	0.0166290
842.326	0.0165498
842.405	0.0166186
842.483	0.0166109
842.561	0.0166201
842.639	0.0165485
842.717	0.0165132
842.795	0.0164234
842.873	0.0163132
842.951	0.0163225
843.030	0.0161552
843.108	0.0162158
843.186	0.0162791
843.264	0.0160899
843.342	0.0160932
843.420	0.0160088
843.498	0.0160966
843.576	0.0159057
843.655	0.0159600
843.733	0.0160641
843.811	0.0161005
843.889	0.0160388
843.967	0.0159795
844.045	0.0159481
844.123	0.0160516
844.201	0.0160265
844.280	0.0160067
844.358	0.0160773
844.436	0.0160831
844.514	0.0159256
844.592	0.0162716
844.670	0.0160672
844.748	0.0162114
844.826	0.0161535
844.905	0.0161004
844.983	0.0161324
845.061	0.0162314
845.139	0.0162511
845.217	0.0160883
845.295	0.0160756
845.373	0.0162471
845.451	0.0162159
845.530	0.0162801
845.608	0.0162364
845.686	0.0161885
845.764	0.0160789
845.842	0.0162944
845.920	0.0163401
845.998	0.0162859
846.076	0.0163843
846.155	0.0163766
846.233	0.0162148
846.311	0.0163633
846.389	0.0163716
846.467	0.0163776
846.545	0.0162849
846.623	0.0164040
846.701	0.0165257
846.780	0.0164513
846.858	0.0165044
846.936	0.0165329
847.014	0.0164930
847.092	0.0163664
847.170	0.0165546
847.248	0.0166438
847.326	0.0165446
847.405	0.0166595
847.483	0.0166473
847.561	0.0166453
847.639	0.0165565
847.717	0.0166143
847.795	0.0166752
847.873	0.0164549
847.951	0.0164046
848.030	0.0164494
848.108	0.0163658
848.186	0.0163580
848.264	0.0165238
848.342	0.0163424
848.420	0.0162800
848.498	0.0162399
848.576	0.0161873
848.655	0.0162972
848.733	0.0162103
848.811	0.0161385
848.889	0.0160931
848.967	0.0161302
849.045	0.0160662
849.123	0.0160814
849.201	0.0160411
849.280	0.0160981
849.358	0.0161629
849.436	0.0160738
849.514	0.0160526
849.592	0.0160237
849.670	0.0160734
849.748	0.0159241
849.826	0.0159917
849.905	0.0161955
849.983	0.0160204
850.061	0.0159673
850.139	0.0159342
850.217	0.0161663
850.295	0.0159980
850.373	0.0158331
850.451	0.0160835
850.530	0.0160190
850.608	0.0161244
850.686	0.0161058
850.764	0.0161971
850.842	0.0161981
850.920	0.0161852
850.998	0.0162190
851.076	0.0161765
851.155	0.0162697
851.233	0.0161632
851.311	0.0161351
851.389	0.0162855
851.467	0.0163903
851.545	0.0162472
851.623	0.0162666
851.701	0.0162979
851.780	0.0164752
851.858	0.0164053
851.936	0.0163102
852.014	0.0162849
852.092	0.0163450
852.170	0.0165129
852.248	0.0165020
852.326	0.0164679
852.405	0.0164506
852.483	0.0163098
852.561	0.0165083
852.639	0.0164846
852.717	0.0166525
852.795	0.0166191
852.873	0.0165539
852.951	0.0164980
853.030	0.0165541
853.108	0.0164081
853.186	0.0164384
853.264	0.0165385
853.342	0.0164661
853.420	0.0164645
853.498	0.0165063
853.576	0.0163980
853.655	0.0165739
853.733	0.0164902
853.811	0.0165623
853.889	0.0163022
853.967	0.0163152
854.045	0.0164114
854.123	0.0164144
854.201	0.0162863
854.280	0.0162542
854.358	0.0164237
854.436	0.0163060
854.514	0.0161820
854.592	0.0162994
854.670	0.0162224
854.748	0.0160731
854.826	0.0159988
854.905	0.0160796
854.983	0.0160056
855.061	0.0161550
855.139	0.0161130
855.217	0.0160145
855.295	0.0159179
855.373	0.0160681
855.451	0.0160841
855.530	0.0161359
855.608	0.0160986
855.686	0.0160723
855.764	0.0161663
855.842	0.0160927
855.920	0.0162778
855.998	0.0161246
856.076	0.0162281
856.155	0.0161198
856.233	0.0162033
856.311	0.0162367
856.389	0.0162137
856.467	0.0161521
856.545	0.0162249
856.623	0.0162212
856.701	0.0161957
856.780	0.0162910
856.858	0.0161039
856.936	0.0161900
857.014	0.0162677
857.092	0.0162836
857.170	0.0162030
857.248	0.0162019
857.326	0.0162370
857.405	0.0163963
857.483	0.0162696
857.561	0.0162662
857.639	0.0164967
857.717	0.0162239
857.795	0.0164832
857.873	0.0163051
857.951	0.0163750
858.030	0.0164499
858.108	0.0164014
858.186	0.0163903
858.264	0.0164104
858.342	0.0165958
858.420	0.0165381
858.498	0.0164404
858.576	0.0166146
858.655	0.0165270
858.733	0.0165137
858.811	0.0164202
858.889	0.0164912
858.967	0.0165173
859.045	0.0164460
859.123	0.0164128
859.201	0.0163262
859.280	0.0164443
859.358	0.0163508
859.436	0.0163045
859.514	0.0162679
859.592	0.0163205
859.670	0.0162057
859.748	0.0162090
859.826	0.0164441
859.905	0.0163820
859.983	0.0162518
860.061	0.0161658
860.139	0.0162999
860.217	0.0162146
860.295	0.0161687
860.373	0.0161769
860.451	0.0163348
860.530	0.0162299
860.608	0.0162624
860.686	0.0163502
860.764	0.0162498
860.842	0.0163156
860.920	0.0161823
860.998	0.0162127
861.076	0.0163492
861.155	0.0162844
861.233	0.0161936
861.311	0.0161797
861.389	0.0162714
861.467	0.0162653
861.545	0.0162388
861.623	0.0162000
861.701	0.0161687
861.780	0.0162775
861.858	0.0162920
861.936	0.0162316
862.014	0.0162177
862.092	0.0163335
862.170	0.0163074
862.248	0.0163097
862.326	0.0162601
862.405	0.0163028
862.483	0.0163799
862.561	0.0161465
862.639	0.0163706
862.717	0.0164548
862.795	0.0164086
862.873	0.0163456
862.951	0.0164023
863.030	0.0163328
863.108	0.0164268
863.186	0.0163864
863.264	0.0163612
863.342	0.0162682
863.420	0.0162499
863.498	0.0160475
863.576	0.0162737
863.655	0.0162233
863.733	0.0163454
863.811	0.0164217
863.889	0.0163388
863.967	0.0162012
864.045	0.0162533
864.123	0.0162873
864.201	0.0163981
864.280	0.0163142
864.358	0.0163192
864.436	0.0161951
864.514	0.0162296
864.592	0.0162776
864.670	0.0163528
864.748	0.0162817
864.826	0.0163049
864.905	0.0163605
864.983	0.0163225
865.061	0.0164152
865.139	0.0163540
865.217	0.0164375
865.295	0.0163155
865.373	0.0163632
865.451	0.0163421
865.530	0.0162243
865.608	0.0164088
865.686	0.0163116
865.764	0.0164557
865.842	0.0164024
865.920	0.0164433
865.998	0.0163894
866.076	0.0162695
866.155	0.0163334
866.233	0.0163873
866.311	0.0162050
866.389	0.0163223
866.467	0.0162556
866.545	0.0163074
866.623	0.0162676
866.701	0.0162050
866.780	0.0161905
866.858	0.0162263
866.936	0.0162991
867.014	0.0162324
867.092	0.0162408
867.170	0.0164043
867.248	0.0162356
867.326	0.0162141
867.405	0.0160457
867.483	0.0161895
867.561	0.0161990
867.639	0.0162186
867.717	0.0163928
867.795	0.0161293
867.873	0.0162138
867.951	0.0162904
868.030	0.0162105
868.108	0.0161942
868.186	0.0163680
868.264	0.0162409
868.342	0.0162341
868.420	0.0162233
868.498	0.0162905
868.576	0.0164087
868.655	0.0163444
868.733	0.0162616
868.811	0.0162421
868.889	0.0162913
868.967	0.0163252
869.045	0.0162435
869.123	0.0163911
869.201	0.0165198
869.280	0.0163766
869.358	0.0163802
869.436	0.0164826
869.514	0.0162955
869.592	0.0165403
869.670	0.0162521
869.748	0.0163392
869.826	0.0164620
869.905	0.0164792
869.983	0.0165242
870.061	0.0164211
870.139	0.0163932
870.217	0.0162804
870.295	0.0163889
870.373	0.0164191
870.451	0.0164889
870.530	0.0165157
870.608	0.0164722
870.686	0.0164516
870.764	0.0163065
870.842	0.0162897
870.920	0.0164397
870.998	0.0162566
871.076	0.0163212
871.155	0.0163306
871.233	0.0163469
871.311	0.0160276
871.389	0.0161517
871.467	0.0161556
871.545	0.0161357
871.623	0.0161997
871.701	0.0161028
871.780	0.0161578
871.858	0.0162124
871.936	0.0163325
872.014	0.0161945
872.092	0.0160678
872.170	0.0163328
872.248	0.0162771
872.326	0.0163220
872.405	0.0162091
872.483	0.0162164
872.561	0.0161502
872.639	0.0162672
872.717	0.0161970
872.795	0.0162151
872.873	0.0161390
872.951	0.0161691
873.030	0.0161525
873.108	0.0163457
873.186	0.0162422
873.264	0.0162791
873.342	0.0163400
873.420	0.0163590
873.498	0.0162360
873.576	0.0164002
873.655	0.0163811
873.733	0.0164040
873.811	0.0163837
873.889	0.0165208
873.967	0.0165196
874.045	0.0164123
874.123	0.0163983
874.201	0.0164366
874.280	0.0164185
874.358	0.0164912
874.436	0.0163877
874.514	0.0164171
874.592	0.0165094
874.670	0.0163957
874.748	0.0163071
874.826	0.0163956
874.905	0.0162925
874.983	0.0162752
875.061	0.0162955
875.139	0.0163817
875.217	0.0163100
875.295	0.0162524
875.373	0.0162566
875.451	0.0162232
875.530	0.0163273
875.608	0.0162611
875.686	0.0163132
875.764	0.0161807
875.842	0.0162521
875.920	0.0163358
875.998	0.0162534
876.076	0.0163029
876.155	0.0163160
876.233	0.0163243
876.311	0.0162194
876.389	0.0163172
876.467	0.0161900
876.545	0.0163224
876.623	0.0161568
876.701	0.0163985
876.780	0.0164063
876.858	0.0165018
876.936	0.0162347
877.014	0.0163091
877.092	0.0163685
877.170	0.0163503
877.248	0.0163655
877.326	0.0163574
877.405	0.0164330
877.483	0.0163403
877.561	0.0163747
877.639	0.0163618
877.717	0.0164236
877.795	0.0162125
877.873	0.0163315
877.951	0.0164385
878.030	0.0164127
878.108	0.0163367
878.186	0.0161906
878.264	0.0163377
878.342	0.0162903
878.420	0.0163397
878.498	0.0162672
878.576	0.0163338
878.655	0.0165077
878.733	0.0163557
878.811	0.0163017
878.889	0.0163247
878.967	0.0160951
879.045	0.0163597
879.123	0.0162352
879.201	0.0161971
879.280	0.0162399
879.358	0.0163160
879.436	0.0161484
879.514	0.0161256
879.592	0.0162007
879.670	0.0162222
879.748	0.0162000
879.826	0.0161198
879.905	0.0161258
879.983	0.0160656
880.061	0.0162434
880.139	0.0160466
880.217	0.0161919
880.295	0.0162801
880.373	0.0162032
880.451	0.0160928
880.530	0.0163106
880.608	0.0162141
880.686	0.0164289
880.764	0.0162895
880.842	0.0162214
880.920	0.0162743
880.998	0.0165521
881.076	0.0164580
881.155	0.0164124
881.233	0.0163527
881.311	0.0162330
881.389	0.0164618
881.467	0.0163998
881.545	0.0163194
881.623	0.0162792
881.701	0.0162234
881.780	0.0164204
881.858	0.0165173
881.936	0.0164056
882.014	0.0161749
882.092	0.0164018
882.170	0.0165932
882.248	0.0164595
882.326	0.0163512
882.405	0.0163988
882.483	0.0163948
882.561	0.0163255
882.639	0.0162514
882.717	0.0164240
882.795	0.0162038
882.873	0.0162686
882.951	0.0164192
883.030	0.0162884
883.108	0.0163100
883.186	0.0161659
883.264	0.0162311
883.342	0.0162231
883.420	0.0161254
883.498	0.0161737
883.576	0.0162275
883.655	0.0161999
883.733	0.0160468
883.811	0.0161663
883.889	0.0162319
883.967	0.0162279
884.045	0.0162717
884.123	0.0162393
884.201	0.0162523
884.280	0.0162408
884.358	0.0163100
884.436	0.0164263
884.514	0.0163901
884.592	0.0164291
884.670	0.0162994
884.748	0.0164783
884.826	0.0165112
884.905	0.0164757
884.983	0.0165427
885.061	0.0165759
885.139	0.0165846
885.217	0.0165704
885.295	0.0166913
885.373	0.0168040
885.451	0.0167083
885.530	0.0164965
885.608	0.0167625
885.686	0.0166149
885.764	0.0166360
885.842	0.0166792
885.920	0.0164349
885.998	0.0163705
886.076	0.0165045
886.155	0.0164771
886.233	0.0161233
886.311	0.0162526
886.389	0.0162083
886.467	0.0160980
886.545	0.0161112
886.623	0.0159609
886.701	0.0159930
886.780	0.0159695
886.858	0.0159657
886.936	0.0158813
887.014	0.0160120
887.092	0.0158938
887.170	0.0157848
887.248	0.0159740
887.326	0.0161116
887.405	0.0160632
887.483	0.0161576
887.561	0.0160558
887.639	0.0161843
887.717	0.0161176
887.795	0.0161942
887.873	0.0162447
887.951	0.0164083
888.030	0.0163755
888.108	0.0164895
888.186	0.0164669
888.264	0.0165828
888.342	0.0165207
888.420	0.0164898
888.498	0.0164458
888.576	0.0164881
888.655	0.0163829
888.733	0.0164876
888.811	0.0163673
888.889	0.0163058
888.967	0.0163680
889.045	0.0162965
889.123	0.0161182
889.201	0.0162734
889.280	0.0162325
889.358	0.0161735
889.436	0.0161600
889.514	0.0162239
889.592	0.0162606
889.670	0.0162065
889.748	0.0161861
889.826	0.0164429
889.905	0.0164255
889.983	0.0164038
890.061	0.0164080
890.139	0.0164357
890.217	0.0165234
890.295	0.0165522
890.373	0.0167837
890.451	0.0166787
890.530	0.0166444
890.608	0.0167481
890.686	0.0165489
890.764	0.0165588
890.842	0.0165641
890.920	0.0165395
890.998	0.0164571
891.076	0.0163744
891.155	0.0162473
891.233	0.0162194
891.311	0.0161417
891.389	0.0160593
891.467	0.0160187
891.545	0.0158878
891.623	0.0157887
891.701	0.0158621
891.780	0.0157385
891.858	0.0158008
891.936	0.0157308
892.014	0.0158574
892.092	0.0158504
892.170	0.0157987
892.248	0.0158715
892.326	0.0159879
892.405	0.0162950
892.483	0.0161954
892.561	0.0161964
892.639	0.0163603
892.717	0.0163473
892.795	0.0164546
892.873	0.0164954
892.951	0.0163658
893.030	0.0165219
893.108	0.0165944
893.186	0.0165185
893.264	0.0165086
893.342	0.0164485
893.420	0.0164668
893.498	0.0163277
893.576	0.0163164
893.655	0.0163074
893.733	0.0163291
893.811	0.0161721
893.889	0.0163385
893.967	0.0162017
894.045	0.0162967
894.123	0.0161311
894.201	0.0162417
894.280	0.0161788
894.358	0.0161452
894.436	0.0161974
894.514	0.0162891
894.592	0.0163120
894.670	0.0162198
894.748	0.0163907
894.826	0.0162820
894.905	0.0163991
894.983	0.0163898
895.061	0.0163815
895.139	0.0163268
895.217	0.0165356
895.295	0.0165406
895.373	0.0162231
895.451	0.0163908
895.530	0.0164883
895.608	0.0163541
895.686	0.0164146
895.764	0.0165486
895.842	0.0164140
895.920	0.0164799
895.998	0.0163531
896.076	0.0164320
896.155	0.0162697
896.233	0.0162322
896.311	0.0163828
896.389	0.0162983
896.467	0.0163074
896.545	0.0161993
896.623	0.0162885
896.701	0.0162364
896.780	0.0161487
896.858	0.0162112
896.936	0.0161265
897.014	0.0160439
897.092	0.0161998
897.170	0.0163173
897.248	0.0163260
897.326	0.0162775
897.405	0.0163408
897.483	0.0164928
897.561	0.0166933
897.639	0.0164561
897.717	0.0164534
897.795	0.0167206
897.873	0.0167252
897.951	0.0168010
898.030	0.0168079
898.108	0.0168272
898.186	0.0166352
898.264	0.0167051
898.342	0.0166544
898.420	0.0166821
898.498	0.0166238
898.576	0.0163819
898.655	0.0162265
898.733	0.0162811
898.811	0.0163774
898.889	0.0161194
898.967	0.0160279
899.045	0.0161407
899.123	0.0160181
899.201	0.0159148
899.280	0.0158921
899.358	0.0157317
899.436	0.0159476
899.514	0.0160273
899.592	0.0159191
899.670	0.0158763
899.748	0.0159163
899.826	0.0158958
899.905	0.0160235
899.983	0.0160103
900.061	0.0159783
900.139	0.0161167
900.217	0.0161761
900.295	0.0160944
900.373	0.0162469
900.451	0.0163466
900.530	0.0164794
900.608	0.0164878
900.686	0.0164423
900.764	0.0164682
900.842	0.0166586
900.920	0.0167381
900.998	0.0166845
901.076	0.0168284
901.155	0.0167749
901.233	0.0167280
901.311	0.0167322
901.389	0.0167097
901.467	0.0167675
901.545	0.0165644
901.623	0.0165121
901.701	0.0165693
901.780	0.0165008
901.858	0.0162560
901.936	0.0163113
902.014	0.0161853
902.092	0.0161905
902.170	0.0161291
902.248	0.0161604
902.326	0.0161199
902.405	0.0160168
902.483	0.0159562
902.561	0.0159782
902.639	0.0159837
902.717	0.0161132
902.795	0.0159253
902.873	0.0159458
902.951	0.0159318
903.030	0.0160957
903.108	0.0161177
903.186	0.0160620
903.264	0.0162214
903.342	0.0161401
903.420	0.0162254
903.498	0.0163469
903.576	0.0163583
903.655	0.0164195
903.733	0.0163197
903.811	0.0162151
903.889	0.0164318
903.967	0.0163957
904.045	0.0164843
904.123	0.0164407
904.201	0.0163353
904.280	0.0163454
904.358	0.0165276
904.436	0.0164625
904.514	0.0164019
904.592	0.0164356
904.670	0.0163019
904.748	0.0163100
904.826	0.0162164
904.905	0.0164398
904.983	0.0164036
905.061	0.0163583
905.139	0.0163666
905.217	0.0163864
905.295	0.0164223
905.373	0.0162695
905.451	0.0163651
905.530	0.0162762
905.608	0.0165025
905.686	0.0166288
905.764	0.0164290
905.842	0.0164507
905.920	0.0163728
905.998	0.0163988
906.076	0.0165557
906.155	0.0163287
906.233	0.0162508
906.311	0.0162934
906.389	0.0163540
906.467	0.0162919
906.545	0.0162367
906.623	0.0162074
906.701	0.0162249
906.780	0.0162872
906.858	0.0162250
906.936	0.0162136
907.014	0.0160365
907.092	0.0160963
907.170	0.0161165
907.248	0.0160765
907.326	0.0160435
907.405	0.0159074
907.483	0.0160033
907.561	0.0160091
907.639	0.0159168
907.717	0.0158357
907.795	0.0158710
907.873	0.0159235
907.951	0.0159106
908.030	0.0159042
908.108	0.0159964
908.186	0.0159411
908.264	0.0160989
908.342	0.0162112
908.420	0.0161194
908.498	0.0163465
908.576	0.0164842
908.655	0.0165078
908.733	0.0166238
908.811	0.0166516
908.889	0.0166795
908.967	0.0168370
909.045	0.0167803
909.123	0.0167426
909.201	0.0167943
909.280	0.0168507
909.358	0.0167456
909.436	0.0166877
909.514	0.0167465
909.592	0.0166615
909.670	0.0165495
909.748	0.0165710
909.826	0.0164996
909.905	0.0164455
909.983	0.0164843
910.061	0.0163239
910.139	0.0162328
910.217	0.0162014
910.295	0.0161320
910.373	0.0161428
910.451	0.0161305
910.530	0.0161720
910.608	0.0161736
910.686	0.0161169
910.764	0.0161023
910.842	0.0161208
910.920	0.0160831
910.998	0.0161562
911.076	0.0161710
911.155	0.0161357
911.233	0.0163394
911.311	0.0161680
911.389	0.0162237
911.467	0.0164116
911.545	0.0161879
911.623	0.0161184
911.701	0.0162487
911.780	0.0162998
911.858	0.0162648
911.936	0.0161992
912.014	0.0162636
912.092	0.0160178
912.170	0.0160293
912.248	0.0161040
912.326	0.0159872
912.405	0.0158586
912.483	0.0159123
912.561	0.0159905
912.639	0.0160851
912.717	0.0159186
912.795	0.0159576
912.873	0.0160896
912.951	0.0159396
913.030	0.0159228
913.108	0.0161547
913.186	0.0160842
913.264	0.0161447
913.342	0.0161301
913.420	0.0163163
913.498	0.0163843
913.576	0.0164012
913.655	0.0165020
913.733	0.0164449
913.811	0.0163917
913.889	0.0164371
913.967	0.0166388
914.045	0.0166405
914.123	0.0167583
914.201	0.0166476
914.280	0.0165742
914.358	0.0167085
914.436	0.0166889
914.514	0.0167439
914.592	0.0167528
914.670	0.0165977
914.748	0.0166339
914.826	0.0165750
914.905	0.0165049
914.983	0.0164330
915.061	0.0163917
915.139	0.0163359
915.217	0.0162581
915.295	0.0162396
915.373	0.0161926
915.451	0.0162402
915.530	0.0160722
915.608	0.0160015
915.686	0.0161116
915.764	0.0159979
915.842	0.0160004
915.920	0.0160589
915.998	0.0161005
916.076	0.0160637
916.155	0.0160755
916.233	0.0160548
916.311	0.0161181
916.389	0.0160902
916.467	0.0161168
916.545	0.0162772
916.623	0.0160867
916.701	0.0162009
916.780	0.0162879
916.858	0.0162873
916.936	0.0163794
917.014	0.0162644
917.092	0.0163438
917.170	0.0164131
917.248	0.0162374
917.326	0.0162572
917.405	0.0163785
917.483	0.0162569
917.561	0.0162752
917.639	0.0162039
917.717	0.0162675
917.795	0.0162267
917.873	0.0162979
917.951	0.0161369
918.030	0.0160618
918.108	0.0160820
918.186	0.0161463
918.264	0.0161662
918.342	0.0161821
918.420	0.0161520
918.498	0.0162383
918.576	0.0162565
918.655	0.0161198
918.733	0.0162051
918.811	0.0161393
918.889	0.0162291
918.967	0.0163074
919.045	0.0164472
919.123	0.0162836
919.201	0.0162853
919.280	0.0164167
919.358	0.0164913
919.436	0.0165504
919.514	0.0165063
919.592	0.0164462
919.670	0.0164454
919.748	0.0164157
919.826	0.0164082
919.905	0.0164983
919.983	0.0164238
920.061	0.0164349
920.139	0.0163648
920.217	0.0164214
920.295	0.0164010
920.373	0.0163760
920.451	0.0164453
920.530	0.0162224
920.608	0.0162971
920.686	0.0163371
920.764	0.0162103
920.842	0.0161590
920.920	0.0164405
920.998	0.0163290
921.076	0.0162370
921.155	0.0163625
921.233	0.0162460
921.311	0.0162833
921.389	0.0162599
921.467	0.0162470
921.545	0.0163680
921.623	0.0163409
921.701	0.0162531
921.780	0.0164495
921.858	0.0163900
921.936	0.0164326
922.014	0.0164320
922.092	0.0163593
922.170	0.0164780
922.248	0.0163847
922.326	0.0164231
922.405	0.0164108
922.483	0.0164621
922.561	0.0163819
922.639	0.0162001
922.717	0.0161722
922.795	0.0161651
922.873	0.0161679
922.951	0.0161062
923.030	0.0161438
923.108	0.0160480
923.186	0.0160049
923.264	0.0160423
923.342	0.0159921
923.420	0.0160609
923.498	0.0160416
923.576	0.0159705
923.655	0.0161099
923.733	0.0162296
923.811	0.0159897
923.889	0.0158929
923.967	0.0161427
924.045	0.0162599
924.123	0.0162111
924.201	0.0161807
924.280	0.0162630
924.358	0.0163626
924.436	0.0164477
924.514	0.0163819
924.592	0.0165112
924.670	0.0164009
924.748	0.0164281
924.826	0.0164656
924.905	0.0165263
924.983	0.0163549
925.061	0.0164689
925.139	0.0164285
925.217	0.0163670
925.295	0.0163125
925.373	0.0163817
925.451	0.0162721
925.530	0.0162622
925.608	0.0161153
925.686	0.0162582
925.764	0.0161987
925.842	0.0161427
925.920	0.0162226
925.998	0.0162360
926.076	0.0160992
926.155	0.0160266
926.233	0.0161794
926.311	0.0163483
926.389	0.0162180
926.467	0.0161514
926.545	0.0162312
926.623	0.0163266
926.701	0.0162504
926.780	0.0163081
926.858	0.0163360
926.936	0.0164826
927.014	0.0164401
927.092	0.0165443
927.170	0.0164191
927.248	0.0164593
927.326	0.0166068
927.405	0.0166051
927.483	0.0165189
927.561	0.0164801
927.639	0.0164474
927.717	0.0164636
927.795	0.0165763
927.873	0.0164539
927.951	0.0162268
928.030	0.0163124
928.108	0.0161972
928.186	0.0162676
928.264	0.0161980
928.342	0.0161377
928.420	0.0162735
928.498	0.0161308
928.576	0.0160780
928.655	0.0159988
928.733	0.0160457
928.811	0.0160375
928.889	0.0159779
928.967	0.0160078
929.045	0.0160638
929.123	0.0162112
929.201	0.0161334
929.280	0.0160998
929.358	0.0160793
929.436	0.0162192
929.514	0.0162637
929.592	0.0162379
929.670	0.0162798
929.748	0.0162691
929.826	0.0162805
929.905	0.0162022
929.983	0.0163795
930.061	0.0164567
930.139	0.0163055
930.217	0.0162236
930.295	0.0162734
930.373	0.0163042
930.451	0.0162064
930.530	0.0161391
930.608	0.0162128
930.686	0.0161732
930.764	0.0162525
930.842	0.0161646
930.920	0.0161816
930.998	0.0161955
931.076	0.0162844
931.155	0.0160712
931.233	0.0159684
931.311	0.0159975
931.389	0.0160449
931.467	0.0161224
931.545	0.0161450
931.623	0.0161868
931.701	0.0162092
931.780	0.0163248
931.858	0.0163022
931.936	0.0163501
932.014	0.0164463
932.092	0.0164114
932.170	0.0164890
932.248	0.0163494
932.326	0.0165110
932.405	0.0166245
932.483	0.0167297
932.561	0.0167413
932.639	0.0166555
932.717	0.0164955
932.795	0.0166050
932.873	0.0166227
932.951	0.0166429
933.030	0.0166500
933.108	0.0165444
933.186	0.0165062
933.264	0.0165040
933.342	0.0164491
933.420	0.0164462
933.498	0.0163560
933.576	0.0163559
933.655	0.0163173
933.733	0.0161407
933.811	0.0162504
933.889	0.0161702
933.967	0.0161494
934.045	0.0161832
934.123	0.0161674
934.201	0.0161669
934.280	0.0161221
934.358	0.0163636
934.436	0.0163625
934.514	0.0162663
934.592	0.0161740
934.670	0.0161513
934.748	0.0163970
934.826	0.0163401
934.905	0.0162431
934.983	0.0162582
935.061	0.0164417
935.139	0.0163812
935.217	0.0164294
935.295	0.0164487
935.373	0.0164334
935.451	0.0163536
935.530	0.0162483
935.608	0.0161716
935.686	0.0162469
935.764	0.0162637
935.842	0.0161541
935.920	0.0159885
935.998	0.0160148
936.076	0.0160113
936.155	0.0158778
936.233	0.0158423
936.311	0.0160781
936.389	0.0159685
936.467	0.0159299
936.545	0.0160402
936.623	0.0159338
936.701	0.0160446
936.780	0.0161736
936.858	0.0161221
936.936	0.0161520
937.014	0.0162476
937.092	0.0163439
937.170	0.0164061
937.248	0.0164345
937.326	0.0164781
937.405	0.0164732
937.483	0.0165709
937.561	0.0166322
937.639	0.0167133
937.717	0.0167432
937.795	0.0166760
937.873	0.0166303
937.951	0.0167699
938.030	0.0167035
938.108	0.0167079
938.186	0.0167288
938.264	0.0167045
938.342	0.0167600
938.420	0.0166344
938.498	0.0165231
938.576	0.0166569
938.655	0.0165932
938.733	0.0165142
938.811	0.0164302
938.889	0.0163860
938.967	0.0163644
939.045	0.0163028
939.123	0.0161274
939.201	0.0162295
939.280	0.0162431
939.358	0.0161456
939.436	0.0161426
939.514	0.0161593
939.592	0.0161133
939.670	0.0161639
939.748	0.0162131
939.826	0.0160912
939.905	0.0161368
939.983	0.0161991
940.061	0.0161832
940.139	0.0163258
940.217	0.0162949
940.295	0.0161985
940.373	0.0161198
940.451	0.0163126
940.530	0.0162286
940.608	0.0163073
940.686	0.0162630
940.764	0.0162756
940.842	0.0162105
940.920	0.0160467
940.998	0.0162441
941.076	0.0163425
941.155	0.0163100
941.233	0.0162344
941.311	0.0162251
941.389	0.0161166
941.467	0.0162750
941.545	0.0161791
941.623	0.0159954
941.701	0.0161420
941.780	0.0161988
941.858	0.0163126
941.936	0.0161684
942.014	0.0162333
942.092	0.0162369
942.170	0.0162006
942.248	0.0161911
942.326	0.0161800
942.405	0.0160802
942.483	0.0162741
942.561	0.0163343
942.639	0.0162753
942.717	0.0163126
942.795	0.0163197
942.873	0.0162485
942.951	0.0163769
943.030	0.0161596
943.108	0.0163022
943.186	0.0163879
943.264	0.0164086
943.342	0.0163496
943.420	0.0162553
943.498	0.0164104
943.576	0.0164234
943.655	0.0163695
943.733	0.0163731
943.811	0.0162986
943.889	0.0162105
943.967	0.0163095
944.045	0.0164187
944.123	0.0163136
944.201	0.0163286
944.280	0.0163831
944.358	0.0162212
944.436	0.0162748
944.514	0.0162977
944.592	0.0163753
944.670	0.0163377
944.748	0.0162540
944.826	0.0163810
944.905	0.0163071
944.983	0.0161569
945.061	0.0162008
945.139	0.0163135
945.217	0.0161718
945.295	0.0162101
945.373	0.0161435
945.451	0.0161859
945.530	0.0161740
945.608	0.0162889
945.686	0.0161135
945.764	0.0160606
945.842	0.0160264
945.920	0.0160630
945.998	0.0160831
946.076	0.0161712
946.155	0.0160881
946.233	0.0159749
946.311	0.0160598
946.389	0.0161694
946.467	0.0161385
946.545	0.0161349
946.623	0.0160941
946.701	0.0161062
946.780	0.0161185
946.858	0.0160828
946.936	0.0160371
947.014	0.0160687
947.092	0.0160815
947.170	0.0159746
947.248	0.0159734
947.326	0.0160637
947.405	0.0160593
947.483	0.0161175
947.561	0.0159550
947.639	0.0160445
947.717	0.0161321
947.795	0.0160378
947.873	0.0161399
947.951	0.0160880
948.030	0.0161578
948.108	0.0161912
948.186	0.0163293
948.264	0.0162385
948.342	0.0163101
948.420	0.0165028
948.498	0.0164395
948.576	0.0165462
948.655	0.0165959
948.733	0.0166795
948.811	0.0166611
948.889	0.0166358
948.967	0.0167004
949.045	0.0168693
949.123	0.0167549
949.201	0.0168247
949.280	0.0167764
949.358	0.0165862
949.436	0.0166531
949.514	0.0166528
949.592	0.0165607
949.670	0.0166154
949.748	0.0164529
949.826	0.0163918
949.905	0.0163948
949.983	0.0164684
950.061	0.0162994
950.139	0.0162556
950.217	0.0161946
950.295	0.0161409
950.373	0.0161577
950.451	0.0161343
950.530	0.0161196
950.608	0.0161371
950.686	0.0160846
950.764	0.0161196
950.842	0.0160567
950.920	0.0160405
950.998	0.0161680
951.076	0.0161973
951.155	0.0161063
951.233	0.0160917
951.311	0.0162247
951.389	0.0162749
951.467	0.0162666
951.545	0.0163125
951.623	0.0162103
951.701	0.0162110
951.780	0.0162662
951.858	0.0161726
951.936	0.0160793
952.014	0.0161865
952.092	0.0160880
952.170	0.0161095
952.248	0.0160186
952.326	0.0160027
952.405	0.0160114
952.483	0.0161081
952.561	0.0160691
952.639	0.0159075
952.717	0.0160397
952.795	0.0161150
952.873	0.0161179
952.951	0.0160373
953.030	0.0159441
953.108	0.0161402
953.186	0.0162776
953.264	0.0163757
953.342	0.0163001
953.420	0.0164071
953.498	0.0165395
953.576	0.0164082
953.655	0.0166006
953.733	0.0166014
953.811	0.0166151
953.889	0.0168023
953.967	0.0167787
954.045	0.0167216
954.123	0.0165680
954.201	0.0167564
954.280	0.0166335
954.358	0.0165998
954.436	0.0165920
954.514	0.0166513
954.592	0.0165957
954.670	0.0165228
954.748	0.0164544
954.826	0.0163815
954.905	0.0164023
954.983	0.0162688
955.061	0.0163037
955.139	0.0162106
955.217	0.0161929
955.295	0.0161054
955.373	0.0160851
955.451	0.0160982
955.530	0.0161977
955.608	0.0161372
955.686	0.0160978
955.764	0.0161143
955.842	0.0161823
955.920	0.0164388
955.998	0.0163168
956.076	0.0163329
956.155	0.0161860
956.233	0.0160963
956.311	0.0164001
956.389	0.0163306
956.467	0.0163019
956.545	0.0163186
956.623	0.0163350
956.701	0.0164461
956.780	0.0163868
956.858	0.0162739
956.936	0.0163224
957.014	0.0163383
957.092	0.0162666
957.170	0.0162806
957.248	0.0162719
957.326	0.0163513
957.405	0.0161679
957.483	0.0162109
957.561	0.0161591
957.639	0.0163651
957.717	0.0162369
957.795	0.0161983
957.873	0.0162125
957.951	0.0162663
958.030	0.0163203
958.108	0.0162218
958.186	0.0163643
958.264	0.0162503
958.342	0.0162949
958.420	0.0164169
958.498	0.0163624
958.576	0.0163573
958.655	0.0164121
958.733	0.0164442
958.811	0.0163928
958.889	0.0165070
958.967	0.0164230
959.045	0.0165893
959.123	0.0165897
959.201	0.0164394
959.280	0.0165131
959.358	0.0167185
959.436	0.0164601
959.514	0.0165551
959.592	0.0166313
959.670	0.0165122
959.748	0.0166204
959.826	0.0164673
959.905	0.0166154
