05/17/2022	16:48:28	Ver.	4.1	UNKNOWN
Optical Delay	639.982744	Delta X		0.078125	Sweeps	1	Scan Rate	0/0
Coordinates	Axis 1	NaN	Axis 2	NaN	Axis 3	NaN	Axis 4	NaN	Axis 5	NaN	Axis 6	0.000000
TX Power	0.000000	RX Power	0.000000

639.983	0.0166040
640.061	0.0166299
640.139	0.0166233
640.217	0.0167232
640.295	0.0165691
640.373	0.0164706
640.451	0.0165962
640.530	0.0165702
640.608	0.0165990
640.686	0.0165778
640.764	0.0165472
640.842	0.0166201
640.920	0.0165224
640.998	0.0165680
641.076	0.0166044
641.155	0.0166518
641.233	0.0165565
641.311	0.0165387
641.389	0.0167043
641.467	0.0165827
641.545	0.0166708
641.623	0.0166597
641.701	0.0166177
641.780	0.0166131
641.858	0.0167043
641.936	0.0165679
642.014	0.0167893
642.092	0.0166262
642.170	0.0166203
642.248	0.0165531
642.326	0.0166206
642.405	0.0166630
642.483	0.0165572
642.561	0.0165903
642.639	0.0167568
642.717	0.0164777
642.795	0.0165485
642.873	0.0166680
642.951	0.0165163
643.030	0.0164664
643.108	0.0166418
643.186	0.0166503
643.264	0.0166507
643.342	0.0166175
643.420	0.0166525
643.498	0.0166572
643.576	0.0166660
643.655	0.0165091
643.733	0.0166351
643.811	0.0166366
643.889	0.0165002
643.967	0.0164406
644.045	0.0166323
644.123	0.0166685
644.201	0.0165919
644.280	0.0166939
644.358	0.0166458
644.436	0.0166631
644.514	0.0167266
644.592	0.0165956
644.670	0.0166680
644.748	0.0166015
644.826	0.0167094
644.905	0.0165788
644.983	0.0165652
645.061	0.0166579
645.139	0.0167271
645.217	0.0164965
645.295	0.0166654
645.373	0.0166961
645.451	0.0165569
645.530	0.0165888
645.608	0.0166935
645.686	0.0166698
645.764	0.0165939
645.842	0.0166222
645.920	0.0165075
645.998	0.0167448
646.076	0.0165731
646.155	0.0165918
646.233	0.0166667
646.311	0.0166305
646.389	0.0166480
646.467	0.0166731
646.545	0.0164854
646.623	0.0166002
646.701	0.0166267
646.780	0.0167487
646.858	0.0167052
646.936	0.0164982
647.014	0.0165625
647.092	0.0166780
647.170	0.0165717
647.248	0.0166019
647.326	0.0165717
647.405	0.0164910
647.483	0.0165989
647.561	0.0165543
647.639	0.0166142
647.717	0.0166533
647.795	0.0165997
647.873	0.0165653
647.951	0.0166265
648.030	0.0166195
648.108	0.0167355
648.186	0.0166190
648.264	0.0166879
648.342	0.0165837
648.420	0.0165331
648.498	0.0166754
648.576	0.0167961
648.655	0.0168085
648.733	0.0167056
648.811	0.0166533
648.889	0.0166146
648.967	0.0166064
649.045	0.0165829
649.123	0.0166722
649.201	0.0165691
649.280	0.0166154
649.358	0.0166689
649.436	0.0165631
649.514	0.0165246
649.592	0.0168185
649.670	0.0166467
649.748	0.0167053
649.826	0.0165990
649.905	0.0166920
649.983	0.0165935
650.061	0.0165261
650.139	0.0166039
650.217	0.0167159
650.295	0.0166198
650.373	0.0166154
650.451	0.0167435
650.530	0.0167062
650.608	0.0167371
650.686	0.0166550
650.764	0.0166549
650.842	0.0168195
650.920	0.0165795
650.998	0.0166824
651.076	0.0166894
651.155	0.0166805
651.233	0.0167039
651.311	0.0166769
651.389	0.0166991
651.467	0.0167293
651.545	0.0166679
651.623	0.0166450
651.701	0.0166248
651.780	0.0166437
651.858	0.0167449
651.936	0.0167517
652.014	0.0166514
652.092	0.0166111
652.170	0.0166910
652.248	0.0166698
652.326	0.0165995
652.405	0.0165888
652.483	0.0166480
652.561	0.0167712
652.639	0.0166669
652.717	0.0166337
652.795	0.0167076
652.873	0.0167061
652.951	0.0166174
653.030	0.0166544
653.108	0.0167333
653.186	0.0165955
653.264	0.0166250
653.342	0.0167875
653.420	0.0166713
653.498	0.0165087
653.576	0.0166164
653.655	0.0165943
653.733	0.0167691
653.811	0.0167154
653.889	0.0165351
653.967	0.0166461
654.045	0.0166949
654.123	0.0166077
654.201	0.0166924
654.280	0.0167058
654.358	0.0167159
654.436	0.0166193
654.514	0.0167485
654.592	0.0166208
654.670	0.0167300
654.748	0.0166579
654.826	0.0166242
654.905	0.0167542
654.983	0.0167104
655.061	0.0166009
655.139	0.0165655
655.217	0.0167639
655.295	0.0166828
655.373	0.0166308
655.451	0.0167965
655.530	0.0167095
655.608	0.0166109
655.686	0.0166177
655.764	0.0165118
655.842	0.0165556
655.920	0.0165452
655.998	0.0166553
656.076	0.0167072
656.155	0.0165827
656.233	0.0166167
656.311	0.0167171
656.389	0.0167127
656.467	0.0166399
656.545	0.0166726
656.623	0.0166058
656.701	0.0166265
656.780	0.0166599
656.858	0.0167081
656.936	0.0166348
657.014	0.0166032
657.092	0.0165050
657.170	0.0164939
657.248	0.0166350
657.326	0.0166244
657.405	0.0166403
657.483	0.0166015
657.561	0.0165682
657.639	0.0167191
657.717	0.0165394
657.795	0.0166354
657.873	0.0165990
657.951	0.0165313
658.030	0.0165659
658.108	0.0165898
658.186	0.0165041
658.264	0.0164513
658.342	0.0166334
658.420	0.0164978
658.498	0.0165034
658.576	0.0165739
658.655	0.0165865
658.733	0.0165473
658.811	0.0167152
658.889	0.0165854
658.967	0.0164206
659.045	0.0165867
659.123	0.0165193
659.201	0.0166196
659.280	0.0166149
659.358	0.0165855
659.436	0.0166158
659.514	0.0165598
659.592	0.0164986
659.670	0.0165997
659.748	0.0166257
659.826	0.0165894
659.905	0.0165737
659.983	0.0164411
660.061	0.0166133
660.139	0.0166621
660.217	0.0165392
660.295	0.0166095
660.373	0.0166290
660.451	0.0164437
660.530	0.0164540
660.608	0.0165888
660.686	0.0164731
660.764	0.0164881
660.842	0.0164808
660.920	0.0165405
660.998	0.0165266
661.076	0.0165563
661.155	0.0165329
661.233	0.0164930
661.311	0.0165281
661.389	0.0166972
661.467	0.0165171
661.545	0.0164781
661.623	0.0163398
661.701	0.0165856
661.780	0.0166841
661.858	0.0166186
661.936	0.0165439
662.014	0.0165999
662.092	0.0165734
662.170	0.0165665
662.248	0.0165007
662.326	0.0165041
662.405	0.0165302
662.483	0.0165216
662.561	0.0166373
662.639	0.0166359
662.717	0.0164011
662.795	0.0165742
662.873	0.0166266
662.951	0.0165624
663.030	0.0165580
663.108	0.0165749
663.186	0.0164640
663.264	0.0165159
663.342	0.0166562
663.420	0.0167175
663.498	0.0165950
663.576	0.0165908
663.655	0.0166272
663.733	0.0167670
663.811	0.0166161
663.889	0.0165063
663.967	0.0165417
664.045	0.0166972
664.123	0.0165711
664.201	0.0164484
664.280	0.0165975
664.358	0.0166692
664.436	0.0166853
664.514	0.0165965
664.592	0.0165687
664.670	0.0165948
664.748	0.0164953
664.826	0.0166475
664.905	0.0165650
664.983	0.0165430
665.061	0.0166441
665.139	0.0166812
665.217	0.0166622
665.295	0.0165701
665.373	0.0167934
665.451	0.0167110
665.530	0.0166733
665.608	0.0167545
665.686	0.0167732
665.764	0.0166316
665.842	0.0167638
665.920	0.0167293
665.998	0.0166207
666.076	0.0165231
666.155	0.0164478
666.233	0.0164507
666.311	0.0165220
666.389	0.0164903
666.467	0.0166148
666.545	0.0165727
666.623	0.0164050
666.701	0.0163623
666.780	0.0166126
666.858	0.0164641
666.936	0.0166380
667.014	0.0166754
667.092	0.0166614
667.170	0.0164683
667.248	0.0165958
667.326	0.0166669
667.405	0.0167849
667.483	0.0166441
667.561	0.0167424
667.639	0.0168994
667.717	0.0169306
667.795	0.0168447
667.873	0.0169590
667.951	0.0168219
668.030	0.0168982
668.108	0.0167577
668.186	0.0168214
668.264	0.0167165
668.342	0.0166467
668.420	0.0168088
668.498	0.0165475
668.576	0.0165043
668.655	0.0164489
668.733	0.0163577
668.811	0.0163190
668.889	0.0162154
668.967	0.0163427
669.045	0.0162563
669.123	0.0162247
669.201	0.0162915
669.280	0.0164295
669.358	0.0164632
669.436	0.0165839
669.514	0.0164278
669.592	0.0166123
669.670	0.0167179
669.748	0.0169566
669.826	0.0171363
669.905	0.0169881
669.983	0.0170793
670.061	0.0170950
670.139	0.0173421
670.217	0.0171880
670.295	0.0172605
670.373	0.0172625
670.451	0.0172117
670.530	0.0170098
670.608	0.0168824
670.686	0.0168857
670.764	0.0167924
670.842	0.0165936
670.920	0.0165874
670.998	0.0164323
671.076	0.0162691
671.155	0.0161849
671.233	0.0161819
671.311	0.0161195
671.389	0.0160983
671.467	0.0161639
671.545	0.0162579
671.623	0.0162049
671.701	0.0164122
671.780	0.0163853
671.858	0.0165646
671.936	0.0167758
672.014	0.0167514
672.092	0.0167630
672.170	0.0170905
672.248	0.0171977
672.326	0.0173208
672.405	0.0172955
672.483	0.0173499
672.561	0.0173572
672.639	0.0174105
672.717	0.0172707
672.795	0.0172651
672.873	0.0172842
672.951	0.0171560
673.030	0.0168037
673.108	0.0168488
673.186	0.0168430
673.264	0.0167345
673.342	0.0165771
673.420	0.0164249
673.498	0.0162337
673.576	0.0162234
673.655	0.0161447
673.733	0.0161539
673.811	0.0161745
673.889	0.0161494
673.967	0.0161377
674.045	0.0164230
674.123	0.0164600
674.201	0.0163727
674.280	0.0165125
674.358	0.0166537
674.436	0.0168299
674.514	0.0169640
674.592	0.0170361
674.670	0.0171577
674.748	0.0171564
674.826	0.0171583
674.905	0.0170950
674.983	0.0172540
675.061	0.0172701
675.139	0.0171481
675.217	0.0170480
675.295	0.0170509
675.373	0.0171036
675.451	0.0170111
675.530	0.0168146
675.608	0.0168584
675.686	0.0168069
675.764	0.0167802
675.842	0.0167145
675.920	0.0165459
675.998	0.0163720
676.076	0.0164367
676.155	0.0163900
676.233	0.0163126
676.311	0.0162986
676.389	0.0162257
676.467	0.0161622
676.545	0.0162217
676.623	0.0161526
676.701	0.0162243
676.780	0.0164262
676.858	0.0165873
676.936	0.0166267
677.014	0.0167982
677.092	0.0169174
677.170	0.0169093
677.248	0.0170623
677.326	0.0169864
677.405	0.0171370
677.483	0.0174026
677.561	0.0172748
677.639	0.0171042
677.717	0.0171246
677.795	0.0172323
677.873	0.0170787
677.951	0.0170753
678.030	0.0170082
678.108	0.0170306
678.186	0.0168895
678.264	0.0168072
678.342	0.0166309
678.420	0.0164317
678.498	0.0164381
678.576	0.0162649
678.655	0.0161188
678.733	0.0159219
678.811	0.0160131
678.889	0.0161274
678.967	0.0159527
679.045	0.0159503
679.123	0.0161156
679.201	0.0160366
679.280	0.0161311
679.358	0.0162357
679.436	0.0165065
679.514	0.0165360
679.592	0.0166263
679.670	0.0168124
679.748	0.0167225
679.826	0.0170152
679.905	0.0170145
679.983	0.0171720
680.061	0.0171904
680.139	0.0172318
680.217	0.0172585
680.295	0.0173640
680.373	0.0170852
680.451	0.0170661
680.530	0.0172253
680.608	0.0168222
680.686	0.0168080
680.764	0.0167137
680.842	0.0167381
680.920	0.0164527
680.998	0.0164122
681.076	0.0165411
681.155	0.0163704
681.233	0.0162077
681.311	0.0162900
681.389	0.0161439
681.467	0.0162192
681.545	0.0161774
681.623	0.0160934
681.701	0.0161953
681.780	0.0162667
681.858	0.0162112
681.936	0.0161740
682.014	0.0163181
682.092	0.0162017
682.170	0.0162846
682.248	0.0163211
682.326	0.0164713
682.405	0.0162164
682.483	0.0163082
682.561	0.0163905
682.639	0.0165075
682.717	0.0164374
682.795	0.0164397
682.873	0.0164257
682.951	0.0164046
683.030	0.0164125
683.108	0.0163355
683.186	0.0163651
683.264	0.0163985
683.342	0.0164354
683.420	0.0165253
683.498	0.0163934
683.576	0.0164783
683.655	0.0163713
683.733	0.0165501
683.811	0.0165234
683.889	0.0164780
683.967	0.0163804
684.045	0.0164497
684.123	0.0164578
684.201	0.0166613
684.280	0.0166148
684.358	0.0166019
684.436	0.0166086
684.514	0.0166227
684.592	0.0167078
684.670	0.0167120
684.748	0.0167621
684.826	0.0168088
684.905	0.0169743
684.983	0.0168516
685.061	0.0167966
685.139	0.0168776
685.217	0.0168621
685.295	0.0169040
685.373	0.0168925
685.451	0.0168185
685.530	0.0167754
685.608	0.0168735
685.686	0.0168394
685.764	0.0168724
685.842	0.0169199
685.920	0.0168628
685.998	0.0168383
686.076	0.0168185
686.155	0.0170553
686.233	0.0170213
686.311	0.0169608
686.389	0.0169032
686.467	0.0170211
686.545	0.0167993
686.623	0.0168584
686.701	0.0166460
686.780	0.0166684
686.858	0.0167046
686.936	0.0165967
687.014	0.0164789
687.092	0.0165086
687.170	0.0164021
687.248	0.0163980
687.326	0.0163190
687.405	0.0163006
687.483	0.0162273
687.561	0.0161050
687.639	0.0160515
687.717	0.0160027
687.795	0.0158868
687.873	0.0158256
687.951	0.0158246
688.030	0.0159174
688.108	0.0158176
688.186	0.0159753
688.264	0.0160318
688.342	0.0161578
688.420	0.0162304
688.498	0.0164274
688.576	0.0165489
688.655	0.0166060
688.733	0.0166707
688.811	0.0169853
688.889	0.0171059
688.967	0.0170029
689.045	0.0172187
689.123	0.0172871
689.201	0.0173994
689.280	0.0172108
689.358	0.0174480
689.436	0.0173624
689.514	0.0174390
689.592	0.0172659
689.670	0.0172412
689.748	0.0171530
689.826	0.0169567
689.905	0.0168488
689.983	0.0169461
690.061	0.0167555
690.139	0.0166784
690.217	0.0166437
690.295	0.0164329
690.373	0.0163748
690.451	0.0163751
690.530	0.0164582
690.608	0.0164111
690.686	0.0162806
690.764	0.0163060
690.842	0.0164024
690.920	0.0162996
690.998	0.0162838
691.076	0.0161185
691.155	0.0161949
691.233	0.0162440
691.311	0.0161037
691.389	0.0159662
691.467	0.0159980
691.545	0.0160207
691.623	0.0161024
691.701	0.0160036
691.780	0.0161398
691.858	0.0161757
691.936	0.0162029
692.014	0.0163545
692.092	0.0165934
692.170	0.0166489
692.248	0.0166685
692.326	0.0167949
692.405	0.0169645
692.483	0.0169583
692.561	0.0169273
692.639	0.0170622
692.717	0.0170853
692.795	0.0170744
692.873	0.0170968
692.951	0.0169130
693.030	0.0169730
693.108	0.0167266
693.186	0.0168931
693.264	0.0169076
693.342	0.0168253
693.420	0.0166799
693.498	0.0165565
693.576	0.0165353
693.655	0.0165837
693.733	0.0164928
693.811	0.0163044
693.889	0.0160992
693.967	0.0162338
694.045	0.0159560
694.123	0.0158443
694.201	0.0157378
694.280	0.0156252
694.358	0.0157761
694.436	0.0158180
694.514	0.0159306
694.592	0.0163112
694.670	0.0166839
694.748	0.0168571
694.826	0.0171752
694.905	0.0176659
694.983	0.0179713
695.061	0.0184019
695.139	0.0187354
695.217	0.0188033
695.295	0.0188608
695.373	0.0191338
695.451	0.0192677
695.530	0.0193107
695.608	0.0190792
695.686	0.0189936
695.764	0.0187659
695.842	0.0184944
695.920	0.0184190
695.998	0.0179119
696.076	0.0176955
696.155	0.0172633
696.233	0.0169253
696.311	0.0169161
696.389	0.0164945
696.467	0.0163479
696.545	0.0161266
696.623	0.0158241
696.701	0.0158364
696.780	0.0158327
696.858	0.0156815
696.936	0.0156358
697.014	0.0157318
697.092	0.0156609
697.170	0.0154217
697.248	0.0154311
697.326	0.0152576
697.405	0.0152239
697.483	0.0149635
697.561	0.0147832
697.639	0.0146867
697.717	0.0144698
697.795	0.0144431
697.873	0.0144359
697.951	0.0142470
698.030	0.0143065
698.108	0.0143356
698.186	0.0143684
698.264	0.0144503
698.342	0.0146138
698.420	0.0148175
698.498	0.0148750
698.576	0.0150882
698.655	0.0154465
698.733	0.0156984
698.811	0.0158610
698.889	0.0162024
698.967	0.0163785
699.045	0.0165904
699.123	0.0168764
699.201	0.0170240
699.280	0.0171826
699.358	0.0171109
699.436	0.0172636
699.514	0.0176228
699.592	0.0177359
699.670	0.0176894
699.748	0.0178284
699.826	0.0180701
699.905	0.0182152
699.983	0.0182646
700.061	0.0183831
700.139	0.0185283
700.217	0.0185709
700.295	0.0187803
700.373	0.0188179
700.451	0.0188701
700.530	0.0187456
700.608	0.0188558
700.686	0.0188536
700.764	0.0188400
700.842	0.0188106
700.920	0.0190958
700.998	0.0190852
701.076	0.0191255
701.155	0.0193090
701.233	0.0194865
701.311	0.0194592
701.389	0.0195180
701.467	0.0195493
701.545	0.0192264
701.623	0.0190852
701.701	0.0189194
701.780	0.0184359
701.858	0.0179913
701.936	0.0173354
702.014	0.0166986
702.092	0.0160196
702.170	0.0156361
702.248	0.0149555
702.326	0.0142673
702.405	0.0137093
702.483	0.0131176
702.561	0.0126408
702.639	0.0121098
702.717	0.0119851
702.795	0.0114891
702.873	0.0113698
702.951	0.0112853
703.030	0.0113586
703.108	0.0114375
703.186	0.0116637
703.264	0.0120191
703.342	0.0125294
703.420	0.0128416
703.498	0.0134375
703.576	0.0140106
703.655	0.0143857
703.733	0.0151042
703.811	0.0158221
703.889	0.0161246
703.967	0.0168029
704.045	0.0172859
704.123	0.0176992
704.201	0.0181882
704.280	0.0184998
704.358	0.0189558
704.436	0.0192184
704.514	0.0194855
704.592	0.0196985
704.670	0.0198742
704.748	0.0199738
704.826	0.0198602
704.905	0.0197370
704.983	0.0195570
705.061	0.0194151
705.139	0.0190941
705.217	0.0186145
705.295	0.0183029
705.373	0.0180242
705.451	0.0177357
705.530	0.0172877
705.608	0.0173080
705.686	0.0169250
705.764	0.0168327
705.842	0.0167626
705.920	0.0168175
705.998	0.0169509
706.076	0.0167937
706.155	0.0167902
706.233	0.0170123
706.311	0.0171829
706.389	0.0171866
706.467	0.0172984
706.545	0.0174657
706.623	0.0174246
706.701	0.0175393
706.780	0.0176511
706.858	0.0175952
706.936	0.0176446
707.014	0.0176178
707.092	0.0175010
707.170	0.0177845
707.248	0.0177056
707.326	0.0177200
707.405	0.0177595
707.483	0.0178557
707.561	0.0177943
707.639	0.0178406
707.717	0.0177865
707.795	0.0175769
707.873	0.0174754
707.951	0.0170610
708.030	0.0167336
708.108	0.0162319
708.186	0.0157069
708.264	0.0152810
708.342	0.0150117
708.420	0.0142468
708.498	0.0139087
708.576	0.0136320
708.655	0.0131491
708.733	0.0129346
708.811	0.0126467
708.889	0.0125052
708.967	0.0125519
709.045	0.0124380
709.123	0.0124650
709.201	0.0124788
709.280	0.0128390
709.358	0.0129404
709.436	0.0131716
709.514	0.0134783
709.592	0.0137888
709.670	0.0140431
709.748	0.0144258
709.826	0.0149387
709.905	0.0152212
709.983	0.0155968
710.061	0.0159431
710.139	0.0161219
710.217	0.0168257
710.295	0.0171741
710.373	0.0174430
710.451	0.0177319
710.530	0.0181311
710.608	0.0183273
710.686	0.0185283
710.764	0.0187444
710.842	0.0188989
710.920	0.0191896
710.998	0.0192116
711.076	0.0191846
711.155	0.0191245
711.233	0.0190459
711.311	0.0189125
711.389	0.0188992
711.467	0.0188058
711.545	0.0186626
711.623	0.0185968
711.701	0.0185905
711.780	0.0185739
711.858	0.0184417
711.936	0.0184841
712.014	0.0185391
712.092	0.0186839
712.170	0.0188300
712.248	0.0188131
712.326	0.0189254
712.405	0.0191853
712.483	0.0192474
712.561	0.0191525
712.639	0.0192825
712.717	0.0192887
712.795	0.0190280
712.873	0.0188235
712.951	0.0186524
713.030	0.0182044
713.108	0.0178783
713.186	0.0173785
713.264	0.0167901
713.342	0.0164695
713.420	0.0159641
713.498	0.0154990
713.576	0.0152216
713.655	0.0148875
713.733	0.0146840
713.811	0.0145924
713.889	0.0144338
713.967	0.0142429
714.045	0.0142447
714.123	0.0141861
714.201	0.0140717
714.280	0.0140699
714.358	0.0141454
714.436	0.0141960
714.514	0.0141093
714.592	0.0140504
714.670	0.0140245
714.748	0.0140736
714.826	0.0140562
714.905	0.0138577
714.983	0.0137652
715.061	0.0136732
715.139	0.0136777
715.217	0.0136047
715.295	0.0135051
715.373	0.0134275
715.451	0.0132982
715.530	0.0135175
715.608	0.0135206
715.686	0.0136382
715.764	0.0138573
715.842	0.0142422
715.920	0.0146022
715.998	0.0150263
716.076	0.0154318
716.155	0.0157512
716.233	0.0161019
716.311	0.0166909
716.389	0.0169456
716.467	0.0174330
716.545	0.0178181
716.623	0.0182338
716.701	0.0185194
716.780	0.0189453
716.858	0.0192905
716.936	0.0195529
717.014	0.0196523
717.092	0.0199764
717.170	0.0201782
717.248	0.0202921
717.326	0.0204994
717.405	0.0205563
717.483	0.0204452
717.561	0.0205222
717.639	0.0201382
717.717	0.0199593
717.795	0.0197802
717.873	0.0194892
717.951	0.0191644
718.030	0.0189933
718.108	0.0186583
718.186	0.0184091
718.264	0.0179762
718.342	0.0177708
718.420	0.0175805
718.498	0.0174551
718.576	0.0174043
718.655	0.0174317
718.733	0.0174509
718.811	0.0173298
718.889	0.0174142
718.967	0.0174345
719.045	0.0174371
719.123	0.0174626
719.201	0.0174073
719.280	0.0173112
719.358	0.0172153
719.436	0.0169669
719.514	0.0166771
719.592	0.0164043
719.670	0.0161341
719.748	0.0156805
719.826	0.0153153
719.905	0.0149928
719.983	0.0146458
720.061	0.0143041
720.139	0.0142258
720.217	0.0140769
720.295	0.0139046
720.373	0.0138638
720.451	0.0139346
720.530	0.0139106
720.608	0.0139964
720.686	0.0143259
720.764	0.0145288
720.842	0.0145619
720.920	0.0146707
720.998	0.0149158
721.076	0.0151323
721.155	0.0153100
721.233	0.0150849
721.311	0.0151597
721.389	0.0152174
721.467	0.0152542
721.545	0.0150958
721.623	0.0151406
721.701	0.0149920
721.780	0.0149003
721.858	0.0148755
721.936	0.0149344
722.014	0.0149081
722.092	0.0147350
722.170	0.0149625
722.248	0.0150191
722.326	0.0149481
722.405	0.0150831
722.483	0.0154832
722.561	0.0157377
722.639	0.0159888
722.717	0.0163556
722.795	0.0165218
722.873	0.0169435
722.951	0.0174079
723.030	0.0177362
723.108	0.0183904
723.186	0.0186714
723.264	0.0191350
723.342	0.0197989
723.420	0.0200352
723.498	0.0203518
723.576	0.0206586
723.655	0.0207883
723.733	0.0210224
723.811	0.0210155
723.889	0.0209341
723.967	0.0206663
724.045	0.0205798
724.123	0.0201841
724.201	0.0195486
724.280	0.0192783
724.358	0.0188695
724.436	0.0183862
724.514	0.0177544
724.592	0.0172982
724.670	0.0167553
724.748	0.0165908
724.826	0.0163344
724.905	0.0160987
724.983	0.0159486
725.061	0.0159616
725.139	0.0160532
725.217	0.0161766
725.295	0.0162645
725.373	0.0165592
725.451	0.0167035
725.530	0.0168829
725.608	0.0171025
725.686	0.0170946
725.764	0.0171635
725.842	0.0171346
725.920	0.0172428
725.998	0.0168721
726.076	0.0167446
726.155	0.0163889
726.233	0.0159135
726.311	0.0155135
726.389	0.0150636
726.467	0.0145316
726.545	0.0141376
726.623	0.0137227
726.701	0.0134045
726.780	0.0130925
726.858	0.0131862
726.936	0.0131528
727.014	0.0132424
727.092	0.0134525
727.170	0.0135354
727.248	0.0139553
727.326	0.0143336
727.405	0.0149557
727.483	0.0152114
727.561	0.0157020
727.639	0.0161377
727.717	0.0164268
727.795	0.0167896
727.873	0.0171675
727.951	0.0171882
728.030	0.0170944
728.108	0.0172082
728.186	0.0171918
728.264	0.0171310
728.342	0.0171041
728.420	0.0169134
728.498	0.0166989
728.576	0.0165063
728.655	0.0164227
728.733	0.0161249
728.811	0.0159924
728.889	0.0159492
728.967	0.0159551
729.045	0.0157742
729.123	0.0158340
729.201	0.0159198
729.280	0.0160615
729.358	0.0161128
729.436	0.0163364
729.514	0.0164780
729.592	0.0168124
729.670	0.0169435
729.748	0.0172710
729.826	0.0176705
729.905	0.0178046
729.983	0.0180677
730.061	0.0183891
730.139	0.0185200
730.217	0.0186158
730.295	0.0188224
730.373	0.0189050
730.451	0.0190240
730.530	0.0189526
730.608	0.0188351
730.686	0.0186963
730.764	0.0183107
730.842	0.0182238
730.920	0.0179815
730.998	0.0177921
731.076	0.0175098
731.155	0.0170852
731.233	0.0167325
731.311	0.0165903
731.389	0.0166737
731.467	0.0162225
731.545	0.0162877
731.623	0.0162093
731.701	0.0160924
731.780	0.0162274
731.858	0.0163903
731.936	0.0164045
732.014	0.0166576
732.092	0.0168193
732.170	0.0167038
732.248	0.0169138
732.326	0.0170779
732.405	0.0170182
732.483	0.0170220
732.561	0.0171009
732.639	0.0168246
732.717	0.0165681
732.795	0.0163840
732.873	0.0161575
732.951	0.0158910
733.030	0.0154028
733.108	0.0150548
733.186	0.0146964
733.264	0.0145623
733.342	0.0143675
733.420	0.0142057
733.498	0.0142501
733.576	0.0143208
733.655	0.0144389
733.733	0.0146116
733.811	0.0148093
733.889	0.0148801
733.967	0.0153947
734.045	0.0156459
734.123	0.0158359
734.201	0.0161701
734.280	0.0163465
734.358	0.0165942
734.436	0.0166953
734.514	0.0169593
734.592	0.0169395
734.670	0.0170466
734.748	0.0170988
734.826	0.0170952
734.905	0.0170914
734.983	0.0170388
735.061	0.0170478
735.139	0.0169701
735.217	0.0169044
735.295	0.0169109
735.373	0.0168767
735.451	0.0169460
735.530	0.0167197
735.608	0.0167081
735.686	0.0166537
735.764	0.0166462
735.842	0.0167683
735.920	0.0165690
735.998	0.0165745
736.076	0.0166417
736.155	0.0167263
736.233	0.0166665
736.311	0.0167742
736.389	0.0168094
736.467	0.0168501
736.545	0.0170087
736.623	0.0171825
736.701	0.0171548
736.780	0.0172140
736.858	0.0172712
736.936	0.0175378
737.014	0.0175410
737.092	0.0176208
737.170	0.0174056
737.248	0.0173249
737.326	0.0173639
737.405	0.0174019
737.483	0.0173632
737.561	0.0172739
737.639	0.0169891
737.717	0.0167427
737.795	0.0167027
737.873	0.0167469
737.951	0.0166857
738.030	0.0164946
738.108	0.0164182
738.186	0.0164438
738.264	0.0164480
738.342	0.0164726
738.420	0.0166725
738.498	0.0168307
738.576	0.0167014
738.655	0.0170630
738.733	0.0172704
738.811	0.0173708
738.889	0.0175611
738.967	0.0177020
739.045	0.0177574
739.123	0.0177426
739.201	0.0176517
739.280	0.0176144
739.358	0.0174487
739.436	0.0173528
739.514	0.0171196
739.592	0.0168970
739.670	0.0165838
739.748	0.0164079
739.826	0.0160942
739.905	0.0157570
739.983	0.0154874
740.061	0.0154299
740.139	0.0152218
740.217	0.0152517
740.295	0.0151214
740.373	0.0150621
740.451	0.0150475
740.530	0.0151456
740.608	0.0153394
740.686	0.0154512
740.764	0.0155599
740.842	0.0158475
740.920	0.0162324
740.998	0.0163239
741.076	0.0165320
741.155	0.0166869
741.233	0.0170020
741.311	0.0170448
741.389	0.0168588
741.467	0.0170952
741.545	0.0170052
741.623	0.0171501
741.701	0.0169363
741.780	0.0169575
741.858	0.0167787
741.936	0.0166288
742.014	0.0166753
742.092	0.0165601
742.170	0.0164002
742.248	0.0162767
742.326	0.0163505
742.405	0.0163023
742.483	0.0160863
742.561	0.0162395
742.639	0.0161896
742.717	0.0161528
742.795	0.0162366
742.873	0.0163622
742.951	0.0164910
743.030	0.0167217
743.108	0.0167670
743.186	0.0169683
743.264	0.0171212
743.342	0.0173379
743.420	0.0175152
743.498	0.0175702
743.576	0.0175782
743.655	0.0177238
743.733	0.0176889
743.811	0.0176012
743.889	0.0176684
743.967	0.0174901
744.045	0.0173737
744.123	0.0172443
744.201	0.0171161
744.280	0.0170150
744.358	0.0167651
744.436	0.0166550
744.514	0.0165289
744.592	0.0163341
744.670	0.0162199
744.748	0.0162199
744.826	0.0159870
744.905	0.0160484
744.983	0.0159014
745.061	0.0159099
745.139	0.0161966
745.217	0.0163571
745.295	0.0165155
745.373	0.0165155
745.451	0.0164970
745.530	0.0167416
745.608	0.0168359
745.686	0.0169035
745.764	0.0171092
745.842	0.0171684
745.920	0.0171069
745.998	0.0173202
746.076	0.0174036
746.155	0.0173649
746.233	0.0174660
746.311	0.0171895
746.389	0.0171211
746.467	0.0170898
746.545	0.0169688
746.623	0.0167547
746.701	0.0167065
746.780	0.0165871
746.858	0.0162692
746.936	0.0161856
747.014	0.0160721
747.092	0.0159850
747.170	0.0159976
747.248	0.0158709
747.326	0.0159409
747.405	0.0161470
747.483	0.0160006
747.561	0.0162028
747.639	0.0162181
747.717	0.0163419
747.795	0.0166800
747.873	0.0167192
747.951	0.0167175
748.030	0.0169077
748.108	0.0170155
748.186	0.0170946
748.264	0.0171819
748.342	0.0172536
748.420	0.0172230
748.498	0.0172074
748.576	0.0170580
748.655	0.0171845
748.733	0.0170914
748.811	0.0170179
748.889	0.0168862
748.967	0.0168679
749.045	0.0166369
749.123	0.0166666
749.201	0.0165707
749.280	0.0163419
749.358	0.0161859
749.436	0.0162874
749.514	0.0161271
749.592	0.0160606
749.670	0.0160065
749.748	0.0161086
749.826	0.0160329
749.905	0.0160729
749.983	0.0160003
750.061	0.0161775
750.139	0.0161656
750.217	0.0161742
750.295	0.0162916
750.373	0.0163004
750.451	0.0163570
750.530	0.0164552
750.608	0.0165986
750.686	0.0166798
750.764	0.0167223
750.842	0.0167550
750.920	0.0168688
750.998	0.0168861
751.076	0.0168776
751.155	0.0169637
751.233	0.0169306
751.311	0.0168261
751.389	0.0167127
751.467	0.0168844
751.545	0.0168903
751.623	0.0166196
751.701	0.0167251
751.780	0.0166177
751.858	0.0166930
751.936	0.0166879
752.014	0.0165067
752.092	0.0166788
752.170	0.0167120
752.248	0.0164224
752.326	0.0165025
752.405	0.0168519
752.483	0.0166993
752.561	0.0168208
752.639	0.0166756
752.717	0.0167435
752.795	0.0166856
752.873	0.0168414
752.951	0.0170106
753.030	0.0168090
753.108	0.0169060
753.186	0.0168439
753.264	0.0168704
753.342	0.0168935
753.420	0.0169112
753.498	0.0167892
753.576	0.0168531
753.655	0.0168867
753.733	0.0168266
753.811	0.0167861
753.889	0.0169091
753.967	0.0167748
754.045	0.0167617
754.123	0.0168272
754.201	0.0166068
754.280	0.0166709
754.358	0.0168029
754.436	0.0166992
754.514	0.0167300
754.592	0.0167340
754.670	0.0166451
754.748	0.0165804
754.826	0.0167831
754.905	0.0166596
754.983	0.0166438
755.061	0.0166814
755.139	0.0165786
755.217	0.0166861
755.295	0.0164970
755.373	0.0166398
755.451	0.0166190
755.530	0.0165935
755.608	0.0164731
755.686	0.0167139
755.764	0.0164757
755.842	0.0165156
755.920	0.0166151
755.998	0.0166171
756.076	0.0165323
756.155	0.0164556
756.233	0.0165890
756.311	0.0165585
756.389	0.0167834
756.467	0.0166046
756.545	0.0165202
756.623	0.0165598
756.701	0.0166221
756.780	0.0165135
756.858	0.0164854
756.936	0.0163300
757.014	0.0163099
757.092	0.0163197
757.170	0.0162441
757.248	0.0161048
757.326	0.0160232
757.405	0.0161403
757.483	0.0161607
757.561	0.0161521
757.639	0.0162714
757.717	0.0162026
757.795	0.0162231
757.873	0.0162122
757.951	0.0162798
758.030	0.0164312
758.108	0.0162740
758.186	0.0164058
758.264	0.0164984
758.342	0.0164404
758.420	0.0163284
758.498	0.0164217
758.576	0.0163948
758.655	0.0165472
758.733	0.0164342
758.811	0.0165185
758.889	0.0166357
758.967	0.0166808
759.045	0.0166734
759.123	0.0168328
759.201	0.0168961
759.280	0.0169316
759.358	0.0170251
759.436	0.0170132
759.514	0.0171212
759.592	0.0171095
759.670	0.0171577
759.748	0.0170401
759.826	0.0170670
759.905	0.0170000
759.983	0.0171210
760.061	0.0169233
760.139	0.0168489
760.217	0.0167157
760.295	0.0168034
760.373	0.0167915
760.451	0.0166322
760.530	0.0166515
760.608	0.0166528
760.686	0.0166784
760.764	0.0166085
760.842	0.0166029
760.920	0.0165145
760.998	0.0165617
761.076	0.0167335
761.155	0.0168379
761.233	0.0167708
761.311	0.0167949
761.389	0.0168593
761.467	0.0168200
761.545	0.0169321
761.623	0.0167822
761.701	0.0169126
761.780	0.0169614
761.858	0.0168632
761.936	0.0168089
762.014	0.0167952
762.092	0.0168400
762.170	0.0166583
762.248	0.0166450
762.326	0.0166440
762.405	0.0166718
762.483	0.0166369
762.561	0.0165634
762.639	0.0166236
762.717	0.0165158
762.795	0.0165440
762.873	0.0164990
762.951	0.0164366
763.030	0.0164426
763.108	0.0164077
763.186	0.0163325
763.264	0.0163689
763.342	0.0163446
763.420	0.0163449
763.498	0.0163036
763.576	0.0163084
763.655	0.0163693
763.733	0.0162975
763.811	0.0164380
763.889	0.0164392
763.967	0.0164204
764.045	0.0163178
764.123	0.0163956
764.201	0.0163343
764.280	0.0162482
764.358	0.0163433
764.436	0.0162243
764.514	0.0162966
764.592	0.0163046
764.670	0.0162305
764.748	0.0163595
764.826	0.0162390
764.905	0.0163305
764.983	0.0162555
765.061	0.0163038
765.139	0.0164167
765.217	0.0163679
765.295	0.0165005
765.373	0.0163756
765.451	0.0164733
765.530	0.0166421
765.608	0.0166073
765.686	0.0165816
765.764	0.0167436
765.842	0.0168256
765.920	0.0167952
765.998	0.0168157
766.076	0.0166363
766.155	0.0168291
766.233	0.0168395
766.311	0.0167670
766.389	0.0169305
766.467	0.0169217
766.545	0.0169553
766.623	0.0168850
766.701	0.0169326
766.780	0.0168488
766.858	0.0169364
766.936	0.0169462
767.014	0.0169992
767.092	0.0169807
767.170	0.0168582
767.248	0.0168229
767.326	0.0168208
767.405	0.0167765
767.483	0.0167614
767.561	0.0166206
767.639	0.0165543
767.717	0.0165472
767.795	0.0166525
767.873	0.0165781
767.951	0.0165373
768.030	0.0165245
768.108	0.0165159
768.186	0.0164830
768.264	0.0166738
768.342	0.0165363
768.420	0.0165845
768.498	0.0167109
768.576	0.0166983
768.655	0.0167450
768.733	0.0167078
768.811	0.0167854
768.889	0.0167265
768.967	0.0167672
769.045	0.0168414
769.123	0.0168040
769.201	0.0167932
769.280	0.0169017
769.358	0.0167184
769.436	0.0168941
769.514	0.0170361
769.592	0.0170399
769.670	0.0169286
769.748	0.0169494
769.826	0.0168723
769.905	0.0169238
769.983	0.0168814
770.061	0.0169907
770.139	0.0168579
770.217	0.0168035
770.295	0.0168035
770.373	0.0167798
770.451	0.0166781
770.530	0.0164809
770.608	0.0164950
770.686	0.0166129
770.764	0.0163055
770.842	0.0162196
770.920	0.0162551
770.998	0.0163078
771.076	0.0162685
771.155	0.0161442
771.233	0.0162489
771.311	0.0162573
771.389	0.0162869
771.467	0.0161605
771.545	0.0163294
771.623	0.0164082
771.701	0.0163554
771.780	0.0164214
771.858	0.0164953
771.936	0.0165849
772.014	0.0165966
772.092	0.0164861
772.170	0.0164002
772.248	0.0166988
772.326	0.0167012
772.405	0.0165889
772.483	0.0164756
772.561	0.0165028
772.639	0.0165921
772.717	0.0166967
772.795	0.0166306
772.873	0.0166710
772.951	0.0166479
773.030	0.0165859
773.108	0.0166586
773.186	0.0166378
773.264	0.0167743
773.342	0.0168615
773.420	0.0168303
773.498	0.0168640
773.576	0.0169036
773.655	0.0168410
773.733	0.0168477
773.811	0.0169106
773.889	0.0168623
773.967	0.0167712
774.045	0.0168932
774.123	0.0169790
774.201	0.0167468
774.280	0.0167908
774.358	0.0167831
774.436	0.0166779
774.514	0.0169038
774.592	0.0167431
774.670	0.0166790
774.748	0.0166021
774.826	0.0166136
774.905	0.0166588
774.983	0.0165759
775.061	0.0167466
775.139	0.0168176
775.217	0.0167542
775.295	0.0169164
775.373	0.0168134
775.451	0.0169057
775.530	0.0167607
775.608	0.0167812
775.686	0.0168752
775.764	0.0169176
775.842	0.0167919
775.920	0.0168360
775.998	0.0169091
776.076	0.0167239
776.155	0.0167347
776.233	0.0166383
776.311	0.0167674
776.389	0.0166824
776.467	0.0165888
776.545	0.0165956
776.623	0.0166175
776.701	0.0166402
776.780	0.0165878
776.858	0.0165891
776.936	0.0166489
777.014	0.0167323
777.092	0.0168832
777.170	0.0168268
777.248	0.0167583
777.326	0.0166946
777.405	0.0166923
777.483	0.0168580
777.561	0.0167591
777.639	0.0167146
777.717	0.0167650
777.795	0.0166912
777.873	0.0167326
777.951	0.0166910
778.030	0.0164902
778.108	0.0164625
778.186	0.0164330
778.264	0.0164921
778.342	0.0164489
778.420	0.0163586
778.498	0.0164486
778.576	0.0163515
778.655	0.0163329
778.733	0.0163594
778.811	0.0163378
778.889	0.0163454
778.967	0.0162331
779.045	0.0165191
779.123	0.0164629
779.201	0.0164259
779.280	0.0165222
779.358	0.0165108
779.436	0.0165816
779.514	0.0165361
779.592	0.0165426
779.670	0.0165430
779.748	0.0167100
779.826	0.0168294
779.905	0.0166109
779.983	0.0166776
780.061	0.0166248
780.139	0.0167667
780.217	0.0168157
780.295	0.0166913
780.373	0.0166718
780.451	0.0166006
780.530	0.0166589
780.608	0.0166850
780.686	0.0165697
780.764	0.0165263
780.842	0.0166270
780.920	0.0165668
780.998	0.0165956
781.076	0.0165941
781.155	0.0166756
781.233	0.0165398
781.311	0.0164845
781.389	0.0166206
781.467	0.0164895
781.545	0.0165662
781.623	0.0166035
781.701	0.0165176
781.780	0.0162436
781.858	0.0164395
781.936	0.0163739
782.014	0.0164115
782.092	0.0162907
782.170	0.0161591
782.248	0.0162860
782.326	0.0163686
782.405	0.0163013
782.483	0.0162664
782.561	0.0162741
782.639	0.0163546
782.717	0.0162811
782.795	0.0165485
782.873	0.0164920
782.951	0.0165190
783.030	0.0165231
783.108	0.0167615
783.186	0.0169466
783.264	0.0170723
783.342	0.0169765
783.420	0.0171140
783.498	0.0171616
783.576	0.0169818
783.655	0.0170175
783.733	0.0170318
783.811	0.0170541
783.889	0.0169142
783.967	0.0168441
784.045	0.0168898
784.123	0.0167793
784.201	0.0168301
784.280	0.0168021
784.358	0.0167400
784.436	0.0166061
784.514	0.0166624
784.592	0.0166341
784.670	0.0167426
784.748	0.0165695
784.826	0.0165752
784.905	0.0164578
784.983	0.0167418
785.061	0.0166667
785.139	0.0167587
785.217	0.0168070
785.295	0.0166789
785.373	0.0167145
785.451	0.0167224
785.530	0.0168019
785.608	0.0168307
785.686	0.0167389
785.764	0.0167298
785.842	0.0167935
785.920	0.0167344
785.998	0.0166890
786.076	0.0165570
786.155	0.0166260
786.233	0.0165102
786.311	0.0165521
786.389	0.0164753
786.467	0.0163674
786.545	0.0162846
786.623	0.0164202
786.701	0.0164049
786.780	0.0161400
786.858	0.0164127
786.936	0.0164930
787.014	0.0163506
787.092	0.0162785
787.170	0.0162662
787.248	0.0163096
787.326	0.0164150
787.405	0.0162529
787.483	0.0162823
787.561	0.0164336
787.639	0.0164060
787.717	0.0162809
787.795	0.0163963
787.873	0.0163580
787.951	0.0164285
788.030	0.0163976
788.108	0.0162376
788.186	0.0164565
788.264	0.0164697
788.342	0.0163631
788.420	0.0163832
788.498	0.0165093
788.576	0.0166128
788.655	0.0164606
788.733	0.0166562
788.811	0.0166772
788.889	0.0167979
788.967	0.0166900
789.045	0.0166761
789.123	0.0166654
789.201	0.0167112
789.280	0.0167544
789.358	0.0167039
789.436	0.0166332
789.514	0.0166216
789.592	0.0166646
789.670	0.0165929
789.748	0.0165376
789.826	0.0165368
789.905	0.0165394
789.983	0.0164204
790.061	0.0165881
790.139	0.0165288
790.217	0.0163055
790.295	0.0164352
790.373	0.0165019
790.451	0.0166095
790.530	0.0165066
790.608	0.0166028
790.686	0.0167999
790.764	0.0167754
790.842	0.0166740
790.920	0.0166614
790.998	0.0168458
791.076	0.0167722
791.155	0.0170036
791.233	0.0170304
791.311	0.0170316
791.389	0.0170772
791.467	0.0169508
791.545	0.0171013
791.623	0.0172205
791.701	0.0170870
791.780	0.0172068
791.858	0.0171584
791.936	0.0170401
792.014	0.0170995
792.092	0.0170338
792.170	0.0170780
792.248	0.0170551
792.326	0.0169462
792.405	0.0170519
792.483	0.0167852
792.561	0.0167797
792.639	0.0168404
792.717	0.0168462
792.795	0.0167242
792.873	0.0166160
792.951	0.0166672
793.030	0.0165784
793.108	0.0165334
793.186	0.0164156
793.264	0.0163644
793.342	0.0164671
793.420	0.0163211
793.498	0.0163200
793.576	0.0162273
793.655	0.0161226
793.733	0.0161500
793.811	0.0162502
793.889	0.0161663
793.967	0.0161906
794.045	0.0160728
794.123	0.0161090
794.201	0.0161638
794.280	0.0161761
794.358	0.0161971
794.436	0.0161739
794.514	0.0161603
794.592	0.0162274
794.670	0.0161473
794.748	0.0162136
794.826	0.0161766
794.905	0.0161960
794.983	0.0162171
795.061	0.0161965
795.139	0.0163714
795.217	0.0163981
795.295	0.0164146
795.373	0.0162484
795.451	0.0163390
795.530	0.0163267
795.608	0.0163413
795.686	0.0164268
795.764	0.0166637
795.842	0.0167252
795.920	0.0167638
795.998	0.0168682
796.076	0.0170453
796.155	0.0170572
796.233	0.0170368
796.311	0.0171310
796.389	0.0171786
796.467	0.0172781
796.545	0.0172645
796.623	0.0174014
796.701	0.0172995
796.780	0.0174060
796.858	0.0172989
796.936	0.0173772
797.014	0.0172924
797.092	0.0172597
797.170	0.0172218
797.248	0.0172311
797.326	0.0172067
797.405	0.0170310
797.483	0.0171631
797.561	0.0170733
797.639	0.0169963
797.717	0.0169251
797.795	0.0168709
797.873	0.0170111
797.951	0.0168215
798.030	0.0169658
798.108	0.0170264
798.186	0.0168489
798.264	0.0168687
798.342	0.0168787
798.420	0.0167634
798.498	0.0167570
798.576	0.0168643
798.655	0.0167743
798.733	0.0167555
798.811	0.0166631
798.889	0.0166331
798.967	0.0164700
799.045	0.0165074
799.123	0.0162962
799.201	0.0162917
799.280	0.0162449
799.358	0.0161206
799.436	0.0160896
799.514	0.0159877
799.592	0.0159795
799.670	0.0160855
799.748	0.0157953
799.826	0.0158757
799.905	0.0158168
799.983	0.0157925
800.061	0.0158955
800.139	0.0158421
800.217	0.0159145
800.295	0.0157935
800.373	0.0160020
800.451	0.0160261
800.530	0.0161675
800.608	0.0163226
800.686	0.0163784
800.764	0.0164665
800.842	0.0165050
800.920	0.0166917
800.998	0.0166991
801.076	0.0168063
801.155	0.0169351
801.233	0.0170855
801.311	0.0170878
801.389	0.0170779
801.467	0.0170179
801.545	0.0171400
801.623	0.0171547
801.701	0.0171156
801.780	0.0170924
801.858	0.0170774
801.936	0.0171034
802.014	0.0170863
802.092	0.0171070
802.170	0.0171640
802.248	0.0170241
802.326	0.0171307
802.405	0.0171485
802.483	0.0169987
802.561	0.0169386
802.639	0.0170847
802.717	0.0169354
802.795	0.0169968
802.873	0.0169476
802.951	0.0168250
803.030	0.0167817
803.108	0.0168317
803.186	0.0167991
803.264	0.0167988
803.342	0.0166975
803.420	0.0168502
803.498	0.0167984
803.576	0.0168892
803.655	0.0167442
803.733	0.0168811
803.811	0.0168585
803.889	0.0166982
803.967	0.0167605
804.045	0.0166319
804.123	0.0167036
804.201	0.0167006
804.280	0.0167424
804.358	0.0166805
804.436	0.0166369
804.514	0.0164677
804.592	0.0165953
804.670	0.0164798
804.748	0.0162788
804.826	0.0163239
804.905	0.0162898
804.983	0.0161514
805.061	0.0162456
805.139	0.0160305
805.217	0.0159208
805.295	0.0159527
805.373	0.0157903
805.451	0.0156561
805.530	0.0157309
805.608	0.0156625
805.686	0.0156053
805.764	0.0155814
805.842	0.0156992
805.920	0.0155596
805.998	0.0155437
806.076	0.0156800
806.155	0.0156971
806.233	0.0157613
806.311	0.0159305
806.389	0.0159305
806.467	0.0161140
806.545	0.0162070
806.623	0.0163298
806.701	0.0165416
806.780	0.0164910
806.858	0.0165989
806.936	0.0168365
807.014	0.0167970
807.092	0.0169165
807.170	0.0169939
807.248	0.0171461
807.326	0.0171137
807.405	0.0171588
807.483	0.0172047
807.561	0.0173304
807.639	0.0172437
807.717	0.0172445
807.795	0.0172129
807.873	0.0172201
807.951	0.0172375
808.030	0.0172739
808.108	0.0172649
808.186	0.0171398
808.264	0.0171330
808.342	0.0172234
808.420	0.0173510
808.498	0.0173263
808.576	0.0172397
808.655	0.0173484
808.733	0.0172182
808.811	0.0173088
808.889	0.0173290
808.967	0.0172554
809.045	0.0172565
809.123	0.0174108
809.201	0.0172652
809.280	0.0170525
809.358	0.0170738
809.436	0.0170355
809.514	0.0168877
809.592	0.0168226
809.670	0.0166476
809.748	0.0166901
809.826	0.0164825
809.905	0.0164762
809.983	0.0163644
810.061	0.0161501
810.139	0.0163098
810.217	0.0160797
810.295	0.0160706
810.373	0.0160190
810.451	0.0159690
810.530	0.0159375
810.608	0.0158961
810.686	0.0161172
810.764	0.0159669
810.842	0.0158580
810.920	0.0157629
810.998	0.0158887
811.076	0.0158847
811.155	0.0159629
811.233	0.0157129
811.311	0.0159252
811.389	0.0157641
811.467	0.0157180
811.545	0.0158400
811.623	0.0158176
811.701	0.0157870
811.780	0.0159543
811.858	0.0158712
811.936	0.0158334
812.014	0.0158668
812.092	0.0158999
812.170	0.0159876
812.248	0.0160300
812.326	0.0161029
812.405	0.0161238
812.483	0.0163150
812.561	0.0163984
812.639	0.0164625
812.717	0.0165701
812.795	0.0165897
812.873	0.0166842
812.951	0.0168211
813.030	0.0169720
813.108	0.0170465
813.186	0.0170752
813.264	0.0171317
813.342	0.0173045
813.420	0.0174367
813.498	0.0173925
813.576	0.0173234
813.655	0.0174066
813.733	0.0173579
813.811	0.0173854
813.889	0.0174780
813.967	0.0175478
814.045	0.0174380
814.123	0.0173985
814.201	0.0174373
814.280	0.0174263
814.358	0.0174338
814.436	0.0173554
814.514	0.0171868
814.592	0.0172201
814.670	0.0172859
814.748	0.0172356
814.826	0.0170246
814.905	0.0170651
814.983	0.0170081
815.061	0.0170219
815.139	0.0169222
815.217	0.0169274
815.295	0.0168956
815.373	0.0166493
815.451	0.0167435
815.530	0.0165858
815.608	0.0165918
815.686	0.0165166
815.764	0.0165226
815.842	0.0163351
815.920	0.0163288
815.998	0.0163195
816.076	0.0163667
816.155	0.0163857
816.233	0.0163702
816.311	0.0162410
816.389	0.0161370
816.467	0.0160455
816.545	0.0162235
816.623	0.0159956
816.701	0.0159815
816.780	0.0160979
816.858	0.0159949
816.936	0.0160479
817.014	0.0157963
817.092	0.0158905
817.170	0.0158890
817.248	0.0159090
817.326	0.0159344
817.405	0.0160761
817.483	0.0161264
817.561	0.0161504
817.639	0.0162358
817.717	0.0162748
817.795	0.0163383
817.873	0.0162244
817.951	0.0165445
818.030	0.0165576
818.108	0.0165062
818.186	0.0164824
818.264	0.0165843
818.342	0.0164699
818.420	0.0165218
818.498	0.0164905
818.576	0.0166298
818.655	0.0166722
818.733	0.0167036
818.811	0.0164994
818.889	0.0165852
818.967	0.0166385
819.045	0.0166191
819.123	0.0166766
819.201	0.0166768
819.280	0.0167992
819.358	0.0168179
819.436	0.0168864
819.514	0.0169720
819.592	0.0170629
819.670	0.0169855
819.748	0.0171904
819.826	0.0172775
819.905	0.0173621
819.983	0.0174796
820.061	0.0172604
820.139	0.0173626
820.217	0.0174432
820.295	0.0174158
820.373	0.0173227
820.451	0.0173336
820.530	0.0173785
820.608	0.0173811
820.686	0.0173635
820.764	0.0173084
820.842	0.0171724
820.920	0.0172218
820.998	0.0169292
821.076	0.0168702
821.155	0.0168374
821.233	0.0166986
821.311	0.0166040
821.389	0.0166198
821.467	0.0166463
821.545	0.0165829
821.623	0.0163170
821.701	0.0165270
821.780	0.0164580
821.858	0.0164480
821.936	0.0162876
822.014	0.0163961
822.092	0.0164340
822.170	0.0163671
822.248	0.0164298
822.326	0.0163278
822.405	0.0164169
822.483	0.0164455
822.561	0.0163105
822.639	0.0162579
822.717	0.0165154
822.795	0.0162664
822.873	0.0161526
822.951	0.0162881
823.030	0.0162145
823.108	0.0161048
823.186	0.0161691
823.264	0.0161961
823.342	0.0161859
823.420	0.0162183
823.498	0.0161994
823.576	0.0161568
823.655	0.0161996
823.733	0.0161774
823.811	0.0161778
823.889	0.0162906
823.967	0.0163309
824.045	0.0162939
824.123	0.0164523
824.201	0.0165182
824.280	0.0164413
824.358	0.0165549
824.436	0.0167125
824.514	0.0165972
824.592	0.0167020
824.670	0.0167719
824.748	0.0166573
824.826	0.0166953
824.905	0.0167495
824.983	0.0166677
825.061	0.0167937
825.139	0.0169275
825.217	0.0167789
825.295	0.0168001
825.373	0.0167747
825.451	0.0166332
825.530	0.0166174
825.608	0.0167081
825.686	0.0168124
825.764	0.0165878
825.842	0.0167376
825.920	0.0167018
825.998	0.0166953
826.076	0.0169477
826.155	0.0167166
826.233	0.0168814
826.311	0.0168951
826.389	0.0169004
826.467	0.0170210
826.545	0.0170162
826.623	0.0171130
826.701	0.0170774
826.780	0.0169644
826.858	0.0169725
826.936	0.0170650
827.014	0.0170951
827.092	0.0170650
827.170	0.0171011
827.248	0.0169768
827.326	0.0168206
827.405	0.0167738
827.483	0.0167356
827.561	0.0168858
827.639	0.0167741
827.717	0.0167113
827.795	0.0167268
827.873	0.0167088
827.951	0.0165762
828.030	0.0165253
828.108	0.0166159
828.186	0.0165696
828.264	0.0168274
828.342	0.0167420
828.420	0.0165327
828.498	0.0167190
828.576	0.0165542
828.655	0.0166244
828.733	0.0166660
828.811	0.0166969
828.889	0.0166736
828.967	0.0164053
829.045	0.0166450
829.123	0.0165356
829.201	0.0164928
829.280	0.0162917
829.358	0.0162795
829.436	0.0163655
829.514	0.0164430
829.592	0.0162070
829.670	0.0162424
829.748	0.0162080
829.826	0.0161147
829.905	0.0160481
829.983	0.0160952
830.061	0.0161358
830.139	0.0163284
830.217	0.0162463
830.295	0.0162295
830.373	0.0161953
830.451	0.0163452
830.530	0.0163856
830.608	0.0163060
830.686	0.0163891
830.764	0.0165739
830.842	0.0164781
830.920	0.0165892
830.998	0.0166113
831.076	0.0166647
831.155	0.0164011
831.233	0.0167061
831.311	0.0167180
831.389	0.0166203
831.467	0.0168453
831.545	0.0168066
831.623	0.0168666
831.701	0.0168472
831.780	0.0167268
831.858	0.0167985
831.936	0.0168275
832.014	0.0167908
832.092	0.0167922
832.170	0.0168408
832.248	0.0168130
832.326	0.0168359
832.405	0.0168633
832.483	0.0168620
832.561	0.0169115
832.639	0.0168889
832.717	0.0168395
832.795	0.0167683
832.873	0.0169301
832.951	0.0169006
833.030	0.0170643
833.108	0.0168534
833.186	0.0168516
833.264	0.0169764
833.342	0.0169733
833.420	0.0168197
833.498	0.0168474
833.576	0.0170414
833.655	0.0169450
833.733	0.0169205
833.811	0.0168938
833.889	0.0166110
833.967	0.0167081
834.045	0.0167814
834.123	0.0167678
834.201	0.0167297
834.280	0.0166399
834.358	0.0166126
834.436	0.0165755
834.514	0.0167097
834.592	0.0167606
834.670	0.0166501
834.748	0.0165113
834.826	0.0165385
834.905	0.0164304
834.983	0.0166028
835.061	0.0165237
835.139	0.0165370
835.217	0.0166134
835.295	0.0164952
835.373	0.0165743
835.451	0.0166088
835.530	0.0165610
835.608	0.0165992
835.686	0.0166288
835.764	0.0164951
835.842	0.0164880
835.920	0.0164893
835.998	0.0164837
836.076	0.0165443
836.155	0.0164162
836.233	0.0163916
836.311	0.0163702
836.389	0.0164800
836.467	0.0164395
836.545	0.0164276
836.623	0.0161494
836.701	0.0163807
836.780	0.0164190
836.858	0.0163688
836.936	0.0164088
837.014	0.0163837
837.092	0.0163897
837.170	0.0164912
837.248	0.0164458
837.326	0.0167056
837.405	0.0167252
837.483	0.0166013
837.561	0.0168042
837.639	0.0170180
837.717	0.0168740
837.795	0.0168374
837.873	0.0169781
837.951	0.0169839
838.030	0.0168875
838.108	0.0169306
838.186	0.0169722
838.264	0.0170913
838.342	0.0168578
838.420	0.0170114
838.498	0.0169863
838.576	0.0169247
838.655	0.0169752
838.733	0.0169872
838.811	0.0169259
838.889	0.0169138
838.967	0.0169250
839.045	0.0168755
839.123	0.0168610
839.201	0.0167879
839.280	0.0167625
839.358	0.0168502
839.436	0.0166795
839.514	0.0167051
839.592	0.0168034
839.670	0.0168781
839.748	0.0166977
839.826	0.0167003
839.905	0.0166953
839.983	0.0167609
840.061	0.0166254
840.139	0.0165780
840.217	0.0165762
840.295	0.0166986
840.373	0.0168017
840.451	0.0167104
840.530	0.0166492
840.608	0.0166533
840.686	0.0165633
840.764	0.0165531
840.842	0.0166852
840.920	0.0165466
840.998	0.0166048
841.076	0.0163991
841.155	0.0166402
841.233	0.0165208
841.311	0.0165055
841.389	0.0164821
841.467	0.0165046
841.545	0.0164401
841.623	0.0164489
841.701	0.0163669
841.780	0.0164235
841.858	0.0165363
841.936	0.0165077
842.014	0.0164475
842.092	0.0163949
842.170	0.0164234
842.248	0.0165938
842.326	0.0164935
842.405	0.0165826
842.483	0.0165488
842.561	0.0165522
842.639	0.0164803
842.717	0.0164915
842.795	0.0165355
842.873	0.0165916
842.951	0.0165665
843.030	0.0165723
843.108	0.0165886
843.186	0.0166725
843.264	0.0166539
843.342	0.0166817
843.420	0.0167220
843.498	0.0167481
843.576	0.0168681
843.655	0.0167828
843.733	0.0167129
843.811	0.0168063
843.889	0.0167838
843.967	0.0168350
844.045	0.0168841
844.123	0.0168788
844.201	0.0169475
844.280	0.0168824
844.358	0.0168729
844.436	0.0167402
844.514	0.0169427
844.592	0.0169126
844.670	0.0168895
844.748	0.0168671
844.826	0.0168428
844.905	0.0168335
844.983	0.0168688
845.061	0.0168905
845.139	0.0168608
845.217	0.0168119
845.295	0.0169194
845.373	0.0167649
845.451	0.0166529
845.530	0.0167281
845.608	0.0166570
845.686	0.0166547
845.764	0.0168213
845.842	0.0166626
845.920	0.0166302
845.998	0.0164657
846.076	0.0165215
846.155	0.0166222
846.233	0.0166414
846.311	0.0165260
846.389	0.0163629
846.467	0.0165110
846.545	0.0165765
846.623	0.0163680
846.701	0.0165012
846.780	0.0165211
846.858	0.0163308
846.936	0.0162646
847.014	0.0165514
847.092	0.0164826
847.170	0.0164105
847.248	0.0164433
847.326	0.0163865
847.405	0.0163057
847.483	0.0163446
847.561	0.0164211
847.639	0.0164756
847.717	0.0162404
847.795	0.0164814
847.873	0.0164392
847.951	0.0163785
848.030	0.0163863
848.108	0.0163297
848.186	0.0164781
848.264	0.0164718
848.342	0.0164945
848.420	0.0166305
848.498	0.0165850
848.576	0.0166595
848.655	0.0166449
848.733	0.0167543
848.811	0.0167897
848.889	0.0167426
848.967	0.0167830
849.045	0.0166806
849.123	0.0167044
849.201	0.0168467
849.280	0.0167050
849.358	0.0166994
849.436	0.0168252
849.514	0.0169378
849.592	0.0167926
849.670	0.0167560
849.748	0.0168663
849.826	0.0166774
849.905	0.0168892
849.983	0.0168964
850.061	0.0167804
850.139	0.0169090
850.217	0.0168703
850.295	0.0168800
850.373	0.0167972
850.451	0.0168179
850.530	0.0168975
850.608	0.0167809
850.686	0.0169428
850.764	0.0168250
850.842	0.0168349
850.920	0.0168520
850.998	0.0168714
851.076	0.0167469
851.155	0.0168089
851.233	0.0167304
851.311	0.0167275
851.389	0.0167077
851.467	0.0166996
851.545	0.0166484
851.623	0.0166070
851.701	0.0165572
851.780	0.0164625
851.858	0.0164080
851.936	0.0165946
852.014	0.0166521
852.092	0.0164639
852.170	0.0165266
852.248	0.0163535
852.326	0.0163713
852.405	0.0163058
852.483	0.0164424
852.561	0.0163994
852.639	0.0163063
852.717	0.0163822
852.795	0.0163335
852.873	0.0162975
852.951	0.0162626
853.030	0.0162246
853.108	0.0163190
853.186	0.0163916
853.264	0.0162492
853.342	0.0162209
853.420	0.0163088
853.498	0.0163593
853.576	0.0163152
853.655	0.0164001
853.733	0.0164658
853.811	0.0163746
853.889	0.0164541
853.967	0.0166063
854.045	0.0163828
854.123	0.0165697
854.201	0.0164818
854.280	0.0166259
854.358	0.0166905
854.436	0.0166998
854.514	0.0168118
854.592	0.0166744
854.670	0.0168748
854.748	0.0168404
854.826	0.0167278
854.905	0.0167868
854.983	0.0167820
855.061	0.0169083
855.139	0.0168889
855.217	0.0168386
855.295	0.0168375
855.373	0.0168337
855.451	0.0168366
855.530	0.0170087
855.608	0.0169734
855.686	0.0169324
855.764	0.0169550
855.842	0.0166901
855.920	0.0167542
855.998	0.0168980
856.076	0.0168858
856.155	0.0167725
856.233	0.0168599
856.311	0.0168935
856.389	0.0168584
856.467	0.0167822
856.545	0.0168703
856.623	0.0167667
856.701	0.0167997
856.780	0.0167826
856.858	0.0168745
856.936	0.0166898
857.014	0.0168017
857.092	0.0167390
857.170	0.0168028
857.248	0.0167301
857.326	0.0167008
857.405	0.0167640
857.483	0.0165711
857.561	0.0165289
857.639	0.0166440
857.717	0.0166499
857.795	0.0166608
857.873	0.0167014
857.951	0.0166271
858.030	0.0164838
858.108	0.0165026
858.186	0.0162952
858.264	0.0163834
858.342	0.0164149
858.420	0.0163019
858.498	0.0162926
858.576	0.0163975
858.655	0.0163663
858.733	0.0163338
858.811	0.0163127
858.889	0.0164658
858.967	0.0165238
859.045	0.0163412
859.123	0.0164770
859.201	0.0165422
859.280	0.0163628
859.358	0.0164072
859.436	0.0163927
859.514	0.0165023
859.592	0.0164782
859.670	0.0164706
859.748	0.0165739
859.826	0.0164355
859.905	0.0164449
859.983	0.0166068
860.061	0.0165833
860.139	0.0164960
860.217	0.0165761
860.295	0.0163846
860.373	0.0164941
860.451	0.0165356
860.530	0.0166116
860.608	0.0165735
860.686	0.0166405
860.764	0.0166913
860.842	0.0166287
860.920	0.0166458
860.998	0.0167061
861.076	0.0168664
861.155	0.0167173
861.233	0.0167315
861.311	0.0170089
861.389	0.0167760
861.467	0.0167850
861.545	0.0168826
861.623	0.0168324
861.701	0.0169048
861.780	0.0169395
861.858	0.0167443
861.936	0.0168638
862.014	0.0167966
862.092	0.0167986
862.170	0.0168394
862.248	0.0167120
862.326	0.0167651
862.405	0.0169457
862.483	0.0168800
862.561	0.0168266
862.639	0.0167970
862.717	0.0167497
862.795	0.0167704
862.873	0.0167839
862.951	0.0167535
863.030	0.0167237
863.108	0.0167563
863.186	0.0166459
863.264	0.0166856
863.342	0.0168348
863.420	0.0167465
863.498	0.0167166
863.576	0.0166476
863.655	0.0167274
863.733	0.0167657
863.811	0.0166312
863.889	0.0166049
863.967	0.0166146
864.045	0.0166979
864.123	0.0164599
864.201	0.0164689
864.280	0.0165187
864.358	0.0165431
864.436	0.0164335
864.514	0.0164339
864.592	0.0164879
864.670	0.0165421
864.748	0.0166372
864.826	0.0165401
864.905	0.0164527
864.983	0.0163783
865.061	0.0163747
865.139	0.0163181
865.217	0.0163731
865.295	0.0164861
865.373	0.0163371
865.451	0.0163621
865.530	0.0165946
865.608	0.0165063
865.686	0.0165559
865.764	0.0165053
865.842	0.0164671
865.920	0.0167112
865.998	0.0166229
866.076	0.0166769
866.155	0.0167294
866.233	0.0167371
866.311	0.0167162
866.389	0.0166974
866.467	0.0165126
866.545	0.0166817
866.623	0.0165636
866.701	0.0165490
866.780	0.0167482
866.858	0.0166660
866.936	0.0166955
867.014	0.0166154
867.092	0.0167026
867.170	0.0166963
867.248	0.0167285
867.326	0.0168536
867.405	0.0166187
867.483	0.0166895
867.561	0.0167761
867.639	0.0168099
867.717	0.0166357
867.795	0.0167131
867.873	0.0167685
867.951	0.0167654
868.030	0.0166803
868.108	0.0168804
868.186	0.0167061
868.264	0.0164672
868.342	0.0167714
868.420	0.0165932
868.498	0.0164396
868.576	0.0167276
868.655	0.0165407
868.733	0.0165874
868.811	0.0165528
868.889	0.0165812
868.967	0.0166140
869.045	0.0165374
869.123	0.0165538
869.201	0.0167271
869.280	0.0166455
869.358	0.0166390
869.436	0.0165935
869.514	0.0168322
869.592	0.0165981
869.670	0.0166271
869.748	0.0167363
869.826	0.0166698
869.905	0.0165786
869.983	0.0165841
870.061	0.0165663
870.139	0.0165475
870.217	0.0164245
870.295	0.0165094
870.373	0.0165104
870.451	0.0165062
870.530	0.0165889
870.608	0.0164009
870.686	0.0165222
870.764	0.0164872
870.842	0.0164339
870.920	0.0165689
870.998	0.0165453
871.076	0.0164634
871.155	0.0164882
871.233	0.0166488
871.311	0.0166064
871.389	0.0165903
871.467	0.0165942
871.545	0.0165151
871.623	0.0165933
871.701	0.0166064
871.780	0.0167403
871.858	0.0166242
871.936	0.0166399
872.014	0.0166478
872.092	0.0164899
872.170	0.0166206
872.248	0.0165850
872.326	0.0166206
872.405	0.0166325
872.483	0.0165311
872.561	0.0165394
872.639	0.0166642
872.717	0.0165459
872.795	0.0166185
872.873	0.0166647
872.951	0.0166836
873.030	0.0165650
873.108	0.0167169
873.186	0.0167595
873.264	0.0166103
873.342	0.0167667
873.420	0.0167645
873.498	0.0167294
873.576	0.0165560
873.655	0.0166799
873.733	0.0166631
873.811	0.0166440
873.889	0.0166283
873.967	0.0166356
874.045	0.0166328
874.123	0.0167607
874.201	0.0166924
874.280	0.0168049
874.358	0.0165420
874.436	0.0165877
874.514	0.0165602
874.592	0.0166848
874.670	0.0165998
874.748	0.0165321
874.826	0.0165055
874.905	0.0166176
874.983	0.0165105
875.061	0.0164899
875.139	0.0164356
875.217	0.0164751
875.295	0.0165878
875.373	0.0165934
875.451	0.0166811
875.530	0.0166799
875.608	0.0166689
875.686	0.0165082
875.764	0.0166609
875.842	0.0167831
875.920	0.0167056
875.998	0.0166235
876.076	0.0167860
876.155	0.0167126
876.233	0.0167638
876.311	0.0167897
876.389	0.0168978
876.467	0.0167963
876.545	0.0167355
876.623	0.0166681
876.701	0.0166585
876.780	0.0165806
876.858	0.0165414
876.936	0.0165150
877.014	0.0164522
877.092	0.0165002
877.170	0.0164229
877.248	0.0164648
877.326	0.0163749
877.405	0.0163825
877.483	0.0165039
877.561	0.0165600
877.639	0.0164642
877.717	0.0164004
877.795	0.0166086
877.873	0.0167419
877.951	0.0166334
878.030	0.0167290
878.108	0.0167234
878.186	0.0167315
878.264	0.0166019
878.342	0.0166553
878.420	0.0168514
878.498	0.0167255
878.576	0.0168204
878.655	0.0168405
878.733	0.0168370
878.811	0.0165984
878.889	0.0166847
878.967	0.0166066
879.045	0.0166067
879.123	0.0166376
879.201	0.0164503
879.280	0.0165416
879.358	0.0164990
879.436	0.0165130
879.514	0.0165564
879.592	0.0166055
879.670	0.0164339
879.748	0.0164416
879.826	0.0164431
879.905	0.0165415
879.983	0.0167275
880.061	0.0166583
880.139	0.0166434
880.217	0.0166329
880.295	0.0168420
880.373	0.0168417
880.451	0.0167580
880.530	0.0166933
880.608	0.0167913
880.686	0.0167853
880.764	0.0168276
880.842	0.0168475
880.920	0.0166192
880.998	0.0167204
881.076	0.0166351
881.155	0.0166875
881.233	0.0167152
881.311	0.0164006
881.389	0.0165040
881.467	0.0165670
881.545	0.0166055
881.623	0.0165545
881.701	0.0164521
881.780	0.0164766
881.858	0.0164164
881.936	0.0165000
882.014	0.0164713
882.092	0.0165217
882.170	0.0164016
882.248	0.0164753
882.326	0.0165440
882.405	0.0165123
882.483	0.0164502
882.561	0.0164147
882.639	0.0165321
882.717	0.0166647
882.795	0.0164877
882.873	0.0165443
882.951	0.0165517
883.030	0.0166294
883.108	0.0165501
883.186	0.0164339
883.264	0.0164548
883.342	0.0166177
883.420	0.0165144
883.498	0.0166118
883.576	0.0166316
883.655	0.0164740
883.733	0.0165585
883.811	0.0167930
883.889	0.0166042
883.967	0.0166621
884.045	0.0167143
884.123	0.0167287
884.201	0.0167178
884.280	0.0166341
884.358	0.0166348
884.436	0.0166414
884.514	0.0166379
884.592	0.0167818
884.670	0.0167591
884.748	0.0166252
884.826	0.0165862
884.905	0.0166174
884.983	0.0165520
885.061	0.0166637
885.139	0.0165823
885.217	0.0164484
885.295	0.0165105
885.373	0.0164009
885.451	0.0164985
885.530	0.0165186
885.608	0.0164162
885.686	0.0163667
885.764	0.0165186
885.842	0.0166824
885.920	0.0166018
885.998	0.0164397
886.076	0.0164984
886.155	0.0165034
886.233	0.0166315
886.311	0.0166679
886.389	0.0165213
886.467	0.0168056
886.545	0.0168018
886.623	0.0167160
886.701	0.0168835
886.780	0.0168855
886.858	0.0168755
886.936	0.0168757
887.014	0.0168780
887.092	0.0167996
887.170	0.0169404
887.248	0.0168703
887.326	0.0169062
887.405	0.0167613
887.483	0.0166029
887.561	0.0167922
887.639	0.0167125
887.717	0.0164434
887.795	0.0164513
887.873	0.0164813
887.951	0.0164281
888.030	0.0163781
888.108	0.0164799
888.186	0.0163483
888.264	0.0164478
888.342	0.0163297
888.420	0.0164381
888.498	0.0163419
888.576	0.0164488
888.655	0.0165686
888.733	0.0165610
888.811	0.0164885
888.889	0.0164491
888.967	0.0165682
889.045	0.0167240
889.123	0.0166688
889.201	0.0164724
889.280	0.0165073
889.358	0.0166717
889.436	0.0165530
889.514	0.0165392
889.592	0.0166083
889.670	0.0166203
889.748	0.0165936
889.826	0.0165050
889.905	0.0167221
889.983	0.0166261
890.061	0.0166145
890.139	0.0168077
890.217	0.0167981
890.295	0.0166673
890.373	0.0166854
890.451	0.0166056
890.530	0.0167329
890.608	0.0167556
890.686	0.0166115
890.764	0.0167387
890.842	0.0167386
890.920	0.0166643
890.998	0.0165622
891.076	0.0166431
891.155	0.0165829
891.233	0.0166277
891.311	0.0166993
891.389	0.0166846
891.467	0.0165553
891.545	0.0165816
891.623	0.0166376
891.701	0.0166013
891.780	0.0166446
891.858	0.0165681
891.936	0.0167136
892.014	0.0166792
892.092	0.0166634
892.170	0.0167750
892.248	0.0165005
892.326	0.0164357
892.405	0.0165309
892.483	0.0166722
892.561	0.0166816
892.639	0.0165960
892.717	0.0167070
892.795	0.0167199
892.873	0.0166310
892.951	0.0166253
893.030	0.0166971
893.108	0.0166502
893.186	0.0166731
893.264	0.0166756
893.342	0.0165749
893.420	0.0167145
893.498	0.0166911
893.576	0.0165907
893.655	0.0165566
893.733	0.0165588
893.811	0.0165989
893.889	0.0163667
893.967	0.0164053
894.045	0.0164222
894.123	0.0164214
894.201	0.0165480
894.280	0.0164296
894.358	0.0163877
894.436	0.0162775
894.514	0.0163154
894.592	0.0163757
894.670	0.0165418
894.748	0.0163328
894.826	0.0165894
894.905	0.0165126
894.983	0.0164674
895.061	0.0164546
895.139	0.0165495
895.217	0.0165707
895.295	0.0166978
895.373	0.0167311
895.451	0.0167168
895.530	0.0167860
895.608	0.0167323
895.686	0.0168001
895.764	0.0167992
895.842	0.0168179
895.920	0.0168208
895.998	0.0166790
896.076	0.0166627
896.155	0.0166055
896.233	0.0167242
896.311	0.0166119
896.389	0.0165488
896.467	0.0165630
896.545	0.0167269
896.623	0.0165672
896.701	0.0164298
896.780	0.0165093
896.858	0.0165845
896.936	0.0164885
897.014	0.0163327
897.092	0.0164397
897.170	0.0165604
897.248	0.0165176
897.326	0.0165505
897.405	0.0166749
897.483	0.0165318
897.561	0.0166572
897.639	0.0166671
897.717	0.0167642
897.795	0.0168444
897.873	0.0167574
897.951	0.0167426
898.030	0.0167789
898.108	0.0167446
898.186	0.0167922
898.264	0.0167783
898.342	0.0167371
898.420	0.0167068
898.498	0.0167094
898.576	0.0167383
898.655	0.0166141
898.733	0.0166406
898.811	0.0165939
898.889	0.0167563
898.967	0.0167399
899.045	0.0166917
899.123	0.0167924
899.201	0.0167986
899.280	0.0167156
899.358	0.0165362
899.436	0.0165479
899.514	0.0166090
899.592	0.0166754
899.670	0.0167471
899.748	0.0166393
899.826	0.0165049
899.905	0.0166763
899.983	0.0164339
900.061	0.0164705
900.139	0.0164685
900.217	0.0165704
900.295	0.0165343
900.373	0.0165640
900.451	0.0165648
900.530	0.0164553
900.608	0.0164522
900.686	0.0166544
900.764	0.0165694
900.842	0.0165656
900.920	0.0165937
900.998	0.0165786
901.076	0.0165644
901.155	0.0165247
901.233	0.0164690
901.311	0.0164602
901.389	0.0164224
901.467	0.0165533
901.545	0.0165890
901.623	0.0166137
901.701	0.0165608
901.780	0.0166175
901.858	0.0167216
901.936	0.0167110
902.014	0.0165482
902.092	0.0168308
902.170	0.0166987
902.248	0.0168046
902.326	0.0168029
902.405	0.0167436
902.483	0.0166288
902.561	0.0168067
902.639	0.0167358
902.717	0.0168362
902.795	0.0167538
902.873	0.0167734
902.951	0.0168001
903.030	0.0167893
903.108	0.0165249
903.186	0.0167611
903.264	0.0165762
903.342	0.0165427
903.420	0.0164100
903.498	0.0166602
903.576	0.0167192
903.655	0.0164701
903.733	0.0166833
903.811	0.0165867
903.889	0.0166448
903.967	0.0166788
904.045	0.0167066
904.123	0.0166219
904.201	0.0164644
904.280	0.0164468
904.358	0.0166636
904.436	0.0164923
904.514	0.0165996
904.592	0.0165634
904.670	0.0164342
904.748	0.0164634
904.826	0.0165590
904.905	0.0166142
904.983	0.0166801
905.061	0.0165868
905.139	0.0166039
905.217	0.0166384
905.295	0.0166616
905.373	0.0166108
905.451	0.0167641
905.530	0.0169423
905.608	0.0168054
905.686	0.0167229
905.764	0.0167553
905.842	0.0168006
905.920	0.0168353
905.998	0.0168681
906.076	0.0167888
906.155	0.0166920
906.233	0.0167738
906.311	0.0168197
906.389	0.0167030
906.467	0.0165762
906.545	0.0165655
906.623	0.0165969
906.701	0.0165035
906.780	0.0165182
906.858	0.0164590
906.936	0.0163332
907.014	0.0166536
907.092	0.0162895
907.170	0.0163490
907.248	0.0164577
907.326	0.0164202
907.405	0.0163985
907.483	0.0163478
907.561	0.0164665
907.639	0.0164338
907.717	0.0165761
907.795	0.0164246
907.873	0.0166221
907.951	0.0166409
908.030	0.0165241
908.108	0.0167397
908.186	0.0166904
908.264	0.0166771
908.342	0.0167370
908.420	0.0166220
908.498	0.0167766
908.576	0.0167993
908.655	0.0167657
908.733	0.0166481
908.811	0.0166418
908.889	0.0166315
908.967	0.0166425
909.045	0.0167546
909.123	0.0165876
909.201	0.0165445
909.280	0.0165282
909.358	0.0165437
909.436	0.0164059
909.514	0.0164649
909.592	0.0164305
909.670	0.0164056
909.748	0.0163824
909.826	0.0164743
909.905	0.0163561
909.983	0.0162669
910.061	0.0164791
910.139	0.0164758
910.217	0.0164204
910.295	0.0164559
910.373	0.0163895
910.451	0.0165172
910.530	0.0164411
910.608	0.0164025
910.686	0.0165974
910.764	0.0165961
910.842	0.0167594
910.920	0.0168954
910.998	0.0167262
911.076	0.0167013
911.155	0.0167164
911.233	0.0166676
911.311	0.0169166
911.389	0.0168185
911.467	0.0168037
911.545	0.0167484
911.623	0.0167154
911.701	0.0166822
911.780	0.0167748
911.858	0.0167931
911.936	0.0168012
912.014	0.0167018
912.092	0.0167506
912.170	0.0166278
912.248	0.0166348
912.326	0.0167511
912.405	0.0167017
912.483	0.0166595
912.561	0.0167009
912.639	0.0166256
912.717	0.0166866
912.795	0.0167622
912.873	0.0168418
912.951	0.0167146
913.030	0.0166459
913.108	0.0165699
913.186	0.0165537
913.264	0.0165645
913.342	0.0165891
913.420	0.0166040
913.498	0.0164953
913.576	0.0164653
913.655	0.0163392
913.733	0.0163278
913.811	0.0163694
913.889	0.0164238
913.967	0.0164495
914.045	0.0165030
914.123	0.0164719
914.201	0.0164333
914.280	0.0164674
914.358	0.0165754
914.436	0.0166352
914.514	0.0167312
914.592	0.0166215
914.670	0.0167533
914.748	0.0167535
914.826	0.0167387
914.905	0.0165469
914.983	0.0166906
915.061	0.0166024
915.139	0.0165340
915.217	0.0166701
915.295	0.0166291
915.373	0.0165321
915.451	0.0166340
915.530	0.0165969
915.608	0.0165648
915.686	0.0164613
915.764	0.0165942
915.842	0.0166549
915.920	0.0166526
915.998	0.0165803
916.076	0.0165042
916.155	0.0165387
916.233	0.0165690
916.311	0.0167205
916.389	0.0166096
916.467	0.0164685
916.545	0.0165938
916.623	0.0166372
916.701	0.0166753
916.780	0.0166307
916.858	0.0166463
916.936	0.0167740
917.014	0.0168359
917.092	0.0168360
917.170	0.0168520
917.248	0.0168866
917.326	0.0169328
917.405	0.0170061
917.483	0.0170377
917.561	0.0169860
917.639	0.0168795
917.717	0.0168243
917.795	0.0167870
917.873	0.0168065
917.951	0.0169094
918.030	0.0168197
918.108	0.0168635
918.186	0.0167973
918.264	0.0168473
918.342	0.0166976
918.420	0.0167390
918.498	0.0167852
918.576	0.0166548
918.655	0.0165887
918.733	0.0166666
918.811	0.0165842
918.889	0.0166410
918.967	0.0167967
919.045	0.0167791
919.123	0.0167419
919.201	0.0167556
919.280	0.0166808
919.358	0.0166346
919.436	0.0168187
919.514	0.0166708
919.592	0.0165903
919.670	0.0165696
919.748	0.0166167
919.826	0.0166053
919.905	0.0165854
919.983	0.0165373
920.061	0.0164201
920.139	0.0163877
920.217	0.0162982
920.295	0.0163647
920.373	0.0162983
920.451	0.0161839
920.530	0.0162232
920.608	0.0164058
920.686	0.0164033
920.764	0.0163888
920.842	0.0165023
920.920	0.0164349
920.998	0.0165804
921.076	0.0166432
921.155	0.0164487
921.233	0.0166714
921.311	0.0167787
921.389	0.0166733
921.467	0.0168779
921.545	0.0166775
921.623	0.0166658
921.701	0.0166857
921.780	0.0167863
921.858	0.0168255
921.936	0.0168218
922.014	0.0167168
922.092	0.0167661
922.170	0.0166587
922.248	0.0166713
922.326	0.0167862
922.405	0.0166679
922.483	0.0165852
922.561	0.0165668
922.639	0.0167420
922.717	0.0166097
922.795	0.0165801
922.873	0.0165592
922.951	0.0165502
923.030	0.0165857
923.108	0.0167287
923.186	0.0166203
923.264	0.0166528
923.342	0.0166808
923.420	0.0168118
923.498	0.0168221
923.576	0.0167953
923.655	0.0169189
923.733	0.0168629
923.811	0.0169047
923.889	0.0170000
923.967	0.0168250
924.045	0.0168858
924.123	0.0168243
924.201	0.0168320
924.280	0.0169112
924.358	0.0168607
924.436	0.0168217
924.514	0.0167829
924.592	0.0166147
924.670	0.0167712
924.748	0.0165549
924.826	0.0165732
924.905	0.0165224
924.983	0.0165707
925.061	0.0165623
925.139	0.0165520
925.217	0.0166035
925.295	0.0164550
925.373	0.0164764
925.451	0.0165514
925.530	0.0166718
925.608	0.0165359
925.686	0.0167078
925.764	0.0166838
925.842	0.0164843
925.920	0.0167046
925.998	0.0167017
926.076	0.0167452
926.155	0.0165469
926.233	0.0167155
926.311	0.0167268
926.389	0.0167598
926.467	0.0167045
926.545	0.0165215
926.623	0.0165274
926.701	0.0165018
926.780	0.0164980
926.858	0.0164127
926.936	0.0164525
927.014	0.0165032
927.092	0.0165456
927.170	0.0163174
927.248	0.0163583
927.326	0.0165504
927.405	0.0165732
927.483	0.0164731
927.561	0.0164930
927.639	0.0163860
927.717	0.0164359
927.795	0.0166395
927.873	0.0165820
927.951	0.0165596
928.030	0.0166032
928.108	0.0165658
928.186	0.0166187
928.264	0.0166860
928.342	0.0165883
928.420	0.0165595
928.498	0.0167346
928.576	0.0166553
928.655	0.0167508
928.733	0.0166667
928.811	0.0165750
928.889	0.0166533
928.967	0.0167511
929.045	0.0166406
929.123	0.0166302
929.201	0.0167095
929.280	0.0166064
929.358	0.0166975
929.436	0.0167029
929.514	0.0166505
929.592	0.0166618
929.670	0.0166277
929.748	0.0166641
929.826	0.0166385
929.905	0.0167962
929.983	0.0165756
930.061	0.0166247
930.139	0.0167484
930.217	0.0168455
930.295	0.0167238
930.373	0.0167828
930.451	0.0167714
930.530	0.0168619
930.608	0.0167758
930.686	0.0167204
930.764	0.0167931
930.842	0.0168181
930.920	0.0167039
930.998	0.0166953
931.076	0.0167527
931.155	0.0165773
931.233	0.0165800
931.311	0.0164373
931.389	0.0164390
931.467	0.0164091
931.545	0.0164254
931.623	0.0164256
931.701	0.0162296
931.780	0.0164049
931.858	0.0164450
931.936	0.0164573
932.014	0.0165188
932.092	0.0164010
932.170	0.0164072
932.248	0.0164647
932.326	0.0165296
932.405	0.0165291
932.483	0.0167963
932.561	0.0167677
932.639	0.0168125
932.717	0.0169167
932.795	0.0168355
932.873	0.0167071
932.951	0.0168657
933.030	0.0166688
933.108	0.0165875
933.186	0.0167517
933.264	0.0167489
933.342	0.0165410
933.420	0.0164360
933.498	0.0165096
933.576	0.0165707
933.655	0.0165178
933.733	0.0163789
933.811	0.0164194
933.889	0.0164713
933.967	0.0165166
934.045	0.0165419
934.123	0.0164694
934.201	0.0164950
934.280	0.0166701
934.358	0.0164711
934.436	0.0165549
934.514	0.0165683
934.592	0.0168105
934.670	0.0167246
934.748	0.0168817
934.826	0.0167219
934.905	0.0167714
934.983	0.0167549
935.061	0.0167865
935.139	0.0168320
935.217	0.0167070
935.295	0.0166895
935.373	0.0167311
935.451	0.0167495
935.530	0.0167769
935.608	0.0167038
935.686	0.0168833
935.764	0.0168116
935.842	0.0167286
935.920	0.0166486
935.998	0.0166121
936.076	0.0166051
936.155	0.0163622
936.233	0.0164068
936.311	0.0165275
936.389	0.0164830
936.467	0.0165120
936.545	0.0165682
936.623	0.0165566
936.701	0.0164030
936.780	0.0166284
936.858	0.0165396
936.936	0.0165558
937.014	0.0166254
937.092	0.0166789
937.170	0.0166846
937.248	0.0167536
937.326	0.0166231
937.405	0.0166170
937.483	0.0167859
937.561	0.0167359
937.639	0.0165229
937.717	0.0165520
937.795	0.0165922
937.873	0.0166518
937.951	0.0165705
938.030	0.0165996
938.108	0.0166965
938.186	0.0165601
938.264	0.0165610
938.342	0.0165475
938.420	0.0164021
938.498	0.0165387
938.576	0.0164985
938.655	0.0164448
938.733	0.0164831
938.811	0.0164613
938.889	0.0165103
938.967	0.0164943
939.045	0.0164813
939.123	0.0166120
939.201	0.0167083
939.280	0.0167307
939.358	0.0167406
939.436	0.0167498
939.514	0.0166423
939.592	0.0167168
939.670	0.0168700
939.748	0.0168687
939.826	0.0168397
939.905	0.0168217
939.983	0.0167444
940.061	0.0167134
940.139	0.0167970
940.217	0.0167655
940.295	0.0165971
940.373	0.0167166
940.451	0.0167585
940.530	0.0166045
940.608	0.0165805
940.686	0.0165575
940.764	0.0163987
940.842	0.0166299
940.920	0.0166475
940.998	0.0164735
941.076	0.0166580
941.155	0.0166589
941.233	0.0166591
941.311	0.0167618
941.389	0.0164911
941.467	0.0166212
941.545	0.0167399
941.623	0.0166499
941.701	0.0166395
941.780	0.0166434
941.858	0.0166076
941.936	0.0165775
942.014	0.0166446
942.092	0.0166129
942.170	0.0165556
942.248	0.0164968
942.326	0.0166419
942.405	0.0166804
942.483	0.0165245
942.561	0.0165275
942.639	0.0166193
942.717	0.0166612
942.795	0.0165398
942.873	0.0166719
942.951	0.0166405
943.030	0.0165635
943.108	0.0166103
943.186	0.0166568
943.264	0.0166543
943.342	0.0166630
943.420	0.0163326
943.498	0.0164983
943.576	0.0166011
943.655	0.0164996
943.733	0.0166068
943.811	0.0167032
943.889	0.0164565
943.967	0.0165251
944.045	0.0164459
944.123	0.0164307
944.201	0.0165367
944.280	0.0165253
944.358	0.0164266
944.436	0.0164979
944.514	0.0165625
944.592	0.0164947
944.670	0.0166132
944.748	0.0165471
944.826	0.0164574
944.905	0.0165301
944.983	0.0165903
945.061	0.0166837
945.139	0.0166338
945.217	0.0166206
945.295	0.0167413
945.373	0.0167134
945.451	0.0167366
945.530	0.0167358
945.608	0.0166177
945.686	0.0168021
945.764	0.0169060
945.842	0.0168997
945.920	0.0168616
945.998	0.0168794
946.076	0.0169470
946.155	0.0168581
946.233	0.0169133
946.311	0.0168243
946.389	0.0168990
946.467	0.0170176
946.545	0.0170933
946.623	0.0168539
946.701	0.0169637
946.780	0.0168279
946.858	0.0169109
946.936	0.0167490
947.014	0.0168421
947.092	0.0167723
947.170	0.0166300
947.248	0.0168724
947.326	0.0166409
947.405	0.0166151
947.483	0.0166360
947.561	0.0165974
947.639	0.0166936
947.717	0.0165479
947.795	0.0166736
947.873	0.0164496
947.951	0.0164010
948.030	0.0164692
948.108	0.0163890
948.186	0.0164671
948.264	0.0164544
948.342	0.0164224
948.420	0.0162735
948.498	0.0162973
948.576	0.0164010
948.655	0.0163242
948.733	0.0163335
948.811	0.0164508
948.889	0.0164167
948.967	0.0164245
949.045	0.0165074
949.123	0.0163502
949.201	0.0164384
949.280	0.0164275
949.358	0.0163366
949.436	0.0164618
949.514	0.0163987
949.592	0.0165176
949.670	0.0165209
949.748	0.0163872
949.826	0.0165268
949.905	0.0166238
949.983	0.0164558
950.061	0.0165187
950.139	0.0164847
950.217	0.0165803
950.295	0.0165076
950.373	0.0164339
950.451	0.0165090
950.530	0.0164792
950.608	0.0165604
950.686	0.0165468
950.764	0.0165299
950.842	0.0165374
950.920	0.0166355
950.998	0.0166996
951.076	0.0167151
951.155	0.0165634
951.233	0.0167689
951.311	0.0167513
951.389	0.0166686
951.467	0.0167712
951.545	0.0167709
951.623	0.0168538
951.701	0.0167361
951.780	0.0167918
951.858	0.0169283
951.936	0.0168298
952.014	0.0168618
952.092	0.0168221
952.170	0.0168093
952.248	0.0168207
952.326	0.0168255
952.405	0.0168294
952.483	0.0166566
952.561	0.0167014
952.639	0.0166909
952.717	0.0166917
952.795	0.0168412
952.873	0.0166581
952.951	0.0166714
953.030	0.0167501
953.108	0.0165284
953.186	0.0164519
953.264	0.0165569
953.342	0.0166215
953.420	0.0164950
953.498	0.0164740
953.576	0.0163861
953.655	0.0164030
953.733	0.0163282
953.811	0.0162854
953.889	0.0163499
953.967	0.0163296
954.045	0.0163440
954.123	0.0164082
954.201	0.0162762
954.280	0.0163985
954.358	0.0163721
954.436	0.0161139
954.514	0.0163398
954.592	0.0165100
954.670	0.0165262
954.748	0.0165351
954.826	0.0165743
954.905	0.0163790
954.983	0.0164875
955.061	0.0165443
955.139	0.0166507
955.217	0.0166203
955.295	0.0167221
955.373	0.0166608
955.451	0.0167285
955.530	0.0166878
955.608	0.0165527
955.686	0.0165968
955.764	0.0166613
955.842	0.0168340
955.920	0.0167227
955.998	0.0167463
956.076	0.0165961
956.155	0.0166210
956.233	0.0165731
956.311	0.0165480
956.389	0.0166169
956.467	0.0166759
956.545	0.0167304
956.623	0.0166690
956.701	0.0164730
956.780	0.0167441
956.858	0.0167217
956.936	0.0166728
957.014	0.0166978
957.092	0.0166372
957.170	0.0166444
957.248	0.0166267
957.326	0.0166049
957.405	0.0165025
957.483	0.0167017
957.561	0.0167030
957.639	0.0166021
957.717	0.0165776
957.795	0.0166357
957.873	0.0167305
957.951	0.0166406
958.030	0.0166851
958.108	0.0166290
958.186	0.0165034
958.264	0.0165825
958.342	0.0166713
958.420	0.0166088
958.498	0.0166528
958.576	0.0166376
958.655	0.0167020
958.733	0.0167562
958.811	0.0167257
958.889	0.0166682
958.967	0.0166507
959.045	0.0167227
959.123	0.0167488
959.201	0.0166822
959.280	0.0165211
959.358	0.0167423
959.436	0.0167184
959.514	0.0166299
959.592	0.0166056
959.670	0.0166703
959.748	0.0165445
959.826	0.0166677
959.905	0.0166279
