05/17/2022	16:50:48	Ver.	4.1	UNKNOWN
Optical Delay	639.982744	Delta X		0.078125	Sweeps	1	Scan Rate	0/0
Coordinates	Axis 1	NaN	Axis 2	NaN	Axis 3	NaN	Axis 4	NaN	Axis 5	NaN	Axis 6	0.000000
TX Power	0.000000	RX Power	0.000000

639.983	0.0154234
640.061	0.0155855
640.139	0.0155148
640.217	0.0153246
640.295	0.0154176
640.373	0.0154755
640.451	0.0154519
640.530	0.0155436
640.608	0.0153490
640.686	0.0155544
640.764	0.0156123
640.842	0.0155557
640.920	0.0155958
640.998	0.0155122
641.076	0.0156032
641.155	0.0155851
641.233	0.0153600
641.311	0.0155833
641.389	0.0153783
641.467	0.0154237
641.545	0.0155845
641.623	0.0155929
641.701	0.0155134
641.780	0.0156348
641.858	0.0155033
641.936	0.0154612
642.014	0.0155116
642.092	0.0155154
642.170	0.0155878
642.248	0.0155404
642.326	0.0154868
642.405	0.0156364
642.483	0.0155513
642.561	0.0155364
642.639	0.0156019
642.717	0.0156180
642.795	0.0156265
642.873	0.0155170
642.951	0.0155869
643.030	0.0155876
643.108	0.0155355
643.186	0.0156062
643.264	0.0156354
643.342	0.0155107
643.420	0.0156114
643.498	0.0156164
643.576	0.0155408
643.655	0.0155642
643.733	0.0156216
643.811	0.0154513
643.889	0.0155141
643.967	0.0154762
644.045	0.0156715
644.123	0.0155943
644.201	0.0154276
644.280	0.0155366
644.358	0.0155789
644.436	0.0156285
644.514	0.0156257
644.592	0.0156403
644.670	0.0154453
644.748	0.0155978
644.826	0.0155411
644.905	0.0155578
644.983	0.0155467
645.061	0.0155844
645.139	0.0156608
645.217	0.0155303
645.295	0.0156037
645.373	0.0156362
645.451	0.0154813
645.530	0.0156131
645.608	0.0155450
645.686	0.0154617
645.764	0.0155199
645.842	0.0155649
645.920	0.0155158
645.998	0.0155336
646.076	0.0155378
646.155	0.0154571
646.233	0.0155045
646.311	0.0155787
646.389	0.0156200
646.467	0.0155073
646.545	0.0155666
646.623	0.0156927
646.701	0.0155902
646.780	0.0156396
646.858	0.0156020
646.936	0.0156401
647.014	0.0155555
647.092	0.0156254
647.170	0.0156280
647.248	0.0155611
647.326	0.0156931
647.405	0.0155958
647.483	0.0155683
647.561	0.0155287
647.639	0.0156963
647.717	0.0155235
647.795	0.0156126
647.873	0.0156748
647.951	0.0156171
648.030	0.0154978
648.108	0.0154915
648.186	0.0154920
648.264	0.0155183
648.342	0.0156332
648.420	0.0155672
648.498	0.0155242
648.576	0.0156240
648.655	0.0155954
648.733	0.0155952
648.811	0.0153678
648.889	0.0156514
648.967	0.0156057
649.045	0.0154417
649.123	0.0155124
649.201	0.0155666
649.280	0.0154889
649.358	0.0155178
649.436	0.0155534
649.514	0.0154063
649.592	0.0154691
649.670	0.0154861
649.748	0.0154716
649.826	0.0155978
649.905	0.0154482
649.983	0.0154231
650.061	0.0155056
650.139	0.0153069
650.217	0.0154186
650.295	0.0154915
650.373	0.0154649
650.451	0.0154547
650.530	0.0153926
650.608	0.0154659
650.686	0.0154229
650.764	0.0154659
650.842	0.0155954
650.920	0.0153709
650.998	0.0153960
651.076	0.0154946
651.155	0.0153660
651.233	0.0153273
651.311	0.0154101
651.389	0.0154513
651.467	0.0153467
651.545	0.0153333
651.623	0.0152646
651.701	0.0153679
651.780	0.0154626
651.858	0.0155633
651.936	0.0153054
652.014	0.0152512
652.092	0.0153978
652.170	0.0154214
652.248	0.0152795
652.326	0.0153049
652.405	0.0152111
652.483	0.0152487
652.561	0.0152473
652.639	0.0153894
652.717	0.0152654
652.795	0.0152153
652.873	0.0152870
652.951	0.0153821
653.030	0.0151986
653.108	0.0152616
653.186	0.0153766
653.264	0.0152973
653.342	0.0152483
653.420	0.0152679
653.498	0.0151789
653.576	0.0151804
653.655	0.0153710
653.733	0.0153146
653.811	0.0152209
653.889	0.0152953
653.967	0.0152370
654.045	0.0152402
654.123	0.0154144
654.201	0.0153101
654.280	0.0153040
654.358	0.0154751
654.436	0.0154139
654.514	0.0152324
654.592	0.0152351
654.670	0.0152452
654.748	0.0153378
654.826	0.0152611
654.905	0.0153252
654.983	0.0153606
655.061	0.0151870
655.139	0.0152775
655.217	0.0152932
655.295	0.0152820
655.373	0.0153720
655.451	0.0151418
655.530	0.0151910
655.608	0.0152574
655.686	0.0153164
655.764	0.0152698
655.842	0.0153040
655.920	0.0153297
655.998	0.0150128
656.076	0.0152441
656.155	0.0153498
656.233	0.0152704
656.311	0.0152191
656.389	0.0152765
656.467	0.0152686
656.545	0.0151968
656.623	0.0153645
656.701	0.0154777
656.780	0.0153418
656.858	0.0154295
656.936	0.0154287
657.014	0.0153638
657.092	0.0153619
657.170	0.0153171
657.248	0.0154531
657.326	0.0155067
657.405	0.0154327
657.483	0.0155932
657.561	0.0155537
657.639	0.0155859
657.717	0.0154320
657.795	0.0153588
657.873	0.0152708
657.951	0.0153798
658.030	0.0154431
658.108	0.0152686
658.186	0.0153133
658.264	0.0152393
658.342	0.0152331
658.420	0.0152544
658.498	0.0153427
658.576	0.0153223
658.655	0.0151524
658.733	0.0153294
658.811	0.0154045
658.889	0.0153456
658.967	0.0153606
659.045	0.0154627
659.123	0.0154886
659.201	0.0154646
659.280	0.0155556
659.358	0.0156575
659.436	0.0156466
659.514	0.0157116
659.592	0.0156417
659.670	0.0156960
659.748	0.0156851
659.826	0.0157674
659.905	0.0155116
659.983	0.0156334
660.061	0.0155602
660.139	0.0154590
660.217	0.0153098
660.295	0.0153052
660.373	0.0151931
660.451	0.0151399
660.530	0.0152223
660.608	0.0151082
660.686	0.0150256
660.764	0.0149850
660.842	0.0150606
660.920	0.0151039
660.998	0.0150564
661.076	0.0151000
661.155	0.0151967
661.233	0.0152046
661.311	0.0153623
661.389	0.0154433
661.467	0.0155731
661.545	0.0157575
661.623	0.0158729
661.701	0.0159189
661.780	0.0159315
661.858	0.0159817
661.936	0.0160657
662.014	0.0160661
662.092	0.0159938
662.170	0.0159782
662.248	0.0158829
662.326	0.0156499
662.405	0.0156443
662.483	0.0155494
662.561	0.0153196
662.639	0.0152221
662.717	0.0151745
662.795	0.0149948
662.873	0.0149401
662.951	0.0148329
663.030	0.0150050
663.108	0.0148575
663.186	0.0148106
663.264	0.0148566
663.342	0.0151897
663.420	0.0151535
663.498	0.0152785
663.576	0.0154205
663.655	0.0154531
663.733	0.0156731
663.811	0.0158251
663.889	0.0158409
663.967	0.0158117
664.045	0.0160275
664.123	0.0160780
664.201	0.0162551
664.280	0.0161292
664.358	0.0160709
664.436	0.0161091
664.514	0.0158598
664.592	0.0157912
664.670	0.0159157
664.748	0.0156299
664.826	0.0155794
664.905	0.0154940
664.983	0.0153325
665.061	0.0152190
665.139	0.0151859
665.217	0.0150447
665.295	0.0149678
665.373	0.0149836
665.451	0.0151096
665.530	0.0151246
665.608	0.0152404
665.686	0.0151752
665.764	0.0150246
665.842	0.0152781
665.920	0.0154282
665.998	0.0154767
666.076	0.0154749
666.155	0.0156310
666.233	0.0156787
666.311	0.0157561
666.389	0.0156655
666.467	0.0158275
666.545	0.0158210
666.623	0.0159385
666.701	0.0158537
666.780	0.0159406
666.858	0.0156337
666.936	0.0156596
667.014	0.0156159
667.092	0.0154338
667.170	0.0155348
667.248	0.0154406
667.326	0.0152503
667.405	0.0152475
667.483	0.0152410
667.561	0.0154099
667.639	0.0153539
667.717	0.0152829
667.795	0.0153981
667.873	0.0153629
667.951	0.0153558
668.030	0.0154166
668.108	0.0153754
668.186	0.0154002
668.264	0.0154285
668.342	0.0152344
668.420	0.0152260
668.498	0.0152666
668.576	0.0154395
668.655	0.0153349
668.733	0.0154183
668.811	0.0154247
668.889	0.0155726
668.967	0.0155130
669.045	0.0155690
669.123	0.0156237
669.201	0.0156129
669.280	0.0156104
669.358	0.0155296
669.436	0.0155197
669.514	0.0154570
669.592	0.0155412
669.670	0.0156558
669.748	0.0156738
669.826	0.0156905
669.905	0.0156923
669.983	0.0156995
670.061	0.0157466
670.139	0.0156264
670.217	0.0155323
670.295	0.0155729
670.373	0.0154191
670.451	0.0153047
670.530	0.0153315
670.608	0.0152391
670.686	0.0152424
670.764	0.0152117
670.842	0.0151426
670.920	0.0151025
670.998	0.0152391
671.076	0.0152213
671.155	0.0153078
671.233	0.0152806
671.311	0.0154044
671.389	0.0153318
671.467	0.0154150
671.545	0.0156232
671.623	0.0157976
671.701	0.0157053
671.780	0.0157398
671.858	0.0158334
671.936	0.0158846
672.014	0.0159019
672.092	0.0158406
672.170	0.0157253
672.248	0.0156547
672.326	0.0156518
672.405	0.0155217
672.483	0.0156393
672.561	0.0155637
672.639	0.0155601
672.717	0.0153921
672.795	0.0153591
672.873	0.0153246
672.951	0.0152531
673.030	0.0152345
673.108	0.0151308
673.186	0.0153125
673.264	0.0152819
673.342	0.0152451
673.420	0.0153957
673.498	0.0154039
673.576	0.0153671
673.655	0.0155030
673.733	0.0154527
673.811	0.0155833
673.889	0.0156461
673.967	0.0156019
674.045	0.0156184
674.123	0.0155236
674.201	0.0156203
674.280	0.0156335
674.358	0.0156030
674.436	0.0155748
674.514	0.0155278
674.592	0.0155541
674.670	0.0155520
674.748	0.0154003
674.826	0.0153501
674.905	0.0153297
674.983	0.0153317
675.061	0.0152842
675.139	0.0151419
675.217	0.0151351
675.295	0.0150291
675.373	0.0150402
675.451	0.0152144
675.530	0.0151889
675.608	0.0151408
675.686	0.0150684
675.764	0.0151334
675.842	0.0151900
675.920	0.0152192
675.998	0.0151104
676.076	0.0152415
676.155	0.0154008
676.233	0.0155065
676.311	0.0155536
676.389	0.0156414
676.467	0.0154866
676.545	0.0155183
676.623	0.0157138
676.701	0.0157455
676.780	0.0157577
676.858	0.0156773
676.936	0.0155657
677.014	0.0156126
677.092	0.0155920
677.170	0.0155272
677.248	0.0153772
677.326	0.0154888
677.405	0.0152345
677.483	0.0151694
677.561	0.0151412
677.639	0.0151823
677.717	0.0151347
677.795	0.0150915
677.873	0.0151934
677.951	0.0151331
678.030	0.0151757
678.108	0.0152824
678.186	0.0152270
678.264	0.0152205
678.342	0.0151704
678.420	0.0153195
678.498	0.0152723
678.576	0.0153363
678.655	0.0152227
678.733	0.0152740
678.811	0.0153450
678.889	0.0153001
678.967	0.0153967
679.045	0.0154910
679.123	0.0153496
679.201	0.0153558
679.280	0.0155116
679.358	0.0154517
679.436	0.0154575
679.514	0.0155464
679.592	0.0155367
679.670	0.0156136
679.748	0.0156435
679.826	0.0158196
679.905	0.0159686
679.983	0.0158942
680.061	0.0159569
680.139	0.0160827
680.217	0.0161615
680.295	0.0162939
680.373	0.0162650
680.451	0.0162458
680.530	0.0162697
680.608	0.0161648
680.686	0.0160526
680.764	0.0157621
680.842	0.0159180
680.920	0.0156821
680.998	0.0155152
681.076	0.0154877
681.155	0.0153539
681.233	0.0151698
681.311	0.0150683
681.389	0.0150195
681.467	0.0148571
681.545	0.0148659
681.623	0.0147495
681.701	0.0147531
681.780	0.0147570
681.858	0.0147373
681.936	0.0147469
682.014	0.0147495
682.092	0.0148864
682.170	0.0148333
682.248	0.0150761
682.326	0.0150362
682.405	0.0151178
682.483	0.0152862
682.561	0.0152652
682.639	0.0153674
682.717	0.0154788
682.795	0.0154362
682.873	0.0154528
682.951	0.0154621
683.030	0.0155316
683.108	0.0154307
683.186	0.0154661
683.264	0.0153336
683.342	0.0152502
683.420	0.0151154
683.498	0.0149940
683.576	0.0150047
683.655	0.0149325
683.733	0.0148151
683.811	0.0147308
683.889	0.0147431
683.967	0.0146777
684.045	0.0147059
684.123	0.0146413
684.201	0.0145915
684.280	0.0147071
684.358	0.0146484
684.436	0.0148211
684.514	0.0150037
684.592	0.0150794
684.670	0.0150433
684.748	0.0152553
684.826	0.0152383
684.905	0.0155147
684.983	0.0156421
685.061	0.0156532
685.139	0.0157693
685.217	0.0159621
685.295	0.0160256
685.373	0.0159784
685.451	0.0161408
685.530	0.0160511
685.608	0.0161149
685.686	0.0161127
685.764	0.0160406
685.842	0.0159016
685.920	0.0159144
685.998	0.0158629
686.076	0.0157261
686.155	0.0155208
686.233	0.0156475
686.311	0.0155466
686.389	0.0155737
686.467	0.0155743
686.545	0.0155794
686.623	0.0154527
686.701	0.0153793
686.780	0.0154512
686.858	0.0155130
686.936	0.0155003
687.014	0.0155605
687.092	0.0155924
687.170	0.0154994
687.248	0.0154872
687.326	0.0155735
687.405	0.0155511
687.483	0.0156145
687.561	0.0155286
687.639	0.0155341
687.717	0.0155895
687.795	0.0154533
687.873	0.0155838
687.951	0.0156145
688.030	0.0156812
688.108	0.0156282
688.186	0.0157211
688.264	0.0158318
688.342	0.0159538
688.420	0.0160241
688.498	0.0159785
688.576	0.0160437
688.655	0.0162484
688.733	0.0161382
688.811	0.0160522
688.889	0.0159844
688.967	0.0159663
689.045	0.0157539
689.123	0.0155785
689.201	0.0153004
689.280	0.0152461
689.358	0.0151855
689.436	0.0148676
689.514	0.0146691
689.592	0.0145303
689.670	0.0144191
689.748	0.0143082
689.826	0.0142931
689.905	0.0143536
689.983	0.0143391
690.061	0.0143188
690.139	0.0145044
690.217	0.0145461
690.295	0.0146343
690.373	0.0151254
690.451	0.0152337
690.530	0.0153467
690.608	0.0157992
690.686	0.0158841
690.764	0.0160690
690.842	0.0163579
690.920	0.0166032
690.998	0.0166473
691.076	0.0168816
691.155	0.0168680
691.233	0.0168575
691.311	0.0168264
691.389	0.0166450
691.467	0.0167752
691.545	0.0164474
691.623	0.0163201
691.701	0.0161945
691.780	0.0160001
691.858	0.0158231
691.936	0.0158286
692.014	0.0155614
692.092	0.0153249
692.170	0.0151735
692.248	0.0150005
692.326	0.0149838
692.405	0.0148525
692.483	0.0147771
692.561	0.0145206
692.639	0.0146509
692.717	0.0144882
692.795	0.0144669
692.873	0.0144162
692.951	0.0145137
693.030	0.0145869
693.108	0.0144307
693.186	0.0146802
693.264	0.0147573
693.342	0.0148911
693.420	0.0148564
693.498	0.0150710
693.576	0.0150825
693.655	0.0154145
693.733	0.0154008
693.811	0.0155592
693.889	0.0157326
693.967	0.0157018
694.045	0.0157561
694.123	0.0156208
694.201	0.0157507
694.280	0.0155943
694.358	0.0154623
694.436	0.0153887
694.514	0.0153886
694.592	0.0152950
694.670	0.0150908
694.748	0.0150335
694.826	0.0149839
694.905	0.0150252
694.983	0.0149388
695.061	0.0150513
695.139	0.0151659
695.217	0.0153084
695.295	0.0154755
695.373	0.0156267
695.451	0.0158043
695.530	0.0158719
695.608	0.0158720
695.686	0.0159574
695.764	0.0159998
695.842	0.0161892
695.920	0.0161266
695.998	0.0161755
696.076	0.0161095
696.155	0.0161092
696.233	0.0161998
696.311	0.0159998
696.389	0.0160940
696.467	0.0160815
696.545	0.0159470
696.623	0.0159019
696.701	0.0158437
696.780	0.0158400
696.858	0.0157531
696.936	0.0156058
697.014	0.0156618
697.092	0.0156340
697.170	0.0154021
697.248	0.0155180
697.326	0.0156787
697.405	0.0156003
697.483	0.0156049
697.561	0.0157483
697.639	0.0158739
697.717	0.0159628
697.795	0.0157779
697.873	0.0160410
697.951	0.0158811
698.030	0.0160611
698.108	0.0160940
698.186	0.0160055
698.264	0.0161890
698.342	0.0161962
698.420	0.0161705
698.498	0.0160973
698.576	0.0160504
698.655	0.0159091
698.733	0.0159489
698.811	0.0154409
698.889	0.0152740
698.967	0.0149651
699.045	0.0148006
699.123	0.0147101
699.201	0.0144569
699.280	0.0143517
699.358	0.0142437
699.436	0.0140521
699.514	0.0140097
699.592	0.0141898
699.670	0.0140947
699.748	0.0141521
699.826	0.0141630
699.905	0.0144401
699.983	0.0145473
700.061	0.0145787
700.139	0.0146790
700.217	0.0147594
700.295	0.0148399
700.373	0.0149162
700.451	0.0150097
700.530	0.0150204
700.608	0.0152119
700.686	0.0151348
700.764	0.0150740
700.842	0.0152316
700.920	0.0151804
700.998	0.0152481
701.076	0.0151631
701.155	0.0152181
701.233	0.0153056
701.311	0.0153281
701.389	0.0154488
701.467	0.0155331
701.545	0.0153625
701.623	0.0153946
701.701	0.0154047
701.780	0.0155177
701.858	0.0154602
701.936	0.0157272
702.014	0.0155419
702.092	0.0155920
702.170	0.0156604
702.248	0.0155479
702.326	0.0156203
702.405	0.0156805
702.483	0.0156184
702.561	0.0157475
702.639	0.0158791
702.717	0.0158516
702.795	0.0157533
702.873	0.0160202
702.951	0.0158988
703.030	0.0158743
703.108	0.0159870
703.186	0.0159187
703.264	0.0160526
703.342	0.0160947
703.420	0.0161495
703.498	0.0161401
703.576	0.0161277
703.655	0.0163109
703.733	0.0162415
703.811	0.0163905
703.889	0.0163517
703.967	0.0162818
704.045	0.0162325
704.123	0.0164352
704.201	0.0164768
704.280	0.0165056
704.358	0.0164047
704.436	0.0162342
704.514	0.0163165
704.592	0.0162298
704.670	0.0161742
704.748	0.0161542
704.826	0.0159225
704.905	0.0158508
704.983	0.0157335
705.061	0.0155795
705.139	0.0156336
705.217	0.0154266
705.295	0.0153739
705.373	0.0152441
705.451	0.0150753
705.530	0.0149522
705.608	0.0147163
705.686	0.0146232
705.764	0.0143044
705.842	0.0143152
705.920	0.0140359
705.998	0.0138012
706.076	0.0134650
706.155	0.0134943
706.233	0.0133136
706.311	0.0131111
706.389	0.0130347
706.467	0.0130225
706.545	0.0129479
706.623	0.0130247
706.701	0.0129185
706.780	0.0129697
706.858	0.0130820
706.936	0.0132578
707.014	0.0132085
707.092	0.0135191
707.170	0.0137344
707.248	0.0140713
707.326	0.0142319
707.405	0.0146631
707.483	0.0149297
707.561	0.0152350
707.639	0.0154498
707.717	0.0157114
707.795	0.0160797
707.873	0.0165306
707.951	0.0166669
708.030	0.0168568
708.108	0.0173512
708.186	0.0174733
708.264	0.0175938
708.342	0.0178862
708.420	0.0180689
708.498	0.0182511
708.576	0.0181904
708.655	0.0182664
708.733	0.0182776
708.811	0.0182156
708.889	0.0182417
708.967	0.0180838
709.045	0.0178080
709.123	0.0177568
709.201	0.0177001
709.280	0.0174745
709.358	0.0172778
709.436	0.0170802
709.514	0.0169667
709.592	0.0168168
709.670	0.0165692
709.748	0.0164523
709.826	0.0162856
709.905	0.0160078
709.983	0.0157278
710.061	0.0155931
710.139	0.0153317
710.217	0.0152377
710.295	0.0148573
710.373	0.0145715
710.451	0.0142779
710.530	0.0141550
710.608	0.0138699
710.686	0.0137716
710.764	0.0137000
710.842	0.0135621
710.920	0.0135813
710.998	0.0135560
711.076	0.0137849
711.155	0.0138268
711.233	0.0139142
711.311	0.0141566
711.389	0.0143699
711.467	0.0146828
711.545	0.0149945
711.623	0.0151277
711.701	0.0153399
711.780	0.0155176
711.858	0.0157153
711.936	0.0157855
712.014	0.0158858
712.092	0.0159788
712.170	0.0159226
712.248	0.0157761
712.326	0.0157645
712.405	0.0156895
712.483	0.0154412
712.561	0.0151284
712.639	0.0150385
712.717	0.0148264
712.795	0.0144938
712.873	0.0143321
712.951	0.0141152
713.030	0.0137563
713.108	0.0135862
713.186	0.0132735
713.264	0.0132221
713.342	0.0132013
713.420	0.0130841
713.498	0.0131707
713.576	0.0133238
713.655	0.0135336
713.733	0.0137144
713.811	0.0140495
713.889	0.0143047
713.967	0.0145816
714.045	0.0150475
714.123	0.0154904
714.201	0.0158086
714.280	0.0161522
714.358	0.0165295
714.436	0.0169031
714.514	0.0171546
714.592	0.0174430
714.670	0.0175950
714.748	0.0176428
714.826	0.0178662
714.905	0.0179026
714.983	0.0180290
715.061	0.0180595
715.139	0.0181461
715.217	0.0181026
715.295	0.0180390
715.373	0.0180627
715.451	0.0179989
715.530	0.0178861
715.608	0.0181301
715.686	0.0176852
715.764	0.0176145
715.842	0.0175120
715.920	0.0173869
715.998	0.0171410
716.076	0.0168693
716.155	0.0165996
716.233	0.0163757
716.311	0.0162512
716.389	0.0161353
716.467	0.0158581
716.545	0.0157184
716.623	0.0155815
716.701	0.0153532
716.780	0.0152222
716.858	0.0151111
716.936	0.0149628
717.014	0.0147319
717.092	0.0147459
717.170	0.0144728
717.248	0.0143526
717.326	0.0142385
717.405	0.0141056
717.483	0.0138129
717.561	0.0137722
717.639	0.0137063
717.717	0.0135519
717.795	0.0134796
717.873	0.0136157
717.951	0.0135040
718.030	0.0134879
718.108	0.0134392
718.186	0.0134829
718.264	0.0134922
718.342	0.0136441
718.420	0.0138223
718.498	0.0139620
718.576	0.0141671
718.655	0.0144335
718.733	0.0147096
718.811	0.0149582
718.889	0.0153522
718.967	0.0155245
719.045	0.0157629
719.123	0.0158990
719.201	0.0161378
719.280	0.0161122
719.358	0.0161108
719.436	0.0162313
719.514	0.0161489
719.592	0.0159046
719.670	0.0158763
719.748	0.0158685
719.826	0.0155466
719.905	0.0152557
719.983	0.0150700
720.061	0.0149002
720.139	0.0147057
720.217	0.0144726
720.295	0.0144209
720.373	0.0144656
720.451	0.0143416
720.530	0.0143929
720.608	0.0143033
720.686	0.0144619
720.764	0.0147797
720.842	0.0147722
720.920	0.0150949
720.998	0.0153110
721.076	0.0155891
721.155	0.0161624
721.233	0.0164616
721.311	0.0167694
721.389	0.0168698
721.467	0.0173423
721.545	0.0174390
721.623	0.0176924
721.701	0.0178987
721.780	0.0180359
721.858	0.0181210
721.936	0.0180463
722.014	0.0180689
722.092	0.0179107
722.170	0.0179279
722.248	0.0175810
722.326	0.0176177
722.405	0.0173032
722.483	0.0170821
722.561	0.0170225
722.639	0.0165854
722.717	0.0165891
722.795	0.0163276
722.873	0.0162295
722.951	0.0161016
723.030	0.0160354
723.108	0.0158486
723.186	0.0158463
723.264	0.0157113
723.342	0.0156751
723.420	0.0155300
723.498	0.0156777
723.576	0.0155052
723.655	0.0155817
723.733	0.0155505
723.811	0.0153720
723.889	0.0154990
723.967	0.0152869
724.045	0.0149576
724.123	0.0148466
724.201	0.0147403
724.280	0.0144571
724.358	0.0142342
724.436	0.0138603
724.514	0.0137534
724.592	0.0134373
724.670	0.0132339
724.748	0.0130098
724.826	0.0128054
724.905	0.0126090
724.983	0.0125610
725.061	0.0124781
725.139	0.0124755
725.217	0.0125546
725.295	0.0127142
725.373	0.0129897
725.451	0.0130125
725.530	0.0132572
725.608	0.0137109
725.686	0.0138544
725.764	0.0141941
725.842	0.0145733
725.920	0.0148989
725.998	0.0153424
726.076	0.0154526
726.155	0.0158749
726.233	0.0160077
726.311	0.0161400
726.389	0.0163963
726.467	0.0166598
726.545	0.0167072
726.623	0.0166106
726.701	0.0166881
726.780	0.0166317
726.858	0.0165280
726.936	0.0164078
727.014	0.0163959
727.092	0.0161319
727.170	0.0159946
727.248	0.0158831
727.326	0.0155921
727.405	0.0153568
727.483	0.0152817
727.561	0.0152827
727.639	0.0151149
727.717	0.0150010
727.795	0.0151410
727.873	0.0151427
727.951	0.0150968
728.030	0.0153075
728.108	0.0154910
728.186	0.0157628
728.264	0.0159207
728.342	0.0162167
728.420	0.0163259
728.498	0.0166068
728.576	0.0170115
728.655	0.0172682
728.733	0.0171998
728.811	0.0173689
728.889	0.0172677
728.967	0.0173821
729.045	0.0173148
729.123	0.0172630
729.201	0.0171180
729.280	0.0169701
729.358	0.0169775
729.436	0.0169480
729.514	0.0167033
729.592	0.0164545
729.670	0.0163992
729.748	0.0164420
729.826	0.0163024
729.905	0.0161558
729.983	0.0161245
730.061	0.0160832
730.139	0.0161172
730.217	0.0161205
730.295	0.0160108
730.373	0.0159730
730.451	0.0158362
730.530	0.0158592
730.608	0.0159012
730.686	0.0158626
730.764	0.0158363
730.842	0.0155231
730.920	0.0154459
730.998	0.0152251
731.076	0.0148853
731.155	0.0145097
731.233	0.0143291
731.311	0.0139729
731.389	0.0137464
731.467	0.0133978
731.545	0.0132004
731.623	0.0129110
731.701	0.0125958
731.780	0.0124027
731.858	0.0124214
731.936	0.0123845
732.014	0.0122065
732.092	0.0124932
732.170	0.0125719
732.248	0.0127042
732.326	0.0127431
732.405	0.0129314
732.483	0.0132933
732.561	0.0135363
732.639	0.0137347
732.717	0.0140400
732.795	0.0143309
732.873	0.0145331
732.951	0.0148245
733.030	0.0151963
733.108	0.0153970
733.186	0.0157513
733.264	0.0159116
733.342	0.0162198
733.420	0.0164306
733.498	0.0166191
733.576	0.0169627
733.655	0.0170367
733.733	0.0171457
733.811	0.0171729
733.889	0.0172585
733.967	0.0172427
734.045	0.0172717
734.123	0.0171188
734.201	0.0169889
734.280	0.0167669
734.358	0.0167138
734.436	0.0166871
734.514	0.0164571
734.592	0.0159825
734.670	0.0160669
734.748	0.0158535
734.826	0.0157493
734.905	0.0156023
734.983	0.0154792
735.061	0.0154406
735.139	0.0154092
735.217	0.0154922
735.295	0.0154900
735.373	0.0155418
735.451	0.0158054
735.530	0.0159409
735.608	0.0160372
735.686	0.0160881
735.764	0.0161885
735.842	0.0162158
735.920	0.0163622
735.998	0.0162946
736.076	0.0163808
736.155	0.0161881
736.233	0.0161424
736.311	0.0159974
736.389	0.0160566
736.467	0.0159237
736.545	0.0158362
736.623	0.0157180
736.701	0.0157182
736.780	0.0155602
736.858	0.0157726
736.936	0.0156590
737.014	0.0156615
737.092	0.0156677
737.170	0.0157761
737.248	0.0158173
737.326	0.0158652
737.405	0.0159210
737.483	0.0158109
737.561	0.0158096
737.639	0.0157218
737.717	0.0156184
737.795	0.0156020
737.873	0.0153788
737.951	0.0153233
738.030	0.0150057
738.108	0.0149502
738.186	0.0148662
738.264	0.0146032
738.342	0.0145009
738.420	0.0143640
738.498	0.0141234
738.576	0.0141998
738.655	0.0140041
738.733	0.0138382
738.811	0.0137079
738.889	0.0136851
738.967	0.0137174
739.045	0.0135129
739.123	0.0135571
739.201	0.0136357
739.280	0.0136502
739.358	0.0138203
739.436	0.0137798
739.514	0.0137725
739.592	0.0139462
739.670	0.0139770
739.748	0.0140103
739.826	0.0141845
739.905	0.0144107
739.983	0.0147011
740.061	0.0147980
740.139	0.0148643
740.217	0.0152434
740.295	0.0154385
740.373	0.0155591
740.451	0.0157784
740.530	0.0161100
740.608	0.0163506
740.686	0.0165652
740.764	0.0168188
740.842	0.0169612
740.920	0.0170457
740.998	0.0170491
741.076	0.0172708
741.155	0.0171598
741.233	0.0170963
741.311	0.0170939
741.389	0.0169673
741.467	0.0169186
741.545	0.0166833
741.623	0.0165868
741.701	0.0165667
741.780	0.0162972
741.858	0.0161926
741.936	0.0159514
742.014	0.0157613
742.092	0.0155682
742.170	0.0154034
742.248	0.0154957
742.326	0.0151867
742.405	0.0150212
742.483	0.0150333
742.561	0.0151917
742.639	0.0151826
742.717	0.0151787
742.795	0.0152200
742.873	0.0152987
742.951	0.0155755
743.030	0.0155936
743.108	0.0157646
743.186	0.0158574
743.264	0.0159702
743.342	0.0159953
743.420	0.0161387
743.498	0.0160934
743.576	0.0162495
743.655	0.0162795
743.733	0.0163209
743.811	0.0162085
743.889	0.0162461
743.967	0.0160960
744.045	0.0160573
744.123	0.0161407
744.201	0.0160062
744.280	0.0160521
744.358	0.0160040
744.436	0.0158346
744.514	0.0159121
744.592	0.0160091
744.670	0.0157732
744.748	0.0155852
744.826	0.0156800
744.905	0.0155313
744.983	0.0153821
745.061	0.0153672
745.139	0.0153199
745.217	0.0150925
745.295	0.0149146
745.373	0.0149603
745.451	0.0146714
745.530	0.0145932
745.608	0.0146327
745.686	0.0145026
745.764	0.0144560
745.842	0.0144716
745.920	0.0143201
745.998	0.0143455
746.076	0.0142643
746.155	0.0142628
746.233	0.0142782
746.311	0.0142604
746.389	0.0141517
746.467	0.0143999
746.545	0.0143555
746.623	0.0143618
746.701	0.0143984
746.780	0.0144762
746.858	0.0143602
746.936	0.0143910
747.014	0.0143964
747.092	0.0143932
747.170	0.0145794
747.248	0.0144930
747.326	0.0146722
747.405	0.0147732
747.483	0.0148870
747.561	0.0151534
747.639	0.0154401
747.717	0.0154228
747.795	0.0157082
747.873	0.0159309
747.951	0.0159863
748.030	0.0163396
748.108	0.0164436
748.186	0.0165860
748.264	0.0168537
748.342	0.0168452
748.420	0.0168655
748.498	0.0169969
748.576	0.0168675
748.655	0.0168590
748.733	0.0168937
748.811	0.0168363
748.889	0.0167956
748.967	0.0167233
749.045	0.0166629
749.123	0.0163699
749.201	0.0162288
749.280	0.0159609
749.358	0.0157416
749.436	0.0154694
749.514	0.0152684
749.592	0.0152100
749.670	0.0151038
749.748	0.0147748
749.826	0.0147495
749.905	0.0146619
749.983	0.0145440
750.061	0.0146890
750.139	0.0147369
750.217	0.0148105
750.295	0.0151601
750.373	0.0150753
750.451	0.0153053
750.530	0.0155426
750.608	0.0155885
750.686	0.0157631
750.764	0.0158591
750.842	0.0159978
750.920	0.0161458
750.998	0.0163445
751.076	0.0162102
751.155	0.0161783
751.233	0.0162589
751.311	0.0160911
751.389	0.0160752
751.467	0.0161378
751.545	0.0159885
751.623	0.0159566
751.701	0.0159560
751.780	0.0159027
751.858	0.0158946
751.936	0.0158382
752.014	0.0158311
752.092	0.0157832
752.170	0.0157565
752.248	0.0157009
752.326	0.0154906
752.405	0.0155779
752.483	0.0152623
752.561	0.0153484
752.639	0.0150452
752.717	0.0150642
752.795	0.0149596
752.873	0.0147238
752.951	0.0146658
753.030	0.0144822
753.108	0.0144759
753.186	0.0143449
753.264	0.0143463
753.342	0.0144229
753.420	0.0143426
753.498	0.0142802
753.576	0.0145570
753.655	0.0144165
753.733	0.0143652
753.811	0.0144640
753.889	0.0145048
753.967	0.0145123
754.045	0.0145307
754.123	0.0145575
754.201	0.0145060
754.280	0.0145075
754.358	0.0145933
754.436	0.0144528
754.514	0.0143462
754.592	0.0144824
754.670	0.0143568
754.748	0.0144403
754.826	0.0146799
754.905	0.0147021
754.983	0.0147240
755.061	0.0149924
755.139	0.0151176
755.217	0.0152883
755.295	0.0154831
755.373	0.0154797
755.451	0.0158631
755.530	0.0161674
755.608	0.0163530
755.686	0.0164322
755.764	0.0166232
755.842	0.0166148
755.920	0.0167048
755.998	0.0168138
756.076	0.0168168
756.155	0.0168803
756.233	0.0169328
756.311	0.0167732
756.389	0.0165540
756.467	0.0163348
756.545	0.0163640
756.623	0.0161223
756.701	0.0159442
756.780	0.0155994
756.858	0.0154784
756.936	0.0152561
757.014	0.0151156
757.092	0.0149458
757.170	0.0149109
757.248	0.0148262
757.326	0.0148158
757.405	0.0145439
757.483	0.0147270
757.561	0.0146931
757.639	0.0147620
757.717	0.0148862
757.795	0.0150697
757.873	0.0152554
757.951	0.0152571
758.030	0.0153929
758.108	0.0155922
758.186	0.0156663
758.264	0.0157689
758.342	0.0159451
758.420	0.0158363
758.498	0.0158941
758.576	0.0160338
758.655	0.0160986
758.733	0.0161598
758.811	0.0160555
758.889	0.0160171
758.967	0.0159235
759.045	0.0159864
759.123	0.0159804
759.201	0.0158909
759.280	0.0159666
759.358	0.0159129
759.436	0.0159277
759.514	0.0157757
759.592	0.0157642
759.670	0.0154293
759.748	0.0154486
759.826	0.0155075
759.905	0.0153156
759.983	0.0151260
760.061	0.0150540
760.139	0.0149197
760.217	0.0147881
760.295	0.0146078
760.373	0.0145509
760.451	0.0144801
760.530	0.0145178
760.608	0.0144741
760.686	0.0145693
760.764	0.0145203
760.842	0.0146050
760.920	0.0146185
760.998	0.0147240
761.076	0.0147215
761.155	0.0147290
761.233	0.0149375
761.311	0.0149522
761.389	0.0151233
761.467	0.0150799
761.545	0.0151289
761.623	0.0150944
761.701	0.0150487
761.780	0.0148891
761.858	0.0149265
761.936	0.0148946
762.014	0.0148448
762.092	0.0147323
762.170	0.0144685
762.248	0.0148016
762.326	0.0146703
762.405	0.0146432
762.483	0.0146024
762.561	0.0148123
762.639	0.0150344
762.717	0.0150836
762.795	0.0152415
762.873	0.0154700
762.951	0.0154227
763.030	0.0156145
763.108	0.0157549
763.186	0.0158518
763.264	0.0160501
763.342	0.0162125
763.420	0.0162302
763.498	0.0163690
763.576	0.0163620
763.655	0.0162817
763.733	0.0163993
763.811	0.0162777
763.889	0.0161744
763.967	0.0162648
764.045	0.0162161
764.123	0.0159801
764.201	0.0159868
764.280	0.0158180
764.358	0.0157150
764.436	0.0156812
764.514	0.0154123
764.592	0.0154672
764.670	0.0152964
764.748	0.0152516
764.826	0.0151123
764.905	0.0148550
764.983	0.0150986
765.061	0.0149509
765.139	0.0149660
765.217	0.0150056
765.295	0.0153177
765.373	0.0152715
765.451	0.0153377
765.530	0.0154027
765.608	0.0155882
765.686	0.0156197
765.764	0.0156032
765.842	0.0158308
765.920	0.0159411
765.998	0.0160146
766.076	0.0161234
766.155	0.0159908
766.233	0.0159881
766.311	0.0159626
766.389	0.0161284
766.467	0.0160784
766.545	0.0159974
766.623	0.0161362
766.701	0.0160109
766.780	0.0158908
766.858	0.0160522
766.936	0.0160466
767.014	0.0158379
767.092	0.0158120
767.170	0.0157124
767.248	0.0154783
767.326	0.0153790
767.405	0.0152876
767.483	0.0151547
767.561	0.0150381
767.639	0.0149024
767.717	0.0147458
767.795	0.0148205
767.873	0.0147491
767.951	0.0147544
768.030	0.0144009
768.108	0.0147137
768.186	0.0147366
768.264	0.0145398
768.342	0.0147285
768.420	0.0146858
768.498	0.0149075
768.576	0.0149556
768.655	0.0150350
768.733	0.0152257
768.811	0.0151378
768.889	0.0153595
768.967	0.0151514
769.045	0.0153599
769.123	0.0152050
769.201	0.0151537
769.280	0.0153936
769.358	0.0149886
769.436	0.0149605
769.514	0.0149425
769.592	0.0150366
769.670	0.0149345
769.748	0.0148785
769.826	0.0148595
769.905	0.0149564
769.983	0.0150580
770.061	0.0151189
770.139	0.0152663
770.217	0.0152821
770.295	0.0152341
770.373	0.0154104
770.451	0.0157111
770.530	0.0158345
770.608	0.0157474
770.686	0.0158950
770.764	0.0160490
770.842	0.0159393
770.920	0.0160826
770.998	0.0161588
771.076	0.0159616
771.155	0.0160946
771.233	0.0159496
771.311	0.0158297
771.389	0.0158759
771.467	0.0160154
771.545	0.0159653
771.623	0.0158298
771.701	0.0157817
771.780	0.0156894
771.858	0.0155928
771.936	0.0155441
772.014	0.0155041
772.092	0.0153540
772.170	0.0154827
772.248	0.0155180
772.326	0.0154468
772.405	0.0152644
772.483	0.0153919
772.561	0.0152969
772.639	0.0154593
772.717	0.0153864
772.795	0.0154803
772.873	0.0153973
772.951	0.0154736
773.030	0.0154417
773.108	0.0156015
773.186	0.0155174
773.264	0.0155325
773.342	0.0156618
773.420	0.0157617
773.498	0.0158176
773.576	0.0157089
773.655	0.0159328
773.733	0.0159586
773.811	0.0159772
773.889	0.0159866
773.967	0.0159836
774.045	0.0159711
774.123	0.0160603
774.201	0.0160365
774.280	0.0161124
774.358	0.0159388
774.436	0.0157765
774.514	0.0158067
774.592	0.0157089
774.670	0.0156742
774.748	0.0153789
774.826	0.0155004
774.905	0.0152684
774.983	0.0151006
775.061	0.0149810
775.139	0.0148876
775.217	0.0148110
775.295	0.0147984
775.373	0.0146169
775.451	0.0145624
775.530	0.0146127
775.608	0.0146312
775.686	0.0147055
775.764	0.0148492
775.842	0.0149654
775.920	0.0149200
775.998	0.0149576
776.076	0.0151327
776.155	0.0152238
776.233	0.0152681
776.311	0.0152637
776.389	0.0153576
776.467	0.0153961
776.545	0.0153812
776.623	0.0152962
776.701	0.0153413
776.780	0.0151918
776.858	0.0150410
776.936	0.0150317
777.014	0.0151704
777.092	0.0149911
777.170	0.0148796
777.248	0.0148849
777.326	0.0148706
777.405	0.0149599
777.483	0.0149232
777.561	0.0150405
777.639	0.0150791
777.717	0.0152950
777.795	0.0153860
777.873	0.0153425
777.951	0.0156422
778.030	0.0155256
778.108	0.0155730
778.186	0.0157046
778.264	0.0157780
778.342	0.0159254
778.420	0.0158057
778.498	0.0158640
778.576	0.0158170
778.655	0.0158844
778.733	0.0158616
778.811	0.0157837
778.889	0.0156789
778.967	0.0158379
779.045	0.0156276
779.123	0.0155335
779.201	0.0154647
779.280	0.0154978
779.358	0.0155299
779.436	0.0154382
779.514	0.0154488
779.592	0.0154227
779.670	0.0153165
779.748	0.0155084
779.826	0.0154163
779.905	0.0154091
779.983	0.0153698
780.061	0.0153854
780.139	0.0152897
780.217	0.0153185
780.295	0.0152367
780.373	0.0152332
780.451	0.0153831
780.530	0.0151756
780.608	0.0153442
780.686	0.0152079
780.764	0.0153139
780.842	0.0152813
780.920	0.0152830
780.998	0.0154340
781.076	0.0154765
781.155	0.0155322
781.233	0.0155406
781.311	0.0155682
781.389	0.0156335
781.467	0.0157572
781.545	0.0157967
781.623	0.0158246
781.701	0.0159692
781.780	0.0160297
781.858	0.0159875
781.936	0.0160801
782.014	0.0158681
782.092	0.0158553
782.170	0.0157749
782.248	0.0156000
782.326	0.0157084
782.405	0.0154672
782.483	0.0152199
782.561	0.0152613
782.639	0.0150633
782.717	0.0149423
782.795	0.0149928
782.873	0.0147603
782.951	0.0148309
783.030	0.0148626
783.108	0.0149660
783.186	0.0149168
783.264	0.0147477
783.342	0.0149683
783.420	0.0151611
783.498	0.0150578
783.576	0.0152074
783.655	0.0152583
783.733	0.0153254
783.811	0.0153146
783.889	0.0154579
783.967	0.0155067
784.045	0.0153572
784.123	0.0153395
784.201	0.0153732
784.280	0.0154507
784.358	0.0153891
784.436	0.0151936
784.514	0.0152246
784.592	0.0151230
784.670	0.0150718
784.748	0.0148987
784.826	0.0149919
784.905	0.0149912
784.983	0.0148592
785.061	0.0149383
785.139	0.0149723
785.217	0.0150925
785.295	0.0150962
785.373	0.0151969
785.451	0.0153141
785.530	0.0153714
785.608	0.0153978
785.686	0.0155636
785.764	0.0156767
785.842	0.0155597
785.920	0.0156040
785.998	0.0156662
786.076	0.0155730
786.155	0.0155465
786.233	0.0156390
786.311	0.0156138
786.389	0.0156223
786.467	0.0156937
786.545	0.0155735
786.623	0.0154301
786.701	0.0154829
786.780	0.0153766
786.858	0.0155228
786.936	0.0155299
787.014	0.0155972
787.092	0.0156044
787.170	0.0156519
787.248	0.0156628
787.326	0.0156744
787.405	0.0155924
787.483	0.0158153
787.561	0.0156337
787.639	0.0155683
787.717	0.0157346
787.795	0.0156572
787.873	0.0157309
787.951	0.0155704
788.030	0.0156370
788.108	0.0157548
788.186	0.0155893
788.264	0.0155502
788.342	0.0157829
788.420	0.0155924
788.498	0.0158071
788.576	0.0156889
788.655	0.0156890
788.733	0.0156908
788.811	0.0157465
788.889	0.0156330
788.967	0.0157690
789.045	0.0156788
789.123	0.0157339
789.201	0.0156464
789.280	0.0156538
789.358	0.0158656
789.436	0.0156693
789.514	0.0156318
789.592	0.0157001
789.670	0.0155275
789.748	0.0155705
789.826	0.0155063
789.905	0.0154162
789.983	0.0155448
790.061	0.0153352
790.139	0.0152662
790.217	0.0150716
790.295	0.0150081
790.373	0.0149893
790.451	0.0149975
790.530	0.0149873
790.608	0.0149023
790.686	0.0148746
790.764	0.0149913
790.842	0.0149748
790.920	0.0148983
790.998	0.0150726
791.076	0.0148996
791.155	0.0151675
791.233	0.0150957
791.311	0.0153316
791.389	0.0153190
791.467	0.0152898
791.545	0.0154366
791.623	0.0155862
791.701	0.0153963
791.780	0.0155217
791.858	0.0155778
791.936	0.0154699
792.014	0.0154837
792.092	0.0153719
792.170	0.0153152
792.248	0.0153697
792.326	0.0154604
792.405	0.0152499
792.483	0.0151836
792.561	0.0152675
792.639	0.0153319
792.717	0.0153003
792.795	0.0153316
792.873	0.0152470
792.951	0.0152480
793.030	0.0152833
793.108	0.0151940
793.186	0.0152388
793.264	0.0153182
793.342	0.0153330
793.420	0.0154436
793.498	0.0154436
793.576	0.0155235
793.655	0.0156946
793.733	0.0155235
793.811	0.0156313
793.889	0.0157499
793.967	0.0157764
794.045	0.0156924
794.123	0.0158138
794.201	0.0157465
794.280	0.0156955
794.358	0.0156816
794.436	0.0158392
794.514	0.0157522
794.592	0.0156247
794.670	0.0155562
794.748	0.0155785
794.826	0.0154145
794.905	0.0154179
794.983	0.0155070
795.061	0.0154316
795.139	0.0154816
795.217	0.0153606
795.295	0.0154446
795.373	0.0153196
795.451	0.0153692
795.530	0.0155546
795.608	0.0153558
795.686	0.0154108
795.764	0.0155011
795.842	0.0154066
795.920	0.0154499
795.998	0.0155473
796.076	0.0155362
796.155	0.0154728
796.233	0.0156040
796.311	0.0154608
796.389	0.0153885
796.467	0.0153915
796.545	0.0154130
796.623	0.0154822
796.701	0.0154565
796.780	0.0155350
796.858	0.0154906
796.936	0.0154815
797.014	0.0154999
797.092	0.0154263
797.170	0.0154420
797.248	0.0154897
797.326	0.0156165
797.405	0.0156731
797.483	0.0155948
797.561	0.0155042
797.639	0.0155566
797.717	0.0154627
797.795	0.0153065
797.873	0.0154152
797.951	0.0153827
798.030	0.0152238
798.108	0.0150600
798.186	0.0150663
798.264	0.0149836
798.342	0.0149246
798.420	0.0147989
798.498	0.0148205
798.576	0.0148255
798.655	0.0148564
798.733	0.0148697
798.811	0.0149706
798.889	0.0150006
798.967	0.0151253
799.045	0.0150092
799.123	0.0151542
799.201	0.0153520
799.280	0.0152512
799.358	0.0153762
799.436	0.0154455
799.514	0.0154613
799.592	0.0155251
799.670	0.0155736
799.748	0.0156286
799.826	0.0155389
799.905	0.0157205
799.983	0.0156718
800.061	0.0156725
800.139	0.0155681
800.217	0.0155644
800.295	0.0154269
800.373	0.0155540
800.451	0.0154479
800.530	0.0153676
800.608	0.0154769
800.686	0.0155001
800.764	0.0155495
800.842	0.0155239
800.920	0.0153304
800.998	0.0154359
801.076	0.0155202
801.155	0.0155524
801.233	0.0155426
801.311	0.0155407
801.389	0.0156251
801.467	0.0156442
801.545	0.0156783
801.623	0.0155633
801.701	0.0156464
801.780	0.0156524
801.858	0.0156348
801.936	0.0157023
802.014	0.0156730
802.092	0.0156116
802.170	0.0155679
802.248	0.0154482
802.326	0.0154489
802.405	0.0154710
802.483	0.0153178
802.561	0.0153127
802.639	0.0152844
802.717	0.0152703
802.795	0.0151546
802.873	0.0151078
802.951	0.0151559
803.030	0.0152800
803.108	0.0151882
803.186	0.0150102
803.264	0.0151037
803.342	0.0152066
803.420	0.0151175
803.498	0.0151389
803.576	0.0150999
803.655	0.0151047
803.733	0.0151232
803.811	0.0152023
803.889	0.0151033
803.967	0.0152466
804.045	0.0152417
804.123	0.0152749
804.201	0.0154072
804.280	0.0154102
804.358	0.0155396
804.436	0.0157188
804.514	0.0157664
804.592	0.0156779
804.670	0.0159455
804.748	0.0158201
804.826	0.0161068
804.905	0.0160785
804.983	0.0160709
805.061	0.0161959
805.139	0.0162219
805.217	0.0160732
805.295	0.0161310
805.373	0.0161429
805.451	0.0160403
805.530	0.0159974
805.608	0.0160114
805.686	0.0158241
805.764	0.0158076
805.842	0.0158929
805.920	0.0158361
805.998	0.0155555
806.076	0.0156744
806.155	0.0154289
806.233	0.0154059
806.311	0.0153925
806.389	0.0153534
806.467	0.0152592
806.545	0.0153057
806.623	0.0152877
806.701	0.0151212
806.780	0.0151821
806.858	0.0152099
806.936	0.0153034
807.014	0.0152319
807.092	0.0151311
807.170	0.0150904
807.248	0.0153334
807.326	0.0152538
807.405	0.0152029
807.483	0.0153481
807.561	0.0152352
807.639	0.0151668
807.717	0.0151369
807.795	0.0152349
807.873	0.0152099
807.951	0.0151360
808.030	0.0152703
808.108	0.0152932
808.186	0.0153375
808.264	0.0152029
808.342	0.0152177
808.420	0.0152892
808.498	0.0154269
808.576	0.0153309
808.655	0.0154009
808.733	0.0154234
808.811	0.0153773
808.889	0.0153291
808.967	0.0152819
809.045	0.0155074
809.123	0.0155461
809.201	0.0153347
809.280	0.0151738
809.358	0.0154196
809.436	0.0154034
809.514	0.0152594
809.592	0.0152917
809.670	0.0152247
809.748	0.0152557
809.826	0.0153079
809.905	0.0152776
809.983	0.0153648
810.061	0.0154118
810.139	0.0153564
810.217	0.0153045
810.295	0.0153056
810.373	0.0153036
810.451	0.0154015
810.530	0.0153762
810.608	0.0155391
810.686	0.0155115
810.764	0.0155080
810.842	0.0156196
810.920	0.0155753
810.998	0.0156814
811.076	0.0158350
811.155	0.0156882
811.233	0.0157197
811.311	0.0157441
811.389	0.0159666
811.467	0.0158311
811.545	0.0155851
811.623	0.0158679
811.701	0.0159698
811.780	0.0159892
811.858	0.0159638
811.936	0.0160784
812.014	0.0158447
812.092	0.0160223
812.170	0.0160474
812.248	0.0159436
812.326	0.0159406
812.405	0.0161060
812.483	0.0159708
812.561	0.0159975
812.639	0.0160655
812.717	0.0158878
812.795	0.0159416
812.873	0.0159162
812.951	0.0156915
813.030	0.0157087
813.108	0.0158549
813.186	0.0156804
813.264	0.0156554
813.342	0.0153732
813.420	0.0154469
813.498	0.0153124
813.576	0.0152091
813.655	0.0152155
813.733	0.0151058
813.811	0.0151309
813.889	0.0150626
813.967	0.0149595
814.045	0.0149254
814.123	0.0149371
814.201	0.0147880
814.280	0.0146658
814.358	0.0147814
814.436	0.0147442
814.514	0.0146844
814.592	0.0148318
814.670	0.0146965
814.748	0.0146693
814.826	0.0146738
814.905	0.0148953
814.983	0.0149397
815.061	0.0149664
815.139	0.0149791
815.217	0.0149459
815.295	0.0151210
815.373	0.0150513
815.451	0.0151729
815.530	0.0153912
815.608	0.0152255
815.686	0.0155128
815.764	0.0154118
815.842	0.0153436
815.920	0.0154649
815.998	0.0153867
816.076	0.0154166
816.155	0.0155562
816.233	0.0154519
816.311	0.0155082
816.389	0.0155874
816.467	0.0154793
816.545	0.0154374
816.623	0.0154905
816.701	0.0153922
816.780	0.0154248
816.858	0.0155801
816.936	0.0155058
817.014	0.0154935
817.092	0.0155067
817.170	0.0155362
817.248	0.0155961
817.326	0.0157565
817.405	0.0155869
817.483	0.0154693
817.561	0.0155754
817.639	0.0157940
817.717	0.0156713
817.795	0.0155494
817.873	0.0156187
817.951	0.0157574
818.030	0.0158062
818.108	0.0156942
818.186	0.0157207
818.264	0.0157697
818.342	0.0158704
818.420	0.0159007
818.498	0.0159977
818.576	0.0159307
818.655	0.0160683
818.733	0.0160469
818.811	0.0159881
818.889	0.0158576
818.967	0.0158815
819.045	0.0158147
819.123	0.0157929
819.201	0.0158749
819.280	0.0156445
819.358	0.0156310
819.436	0.0155457
819.514	0.0154453
819.592	0.0153845
819.670	0.0154744
819.748	0.0154486
819.826	0.0154082
819.905	0.0152540
819.983	0.0153072
820.061	0.0152180
820.139	0.0152142
820.217	0.0153030
820.295	0.0153508
820.373	0.0152358
820.451	0.0153922
820.530	0.0154721
820.608	0.0154307
820.686	0.0153419
820.764	0.0153881
820.842	0.0153809
820.920	0.0153439
820.998	0.0151454
821.076	0.0153220
821.155	0.0151487
821.233	0.0151328
821.311	0.0151191
821.389	0.0150087
821.467	0.0150482
821.545	0.0149053
821.623	0.0149774
821.701	0.0149801
821.780	0.0149651
821.858	0.0149251
821.936	0.0148312
822.014	0.0148772
822.092	0.0148942
822.170	0.0149450
822.248	0.0149309
822.326	0.0150842
822.405	0.0153080
822.483	0.0152129
822.561	0.0152947
822.639	0.0155389
822.717	0.0154105
822.795	0.0155515
822.873	0.0154719
822.951	0.0155728
823.030	0.0156488
823.108	0.0156802
823.186	0.0156794
823.264	0.0156838
823.342	0.0157338
823.420	0.0158328
823.498	0.0157469
823.576	0.0157169
823.655	0.0157413
823.733	0.0157104
823.811	0.0156557
823.889	0.0157785
823.967	0.0156361
824.045	0.0156114
824.123	0.0155597
824.201	0.0156972
824.280	0.0154981
824.358	0.0154941
824.436	0.0155506
824.514	0.0154204
824.592	0.0154702
824.670	0.0154965
824.748	0.0154430
824.826	0.0156555
824.905	0.0157016
824.983	0.0155484
825.061	0.0155882
825.139	0.0157835
825.217	0.0157137
825.295	0.0157870
825.373	0.0158107
825.451	0.0157059
825.530	0.0158134
825.608	0.0157599
825.686	0.0158257
825.764	0.0157107
825.842	0.0156664
825.920	0.0156707
825.998	0.0156174
826.076	0.0155363
826.155	0.0156097
826.233	0.0155348
826.311	0.0155991
826.389	0.0157084
826.467	0.0154918
826.545	0.0155079
826.623	0.0153742
826.701	0.0155670
826.780	0.0155927
826.858	0.0155488
826.936	0.0156339
827.014	0.0154962
827.092	0.0155344
827.170	0.0154984
827.248	0.0154276
827.326	0.0154250
827.405	0.0154272
827.483	0.0153662
827.561	0.0153620
827.639	0.0153577
827.717	0.0151881
827.795	0.0149464
827.873	0.0151620
827.951	0.0151493
828.030	0.0150549
828.108	0.0149345
828.186	0.0151169
828.264	0.0149219
828.342	0.0150187
828.420	0.0149641
828.498	0.0151441
828.576	0.0151604
828.655	0.0150836
828.733	0.0148903
828.811	0.0150669
828.889	0.0151958
828.967	0.0151454
829.045	0.0152269
829.123	0.0153748
829.201	0.0154144
829.280	0.0153812
829.358	0.0155175
829.436	0.0154627
829.514	0.0155227
829.592	0.0154902
829.670	0.0155990
829.748	0.0156928
829.826	0.0155760
829.905	0.0155074
829.983	0.0156374
830.061	0.0158339
830.139	0.0157193
830.217	0.0158999
830.295	0.0157986
830.373	0.0157967
830.451	0.0159107
830.530	0.0159013
830.608	0.0158360
830.686	0.0158327
830.764	0.0157233
830.842	0.0158399
830.920	0.0158678
830.998	0.0158495
831.076	0.0157299
831.155	0.0156907
831.233	0.0156383
831.311	0.0156688
831.389	0.0156694
831.467	0.0156609
831.545	0.0156721
831.623	0.0155573
831.701	0.0154887
831.780	0.0155300
831.858	0.0155235
831.936	0.0154670
832.014	0.0155910
832.092	0.0154742
832.170	0.0154855
832.248	0.0153631
832.326	0.0154778
832.405	0.0154045
832.483	0.0153732
832.561	0.0153860
832.639	0.0154266
832.717	0.0156021
832.795	0.0154027
832.873	0.0155161
832.951	0.0154481
833.030	0.0154285
833.108	0.0155024
833.186	0.0153996
833.264	0.0153970
833.342	0.0154205
833.420	0.0153265
833.498	0.0153634
833.576	0.0152555
833.655	0.0154395
833.733	0.0154196
833.811	0.0153878
833.889	0.0152514
833.967	0.0152108
834.045	0.0151744
834.123	0.0153029
834.201	0.0153479
834.280	0.0152081
834.358	0.0151990
834.436	0.0154550
834.514	0.0154104
834.592	0.0154516
834.670	0.0155066
834.748	0.0155167
834.826	0.0154348
834.905	0.0155396
834.983	0.0155721
835.061	0.0155623
835.139	0.0155919
835.217	0.0155283
835.295	0.0155473
835.373	0.0156210
835.451	0.0155685
835.530	0.0153756
835.608	0.0154652
835.686	0.0154089
835.764	0.0153941
835.842	0.0154289
835.920	0.0154115
835.998	0.0152730
836.076	0.0153148
836.155	0.0153365
836.233	0.0153684
836.311	0.0153712
836.389	0.0153840
836.467	0.0155687
836.545	0.0155721
836.623	0.0154963
836.701	0.0155924
836.780	0.0157079
836.858	0.0157464
836.936	0.0157523
837.014	0.0159053
837.092	0.0158197
837.170	0.0158240
837.248	0.0157476
837.326	0.0158596
837.405	0.0159280
837.483	0.0159148
837.561	0.0158357
837.639	0.0157433
837.717	0.0157435
837.795	0.0159020
837.873	0.0156516
837.951	0.0155955
838.030	0.0156838
838.108	0.0157223
838.186	0.0157679
838.264	0.0155655
838.342	0.0156070
838.420	0.0155706
838.498	0.0154442
838.576	0.0153741
838.655	0.0154598
838.733	0.0153674
838.811	0.0154836
838.889	0.0153188
838.967	0.0153084
839.045	0.0153085
839.123	0.0153598
839.201	0.0152763
839.280	0.0152735
839.358	0.0152643
839.436	0.0153038
839.514	0.0154453
839.592	0.0152988
839.670	0.0153108
839.748	0.0153326
839.826	0.0152383
839.905	0.0152673
839.983	0.0152932
840.061	0.0153107
840.139	0.0154369
840.217	0.0152695
840.295	0.0153725
840.373	0.0153611
840.451	0.0152923
840.530	0.0153991
840.608	0.0153130
840.686	0.0153360
840.764	0.0153507
840.842	0.0152918
840.920	0.0153430
840.998	0.0152623
841.076	0.0153341
841.155	0.0155359
841.233	0.0154613
841.311	0.0154924
841.389	0.0155072
841.467	0.0155275
841.545	0.0155297
841.623	0.0155891
841.701	0.0155800
841.780	0.0156296
841.858	0.0154901
841.936	0.0155240
842.014	0.0155507
842.092	0.0155039
842.170	0.0154536
842.248	0.0155438
842.326	0.0154966
842.405	0.0155357
842.483	0.0154820
842.561	0.0153625
842.639	0.0153007
842.717	0.0154356
842.795	0.0153793
842.873	0.0154079
842.951	0.0155534
843.030	0.0154198
843.108	0.0154574
843.186	0.0153659
843.264	0.0151635
843.342	0.0152774
843.420	0.0154147
843.498	0.0153669
843.576	0.0153064
843.655	0.0152797
843.733	0.0152695
843.811	0.0153014
843.889	0.0154136
843.967	0.0153340
844.045	0.0152987
844.123	0.0153976
844.201	0.0154015
844.280	0.0154372
844.358	0.0154253
844.436	0.0155054
844.514	0.0154627
844.592	0.0155367
844.670	0.0155178
844.748	0.0155487
844.826	0.0154008
844.905	0.0155086
844.983	0.0155755
845.061	0.0156168
845.139	0.0155259
845.217	0.0153775
845.295	0.0156788
845.373	0.0155784
845.451	0.0155896
845.530	0.0155698
845.608	0.0154257
845.686	0.0155017
845.764	0.0153933
845.842	0.0153841
845.920	0.0153523
845.998	0.0153723
846.076	0.0153970
846.155	0.0154404
846.233	0.0153812
846.311	0.0153074
846.389	0.0154120
846.467	0.0152966
846.545	0.0152937
846.623	0.0153663
846.701	0.0154518
846.780	0.0152959
846.858	0.0152074
846.936	0.0153790
847.014	0.0153672
847.092	0.0152900
847.170	0.0152396
847.248	0.0152319
847.326	0.0153460
847.405	0.0152800
847.483	0.0152767
847.561	0.0153185
847.639	0.0152329
847.717	0.0153463
847.795	0.0153675
847.873	0.0155079
847.951	0.0154774
848.030	0.0154544
848.108	0.0154607
848.186	0.0155737
848.264	0.0157391
848.342	0.0154134
848.420	0.0156432
848.498	0.0155835
848.576	0.0155518
848.655	0.0154461
848.733	0.0156657
848.811	0.0157232
848.889	0.0156462
848.967	0.0155860
849.045	0.0155324
849.123	0.0155008
849.201	0.0156085
849.280	0.0155029
849.358	0.0153352
849.436	0.0153658
849.514	0.0154536
849.592	0.0155172
849.670	0.0154610
849.748	0.0154485
849.826	0.0154704
849.905	0.0153307
849.983	0.0153290
850.061	0.0153850
850.139	0.0153192
850.217	0.0152137
850.295	0.0152643
850.373	0.0153625
850.451	0.0153008
850.530	0.0154613
850.608	0.0152486
850.686	0.0152082
850.764	0.0151923
850.842	0.0152721
850.920	0.0153965
850.998	0.0154946
851.076	0.0152714
851.155	0.0152258
851.233	0.0154785
851.311	0.0154163
851.389	0.0152669
851.467	0.0153766
851.545	0.0153721
851.623	0.0153232
851.701	0.0153687
851.780	0.0154101
851.858	0.0153860
851.936	0.0153268
852.014	0.0153417
852.092	0.0154559
852.170	0.0155547
852.248	0.0155669
852.326	0.0153180
852.405	0.0154912
852.483	0.0156569
852.561	0.0155669
852.639	0.0155362
852.717	0.0155460
852.795	0.0157188
852.873	0.0156197
852.951	0.0156578
853.030	0.0158797
853.108	0.0157986
853.186	0.0156515
853.264	0.0154655
853.342	0.0157982
853.420	0.0156553
853.498	0.0156342
853.576	0.0156675
853.655	0.0155193
853.733	0.0155229
853.811	0.0155338
853.889	0.0154313
853.967	0.0153793
854.045	0.0154182
854.123	0.0154198
854.201	0.0153610
854.280	0.0154498
854.358	0.0153043
854.436	0.0153225
854.514	0.0153782
854.592	0.0154805
854.670	0.0152225
854.748	0.0153730
854.826	0.0153599
854.905	0.0153535
854.983	0.0152533
855.061	0.0153172
855.139	0.0154109
855.217	0.0155511
855.295	0.0154849
855.373	0.0153909
855.451	0.0154354
855.530	0.0153423
855.608	0.0155557
855.686	0.0153295
855.764	0.0154191
855.842	0.0153996
855.920	0.0153490
855.998	0.0153163
856.076	0.0152822
856.155	0.0153307
856.233	0.0152135
856.311	0.0151562
856.389	0.0151266
856.467	0.0152442
856.545	0.0153334
856.623	0.0153613
856.701	0.0151852
856.780	0.0152026
856.858	0.0152179
856.936	0.0152692
857.014	0.0153151
857.092	0.0153271
857.170	0.0153069
857.248	0.0152563
857.326	0.0151965
857.405	0.0153985
857.483	0.0152460
857.561	0.0153326
857.639	0.0152575
857.717	0.0153468
857.795	0.0151693
857.873	0.0152158
857.951	0.0152750
858.030	0.0153275
858.108	0.0152518
858.186	0.0152619
858.264	0.0152554
858.342	0.0151955
858.420	0.0150435
858.498	0.0152866
858.576	0.0152911
858.655	0.0152245
858.733	0.0152919
858.811	0.0152924
858.889	0.0152426
858.967	0.0151534
859.045	0.0153270
859.123	0.0153564
859.201	0.0154193
859.280	0.0154544
859.358	0.0154816
859.436	0.0155509
859.514	0.0154153
859.592	0.0155460
859.670	0.0156137
859.748	0.0155181
859.826	0.0156304
859.905	0.0156261
859.983	0.0155659
860.061	0.0155206
860.139	0.0157105
860.217	0.0157350
860.295	0.0155704
860.373	0.0156783
860.451	0.0156370
860.530	0.0156525
860.608	0.0155315
860.686	0.0156133
860.764	0.0155488
860.842	0.0153172
860.920	0.0154672
860.998	0.0154054
861.076	0.0153143
861.155	0.0154145
861.233	0.0153778
861.311	0.0152850
861.389	0.0151565
861.467	0.0153919
861.545	0.0152216
861.623	0.0151358
861.701	0.0151705
861.780	0.0154010
861.858	0.0154095
861.936	0.0153788
862.014	0.0154135
862.092	0.0152903
862.170	0.0153173
862.248	0.0154940
862.326	0.0154557
862.405	0.0154312
862.483	0.0154905
862.561	0.0153559
862.639	0.0154608
862.717	0.0153218
862.795	0.0154016
862.873	0.0154317
862.951	0.0154449
863.030	0.0154704
863.108	0.0153058
863.186	0.0152947
863.264	0.0154358
863.342	0.0153335
863.420	0.0152847
863.498	0.0154195
863.576	0.0152135
863.655	0.0152107
863.733	0.0152207
863.811	0.0153022
863.889	0.0153381
863.967	0.0153297
864.045	0.0153067
864.123	0.0154255
864.201	0.0155762
864.280	0.0153661
864.358	0.0155183
864.436	0.0155452
864.514	0.0154400
864.592	0.0155679
864.670	0.0156351
864.748	0.0155870
864.826	0.0156095
864.905	0.0155812
864.983	0.0155611
865.061	0.0156536
865.139	0.0155219
865.217	0.0155510
865.295	0.0156266
865.373	0.0155068
865.451	0.0154417
865.530	0.0154353
865.608	0.0155242
865.686	0.0154942
865.764	0.0154644
865.842	0.0153223
865.920	0.0153649
865.998	0.0155090
866.076	0.0154211
866.155	0.0151778
866.233	0.0153177
866.311	0.0154147
866.389	0.0154064
866.467	0.0155164
866.545	0.0154420
866.623	0.0153606
866.701	0.0155039
866.780	0.0155222
866.858	0.0153902
866.936	0.0155784
867.014	0.0155347
867.092	0.0154278
867.170	0.0154665
867.248	0.0155902
867.326	0.0156316
867.405	0.0154955
867.483	0.0156599
867.561	0.0156355
867.639	0.0156686
867.717	0.0154728
867.795	0.0155264
867.873	0.0154730
867.951	0.0156381
868.030	0.0155341
868.108	0.0154725
868.186	0.0154244
868.264	0.0155292
868.342	0.0154726
868.420	0.0155476
868.498	0.0153210
868.576	0.0154718
868.655	0.0152808
868.733	0.0154601
868.811	0.0154201
868.889	0.0154268
868.967	0.0154239
869.045	0.0155320
869.123	0.0154086
869.201	0.0153014
869.280	0.0154515
869.358	0.0154993
869.436	0.0155019
869.514	0.0155840
869.592	0.0154698
869.670	0.0156161
869.748	0.0155586
869.826	0.0154070
869.905	0.0154379
869.983	0.0154276
870.061	0.0155467
870.139	0.0154170
870.217	0.0155453
870.295	0.0153442
870.373	0.0153992
870.451	0.0154362
870.530	0.0153445
870.608	0.0153030
870.686	0.0153680
870.764	0.0154623
870.842	0.0155064
870.920	0.0154191
870.998	0.0154066
871.076	0.0154803
871.155	0.0154086
871.233	0.0154123
871.311	0.0154406
871.389	0.0153259
871.467	0.0155474
871.545	0.0155028
871.623	0.0155978
871.701	0.0155346
871.780	0.0155865
871.858	0.0155753
871.936	0.0155596
872.014	0.0156034
872.092	0.0155712
872.170	0.0155685
872.248	0.0156662
872.326	0.0154797
872.405	0.0155817
872.483	0.0155098
872.561	0.0154370
872.639	0.0153942
872.717	0.0153189
872.795	0.0153239
872.873	0.0151891
872.951	0.0154105
873.030	0.0153212
873.108	0.0153383
873.186	0.0152126
873.264	0.0152261
873.342	0.0152129
873.420	0.0153096
873.498	0.0152958
873.576	0.0152409
873.655	0.0152824
873.733	0.0153375
873.811	0.0152701
873.889	0.0153324
873.967	0.0152661
874.045	0.0154491
874.123	0.0154092
874.201	0.0154167
874.280	0.0154558
874.358	0.0155495
874.436	0.0153742
874.514	0.0154602
874.592	0.0154588
874.670	0.0155096
874.748	0.0155128
874.826	0.0155420
874.905	0.0154263
874.983	0.0153789
875.061	0.0154175
875.139	0.0154642
875.217	0.0153259
875.295	0.0154282
875.373	0.0154543
875.451	0.0153877
875.530	0.0153376
875.608	0.0154382
875.686	0.0152838
875.764	0.0155413
875.842	0.0153210
875.920	0.0153614
875.998	0.0154216
876.076	0.0155033
876.155	0.0154187
876.233	0.0154182
876.311	0.0154984
876.389	0.0155204
876.467	0.0153788
876.545	0.0154509
876.623	0.0155774
876.701	0.0154228
876.780	0.0155463
876.858	0.0155526
876.936	0.0155621
877.014	0.0154918
877.092	0.0154040
877.170	0.0155038
877.248	0.0156203
877.326	0.0155341
877.405	0.0154018
877.483	0.0154838
877.561	0.0154545
877.639	0.0154439
877.717	0.0153613
877.795	0.0154159
877.873	0.0154028
877.951	0.0154224
878.030	0.0154879
878.108	0.0154150
878.186	0.0154570
878.264	0.0153740
878.342	0.0153865
878.420	0.0155619
878.498	0.0154936
878.576	0.0154919
878.655	0.0154855
878.733	0.0154257
878.811	0.0154845
878.889	0.0154185
878.967	0.0154330
879.045	0.0154733
879.123	0.0154858
879.201	0.0154340
879.280	0.0153371
879.358	0.0153757
879.436	0.0153204
879.514	0.0152525
879.592	0.0154102
879.670	0.0154742
879.748	0.0154408
879.826	0.0152647
879.905	0.0153718
879.983	0.0153956
880.061	0.0153469
880.139	0.0154237
880.217	0.0155136
880.295	0.0153535
880.373	0.0153767
880.451	0.0153970
880.530	0.0155296
880.608	0.0153384
880.686	0.0152703
880.764	0.0153197
880.842	0.0154372
880.920	0.0154417
880.998	0.0153831
881.076	0.0152789
881.155	0.0152802
881.233	0.0153527
881.311	0.0152463
881.389	0.0154307
881.467	0.0153602
881.545	0.0153161
881.623	0.0153729
881.701	0.0153226
881.780	0.0152515
881.858	0.0152625
881.936	0.0154080
882.014	0.0153868
882.092	0.0153757
882.170	0.0153897
882.248	0.0154330
882.326	0.0154416
882.405	0.0155006
882.483	0.0156670
882.561	0.0154815
882.639	0.0155799
882.717	0.0155804
882.795	0.0156226
882.873	0.0156412
882.951	0.0156490
883.030	0.0157800
883.108	0.0156360
883.186	0.0156133
883.264	0.0156696
883.342	0.0156009
883.420	0.0155930
883.498	0.0155331
883.576	0.0155870
883.655	0.0155448
883.733	0.0155224
883.811	0.0155332
883.889	0.0155048
883.967	0.0155208
884.045	0.0155462
884.123	0.0154438
884.201	0.0155132
884.280	0.0154665
884.358	0.0153366
884.436	0.0153224
884.514	0.0153220
884.592	0.0153874
884.670	0.0154473
884.748	0.0155231
884.826	0.0153908
884.905	0.0156353
884.983	0.0155276
885.061	0.0153917
885.139	0.0154716
885.217	0.0154591
885.295	0.0154466
885.373	0.0155061
885.451	0.0154210
885.530	0.0155189
885.608	0.0155682
885.686	0.0155740
885.764	0.0156458
885.842	0.0155601
885.920	0.0155482
885.998	0.0155962
886.076	0.0154446
886.155	0.0152524
886.233	0.0153232
886.311	0.0153543
886.389	0.0153926
886.467	0.0154035
886.545	0.0153494
886.623	0.0154160
886.701	0.0153340
886.780	0.0153562
886.858	0.0153730
886.936	0.0154517
887.014	0.0153920
887.092	0.0151943
887.170	0.0153342
887.248	0.0153057
887.326	0.0152818
887.405	0.0153178
887.483	0.0153356
887.561	0.0153470
887.639	0.0154053
887.717	0.0155791
887.795	0.0154590
887.873	0.0155386
887.951	0.0155108
888.030	0.0155709
888.108	0.0155231
888.186	0.0153866
888.264	0.0154142
888.342	0.0153671
888.420	0.0153081
888.498	0.0152690
888.576	0.0152058
888.655	0.0152968
888.733	0.0153329
888.811	0.0154413
888.889	0.0153088
888.967	0.0153529
889.045	0.0154675
889.123	0.0154263
889.201	0.0155216
889.280	0.0155533
889.358	0.0155261
889.436	0.0155569
889.514	0.0156279
889.592	0.0156604
889.670	0.0156632
889.748	0.0155684
889.826	0.0156668
889.905	0.0155872
889.983	0.0155601
890.061	0.0156197
890.139	0.0155202
890.217	0.0155415
890.295	0.0155210
890.373	0.0153176
890.451	0.0155029
890.530	0.0153877
890.608	0.0153570
890.686	0.0152488
890.764	0.0154626
890.842	0.0153615
890.920	0.0153116
890.998	0.0155252
891.076	0.0154326
891.155	0.0153291
891.233	0.0154240
891.311	0.0155335
891.389	0.0154668
891.467	0.0154679
891.545	0.0155630
891.623	0.0156413
891.701	0.0158038
891.780	0.0156516
891.858	0.0156972
891.936	0.0156871
892.014	0.0155125
892.092	0.0156360
892.170	0.0156641
892.248	0.0155383
892.326	0.0155181
892.405	0.0156397
892.483	0.0155603
892.561	0.0156019
892.639	0.0154633
892.717	0.0154324
892.795	0.0155533
892.873	0.0153336
892.951	0.0153297
893.030	0.0154125
893.108	0.0154692
893.186	0.0153828
893.264	0.0154544
893.342	0.0154124
893.420	0.0153002
893.498	0.0154206
893.576	0.0153574
893.655	0.0154581
893.733	0.0153043
893.811	0.0152854
893.889	0.0155125
893.967	0.0153822
894.045	0.0155116
894.123	0.0154753
894.201	0.0154038
894.280	0.0155327
894.358	0.0154394
894.436	0.0155063
894.514	0.0154645
894.592	0.0155372
894.670	0.0155676
894.748	0.0154021
894.826	0.0155157
894.905	0.0155147
894.983	0.0153143
895.061	0.0154324
895.139	0.0154605
895.217	0.0153697
895.295	0.0154605
895.373	0.0153369
895.451	0.0153381
895.530	0.0154503
895.608	0.0154060
895.686	0.0151562
895.764	0.0153893
895.842	0.0155078
895.920	0.0154157
895.998	0.0152255
896.076	0.0153230
896.155	0.0155235
896.233	0.0153508
896.311	0.0153669
896.389	0.0154812
896.467	0.0155013
896.545	0.0154231
896.623	0.0154314
896.701	0.0155050
896.780	0.0154338
896.858	0.0155194
896.936	0.0154704
897.014	0.0154598
897.092	0.0155228
897.170	0.0154940
897.248	0.0154805
897.326	0.0153802
897.405	0.0154810
897.483	0.0155225
897.561	0.0155180
897.639	0.0154408
897.717	0.0154528
897.795	0.0154213
897.873	0.0153897
897.951	0.0155135
898.030	0.0155212
898.108	0.0154914
898.186	0.0154448
898.264	0.0154894
898.342	0.0153970
898.420	0.0154648
898.498	0.0155904
898.576	0.0155473
898.655	0.0154939
898.733	0.0155846
898.811	0.0155366
898.889	0.0154791
898.967	0.0155099
899.045	0.0154789
899.123	0.0156207
899.201	0.0155812
899.280	0.0155692
899.358	0.0155751
899.436	0.0154095
899.514	0.0154465
899.592	0.0155099
899.670	0.0156160
899.748	0.0155270
899.826	0.0155309
899.905	0.0153790
899.983	0.0154781
900.061	0.0154789
900.139	0.0154749
900.217	0.0155199
900.295	0.0154615
900.373	0.0156203
900.451	0.0155034
900.530	0.0155349
900.608	0.0154680
900.686	0.0155128
900.764	0.0154882
900.842	0.0154053
900.920	0.0154543
900.998	0.0154908
901.076	0.0155962
901.155	0.0155681
901.233	0.0153935
901.311	0.0154955
901.389	0.0154769
901.467	0.0154418
901.545	0.0153621
901.623	0.0154333
901.701	0.0154987
901.780	0.0153568
901.858	0.0152382
901.936	0.0153516
902.014	0.0154632
902.092	0.0153711
902.170	0.0153336
902.248	0.0152576
902.326	0.0153664
902.405	0.0152557
902.483	0.0152464
902.561	0.0154516
902.639	0.0154172
902.717	0.0154664
902.795	0.0153199
902.873	0.0154541
902.951	0.0154140
903.030	0.0155814
903.108	0.0154784
903.186	0.0156080
903.264	0.0154630
903.342	0.0155055
903.420	0.0154807
903.498	0.0153870
903.576	0.0156251
903.655	0.0155370
903.733	0.0154140
903.811	0.0153098
903.889	0.0155235
903.967	0.0155318
904.045	0.0155616
904.123	0.0153884
904.201	0.0153770
904.280	0.0153992
904.358	0.0152651
904.436	0.0154773
904.514	0.0154305
904.592	0.0153507
904.670	0.0154145
904.748	0.0153761
904.826	0.0153180
904.905	0.0153903
904.983	0.0153396
905.061	0.0154129
905.139	0.0154395
905.217	0.0154480
905.295	0.0154556
905.373	0.0153648
905.451	0.0155225
905.530	0.0156414
905.608	0.0155022
905.686	0.0157462
905.764	0.0156055
905.842	0.0155380
905.920	0.0157256
905.998	0.0156947
906.076	0.0156569
906.155	0.0157005
906.233	0.0156358
906.311	0.0155767
906.389	0.0154489
906.467	0.0155426
906.545	0.0155921
906.623	0.0154648
906.701	0.0154027
906.780	0.0155736
906.858	0.0155719
906.936	0.0155412
907.014	0.0154254
907.092	0.0154077
907.170	0.0153687
907.248	0.0153087
907.326	0.0154279
907.405	0.0153699
907.483	0.0151750
907.561	0.0153721
907.639	0.0153951
907.717	0.0153536
907.795	0.0153605
907.873	0.0153730
907.951	0.0154531
908.030	0.0154128
908.108	0.0154253
908.186	0.0153967
908.264	0.0154493
908.342	0.0155174
908.420	0.0155190
908.498	0.0155407
908.576	0.0153642
908.655	0.0156464
908.733	0.0155718
908.811	0.0154971
908.889	0.0156386
908.967	0.0156878
909.045	0.0156430
909.123	0.0157227
909.201	0.0156800
909.280	0.0155505
909.358	0.0156443
909.436	0.0155872
909.514	0.0156980
909.592	0.0156590
909.670	0.0156168
909.748	0.0156728
909.826	0.0156570
909.905	0.0157696
909.983	0.0157236
910.061	0.0156774
910.139	0.0157373
910.217	0.0157353
910.295	0.0157924
910.373	0.0156395
910.451	0.0156709
910.530	0.0155867
910.608	0.0156713
910.686	0.0155490
910.764	0.0155929
910.842	0.0153834
910.920	0.0154509
910.998	0.0153675
911.076	0.0152924
911.155	0.0154989
911.233	0.0151748
911.311	0.0152770
911.389	0.0151112
911.467	0.0152073
911.545	0.0153591
911.623	0.0150827
911.701	0.0151575
911.780	0.0151667
911.858	0.0151769
911.936	0.0151495
912.014	0.0152838
912.092	0.0153256
912.170	0.0153886
912.248	0.0153490
912.326	0.0153140
912.405	0.0153569
912.483	0.0154861
912.561	0.0154860
912.639	0.0156094
912.717	0.0156583
912.795	0.0155798
912.873	0.0156416
912.951	0.0156280
913.030	0.0157144
913.108	0.0157463
913.186	0.0157840
913.264	0.0156624
913.342	0.0156218
913.420	0.0156296
913.498	0.0156739
913.576	0.0155674
913.655	0.0154895
913.733	0.0155504
913.811	0.0154824
913.889	0.0154645
913.967	0.0154145
914.045	0.0154262
914.123	0.0153915
914.201	0.0154305
914.280	0.0155248
914.358	0.0156105
914.436	0.0153771
914.514	0.0154421
914.592	0.0155373
914.670	0.0155234
914.748	0.0156036
914.826	0.0156195
914.905	0.0155457
914.983	0.0156123
915.061	0.0155344
915.139	0.0155938
915.217	0.0155611
915.295	0.0156672
915.373	0.0155998
915.451	0.0156402
915.530	0.0155215
915.608	0.0157392
915.686	0.0156410
915.764	0.0155642
915.842	0.0157188
915.920	0.0156634
915.998	0.0157424
916.076	0.0156010
916.155	0.0156062
916.233	0.0155888
916.311	0.0153524
916.389	0.0154728
916.467	0.0155081
916.545	0.0154696
916.623	0.0154410
916.701	0.0154680
916.780	0.0154778
916.858	0.0155247
916.936	0.0152933
917.014	0.0153706
917.092	0.0154869
917.170	0.0155584
917.248	0.0154327
917.326	0.0154333
917.405	0.0154581
917.483	0.0154365
917.561	0.0154460
917.639	0.0154480
917.717	0.0154182
917.795	0.0154214
917.873	0.0153761
917.951	0.0152621
918.030	0.0153092
918.108	0.0153111
918.186	0.0152648
918.264	0.0152205
918.342	0.0152106
918.420	0.0150301
918.498	0.0151873
918.576	0.0152734
918.655	0.0151691
918.733	0.0151182
918.811	0.0151494
918.889	0.0152623
918.967	0.0152657
919.045	0.0150661
919.123	0.0152087
919.201	0.0152943
919.280	0.0155207
919.358	0.0154187
919.436	0.0154446
919.514	0.0154218
919.592	0.0153492
919.670	0.0156230
919.748	0.0156252
919.826	0.0155891
919.905	0.0157604
919.983	0.0156411
920.061	0.0157356
920.139	0.0157183
920.217	0.0156691
920.295	0.0157347
920.373	0.0157342
920.451	0.0156416
920.530	0.0156958
920.608	0.0155727
920.686	0.0157022
920.764	0.0155763
920.842	0.0154906
920.920	0.0155527
920.998	0.0153310
921.076	0.0154364
921.155	0.0154192
921.233	0.0153879
921.311	0.0154311
921.389	0.0154964
921.467	0.0154688
921.545	0.0154974
921.623	0.0155144
921.701	0.0154185
921.780	0.0154884
921.858	0.0154665
921.936	0.0156148
922.014	0.0155891
922.092	0.0156491
922.170	0.0154499
922.248	0.0156211
922.326	0.0156450
922.405	0.0155383
922.483	0.0156806
922.561	0.0156009
922.639	0.0155206
922.717	0.0155087
922.795	0.0156010
922.873	0.0154880
922.951	0.0153106
923.030	0.0153394
923.108	0.0153905
923.186	0.0153515
923.264	0.0153208
923.342	0.0151995
923.420	0.0153111
923.498	0.0153104
923.576	0.0151008
923.655	0.0152098
923.733	0.0153278
923.811	0.0153905
923.889	0.0153503
923.967	0.0152712
924.045	0.0152750
924.123	0.0152921
924.201	0.0154563
924.280	0.0153934
924.358	0.0153979
924.436	0.0152347
924.514	0.0153484
924.592	0.0155521
924.670	0.0154272
924.748	0.0155270
924.826	0.0154567
924.905	0.0153257
924.983	0.0153674
925.061	0.0154490
925.139	0.0153694
925.217	0.0152923
925.295	0.0152567
925.373	0.0153143
925.451	0.0153208
925.530	0.0153412
925.608	0.0153613
925.686	0.0152049
925.764	0.0153787
925.842	0.0152688
925.920	0.0154572
925.998	0.0154105
926.076	0.0153331
926.155	0.0153218
926.233	0.0155173
926.311	0.0154010
926.389	0.0154086
926.467	0.0154226
926.545	0.0154744
926.623	0.0155799
926.701	0.0156253
926.780	0.0155135
926.858	0.0154914
926.936	0.0155273
927.014	0.0156170
927.092	0.0156061
927.170	0.0156216
927.248	0.0156742
927.326	0.0157065
927.405	0.0155677
927.483	0.0156426
927.561	0.0156818
927.639	0.0157270
927.717	0.0156514
927.795	0.0155451
927.873	0.0156421
927.951	0.0155561
928.030	0.0156107
928.108	0.0156339
928.186	0.0156535
928.264	0.0154908
928.342	0.0155445
928.420	0.0155324
928.498	0.0156873
928.576	0.0154552
928.655	0.0155153
928.733	0.0154630
928.811	0.0155186
928.889	0.0154553
928.967	0.0154619
929.045	0.0155299
929.123	0.0155843
929.201	0.0154202
929.280	0.0155832
929.358	0.0155659
929.436	0.0154726
929.514	0.0155727
929.592	0.0153727
929.670	0.0155814
929.748	0.0154267
929.826	0.0154602
929.905	0.0155853
929.983	0.0156120
930.061	0.0155582
930.139	0.0157027
930.217	0.0155398
930.295	0.0154247
930.373	0.0155939
930.451	0.0155189
930.530	0.0155100
930.608	0.0153996
930.686	0.0154014
930.764	0.0155562
930.842	0.0156021
930.920	0.0155354
930.998	0.0154739
931.076	0.0155465
931.155	0.0155140
931.233	0.0154003
931.311	0.0154689
931.389	0.0154379
931.467	0.0154527
931.545	0.0155759
931.623	0.0153262
931.701	0.0153435
931.780	0.0153770
931.858	0.0154336
931.936	0.0152882
932.014	0.0153465
932.092	0.0153334
932.170	0.0154082
932.248	0.0151690
932.326	0.0151947
932.405	0.0153852
932.483	0.0153999
932.561	0.0153339
932.639	0.0154424
932.717	0.0153513
932.795	0.0153922
932.873	0.0152544
932.951	0.0154646
933.030	0.0155550
933.108	0.0154672
933.186	0.0154115
933.264	0.0153059
933.342	0.0154143
933.420	0.0155044
933.498	0.0154913
933.576	0.0154202
933.655	0.0153706
933.733	0.0153423
933.811	0.0153741
933.889	0.0152306
933.967	0.0152524
934.045	0.0153226
934.123	0.0154288
934.201	0.0154311
934.280	0.0152734
934.358	0.0153437
934.436	0.0154369
934.514	0.0153085
934.592	0.0155157
934.670	0.0154245
934.748	0.0153822
934.826	0.0154037
934.905	0.0155918
934.983	0.0154723
935.061	0.0154849
935.139	0.0155330
935.217	0.0155592
935.295	0.0154352
935.373	0.0155096
935.451	0.0155808
935.530	0.0154732
935.608	0.0154640
935.686	0.0154706
935.764	0.0154729
935.842	0.0154890
935.920	0.0155418
935.998	0.0154819
936.076	0.0154860
936.155	0.0155967
936.233	0.0155865
936.311	0.0155486
936.389	0.0155904
936.467	0.0155814
936.545	0.0156101
936.623	0.0154886
936.701	0.0155835
936.780	0.0155769
936.858	0.0154819
936.936	0.0155988
937.014	0.0156340
937.092	0.0154248
937.170	0.0156373
937.248	0.0155220
937.326	0.0155533
937.405	0.0156360
937.483	0.0154974
937.561	0.0155779
937.639	0.0154873
937.717	0.0155932
937.795	0.0154329
937.873	0.0155688
937.951	0.0155087
938.030	0.0154888
938.108	0.0154456
938.186	0.0154414
938.264	0.0154579
938.342	0.0153798
938.420	0.0154340
938.498	0.0153486
938.576	0.0153750
938.655	0.0154333
938.733	0.0152880
938.811	0.0152985
938.889	0.0153029
938.967	0.0152686
939.045	0.0151144
939.123	0.0152707
939.201	0.0153129
939.280	0.0152345
939.358	0.0152003
939.436	0.0152753
939.514	0.0151638
939.592	0.0151923
939.670	0.0152995
939.748	0.0151759
939.826	0.0151206
939.905	0.0152607
939.983	0.0153565
940.061	0.0153434
940.139	0.0153136
940.217	0.0151496
940.295	0.0154729
940.373	0.0153187
940.451	0.0155002
940.530	0.0153601
940.608	0.0152029
940.686	0.0152475
940.764	0.0154285
940.842	0.0154149
940.920	0.0154330
940.998	0.0153464
941.076	0.0152472
941.155	0.0153751
941.233	0.0152953
941.311	0.0153471
941.389	0.0152364
941.467	0.0154012
941.545	0.0152150
941.623	0.0153941
941.701	0.0153796
941.780	0.0154494
941.858	0.0155014
941.936	0.0155607
942.014	0.0153951
942.092	0.0155345
942.170	0.0154923
942.248	0.0155650
942.326	0.0155946
942.405	0.0155805
942.483	0.0155818
942.561	0.0156390
942.639	0.0154689
942.717	0.0155853
942.795	0.0156343
942.873	0.0157064
942.951	0.0155654
943.030	0.0154945
943.108	0.0155430
943.186	0.0155077
943.264	0.0156379
943.342	0.0156167
943.420	0.0154647
943.498	0.0156644
943.576	0.0155496
943.655	0.0155122
943.733	0.0154906
943.811	0.0154935
943.889	0.0155067
943.967	0.0156437
944.045	0.0155965
944.123	0.0155712
944.201	0.0155633
944.280	0.0154874
944.358	0.0154047
944.436	0.0154249
944.514	0.0153609
944.592	0.0153505
944.670	0.0155520
944.748	0.0153489
944.826	0.0153573
944.905	0.0153770
944.983	0.0152804
945.061	0.0153947
945.139	0.0152506
945.217	0.0152576
945.295	0.0152707
945.373	0.0151574
945.451	0.0152360
945.530	0.0152313
945.608	0.0153732
945.686	0.0153065
945.764	0.0152445
945.842	0.0152481
945.920	0.0153242
945.998	0.0152980
946.076	0.0154156
946.155	0.0153646
946.233	0.0153470
946.311	0.0155245
946.389	0.0155589
946.467	0.0154553
946.545	0.0154103
946.623	0.0154997
946.701	0.0154035
946.780	0.0154263
946.858	0.0155206
946.936	0.0153668
947.014	0.0156027
947.092	0.0154888
947.170	0.0153913
947.248	0.0154496
947.326	0.0154894
947.405	0.0154416
947.483	0.0154582
947.561	0.0154343
947.639	0.0155719
947.717	0.0154552
947.795	0.0153743
947.873	0.0153577
947.951	0.0154765
948.030	0.0154025
948.108	0.0154206
948.186	0.0153539
948.264	0.0153614
948.342	0.0154705
948.420	0.0154800
948.498	0.0154500
948.576	0.0154906
948.655	0.0154472
948.733	0.0155167
948.811	0.0156281
948.889	0.0157227
948.967	0.0155317
949.045	0.0155409
949.123	0.0155526
949.201	0.0154282
949.280	0.0154454
949.358	0.0155941
949.436	0.0156078
949.514	0.0155378
949.592	0.0155160
949.670	0.0154404
949.748	0.0153400
949.826	0.0155293
949.905	0.0155997
949.983	0.0156998
950.061	0.0156029
950.139	0.0156004
950.217	0.0155353
950.295	0.0156231
950.373	0.0154630
950.451	0.0156325
950.530	0.0156712
950.608	0.0155931
950.686	0.0158278
950.764	0.0157231
950.842	0.0155767
950.920	0.0155743
950.998	0.0156346
951.076	0.0155209
951.155	0.0155943
951.233	0.0157388
951.311	0.0154606
951.389	0.0154100
951.467	0.0154358
951.545	0.0154638
951.623	0.0154459
951.701	0.0153360
951.780	0.0153161
951.858	0.0152292
951.936	0.0153065
952.014	0.0152231
952.092	0.0152715
952.170	0.0152850
952.248	0.0152532
952.326	0.0152474
952.405	0.0153624
952.483	0.0153704
952.561	0.0153141
952.639	0.0153587
952.717	0.0153537
952.795	0.0154162
952.873	0.0154258
952.951	0.0155167
953.030	0.0154412
953.108	0.0154062
953.186	0.0154265
953.264	0.0153731
953.342	0.0153905
953.420	0.0154269
953.498	0.0154236
953.576	0.0152750
953.655	0.0155253
953.733	0.0154724
953.811	0.0153776
953.889	0.0152715
953.967	0.0153503
954.045	0.0152537
954.123	0.0152450
954.201	0.0151938
954.280	0.0153294
954.358	0.0152713
954.436	0.0154619
954.514	0.0154862
954.592	0.0154115
954.670	0.0153613
954.748	0.0155736
954.826	0.0154062
954.905	0.0153835
954.983	0.0155032
955.061	0.0155906
955.139	0.0155603
955.217	0.0155856
955.295	0.0155672
955.373	0.0154707
955.451	0.0153924
955.530	0.0155428
955.608	0.0156195
955.686	0.0155685
955.764	0.0154959
955.842	0.0154877
955.920	0.0155930
955.998	0.0155389
956.076	0.0154553
956.155	0.0154202
956.233	0.0154868
956.311	0.0154200
956.389	0.0155020
956.467	0.0153750
956.545	0.0154136
956.623	0.0154793
956.701	0.0154103
956.780	0.0154073
956.858	0.0155695
956.936	0.0154083
957.014	0.0153329
957.092	0.0154031
957.170	0.0154552
957.248	0.0154208
957.326	0.0154992
957.405	0.0154147
957.483	0.0154505
957.561	0.0155106
957.639	0.0153537
957.717	0.0154465
957.795	0.0154028
957.873	0.0155087
957.951	0.0155363
958.030	0.0153896
958.108	0.0156059
958.186	0.0155798
958.264	0.0155062
958.342	0.0154207
958.420	0.0155312
958.498	0.0153902
958.576	0.0153310
958.655	0.0154533
958.733	0.0153762
958.811	0.0154563
958.889	0.0154139
958.967	0.0153253
959.045	0.0153571
959.123	0.0153884
959.201	0.0154104
959.280	0.0153793
959.358	0.0153065
959.436	0.0155134
959.514	0.0155014
959.592	0.0153381
959.670	0.0153542
959.748	0.0152644
959.826	0.0154820
959.905	0.0153847
