05/17/2022	16:52:09	Ver.	4.1	UNKNOWN
Optical Delay	639.982744	Delta X		0.078125	Sweeps	1	Scan Rate	0/0
Coordinates	Axis 1	NaN	Axis 2	NaN	Axis 3	NaN	Axis 4	NaN	Axis 5	NaN	Axis 6	0.000000
TX Power	0.000000	RX Power	0.000000

639.983	0.0154958
640.061	0.0154296
640.139	0.0156102
640.217	0.0154810
640.295	0.0155417
640.373	0.0154929
640.451	0.0155785
640.530	0.0155954
640.608	0.0155273
640.686	0.0155286
640.764	0.0155962
640.842	0.0155036
640.920	0.0155614
640.998	0.0156241
641.076	0.0155260
641.155	0.0154881
641.233	0.0156098
641.311	0.0155628
641.389	0.0155715
641.467	0.0155453
641.545	0.0155994
641.623	0.0155552
641.701	0.0155836
641.780	0.0155146
641.858	0.0155532
641.936	0.0154710
642.014	0.0155421
642.092	0.0156242
642.170	0.0156125
642.248	0.0155899
642.326	0.0156487
642.405	0.0154242
642.483	0.0155386
642.561	0.0156178
642.639	0.0154173
642.717	0.0155560
642.795	0.0156673
642.873	0.0156133
642.951	0.0155666
643.030	0.0154103
643.108	0.0155853
643.186	0.0157223
643.264	0.0156321
643.342	0.0155743
643.420	0.0157160
643.498	0.0154763
643.576	0.0155936
643.655	0.0156052
643.733	0.0156948
643.811	0.0155465
643.889	0.0155799
643.967	0.0155824
644.045	0.0156078
644.123	0.0155668
644.201	0.0156231
644.280	0.0156266
644.358	0.0156348
644.436	0.0155521
644.514	0.0156132
644.592	0.0156470
644.670	0.0155891
644.748	0.0155502
644.826	0.0155955
644.905	0.0156993
644.983	0.0156255
645.061	0.0156558
645.139	0.0156858
645.217	0.0156321
645.295	0.0157757
645.373	0.0156599
645.451	0.0156517
645.530	0.0156201
645.608	0.0156570
645.686	0.0155945
645.764	0.0155468
645.842	0.0156956
645.920	0.0157001
645.998	0.0156957
646.076	0.0155748
646.155	0.0158072
646.233	0.0156905
646.311	0.0155840
646.389	0.0157822
646.467	0.0158018
646.545	0.0156329
646.623	0.0156577
646.701	0.0156402
646.780	0.0156725
646.858	0.0157780
646.936	0.0156460
647.014	0.0156231
647.092	0.0156844
647.170	0.0156570
647.248	0.0157655
647.326	0.0156690
647.405	0.0156337
647.483	0.0156625
647.561	0.0157465
647.639	0.0156295
647.717	0.0156960
647.795	0.0155274
647.873	0.0156314
647.951	0.0157188
648.030	0.0157440
648.108	0.0155816
648.186	0.0156947
648.264	0.0157061
648.342	0.0157017
648.420	0.0157123
648.498	0.0157014
648.576	0.0155847
648.655	0.0156976
648.733	0.0157153
648.811	0.0157084
648.889	0.0157169
648.967	0.0157310
649.045	0.0156871
649.123	0.0156290
649.201	0.0157300
649.280	0.0156111
649.358	0.0157414
649.436	0.0157491
649.514	0.0157299
649.592	0.0156043
649.670	0.0155389
649.748	0.0157610
649.826	0.0156762
649.905	0.0156649
649.983	0.0156570
650.061	0.0156551
650.139	0.0157893
650.217	0.0155627
650.295	0.0156619
650.373	0.0156155
650.451	0.0156628
650.530	0.0156942
650.608	0.0156264
650.686	0.0155197
650.764	0.0156615
650.842	0.0158118
650.920	0.0157067
650.998	0.0156252
651.076	0.0155537
651.155	0.0155768
651.233	0.0157043
651.311	0.0157809
651.389	0.0156295
651.467	0.0156225
651.545	0.0156932
651.623	0.0156688
651.701	0.0156905
651.780	0.0158460
651.858	0.0158443
651.936	0.0156841
652.014	0.0156509
652.092	0.0158259
652.170	0.0156973
652.248	0.0156659
652.326	0.0156355
652.405	0.0157040
652.483	0.0157257
652.561	0.0156187
652.639	0.0156786
652.717	0.0156936
652.795	0.0158132
652.873	0.0156586
652.951	0.0157211
653.030	0.0157164
653.108	0.0154884
653.186	0.0157084
653.264	0.0155921
653.342	0.0156631
653.420	0.0156425
653.498	0.0157021
653.576	0.0155697
653.655	0.0155076
653.733	0.0155755
653.811	0.0155814
653.889	0.0155606
653.967	0.0155156
654.045	0.0157067
654.123	0.0156100
654.201	0.0156902
654.280	0.0156107
654.358	0.0158312
654.436	0.0157884
654.514	0.0156332
654.592	0.0157610
654.670	0.0157203
654.748	0.0157690
654.826	0.0159218
654.905	0.0158336
654.983	0.0158905
655.061	0.0156683
655.139	0.0156774
655.217	0.0157362
655.295	0.0155705
655.373	0.0155352
655.451	0.0155959
655.530	0.0154227
655.608	0.0155360
655.686	0.0155671
655.764	0.0154713
655.842	0.0155105
655.920	0.0154443
655.998	0.0153541
656.076	0.0153111
656.155	0.0154102
656.233	0.0154518
656.311	0.0155125
656.389	0.0155894
656.467	0.0155748
656.545	0.0156452
656.623	0.0158086
656.701	0.0158315
656.780	0.0159135
656.858	0.0157018
656.936	0.0159827
657.014	0.0160735
657.092	0.0159520
657.170	0.0160130
657.248	0.0158334
657.326	0.0156782
657.405	0.0158687
657.483	0.0157537
657.561	0.0156158
657.639	0.0155850
657.717	0.0154256
657.795	0.0152898
657.873	0.0153467
657.951	0.0152879
658.030	0.0152621
658.108	0.0153561
658.186	0.0152619
658.264	0.0152537
658.342	0.0152576
658.420	0.0152569
658.498	0.0154313
658.576	0.0155042
658.655	0.0155060
658.733	0.0156313
658.811	0.0156733
658.889	0.0155853
658.967	0.0156776
659.045	0.0157854
659.123	0.0157901
659.201	0.0158609
659.280	0.0158518
659.358	0.0158913
659.436	0.0159497
659.514	0.0159058
659.592	0.0157716
659.670	0.0157187
659.748	0.0157419
659.826	0.0156527
659.905	0.0155264
659.983	0.0154665
660.061	0.0153645
660.139	0.0153114
660.217	0.0153648
660.295	0.0153355
660.373	0.0153523
660.451	0.0153501
660.530	0.0153265
660.608	0.0152887
660.686	0.0153217
660.764	0.0153400
660.842	0.0153227
660.920	0.0153207
660.998	0.0155212
661.076	0.0154266
661.155	0.0155036
661.233	0.0157251
661.311	0.0156433
661.389	0.0156339
661.467	0.0158672
661.545	0.0157630
661.623	0.0157465
661.701	0.0157630
661.780	0.0156441
661.858	0.0157330
661.936	0.0157524
662.014	0.0157169
662.092	0.0156329
662.170	0.0155561
662.248	0.0155118
662.326	0.0156008
662.405	0.0155013
662.483	0.0155218
662.561	0.0153531
662.639	0.0153285
662.717	0.0155602
662.795	0.0154655
662.873	0.0156018
662.951	0.0154114
663.030	0.0154873
663.108	0.0155199
663.186	0.0154382
663.264	0.0155018
663.342	0.0154958
663.420	0.0155534
663.498	0.0154781
663.576	0.0155714
663.655	0.0154953
663.733	0.0154639
663.811	0.0154877
663.889	0.0155321
663.967	0.0156492
664.045	0.0155436
664.123	0.0156112
664.201	0.0156728
664.280	0.0156902
664.358	0.0156942
664.436	0.0156721
664.514	0.0155981
664.592	0.0156236
664.670	0.0156352
664.748	0.0157781
664.826	0.0155207
664.905	0.0155080
664.983	0.0156345
665.061	0.0156512
665.139	0.0155594
665.217	0.0156709
665.295	0.0156487
665.373	0.0156668
665.451	0.0156486
665.530	0.0154092
665.608	0.0155762
665.686	0.0155412
665.764	0.0153955
665.842	0.0153828
665.920	0.0154469
665.998	0.0154022
666.076	0.0154486
666.155	0.0155007
666.233	0.0155125
666.311	0.0154584
666.389	0.0154471
666.467	0.0155309
666.545	0.0156729
666.623	0.0156472
666.701	0.0155758
666.780	0.0156062
666.858	0.0157825
666.936	0.0157397
667.014	0.0158649
667.092	0.0157552
667.170	0.0156763
667.248	0.0157626
667.326	0.0158045
667.405	0.0156982
667.483	0.0158396
667.561	0.0157436
667.639	0.0156229
667.717	0.0156182
667.795	0.0155777
667.873	0.0155961
667.951	0.0155740
668.030	0.0155696
668.108	0.0155903
668.186	0.0156157
668.264	0.0155254
668.342	0.0155153
668.420	0.0155445
668.498	0.0155560
668.576	0.0155111
668.655	0.0155677
668.733	0.0156010
668.811	0.0155157
668.889	0.0156668
668.967	0.0157522
669.045	0.0159175
669.123	0.0156264
669.201	0.0157479
669.280	0.0157281
669.358	0.0158051
669.436	0.0157497
669.514	0.0158212
669.592	0.0156764
669.670	0.0155745
669.748	0.0157345
669.826	0.0156634
669.905	0.0157024
669.983	0.0157251
670.061	0.0156651
670.139	0.0154718
670.217	0.0156844
670.295	0.0154762
670.373	0.0156103
670.451	0.0154251
670.530	0.0153616
670.608	0.0154927
670.686	0.0155660
670.764	0.0157344
670.842	0.0155620
670.920	0.0157082
670.998	0.0156563
671.076	0.0157032
671.155	0.0157350
671.233	0.0157262
671.311	0.0157024
671.389	0.0156401
671.467	0.0158827
671.545	0.0157132
671.623	0.0157527
671.701	0.0156497
671.780	0.0156563
671.858	0.0156750
671.936	0.0154572
672.014	0.0153976
672.092	0.0154939
672.170	0.0154451
672.248	0.0154621
672.326	0.0153456
672.405	0.0153616
672.483	0.0152550
672.561	0.0153574
672.639	0.0152019
672.717	0.0153044
672.795	0.0153757
672.873	0.0153808
672.951	0.0155769
673.030	0.0155549
673.108	0.0155635
673.186	0.0155408
673.264	0.0156879
673.342	0.0157455
673.420	0.0158285
673.498	0.0157931
673.576	0.0158150
673.655	0.0158809
673.733	0.0157355
673.811	0.0157165
673.889	0.0157387
673.967	0.0158141
674.045	0.0157947
674.123	0.0158144
674.201	0.0157787
674.280	0.0157663
674.358	0.0157307
674.436	0.0156807
674.514	0.0156928
674.592	0.0157907
674.670	0.0157940
674.748	0.0157588
674.826	0.0157593
674.905	0.0157352
674.983	0.0158855
675.061	0.0159988
675.139	0.0158342
675.217	0.0159180
675.295	0.0160332
675.373	0.0159767
675.451	0.0160218
675.530	0.0161633
675.608	0.0162746
675.686	0.0162807
675.764	0.0160920
675.842	0.0160551
675.920	0.0160598
675.998	0.0159440
676.076	0.0159402
676.155	0.0156962
676.233	0.0157290
676.311	0.0156628
676.389	0.0155897
676.467	0.0155453
676.545	0.0155697
676.623	0.0155167
676.701	0.0154401
676.780	0.0154966
676.858	0.0154478
676.936	0.0153806
677.014	0.0155259
677.092	0.0154811
677.170	0.0152470
677.248	0.0155220
677.326	0.0157004
677.405	0.0156496
677.483	0.0154606
677.561	0.0156655
677.639	0.0157404
677.717	0.0157325
677.795	0.0156047
677.873	0.0157036
677.951	0.0158203
678.030	0.0158105
678.108	0.0159043
678.186	0.0159281
678.264	0.0158013
678.342	0.0157299
678.420	0.0157275
678.498	0.0157857
678.576	0.0158554
678.655	0.0156954
678.733	0.0157394
678.811	0.0155824
678.889	0.0155877
678.967	0.0156123
679.045	0.0155825
679.123	0.0154966
679.201	0.0154063
679.280	0.0153768
679.358	0.0154357
679.436	0.0153127
679.514	0.0152618
679.592	0.0153200
679.670	0.0151701
679.748	0.0150110
679.826	0.0148804
679.905	0.0149451
679.983	0.0149193
680.061	0.0148008
680.139	0.0148959
680.217	0.0149116
680.295	0.0147517
680.373	0.0147720
680.451	0.0148037
680.530	0.0149664
680.608	0.0147801
680.686	0.0147964
680.764	0.0151673
680.842	0.0151294
680.920	0.0151542
680.998	0.0153098
681.076	0.0154758
681.155	0.0155312
681.233	0.0156564
681.311	0.0158177
681.389	0.0158321
681.467	0.0159858
681.545	0.0161658
681.623	0.0159426
681.701	0.0162393
681.780	0.0162955
681.858	0.0162238
681.936	0.0161917
682.014	0.0162279
682.092	0.0163026
682.170	0.0162746
682.248	0.0160602
682.326	0.0161087
682.405	0.0160110
682.483	0.0159303
682.561	0.0158897
682.639	0.0158402
682.717	0.0158270
682.795	0.0157710
682.873	0.0157799
682.951	0.0156722
683.030	0.0155347
683.108	0.0157934
683.186	0.0155958
683.264	0.0157591
683.342	0.0158900
683.420	0.0158627
683.498	0.0158515
683.576	0.0158807
683.655	0.0160133
683.733	0.0159233
683.811	0.0159612
683.889	0.0160159
683.967	0.0161575
684.045	0.0159451
684.123	0.0159749
684.201	0.0160468
684.280	0.0159048
684.358	0.0160395
684.436	0.0159988
684.514	0.0159625
684.592	0.0161127
684.670	0.0160479
684.748	0.0158966
684.826	0.0159644
684.905	0.0159193
684.983	0.0158767
685.061	0.0158797
685.139	0.0158778
685.217	0.0157543
685.295	0.0157221
685.373	0.0156059
685.451	0.0153490
685.530	0.0152798
685.608	0.0153086
685.686	0.0152324
685.764	0.0151727
685.842	0.0150124
685.920	0.0149310
685.998	0.0149919
686.076	0.0147284
686.155	0.0148703
686.233	0.0148883
686.311	0.0148299
686.389	0.0147501
686.467	0.0147354
686.545	0.0150523
686.623	0.0150085
686.701	0.0149746
686.780	0.0150955
686.858	0.0152007
686.936	0.0151709
687.014	0.0154520
687.092	0.0154414
687.170	0.0156788
687.248	0.0157538
687.326	0.0160299
687.405	0.0157957
687.483	0.0160866
687.561	0.0159714
687.639	0.0159538
687.717	0.0160447
687.795	0.0159579
687.873	0.0161327
687.951	0.0159766
688.030	0.0159722
688.108	0.0157549
688.186	0.0158684
688.264	0.0156905
688.342	0.0157469
688.420	0.0156170
688.498	0.0155305
688.576	0.0155876
688.655	0.0154818
688.733	0.0154368
688.811	0.0153002
688.889	0.0153464
688.967	0.0153656
689.045	0.0153356
689.123	0.0153496
689.201	0.0153421
689.280	0.0152120
689.358	0.0152900
689.436	0.0152340
689.514	0.0152791
689.592	0.0152153
689.670	0.0151962
689.748	0.0152761
689.826	0.0153671
689.905	0.0154742
689.983	0.0154023
690.061	0.0156503
690.139	0.0157829
690.217	0.0157928
690.295	0.0158070
690.373	0.0160703
690.451	0.0162360
690.530	0.0164274
690.608	0.0164516
690.686	0.0165388
690.764	0.0165097
690.842	0.0164863
690.920	0.0164632
690.998	0.0165492
691.076	0.0163744
691.155	0.0161594
691.233	0.0162460
691.311	0.0162000
691.389	0.0161520
691.467	0.0157829
691.545	0.0157809
691.623	0.0157655
691.701	0.0156212
691.780	0.0154623
691.858	0.0152644
691.936	0.0151093
692.014	0.0150694
692.092	0.0146668
692.170	0.0147174
692.248	0.0146294
692.326	0.0145736
692.405	0.0145078
692.483	0.0146124
692.561	0.0146366
692.639	0.0146372
692.717	0.0147210
692.795	0.0148055
692.873	0.0149105
692.951	0.0151228
693.030	0.0152220
693.108	0.0152663
693.186	0.0155843
693.264	0.0156613
693.342	0.0159350
693.420	0.0159971
693.498	0.0161931
693.576	0.0163612
693.655	0.0162881
693.733	0.0164168
693.811	0.0164714
693.889	0.0165346
693.967	0.0166333
694.045	0.0165090
694.123	0.0165559
694.201	0.0165752
694.280	0.0165151
694.358	0.0165990
694.436	0.0163875
694.514	0.0163794
694.592	0.0162683
694.670	0.0161707
694.748	0.0161603
694.826	0.0160320
694.905	0.0160432
694.983	0.0157684
695.061	0.0155903
695.139	0.0154788
695.217	0.0154114
695.295	0.0152375
695.373	0.0151780
695.451	0.0151379
695.530	0.0150773
695.608	0.0149679
695.686	0.0149631
695.764	0.0148692
695.842	0.0148504
695.920	0.0150615
695.998	0.0149329
696.076	0.0151079
696.155	0.0152032
696.233	0.0154333
696.311	0.0153828
696.389	0.0152979
696.467	0.0154810
696.545	0.0155267
696.623	0.0156786
696.701	0.0157017
696.780	0.0158337
696.858	0.0159742
696.936	0.0160332
697.014	0.0160262
697.092	0.0160797
697.170	0.0159931
697.248	0.0159608
697.326	0.0160080
697.405	0.0158971
697.483	0.0158752
697.561	0.0157713
697.639	0.0158604
697.717	0.0156367
697.795	0.0155209
697.873	0.0154552
697.951	0.0153226
698.030	0.0151018
698.108	0.0149541
698.186	0.0147826
698.264	0.0146289
698.342	0.0145841
698.420	0.0144659
698.498	0.0142278
698.576	0.0141802
698.655	0.0142892
698.733	0.0141351
698.811	0.0143276
698.889	0.0144462
698.967	0.0144482
699.045	0.0146058
699.123	0.0148414
699.201	0.0150665
699.280	0.0153416
699.358	0.0155754
699.436	0.0158305
699.514	0.0160705
699.592	0.0163515
699.670	0.0166966
699.748	0.0169482
699.826	0.0170089
699.905	0.0173445
699.983	0.0171545
700.061	0.0171571
700.139	0.0173323
700.217	0.0172673
700.295	0.0171900
700.373	0.0172701
700.451	0.0169381
700.530	0.0169752
700.608	0.0169075
700.686	0.0167369
700.764	0.0165244
700.842	0.0162817
700.920	0.0160987
700.998	0.0159364
701.076	0.0159719
701.155	0.0158208
701.233	0.0157491
701.311	0.0156336
701.389	0.0155008
701.467	0.0154063
701.545	0.0154780
701.623	0.0152135
701.701	0.0151881
701.780	0.0150163
701.858	0.0151637
701.936	0.0151448
702.014	0.0150648
702.092	0.0151749
702.170	0.0150949
702.248	0.0150391
702.326	0.0151729
702.405	0.0152079
702.483	0.0152040
702.561	0.0152999
702.639	0.0153487
702.717	0.0153378
702.795	0.0155437
702.873	0.0154893
702.951	0.0156365
703.030	0.0154759
703.108	0.0156474
703.186	0.0156487
703.264	0.0154414
703.342	0.0156079
703.420	0.0153897
703.498	0.0154669
703.576	0.0154956
703.655	0.0152979
703.733	0.0152790
703.811	0.0152305
703.889	0.0153467
703.967	0.0153264
704.045	0.0154090
704.123	0.0152866
704.201	0.0153699
704.280	0.0153893
704.358	0.0153845
704.436	0.0154403
704.514	0.0155036
704.592	0.0155187
704.670	0.0155482
704.748	0.0155805
704.826	0.0155702
704.905	0.0155624
704.983	0.0156049
705.061	0.0155717
705.139	0.0155730
705.217	0.0154964
705.295	0.0154129
705.373	0.0154505
705.451	0.0152625
705.530	0.0154420
705.608	0.0154532
705.686	0.0155064
705.764	0.0155019
705.842	0.0155455
705.920	0.0155376
705.998	0.0157589
706.076	0.0157786
706.155	0.0158843
706.233	0.0159528
706.311	0.0159924
706.389	0.0160909
706.467	0.0161376
706.545	0.0162551
706.623	0.0162752
706.701	0.0164658
706.780	0.0163534
706.858	0.0164390
706.936	0.0166157
707.014	0.0166264
707.092	0.0164867
707.170	0.0167007
707.248	0.0166843
707.326	0.0165278
707.405	0.0166080
707.483	0.0168404
707.561	0.0165645
707.639	0.0165717
707.717	0.0165833
707.795	0.0163989
707.873	0.0163614
707.951	0.0161721
708.030	0.0160689
708.108	0.0161240
708.186	0.0157222
708.264	0.0157825
708.342	0.0155643
708.420	0.0153690
708.498	0.0152684
708.576	0.0150713
708.655	0.0150049
708.733	0.0150147
708.811	0.0147897
708.889	0.0146571
708.967	0.0146045
709.045	0.0147036
709.123	0.0147817
709.201	0.0147352
709.280	0.0149761
709.358	0.0149665
709.436	0.0151245
709.514	0.0151812
709.592	0.0154237
709.670	0.0154147
709.748	0.0156641
709.826	0.0158832
709.905	0.0160108
709.983	0.0161048
710.061	0.0161860
710.139	0.0161729
710.217	0.0162651
710.295	0.0162717
710.373	0.0162461
710.451	0.0160822
710.530	0.0160049
710.608	0.0159348
710.686	0.0158364
710.764	0.0156165
710.842	0.0155859
710.920	0.0154601
710.998	0.0152983
711.076	0.0150759
711.155	0.0148463
711.233	0.0147498
711.311	0.0146165
711.389	0.0146351
711.467	0.0143693
711.545	0.0142696
711.623	0.0142635
711.701	0.0142259
711.780	0.0142110
711.858	0.0142685
711.936	0.0143308
712.014	0.0143234
712.092	0.0146103
712.170	0.0146667
712.248	0.0147787
712.326	0.0150838
712.405	0.0152136
712.483	0.0154042
712.561	0.0156969
712.639	0.0157822
712.717	0.0159248
712.795	0.0159727
712.873	0.0161980
712.951	0.0163290
713.030	0.0163263
713.108	0.0165556
713.186	0.0164431
713.264	0.0164997
713.342	0.0164562
713.420	0.0165482
713.498	0.0165318
713.576	0.0167215
713.655	0.0167245
713.733	0.0168856
713.811	0.0167876
713.889	0.0170653
713.967	0.0171544
714.045	0.0170936
714.123	0.0172060
714.201	0.0171795
714.280	0.0173342
714.358	0.0173264
714.436	0.0172034
714.514	0.0172801
714.592	0.0171561
714.670	0.0170863
714.748	0.0169518
714.826	0.0167400
714.905	0.0165720
714.983	0.0163705
715.061	0.0162767
715.139	0.0159113
715.217	0.0156898
715.295	0.0154597
715.373	0.0153789
715.451	0.0150300
715.530	0.0147712
715.608	0.0145978
715.686	0.0142694
715.764	0.0142781
715.842	0.0140321
715.920	0.0139568
715.998	0.0139075
716.076	0.0138926
716.155	0.0138557
716.233	0.0137284
716.311	0.0138470
716.389	0.0141216
716.467	0.0142077
716.545	0.0141623
716.623	0.0143024
716.701	0.0144239
716.780	0.0147049
716.858	0.0149341
716.936	0.0150849
717.014	0.0152059
717.092	0.0154643
717.170	0.0154797
717.248	0.0156501
717.326	0.0157800
717.405	0.0159838
717.483	0.0160421
717.561	0.0160082
717.639	0.0160432
717.717	0.0161077
717.795	0.0159306
717.873	0.0158746
717.951	0.0159090
718.030	0.0158683
718.108	0.0154946
718.186	0.0153313
718.264	0.0153275
718.342	0.0150631
718.420	0.0148830
718.498	0.0148006
718.576	0.0147426
718.655	0.0145768
718.733	0.0144698
718.811	0.0144845
718.889	0.0145496
718.967	0.0144714
719.045	0.0146413
719.123	0.0146706
719.201	0.0147750
719.280	0.0148642
719.358	0.0151132
719.436	0.0152334
719.514	0.0153745
719.592	0.0154853
719.670	0.0157410
719.748	0.0159202
719.826	0.0160709
719.905	0.0161926
719.983	0.0163018
720.061	0.0166456
720.139	0.0166677
720.217	0.0168665
720.295	0.0170712
720.373	0.0172344
720.451	0.0172842
720.530	0.0175309
720.608	0.0175510
720.686	0.0177707
720.764	0.0178561
720.842	0.0178195
720.920	0.0177905
720.998	0.0178267
721.076	0.0177644
721.155	0.0177534
721.233	0.0177328
721.311	0.0177665
721.389	0.0176199
721.467	0.0173937
721.545	0.0172565
721.623	0.0169803
721.701	0.0168993
721.780	0.0166191
721.858	0.0164252
721.936	0.0160963
722.014	0.0156991
722.092	0.0155276
722.170	0.0153083
722.248	0.0150579
722.326	0.0148080
722.405	0.0145602
722.483	0.0142995
722.561	0.0141984
722.639	0.0140943
722.717	0.0138550
722.795	0.0139058
722.873	0.0135963
722.951	0.0135767
723.030	0.0135870
723.108	0.0135191
723.186	0.0135226
723.264	0.0133912
723.342	0.0133732
723.420	0.0134676
723.498	0.0135058
723.576	0.0135413
723.655	0.0136566
723.733	0.0136736
723.811	0.0137781
723.889	0.0139828
723.967	0.0141592
724.045	0.0142910
724.123	0.0143298
724.201	0.0145689
724.280	0.0148530
724.358	0.0150129
724.436	0.0153928
724.514	0.0156090
724.592	0.0158132
724.670	0.0161128
724.748	0.0163068
724.826	0.0166002
724.905	0.0168781
724.983	0.0170220
725.061	0.0172942
725.139	0.0174213
725.217	0.0175168
725.295	0.0175887
725.373	0.0177340
725.451	0.0176161
725.530	0.0173418
725.608	0.0171548
725.686	0.0171882
725.764	0.0168513
725.842	0.0166445
725.920	0.0163400
725.998	0.0160001
726.076	0.0155426
726.155	0.0153364
726.233	0.0151121
726.311	0.0150127
726.389	0.0147026
726.467	0.0146127
726.545	0.0145043
726.623	0.0145538
726.701	0.0145123
726.780	0.0143947
726.858	0.0147141
726.936	0.0149646
727.014	0.0151431
727.092	0.0153664
727.170	0.0154893
727.248	0.0159534
727.326	0.0161652
727.405	0.0164722
727.483	0.0166888
727.561	0.0169806
727.639	0.0171727
727.717	0.0175125
727.795	0.0176478
727.873	0.0176177
727.951	0.0176910
728.030	0.0179328
728.108	0.0178465
728.186	0.0177482
728.264	0.0176949
728.342	0.0176984
728.420	0.0175652
728.498	0.0173258
728.576	0.0171251
728.655	0.0169187
728.733	0.0168623
728.811	0.0167337
728.889	0.0163434
728.967	0.0163200
729.045	0.0159174
729.123	0.0158225
729.201	0.0155246
729.280	0.0153980
729.358	0.0152448
729.436	0.0151302
729.514	0.0148738
729.592	0.0148540
729.670	0.0147108
729.748	0.0145583
729.826	0.0144971
729.905	0.0141717
729.983	0.0142988
730.061	0.0142316
730.139	0.0139675
730.217	0.0138489
730.295	0.0136744
730.373	0.0136845
730.451	0.0136027
730.530	0.0136676
730.608	0.0134969
730.686	0.0136430
730.764	0.0135513
730.842	0.0135442
730.920	0.0135162
730.998	0.0136871
731.076	0.0137258
731.155	0.0137542
731.233	0.0139697
731.311	0.0141990
731.389	0.0141109
731.467	0.0144293
731.545	0.0145419
731.623	0.0148693
731.701	0.0151378
731.780	0.0153931
731.858	0.0155386
731.936	0.0158950
732.014	0.0162550
732.092	0.0164464
732.170	0.0167782
732.248	0.0168872
732.326	0.0170090
732.405	0.0173318
732.483	0.0173895
732.561	0.0175853
732.639	0.0175900
732.717	0.0175227
732.795	0.0175944
732.873	0.0174492
732.951	0.0173103
733.030	0.0171676
733.108	0.0171358
733.186	0.0167427
733.264	0.0164549
733.342	0.0163026
733.420	0.0160844
733.498	0.0156719
733.576	0.0154996
733.655	0.0155209
733.733	0.0152660
733.811	0.0150501
733.889	0.0149599
733.967	0.0149764
734.045	0.0149810
734.123	0.0149344
734.201	0.0150217
734.280	0.0151546
734.358	0.0153495
734.436	0.0156231
734.514	0.0156849
734.592	0.0158826
734.670	0.0161374
734.748	0.0162501
734.826	0.0164721
734.905	0.0165511
734.983	0.0166998
735.061	0.0168018
735.139	0.0167741
735.217	0.0167616
735.295	0.0167531
735.373	0.0167554
735.451	0.0169615
735.530	0.0167527
735.608	0.0168572
735.686	0.0168169
735.764	0.0168316
735.842	0.0168767
735.920	0.0166432
735.998	0.0166263
736.076	0.0165411
736.155	0.0164159
736.233	0.0161470
736.311	0.0160730
736.389	0.0159896
736.467	0.0155716
736.545	0.0155852
736.623	0.0153360
736.701	0.0149753
736.780	0.0148849
736.858	0.0147691
736.936	0.0144673
737.014	0.0143706
737.092	0.0140687
737.170	0.0139845
737.248	0.0138483
737.326	0.0137702
737.405	0.0137783
737.483	0.0134881
737.561	0.0134674
737.639	0.0134515
737.717	0.0135307
737.795	0.0133677
737.873	0.0135276
737.951	0.0135207
738.030	0.0135234
738.108	0.0136015
738.186	0.0135839
738.264	0.0137149
738.342	0.0137481
738.420	0.0140009
738.498	0.0140540
738.576	0.0141769
738.655	0.0142909
738.733	0.0143832
738.811	0.0145848
738.889	0.0147663
738.967	0.0147948
739.045	0.0153002
739.123	0.0154925
739.201	0.0157655
739.280	0.0160068
739.358	0.0164514
739.436	0.0166512
739.514	0.0167177
739.592	0.0170355
739.670	0.0172195
739.748	0.0175600
739.826	0.0177014
739.905	0.0177173
739.983	0.0179041
740.061	0.0179456
740.139	0.0180126
740.217	0.0179758
740.295	0.0178328
740.373	0.0178979
740.451	0.0174757
740.530	0.0172623
740.608	0.0169759
740.686	0.0169462
740.764	0.0165999
740.842	0.0162516
740.920	0.0160670
740.998	0.0159212
741.076	0.0156152
741.155	0.0152306
741.233	0.0151939
741.311	0.0149607
741.389	0.0149254
741.467	0.0148632
741.545	0.0149296
741.623	0.0148234
741.701	0.0148021
741.780	0.0149443
741.858	0.0149352
741.936	0.0150489
742.014	0.0152190
742.092	0.0152720
742.170	0.0153147
742.248	0.0154911
742.326	0.0156078
742.405	0.0157215
742.483	0.0159864
742.561	0.0159425
742.639	0.0160528
742.717	0.0160674
742.795	0.0162880
742.873	0.0163187
742.951	0.0163637
743.030	0.0164515
743.108	0.0163279
743.186	0.0164793
743.264	0.0164297
743.342	0.0164262
743.420	0.0164986
743.498	0.0163556
743.576	0.0162015
743.655	0.0160831
743.733	0.0159235
743.811	0.0157166
743.889	0.0154578
743.967	0.0154047
744.045	0.0151732
744.123	0.0150291
744.201	0.0148035
744.280	0.0145654
744.358	0.0146491
744.436	0.0144063
744.514	0.0142360
744.592	0.0140905
744.670	0.0141554
744.748	0.0140890
744.826	0.0140591
744.905	0.0141312
744.983	0.0141286
745.061	0.0141722
745.139	0.0141140
745.217	0.0142149
745.295	0.0143864
745.373	0.0143451
745.451	0.0143588
745.530	0.0144257
745.608	0.0146630
745.686	0.0145642
745.764	0.0146420
745.842	0.0147208
745.920	0.0147393
745.998	0.0146960
746.076	0.0147481
746.155	0.0147365
746.233	0.0147388
746.311	0.0148434
746.389	0.0149751
746.467	0.0150826
746.545	0.0152692
746.623	0.0153893
746.701	0.0155599
746.780	0.0157351
746.858	0.0159299
746.936	0.0161073
747.014	0.0163333
747.092	0.0166245
747.170	0.0167805
747.248	0.0169321
747.326	0.0171951
747.405	0.0172037
747.483	0.0174281
747.561	0.0175756
747.639	0.0176458
747.717	0.0177296
747.795	0.0178025
747.873	0.0177097
747.951	0.0174660
748.030	0.0172330
748.108	0.0172655
748.186	0.0171102
748.264	0.0167262
748.342	0.0165061
748.420	0.0163110
748.498	0.0160462
748.576	0.0157819
748.655	0.0154816
748.733	0.0152480
748.811	0.0151503
748.889	0.0149407
748.967	0.0149057
749.045	0.0147269
749.123	0.0146905
749.201	0.0147594
749.280	0.0147491
749.358	0.0148239
749.436	0.0150051
749.514	0.0150304
749.592	0.0152126
749.670	0.0154919
749.748	0.0155382
749.826	0.0156056
749.905	0.0158672
749.983	0.0159650
750.061	0.0160149
750.139	0.0160938
750.217	0.0162708
750.295	0.0162695
750.373	0.0163745
750.451	0.0165925
750.530	0.0164433
750.608	0.0164915
750.686	0.0164941
750.764	0.0165961
750.842	0.0164031
750.920	0.0164046
750.998	0.0162500
751.076	0.0161595
751.155	0.0161113
751.233	0.0158981
751.311	0.0158025
751.389	0.0155053
751.467	0.0153373
751.545	0.0152290
751.623	0.0148905
751.701	0.0147474
751.780	0.0146759
751.858	0.0147059
751.936	0.0144882
752.014	0.0143619
752.092	0.0144924
752.170	0.0144617
752.248	0.0144507
752.326	0.0145650
752.405	0.0146273
752.483	0.0146422
752.561	0.0146777
752.639	0.0147714
752.717	0.0147823
752.795	0.0149676
752.873	0.0148716
752.951	0.0150644
753.030	0.0150378
753.108	0.0149453
753.186	0.0151065
753.264	0.0149267
753.342	0.0149497
753.420	0.0151269
753.498	0.0149557
753.576	0.0146239
753.655	0.0148283
753.733	0.0148250
753.811	0.0149133
753.889	0.0148775
753.967	0.0149467
754.045	0.0151248
754.123	0.0151428
754.201	0.0152937
754.280	0.0153911
754.358	0.0156783
754.436	0.0157642
754.514	0.0158797
754.592	0.0162350
754.670	0.0163948
754.748	0.0166138
754.826	0.0168044
754.905	0.0170473
754.983	0.0172153
755.061	0.0172988
755.139	0.0174502
755.217	0.0176195
755.295	0.0175440
755.373	0.0176215
755.451	0.0173930
755.530	0.0174383
755.608	0.0173471
755.686	0.0173372
755.764	0.0171030
755.842	0.0169957
755.920	0.0168085
755.998	0.0165797
756.076	0.0163296
756.155	0.0160999
756.233	0.0156963
756.311	0.0154303
756.389	0.0154153
756.467	0.0151070
756.545	0.0150526
756.623	0.0148459
756.701	0.0147078
756.780	0.0147746
756.858	0.0145985
756.936	0.0145402
757.014	0.0145830
757.092	0.0146658
757.170	0.0148349
757.248	0.0150814
757.326	0.0150797
757.405	0.0152957
757.483	0.0154356
757.561	0.0156039
757.639	0.0157318
757.717	0.0158886
757.795	0.0160986
757.873	0.0162088
757.951	0.0162245
758.030	0.0161555
758.108	0.0163049
758.186	0.0163063
758.264	0.0163530
758.342	0.0162930
758.420	0.0160870
758.498	0.0160761
758.576	0.0159064
758.655	0.0158286
758.733	0.0157389
758.811	0.0155352
758.889	0.0153383
758.967	0.0153862
759.045	0.0152161
759.123	0.0150419
759.201	0.0147794
759.280	0.0147875
759.358	0.0147467
759.436	0.0145882
759.514	0.0145995
759.592	0.0146954
759.670	0.0145887
759.748	0.0145159
759.826	0.0146197
759.905	0.0146335
759.983	0.0148512
760.061	0.0148249
760.139	0.0148563
760.217	0.0149618
760.295	0.0150433
760.373	0.0150421
760.451	0.0150392
760.530	0.0150811
760.608	0.0151566
760.686	0.0151685
760.764	0.0150639
760.842	0.0149830
760.920	0.0149792
760.998	0.0150441
761.076	0.0148550
761.155	0.0147700
761.233	0.0150014
761.311	0.0149377
761.389	0.0148492
761.467	0.0149469
761.545	0.0149603
761.623	0.0150108
761.701	0.0151239
761.780	0.0152588
761.858	0.0152934
761.936	0.0153435
762.014	0.0156722
762.092	0.0158253
762.170	0.0158500
762.248	0.0160519
762.326	0.0161668
762.405	0.0164410
762.483	0.0166047
762.561	0.0167466
762.639	0.0168019
762.717	0.0169118
762.795	0.0168130
762.873	0.0169762
762.951	0.0171618
763.030	0.0171628
763.108	0.0171313
763.186	0.0170992
763.264	0.0171425
763.342	0.0169626
763.420	0.0169675
763.498	0.0167791
763.576	0.0165400
763.655	0.0163881
763.733	0.0161761
763.811	0.0161301
763.889	0.0158980
763.967	0.0155844
764.045	0.0155388
764.123	0.0151489
764.201	0.0150069
764.280	0.0147586
764.358	0.0146761
764.436	0.0145486
764.514	0.0145935
764.592	0.0144268
764.670	0.0145154
764.748	0.0145729
764.826	0.0146437
764.905	0.0146364
764.983	0.0148931
765.061	0.0149844
765.139	0.0151740
765.217	0.0153049
765.295	0.0156303
765.373	0.0158407
765.451	0.0161110
765.530	0.0161839
765.608	0.0162993
765.686	0.0163998
765.764	0.0164654
765.842	0.0165160
765.920	0.0163820
765.998	0.0164814
766.076	0.0164567
766.155	0.0163583
766.233	0.0160856
766.311	0.0159942
766.389	0.0158962
766.467	0.0154621
766.545	0.0153210
766.623	0.0152341
766.701	0.0150630
766.780	0.0149422
766.858	0.0148045
766.936	0.0147284
767.014	0.0146333
767.092	0.0144867
767.170	0.0144958
767.248	0.0145124
767.326	0.0146288
767.405	0.0147163
767.483	0.0148221
767.561	0.0148371
767.639	0.0151128
767.717	0.0151247
767.795	0.0152307
767.873	0.0153200
767.951	0.0153418
768.030	0.0153575
768.108	0.0154531
768.186	0.0153812
768.264	0.0153890
768.342	0.0153372
768.420	0.0152948
768.498	0.0152612
768.576	0.0152345
768.655	0.0149541
768.733	0.0149900
768.811	0.0149438
768.889	0.0149212
768.967	0.0149676
769.045	0.0148800
769.123	0.0149551
769.201	0.0150909
769.280	0.0152299
769.358	0.0151878
769.436	0.0152692
769.514	0.0154155
769.592	0.0156354
769.670	0.0157109
769.748	0.0158855
769.826	0.0159023
769.905	0.0161180
769.983	0.0161037
770.061	0.0163876
770.139	0.0166016
770.217	0.0164856
770.295	0.0167445
770.373	0.0167106
770.451	0.0168492
770.530	0.0168629
770.608	0.0169390
770.686	0.0169211
770.764	0.0168252
770.842	0.0169584
770.920	0.0168866
770.998	0.0167730
771.076	0.0168275
771.155	0.0166844
771.233	0.0166824
771.311	0.0166409
771.389	0.0163071
771.467	0.0163982
771.545	0.0161423
771.623	0.0159657
771.701	0.0157960
771.780	0.0155960
771.858	0.0152891
771.936	0.0152460
772.014	0.0151016
772.092	0.0149325
772.170	0.0146709
772.248	0.0146956
772.326	0.0147081
772.405	0.0146648
772.483	0.0145853
772.561	0.0147409
772.639	0.0147742
772.717	0.0148676
772.795	0.0149963
772.873	0.0152634
772.951	0.0154784
773.030	0.0154730
773.108	0.0158041
773.186	0.0159698
773.264	0.0160303
773.342	0.0163461
773.420	0.0164951
773.498	0.0166096
773.576	0.0165266
773.655	0.0165138
773.733	0.0165697
773.811	0.0165019
773.889	0.0163610
773.967	0.0160492
774.045	0.0159235
774.123	0.0157643
774.201	0.0156107
774.280	0.0155517
774.358	0.0153255
774.436	0.0150313
774.514	0.0148770
774.592	0.0148663
774.670	0.0147420
774.748	0.0146737
774.826	0.0147191
774.905	0.0146928
774.983	0.0147948
775.061	0.0146292
775.139	0.0148362
775.217	0.0149289
775.295	0.0150431
775.373	0.0150040
775.451	0.0150941
775.530	0.0153182
775.608	0.0154646
775.686	0.0153902
775.764	0.0154128
775.842	0.0155863
775.920	0.0154848
775.998	0.0156459
776.076	0.0154057
776.155	0.0155836
776.233	0.0155608
776.311	0.0154771
776.389	0.0154659
776.467	0.0153662
776.545	0.0154224
776.623	0.0153632
776.701	0.0152866
776.780	0.0153137
776.858	0.0153160
776.936	0.0153312
777.014	0.0153216
777.092	0.0154860
777.170	0.0154454
777.248	0.0155682
777.326	0.0157211
777.405	0.0157233
777.483	0.0158922
777.561	0.0158803
777.639	0.0160127
777.717	0.0160828
777.795	0.0161260
777.873	0.0162204
777.951	0.0162286
778.030	0.0164815
778.108	0.0164939
778.186	0.0163914
778.264	0.0164495
778.342	0.0164009
778.420	0.0165746
778.498	0.0164931
778.576	0.0164826
778.655	0.0163532
778.733	0.0163791
778.811	0.0163965
778.889	0.0163135
778.967	0.0163918
779.045	0.0163390
779.123	0.0161785
779.201	0.0160532
779.280	0.0160052
779.358	0.0158056
779.436	0.0156076
779.514	0.0156049
779.592	0.0156596
779.670	0.0153427
779.748	0.0150915
779.826	0.0150805
779.905	0.0150318
779.983	0.0149577
780.061	0.0147916
780.139	0.0147501
780.217	0.0145000
780.295	0.0146594
780.373	0.0147990
780.451	0.0148844
780.530	0.0149890
780.608	0.0150903
780.686	0.0151740
780.764	0.0154041
780.842	0.0157211
780.920	0.0157837
780.998	0.0159077
781.076	0.0161759
781.155	0.0162527
781.233	0.0161667
781.311	0.0163578
781.389	0.0164633
781.467	0.0163171
781.545	0.0163139
781.623	0.0163577
781.701	0.0160871
781.780	0.0159156
781.858	0.0159018
781.936	0.0155775
782.014	0.0153780
782.092	0.0153229
782.170	0.0151652
782.248	0.0151116
782.326	0.0148368
782.405	0.0148116
782.483	0.0147150
782.561	0.0148141
782.639	0.0148068
782.717	0.0146127
782.795	0.0147422
782.873	0.0147064
782.951	0.0148103
783.030	0.0148362
783.108	0.0149967
783.186	0.0151390
783.264	0.0152157
783.342	0.0153535
783.420	0.0154529
783.498	0.0155366
783.576	0.0154972
783.655	0.0155621
783.733	0.0155161
783.811	0.0157069
783.889	0.0156116
783.967	0.0155304
784.045	0.0155434
784.123	0.0156912
784.201	0.0157077
784.280	0.0156871
784.358	0.0157156
784.436	0.0156133
784.514	0.0155644
784.592	0.0156034
784.670	0.0157153
784.748	0.0157371
784.826	0.0158044
784.905	0.0158498
784.983	0.0158254
785.061	0.0158578
785.139	0.0159821
785.217	0.0159261
785.295	0.0161098
785.373	0.0160673
785.451	0.0159843
785.530	0.0161773
785.608	0.0163320
785.686	0.0162157
785.764	0.0159898
785.842	0.0162125
785.920	0.0163009
785.998	0.0161386
786.076	0.0161694
786.155	0.0163049
786.233	0.0161568
786.311	0.0159768
786.389	0.0159904
786.467	0.0160785
786.545	0.0161825
786.623	0.0160926
786.701	0.0159475
786.780	0.0159950
786.858	0.0161935
786.936	0.0161521
787.014	0.0159454
787.092	0.0159909
787.170	0.0162019
787.248	0.0160462
787.326	0.0158886
787.405	0.0159102
787.483	0.0158028
787.561	0.0157068
787.639	0.0156221
787.717	0.0155408
787.795	0.0154064
787.873	0.0153130
787.951	0.0151748
788.030	0.0153171
788.108	0.0151181
788.186	0.0150709
788.264	0.0151403
788.342	0.0152611
788.420	0.0152334
788.498	0.0152470
788.576	0.0154521
788.655	0.0154812
788.733	0.0156536
788.811	0.0156742
788.889	0.0157867
788.967	0.0158162
789.045	0.0159702
789.123	0.0159518
789.201	0.0160123
789.280	0.0159087
789.358	0.0161293
789.436	0.0159284
789.514	0.0157982
789.592	0.0157400
789.670	0.0156401
789.748	0.0157052
789.826	0.0155851
789.905	0.0154325
789.983	0.0152959
790.061	0.0153536
790.139	0.0153736
790.217	0.0151355
790.295	0.0150161
790.373	0.0152092
790.451	0.0151720
790.530	0.0151318
790.608	0.0152697
790.686	0.0152771
790.764	0.0153472
790.842	0.0155208
790.920	0.0155502
790.998	0.0156197
791.076	0.0156192
791.155	0.0157096
791.233	0.0157796
791.311	0.0158858
791.389	0.0158570
791.467	0.0158270
791.545	0.0157250
791.623	0.0157541
791.701	0.0157336
791.780	0.0156385
791.858	0.0156645
791.936	0.0158547
792.014	0.0156247
792.092	0.0156349
792.170	0.0155582
792.248	0.0155441
792.326	0.0155324
792.405	0.0155764
792.483	0.0155923
792.561	0.0155912
792.639	0.0156719
792.717	0.0156898
792.795	0.0157444
792.873	0.0158675
792.951	0.0157593
793.030	0.0159399
793.108	0.0158330
793.186	0.0160035
793.264	0.0159893
793.342	0.0159273
793.420	0.0160063
793.498	0.0160102
793.576	0.0159690
793.655	0.0159196
793.733	0.0159029
793.811	0.0158791
793.889	0.0160336
793.967	0.0158620
794.045	0.0158852
794.123	0.0157303
794.201	0.0158734
794.280	0.0157681
794.358	0.0157603
794.436	0.0156558
794.514	0.0157028
794.592	0.0157603
794.670	0.0156787
794.748	0.0158312
794.826	0.0156747
794.905	0.0156197
794.983	0.0157213
795.061	0.0156574
795.139	0.0157973
795.217	0.0156102
795.295	0.0156924
795.373	0.0155564
795.451	0.0156109
795.530	0.0156234
795.608	0.0155330
795.686	0.0153490
795.764	0.0153530
795.842	0.0153793
795.920	0.0152107
795.998	0.0152286
796.076	0.0152081
796.155	0.0153126
796.233	0.0154102
796.311	0.0154655
796.389	0.0154484
796.467	0.0155505
796.545	0.0156248
796.623	0.0158709
796.701	0.0158128
796.780	0.0158408
796.858	0.0159756
796.936	0.0161072
797.014	0.0160314
797.092	0.0160666
797.170	0.0161694
797.248	0.0159592
797.326	0.0158660
797.405	0.0159280
797.483	0.0157675
797.561	0.0157333
797.639	0.0155994
797.717	0.0154137
797.795	0.0153424
797.873	0.0153355
797.951	0.0150295
798.030	0.0151416
798.108	0.0151917
798.186	0.0149326
798.264	0.0149965
798.342	0.0149834
798.420	0.0151065
798.498	0.0151199
798.576	0.0151918
798.655	0.0151580
798.733	0.0150875
798.811	0.0153048
798.889	0.0153539
798.967	0.0154469
799.045	0.0156281
799.123	0.0155053
799.201	0.0154059
799.280	0.0155021
799.358	0.0154708
799.436	0.0154958
799.514	0.0154526
799.592	0.0155722
799.670	0.0156367
799.748	0.0156140
799.826	0.0155233
799.905	0.0156528
799.983	0.0155986
800.061	0.0156184
800.139	0.0156431
800.217	0.0155811
800.295	0.0156805
800.373	0.0157504
800.451	0.0157990
800.530	0.0156836
800.608	0.0158519
800.686	0.0158330
800.764	0.0159471
800.842	0.0158997
800.920	0.0156828
800.998	0.0159550
801.076	0.0159620
801.155	0.0159589
801.233	0.0158511
801.311	0.0157493
801.389	0.0158080
801.467	0.0156134
801.545	0.0158083
801.623	0.0157789
801.701	0.0156659
801.780	0.0156978
801.858	0.0157476
801.936	0.0157385
802.014	0.0156705
802.092	0.0156064
802.170	0.0157274
802.248	0.0157854
802.326	0.0157557
802.405	0.0157942
802.483	0.0156889
802.561	0.0156889
802.639	0.0158161
802.717	0.0156997
802.795	0.0156557
802.873	0.0158891
802.951	0.0158989
803.030	0.0158263
803.108	0.0159469
803.186	0.0158752
803.264	0.0156819
803.342	0.0156239
803.420	0.0157991
803.498	0.0156483
803.576	0.0157117
803.655	0.0156773
803.733	0.0155556
803.811	0.0155035
803.889	0.0156215
803.967	0.0157988
804.045	0.0155212
804.123	0.0155074
804.201	0.0156493
804.280	0.0156166
804.358	0.0156149
804.436	0.0156386
804.514	0.0157780
804.592	0.0156794
804.670	0.0157948
804.748	0.0158391
804.826	0.0159319
804.905	0.0159757
804.983	0.0157462
805.061	0.0157982
805.139	0.0159236
805.217	0.0156886
805.295	0.0155733
805.373	0.0154820
805.451	0.0153705
805.530	0.0155871
805.608	0.0154764
805.686	0.0153693
805.764	0.0153934
805.842	0.0153126
805.920	0.0151803
805.998	0.0151529
806.076	0.0151784
806.155	0.0152356
806.233	0.0152876
806.311	0.0152241
806.389	0.0152557
806.467	0.0153999
806.545	0.0153581
806.623	0.0153860
806.701	0.0153744
806.780	0.0155454
806.858	0.0154952
806.936	0.0154408
807.014	0.0154505
807.092	0.0157063
807.170	0.0157286
807.248	0.0156376
807.326	0.0156578
807.405	0.0157055
807.483	0.0157937
807.561	0.0157952
807.639	0.0158089
807.717	0.0157223
807.795	0.0156824
807.873	0.0156820
807.951	0.0156750
808.030	0.0157308
808.108	0.0156588
808.186	0.0156775
808.264	0.0156619
808.342	0.0156454
808.420	0.0158557
808.498	0.0158856
808.576	0.0157285
808.655	0.0157580
808.733	0.0158122
808.811	0.0159212
808.889	0.0157811
808.967	0.0156977
809.045	0.0156490
809.123	0.0158260
809.201	0.0159246
809.280	0.0157082
809.358	0.0156704
809.436	0.0155946
809.514	0.0158037
809.592	0.0157540
809.670	0.0158038
809.748	0.0158508
809.826	0.0157495
809.905	0.0157835
809.983	0.0159008
810.061	0.0158389
810.139	0.0158495
810.217	0.0159315
810.295	0.0159380
810.373	0.0159184
810.451	0.0159281
810.530	0.0159514
810.608	0.0160857
810.686	0.0159338
810.764	0.0158778
810.842	0.0159763
810.920	0.0159718
810.998	0.0159714
811.076	0.0158389
811.155	0.0160435
811.233	0.0159404
811.311	0.0159782
811.389	0.0157999
811.467	0.0158723
811.545	0.0157610
811.623	0.0158022
811.701	0.0157500
811.780	0.0157685
811.858	0.0157365
811.936	0.0156226
812.014	0.0154220
812.092	0.0156185
812.170	0.0154256
812.248	0.0155536
812.326	0.0155294
812.405	0.0155294
812.483	0.0155392
812.561	0.0154719
812.639	0.0153620
812.717	0.0154554
812.795	0.0154078
812.873	0.0153854
812.951	0.0154160
813.030	0.0153519
813.108	0.0151993
813.186	0.0153035
813.264	0.0152982
813.342	0.0152593
813.420	0.0152235
813.498	0.0152074
813.576	0.0152902
813.655	0.0151697
813.733	0.0152937
813.811	0.0150325
813.889	0.0152837
813.967	0.0151642
814.045	0.0154534
814.123	0.0152531
814.201	0.0152754
814.280	0.0154758
814.358	0.0154581
814.436	0.0154073
814.514	0.0154289
814.592	0.0154182
814.670	0.0155304
814.748	0.0156001
814.826	0.0155460
814.905	0.0155510
814.983	0.0155682
815.061	0.0155213
815.139	0.0156870
815.217	0.0155988
815.295	0.0154747
815.373	0.0155761
815.451	0.0155833
815.530	0.0155934
815.608	0.0156789
815.686	0.0155386
815.764	0.0154964
815.842	0.0156966
815.920	0.0157030
815.998	0.0155840
816.076	0.0157589
816.155	0.0157902
816.233	0.0158655
816.311	0.0158025
816.389	0.0158336
816.467	0.0159045
816.545	0.0158099
816.623	0.0158611
816.701	0.0159540
816.780	0.0160036
816.858	0.0160490
816.936	0.0160246
817.014	0.0160577
817.092	0.0160780
817.170	0.0159426
817.248	0.0160398
817.326	0.0159579
817.405	0.0159953
817.483	0.0159525
817.561	0.0159194
817.639	0.0159798
817.717	0.0159112
817.795	0.0158118
817.873	0.0159470
817.951	0.0159836
818.030	0.0159554
818.108	0.0159399
818.186	0.0159740
818.264	0.0159962
818.342	0.0158903
818.420	0.0159301
818.498	0.0159641
818.576	0.0158997
818.655	0.0157336
818.733	0.0156445
818.811	0.0156486
818.889	0.0156156
818.967	0.0156461
819.045	0.0155338
819.123	0.0154948
819.201	0.0152932
819.280	0.0154185
819.358	0.0152450
819.436	0.0151408
819.514	0.0151462
819.592	0.0151037
819.670	0.0150520
819.748	0.0151278
819.826	0.0148915
819.905	0.0151216
819.983	0.0151538
820.061	0.0150579
820.139	0.0152883
820.217	0.0152422
820.295	0.0151444
820.373	0.0152060
820.451	0.0154076
820.530	0.0154058
820.608	0.0152901
820.686	0.0154982
820.764	0.0154947
820.842	0.0154800
820.920	0.0156166
820.998	0.0155350
821.076	0.0155580
821.155	0.0156627
821.233	0.0155589
821.311	0.0154929
821.389	0.0156147
821.467	0.0157143
821.545	0.0155720
821.623	0.0155968
821.701	0.0156461
821.780	0.0156442
821.858	0.0157695
821.936	0.0157343
822.014	0.0156341
822.092	0.0157671
822.170	0.0156720
822.248	0.0157734
822.326	0.0157971
822.405	0.0156641
822.483	0.0157130
822.561	0.0155521
822.639	0.0155834
822.717	0.0157095
822.795	0.0156007
822.873	0.0155753
822.951	0.0157319
823.030	0.0156307
823.108	0.0155208
823.186	0.0156313
823.264	0.0155812
823.342	0.0155211
823.420	0.0154380
823.498	0.0155399
823.576	0.0157755
823.655	0.0156149
823.733	0.0156462
823.811	0.0157420
823.889	0.0158090
823.967	0.0158861
824.045	0.0158388
824.123	0.0158568
824.201	0.0159402
824.280	0.0159998
824.358	0.0158556
824.436	0.0158286
824.514	0.0159159
824.592	0.0158739
824.670	0.0157915
824.748	0.0157494
824.826	0.0155915
824.905	0.0157025
824.983	0.0157278
825.061	0.0156590
825.139	0.0155298
825.217	0.0154264
825.295	0.0155996
825.373	0.0155196
825.451	0.0155405
825.530	0.0155590
825.608	0.0154897
825.686	0.0155307
825.764	0.0154978
825.842	0.0155412
825.920	0.0156319
825.998	0.0156207
826.076	0.0156641
826.155	0.0156162
826.233	0.0155588
826.311	0.0156854
826.389	0.0157301
826.467	0.0155522
826.545	0.0156364
826.623	0.0152717
826.701	0.0152802
826.780	0.0154404
826.858	0.0154499
826.936	0.0152739
827.014	0.0152555
827.092	0.0152083
827.170	0.0151198
827.248	0.0151375
827.326	0.0150715
827.405	0.0152150
827.483	0.0152556
827.561	0.0151318
827.639	0.0153419
827.717	0.0152329
827.795	0.0153672
827.873	0.0154260
827.951	0.0155558
828.030	0.0154352
828.108	0.0154523
828.186	0.0156315
828.264	0.0157915
828.342	0.0157817
828.420	0.0156852
828.498	0.0157778
828.576	0.0158272
828.655	0.0159174
828.733	0.0159380
828.811	0.0159740
828.889	0.0157111
828.967	0.0158274
829.045	0.0158309
829.123	0.0158785
829.201	0.0158904
829.280	0.0156469
829.358	0.0157498
829.436	0.0157513
829.514	0.0156969
829.592	0.0156503
829.670	0.0157448
829.748	0.0156969
829.826	0.0156332
829.905	0.0156651
829.983	0.0156780
830.061	0.0158253
830.139	0.0156423
830.217	0.0156011
830.295	0.0156169
830.373	0.0157269
830.451	0.0155962
830.530	0.0155339
830.608	0.0154774
830.686	0.0156407
830.764	0.0154379
830.842	0.0154082
830.920	0.0155508
830.998	0.0153722
831.076	0.0154555
831.155	0.0154634
831.233	0.0153714
831.311	0.0154552
831.389	0.0154729
831.467	0.0155154
831.545	0.0155832
831.623	0.0156953
831.701	0.0156395
831.780	0.0156967
831.858	0.0156815
831.936	0.0156982
832.014	0.0157082
832.092	0.0158713
832.170	0.0156717
832.248	0.0158558
832.326	0.0158351
832.405	0.0158751
832.483	0.0158673
832.561	0.0157465
832.639	0.0159180
832.717	0.0158833
832.795	0.0157874
832.873	0.0158455
832.951	0.0158418
833.030	0.0157190
833.108	0.0156194
833.186	0.0156455
833.264	0.0156682
833.342	0.0156744
833.420	0.0156209
833.498	0.0155968
833.576	0.0156426
833.655	0.0155429
833.733	0.0154560
833.811	0.0155466
833.889	0.0155820
833.967	0.0155807
834.045	0.0155501
834.123	0.0154056
834.201	0.0155093
834.280	0.0155255
834.358	0.0154604
834.436	0.0154375
834.514	0.0153374
834.592	0.0155259
834.670	0.0153417
834.748	0.0154140
834.826	0.0153894
834.905	0.0153690
834.983	0.0154074
835.061	0.0153429
835.139	0.0154790
835.217	0.0153786
835.295	0.0153643
835.373	0.0154348
835.451	0.0155239
835.530	0.0155082
835.608	0.0156783
835.686	0.0156236
835.764	0.0157884
835.842	0.0158392
835.920	0.0157602
835.998	0.0157651
836.076	0.0158167
836.155	0.0159402
836.233	0.0159890
836.311	0.0159399
836.389	0.0159308
836.467	0.0159386
836.545	0.0159708
836.623	0.0160133
836.701	0.0159849
836.780	0.0158724
836.858	0.0158774
836.936	0.0158360
837.014	0.0159203
837.092	0.0158654
837.170	0.0156998
837.248	0.0155997
837.326	0.0155441
837.405	0.0157657
837.483	0.0155392
837.561	0.0156724
837.639	0.0155057
837.717	0.0155509
837.795	0.0155610
837.873	0.0154216
837.951	0.0153973
838.030	0.0154745
838.108	0.0154910
838.186	0.0155847
838.264	0.0154946
838.342	0.0154013
838.420	0.0154456
838.498	0.0154871
838.576	0.0155099
838.655	0.0154778
838.733	0.0154309
838.811	0.0155904
838.889	0.0154124
838.967	0.0154040
839.045	0.0153857
839.123	0.0155589
839.201	0.0153996
839.280	0.0154262
839.358	0.0154749
839.436	0.0154893
839.514	0.0154898
839.592	0.0154675
839.670	0.0155419
839.748	0.0155431
839.826	0.0155708
839.905	0.0155534
839.983	0.0156134
840.061	0.0157221
840.139	0.0157418
840.217	0.0157671
840.295	0.0157457
840.373	0.0159316
840.451	0.0159201
840.530	0.0157664
840.608	0.0157959
840.686	0.0158834
840.764	0.0158714
840.842	0.0158079
840.920	0.0157420
840.998	0.0157626
841.076	0.0158372
841.155	0.0157155
841.233	0.0156339
841.311	0.0155641
841.389	0.0156792
841.467	0.0156689
841.545	0.0155955
841.623	0.0155582
841.701	0.0156398
841.780	0.0154706
841.858	0.0157109
841.936	0.0155240
842.014	0.0155083
842.092	0.0154961
842.170	0.0156504
842.248	0.0154600
842.326	0.0155179
842.405	0.0155238
842.483	0.0154790
842.561	0.0154473
842.639	0.0155048
842.717	0.0156128
842.795	0.0154120
842.873	0.0154865
842.951	0.0155564
843.030	0.0155394
843.108	0.0155271
843.186	0.0154979
843.264	0.0155838
843.342	0.0155289
843.420	0.0155239
843.498	0.0155575
843.576	0.0156280
843.655	0.0154764
843.733	0.0156037
843.811	0.0156271
843.889	0.0155971
843.967	0.0155695
844.045	0.0158693
844.123	0.0158945
844.201	0.0157988
844.280	0.0157534
844.358	0.0157309
844.436	0.0157064
844.514	0.0158262
844.592	0.0157754
844.670	0.0156557
844.748	0.0158179
844.826	0.0156122
844.905	0.0156360
844.983	0.0156743
845.061	0.0156014
845.139	0.0155780
845.217	0.0156002
845.295	0.0154475
845.373	0.0155035
845.451	0.0154673
845.530	0.0154266
845.608	0.0155222
845.686	0.0152796
845.764	0.0155270
845.842	0.0153762
845.920	0.0153579
845.998	0.0153928
846.076	0.0153018
846.155	0.0153779
846.233	0.0155188
846.311	0.0155972
846.389	0.0154568
846.467	0.0155260
846.545	0.0155211
846.623	0.0156410
846.701	0.0157162
846.780	0.0158471
846.858	0.0156456
846.936	0.0155983
847.014	0.0156634
847.092	0.0156519
847.170	0.0156860
847.248	0.0156277
847.326	0.0156506
847.405	0.0156438
847.483	0.0155350
847.561	0.0156383
847.639	0.0155597
847.717	0.0156078
847.795	0.0157201
847.873	0.0157681
847.951	0.0156828
848.030	0.0156385
848.108	0.0155666
848.186	0.0156059
848.264	0.0158010
848.342	0.0158506
848.420	0.0157547
848.498	0.0158576
848.576	0.0157690
848.655	0.0157941
848.733	0.0158147
848.811	0.0157861
848.889	0.0156590
848.967	0.0157211
849.045	0.0157745
849.123	0.0158298
849.201	0.0157555
849.280	0.0155762
849.358	0.0155500
849.436	0.0156076
849.514	0.0156408
849.592	0.0154020
849.670	0.0153298
849.748	0.0156247
849.826	0.0153822
849.905	0.0154373
849.983	0.0153289
850.061	0.0154566
850.139	0.0154248
850.217	0.0154480
850.295	0.0153687
850.373	0.0153352
850.451	0.0154716
850.530	0.0153930
850.608	0.0154047
850.686	0.0154134
850.764	0.0155136
850.842	0.0155318
850.920	0.0155527
850.998	0.0155448
851.076	0.0157262
851.155	0.0156470
851.233	0.0156454
851.311	0.0156279
851.389	0.0157475
851.467	0.0157345
851.545	0.0156835
851.623	0.0158443
851.701	0.0159155
851.780	0.0158229
851.858	0.0158354
851.936	0.0158538
852.014	0.0158639
852.092	0.0159573
852.170	0.0159925
852.248	0.0160613
852.326	0.0160256
852.405	0.0160853
852.483	0.0161146
852.561	0.0160353
852.639	0.0159653
852.717	0.0161613
852.795	0.0159613
852.873	0.0159103
852.951	0.0159235
853.030	0.0157246
853.108	0.0156278
853.186	0.0155488
853.264	0.0157923
853.342	0.0154118
853.420	0.0156219
853.498	0.0153693
853.576	0.0153139
853.655	0.0154083
853.733	0.0153683
853.811	0.0153133
853.889	0.0153053
853.967	0.0153720
854.045	0.0153478
854.123	0.0154134
854.201	0.0155045
854.280	0.0154160
854.358	0.0155655
854.436	0.0155606
854.514	0.0154984
854.592	0.0155601
854.670	0.0156609
854.748	0.0156241
854.826	0.0155644
854.905	0.0157075
854.983	0.0155888
855.061	0.0155997
855.139	0.0156316
855.217	0.0157378
855.295	0.0155450
855.373	0.0154094
855.451	0.0155021
855.530	0.0153681
855.608	0.0155203
855.686	0.0154788
855.764	0.0153362
855.842	0.0153641
855.920	0.0154025
855.998	0.0153148
856.076	0.0153778
856.155	0.0153457
856.233	0.0154547
856.311	0.0154702
856.389	0.0155377
856.467	0.0155444
856.545	0.0154704
856.623	0.0155615
856.701	0.0156452
856.780	0.0155006
856.858	0.0155875
856.936	0.0156783
857.014	0.0157425
857.092	0.0155522
857.170	0.0155663
857.248	0.0157351
857.326	0.0156227
857.405	0.0156499
857.483	0.0156287
857.561	0.0155132
857.639	0.0156026
857.717	0.0155594
857.795	0.0154542
857.873	0.0154267
857.951	0.0154234
858.030	0.0152841
858.108	0.0153687
858.186	0.0155032
858.264	0.0153613
858.342	0.0153465
858.420	0.0153729
858.498	0.0153709
858.576	0.0154449
858.655	0.0154549
858.733	0.0153911
858.811	0.0154278
858.889	0.0153987
858.967	0.0154027
859.045	0.0155162
859.123	0.0156003
859.201	0.0156758
859.280	0.0156390
859.358	0.0158114
859.436	0.0157576
859.514	0.0157893
859.592	0.0155384
859.670	0.0156756
859.748	0.0158912
859.826	0.0157532
859.905	0.0157400
859.983	0.0157378
860.061	0.0156898
860.139	0.0157377
860.217	0.0156944
860.295	0.0157673
860.373	0.0156213
860.451	0.0156802
860.530	0.0156158
860.608	0.0155892
860.686	0.0155484
860.764	0.0156734
860.842	0.0155349
860.920	0.0156053
860.998	0.0155014
861.076	0.0153902
861.155	0.0155823
861.233	0.0155772
861.311	0.0154394
861.389	0.0153325
861.467	0.0152628
861.545	0.0153324
861.623	0.0154394
861.701	0.0153220
861.780	0.0152779
861.858	0.0153994
861.936	0.0153864
862.014	0.0154315
862.092	0.0154967
862.170	0.0154134
862.248	0.0154707
862.326	0.0156177
862.405	0.0156071
862.483	0.0155573
862.561	0.0156012
862.639	0.0158541
862.717	0.0157733
862.795	0.0156904
862.873	0.0156508
862.951	0.0157667
863.030	0.0157997
863.108	0.0155763
863.186	0.0157632
863.264	0.0157193
863.342	0.0157082
863.420	0.0156970
863.498	0.0156554
863.576	0.0156451
863.655	0.0156042
863.733	0.0155126
863.811	0.0153135
863.889	0.0154357
863.967	0.0155042
864.045	0.0154467
864.123	0.0154543
864.201	0.0154958
864.280	0.0154810
864.358	0.0154240
864.436	0.0154413
864.514	0.0155837
864.592	0.0155408
864.670	0.0156209
864.748	0.0155946
864.826	0.0156218
864.905	0.0158144
864.983	0.0156899
865.061	0.0156340
865.139	0.0157213
865.217	0.0159148
865.295	0.0157534
865.373	0.0158151
865.451	0.0157258
865.530	0.0157626
865.608	0.0156424
865.686	0.0155730
865.764	0.0157492
865.842	0.0156979
865.920	0.0155157
865.998	0.0154795
866.076	0.0154013
866.155	0.0154780
866.233	0.0154512
866.311	0.0154861
866.389	0.0155010
866.467	0.0155523
866.545	0.0155434
866.623	0.0155239
866.701	0.0154569
866.780	0.0155305
866.858	0.0157007
866.936	0.0156020
867.014	0.0155671
867.092	0.0156754
867.170	0.0156984
867.248	0.0156667
867.326	0.0157378
867.405	0.0157112
867.483	0.0156542
867.561	0.0158216
867.639	0.0159409
867.717	0.0156715
867.795	0.0157162
867.873	0.0156271
867.951	0.0156815
868.030	0.0156081
868.108	0.0157030
868.186	0.0156924
868.264	0.0156683
868.342	0.0155662
868.420	0.0156617
868.498	0.0155792
868.576	0.0154494
868.655	0.0155103
868.733	0.0154897
868.811	0.0155336
868.889	0.0152812
868.967	0.0156107
869.045	0.0155471
869.123	0.0155544
869.201	0.0155929
869.280	0.0154007
869.358	0.0155164
869.436	0.0155778
869.514	0.0154115
869.592	0.0156194
869.670	0.0155567
869.748	0.0154932
869.826	0.0155341
869.905	0.0156313
869.983	0.0156828
870.061	0.0156020
870.139	0.0155772
870.217	0.0156921
870.295	0.0157629
870.373	0.0157980
870.451	0.0156770
870.530	0.0157496
870.608	0.0158195
870.686	0.0158028
870.764	0.0157867
870.842	0.0158136
870.920	0.0158573
870.998	0.0157719
871.076	0.0156375
871.155	0.0156863
871.233	0.0156704
871.311	0.0155507
871.389	0.0157261
871.467	0.0157100
871.545	0.0156851
871.623	0.0157168
871.701	0.0155982
871.780	0.0155296
871.858	0.0155585
871.936	0.0155401
872.014	0.0154225
872.092	0.0154405
872.170	0.0154914
872.248	0.0155038
872.326	0.0154312
872.405	0.0154918
872.483	0.0156022
872.561	0.0155402
872.639	0.0155539
872.717	0.0155310
872.795	0.0155462
872.873	0.0155503
872.951	0.0156765
873.030	0.0157076
873.108	0.0156300
873.186	0.0157910
873.264	0.0157845
873.342	0.0156831
873.420	0.0154877
873.498	0.0156992
873.576	0.0156943
873.655	0.0156767
873.733	0.0155732
873.811	0.0156245
873.889	0.0156232
873.967	0.0154665
874.045	0.0156030
874.123	0.0156377
874.201	0.0155502
874.280	0.0154642
874.358	0.0155732
874.436	0.0155056
874.514	0.0156384
874.592	0.0155235
874.670	0.0156274
874.748	0.0155531
874.826	0.0157174
874.905	0.0157155
874.983	0.0156840
875.061	0.0156403
875.139	0.0157132
875.217	0.0157024
875.295	0.0157436
875.373	0.0157682
875.451	0.0158180
875.530	0.0157011
875.608	0.0158276
875.686	0.0158105
875.764	0.0159669
875.842	0.0157557
875.920	0.0159344
875.998	0.0158255
876.076	0.0157735
876.155	0.0157450
876.233	0.0156696
876.311	0.0156128
876.389	0.0156270
876.467	0.0156607
876.545	0.0154929
876.623	0.0155195
876.701	0.0155726
876.780	0.0155013
876.858	0.0155484
876.936	0.0154412
877.014	0.0154224
877.092	0.0155318
877.170	0.0154764
877.248	0.0154272
877.326	0.0156053
877.405	0.0155722
877.483	0.0155346
877.561	0.0155706
877.639	0.0154483
877.717	0.0155934
877.795	0.0155077
877.873	0.0155647
877.951	0.0157550
878.030	0.0155323
878.108	0.0156224
878.186	0.0155247
878.264	0.0155856
878.342	0.0155960
878.420	0.0156844
878.498	0.0156459
878.576	0.0156428
878.655	0.0157753
878.733	0.0156451
878.811	0.0156150
878.889	0.0156370
878.967	0.0156902
879.045	0.0156026
879.123	0.0156554
879.201	0.0156181
879.280	0.0155529
879.358	0.0156531
879.436	0.0156257
879.514	0.0156175
879.592	0.0156720
879.670	0.0155518
879.748	0.0154663
879.826	0.0154448
879.905	0.0153863
879.983	0.0152698
880.061	0.0153278
880.139	0.0153979
880.217	0.0153608
880.295	0.0153240
880.373	0.0153733
880.451	0.0152259
880.530	0.0152280
880.608	0.0152602
880.686	0.0153790
880.764	0.0153268
880.842	0.0154513
880.920	0.0154158
880.998	0.0154987
881.076	0.0155156
881.155	0.0154700
881.233	0.0156042
881.311	0.0156885
881.389	0.0154848
881.467	0.0157619
881.545	0.0157023
881.623	0.0157129
881.701	0.0157964
881.780	0.0157604
881.858	0.0157593
881.936	0.0156273
882.014	0.0157623
882.092	0.0157802
882.170	0.0158148
882.248	0.0158852
882.326	0.0158184
882.405	0.0157863
882.483	0.0157731
882.561	0.0156814
882.639	0.0157388
882.717	0.0157994
882.795	0.0155303
882.873	0.0155130
882.951	0.0155511
883.030	0.0154789
883.108	0.0155653
883.186	0.0155843
883.264	0.0155188
883.342	0.0155458
883.420	0.0156300
883.498	0.0155314
883.576	0.0156393
883.655	0.0154865
883.733	0.0156025
883.811	0.0155772
883.889	0.0156089
883.967	0.0156869
884.045	0.0154753
884.123	0.0155844
884.201	0.0157960
884.280	0.0157069
884.358	0.0156201
884.436	0.0157052
884.514	0.0156989
884.592	0.0156040
884.670	0.0156335
884.748	0.0156345
884.826	0.0156620
884.905	0.0157667
884.983	0.0157999
885.061	0.0157429
885.139	0.0157424
885.217	0.0158701
885.295	0.0158183
885.373	0.0156651
885.451	0.0156409
885.530	0.0155526
885.608	0.0157184
885.686	0.0157330
885.764	0.0156424
885.842	0.0155568
885.920	0.0156216
885.998	0.0155109
886.076	0.0155581
886.155	0.0155096
886.233	0.0155396
886.311	0.0155398
886.389	0.0154790
886.467	0.0155271
886.545	0.0155209
886.623	0.0155000
886.701	0.0155665
886.780	0.0155086
886.858	0.0154079
886.936	0.0154276
887.014	0.0156101
887.092	0.0154653
887.170	0.0153252
887.248	0.0154132
887.326	0.0154829
887.405	0.0153912
887.483	0.0155073
887.561	0.0153791
887.639	0.0152731
887.717	0.0153607
887.795	0.0154686
887.873	0.0155389
887.951	0.0155917
888.030	0.0154887
888.108	0.0155716
888.186	0.0156176
888.264	0.0157229
888.342	0.0157592
888.420	0.0157256
888.498	0.0157458
888.576	0.0157291
888.655	0.0157885
888.733	0.0157498
888.811	0.0157187
888.889	0.0157026
888.967	0.0157146
889.045	0.0158920
889.123	0.0157790
889.201	0.0157346
889.280	0.0157936
889.358	0.0156485
889.436	0.0157123
889.514	0.0157489
889.592	0.0157218
889.670	0.0155283
889.748	0.0156679
889.826	0.0156756
889.905	0.0156015
889.983	0.0156035
890.061	0.0155090
890.139	0.0156773
890.217	0.0156905
890.295	0.0155616
890.373	0.0156611
890.451	0.0155873
890.530	0.0156848
890.608	0.0156707
890.686	0.0156348
890.764	0.0156051
890.842	0.0155341
890.920	0.0156150
890.998	0.0156122
891.076	0.0157226
891.155	0.0157290
891.233	0.0158001
891.311	0.0157411
891.389	0.0156911
891.467	0.0156915
891.545	0.0157373
891.623	0.0159050
891.701	0.0157449
891.780	0.0157546
891.858	0.0157716
891.936	0.0156390
892.014	0.0156408
892.092	0.0158234
892.170	0.0156469
892.248	0.0155971
892.326	0.0157045
892.405	0.0157320
892.483	0.0156603
892.561	0.0156735
892.639	0.0156482
892.717	0.0157381
892.795	0.0154948
892.873	0.0155539
892.951	0.0156081
893.030	0.0156941
893.108	0.0156394
893.186	0.0156841
893.264	0.0155517
893.342	0.0156165
893.420	0.0155473
893.498	0.0154758
893.576	0.0155655
893.655	0.0155631
893.733	0.0155829
893.811	0.0155686
893.889	0.0155715
893.967	0.0156461
894.045	0.0156137
894.123	0.0155033
894.201	0.0155661
894.280	0.0156431
894.358	0.0155230
894.436	0.0156240
894.514	0.0154660
894.592	0.0155499
894.670	0.0155766
894.748	0.0156017
894.826	0.0155373
894.905	0.0154657
894.983	0.0153902
895.061	0.0155201
895.139	0.0155241
895.217	0.0154930
895.295	0.0156106
895.373	0.0154963
895.451	0.0157031
895.530	0.0156400
895.608	0.0156721
895.686	0.0155670
895.764	0.0155350
895.842	0.0156584
895.920	0.0158440
895.998	0.0155814
896.076	0.0157787
896.155	0.0158367
896.233	0.0157683
896.311	0.0158319
896.389	0.0157916
896.467	0.0157413
896.545	0.0157350
896.623	0.0158033
896.701	0.0157732
896.780	0.0157607
896.858	0.0157432
896.936	0.0158194
897.014	0.0157317
897.092	0.0156004
897.170	0.0157900
897.248	0.0157492
897.326	0.0156167
897.405	0.0156371
897.483	0.0157220
897.561	0.0156981
897.639	0.0156032
897.717	0.0156555
897.795	0.0156608
897.873	0.0156204
897.951	0.0156715
898.030	0.0156969
898.108	0.0157168
898.186	0.0157254
898.264	0.0155605
898.342	0.0156171
898.420	0.0158009
898.498	0.0156324
898.576	0.0156226
898.655	0.0156157
898.733	0.0157228
898.811	0.0156463
898.889	0.0155621
898.967	0.0155634
899.045	0.0156384
899.123	0.0156837
899.201	0.0155963
899.280	0.0156541
899.358	0.0155139
899.436	0.0155497
899.514	0.0154347
899.592	0.0153925
899.670	0.0153825
899.748	0.0155226
899.826	0.0155893
899.905	0.0154463
899.983	0.0155318
900.061	0.0154787
900.139	0.0154388
900.217	0.0154222
900.295	0.0154951
900.373	0.0154990
900.451	0.0155333
900.530	0.0155458
900.608	0.0154859
900.686	0.0154131
900.764	0.0154974
900.842	0.0155566
900.920	0.0155290
900.998	0.0158559
901.076	0.0156528
901.155	0.0157206
901.233	0.0157371
901.311	0.0157405
901.389	0.0156399
901.467	0.0156501
901.545	0.0157259
901.623	0.0156306
901.701	0.0156377
901.780	0.0156159
901.858	0.0156806
901.936	0.0155862
902.014	0.0155825
902.092	0.0155695
902.170	0.0154192
902.248	0.0155432
902.326	0.0155220
902.405	0.0155022
902.483	0.0154176
902.561	0.0153668
902.639	0.0155264
902.717	0.0155613
902.795	0.0155461
902.873	0.0155077
902.951	0.0156101
903.030	0.0154974
903.108	0.0155291
903.186	0.0154745
903.264	0.0154491
903.342	0.0155725
903.420	0.0156301
903.498	0.0154440
903.576	0.0153903
903.655	0.0155914
903.733	0.0154972
903.811	0.0155051
903.889	0.0156704
903.967	0.0155110
904.045	0.0154822
904.123	0.0154855
904.201	0.0154935
904.280	0.0154675
904.358	0.0155213
904.436	0.0156635
904.514	0.0156233
904.592	0.0156116
904.670	0.0156036
904.748	0.0156062
904.826	0.0155944
904.905	0.0156335
904.983	0.0156694
905.061	0.0156360
905.139	0.0156570
905.217	0.0157261
905.295	0.0157896
905.373	0.0158163
905.451	0.0156998
905.530	0.0157470
905.608	0.0157655
905.686	0.0156924
905.764	0.0156289
905.842	0.0154394
905.920	0.0155331
905.998	0.0156345
906.076	0.0156389
906.155	0.0155900
906.233	0.0154256
906.311	0.0156608
906.389	0.0156293
906.467	0.0154826
906.545	0.0155917
906.623	0.0157206
906.701	0.0156834
906.780	0.0156273
906.858	0.0156121
906.936	0.0155331
907.014	0.0156689
907.092	0.0156068
907.170	0.0156249
907.248	0.0157657
907.326	0.0157085
907.405	0.0156711
907.483	0.0157609
907.561	0.0158279
907.639	0.0156496
907.717	0.0157916
907.795	0.0157996
907.873	0.0156937
907.951	0.0157950
908.030	0.0157597
908.108	0.0157675
908.186	0.0158746
908.264	0.0157072
908.342	0.0158022
908.420	0.0157572
908.498	0.0156946
908.576	0.0155955
908.655	0.0157643
908.733	0.0157112
908.811	0.0157928
908.889	0.0157334
908.967	0.0156401
909.045	0.0157508
909.123	0.0157597
909.201	0.0157548
909.280	0.0155811
909.358	0.0156535
909.436	0.0157255
909.514	0.0157042
909.592	0.0156570
909.670	0.0154977
909.748	0.0155991
909.826	0.0154644
909.905	0.0153174
909.983	0.0154639
910.061	0.0154810
910.139	0.0155524
910.217	0.0153345
910.295	0.0152635
910.373	0.0155146
910.451	0.0154371
910.530	0.0154501
910.608	0.0154819
910.686	0.0152104
910.764	0.0153712
910.842	0.0154592
910.920	0.0153422
910.998	0.0154831
911.076	0.0155019
911.155	0.0155212
911.233	0.0155846
911.311	0.0155988
911.389	0.0155820
911.467	0.0156316
911.545	0.0154906
911.623	0.0156737
911.701	0.0156416
911.780	0.0156306
911.858	0.0156451
911.936	0.0156399
912.014	0.0157381
912.092	0.0157553
912.170	0.0157041
912.248	0.0157980
912.326	0.0158243
912.405	0.0157819
912.483	0.0158250
912.561	0.0157077
912.639	0.0159262
912.717	0.0156599
912.795	0.0157475
912.873	0.0159013
912.951	0.0158236
913.030	0.0157766
913.108	0.0157710
913.186	0.0158571
913.264	0.0157687
913.342	0.0157045
913.420	0.0156702
913.498	0.0157636
913.576	0.0155656
913.655	0.0155630
913.733	0.0157015
913.811	0.0157449
913.889	0.0155966
913.967	0.0156852
914.045	0.0157333
914.123	0.0157689
914.201	0.0157436
914.280	0.0157238
914.358	0.0157906
914.436	0.0158653
914.514	0.0158207
914.592	0.0157190
914.670	0.0156969
914.748	0.0157489
914.826	0.0156839
914.905	0.0157441
914.983	0.0158782
915.061	0.0158357
915.139	0.0156350
915.217	0.0158091
915.295	0.0158630
915.373	0.0157695
915.451	0.0156630
915.530	0.0156886
915.608	0.0157576
915.686	0.0154896
915.764	0.0155376
915.842	0.0157240
915.920	0.0154716
915.998	0.0155555
916.076	0.0156163
916.155	0.0155531
916.233	0.0154039
916.311	0.0155017
916.389	0.0155627
916.467	0.0154919
916.545	0.0155756
916.623	0.0154683
916.701	0.0154725
916.780	0.0155239
916.858	0.0155484
916.936	0.0154259
917.014	0.0154953
917.092	0.0155566
917.170	0.0154798
917.248	0.0154461
917.326	0.0154526
917.405	0.0155212
917.483	0.0154866
917.561	0.0155328
917.639	0.0153738
917.717	0.0153931
917.795	0.0154147
917.873	0.0154040
917.951	0.0153941
918.030	0.0154089
918.108	0.0154636
918.186	0.0155698
918.264	0.0155424
918.342	0.0156223
918.420	0.0154237
918.498	0.0155721
918.576	0.0155910
918.655	0.0154413
918.733	0.0154845
918.811	0.0155952
918.889	0.0157069
918.967	0.0157430
919.045	0.0156673
919.123	0.0156047
919.201	0.0157464
919.280	0.0156253
919.358	0.0157079
919.436	0.0156894
919.514	0.0156731
919.592	0.0156904
919.670	0.0156633
919.748	0.0156316
919.826	0.0158019
919.905	0.0155312
919.983	0.0156175
920.061	0.0157076
920.139	0.0156503
920.217	0.0157820
920.295	0.0157262
920.373	0.0156712
920.451	0.0155241
920.530	0.0155829
920.608	0.0155595
920.686	0.0155652
920.764	0.0155539
920.842	0.0155718
920.920	0.0155306
920.998	0.0155568
921.076	0.0156770
921.155	0.0153529
921.233	0.0156400
921.311	0.0156439
921.389	0.0155983
921.467	0.0156184
921.545	0.0155669
921.623	0.0157763
921.701	0.0157182
921.780	0.0157491
921.858	0.0155029
921.936	0.0156602
922.014	0.0156674
922.092	0.0154814
922.170	0.0157085
922.248	0.0156081
922.326	0.0155798
922.405	0.0157244
922.483	0.0154649
922.561	0.0155658
922.639	0.0155065
922.717	0.0155644
922.795	0.0154803
922.873	0.0154604
922.951	0.0156299
923.030	0.0155245
923.108	0.0155437
923.186	0.0155070
923.264	0.0156321
923.342	0.0155206
923.420	0.0154351
923.498	0.0154730
923.576	0.0154845
923.655	0.0155343
923.733	0.0154875
923.811	0.0155086
923.889	0.0156459
923.967	0.0155228
924.045	0.0155907
924.123	0.0154871
924.201	0.0154972
924.280	0.0154933
924.358	0.0154943
924.436	0.0156028
924.514	0.0154823
924.592	0.0154252
924.670	0.0154195
924.748	0.0153999
924.826	0.0154028
924.905	0.0154170
924.983	0.0154121
925.061	0.0154095
925.139	0.0152665
925.217	0.0152934
925.295	0.0154579
925.373	0.0154579
925.451	0.0154512
925.530	0.0155951
925.608	0.0154169
925.686	0.0154961
925.764	0.0155309
925.842	0.0155125
925.920	0.0155254
925.998	0.0156252
926.076	0.0155096
926.155	0.0157222
926.233	0.0155721
926.311	0.0155629
926.389	0.0156455
926.467	0.0155392
926.545	0.0156237
926.623	0.0156837
926.701	0.0157199
926.780	0.0155293
926.858	0.0156710
926.936	0.0156831
927.014	0.0158065
927.092	0.0156060
927.170	0.0156202
927.248	0.0156197
927.326	0.0156555
927.405	0.0156724
927.483	0.0154537
927.561	0.0156866
927.639	0.0155482
927.717	0.0155211
927.795	0.0155664
927.873	0.0154659
927.951	0.0156415
928.030	0.0156946
928.108	0.0156227
928.186	0.0156802
928.264	0.0156331
928.342	0.0156134
928.420	0.0155525
928.498	0.0156884
928.576	0.0157058
928.655	0.0156921
928.733	0.0156391
928.811	0.0156960
928.889	0.0158050
928.967	0.0156071
929.045	0.0156717
929.123	0.0156754
929.201	0.0158060
929.280	0.0158505
929.358	0.0156766
929.436	0.0156554
929.514	0.0156159
929.592	0.0156315
929.670	0.0156919
929.748	0.0156863
929.826	0.0155885
929.905	0.0155965
929.983	0.0155964
930.061	0.0156619
930.139	0.0155347
930.217	0.0155771
930.295	0.0154980
930.373	0.0155511
930.451	0.0155383
930.530	0.0154974
930.608	0.0153811
930.686	0.0154300
930.764	0.0155808
930.842	0.0155393
930.920	0.0154878
930.998	0.0153265
931.076	0.0154647
931.155	0.0154875
931.233	0.0155157
931.311	0.0156150
931.389	0.0155827
931.467	0.0154308
931.545	0.0154858
931.623	0.0156035
931.701	0.0155524
931.780	0.0156663
931.858	0.0155703
931.936	0.0155350
932.014	0.0155391
932.092	0.0155669
932.170	0.0154253
932.248	0.0156734
932.326	0.0153903
932.405	0.0155334
932.483	0.0155724
932.561	0.0155944
932.639	0.0156780
932.717	0.0155225
932.795	0.0154833
932.873	0.0155048
932.951	0.0155659
933.030	0.0156393
933.108	0.0155147
933.186	0.0154492
933.264	0.0155117
933.342	0.0155803
933.420	0.0155591
933.498	0.0156747
933.576	0.0157153
933.655	0.0157230
933.733	0.0156858
933.811	0.0157531
933.889	0.0156490
933.967	0.0156897
934.045	0.0155968
934.123	0.0157498
934.201	0.0158134
934.280	0.0157484
934.358	0.0158665
934.436	0.0158811
934.514	0.0157770
934.592	0.0156629
934.670	0.0157950
934.748	0.0157384
934.826	0.0157706
934.905	0.0157212
934.983	0.0158090
935.061	0.0155732
935.139	0.0155473
935.217	0.0157824
935.295	0.0156862
935.373	0.0156165
935.451	0.0157355
935.530	0.0155623
935.608	0.0155276
935.686	0.0155809
935.764	0.0157372
935.842	0.0155910
935.920	0.0156288
935.998	0.0156207
936.076	0.0156771
936.155	0.0156660
936.233	0.0157133
936.311	0.0156209
936.389	0.0156820
936.467	0.0156155
936.545	0.0155378
936.623	0.0155721
936.701	0.0156851
936.780	0.0156258
936.858	0.0156377
936.936	0.0155948
937.014	0.0156110
937.092	0.0155721
937.170	0.0157455
937.248	0.0155914
937.326	0.0155942
937.405	0.0155691
937.483	0.0156824
937.561	0.0156429
937.639	0.0157288
937.717	0.0156133
937.795	0.0154613
937.873	0.0156496
937.951	0.0155534
938.030	0.0155236
938.108	0.0156570
938.186	0.0156783
938.264	0.0154734
938.342	0.0154102
938.420	0.0156483
938.498	0.0156539
938.576	0.0155482
938.655	0.0155423
938.733	0.0155153
938.811	0.0156584
938.889	0.0156789
938.967	0.0156266
939.045	0.0155470
939.123	0.0157320
939.201	0.0156641
939.280	0.0156303
939.358	0.0156743
939.436	0.0156456
939.514	0.0155245
939.592	0.0155923
939.670	0.0155801
939.748	0.0155682
939.826	0.0155699
939.905	0.0154890
939.983	0.0155287
940.061	0.0153877
940.139	0.0154154
940.217	0.0153888
940.295	0.0155430
940.373	0.0154198
940.451	0.0153524
940.530	0.0155051
940.608	0.0155326
940.686	0.0154292
940.764	0.0155482
940.842	0.0154929
940.920	0.0156710
940.998	0.0157159
941.076	0.0158016
941.155	0.0156873
941.233	0.0157611
941.311	0.0158574
941.389	0.0157902
941.467	0.0159521
941.545	0.0159337
941.623	0.0158141
941.701	0.0158392
941.780	0.0158213
941.858	0.0157358
941.936	0.0159081
942.014	0.0159315
942.092	0.0158063
942.170	0.0158079
942.248	0.0157159
942.326	0.0157507
942.405	0.0157320
942.483	0.0157875
942.561	0.0155721
942.639	0.0156890
942.717	0.0156937
942.795	0.0156483
942.873	0.0156852
942.951	0.0156398
943.030	0.0154488
943.108	0.0153524
943.186	0.0155109
943.264	0.0156660
943.342	0.0155921
943.420	0.0156333
943.498	0.0154557
943.576	0.0154191
943.655	0.0155000
943.733	0.0155899
943.811	0.0155676
943.889	0.0154999
943.967	0.0156676
944.045	0.0155843
944.123	0.0157520
944.201	0.0155767
944.280	0.0155615
944.358	0.0157270
944.436	0.0155967
944.514	0.0156256
944.592	0.0155618
944.670	0.0156359
944.748	0.0157899
944.826	0.0157272
944.905	0.0156347
944.983	0.0157251
945.061	0.0155519
945.139	0.0156577
945.217	0.0155698
945.295	0.0156071
945.373	0.0156939
945.451	0.0156342
945.530	0.0157410
945.608	0.0156818
945.686	0.0154958
945.764	0.0156504
945.842	0.0156860
945.920	0.0157335
945.998	0.0156622
946.076	0.0157288
946.155	0.0156287
946.233	0.0156557
946.311	0.0158348
946.389	0.0156172
946.467	0.0155417
946.545	0.0156004
946.623	0.0157023
946.701	0.0155809
946.780	0.0155552
946.858	0.0156055
946.936	0.0157291
947.014	0.0155647
947.092	0.0155771
947.170	0.0155540
947.248	0.0156967
947.326	0.0155398
947.405	0.0155199
947.483	0.0156516
947.561	0.0156628
947.639	0.0155562
947.717	0.0155496
947.795	0.0156316
947.873	0.0154478
947.951	0.0156073
948.030	0.0157065
948.108	0.0154971
948.186	0.0155866
948.264	0.0155617
948.342	0.0155209
948.420	0.0154846
948.498	0.0155535
948.576	0.0155614
948.655	0.0155439
948.733	0.0157703
948.811	0.0156167
948.889	0.0154893
948.967	0.0155482
949.045	0.0156863
949.123	0.0156509
949.201	0.0157809
949.280	0.0157151
949.358	0.0157214
949.436	0.0156646
949.514	0.0156472
949.592	0.0157700
949.670	0.0157447
949.748	0.0157075
949.826	0.0156775
949.905	0.0156255
949.983	0.0155989
950.061	0.0156991
950.139	0.0156619
950.217	0.0156169
950.295	0.0155167
950.373	0.0156327
950.451	0.0156129
950.530	0.0154272
950.608	0.0154176
950.686	0.0154343
950.764	0.0155386
950.842	0.0153736
950.920	0.0154131
950.998	0.0153935
951.076	0.0153393
951.155	0.0153387
951.233	0.0153711
951.311	0.0153761
951.389	0.0153979
951.467	0.0154817
951.545	0.0155109
951.623	0.0155379
951.701	0.0155475
951.780	0.0153524
951.858	0.0153254
951.936	0.0154987
952.014	0.0154019
952.092	0.0154491
952.170	0.0156563
952.248	0.0155680
952.326	0.0155498
952.405	0.0156757
952.483	0.0155523
952.561	0.0155605
952.639	0.0155398
952.717	0.0155704
952.795	0.0155834
952.873	0.0154726
952.951	0.0156831
953.030	0.0155429
953.108	0.0156810
953.186	0.0155288
953.264	0.0155362
953.342	0.0157218
953.420	0.0157499
953.498	0.0155881
953.576	0.0155464
953.655	0.0155096
953.733	0.0156233
953.811	0.0158053
953.889	0.0156968
953.967	0.0155631
954.045	0.0155756
954.123	0.0154623
954.201	0.0157106
954.280	0.0158042
954.358	0.0156750
954.436	0.0156072
954.514	0.0156512
954.592	0.0157812
954.670	0.0156371
954.748	0.0156737
954.826	0.0156271
954.905	0.0156199
954.983	0.0155888
955.061	0.0155872
955.139	0.0155457
955.217	0.0155888
955.295	0.0155759
955.373	0.0154923
955.451	0.0154928
955.530	0.0156400
955.608	0.0154319
955.686	0.0154516
955.764	0.0153687
955.842	0.0155025
955.920	0.0154596
955.998	0.0154707
956.076	0.0153571
956.155	0.0153914
956.233	0.0153712
956.311	0.0154909
956.389	0.0154870
956.467	0.0153511
956.545	0.0155862
956.623	0.0155801
956.701	0.0155648
956.780	0.0156644
956.858	0.0157017
956.936	0.0156924
957.014	0.0156098
957.092	0.0157439
957.170	0.0157877
957.248	0.0157835
957.326	0.0158627
957.405	0.0157668
957.483	0.0157858
957.561	0.0157865
957.639	0.0156803
957.717	0.0155803
957.795	0.0156007
957.873	0.0156726
957.951	0.0155513
958.030	0.0155524
958.108	0.0155925
958.186	0.0154858
958.264	0.0156165
958.342	0.0155018
958.420	0.0153796
958.498	0.0155242
958.576	0.0153125
958.655	0.0152908
958.733	0.0155167
958.811	0.0155520
958.889	0.0155275
958.967	0.0154285
959.045	0.0154967
959.123	0.0155786
959.201	0.0155498
959.280	0.0155352
959.358	0.0155417
959.436	0.0156169
959.514	0.0155899
959.592	0.0157391
959.670	0.0156598
959.748	0.0157077
959.826	0.0157008
959.905	0.0157387
