05/17/2022	16:29:57	Ver.	4.1	UNKNOWN
Optical Delay	639.989416	Delta X		0.078125	Sweeps	1	Scan Rate	0/0
Coordinates	Axis 1	NaN	Axis 2	NaN	Axis 3	NaN	Axis 4	NaN	Axis 5	NaN	Axis 6	0.000000
TX Power	0.000000	RX Power	0.000000

639.989	0.0151267
640.068	0.0151095
640.146	0.0151199
640.224	0.0150600
640.302	0.0149367
640.380	0.0152106
640.458	0.0152720
640.536	0.0151663
640.614	0.0151521
640.693	0.0150501
640.771	0.0151752
640.849	0.0152148
640.927	0.0150894
641.005	0.0151968
641.083	0.0150198
641.161	0.0150471
641.239	0.0152091
641.318	0.0152151
641.396	0.0150948
641.474	0.0150966
641.552	0.0151443
641.630	0.0151604
641.708	0.0150102
641.786	0.0150509
641.864	0.0151255
641.943	0.0150739
642.021	0.0150697
642.099	0.0151083
642.177	0.0151028
642.255	0.0151003
642.333	0.0151299
642.411	0.0151986
642.489	0.0150731
642.568	0.0150242
642.646	0.0151817
642.724	0.0150764
642.802	0.0150662
642.880	0.0150832
642.958	0.0150213
643.036	0.0150935
643.114	0.0152242
643.193	0.0150636
643.271	0.0149281
643.349	0.0151087
643.427	0.0151788
643.505	0.0150161
643.583	0.0151526
643.661	0.0151640
643.739	0.0151188
643.818	0.0150383
643.896	0.0152235
643.974	0.0150932
644.052	0.0151399
644.130	0.0152071
644.208	0.0150816
644.286	0.0151144
644.364	0.0153168
644.443	0.0150537
644.521	0.0150837
644.599	0.0150697
644.677	0.0151111
644.755	0.0151635
644.833	0.0151141
644.911	0.0152004
644.989	0.0151603
645.068	0.0151712
645.146	0.0151534
645.224	0.0150478
645.302	0.0150744
645.380	0.0151093
645.458	0.0150023
645.536	0.0151894
645.614	0.0150803
645.693	0.0150444
645.771	0.0151800
645.849	0.0150876
645.927	0.0151328
646.005	0.0151927
646.083	0.0149907
646.161	0.0150628
646.239	0.0152862
646.318	0.0150367
646.396	0.0150785
646.474	0.0152126
646.552	0.0151291
646.630	0.0151972
646.708	0.0151670
646.786	0.0150234
646.864	0.0149933
646.943	0.0150840
647.021	0.0150832
647.099	0.0151917
647.177	0.0152190
647.255	0.0151364
647.333	0.0150446
647.411	0.0151139
647.489	0.0149756
647.568	0.0151260
647.646	0.0151107
647.724	0.0152232
647.802	0.0151817
647.880	0.0150838
647.958	0.0150922
648.036	0.0151200
648.114	0.0151531
648.193	0.0150983
648.271	0.0150300
648.349	0.0151492
648.427	0.0151192
648.505	0.0150938
648.583	0.0150887
648.661	0.0150576
648.739	0.0152180
648.818	0.0150465
648.896	0.0151700
648.974	0.0152432
649.052	0.0151864
649.130	0.0149587
649.208	0.0151494
649.286	0.0151083
649.364	0.0150302
649.443	0.0150882
649.521	0.0151003
649.599	0.0150864
649.677	0.0150755
649.755	0.0150504
649.833	0.0151987
649.911	0.0151305
649.989	0.0150996
650.068	0.0151227
650.146	0.0151030
650.224	0.0150401
650.302	0.0150507
650.380	0.0150805
650.458	0.0151723
650.536	0.0151086
650.614	0.0151305
650.693	0.0151283
650.771	0.0151483
650.849	0.0151070
650.927	0.0149950
651.005	0.0152107
651.083	0.0151756
651.161	0.0150878
651.239	0.0150403
651.318	0.0151781
651.396	0.0150606
651.474	0.0151019
651.552	0.0150962
651.630	0.0151115
651.708	0.0151794
651.786	0.0152168
651.864	0.0151881
651.943	0.0150540
652.021	0.0150664
652.099	0.0151247
652.177	0.0151652
652.255	0.0150478
652.333	0.0151242
652.411	0.0150424
652.489	0.0151392
652.568	0.0151526
652.646	0.0150951
652.724	0.0151868
652.802	0.0151662
652.880	0.0150896
652.958	0.0149818
653.036	0.0150542
653.114	0.0153230
653.193	0.0151273
653.271	0.0150547
653.349	0.0150831
653.427	0.0149981
653.505	0.0151176
653.583	0.0150393
653.661	0.0149823
653.739	0.0151268
653.818	0.0150832
653.896	0.0150356
653.974	0.0150697
654.052	0.0151023
654.130	0.0149903
654.208	0.0150823
654.286	0.0152390
654.364	0.0151540
654.443	0.0151599
654.521	0.0152388
654.599	0.0151282
654.677	0.0150249
654.755	0.0153646
654.833	0.0150013
654.911	0.0151086
654.989	0.0152343
655.068	0.0151493
655.146	0.0150954
655.224	0.0149954
655.302	0.0151179
655.380	0.0151924
655.458	0.0152146
655.536	0.0151823
655.614	0.0149522
655.693	0.0150991
655.771	0.0151450
655.849	0.0150447
655.927	0.0151394
656.005	0.0150961
656.083	0.0151877
656.161	0.0151166
656.239	0.0149203
656.318	0.0150650
656.396	0.0151304
656.474	0.0151299
656.552	0.0151594
656.630	0.0151774
656.708	0.0149866
656.786	0.0149500
656.864	0.0150970
656.943	0.0152811
657.021	0.0151607
657.099	0.0151660
657.177	0.0150467
657.255	0.0150303
657.333	0.0151675
657.411	0.0152380
657.489	0.0150504
657.568	0.0150906
657.646	0.0150505
657.724	0.0151259
657.802	0.0151482
657.880	0.0151617
657.958	0.0150553
658.036	0.0151125
658.114	0.0150891
658.193	0.0149511
658.271	0.0151186
658.349	0.0150719
658.427	0.0150221
658.505	0.0149933
658.583	0.0151350
658.661	0.0150124
658.739	0.0151324
658.818	0.0150803
658.896	0.0150871
658.974	0.0152140
659.052	0.0150638
659.130	0.0151164
659.208	0.0153366
659.286	0.0151719
659.364	0.0149970
659.443	0.0151851
659.521	0.0151183
659.599	0.0150825
659.677	0.0152351
659.755	0.0151408
659.833	0.0150721
659.911	0.0151310
659.989	0.0151501
660.068	0.0151623
660.146	0.0149809
660.224	0.0151544
660.302	0.0152545
660.380	0.0150316
660.458	0.0150410
660.536	0.0151020
660.614	0.0149870
660.693	0.0150592
660.771	0.0151646
660.849	0.0151266
660.927	0.0150912
661.005	0.0150104
661.083	0.0150491
661.161	0.0151557
661.239	0.0150982
661.318	0.0150927
661.396	0.0151602
661.474	0.0150368
661.552	0.0151154
661.630	0.0152412
661.708	0.0150878
661.786	0.0150146
661.864	0.0152083
661.943	0.0150895
662.021	0.0149863
662.099	0.0150793
662.177	0.0150328
662.255	0.0150160
662.333	0.0150681
662.411	0.0151236
662.489	0.0152723
662.568	0.0150948
662.646	0.0151077
662.724	0.0150850
662.802	0.0151719
662.880	0.0150712
662.958	0.0151047
663.036	0.0150382
663.114	0.0150845
663.193	0.0151486
663.271	0.0150719
663.349	0.0152836
663.427	0.0151449
663.505	0.0150246
663.583	0.0151563
663.661	0.0150556
663.739	0.0151562
663.818	0.0151886
663.896	0.0151637
663.974	0.0152029
664.052	0.0150478
664.130	0.0152371
664.208	0.0151723
664.286	0.0150033
664.364	0.0151709
664.443	0.0151591
664.521	0.0152264
664.599	0.0151076
664.677	0.0151549
664.755	0.0150953
664.833	0.0151748
664.911	0.0151037
664.989	0.0150257
665.068	0.0151592
665.146	0.0151128
665.224	0.0151075
665.302	0.0150568
665.380	0.0151766
665.458	0.0152305
665.536	0.0151704
665.614	0.0151646
665.693	0.0151627
665.771	0.0151754
665.849	0.0151259
665.927	0.0151435
666.005	0.0151427
666.083	0.0151006
666.161	0.0151135
666.239	0.0150991
666.318	0.0151474
666.396	0.0151419
666.474	0.0151669
666.552	0.0150741
666.630	0.0152643
666.708	0.0152818
666.786	0.0151314
666.864	0.0150539
666.943	0.0150018
667.021	0.0152067
667.099	0.0151527
667.177	0.0151417
667.255	0.0151487
667.333	0.0151562
667.411	0.0151475
667.489	0.0151299
667.568	0.0153625
667.646	0.0152894
667.724	0.0151080
667.802	0.0150765
667.880	0.0151388
667.958	0.0151137
668.036	0.0150168
668.114	0.0150134
668.193	0.0152132
668.271	0.0151970
668.349	0.0151775
668.427	0.0150504
668.505	0.0152750
668.583	0.0151665
668.661	0.0150982
668.739	0.0151718
668.818	0.0150668
668.896	0.0151098
668.974	0.0151036
669.052	0.0150526
669.130	0.0150053
669.208	0.0151974
669.286	0.0151516
669.364	0.0151971
669.443	0.0151912
669.521	0.0151055
669.599	0.0150826
669.677	0.0151597
669.755	0.0149942
669.833	0.0150529
669.911	0.0151476
669.989	0.0149780
670.068	0.0150227
670.146	0.0150684
670.224	0.0151548
670.302	0.0151649
670.380	0.0150603
670.458	0.0150451
670.536	0.0151281
670.614	0.0150555
670.693	0.0150726
670.771	0.0151122
670.849	0.0150690
670.927	0.0150322
671.005	0.0150409
671.083	0.0150772
671.161	0.0150776
671.239	0.0150775
671.318	0.0151006
671.396	0.0151324
671.474	0.0149594
671.552	0.0149106
671.630	0.0151600
671.708	0.0150681
671.786	0.0151254
671.864	0.0149374
671.943	0.0150787
672.021	0.0149532
672.099	0.0149352
672.177	0.0151431
672.255	0.0149082
672.333	0.0151348
672.411	0.0150871
672.489	0.0151443
672.568	0.0150356
672.646	0.0150018
672.724	0.0149270
672.802	0.0150066
672.880	0.0150018
672.958	0.0150445
673.036	0.0151225
673.114	0.0151082
673.193	0.0150033
673.271	0.0151526
673.349	0.0151173
673.427	0.0149565
673.505	0.0149275
673.583	0.0150416
673.661	0.0149996
673.739	0.0149729
673.818	0.0150068
673.896	0.0150381
673.974	0.0150535
674.052	0.0149963
674.130	0.0149998
674.208	0.0150744
674.286	0.0151487
674.364	0.0150624
674.443	0.0149966
674.521	0.0149969
674.599	0.0150082
674.677	0.0150369
674.755	0.0150137
674.833	0.0150379
674.911	0.0150732
674.989	0.0151840
675.068	0.0150713
675.146	0.0151712
675.224	0.0150269
675.302	0.0149030
675.380	0.0150845
675.458	0.0151247
675.536	0.0151201
675.614	0.0150809
675.693	0.0151244
675.771	0.0151008
675.849	0.0151058
675.927	0.0150816
676.005	0.0151991
676.083	0.0151485
676.161	0.0150768
676.239	0.0150834
676.318	0.0151044
676.396	0.0151060
676.474	0.0151746
676.552	0.0150582
676.630	0.0151636
676.708	0.0152349
676.786	0.0152296
676.864	0.0152263
676.943	0.0152083
677.021	0.0151480
677.099	0.0151281
677.177	0.0150980
677.255	0.0151579
677.333	0.0151046
677.411	0.0150127
677.489	0.0151511
677.568	0.0152090
677.646	0.0151184
677.724	0.0151817
677.802	0.0150784
677.880	0.0150865
677.958	0.0149831
678.036	0.0150069
678.114	0.0150407
678.193	0.0150784
678.271	0.0151238
678.349	0.0151357
678.427	0.0151714
678.505	0.0152190
678.583	0.0151936
678.661	0.0151294
678.739	0.0151205
678.818	0.0151746
678.896	0.0151557
678.974	0.0152658
679.052	0.0153217
679.130	0.0151743
679.208	0.0150131
679.286	0.0151060
679.364	0.0151419
679.443	0.0152345
679.521	0.0151984
679.599	0.0151079
679.677	0.0152348
679.755	0.0151777
679.833	0.0151569
679.911	0.0152015
679.989	0.0151210
680.068	0.0152283
680.146	0.0151964
680.224	0.0151559
680.302	0.0150488
680.380	0.0151934
680.458	0.0152729
680.536	0.0152822
680.614	0.0152971
680.693	0.0151442
680.771	0.0151330
680.849	0.0151896
680.927	0.0153133
681.005	0.0152013
681.083	0.0151519
681.161	0.0151712
681.239	0.0151120
681.318	0.0150975
681.396	0.0151331
681.474	0.0150874
681.552	0.0152833
681.630	0.0151646
681.708	0.0150848
681.786	0.0151295
681.864	0.0152661
681.943	0.0152071
682.021	0.0151881
682.099	0.0151567
682.177	0.0151420
682.255	0.0152246
682.333	0.0151683
682.411	0.0151302
682.489	0.0150705
682.568	0.0151916
682.646	0.0151591
682.724	0.0151435
682.802	0.0151954
682.880	0.0151922
682.958	0.0151263
683.036	0.0150745
683.114	0.0152744
683.193	0.0152605
683.271	0.0151008
683.349	0.0150955
683.427	0.0151161
683.505	0.0150301
683.583	0.0153001
683.661	0.0151979
683.739	0.0151099
683.818	0.0150855
683.896	0.0152166
683.974	0.0151306
684.052	0.0151495
684.130	0.0151278
684.208	0.0151366
684.286	0.0153436
684.364	0.0153007
684.443	0.0151241
684.521	0.0149994
684.599	0.0152480
684.677	0.0152020
684.755	0.0151340
684.833	0.0152081
684.911	0.0151579
684.989	0.0151053
685.068	0.0151253
685.146	0.0150990
685.224	0.0151686
685.302	0.0152474
685.380	0.0150887
685.458	0.0150377
685.536	0.0150574
685.614	0.0152206
685.693	0.0151381
685.771	0.0150160
685.849	0.0150385
685.927	0.0152379
686.005	0.0151794
686.083	0.0152029
686.161	0.0150188
686.239	0.0150484
686.318	0.0150474
686.396	0.0152013
686.474	0.0149774
686.552	0.0150784
686.630	0.0151257
686.708	0.0151240
686.786	0.0150284
686.864	0.0150348
686.943	0.0149834
687.021	0.0150906
687.099	0.0152293
687.177	0.0151803
687.255	0.0150476
687.333	0.0152052
687.411	0.0150374
687.489	0.0151709
687.568	0.0152182
687.646	0.0151003
687.724	0.0150055
687.802	0.0150558
687.880	0.0150336
687.958	0.0151128
688.036	0.0150582
688.114	0.0150478
688.193	0.0150167
688.271	0.0150497
688.349	0.0150677
688.427	0.0150249
688.505	0.0150387
688.583	0.0150626
688.661	0.0150691
688.739	0.0153194
688.818	0.0152367
688.896	0.0151295
688.974	0.0150583
689.052	0.0152667
689.130	0.0151978
689.208	0.0151160
689.286	0.0151695
689.364	0.0152040
689.443	0.0151533
689.521	0.0150031
689.599	0.0150385
689.677	0.0150632
689.755	0.0149444
689.833	0.0150333
689.911	0.0149113
689.989	0.0148871
690.068	0.0149789
690.146	0.0149909
690.224	0.0150259
690.302	0.0151000
690.380	0.0150901
690.458	0.0150716
690.536	0.0150533
690.614	0.0153053
690.693	0.0153271
690.771	0.0153542
690.849	0.0153101
690.927	0.0153254
691.005	0.0153529
691.083	0.0153371
691.161	0.0152188
691.239	0.0150872
691.318	0.0151698
691.396	0.0150592
691.474	0.0150256
691.552	0.0149496
691.630	0.0148721
691.708	0.0148305
691.786	0.0149078
691.864	0.0147476
691.943	0.0147520
692.021	0.0149080
692.099	0.0149596
692.177	0.0148142
692.255	0.0148238
692.333	0.0149946
692.411	0.0150566
692.489	0.0150423
692.568	0.0150740
692.646	0.0152995
692.724	0.0152304
692.802	0.0153220
692.880	0.0152415
692.958	0.0153018
693.036	0.0153108
693.114	0.0151796
693.193	0.0154747
693.271	0.0152629
693.349	0.0152952
693.427	0.0151816
693.505	0.0150768
693.583	0.0152161
693.661	0.0152080
693.739	0.0150523
693.818	0.0150101
693.896	0.0150233
693.974	0.0150307
694.052	0.0150425
694.130	0.0150536
694.208	0.0147932
694.286	0.0148624
694.364	0.0148964
694.443	0.0149681
694.521	0.0150249
694.599	0.0148819
694.677	0.0148614
694.755	0.0149182
694.833	0.0149949
694.911	0.0150428
694.989	0.0148080
695.068	0.0149160
695.146	0.0150838
695.224	0.0152002
695.302	0.0152306
695.380	0.0151693
695.458	0.0151640
695.536	0.0153020
695.614	0.0153077
695.693	0.0153249
695.771	0.0152182
695.849	0.0153854
695.927	0.0152380
696.005	0.0152004
696.083	0.0151822
696.161	0.0151824
696.239	0.0152910
696.318	0.0150854
696.396	0.0152625
696.474	0.0150788
696.552	0.0149896
696.630	0.0150163
696.708	0.0149222
696.786	0.0149519
696.864	0.0149421
696.943	0.0150860
697.021	0.0148783
697.099	0.0149686
697.177	0.0150960
697.255	0.0150800
697.333	0.0151688
697.411	0.0152429
697.489	0.0152890
697.568	0.0152428
697.646	0.0153247
697.724	0.0153371
697.802	0.0153113
697.880	0.0154793
697.958	0.0151862
698.036	0.0152969
698.114	0.0152140
698.193	0.0150725
698.271	0.0150455
698.349	0.0148499
698.427	0.0147794
698.505	0.0146980
698.583	0.0146458
698.661	0.0145123
698.739	0.0145924
698.818	0.0146403
698.896	0.0145470
698.974	0.0145818
699.052	0.0145819
699.130	0.0148527
699.208	0.0149920
699.286	0.0149772
699.364	0.0150824
699.443	0.0152768
699.521	0.0153782
699.599	0.0153064
699.677	0.0154073
699.755	0.0154754
699.833	0.0155835
699.911	0.0156728
699.989	0.0157281
700.068	0.0156551
700.146	0.0156563
700.224	0.0156520
700.302	0.0154097
700.380	0.0155009
700.458	0.0154593
700.536	0.0151756
700.614	0.0150782
700.693	0.0148078
700.771	0.0149097
700.849	0.0148172
700.927	0.0146084
701.005	0.0145625
701.083	0.0146227
701.161	0.0144829
701.239	0.0146980
701.318	0.0146947
701.396	0.0145869
701.474	0.0149094
701.552	0.0149258
701.630	0.0149593
701.708	0.0150224
701.786	0.0150087
701.864	0.0151586
701.943	0.0150657
702.021	0.0152950
702.099	0.0153498
702.177	0.0153481
702.255	0.0153896
702.333	0.0154260
702.411	0.0151097
702.489	0.0152676
702.568	0.0151569
702.646	0.0151215
702.724	0.0152198
702.802	0.0151678
702.880	0.0149653
702.958	0.0150439
703.036	0.0150986
703.114	0.0151099
703.193	0.0151758
703.271	0.0150206
703.349	0.0151258
703.427	0.0151019
703.505	0.0151392
703.583	0.0151483
703.661	0.0152218
703.739	0.0151424
703.818	0.0151989
703.896	0.0152199
703.974	0.0152280
704.052	0.0151427
704.130	0.0152535
704.208	0.0151919
704.286	0.0151963
704.364	0.0152657
704.443	0.0151544
704.521	0.0152663
704.599	0.0153192
704.677	0.0151678
704.755	0.0150259
704.833	0.0150468
704.911	0.0150673
704.989	0.0150011
705.068	0.0150233
705.146	0.0150744
705.224	0.0150258
705.302	0.0150046
705.380	0.0151560
705.458	0.0152117
705.536	0.0154376
705.614	0.0152427
705.693	0.0154445
705.771	0.0153867
705.849	0.0154269
705.927	0.0154774
706.005	0.0152378
706.083	0.0153336
706.161	0.0153748
706.239	0.0153682
706.318	0.0150510
706.396	0.0150027
706.474	0.0150142
706.552	0.0149412
706.630	0.0149344
706.708	0.0148710
706.786	0.0148271
706.864	0.0150349
706.943	0.0148429
707.021	0.0149731
707.099	0.0150142
707.177	0.0149586
707.255	0.0148817
707.333	0.0150307
707.411	0.0151310
707.489	0.0150565
707.568	0.0151849
707.646	0.0151815
707.724	0.0152574
707.802	0.0152412
707.880	0.0152160
707.958	0.0151607
708.036	0.0152135
708.114	0.0153671
708.193	0.0153020
708.271	0.0151168
708.349	0.0150884
708.427	0.0150739
708.505	0.0149306
708.583	0.0148679
708.661	0.0149215
708.739	0.0147906
708.818	0.0147795
708.896	0.0148042
708.974	0.0147314
709.052	0.0147176
709.130	0.0148689
709.208	0.0150025
709.286	0.0151063
709.364	0.0152233
709.443	0.0154816
709.521	0.0154214
709.599	0.0154481
709.677	0.0156285
709.755	0.0156170
709.833	0.0154523
709.911	0.0155800
709.989	0.0155183
710.068	0.0155247
710.146	0.0152886
710.224	0.0151630
710.302	0.0152381
710.380	0.0149897
710.458	0.0149180
710.536	0.0147639
710.614	0.0147009
710.693	0.0145804
710.771	0.0147879
710.849	0.0145823
710.927	0.0146372
711.005	0.0146957
711.083	0.0147423
711.161	0.0148612
711.239	0.0150816
711.318	0.0153307
711.396	0.0153352
711.474	0.0154769
711.552	0.0156223
711.630	0.0157044
711.708	0.0158431
711.786	0.0159150
711.864	0.0157552
711.943	0.0160166
712.021	0.0160372
712.099	0.0157710
712.177	0.0156761
712.255	0.0155579
712.333	0.0152826
712.411	0.0152939
712.489	0.0151490
712.568	0.0149670
712.646	0.0148728
712.724	0.0147018
712.802	0.0145234
712.880	0.0144743
712.958	0.0144371
713.036	0.0145078
713.114	0.0146048
713.193	0.0144379
713.271	0.0147441
713.349	0.0148012
713.427	0.0149561
713.505	0.0151733
713.583	0.0152833
713.661	0.0152841
713.739	0.0153650
713.818	0.0154775
713.896	0.0156744
713.974	0.0156358
714.052	0.0156315
714.130	0.0154440
714.208	0.0153207
714.286	0.0153171
714.364	0.0152303
714.443	0.0151035
714.521	0.0148089
714.599	0.0145845
714.677	0.0147034
714.755	0.0145730
714.833	0.0145281
714.911	0.0146204
714.989	0.0146191
715.068	0.0147434
715.146	0.0149089
715.224	0.0149269
715.302	0.0150931
715.380	0.0151843
715.458	0.0150748
715.536	0.0151173
715.614	0.0151327
715.693	0.0151302
715.771	0.0151482
715.849	0.0151513
715.927	0.0150962
716.005	0.0152136
716.083	0.0152007
716.161	0.0151043
716.239	0.0153625
716.318	0.0153341
716.396	0.0155296
716.474	0.0152813
716.552	0.0153905
716.630	0.0153300
716.708	0.0152396
716.786	0.0151840
716.864	0.0150394
716.943	0.0149393
717.021	0.0148280
717.099	0.0148971
717.177	0.0149075
717.255	0.0148149
717.333	0.0147275
717.411	0.0148046
717.489	0.0148228
717.568	0.0147450
717.646	0.0147609
717.724	0.0149491
717.802	0.0149509
717.880	0.0150111
717.958	0.0151802
718.036	0.0152292
718.114	0.0152769
718.193	0.0152670
718.271	0.0153265
718.349	0.0155679
718.427	0.0156709
718.505	0.0154711
718.583	0.0154987
718.661	0.0153594
718.739	0.0152733
718.818	0.0151077
718.896	0.0151259
718.974	0.0149664
719.052	0.0149097
719.130	0.0146407
719.208	0.0147599
719.286	0.0148611
719.364	0.0149542
719.443	0.0150288
719.521	0.0150175
719.599	0.0152895
719.677	0.0152516
719.755	0.0154592
719.833	0.0154984
719.911	0.0154018
719.989	0.0155843
720.068	0.0155492
720.146	0.0155529
720.224	0.0155877
720.302	0.0154805
720.380	0.0152608
720.458	0.0152389
720.536	0.0151595
720.614	0.0152072
720.693	0.0151971
720.771	0.0151442
720.849	0.0150912
720.927	0.0149305
721.005	0.0150709
721.083	0.0150135
721.161	0.0150565
721.239	0.0150280
721.318	0.0149953
721.396	0.0149395
721.474	0.0150153
721.552	0.0150700
721.630	0.0150311
721.708	0.0150270
721.786	0.0150911
721.864	0.0150652
721.943	0.0150883
722.021	0.0151608
722.099	0.0151028
722.177	0.0150941
722.255	0.0148479
722.333	0.0150484
722.411	0.0150558
722.489	0.0149860
722.568	0.0149760
722.646	0.0149355
722.724	0.0150043
722.802	0.0149232
722.880	0.0149233
722.958	0.0149265
723.036	0.0149670
723.114	0.0150004
723.193	0.0147858
723.271	0.0148551
723.349	0.0150004
723.427	0.0149841
723.505	0.0148763
723.583	0.0149798
723.661	0.0149741
723.739	0.0149644
723.818	0.0150313
723.896	0.0150037
723.974	0.0150232
724.052	0.0152211
724.130	0.0150803
724.208	0.0150756
724.286	0.0152260
724.364	0.0150333
724.443	0.0150407
724.521	0.0150613
724.599	0.0152577
724.677	0.0152721
724.755	0.0150602
724.833	0.0150390
724.911	0.0151859
724.989	0.0150443
725.068	0.0150529
725.146	0.0151109
725.224	0.0151045
725.302	0.0150175
725.380	0.0150401
725.458	0.0151682
725.536	0.0150978
725.614	0.0151144
725.693	0.0150457
725.771	0.0152117
725.849	0.0151394
725.927	0.0151183
726.005	0.0151441
726.083	0.0152489
726.161	0.0151463
726.239	0.0152169
726.318	0.0152496
726.396	0.0153529
726.474	0.0152348
726.552	0.0151801
726.630	0.0153187
726.708	0.0153270
726.786	0.0153508
726.864	0.0153524
726.943	0.0153669
727.021	0.0153577
727.099	0.0153959
727.177	0.0151648
727.255	0.0152121
727.333	0.0150326
727.411	0.0150072
727.489	0.0148613
727.568	0.0147759
727.646	0.0149276
727.724	0.0147743
727.802	0.0146688
727.880	0.0146751
727.958	0.0146141
728.036	0.0147862
728.114	0.0147650
728.193	0.0148009
728.271	0.0149550
728.349	0.0150367
728.427	0.0152335
728.505	0.0151909
728.583	0.0152158
728.661	0.0153010
728.739	0.0153188
728.818	0.0154157
728.896	0.0154219
728.974	0.0152673
729.052	0.0152561
729.130	0.0153057
729.208	0.0152463
729.286	0.0150172
729.364	0.0150599
729.443	0.0149737
729.521	0.0146204
729.599	0.0147632
729.677	0.0146826
729.755	0.0145645
729.833	0.0146462
729.911	0.0145598
729.989	0.0146426
730.068	0.0147089
730.146	0.0149023
730.224	0.0149286
730.302	0.0149879
730.380	0.0150376
730.458	0.0151637
730.536	0.0151500
730.614	0.0151971
730.693	0.0153436
730.771	0.0154401
730.849	0.0154079
730.927	0.0153151
731.005	0.0153226
731.083	0.0151771
731.161	0.0152103
731.239	0.0150474
731.318	0.0151677
731.396	0.0151613
731.474	0.0149471
731.552	0.0149799
731.630	0.0149741
731.708	0.0149142
731.786	0.0149424
731.864	0.0150977
731.943	0.0151093
732.021	0.0151580
732.099	0.0151794
732.177	0.0152841
732.255	0.0153472
732.333	0.0153290
732.411	0.0152705
732.489	0.0153189
732.568	0.0152136
732.646	0.0152400
732.724	0.0152836
732.802	0.0152135
732.880	0.0152524
732.958	0.0152164
733.036	0.0152092
733.114	0.0151427
733.193	0.0152868
733.271	0.0150893
733.349	0.0152592
733.427	0.0151681
733.505	0.0151683
733.583	0.0153663
733.661	0.0152818
733.739	0.0150745
733.818	0.0152711
733.896	0.0151389
733.974	0.0153110
734.052	0.0152683
734.130	0.0151579
734.208	0.0152110
734.286	0.0151728
734.364	0.0152350
734.443	0.0151346
734.521	0.0151509
734.599	0.0151630
734.677	0.0151579
734.755	0.0149928
734.833	0.0150105
734.911	0.0151137
734.989	0.0151482
735.068	0.0150040
735.146	0.0149371
735.224	0.0149483
735.302	0.0149027
735.380	0.0148317
735.458	0.0150027
735.536	0.0148630
735.614	0.0151205
735.693	0.0151746
735.771	0.0151198
735.849	0.0152016
735.927	0.0150111
736.005	0.0151498
736.083	0.0151939
736.161	0.0152292
736.239	0.0152534
736.318	0.0151610
736.396	0.0150194
736.474	0.0150716
736.552	0.0151536
736.630	0.0149194
736.708	0.0150240
736.786	0.0149831
736.864	0.0150798
736.943	0.0149849
737.021	0.0150535
737.099	0.0149618
737.177	0.0149435
737.255	0.0149335
737.333	0.0150684
737.411	0.0152005
737.489	0.0149654
737.568	0.0150290
737.646	0.0150123
737.724	0.0150075
737.802	0.0150151
737.880	0.0151349
737.958	0.0151400
738.036	0.0150835
738.114	0.0152016
738.193	0.0150310
738.271	0.0151583
738.349	0.0151801
738.427	0.0151324
738.505	0.0151739
738.583	0.0150048
738.661	0.0150976
738.739	0.0151353
738.818	0.0149639
738.896	0.0150654
738.974	0.0151506
739.052	0.0150880
739.130	0.0150385
739.208	0.0150478
739.286	0.0151550
739.364	0.0150380
739.443	0.0150675
739.521	0.0151543
739.599	0.0150900
739.677	0.0151556
739.755	0.0151879
739.833	0.0152615
739.911	0.0153477
739.989	0.0151810
740.068	0.0152412
740.146	0.0152184
740.224	0.0151656
740.302	0.0152790
740.380	0.0150664
740.458	0.0150744
740.536	0.0151455
740.614	0.0151381
740.693	0.0149925
740.771	0.0148656
740.849	0.0149451
740.927	0.0149115
741.005	0.0149836
741.083	0.0150453
741.161	0.0150500
741.239	0.0150249
741.318	0.0150438
741.396	0.0150419
741.474	0.0152117
741.552	0.0152525
741.630	0.0153036
741.708	0.0153997
741.786	0.0155588
741.864	0.0154957
741.943	0.0154770
742.021	0.0153973
742.099	0.0153044
742.177	0.0153180
742.255	0.0153559
742.333	0.0153519
742.411	0.0151578
742.489	0.0150148
742.568	0.0150827
742.646	0.0149664
742.724	0.0149551
742.802	0.0149173
742.880	0.0148517
742.958	0.0148905
743.036	0.0150607
743.114	0.0149481
743.193	0.0149300
743.271	0.0151212
743.349	0.0150282
743.427	0.0151096
743.505	0.0152066
743.583	0.0152921
743.661	0.0152454
743.739	0.0153056
743.818	0.0152921
743.896	0.0152020
743.974	0.0151623
744.052	0.0151716
744.130	0.0151030
744.208	0.0153428
744.286	0.0153138
744.364	0.0152081
744.443	0.0151371
744.521	0.0151159
744.599	0.0149998
744.677	0.0151248
744.755	0.0150935
744.833	0.0149432
744.911	0.0150601
744.989	0.0148819
745.068	0.0149638
745.146	0.0149155
745.224	0.0149850
745.302	0.0150976
745.380	0.0150504
745.458	0.0150092
745.536	0.0152534
745.614	0.0151927
745.693	0.0153087
745.771	0.0153646
745.849	0.0153672
745.927	0.0153325
746.005	0.0152800
746.083	0.0151815
746.161	0.0152343
746.239	0.0150926
746.318	0.0151239
746.396	0.0152387
746.474	0.0151331
746.552	0.0149529
746.630	0.0150358
746.708	0.0149512
746.786	0.0149520
746.864	0.0149773
746.943	0.0149949
747.021	0.0149979
747.099	0.0151413
747.177	0.0150993
747.255	0.0151441
747.333	0.0150716
747.411	0.0151446
747.489	0.0151605
747.568	0.0152213
747.646	0.0151709
747.724	0.0151259
747.802	0.0151285
747.880	0.0152101
747.958	0.0151793
748.036	0.0152104
748.114	0.0152187
748.193	0.0151916
748.271	0.0152250
748.349	0.0150523
748.427	0.0150090
748.505	0.0150986
748.583	0.0149506
748.661	0.0151122
748.739	0.0150368
748.818	0.0150373
748.896	0.0151283
748.974	0.0151066
749.052	0.0151147
749.130	0.0150743
749.208	0.0151248
749.286	0.0151880
749.364	0.0152006
749.443	0.0152140
749.521	0.0152451
749.599	0.0151721
749.677	0.0152462
749.755	0.0153215
749.833	0.0152809
749.911	0.0153233
749.989	0.0154144
750.068	0.0152892
750.146	0.0150836
750.224	0.0151536
750.302	0.0151485
750.380	0.0151038
750.458	0.0150928
750.536	0.0151309
750.614	0.0150634
750.693	0.0149492
750.771	0.0149830
750.849	0.0149483
750.927	0.0148669
751.005	0.0149442
751.083	0.0147987
751.161	0.0150055
751.239	0.0151002
751.318	0.0150393
751.396	0.0149556
751.474	0.0152324
751.552	0.0150592
751.630	0.0152613
751.708	0.0152612
751.786	0.0151594
751.864	0.0153342
751.943	0.0152219
752.021	0.0151446
752.099	0.0153490
752.177	0.0151559
752.255	0.0150676
752.333	0.0151533
752.411	0.0151241
752.489	0.0150734
752.568	0.0151299
752.646	0.0151348
752.724	0.0150736
752.802	0.0150433
752.880	0.0150626
752.958	0.0150375
753.036	0.0151004
753.114	0.0150935
753.193	0.0150246
753.271	0.0151189
753.349	0.0151367
753.427	0.0151841
753.505	0.0151273
753.583	0.0151105
753.661	0.0152053
753.739	0.0150053
753.818	0.0151995
753.896	0.0150983
753.974	0.0151097
754.052	0.0150925
754.130	0.0150514
754.208	0.0151060
754.286	0.0150358
754.364	0.0149713
754.443	0.0150011
754.521	0.0149133
754.599	0.0149533
754.677	0.0149538
754.755	0.0150076
754.833	0.0151456
754.911	0.0150292
754.989	0.0151434
755.068	0.0151602
755.146	0.0151907
755.224	0.0152187
755.302	0.0152988
755.380	0.0151212
755.458	0.0152067
755.536	0.0152441
755.614	0.0153387
755.693	0.0153881
755.771	0.0152796
755.849	0.0151479
755.927	0.0152978
756.005	0.0151264
756.083	0.0152528
756.161	0.0152797
756.239	0.0152147
756.318	0.0151404
756.396	0.0152364
756.474	0.0150944
756.552	0.0151446
756.630	0.0152360
756.708	0.0151389
756.786	0.0151344
756.864	0.0151508
756.943	0.0152707
757.021	0.0152126
757.099	0.0152690
757.177	0.0152076
757.255	0.0152087
757.333	0.0152615
757.411	0.0151888
757.489	0.0151073
757.568	0.0150550
757.646	0.0151460
757.724	0.0151507
757.802	0.0150875
757.880	0.0151944
757.958	0.0151794
758.036	0.0151451
758.114	0.0150830
758.193	0.0151585
758.271	0.0150395
758.349	0.0151181
758.427	0.0150865
758.505	0.0151248
758.583	0.0149319
758.661	0.0148861
758.739	0.0150480
758.818	0.0149981
758.896	0.0150601
758.974	0.0150386
759.052	0.0149165
759.130	0.0150651
759.208	0.0149949
759.286	0.0149522
759.364	0.0150892
759.443	0.0150697
759.521	0.0150971
759.599	0.0149936
759.677	0.0151144
759.755	0.0152090
759.833	0.0152084
759.911	0.0151186
759.989	0.0151395
760.068	0.0151353
760.146	0.0151345
760.224	0.0150590
760.302	0.0150046
760.380	0.0151934
760.458	0.0151070
760.536	0.0151240
760.614	0.0149586
760.693	0.0150224
760.771	0.0149532
760.849	0.0149996
760.927	0.0150668
761.005	0.0148634
761.083	0.0150514
761.161	0.0151307
761.239	0.0150426
761.318	0.0151207
761.396	0.0152750
761.474	0.0151422
761.552	0.0151566
761.630	0.0151651
761.708	0.0151952
761.786	0.0152596
761.864	0.0151932
761.943	0.0151855
762.021	0.0150652
762.099	0.0152250
762.177	0.0153165
762.255	0.0152390
762.333	0.0152264
762.411	0.0151159
762.489	0.0151544
762.568	0.0151495
762.646	0.0151137
762.724	0.0150793
762.802	0.0152581
762.880	0.0152700
762.958	0.0150964
763.036	0.0150788
763.114	0.0150085
763.193	0.0148972
763.271	0.0149501
763.349	0.0152743
763.427	0.0151395
763.505	0.0152579
763.583	0.0149919
763.661	0.0150792
763.739	0.0150493
763.818	0.0149976
763.896	0.0151102
763.974	0.0150118
764.052	0.0150744
764.130	0.0149578
764.208	0.0150169
764.286	0.0150195
764.364	0.0149940
764.443	0.0151377
764.521	0.0149977
764.599	0.0152007
764.677	0.0150670
764.755	0.0150306
764.833	0.0151006
764.911	0.0150872
764.989	0.0151228
765.068	0.0151196
765.146	0.0151061
765.224	0.0150613
765.302	0.0150686
765.380	0.0151498
765.458	0.0150681
765.536	0.0151110
765.614	0.0151325
765.693	0.0150748
765.771	0.0152426
765.849	0.0151234
765.927	0.0151331
766.005	0.0151958
766.083	0.0152151
766.161	0.0152312
766.239	0.0150518
766.318	0.0152383
766.396	0.0151501
766.474	0.0152129
766.552	0.0151338
766.630	0.0151928
766.708	0.0151913
766.786	0.0152752
766.864	0.0150262
766.943	0.0150700
767.021	0.0152177
767.099	0.0152795
767.177	0.0153191
767.255	0.0150884
767.333	0.0151655
767.411	0.0151635
767.489	0.0153231
767.568	0.0151170
767.646	0.0151470
767.724	0.0153018
767.802	0.0151826
767.880	0.0152014
767.958	0.0153366
768.036	0.0152726
768.114	0.0151916
768.193	0.0151521
768.271	0.0150282
768.349	0.0151962
768.427	0.0151657
768.505	0.0151200
768.583	0.0150576
768.661	0.0150497
768.739	0.0151284
768.818	0.0151248
768.896	0.0151231
768.974	0.0151199
769.052	0.0150951
769.130	0.0151500
769.208	0.0150366
769.286	0.0150767
769.364	0.0151418
769.443	0.0150983
769.521	0.0151924
769.599	0.0151641
769.677	0.0150860
769.755	0.0151404
769.833	0.0150581
769.911	0.0150513
769.989	0.0150354
770.068	0.0150487
770.146	0.0150471
770.224	0.0149784
770.302	0.0149687
770.380	0.0150270
770.458	0.0150064
770.536	0.0151111
770.614	0.0150563
770.693	0.0150198
770.771	0.0151627
770.849	0.0149833
770.927	0.0148850
771.005	0.0151509
771.083	0.0151843
771.161	0.0150635
771.239	0.0151865
771.318	0.0152508
771.396	0.0152099
771.474	0.0151195
771.552	0.0151246
771.630	0.0151218
771.708	0.0151318
771.786	0.0152178
771.864	0.0151708
771.943	0.0153461
772.021	0.0151868
772.099	0.0152960
772.177	0.0151092
772.255	0.0151847
772.333	0.0152393
772.411	0.0151723
772.489	0.0153191
772.568	0.0152303
772.646	0.0153043
772.724	0.0151819
772.802	0.0152094
772.880	0.0152392
772.958	0.0151845
773.036	0.0151776
773.114	0.0152089
773.193	0.0152519
773.271	0.0151972
773.349	0.0152135
773.427	0.0152954
773.505	0.0153142
773.583	0.0152283
773.661	0.0152148
773.739	0.0150432
773.818	0.0151860
773.896	0.0151240
773.974	0.0151727
774.052	0.0151705
774.130	0.0150902
774.208	0.0152038
774.286	0.0151579
774.364	0.0152563
774.443	0.0150961
774.521	0.0150397
774.599	0.0150275
774.677	0.0151787
774.755	0.0152737
774.833	0.0151051
774.911	0.0151083
774.989	0.0151947
775.068	0.0152715
775.146	0.0151089
775.224	0.0151351
775.302	0.0150783
775.380	0.0151990
775.458	0.0151917
775.536	0.0151612
775.614	0.0150438
775.693	0.0152857
775.771	0.0152767
775.849	0.0151524
775.927	0.0150362
776.005	0.0152264
776.083	0.0150555
776.161	0.0150661
776.239	0.0151222
776.318	0.0151545
776.396	0.0150114
776.474	0.0150766
776.552	0.0150659
776.630	0.0152583
776.708	0.0150215
776.786	0.0150710
776.864	0.0150565
776.943	0.0150224
777.021	0.0150170
777.099	0.0152548
777.177	0.0152229
777.255	0.0150570
777.333	0.0149751
777.411	0.0150864
777.489	0.0151250
777.568	0.0152622
777.646	0.0150517
777.724	0.0151197
777.802	0.0152161
777.880	0.0151915
777.958	0.0151491
778.036	0.0151405
778.114	0.0151350
778.193	0.0150823
778.271	0.0151239
778.349	0.0153229
778.427	0.0151364
778.505	0.0154234
778.583	0.0151985
778.661	0.0151933
778.739	0.0152135
778.818	0.0151496
778.896	0.0153011
778.974	0.0153626
779.052	0.0152594
779.130	0.0153098
779.208	0.0151908
779.286	0.0149775
779.364	0.0151117
779.443	0.0152567
779.521	0.0151421
779.599	0.0151265
779.677	0.0151823
779.755	0.0150777
779.833	0.0150861
779.911	0.0150907
779.989	0.0153371
780.068	0.0152885
780.146	0.0151456
780.224	0.0152267
780.302	0.0153189
780.380	0.0152357
780.458	0.0151844
780.536	0.0151128
780.614	0.0151324
780.693	0.0151492
780.771	0.0150630
780.849	0.0151236
780.927	0.0151600
781.005	0.0151286
781.083	0.0150146
781.161	0.0150391
781.239	0.0152071
781.318	0.0151181
781.396	0.0150269
781.474	0.0151629
781.552	0.0152016
781.630	0.0152589
781.708	0.0151786
781.786	0.0153056
781.864	0.0149918
781.943	0.0152320
782.021	0.0150926
782.099	0.0151635
782.177	0.0152420
782.255	0.0152003
782.333	0.0151077
782.411	0.0150597
782.489	0.0151872
782.568	0.0150896
782.646	0.0150000
782.724	0.0151779
782.802	0.0151611
782.880	0.0151771
782.958	0.0151682
783.036	0.0150712
783.114	0.0150925
783.193	0.0151808
783.271	0.0151756
783.349	0.0151953
783.427	0.0151382
783.505	0.0151328
783.583	0.0152607
783.661	0.0151904
783.739	0.0151913
783.818	0.0152036
783.896	0.0151611
783.974	0.0151840
784.052	0.0152513
784.130	0.0150749
784.208	0.0149699
784.286	0.0151286
784.364	0.0150096
784.443	0.0150344
784.521	0.0150199
784.599	0.0151830
784.677	0.0152626
784.755	0.0151035
784.833	0.0150925
784.911	0.0151157
784.989	0.0151329
785.068	0.0151259
785.146	0.0151111
785.224	0.0150712
785.302	0.0152208
785.380	0.0150693
785.458	0.0150507
785.536	0.0150205
785.614	0.0150567
785.693	0.0152650
785.771	0.0153481
785.849	0.0151821
785.927	0.0152161
786.005	0.0152159
786.083	0.0149506
786.161	0.0151981
786.239	0.0152753
786.318	0.0152128
786.396	0.0150934
786.474	0.0150148
786.552	0.0150938
786.630	0.0150953
786.708	0.0151740
786.786	0.0151710
786.864	0.0152018
786.943	0.0152113
787.021	0.0150000
787.099	0.0151466
787.177	0.0152721
787.255	0.0151739
787.333	0.0150796
787.411	0.0152946
787.489	0.0151246
787.568	0.0151301
787.646	0.0151436
787.724	0.0150925
787.802	0.0151524
787.880	0.0151470
787.958	0.0150121
788.036	0.0149950
788.114	0.0151397
788.193	0.0151717
788.271	0.0152098
788.349	0.0151395
788.427	0.0150548
788.505	0.0151703
788.583	0.0150997
788.661	0.0151125
788.739	0.0151614
788.818	0.0152245
788.896	0.0149879
788.974	0.0150179
789.052	0.0151315
789.130	0.0149957
789.208	0.0151197
789.286	0.0150867
789.364	0.0150713
789.443	0.0151087
789.521	0.0151404
789.599	0.0151141
789.677	0.0151221
789.755	0.0152695
789.833	0.0152113
789.911	0.0151473
789.989	0.0150040
790.068	0.0150441
790.146	0.0151777
790.224	0.0151585
790.302	0.0151144
790.380	0.0150554
790.458	0.0149212
790.536	0.0151810
790.614	0.0151467
790.693	0.0152312
790.771	0.0152122
790.849	0.0150764
790.927	0.0151890
791.005	0.0150871
791.083	0.0151292
791.161	0.0152106
791.239	0.0150821
791.318	0.0151176
791.396	0.0150546
791.474	0.0150776
791.552	0.0150969
791.630	0.0151301
791.708	0.0151079
791.786	0.0150839
791.864	0.0151982
791.943	0.0152726
792.021	0.0150829
792.099	0.0150478
792.177	0.0150693
792.255	0.0152205
792.333	0.0150995
792.411	0.0151736
792.489	0.0151282
792.568	0.0151413
792.646	0.0151096
792.724	0.0149874
792.802	0.0150484
792.880	0.0151893
792.958	0.0150925
793.036	0.0150386
793.114	0.0153070
793.193	0.0151860
793.271	0.0150790
793.349	0.0152220
793.427	0.0152757
793.505	0.0152378
793.583	0.0150156
793.661	0.0152020
793.739	0.0151734
793.818	0.0150896
793.896	0.0151521
793.974	0.0152337
794.052	0.0151286
794.130	0.0151579
794.208	0.0152609
794.286	0.0151553
794.364	0.0151017
794.443	0.0151689
794.521	0.0150968
794.599	0.0150993
794.677	0.0150605
794.755	0.0150766
794.833	0.0150993
794.911	0.0150140
794.989	0.0150625
795.068	0.0150992
795.146	0.0150980
795.224	0.0151319
795.302	0.0150037
795.380	0.0150733
795.458	0.0149422
795.536	0.0150444
795.614	0.0150480
795.693	0.0151559
795.771	0.0152193
795.849	0.0150315
795.927	0.0150503
796.005	0.0150639
796.083	0.0150360
796.161	0.0151879
796.239	0.0149583
796.318	0.0151006
796.396	0.0151018
796.474	0.0150029
796.552	0.0150178
796.630	0.0151055
796.708	0.0151073
796.786	0.0151781
796.864	0.0150928
796.943	0.0149651
797.021	0.0149701
797.099	0.0150837
797.177	0.0150208
797.255	0.0151276
797.333	0.0151779
797.411	0.0150841
797.489	0.0151701
797.568	0.0151172
797.646	0.0150934
797.724	0.0151382
797.802	0.0152580
797.880	0.0152611
797.958	0.0151993
798.036	0.0151099
798.114	0.0150360
798.193	0.0150484
798.271	0.0152198
798.349	0.0150193
798.427	0.0151182
798.505	0.0150933
798.583	0.0151460
798.661	0.0150298
798.739	0.0149669
798.818	0.0151549
798.896	0.0150008
798.974	0.0150168
799.052	0.0150549
799.130	0.0151644
799.208	0.0150184
799.286	0.0150500
799.364	0.0149872
799.443	0.0151697
799.521	0.0150877
799.599	0.0149995
799.677	0.0151133
799.755	0.0151413
799.833	0.0150771
799.911	0.0150547
799.989	0.0150108
800.068	0.0152543
800.146	0.0152354
800.224	0.0151931
800.302	0.0153301
800.380	0.0150889
800.458	0.0151120
800.536	0.0150700
800.614	0.0150746
800.693	0.0152507
800.771	0.0151838
800.849	0.0151374
800.927	0.0150504
801.005	0.0151378
801.083	0.0150649
801.161	0.0150106
801.239	0.0152171
801.318	0.0150659
801.396	0.0151260
801.474	0.0151572
801.552	0.0151028
801.630	0.0150546
801.708	0.0150921
801.786	0.0149985
801.864	0.0151521
801.943	0.0150510
802.021	0.0151733
802.099	0.0150826
802.177	0.0150543
802.255	0.0151900
802.333	0.0151239
802.411	0.0151849
802.489	0.0151775
802.568	0.0151271
802.646	0.0152087
802.724	0.0151489
802.802	0.0149895
802.880	0.0150713
802.958	0.0148885
803.036	0.0150294
803.114	0.0151548
803.193	0.0150987
803.271	0.0149974
803.349	0.0149980
803.427	0.0150755
803.505	0.0150389
803.583	0.0149863
803.661	0.0151107
803.739	0.0150077
803.818	0.0150098
803.896	0.0151095
803.974	0.0150139
804.052	0.0149525
804.130	0.0150978
804.208	0.0149594
804.286	0.0150845
804.364	0.0149545
804.443	0.0149724
804.521	0.0151202
804.599	0.0150498
804.677	0.0150301
804.755	0.0150214
804.833	0.0150150
804.911	0.0149372
804.989	0.0149516
805.068	0.0150298
805.146	0.0149538
805.224	0.0151035
805.302	0.0152765
805.380	0.0151377
805.458	0.0151033
805.536	0.0152702
805.614	0.0152871
805.693	0.0152274
805.771	0.0151507
805.849	0.0151724
805.927	0.0152246
806.005	0.0151846
806.083	0.0152626
806.161	0.0152569
806.239	0.0153117
806.318	0.0151894
806.396	0.0152380
806.474	0.0153656
806.552	0.0150775
806.630	0.0151128
806.708	0.0150868
806.786	0.0150775
806.864	0.0151959
806.943	0.0150246
807.021	0.0150188
807.099	0.0149891
807.177	0.0150294
807.255	0.0149674
807.333	0.0149856
807.411	0.0149744
807.489	0.0149426
807.568	0.0150591
807.646	0.0150403
807.724	0.0151097
807.802	0.0151442
807.880	0.0149902
807.958	0.0151414
808.036	0.0149924
808.114	0.0151463
808.193	0.0151326
808.271	0.0151779
808.349	0.0151015
808.427	0.0151814
808.505	0.0150992
808.583	0.0151585
808.661	0.0150578
808.739	0.0149915
808.818	0.0151369
808.896	0.0150983
808.974	0.0151438
809.052	0.0150224
809.130	0.0149094
809.208	0.0149448
809.286	0.0150529
809.364	0.0150721
809.443	0.0149755
809.521	0.0150962
809.599	0.0150214
809.677	0.0151534
809.755	0.0152210
809.833	0.0151501
809.911	0.0150510
809.989	0.0152737
810.068	0.0152123
810.146	0.0152547
810.224	0.0151787
810.302	0.0151930
810.380	0.0151572
810.458	0.0150616
810.536	0.0152079
810.614	0.0152378
810.693	0.0151572
810.771	0.0150700
810.849	0.0151179
810.927	0.0151920
811.005	0.0152024
811.083	0.0151199
811.161	0.0150855
811.239	0.0149986
811.318	0.0151409
811.396	0.0152081
811.474	0.0151221
811.552	0.0151976
811.630	0.0150523
811.708	0.0150949
811.786	0.0151501
811.864	0.0151808
811.943	0.0151333
812.021	0.0150631
812.099	0.0152428
812.177	0.0151363
812.255	0.0151862
812.333	0.0151619
812.411	0.0150751
812.489	0.0152183
812.568	0.0150780
812.646	0.0149973
812.724	0.0149864
812.802	0.0151527
812.880	0.0151908
812.958	0.0150727
813.036	0.0151427
813.114	0.0151761
813.193	0.0150571
813.271	0.0151683
813.349	0.0151210
813.427	0.0151526
813.505	0.0151472
813.583	0.0152241
813.661	0.0152058
813.739	0.0152258
813.818	0.0151133
813.896	0.0149870
813.974	0.0150816
814.052	0.0151928
814.130	0.0150301
814.208	0.0150306
814.286	0.0150699
814.364	0.0149685
814.443	0.0150237
814.521	0.0149645
814.599	0.0149696
814.677	0.0148993
814.755	0.0150058
814.833	0.0150217
814.911	0.0150050
814.989	0.0149408
815.068	0.0149118
815.146	0.0149646
815.224	0.0150494
815.302	0.0151234
815.380	0.0150975
815.458	0.0150972
815.536	0.0150121
815.614	0.0150513
815.693	0.0150584
815.771	0.0150098
815.849	0.0149974
815.927	0.0150781
816.005	0.0151353
816.083	0.0150280
816.161	0.0151384
816.239	0.0151561
816.318	0.0150396
816.396	0.0150327
816.474	0.0152041
816.552	0.0150598
816.630	0.0150967
816.708	0.0151418
816.786	0.0151362
816.864	0.0152986
816.943	0.0151046
817.021	0.0151355
817.099	0.0150656
817.177	0.0151795
817.255	0.0152294
817.333	0.0152318
817.411	0.0152393
817.489	0.0151923
817.568	0.0152627
817.646	0.0152227
817.724	0.0152419
817.802	0.0151448
817.880	0.0152145
817.958	0.0151662
818.036	0.0151554
818.114	0.0152995
818.193	0.0151186
818.271	0.0150377
818.349	0.0151624
818.427	0.0152494
818.505	0.0151486
818.583	0.0151422
818.661	0.0151127
818.739	0.0149826
818.818	0.0150653
818.896	0.0149352
818.974	0.0148754
819.052	0.0150187
819.130	0.0149966
819.208	0.0150591
819.286	0.0149897
819.364	0.0151115
819.443	0.0150417
819.521	0.0149953
819.599	0.0150504
819.677	0.0150458
819.755	0.0149623
819.833	0.0149673
819.911	0.0149762
819.989	0.0150727
820.068	0.0150671
820.146	0.0149580
820.224	0.0150304
820.302	0.0149844
820.380	0.0149445
820.458	0.0150693
820.536	0.0149014
820.614	0.0148664
820.693	0.0149728
820.771	0.0150827
820.849	0.0148587
820.927	0.0149094
821.005	0.0150316
821.083	0.0150613
821.161	0.0149994
821.239	0.0149645
821.318	0.0149395
821.396	0.0150243
821.474	0.0150672
821.552	0.0149885
821.630	0.0150628
821.708	0.0150215
821.786	0.0148770
821.864	0.0149542
821.943	0.0152267
822.021	0.0151128
822.099	0.0149863
822.177	0.0152139
822.255	0.0151447
822.333	0.0151153
822.411	0.0150671
822.489	0.0151163
822.568	0.0151589
822.646	0.0151659
822.724	0.0150905
822.802	0.0153704
822.880	0.0150887
822.958	0.0151880
823.036	0.0152168
823.114	0.0153448
823.193	0.0152365
823.271	0.0151138
823.349	0.0152110
823.427	0.0151528
823.505	0.0151633
823.583	0.0151424
823.661	0.0151713
823.739	0.0151379
823.818	0.0151820
823.896	0.0150597
823.974	0.0151151
824.052	0.0151520
824.130	0.0151487
824.208	0.0151173
824.286	0.0151201
824.364	0.0150517
824.443	0.0152336
824.521	0.0150464
824.599	0.0151149
824.677	0.0152035
824.755	0.0150220
824.833	0.0149833
824.911	0.0153432
824.989	0.0148943
825.068	0.0148183
825.146	0.0149619
825.224	0.0150127
825.302	0.0150094
825.380	0.0149816
825.458	0.0149994
825.536	0.0149512
825.614	0.0148698
825.693	0.0148787
825.771	0.0149416
825.849	0.0148499
825.927	0.0147751
826.005	0.0147770
826.083	0.0148790
826.161	0.0147515
826.239	0.0148428
826.318	0.0147842
826.396	0.0148875
826.474	0.0147631
826.552	0.0147227
826.630	0.0147524
826.708	0.0148592
826.786	0.0147786
826.864	0.0148688
826.943	0.0148304
827.021	0.0150298
827.099	0.0149610
827.177	0.0149287
827.255	0.0150011
827.333	0.0149815
827.411	0.0150261
827.489	0.0151151
827.568	0.0151889
827.646	0.0151466
827.724	0.0151569
827.802	0.0152057
827.880	0.0151892
827.958	0.0152568
828.036	0.0152229
828.114	0.0151804
828.193	0.0151953
828.271	0.0152965
828.349	0.0152712
828.427	0.0152097
828.505	0.0152366
828.583	0.0153378
828.661	0.0152613
828.739	0.0153808
828.818	0.0153222
828.896	0.0153553
828.974	0.0152280
829.052	0.0153546
829.130	0.0153049
829.208	0.0151959
829.286	0.0152392
829.364	0.0151675
829.443	0.0150706
829.521	0.0153048
829.599	0.0153333
829.677	0.0151118
829.755	0.0151814
829.833	0.0151701
829.911	0.0151820
829.989	0.0149876
830.068	0.0149855
830.146	0.0151099
830.224	0.0151581
830.302	0.0150038
830.380	0.0150639
830.458	0.0150846
830.536	0.0150993
830.614	0.0148557
830.693	0.0149821
830.771	0.0149622
830.849	0.0150198
830.927	0.0148552
831.005	0.0150396
831.083	0.0148546
831.161	0.0149368
831.239	0.0148009
831.318	0.0147108
831.396	0.0149863
831.474	0.0149001
831.552	0.0148651
831.630	0.0148466
831.708	0.0148866
831.786	0.0148817
831.864	0.0148757
831.943	0.0149569
832.021	0.0149889
832.099	0.0150004
832.177	0.0149627
832.255	0.0150423
832.333	0.0150565
832.411	0.0150080
832.489	0.0149934
832.568	0.0148767
832.646	0.0149994
832.724	0.0151206
832.802	0.0151359
832.880	0.0150337
832.958	0.0150587
833.036	0.0150909
833.114	0.0151849
833.193	0.0151049
833.271	0.0151269
833.349	0.0149771
833.427	0.0151082
833.505	0.0151698
833.583	0.0151454
833.661	0.0152057
833.739	0.0151517
833.818	0.0151160
833.896	0.0153078
833.974	0.0152686
834.052	0.0152866
834.130	0.0152586
834.208	0.0151877
834.286	0.0153214
834.364	0.0154176
834.443	0.0152183
834.521	0.0152185
834.599	0.0152672
834.677	0.0151963
834.755	0.0152455
834.833	0.0153543
834.911	0.0152590
834.989	0.0152893
835.068	0.0151830
835.146	0.0152290
835.224	0.0150214
835.302	0.0150839
835.380	0.0151575
835.458	0.0149991
835.536	0.0150645
835.614	0.0150651
835.693	0.0151445
835.771	0.0150975
835.849	0.0152193
835.927	0.0150568
836.005	0.0150655
836.083	0.0151141
836.161	0.0149386
836.239	0.0150957
836.318	0.0150240
836.396	0.0149624
836.474	0.0150402
836.552	0.0150381
836.630	0.0150786
836.708	0.0148789
836.786	0.0149844
836.864	0.0149407
836.943	0.0150858
837.021	0.0148891
837.099	0.0150126
837.177	0.0150115
837.255	0.0150890
837.333	0.0150198
837.411	0.0149853
837.489	0.0150059
837.568	0.0150249
837.646	0.0150126
837.724	0.0151712
837.802	0.0150800
837.880	0.0151036
837.958	0.0152237
838.036	0.0151363
838.114	0.0151935
838.193	0.0152248
838.271	0.0152096
838.349	0.0151018
838.427	0.0151462
838.505	0.0152489
838.583	0.0151122
838.661	0.0150661
838.739	0.0151390
838.818	0.0151572
838.896	0.0151468
838.974	0.0151846
839.052	0.0151195
839.130	0.0152060
839.208	0.0151829
839.286	0.0151691
839.364	0.0153421
839.443	0.0152563
839.521	0.0150864
839.599	0.0151951
839.677	0.0152155
839.755	0.0151676
839.833	0.0151150
839.911	0.0152210
839.989	0.0150983
840.068	0.0151238
840.146	0.0152746
840.224	0.0151846
840.302	0.0151934
840.380	0.0151749
840.458	0.0149622
840.536	0.0151488
840.614	0.0152505
840.693	0.0151105
840.771	0.0151025
840.849	0.0150391
840.927	0.0150317
841.005	0.0150491
841.083	0.0149682
841.161	0.0150739
841.239	0.0151733
841.318	0.0151428
841.396	0.0149973
841.474	0.0149911
841.552	0.0150626
841.630	0.0150921
841.708	0.0149942
841.786	0.0151345
841.864	0.0149989
841.943	0.0151544
842.021	0.0150956
842.099	0.0152021
842.177	0.0150172
842.255	0.0152108
842.333	0.0151277
842.411	0.0151997
842.489	0.0151250
842.568	0.0151183
842.646	0.0151249
842.724	0.0151095
842.802	0.0151254
842.880	0.0150665
842.958	0.0149503
843.036	0.0150982
843.114	0.0150256
843.193	0.0149229
843.271	0.0149126
843.349	0.0151334
843.427	0.0150552
843.505	0.0149955
843.583	0.0149986
843.661	0.0150262
843.739	0.0148792
843.818	0.0151543
843.896	0.0150008
843.974	0.0149976
844.052	0.0150567
844.130	0.0149216
844.208	0.0149837
844.286	0.0151007
844.364	0.0150350
844.443	0.0151379
844.521	0.0151191
844.599	0.0150583
844.677	0.0151425
844.755	0.0151159
844.833	0.0149952
844.911	0.0149589
844.989	0.0149486
845.068	0.0151707
845.146	0.0150943
845.224	0.0150449
845.302	0.0150520
845.380	0.0149683
845.458	0.0149857
845.536	0.0150992
845.614	0.0151471
845.693	0.0151386
845.771	0.0150541
845.849	0.0152322
845.927	0.0152648
846.005	0.0150663
846.083	0.0151038
846.161	0.0151448
846.239	0.0153016
846.318	0.0152508
846.396	0.0151659
846.474	0.0151815
846.552	0.0151195
846.630	0.0151691
846.708	0.0150980
846.786	0.0150045
846.864	0.0152480
846.943	0.0150948
847.021	0.0150006
847.099	0.0151289
847.177	0.0151489
847.255	0.0150707
847.333	0.0150996
847.411	0.0151902
847.489	0.0149982
847.568	0.0150830
847.646	0.0152203
847.724	0.0151212
847.802	0.0151039
847.880	0.0150195
847.958	0.0151115
848.036	0.0152318
848.114	0.0151161
848.193	0.0149960
848.271	0.0150163
848.349	0.0150599
848.427	0.0149749
848.505	0.0150899
848.583	0.0151289
848.661	0.0150087
848.739	0.0151487
848.818	0.0151353
848.896	0.0149786
848.974	0.0150606
849.052	0.0150160
849.130	0.0150919
849.208	0.0149329
849.286	0.0150433
849.364	0.0150330
849.443	0.0149346
849.521	0.0149959
849.599	0.0150217
849.677	0.0150446
849.755	0.0151475
849.833	0.0151165
849.911	0.0149679
849.989	0.0150615
850.068	0.0150497
850.146	0.0150493
850.224	0.0151347
850.302	0.0150157
850.380	0.0151631
850.458	0.0151126
850.536	0.0150225
850.614	0.0150237
850.693	0.0151533
850.771	0.0150265
850.849	0.0150108
850.927	0.0150272
851.005	0.0149578
851.083	0.0149336
851.161	0.0149601
851.239	0.0149654
851.318	0.0150087
851.396	0.0151440
851.474	0.0150125
851.552	0.0149876
851.630	0.0148056
851.708	0.0150185
851.786	0.0150803
851.864	0.0151064
851.943	0.0151113
852.021	0.0150136
852.099	0.0149699
852.177	0.0150087
852.255	0.0150721
852.333	0.0151279
852.411	0.0151250
852.489	0.0150623
852.568	0.0151195
852.646	0.0150809
852.724	0.0151304
852.802	0.0151482
852.880	0.0151691
852.958	0.0151569
853.036	0.0149933
853.114	0.0151404
853.193	0.0151721
853.271	0.0151885
853.349	0.0151280
853.427	0.0151868
853.505	0.0151927
853.583	0.0151485
853.661	0.0151779
853.739	0.0152248
853.818	0.0152092
853.896	0.0152279
853.974	0.0152423
854.052	0.0150858
854.130	0.0151055
854.208	0.0151025
854.286	0.0151487
854.364	0.0152516
854.443	0.0151038
854.521	0.0151082
854.599	0.0152235
854.677	0.0152420
854.755	0.0152239
854.833	0.0151179
854.911	0.0152414
854.989	0.0152835
855.068	0.0152587
855.146	0.0152179
855.224	0.0152158
855.302	0.0152660
855.380	0.0151922
855.458	0.0151295
855.536	0.0151299
855.614	0.0150796
855.693	0.0151865
855.771	0.0151686
855.849	0.0150093
855.927	0.0151034
856.005	0.0151018
856.083	0.0150488
856.161	0.0150874
856.239	0.0150732
856.318	0.0149080
856.396	0.0150642
856.474	0.0149762
856.552	0.0149058
856.630	0.0149593
856.708	0.0150809
856.786	0.0150121
856.864	0.0148280
856.943	0.0148643
857.021	0.0149364
857.099	0.0150093
857.177	0.0149616
857.255	0.0150562
857.333	0.0151101
857.411	0.0149741
857.489	0.0151359
857.568	0.0149737
857.646	0.0149969
857.724	0.0151260
857.802	0.0150084
857.880	0.0150417
857.958	0.0151121
858.036	0.0149635
858.114	0.0149970
858.193	0.0149594
858.271	0.0151160
858.349	0.0149839
858.427	0.0149728
858.505	0.0151650
858.583	0.0150681
858.661	0.0149700
858.739	0.0150413
858.818	0.0150404
858.896	0.0151000
858.974	0.0152739
859.052	0.0152502
859.130	0.0151389
859.208	0.0151231
859.286	0.0153056
859.364	0.0152289
859.443	0.0151637
859.521	0.0151406
859.599	0.0152536
859.677	0.0151964
859.755	0.0152390
859.833	0.0153047
859.911	0.0152780
859.989	0.0152795
860.068	0.0152980
860.146	0.0150816
860.224	0.0151963
860.302	0.0151447
860.380	0.0151837
860.458	0.0151167
860.536	0.0151652
860.614	0.0150793
860.693	0.0151663
860.771	0.0152076
860.849	0.0151504
860.927	0.0150247
861.005	0.0151510
861.083	0.0151727
861.161	0.0152506
861.239	0.0153103
861.318	0.0151556
861.396	0.0150716
861.474	0.0150304
861.552	0.0150235
861.630	0.0151075
861.708	0.0151464
861.786	0.0152042
861.864	0.0149809
861.943	0.0151331
862.021	0.0149621
862.099	0.0150615
862.177	0.0150986
862.255	0.0150363
862.333	0.0151554
862.411	0.0150559
862.489	0.0150029
862.568	0.0150583
862.646	0.0150679
862.724	0.0150578
862.802	0.0151097
862.880	0.0150533
862.958	0.0151900
863.036	0.0151623
863.114	0.0150205
863.193	0.0151897
863.271	0.0151475
863.349	0.0150742
863.427	0.0151308
863.505	0.0151034
863.583	0.0151328
863.661	0.0152094
863.739	0.0150172
863.818	0.0151414
863.896	0.0150443
863.974	0.0150580
864.052	0.0150288
864.130	0.0151038
864.208	0.0151250
864.286	0.0150771
864.364	0.0150294
864.443	0.0150049
864.521	0.0150166
864.599	0.0150006
864.677	0.0149257
864.755	0.0151653
864.833	0.0151087
864.911	0.0151126
864.989	0.0152035
865.068	0.0153384
865.146	0.0151689
865.224	0.0152393
865.302	0.0150771
865.380	0.0150651
865.458	0.0152163
865.536	0.0150700
865.614	0.0150735
865.693	0.0152370
865.771	0.0151752
865.849	0.0151183
865.927	0.0151395
866.005	0.0150597
866.083	0.0152192
866.161	0.0152171
866.239	0.0151650
866.318	0.0151954
866.396	0.0152560
866.474	0.0151268
866.552	0.0151904
866.630	0.0151201
866.708	0.0152575
866.786	0.0151576
866.864	0.0151701
866.943	0.0150368
867.021	0.0151638
867.099	0.0152869
867.177	0.0151117
867.255	0.0150553
867.333	0.0153062
867.411	0.0151643
867.489	0.0151401
867.568	0.0151889
867.646	0.0152473
867.724	0.0152199
867.802	0.0151717
867.880	0.0151086
867.958	0.0152660
868.036	0.0151981
868.114	0.0152706
868.193	0.0151158
868.271	0.0152144
868.349	0.0151618
868.427	0.0150763
868.505	0.0151695
868.583	0.0152085
868.661	0.0151543
868.739	0.0150352
868.818	0.0150605
868.896	0.0151719
868.974	0.0150727
869.052	0.0150658
869.130	0.0151693
869.208	0.0150787
869.286	0.0150752
869.364	0.0151318
869.443	0.0150698
869.521	0.0151243
869.599	0.0151517
869.677	0.0149868
869.755	0.0150292
869.833	0.0149881
869.911	0.0151683
869.989	0.0151173
870.068	0.0151266
870.146	0.0150616
870.224	0.0150500
870.302	0.0150844
870.380	0.0151380
870.458	0.0151167
870.536	0.0152287
870.614	0.0151365
870.693	0.0150925
870.771	0.0152755
870.849	0.0152348
870.927	0.0151903
871.005	0.0152418
871.083	0.0151772
871.161	0.0151737
871.239	0.0151911
871.318	0.0150916
871.396	0.0152225
871.474	0.0151979
871.552	0.0151865
871.630	0.0152476
871.708	0.0150412
871.786	0.0152553
871.864	0.0150323
871.943	0.0150396
872.021	0.0152643
872.099	0.0152912
872.177	0.0151521
872.255	0.0153392
872.333	0.0151339
872.411	0.0151452
872.489	0.0151704
872.568	0.0152671
872.646	0.0152366
872.724	0.0153018
872.802	0.0151948
872.880	0.0150744
872.958	0.0153162
873.036	0.0151246
873.114	0.0152206
873.193	0.0151604
873.271	0.0150374
873.349	0.0150191
873.427	0.0151293
873.505	0.0151009
873.583	0.0150111
873.661	0.0150572
873.739	0.0151447
873.818	0.0151540
873.896	0.0151466
873.974	0.0150583
874.052	0.0150663
874.130	0.0151801
874.208	0.0150130
874.286	0.0150580
874.364	0.0149512
874.443	0.0151293
874.521	0.0151173
874.599	0.0151701
874.677	0.0150529
874.755	0.0149597
874.833	0.0151540
874.911	0.0150883
874.989	0.0148823
875.068	0.0151167
875.146	0.0150670
875.224	0.0150301
875.302	0.0150370
875.380	0.0150610
875.458	0.0150240
875.536	0.0149564
875.614	0.0150548
875.693	0.0150104
875.771	0.0150845
875.849	0.0151617
875.927	0.0151496
876.005	0.0151333
876.083	0.0151788
876.161	0.0151886
876.239	0.0150945
876.318	0.0152362
876.396	0.0151694
876.474	0.0152323
876.552	0.0152084
876.630	0.0151815
876.708	0.0152011
876.786	0.0151588
876.864	0.0151921
876.943	0.0150871
877.021	0.0150526
877.099	0.0151510
877.177	0.0151567
877.255	0.0152267
877.333	0.0150898
877.411	0.0149995
877.489	0.0150864
877.568	0.0150437
877.646	0.0150410
877.724	0.0152058
877.802	0.0151421
877.880	0.0150954
877.958	0.0151535
878.036	0.0150385
878.114	0.0151522
878.193	0.0151225
878.271	0.0149384
878.349	0.0150504
878.427	0.0150935
878.505	0.0151215
878.583	0.0150963
878.661	0.0151019
878.739	0.0150350
878.818	0.0151609
878.896	0.0150926
878.974	0.0150626
879.052	0.0149266
879.130	0.0151453
879.208	0.0151168
879.286	0.0151058
879.364	0.0151923
879.443	0.0150592
879.521	0.0150428
879.599	0.0151625
879.677	0.0151044
879.755	0.0150365
879.833	0.0151022
879.911	0.0151482
879.989	0.0151147
880.068	0.0151637
880.146	0.0151777
880.224	0.0151712
880.302	0.0151919
880.380	0.0151874
880.458	0.0150309
880.536	0.0151739
880.614	0.0150893
880.693	0.0151417
880.771	0.0151264
880.849	0.0151458
880.927	0.0151198
881.005	0.0149500
881.083	0.0152203
881.161	0.0150899
881.239	0.0151001
881.318	0.0151358
881.396	0.0151140
881.474	0.0149664
881.552	0.0150098
881.630	0.0151781
881.708	0.0150447
881.786	0.0150584
881.864	0.0150990
881.943	0.0150945
882.021	0.0151166
882.099	0.0151508
882.177	0.0152124
882.255	0.0150682
882.333	0.0151694
882.411	0.0150716
882.489	0.0151003
882.568	0.0152525
882.646	0.0151615
882.724	0.0151753
882.802	0.0151647
882.880	0.0152169
882.958	0.0152529
883.036	0.0150403
883.114	0.0152881
883.193	0.0151506
883.271	0.0151390
883.349	0.0151528
883.427	0.0151401
883.505	0.0151179
883.583	0.0151191
883.661	0.0151817
883.739	0.0150634
883.818	0.0150293
883.896	0.0150462
883.974	0.0150910
884.052	0.0151263
884.130	0.0150845
884.208	0.0151988
884.286	0.0151169
884.364	0.0151969
884.443	0.0151520
884.521	0.0150728
884.599	0.0150578
884.677	0.0151243
884.755	0.0150471
884.833	0.0153593
884.911	0.0150852
884.989	0.0149445
885.068	0.0150671
885.146	0.0150690
885.224	0.0150390
885.302	0.0150344
885.380	0.0150049
885.458	0.0151276
885.536	0.0150315
885.614	0.0149132
885.693	0.0149704
885.771	0.0150068
885.849	0.0150362
885.927	0.0149689
886.005	0.0150483
886.083	0.0149834
886.161	0.0151754
886.239	0.0151892
886.318	0.0152125
886.396	0.0150016
886.474	0.0150765
886.552	0.0151237
886.630	0.0152136
886.708	0.0151439
886.786	0.0152106
886.864	0.0151349
886.943	0.0151086
887.021	0.0152293
887.099	0.0151669
887.177	0.0152678
887.255	0.0150936
887.333	0.0150518
887.411	0.0151091
887.489	0.0151723
887.568	0.0151426
887.646	0.0150793
887.724	0.0151238
887.802	0.0152484
887.880	0.0151430
887.958	0.0151678
888.036	0.0150984
888.114	0.0150198
888.193	0.0151511
888.271	0.0150427
888.349	0.0151279
888.427	0.0150951
888.505	0.0150888
888.583	0.0150462
888.661	0.0150196
888.739	0.0149529
888.818	0.0150240
888.896	0.0148177
888.974	0.0150397
889.052	0.0150310
889.130	0.0150214
889.208	0.0150377
889.286	0.0150252
889.364	0.0150172
889.443	0.0150819
889.521	0.0150658
889.599	0.0150052
889.677	0.0150938
889.755	0.0151179
889.833	0.0152539
889.911	0.0151415
889.989	0.0150915
890.068	0.0151161
890.146	0.0151447
890.224	0.0152599
890.302	0.0151163
890.380	0.0152287
890.458	0.0152449
890.536	0.0152023
890.614	0.0152570
890.693	0.0152001
890.771	0.0152984
890.849	0.0153056
890.927	0.0153015
891.005	0.0153053
891.083	0.0151980
891.161	0.0151807
891.239	0.0151742
891.318	0.0151447
891.396	0.0152071
891.474	0.0152384
891.552	0.0153050
891.630	0.0152870
891.708	0.0150797
891.786	0.0150341
891.864	0.0150639
891.943	0.0151090
892.021	0.0150980
892.099	0.0150271
892.177	0.0149127
892.255	0.0149774
892.333	0.0149562
892.411	0.0150140
892.489	0.0148916
892.568	0.0150566
892.646	0.0149633
892.724	0.0149686
892.802	0.0149895
892.880	0.0149878
892.958	0.0150120
893.036	0.0151269
893.114	0.0151383
893.193	0.0149516
893.271	0.0150287
893.349	0.0150100
893.427	0.0150592
893.505	0.0150698
893.583	0.0150548
893.661	0.0151089
893.739	0.0150114
893.818	0.0150758
893.896	0.0150073
893.974	0.0149815
894.052	0.0149822
894.130	0.0150596
894.208	0.0150694
894.286	0.0149434
894.364	0.0149072
894.443	0.0149929
894.521	0.0149656
894.599	0.0151939
894.677	0.0152233
894.755	0.0151401
894.833	0.0151256
894.911	0.0151043
894.989	0.0152320
895.068	0.0151523
895.146	0.0151321
895.224	0.0151170
895.302	0.0150880
895.380	0.0151049
895.458	0.0150652
895.536	0.0150542
895.614	0.0150258
895.693	0.0150919
895.771	0.0151932
895.849	0.0151659
895.927	0.0150506
896.005	0.0149793
896.083	0.0150769
896.161	0.0150254
896.239	0.0150336
896.318	0.0150385
896.396	0.0150918
896.474	0.0149581
896.552	0.0150432
896.630	0.0150047
896.708	0.0150847
896.786	0.0149869
896.864	0.0147999
896.943	0.0149342
897.021	0.0149864
897.099	0.0150545
897.177	0.0151034
897.255	0.0150877
897.333	0.0149534
897.411	0.0150041
897.489	0.0151003
897.568	0.0150866
897.646	0.0150652
897.724	0.0150299
897.802	0.0149606
897.880	0.0152315
897.958	0.0151681
898.036	0.0150356
898.114	0.0151063
898.193	0.0150745
898.271	0.0151275
898.349	0.0150822
898.427	0.0150124
898.505	0.0150184
898.583	0.0149793
898.661	0.0150118
898.739	0.0150605
898.818	0.0150735
898.896	0.0150594
898.974	0.0151643
899.052	0.0149808
899.130	0.0148284
899.208	0.0149527
899.286	0.0150942
899.364	0.0149858
899.443	0.0149809
899.521	0.0151592
899.599	0.0152092
899.677	0.0150629
899.755	0.0149037
899.833	0.0151275
899.911	0.0151032
899.989	0.0150903
900.068	0.0150220
900.146	0.0151291
900.224	0.0150061
900.302	0.0149867
900.380	0.0150642
900.458	0.0150596
900.536	0.0150806
900.614	0.0149516
900.693	0.0149886
900.771	0.0149709
900.849	0.0150475
900.927	0.0149711
901.005	0.0149519
901.083	0.0151786
901.161	0.0151534
901.239	0.0151206
901.318	0.0151908
901.396	0.0149944
901.474	0.0149722
901.552	0.0149575
901.630	0.0151709
901.708	0.0150232
901.786	0.0149618
901.864	0.0149677
901.943	0.0149874
902.021	0.0150145
902.099	0.0149962
902.177	0.0149322
902.255	0.0148152
902.333	0.0150018
902.411	0.0148899
902.489	0.0149451
902.568	0.0150443
902.646	0.0150912
902.724	0.0150311
902.802	0.0149319
902.880	0.0151727
902.958	0.0150868
903.036	0.0150848
903.114	0.0151200
903.193	0.0149473
903.271	0.0151218
903.349	0.0151211
903.427	0.0150648
903.505	0.0151357
903.583	0.0150468
903.661	0.0150077
903.739	0.0149745
903.818	0.0150079
903.896	0.0149182
903.974	0.0147607
904.052	0.0150037
904.130	0.0149956
904.208	0.0149686
904.286	0.0150257
904.364	0.0150657
904.443	0.0149715
904.521	0.0149184
904.599	0.0150836
904.677	0.0150479
904.755	0.0150609
904.833	0.0152473
904.911	0.0152943
904.989	0.0151718
905.068	0.0151704
905.146	0.0153658
905.224	0.0151088
905.302	0.0151098
905.380	0.0151830
905.458	0.0150811
905.536	0.0152034
905.614	0.0151581
905.693	0.0150469
905.771	0.0151172
905.849	0.0150135
905.927	0.0148952
906.005	0.0148528
906.083	0.0150462
906.161	0.0148865
906.239	0.0148460
906.318	0.0149792
906.396	0.0150042
906.474	0.0149426
906.552	0.0149956
906.630	0.0151178
906.708	0.0151202
906.786	0.0151910
906.864	0.0151483
906.943	0.0152384
907.021	0.0151930
907.099	0.0152290
907.177	0.0153513
907.255	0.0154176
907.333	0.0154111
907.411	0.0153009
907.489	0.0152331
907.568	0.0153001
907.646	0.0152501
907.724	0.0150999
907.802	0.0150620
907.880	0.0151852
907.958	0.0149388
908.036	0.0150904
908.114	0.0149368
908.193	0.0150636
908.271	0.0149720
908.349	0.0150091
908.427	0.0149740
908.505	0.0149933
908.583	0.0149726
908.661	0.0150040
908.739	0.0150178
908.818	0.0149770
908.896	0.0149824
908.974	0.0150484
909.052	0.0149931
909.130	0.0149605
909.208	0.0151030
909.286	0.0150492
909.364	0.0151812
909.443	0.0151340
909.521	0.0151876
909.599	0.0152245
909.677	0.0152129
909.755	0.0151185
909.833	0.0151411
909.911	0.0151202
909.989	0.0151122
910.068	0.0150999
910.146	0.0152076
910.224	0.0152139
910.302	0.0151056
910.380	0.0151472
910.458	0.0151333
910.536	0.0151115
910.614	0.0151586
910.693	0.0151838
910.771	0.0151141
910.849	0.0150552
910.927	0.0150799
911.005	0.0151262
911.083	0.0151337
911.161	0.0151505
911.239	0.0151466
911.318	0.0151492
911.396	0.0150818
911.474	0.0151424
911.552	0.0152512
911.630	0.0152338
911.708	0.0150526
911.786	0.0150884
911.864	0.0151347
911.943	0.0151270
912.021	0.0150970
912.099	0.0150813
912.177	0.0151797
912.255	0.0151117
912.333	0.0150455
912.411	0.0152071
912.489	0.0151360
912.568	0.0150547
912.646	0.0150654
912.724	0.0151460
912.802	0.0151266
912.880	0.0152338
912.958	0.0150587
913.036	0.0151349
913.114	0.0150287
913.193	0.0152078
913.271	0.0151266
913.349	0.0150789
913.427	0.0150436
913.505	0.0151186
913.583	0.0151389
913.661	0.0150708
913.739	0.0152148
913.818	0.0151261
913.896	0.0150955
913.974	0.0151144
914.052	0.0150395
914.130	0.0150771
914.208	0.0151350
914.286	0.0150420
914.364	0.0151508
914.443	0.0152213
914.521	0.0150386
914.599	0.0150896
914.677	0.0150639
914.755	0.0150954
914.833	0.0150223
914.911	0.0150916
914.989	0.0150968
915.068	0.0152353
915.146	0.0152173
915.224	0.0151086
915.302	0.0152361
915.380	0.0150579
915.458	0.0151214
915.536	0.0150437
915.614	0.0151440
915.693	0.0150492
915.771	0.0150101
915.849	0.0151082
915.927	0.0150502
916.005	0.0150169
916.083	0.0151895
916.161	0.0148164
916.239	0.0150157
916.318	0.0150598
916.396	0.0150063
916.474	0.0149333
916.552	0.0151455
916.630	0.0150292
916.708	0.0150807
916.786	0.0149541
916.864	0.0150400
916.943	0.0151089
917.021	0.0151373
917.099	0.0150900
917.177	0.0151131
917.255	0.0151009
917.333	0.0152283
917.411	0.0152232
917.489	0.0152032
917.568	0.0151431
917.646	0.0150990
917.724	0.0151324
917.802	0.0151380
917.880	0.0151108
917.958	0.0152314
918.036	0.0152251
918.114	0.0150967
918.193	0.0151807
918.271	0.0150108
918.349	0.0150330
918.427	0.0151785
918.505	0.0151080
918.583	0.0151994
918.661	0.0150491
918.739	0.0150687
918.818	0.0150917
918.896	0.0151352
918.974	0.0149480
919.052	0.0149833
919.130	0.0150360
919.208	0.0151523
919.286	0.0149229
919.364	0.0150237
919.443	0.0150427
919.521	0.0149297
919.599	0.0150040
919.677	0.0151273
919.755	0.0150394
919.833	0.0151172
919.911	0.0151937
919.989	0.0150249
920.068	0.0149899
920.146	0.0151572
920.224	0.0151019
920.302	0.0152205
920.380	0.0150606
920.458	0.0151137
920.536	0.0150518
920.614	0.0150440
920.693	0.0150227
920.771	0.0149444
920.849	0.0151672
920.927	0.0150775
921.005	0.0150151
921.083	0.0150684
921.161	0.0149860
921.239	0.0150350
921.318	0.0151838
921.396	0.0149677
921.474	0.0150580
921.552	0.0151128
921.630	0.0150129
921.708	0.0150600
921.786	0.0152079
921.864	0.0150714
921.943	0.0152477
922.021	0.0151136
922.099	0.0151359
922.177	0.0150511
922.255	0.0150695
922.333	0.0150716
922.411	0.0150663
922.489	0.0151857
922.568	0.0151514
922.646	0.0150162
922.724	0.0150047
922.802	0.0150462
922.880	0.0150182
922.958	0.0151344
923.036	0.0151205
923.114	0.0149840
923.193	0.0149951
923.271	0.0149617
923.349	0.0149976
923.427	0.0149979
923.505	0.0151057
923.583	0.0150267
923.661	0.0150362
923.739	0.0151382
923.818	0.0152124
923.896	0.0150761
923.974	0.0150316
924.052	0.0150867
924.130	0.0151479
924.208	0.0151212
924.286	0.0149315
924.364	0.0150954
924.443	0.0153049
924.521	0.0151031
924.599	0.0150005
924.677	0.0151178
924.755	0.0149683
924.833	0.0150608
924.911	0.0149332
924.989	0.0149889
925.068	0.0150079
925.146	0.0149802
925.224	0.0150240
925.302	0.0150591
925.380	0.0148967
925.458	0.0150581
925.536	0.0149921
925.614	0.0148885
925.693	0.0150274
925.771	0.0148277
925.849	0.0151049
925.927	0.0150247
926.005	0.0150311
926.083	0.0150323
926.161	0.0150108
926.239	0.0150681
926.318	0.0151028
926.396	0.0150986
926.474	0.0151186
926.552	0.0150822
926.630	0.0151470
926.708	0.0150250
926.786	0.0150298
926.864	0.0150195
926.943	0.0150810
927.021	0.0149409
927.099	0.0149621
927.177	0.0151081
927.255	0.0149992
927.333	0.0149481
927.411	0.0150338
927.489	0.0150461
927.568	0.0150230
927.646	0.0149923
927.724	0.0149326
927.802	0.0150630
927.880	0.0149823
927.958	0.0149348
928.036	0.0149223
928.114	0.0150198
928.193	0.0150373
928.271	0.0149895
928.349	0.0149472
928.427	0.0149866
928.505	0.0150098
928.583	0.0150659
928.661	0.0151327
928.739	0.0150100
928.818	0.0150431
928.896	0.0150778
928.974	0.0149768
929.052	0.0150138
929.130	0.0148978
929.208	0.0151166
929.286	0.0151431
929.364	0.0151040
929.443	0.0151210
929.521	0.0151156
929.599	0.0151399
929.677	0.0151641
929.755	0.0150777
929.833	0.0151215
929.911	0.0150283
929.989	0.0152345
930.068	0.0150347
930.146	0.0150663
930.224	0.0151918
930.302	0.0151017
930.380	0.0151228
930.458	0.0151253
930.536	0.0150469
930.614	0.0151963
930.693	0.0151118
930.771	0.0151507
930.849	0.0151307
930.927	0.0151754
931.005	0.0151476
931.083	0.0149309
931.161	0.0151244
931.239	0.0152158
931.318	0.0151479
931.396	0.0151084
931.474	0.0151717
931.552	0.0150445
931.630	0.0151156
931.708	0.0150919
931.786	0.0151044
931.864	0.0151707
931.943	0.0151022
932.021	0.0151274
932.099	0.0150706
932.177	0.0151411
932.255	0.0151632
932.333	0.0152359
932.411	0.0152533
932.489	0.0152039
932.568	0.0149973
932.646	0.0150901
932.724	0.0151332
932.802	0.0150257
932.880	0.0151656
932.958	0.0153028
933.036	0.0150983
933.114	0.0151567
933.193	0.0151096
933.271	0.0151540
933.349	0.0151974
933.427	0.0151535
933.505	0.0150613
933.583	0.0150754
933.661	0.0151286
933.739	0.0151508
933.818	0.0151028
933.896	0.0150690
933.974	0.0150159
934.052	0.0151046
934.130	0.0151752
934.208	0.0152388
934.286	0.0151617
934.364	0.0150250
934.443	0.0150681
934.521	0.0150620
934.599	0.0151885
934.677	0.0153004
934.755	0.0151420
934.833	0.0150707
934.911	0.0152074
934.989	0.0150350
935.068	0.0151246
935.146	0.0150637
935.224	0.0150927
935.302	0.0151761
935.380	0.0151443
935.458	0.0151571
935.536	0.0150378
935.614	0.0149706
935.693	0.0151141
935.771	0.0152122
935.849	0.0150687
935.927	0.0150097
936.005	0.0150493
936.083	0.0151627
936.161	0.0150764
936.239	0.0151456
936.318	0.0151563
936.396	0.0151134
936.474	0.0151469
936.552	0.0151023
936.630	0.0152928
936.708	0.0151132
936.786	0.0153056
936.864	0.0151711
936.943	0.0150866
937.021	0.0152148
937.099	0.0151020
937.177	0.0153040
937.255	0.0152066
937.333	0.0152094
937.411	0.0151122
937.489	0.0150526
937.568	0.0150774
937.646	0.0151699
937.724	0.0150391
937.802	0.0151261
937.880	0.0151984
937.958	0.0151842
938.036	0.0151746
938.114	0.0152472
938.193	0.0150676
938.271	0.0150727
938.349	0.0152777
938.427	0.0151536
938.505	0.0149722
938.583	0.0149576
938.661	0.0152215
938.739	0.0152138
938.818	0.0150313
938.896	0.0150777
938.974	0.0151673
939.052	0.0152129
939.130	0.0151404
939.208	0.0151052
939.286	0.0151152
939.364	0.0151386
939.443	0.0150311
939.521	0.0152019
939.599	0.0150251
939.677	0.0150618
939.755	0.0150874
939.833	0.0149848
939.911	0.0150836
939.989	0.0152216
940.068	0.0151656
940.146	0.0150730
940.224	0.0152085
940.302	0.0150730
940.380	0.0150695
940.458	0.0151257
940.536	0.0152055
940.614	0.0151922
940.693	0.0151611
940.771	0.0152374
940.849	0.0151033
940.927	0.0151495
941.005	0.0151559
941.083	0.0152025
941.161	0.0153873
941.239	0.0152141
941.318	0.0151704
941.396	0.0151408
941.474	0.0151252
941.552	0.0150842
941.630	0.0151775
941.708	0.0151230
941.786	0.0151212
941.864	0.0150093
941.943	0.0150931
942.021	0.0150559
942.099	0.0150903
942.177	0.0151191
942.255	0.0150551
942.333	0.0151362
942.411	0.0152373
942.489	0.0151275
942.568	0.0151637
942.646	0.0151283
942.724	0.0151455
942.802	0.0151688
942.880	0.0151843
942.958	0.0153036
943.036	0.0151545
943.114	0.0151822
943.193	0.0152512
943.271	0.0151041
943.349	0.0150283
943.427	0.0151793
943.505	0.0151157
943.583	0.0152227
943.661	0.0151786
943.739	0.0152060
943.818	0.0151945
943.896	0.0150565
943.974	0.0150993
944.052	0.0151049
944.130	0.0151981
944.208	0.0150632
944.286	0.0151953
944.364	0.0152330
944.443	0.0151290
944.521	0.0151691
944.599	0.0150597
944.677	0.0149803
944.755	0.0150255
944.833	0.0151202
944.911	0.0151608
944.989	0.0151263
945.068	0.0151934
945.146	0.0150970
945.224	0.0151014
945.302	0.0151849
945.380	0.0152261
945.458	0.0151233
945.536	0.0151317
945.614	0.0151080
945.693	0.0151433
945.771	0.0150520
945.849	0.0152030
945.927	0.0152522
946.005	0.0150674
946.083	0.0151588
946.161	0.0151035
946.239	0.0151134
946.318	0.0152420
946.396	0.0151543
946.474	0.0151023
946.552	0.0150938
946.630	0.0151720
946.708	0.0151422
946.786	0.0150580
946.864	0.0152091
946.943	0.0151237
947.021	0.0152320
947.099	0.0152055
947.177	0.0151535
947.255	0.0151608
947.333	0.0151025
947.411	0.0151038
947.489	0.0154090
947.568	0.0150762
947.646	0.0150637
947.724	0.0151214
947.802	0.0151622
947.880	0.0151952
947.958	0.0151395
948.036	0.0151711
948.114	0.0150606
948.193	0.0151804
948.271	0.0151575
948.349	0.0151778
948.427	0.0151086
948.505	0.0150981
948.583	0.0152530
948.661	0.0150031
948.739	0.0149896
948.818	0.0150868
948.896	0.0151841
948.974	0.0150508
949.052	0.0150600
949.130	0.0151974
949.208	0.0149970
949.286	0.0151722
949.364	0.0152469
949.443	0.0151801
949.521	0.0151440
949.599	0.0151681
949.677	0.0151825
949.755	0.0152721
949.833	0.0152583
949.911	0.0151971
949.989	0.0152862
950.068	0.0152444
950.146	0.0151922
950.224	0.0151235
950.302	0.0152522
950.380	0.0152194
950.458	0.0152803
950.536	0.0152585
950.614	0.0152679
950.693	0.0152277
950.771	0.0151019
950.849	0.0152814
950.927	0.0152180
951.005	0.0150754
951.083	0.0151253
951.161	0.0152808
951.239	0.0151938
951.318	0.0150420
951.396	0.0150983
951.474	0.0151463
951.552	0.0150660
951.630	0.0151004
951.708	0.0150897
951.786	0.0151317
951.864	0.0150883
951.943	0.0152148
952.021	0.0153038
952.099	0.0149685
952.177	0.0150076
952.255	0.0151965
952.333	0.0152625
952.411	0.0150888
952.489	0.0151421
952.568	0.0151566
952.646	0.0151723
952.724	0.0151466
952.802	0.0151954
952.880	0.0151723
952.958	0.0151012
953.036	0.0152276
953.114	0.0150576
953.193	0.0151976
953.271	0.0151764
953.349	0.0150342
953.427	0.0150591
953.505	0.0150958
953.583	0.0151195
953.661	0.0152239
953.739	0.0151961
953.818	0.0150993
953.896	0.0150931
953.974	0.0150632
954.052	0.0149968
954.130	0.0151544
954.208	0.0151176
954.286	0.0151052
954.364	0.0151462
954.443	0.0151543
954.521	0.0149747
954.599	0.0150904
954.677	0.0149577
954.755	0.0151463
954.833	0.0151286
954.911	0.0150644
954.989	0.0150510
955.068	0.0152329
955.146	0.0153262
955.224	0.0151333
955.302	0.0150046
955.380	0.0152473
955.458	0.0151673
955.536	0.0151614
955.614	0.0150689
955.693	0.0151100
955.771	0.0152207
955.849	0.0151149
955.927	0.0151305
956.005	0.0152644
956.083	0.0153111
956.161	0.0152152
956.239	0.0151553
956.318	0.0152682
956.396	0.0152191
956.474	0.0152122
956.552	0.0152034
956.630	0.0152121
956.708	0.0152104
956.786	0.0151793
956.864	0.0150785
956.943	0.0151405
957.021	0.0151246
957.099	0.0151562
957.177	0.0151898
957.255	0.0150980
957.333	0.0151115
957.411	0.0151321
957.489	0.0152220
957.568	0.0151225
957.646	0.0151229
957.724	0.0150094
957.802	0.0150652
957.880	0.0151397
957.958	0.0151827
958.036	0.0150993
958.114	0.0151111
958.193	0.0150984
958.271	0.0152101
958.349	0.0151881
958.427	0.0152194
958.505	0.0150759
958.583	0.0152173
958.661	0.0152156
958.739	0.0150678
958.818	0.0150863
958.896	0.0151347
958.974	0.0150193
959.052	0.0151392
959.130	0.0151591
959.208	0.0150842
959.286	0.0150887
959.364	0.0150225
959.443	0.0151049
959.521	0.0149840
959.599	0.0150673
959.677	0.0152062
959.755	0.0150602
959.833	0.0150499
959.911	0.0151183
