05/17/2022	16:53:24	Ver.	4.1	UNKNOWN
Optical Delay	639.982744	Delta X		0.078125	Sweeps	1	Scan Rate	0/0
Coordinates	Axis 1	NaN	Axis 2	NaN	Axis 3	NaN	Axis 4	NaN	Axis 5	NaN	Axis 6	0.000000
TX Power	0.000000	RX Power	0.000000

639.983	0.0155621
640.061	0.0154865
640.139	0.0155148
640.217	0.0156438
640.295	0.0156380
640.373	0.0155272
640.451	0.0155338
640.530	0.0155689
640.608	0.0154749
640.686	0.0156499
640.764	0.0154942
640.842	0.0155345
640.920	0.0155600
640.998	0.0154493
641.076	0.0156653
641.155	0.0156125
641.233	0.0154800
641.311	0.0156042
641.389	0.0154931
641.467	0.0154477
641.545	0.0156469
641.623	0.0153735
641.701	0.0155503
641.780	0.0155432
641.858	0.0154369
641.936	0.0155468
642.014	0.0154367
642.092	0.0154652
642.170	0.0155707
642.248	0.0156299
642.326	0.0154529
642.405	0.0155087
642.483	0.0156797
642.561	0.0154485
642.639	0.0155244
642.717	0.0155000
642.795	0.0155070
642.873	0.0153494
642.951	0.0155581
643.030	0.0154585
643.108	0.0154228
643.186	0.0155332
643.264	0.0155952
643.342	0.0156066
643.420	0.0155008
643.498	0.0154066
643.576	0.0155611
643.655	0.0154223
643.733	0.0154053
643.811	0.0155076
643.889	0.0155577
643.967	0.0155306
644.045	0.0155855
644.123	0.0155299
644.201	0.0156221
644.280	0.0155595
644.358	0.0155729
644.436	0.0154153
644.514	0.0155225
644.592	0.0153867
644.670	0.0154681
644.748	0.0155893
644.826	0.0154285
644.905	0.0153571
644.983	0.0154337
645.061	0.0155561
645.139	0.0154359
645.217	0.0155845
645.295	0.0155753
645.373	0.0154553
645.451	0.0155780
645.530	0.0154942
645.608	0.0155652
645.686	0.0155213
645.764	0.0153949
645.842	0.0155410
645.920	0.0154441
645.998	0.0155661
646.076	0.0152858
646.155	0.0154742
646.233	0.0156029
646.311	0.0155957
646.389	0.0154704
646.467	0.0153710
646.545	0.0155650
646.623	0.0155536
646.701	0.0155695
646.780	0.0155896
646.858	0.0154716
646.936	0.0154739
647.014	0.0155102
647.092	0.0154576
647.170	0.0154969
647.248	0.0155620
647.326	0.0156288
647.405	0.0156118
647.483	0.0154312
647.561	0.0155538
647.639	0.0155607
647.717	0.0156716
647.795	0.0156364
647.873	0.0156624
647.951	0.0154786
648.030	0.0156229
648.108	0.0155120
648.186	0.0155174
648.264	0.0155548
648.342	0.0154476
648.420	0.0154816
648.498	0.0154429
648.576	0.0152370
648.655	0.0154915
648.733	0.0154633
648.811	0.0154320
648.889	0.0153635
648.967	0.0153410
649.045	0.0153682
649.123	0.0155203
649.201	0.0154801
649.280	0.0155119
649.358	0.0154391
649.436	0.0155358
649.514	0.0155909
649.592	0.0153894
649.670	0.0155095
649.748	0.0157078
649.826	0.0155901
649.905	0.0155020
649.983	0.0156412
650.061	0.0157581
650.139	0.0156133
650.217	0.0156714
650.295	0.0155079
650.373	0.0157222
650.451	0.0154709
650.530	0.0154526
650.608	0.0154398
650.686	0.0153115
650.764	0.0154086
650.842	0.0153724
650.920	0.0153228
650.998	0.0152494
651.076	0.0152843
651.155	0.0153613
651.233	0.0154699
651.311	0.0152785
651.389	0.0153857
651.467	0.0155188
651.545	0.0154881
651.623	0.0155527
651.701	0.0158550
651.780	0.0157048
651.858	0.0155949
651.936	0.0157590
652.014	0.0158302
652.092	0.0158354
652.170	0.0157836
652.248	0.0158533
652.326	0.0160792
652.405	0.0158634
652.483	0.0157513
652.561	0.0156676
652.639	0.0157345
652.717	0.0155347
652.795	0.0155513
652.873	0.0155162
652.951	0.0153709
653.030	0.0153500
653.108	0.0152131
653.186	0.0152449
653.264	0.0152855
653.342	0.0152736
653.420	0.0152881
653.498	0.0152718
653.576	0.0152963
653.655	0.0155058
653.733	0.0153922
653.811	0.0155856
653.889	0.0156692
653.967	0.0156329
654.045	0.0156538
654.123	0.0158575
654.201	0.0158112
654.280	0.0159319
654.358	0.0158324
654.436	0.0158743
654.514	0.0160143
654.592	0.0158984
654.670	0.0159904
654.748	0.0158239
654.826	0.0158942
654.905	0.0157801
654.983	0.0157370
655.061	0.0155629
655.139	0.0155453
655.217	0.0155550
655.295	0.0154773
655.373	0.0154636
655.451	0.0153664
655.530	0.0152593
655.608	0.0154466
655.686	0.0155287
655.764	0.0154706
655.842	0.0153835
655.920	0.0154437
655.998	0.0154783
656.076	0.0156203
656.155	0.0156725
656.233	0.0155955
656.311	0.0156365
656.389	0.0157426
656.467	0.0157417
656.545	0.0158607
656.623	0.0158995
656.701	0.0157761
656.780	0.0158096
656.858	0.0158784
656.936	0.0157404
657.014	0.0157436
657.092	0.0156165
657.170	0.0157465
657.248	0.0157950
657.326	0.0154572
657.405	0.0155323
657.483	0.0155235
657.561	0.0154594
657.639	0.0152959
657.717	0.0153570
657.795	0.0154980
657.873	0.0154530
657.951	0.0153591
658.030	0.0154317
658.108	0.0154989
658.186	0.0154162
658.264	0.0155289
658.342	0.0154512
658.420	0.0155320
658.498	0.0155335
658.576	0.0155304
658.655	0.0154200
658.733	0.0155570
658.811	0.0157228
658.889	0.0156321
658.967	0.0155241
659.045	0.0154883
659.123	0.0156450
659.201	0.0156537
659.280	0.0156885
659.358	0.0156723
659.436	0.0156431
659.514	0.0156300
659.592	0.0156459
659.670	0.0157530
659.748	0.0156475
659.826	0.0156255
659.905	0.0155851
659.983	0.0154906
660.061	0.0157944
660.139	0.0158311
660.217	0.0155695
660.295	0.0155374
660.373	0.0159007
660.451	0.0157700
660.530	0.0155941
660.608	0.0156297
660.686	0.0155828
660.764	0.0154594
660.842	0.0154652
660.920	0.0156567
660.998	0.0155449
661.076	0.0155033
661.155	0.0156499
661.233	0.0154412
661.311	0.0154264
661.389	0.0155392
661.467	0.0155420
661.545	0.0156059
661.623	0.0157668
661.701	0.0156293
661.780	0.0156917
661.858	0.0157948
661.936	0.0157466
662.014	0.0158124
662.092	0.0157839
662.170	0.0156926
662.248	0.0158710
662.326	0.0156579
662.405	0.0155607
662.483	0.0157013
662.561	0.0155968
662.639	0.0155775
662.717	0.0155502
662.795	0.0155809
662.873	0.0155384
662.951	0.0155883
663.030	0.0154638
663.108	0.0153635
663.186	0.0153864
663.264	0.0154798
663.342	0.0153948
663.420	0.0153904
663.498	0.0155022
663.576	0.0154882
663.655	0.0155357
663.733	0.0155294
663.811	0.0155485
663.889	0.0155005
663.967	0.0155399
664.045	0.0157570
664.123	0.0158452
664.201	0.0156274
664.280	0.0158215
664.358	0.0157454
664.436	0.0158015
664.514	0.0157375
664.592	0.0157193
664.670	0.0157529
664.748	0.0156174
664.826	0.0156655
664.905	0.0156483
664.983	0.0154928
665.061	0.0155223
665.139	0.0155414
665.217	0.0152690
665.295	0.0152356
665.373	0.0153603
665.451	0.0153410
665.530	0.0153632
665.608	0.0153892
665.686	0.0154787
665.764	0.0154727
665.842	0.0153198
665.920	0.0154085
665.998	0.0153230
666.076	0.0154476
666.155	0.0156094
666.233	0.0156648
666.311	0.0155395
666.389	0.0156815
666.467	0.0157314
666.545	0.0157632
666.623	0.0158149
666.701	0.0157513
666.780	0.0156806
666.858	0.0157395
666.936	0.0158479
667.014	0.0155910
667.092	0.0156604
667.170	0.0155619
667.248	0.0155228
667.326	0.0154807
667.405	0.0153307
667.483	0.0153576
667.561	0.0152441
667.639	0.0151664
667.717	0.0151142
667.795	0.0152861
667.873	0.0151768
667.951	0.0151477
668.030	0.0153716
668.108	0.0153850
668.186	0.0154596
668.264	0.0154584
668.342	0.0156644
668.420	0.0157523
668.498	0.0156708
668.576	0.0157439
668.655	0.0157317
668.733	0.0158124
668.811	0.0157870
668.889	0.0156686
668.967	0.0158066
669.045	0.0157070
669.123	0.0156443
669.201	0.0154588
669.280	0.0155300
669.358	0.0154732
669.436	0.0154555
669.514	0.0153208
669.592	0.0153073
669.670	0.0151854
669.748	0.0153500
669.826	0.0152211
669.905	0.0152268
669.983	0.0152705
670.061	0.0153552
670.139	0.0152512
670.217	0.0153560
670.295	0.0155322
670.373	0.0155889
670.451	0.0157481
670.530	0.0157537
670.608	0.0158534
670.686	0.0159496
670.764	0.0161343
670.842	0.0159457
670.920	0.0159477
670.998	0.0160837
671.076	0.0160403
671.155	0.0161600
671.233	0.0159439
671.311	0.0160323
671.389	0.0158397
671.467	0.0158221
671.545	0.0158275
671.623	0.0158289
671.701	0.0157375
671.780	0.0159070
671.858	0.0156763
671.936	0.0156886
672.014	0.0157483
672.092	0.0156144
672.170	0.0158114
672.248	0.0157367
672.326	0.0157857
672.405	0.0156888
672.483	0.0156880
672.561	0.0156340
672.639	0.0155798
672.717	0.0155965
672.795	0.0156866
672.873	0.0155932
672.951	0.0156857
673.030	0.0156407
673.108	0.0156828
673.186	0.0156748
673.264	0.0156669
673.342	0.0156445
673.420	0.0156300
673.498	0.0156995
673.576	0.0157755
673.655	0.0155726
673.733	0.0156013
673.811	0.0155212
673.889	0.0155550
673.967	0.0154932
674.045	0.0154359
674.123	0.0153548
674.201	0.0153471
674.280	0.0152725
674.358	0.0153886
674.436	0.0153225
674.514	0.0152653
674.592	0.0151088
674.670	0.0152039
674.748	0.0151573
674.826	0.0149931
674.905	0.0151029
674.983	0.0149607
675.061	0.0151534
675.139	0.0150370
675.217	0.0149937
675.295	0.0151054
675.373	0.0150752
675.451	0.0151647
675.530	0.0152397
675.608	0.0151494
675.686	0.0152687
675.764	0.0153192
675.842	0.0153661
675.920	0.0153685
675.998	0.0154686
676.076	0.0152543
676.155	0.0152312
676.233	0.0154068
676.311	0.0153292
676.389	0.0154665
676.467	0.0154395
676.545	0.0155236
676.623	0.0154091
676.701	0.0155206
676.780	0.0154833
676.858	0.0156889
676.936	0.0156001
677.014	0.0155481
677.092	0.0157406
677.170	0.0156781
677.248	0.0158187
677.326	0.0157072
677.405	0.0157681
677.483	0.0158647
677.561	0.0157269
677.639	0.0158601
677.717	0.0157638
677.795	0.0157806
677.873	0.0158092
677.951	0.0156396
678.030	0.0158315
678.108	0.0157691
678.186	0.0157733
678.264	0.0156495
678.342	0.0155119
678.420	0.0157494
678.498	0.0155691
678.576	0.0155061
678.655	0.0155009
678.733	0.0155303
678.811	0.0154315
678.889	0.0155158
678.967	0.0153227
679.045	0.0151994
679.123	0.0154153
679.201	0.0153165
679.280	0.0153181
679.358	0.0154697
679.436	0.0154625
679.514	0.0155699
679.592	0.0156329
679.670	0.0157645
679.748	0.0156022
679.826	0.0156943
679.905	0.0158936
679.983	0.0159498
680.061	0.0159921
680.139	0.0160249
680.217	0.0161523
680.295	0.0163090
680.373	0.0165283
680.451	0.0165118
680.530	0.0163675
680.608	0.0167122
680.686	0.0168623
680.764	0.0168370
680.842	0.0166808
680.920	0.0168687
680.998	0.0166049
681.076	0.0166741
681.155	0.0166309
681.233	0.0163046
681.311	0.0161556
681.389	0.0160577
681.467	0.0158322
681.545	0.0154565
681.623	0.0152100
681.701	0.0149522
681.780	0.0148750
681.858	0.0146259
681.936	0.0143483
682.014	0.0142455
682.092	0.0142484
682.170	0.0141660
682.248	0.0142767
682.326	0.0142821
682.405	0.0142956
682.483	0.0143158
682.561	0.0144445
682.639	0.0147290
682.717	0.0147592
682.795	0.0148140
682.873	0.0151674
682.951	0.0153697
683.030	0.0153070
683.108	0.0155635
683.186	0.0157413
683.264	0.0159012
683.342	0.0160253
683.420	0.0161593
683.498	0.0161675
683.576	0.0161364
683.655	0.0160664
683.733	0.0161828
683.811	0.0161215
683.889	0.0160844
683.967	0.0159322
684.045	0.0158961
684.123	0.0157710
684.201	0.0156392
684.280	0.0156187
684.358	0.0154881
684.436	0.0152980
684.514	0.0152157
684.592	0.0153784
684.670	0.0153174
684.748	0.0152087
684.826	0.0150334
684.905	0.0150456
684.983	0.0150553
685.061	0.0149074
685.139	0.0149438
685.217	0.0150046
685.295	0.0149329
685.373	0.0149156
685.451	0.0150871
685.530	0.0151517
685.608	0.0151611
685.686	0.0151517
685.764	0.0152591
685.842	0.0154585
685.920	0.0156384
685.998	0.0156874
686.076	0.0159078
686.155	0.0159408
686.233	0.0162218
686.311	0.0162671
686.389	0.0163824
686.467	0.0164399
686.545	0.0163669
686.623	0.0164832
686.701	0.0166306
686.780	0.0167583
686.858	0.0166321
686.936	0.0168085
687.014	0.0167552
687.092	0.0164756
687.170	0.0165597
687.248	0.0164653
687.326	0.0163976
687.405	0.0164028
687.483	0.0161963
687.561	0.0159023
687.639	0.0158448
687.717	0.0156709
687.795	0.0154759
687.873	0.0151965
687.951	0.0148042
688.030	0.0146599
688.108	0.0145242
688.186	0.0143872
688.264	0.0144028
688.342	0.0141514
688.420	0.0141418
688.498	0.0142281
688.576	0.0141444
688.655	0.0142711
688.733	0.0143906
688.811	0.0147430
688.889	0.0149059
688.967	0.0149404
689.045	0.0153205
689.123	0.0154872
689.201	0.0156142
689.280	0.0159834
689.358	0.0161517
689.436	0.0163024
689.514	0.0164041
689.592	0.0165271
689.670	0.0165708
689.748	0.0166562
689.826	0.0167391
689.905	0.0166049
689.983	0.0167309
690.061	0.0166356
690.139	0.0163363
690.217	0.0163269
690.295	0.0161797
690.373	0.0160418
690.451	0.0160513
690.530	0.0159908
690.608	0.0157255
690.686	0.0157040
690.764	0.0154401
690.842	0.0154373
690.920	0.0153130
690.998	0.0152717
691.076	0.0150862
691.155	0.0150864
691.233	0.0149242
691.311	0.0148782
691.389	0.0148504
691.467	0.0147473
691.545	0.0146983
691.623	0.0147793
691.701	0.0147803
691.780	0.0147913
691.858	0.0149288
691.936	0.0150616
692.014	0.0151325
692.092	0.0153502
692.170	0.0152590
692.248	0.0154556
692.326	0.0155914
692.405	0.0158833
692.483	0.0157157
692.561	0.0158627
692.639	0.0157937
692.717	0.0157565
692.795	0.0158345
692.873	0.0157688
692.951	0.0158022
693.030	0.0157487
693.108	0.0158359
693.186	0.0157084
693.264	0.0156614
693.342	0.0157637
693.420	0.0157291
693.498	0.0157872
693.576	0.0159699
693.655	0.0158054
693.733	0.0158105
693.811	0.0159141
693.889	0.0159435
693.967	0.0159994
694.045	0.0160915
694.123	0.0160635
694.201	0.0160585
694.280	0.0159716
694.358	0.0159818
694.436	0.0160122
694.514	0.0158353
694.592	0.0157626
694.670	0.0157880
694.748	0.0155750
694.826	0.0153893
694.905	0.0153692
694.983	0.0153610
695.061	0.0152661
695.139	0.0152420
695.217	0.0152651
695.295	0.0152950
695.373	0.0151647
695.451	0.0151112
695.530	0.0149740
695.608	0.0149275
695.686	0.0150423
695.764	0.0150639
695.842	0.0149405
695.920	0.0149371
695.998	0.0148645
696.076	0.0149241
696.155	0.0148910
696.233	0.0147394
696.311	0.0145996
696.389	0.0146860
696.467	0.0148592
696.545	0.0150020
696.623	0.0148520
696.701	0.0147987
696.780	0.0150224
696.858	0.0152066
696.936	0.0151176
697.014	0.0152760
697.092	0.0156057
697.170	0.0155581
697.248	0.0157646
697.326	0.0159315
697.405	0.0160474
697.483	0.0162361
697.561	0.0163542
697.639	0.0162287
697.717	0.0165090
697.795	0.0164460
697.873	0.0165479
697.951	0.0165119
698.030	0.0164553
698.108	0.0165806
698.186	0.0165041
698.264	0.0164973
698.342	0.0163448
698.420	0.0163712
698.498	0.0164160
698.576	0.0161832
698.655	0.0159959
698.733	0.0159544
698.811	0.0158337
698.889	0.0156914
698.967	0.0155534
699.045	0.0153313
699.123	0.0152596
699.201	0.0151961
699.280	0.0151711
699.358	0.0150025
699.436	0.0151036
699.514	0.0149446
699.592	0.0147616
699.670	0.0148398
699.748	0.0150100
699.826	0.0149252
699.905	0.0149271
699.983	0.0149003
700.061	0.0150469
700.139	0.0152814
700.217	0.0152978
700.295	0.0154458
700.373	0.0154308
700.451	0.0156457
700.530	0.0156980
700.608	0.0157244
700.686	0.0158985
700.764	0.0158900
700.842	0.0158683
700.920	0.0158695
700.998	0.0159328
701.076	0.0159962
701.155	0.0158284
701.233	0.0160062
701.311	0.0159090
701.389	0.0157938
701.467	0.0158078
701.545	0.0156606
701.623	0.0156096
701.701	0.0154010
701.780	0.0153024
701.858	0.0153281
701.936	0.0153363
702.014	0.0152346
702.092	0.0150703
702.170	0.0149812
702.248	0.0148952
702.326	0.0150399
702.405	0.0147388
702.483	0.0148871
702.561	0.0148490
702.639	0.0148442
702.717	0.0148133
702.795	0.0149693
702.873	0.0147516
702.951	0.0148890
703.030	0.0149412
703.108	0.0148714
703.186	0.0149561
703.264	0.0150784
703.342	0.0152076
703.420	0.0151616
703.498	0.0152478
703.576	0.0152702
703.655	0.0153858
703.733	0.0156496
703.811	0.0158096
703.889	0.0158441
703.967	0.0160626
704.045	0.0160667
704.123	0.0163041
704.201	0.0163548
704.280	0.0165925
704.358	0.0165821
704.436	0.0167708
704.514	0.0166261
704.592	0.0169689
704.670	0.0170419
704.748	0.0170112
704.826	0.0171674
704.905	0.0170367
704.983	0.0170345
705.061	0.0170565
705.139	0.0169003
705.217	0.0167754
705.295	0.0166166
705.373	0.0163921
705.451	0.0164104
705.530	0.0162077
705.608	0.0160794
705.686	0.0159714
705.764	0.0157931
705.842	0.0158839
705.920	0.0155607
705.998	0.0154730
706.076	0.0153708
706.155	0.0153635
706.233	0.0152342
706.311	0.0150858
706.389	0.0150246
706.467	0.0148073
706.545	0.0147586
706.623	0.0147346
706.701	0.0146898
706.780	0.0144894
706.858	0.0143707
706.936	0.0143307
707.014	0.0143816
707.092	0.0142457
707.170	0.0143745
707.248	0.0144249
707.326	0.0142433
707.405	0.0145989
707.483	0.0147646
707.561	0.0146368
707.639	0.0149740
707.717	0.0149367
707.795	0.0150852
707.873	0.0152735
707.951	0.0153518
708.030	0.0155582
708.108	0.0156003
708.186	0.0157314
708.264	0.0157343
708.342	0.0157678
708.420	0.0158603
708.498	0.0160973
708.576	0.0159216
708.655	0.0160999
708.733	0.0160413
708.811	0.0161577
708.889	0.0162742
708.967	0.0161830
709.045	0.0161525
709.123	0.0161221
709.201	0.0162874
709.280	0.0161793
709.358	0.0161089
709.436	0.0161456
709.514	0.0161243
709.592	0.0160555
709.670	0.0160268
709.748	0.0159412
709.826	0.0158370
709.905	0.0158144
709.983	0.0158615
710.061	0.0159070
710.139	0.0156953
710.217	0.0156274
710.295	0.0156596
710.373	0.0155629
710.451	0.0155167
710.530	0.0155276
710.608	0.0155046
710.686	0.0154453
710.764	0.0155270
710.842	0.0155468
710.920	0.0156261
710.998	0.0156367
711.076	0.0157472
711.155	0.0158181
711.233	0.0159111
711.311	0.0158322
711.389	0.0159087
711.467	0.0159859
711.545	0.0159955
711.623	0.0159147
711.701	0.0157546
711.780	0.0158524
711.858	0.0159819
711.936	0.0157072
712.014	0.0156601
712.092	0.0155191
712.170	0.0155999
712.248	0.0155661
712.326	0.0155794
712.405	0.0155869
712.483	0.0155495
712.561	0.0155507
712.639	0.0156305
712.717	0.0157983
712.795	0.0155706
712.873	0.0156655
712.951	0.0157825
713.030	0.0159501
713.108	0.0159432
713.186	0.0158259
713.264	0.0158412
713.342	0.0158344
713.420	0.0158038
713.498	0.0156806
713.576	0.0155891
713.655	0.0154800
713.733	0.0153625
713.811	0.0151721
713.889	0.0151310
713.967	0.0148960
714.045	0.0149321
714.123	0.0148489
714.201	0.0147658
714.280	0.0148230
714.358	0.0146932
714.436	0.0147795
714.514	0.0147339
714.592	0.0146311
714.670	0.0147794
714.748	0.0147662
714.826	0.0151060
714.905	0.0151183
714.983	0.0151485
715.061	0.0153573
715.139	0.0156223
715.217	0.0156693
715.295	0.0159440
715.373	0.0159740
715.451	0.0160943
715.530	0.0162560
715.608	0.0163258
715.686	0.0164424
715.764	0.0164690
715.842	0.0163557
715.920	0.0164011
715.998	0.0164532
716.076	0.0162605
716.155	0.0161525
716.233	0.0161189
716.311	0.0159364
716.389	0.0158824
716.467	0.0156793
716.545	0.0154839
716.623	0.0154217
716.701	0.0152174
716.780	0.0150034
716.858	0.0147834
716.936	0.0147526
717.014	0.0146758
717.092	0.0142825
717.170	0.0141643
717.248	0.0142725
717.326	0.0143719
717.405	0.0142878
717.483	0.0141388
717.561	0.0143504
717.639	0.0143998
717.717	0.0144856
717.795	0.0145897
717.873	0.0145490
717.951	0.0148550
718.030	0.0152167
718.108	0.0151473
718.186	0.0153590
718.264	0.0155750
718.342	0.0156123
718.420	0.0159448
718.498	0.0158929
718.576	0.0159714
718.655	0.0159939
718.733	0.0160989
718.811	0.0161546
718.889	0.0162511
718.967	0.0161364
719.045	0.0160614
719.123	0.0163067
719.201	0.0162086
719.280	0.0163906
719.358	0.0161927
719.436	0.0162327
719.514	0.0163734
719.592	0.0164559
719.670	0.0165587
719.748	0.0166039
719.826	0.0166296
719.905	0.0165598
719.983	0.0167081
720.061	0.0166788
720.139	0.0167040
720.217	0.0167532
720.295	0.0166242
720.373	0.0166296
720.451	0.0165774
720.530	0.0164702
720.608	0.0162605
720.686	0.0162572
720.764	0.0159518
720.842	0.0157850
720.920	0.0157392
720.998	0.0153686
721.076	0.0152214
721.155	0.0150912
721.233	0.0148778
721.311	0.0146774
721.389	0.0145024
721.467	0.0143607
721.545	0.0141969
721.623	0.0142542
721.701	0.0141647
721.780	0.0141162
721.858	0.0139579
721.936	0.0139339
722.014	0.0140102
722.092	0.0139066
722.170	0.0139427
722.248	0.0141028
722.326	0.0141557
722.405	0.0142628
722.483	0.0143196
722.561	0.0143613
722.639	0.0147073
722.717	0.0147797
722.795	0.0148206
722.873	0.0151627
722.951	0.0153820
723.030	0.0154619
723.108	0.0156353
723.186	0.0156525
723.264	0.0158943
723.342	0.0161555
723.420	0.0162644
723.498	0.0161240
723.576	0.0160204
723.655	0.0160370
723.733	0.0160284
723.811	0.0160165
723.889	0.0159097
723.967	0.0156273
724.045	0.0155929
724.123	0.0155123
724.201	0.0153123
724.280	0.0151776
724.358	0.0151890
724.436	0.0151260
724.514	0.0150875
724.592	0.0148280
724.670	0.0147725
724.748	0.0149685
724.826	0.0151952
724.905	0.0149355
724.983	0.0150841
725.061	0.0152702
725.139	0.0154148
725.217	0.0155051
725.295	0.0156091
725.373	0.0157102
725.451	0.0158187
725.530	0.0161131
725.608	0.0161931
725.686	0.0162764
725.764	0.0163820
725.842	0.0165237
725.920	0.0165695
725.998	0.0167577
726.076	0.0167519
726.155	0.0166840
726.233	0.0167966
726.311	0.0167217
726.389	0.0168317
726.467	0.0169065
726.545	0.0169550
726.623	0.0169357
726.701	0.0169774
726.780	0.0168622
726.858	0.0168626
726.936	0.0166740
727.014	0.0166321
727.092	0.0166661
727.170	0.0165427
727.248	0.0162762
727.326	0.0161375
727.405	0.0160092
727.483	0.0159277
727.561	0.0158131
727.639	0.0155289
727.717	0.0153752
727.795	0.0153652
727.873	0.0149557
727.951	0.0150457
728.030	0.0149848
728.108	0.0146762
728.186	0.0146198
728.264	0.0146272
728.342	0.0144085
728.420	0.0143673
728.498	0.0143982
728.576	0.0141544
728.655	0.0140390
728.733	0.0139067
728.811	0.0137719
728.889	0.0138391
728.967	0.0138521
729.045	0.0137853
729.123	0.0138756
729.201	0.0139452
729.280	0.0138185
729.358	0.0141373
729.436	0.0139767
729.514	0.0141841
729.592	0.0144250
729.670	0.0144038
729.748	0.0144827
729.826	0.0147234
729.905	0.0147695
729.983	0.0148455
730.061	0.0149768
730.139	0.0151507
730.217	0.0150982
730.295	0.0153172
730.373	0.0154309
730.451	0.0157796
730.530	0.0158801
730.608	0.0159364
730.686	0.0161569
730.764	0.0162709
730.842	0.0164323
730.920	0.0166434
730.998	0.0167441
731.076	0.0168439
731.155	0.0171275
731.233	0.0171275
731.311	0.0173566
731.389	0.0174091
731.467	0.0173460
731.545	0.0174639
731.623	0.0173905
731.701	0.0170596
731.780	0.0169605
731.858	0.0167614
731.936	0.0164688
732.014	0.0160915
732.092	0.0159960
732.170	0.0157891
732.248	0.0154980
732.326	0.0151717
732.405	0.0150992
732.483	0.0148309
732.561	0.0146969
732.639	0.0147365
732.717	0.0145943
732.795	0.0146059
732.873	0.0146933
732.951	0.0148556
733.030	0.0150531
733.108	0.0153018
733.186	0.0153370
733.264	0.0157755
733.342	0.0159835
733.420	0.0161189
733.498	0.0164857
733.576	0.0167863
733.655	0.0168333
733.733	0.0170013
733.811	0.0173074
733.889	0.0172954
733.967	0.0172617
734.045	0.0172382
734.123	0.0171626
734.201	0.0169974
734.280	0.0168657
734.358	0.0168318
734.436	0.0166980
734.514	0.0165406
734.592	0.0164175
734.670	0.0162191
734.748	0.0159251
734.826	0.0156702
734.905	0.0153786
734.983	0.0153105
735.061	0.0151580
735.139	0.0149515
735.217	0.0147006
735.295	0.0147132
735.373	0.0145741
735.451	0.0144119
735.530	0.0143330
735.608	0.0142793
735.686	0.0142547
735.764	0.0140771
735.842	0.0139466
735.920	0.0140791
735.998	0.0142583
736.076	0.0140653
736.155	0.0140836
736.233	0.0140891
736.311	0.0141155
736.389	0.0140112
736.467	0.0139835
736.545	0.0141095
736.623	0.0140958
736.701	0.0141901
736.780	0.0142087
736.858	0.0143224
736.936	0.0142575
737.014	0.0143333
737.092	0.0145693
737.170	0.0145081
737.248	0.0145834
737.326	0.0146490
737.405	0.0148026
737.483	0.0148843
737.561	0.0150591
737.639	0.0152598
737.717	0.0152571
737.795	0.0156240
737.873	0.0158265
737.951	0.0158962
738.030	0.0164178
738.108	0.0164597
738.186	0.0167202
738.264	0.0169410
738.342	0.0171366
738.420	0.0174574
738.498	0.0175342
738.576	0.0176561
738.655	0.0179839
738.733	0.0179748
738.811	0.0179598
738.889	0.0180600
738.967	0.0179242
739.045	0.0178747
739.123	0.0175864
739.201	0.0173627
739.280	0.0171098
739.358	0.0168358
739.436	0.0164638
739.514	0.0161961
739.592	0.0158375
739.670	0.0154127
739.748	0.0152905
739.826	0.0149846
739.905	0.0146507
739.983	0.0144590
740.061	0.0142507
740.139	0.0142184
740.217	0.0139906
740.295	0.0141076
740.373	0.0141889
740.451	0.0141955
740.530	0.0144259
740.608	0.0146445
740.686	0.0148584
740.764	0.0150365
740.842	0.0153500
740.920	0.0155977
740.998	0.0158997
741.076	0.0161281
741.155	0.0163846
741.233	0.0164529
741.311	0.0166161
741.389	0.0167815
741.467	0.0167426
741.545	0.0168516
741.623	0.0169121
741.701	0.0168334
741.780	0.0166161
741.858	0.0166037
741.936	0.0163921
742.014	0.0164421
742.092	0.0162421
742.170	0.0160017
742.248	0.0158548
742.326	0.0155570
742.405	0.0154480
742.483	0.0151523
742.561	0.0148591
742.639	0.0149742
742.717	0.0147326
742.795	0.0144380
742.873	0.0143189
742.951	0.0144797
743.030	0.0143005
743.108	0.0142058
743.186	0.0142486
743.264	0.0141322
743.342	0.0141428
743.420	0.0143471
743.498	0.0142231
743.576	0.0142674
743.655	0.0141312
743.733	0.0142940
743.811	0.0142304
743.889	0.0140720
743.967	0.0142726
744.045	0.0141535
744.123	0.0140325
744.201	0.0141303
744.280	0.0143672
744.358	0.0143613
744.436	0.0144447
744.514	0.0145297
744.592	0.0145039
744.670	0.0145435
744.748	0.0146635
744.826	0.0148547
744.905	0.0150130
744.983	0.0151742
745.061	0.0153101
745.139	0.0153913
745.217	0.0156522
745.295	0.0157422
745.373	0.0158705
745.451	0.0159505
745.530	0.0159962
745.608	0.0161666
745.686	0.0164064
745.764	0.0165479
745.842	0.0167035
745.920	0.0169572
745.998	0.0170048
746.076	0.0172100
746.155	0.0173154
746.233	0.0173872
746.311	0.0173994
746.389	0.0176061
746.467	0.0176289
746.545	0.0175542
746.623	0.0176637
746.701	0.0174725
746.780	0.0173293
746.858	0.0173573
746.936	0.0169869
747.014	0.0167920
747.092	0.0167220
747.170	0.0162502
747.248	0.0159012
747.326	0.0156956
747.405	0.0153570
747.483	0.0151532
747.561	0.0148553
747.639	0.0145995
747.717	0.0142731
747.795	0.0141328
747.873	0.0139391
747.951	0.0138656
748.030	0.0139515
748.108	0.0139728
748.186	0.0139000
748.264	0.0140143
748.342	0.0145296
748.420	0.0146661
748.498	0.0148804
748.576	0.0151423
748.655	0.0154812
748.733	0.0157649
748.811	0.0160854
748.889	0.0163879
748.967	0.0166778
749.045	0.0168301
749.123	0.0171062
749.201	0.0170018
749.280	0.0170438
749.358	0.0169434
749.436	0.0170020
749.514	0.0169256
749.592	0.0166344
749.670	0.0165575
749.748	0.0163255
749.826	0.0160346
749.905	0.0156258
749.983	0.0153447
750.061	0.0150525
750.139	0.0148305
750.217	0.0147719
750.295	0.0145953
750.373	0.0142895
750.451	0.0142347
750.530	0.0142648
750.608	0.0140436
750.686	0.0140196
750.764	0.0139124
750.842	0.0140032
750.920	0.0141376
750.998	0.0143776
751.076	0.0145341
751.155	0.0145943
751.233	0.0147496
751.311	0.0147026
751.389	0.0148489
751.467	0.0148470
751.545	0.0148847
751.623	0.0149060
751.701	0.0150298
751.780	0.0150201
751.858	0.0149409
751.936	0.0149913
752.014	0.0149572
752.092	0.0150006
752.170	0.0150920
752.248	0.0150604
752.326	0.0150974
752.405	0.0151383
752.483	0.0149996
752.561	0.0151277
752.639	0.0151070
752.717	0.0152036
752.795	0.0154607
752.873	0.0154199
752.951	0.0154542
753.030	0.0157508
753.108	0.0157158
753.186	0.0158956
753.264	0.0160804
753.342	0.0162838
753.420	0.0164060
753.498	0.0166306
753.576	0.0168507
753.655	0.0168840
753.733	0.0170830
753.811	0.0171900
753.889	0.0171907
753.967	0.0171651
754.045	0.0173110
754.123	0.0173216
754.201	0.0172483
754.280	0.0172853
754.358	0.0171286
754.436	0.0171640
754.514	0.0170157
754.592	0.0167934
754.670	0.0166673
754.748	0.0165395
754.826	0.0162521
754.905	0.0161480
754.983	0.0158196
755.061	0.0155168
755.139	0.0152003
755.217	0.0149801
755.295	0.0147106
755.373	0.0144935
755.451	0.0144598
755.530	0.0143681
755.608	0.0141799
755.686	0.0141541
755.764	0.0140506
755.842	0.0141376
755.920	0.0143283
755.998	0.0144704
756.076	0.0147453
756.155	0.0148211
756.233	0.0150132
756.311	0.0152287
756.389	0.0156805
756.467	0.0159222
756.545	0.0162086
756.623	0.0164906
756.701	0.0164763
756.780	0.0167356
756.858	0.0166795
756.936	0.0169240
757.014	0.0169251
757.092	0.0167603
757.170	0.0166996
757.248	0.0166190
757.326	0.0164292
757.405	0.0162601
757.483	0.0161220
757.561	0.0157196
757.639	0.0153269
757.717	0.0152392
757.795	0.0149557
757.873	0.0146318
757.951	0.0143622
758.030	0.0142429
758.108	0.0141644
758.186	0.0140047
758.264	0.0140982
758.342	0.0140057
758.420	0.0140463
758.498	0.0141231
758.576	0.0141709
758.655	0.0141631
758.733	0.0144091
758.811	0.0145819
758.889	0.0146742
758.967	0.0150317
759.045	0.0151041
759.123	0.0151231
759.201	0.0151984
759.280	0.0152888
759.358	0.0153371
759.436	0.0153900
759.514	0.0152744
759.592	0.0154826
759.670	0.0153526
759.748	0.0153746
759.826	0.0154907
759.905	0.0151648
759.983	0.0152079
760.061	0.0151962
760.139	0.0151381
760.217	0.0152309
760.295	0.0152472
760.373	0.0155151
760.451	0.0154739
760.530	0.0155166
760.608	0.0156519
760.686	0.0158821
760.764	0.0158413
760.842	0.0160249
760.920	0.0161811
760.998	0.0163241
761.076	0.0163925
761.155	0.0164656
761.233	0.0166574
761.311	0.0166404
761.389	0.0167869
761.467	0.0167554
761.545	0.0167109
761.623	0.0166560
761.701	0.0168562
761.780	0.0168256
761.858	0.0167545
761.936	0.0168813
762.014	0.0167159
762.092	0.0167383
762.170	0.0167777
762.248	0.0165650
762.326	0.0165257
762.405	0.0164947
762.483	0.0162784
762.561	0.0161695
762.639	0.0161967
762.717	0.0159194
762.795	0.0156849
762.873	0.0154056
762.951	0.0151510
763.030	0.0149355
763.108	0.0147075
763.186	0.0146912
763.264	0.0144524
763.342	0.0143336
763.420	0.0142735
763.498	0.0142657
763.576	0.0142551
763.655	0.0142142
763.733	0.0142458
763.811	0.0144804
763.889	0.0145958
763.967	0.0147953
764.045	0.0151696
764.123	0.0154305
764.201	0.0155975
764.280	0.0157933
764.358	0.0159378
764.436	0.0163408
764.514	0.0163944
764.592	0.0164313
764.670	0.0164753
764.748	0.0165833
764.826	0.0165513
764.905	0.0163978
764.983	0.0162628
765.061	0.0162669
765.139	0.0158099
765.217	0.0156158
765.295	0.0154196
765.373	0.0152735
765.451	0.0150475
765.530	0.0148869
765.608	0.0145712
765.686	0.0144151
765.764	0.0144131
765.842	0.0142802
765.920	0.0143694
765.998	0.0143554
766.076	0.0141864
766.155	0.0144088
766.233	0.0146225
766.311	0.0148351
766.389	0.0148041
766.467	0.0148614
766.545	0.0151081
766.623	0.0152895
766.701	0.0151955
766.780	0.0155228
766.858	0.0155730
766.936	0.0156255
767.014	0.0155380
767.092	0.0157230
767.170	0.0156196
767.248	0.0155933
767.326	0.0154683
767.405	0.0155313
767.483	0.0152858
767.561	0.0153773
767.639	0.0153181
767.717	0.0152153
767.795	0.0153912
767.873	0.0153163
767.951	0.0153896
768.030	0.0153470
768.108	0.0154433
768.186	0.0154945
768.264	0.0155470
768.342	0.0157233
768.420	0.0157294
768.498	0.0159602
768.576	0.0160355
768.655	0.0160432
768.733	0.0160828
768.811	0.0164500
768.889	0.0165160
768.967	0.0164686
769.045	0.0163809
769.123	0.0164457
769.201	0.0165086
769.280	0.0166953
769.358	0.0165390
769.436	0.0163972
769.514	0.0165501
769.592	0.0166080
769.670	0.0165139
769.748	0.0164887
769.826	0.0164769
769.905	0.0164628
769.983	0.0165471
770.061	0.0163903
770.139	0.0163786
770.217	0.0162843
770.295	0.0163033
770.373	0.0162991
770.451	0.0162083
770.530	0.0161607
770.608	0.0159823
770.686	0.0158891
770.764	0.0157425
770.842	0.0156454
770.920	0.0153358
770.998	0.0152020
771.076	0.0151487
771.155	0.0148436
771.233	0.0146326
771.311	0.0146943
771.389	0.0146673
771.467	0.0147141
771.545	0.0146635
771.623	0.0146542
771.701	0.0148952
771.780	0.0150631
771.858	0.0150521
771.936	0.0152577
772.014	0.0154919
772.092	0.0155164
772.170	0.0158649
772.248	0.0160503
772.326	0.0159845
772.405	0.0161362
772.483	0.0162258
772.561	0.0163177
772.639	0.0161785
772.717	0.0162520
772.795	0.0162002
772.873	0.0160995
772.951	0.0159794
773.030	0.0158105
773.108	0.0155845
773.186	0.0153998
773.264	0.0153351
773.342	0.0150825
773.420	0.0150100
773.498	0.0148373
773.576	0.0147744
773.655	0.0146371
773.733	0.0144994
773.811	0.0145514
773.889	0.0145303
773.967	0.0146767
774.045	0.0147701
774.123	0.0148943
774.201	0.0149434
774.280	0.0151070
774.358	0.0152489
774.436	0.0154708
774.514	0.0155589
774.592	0.0155364
774.670	0.0155738
774.748	0.0156224
774.826	0.0157001
774.905	0.0157386
774.983	0.0156560
775.061	0.0157128
775.139	0.0155681
775.217	0.0155096
775.295	0.0153957
775.373	0.0154668
775.451	0.0152856
775.530	0.0152284
775.608	0.0151825
775.686	0.0151891
775.764	0.0151250
775.842	0.0154846
775.920	0.0153381
775.998	0.0153418
776.076	0.0153988
776.155	0.0156760
776.233	0.0155939
776.311	0.0157669
776.389	0.0160050
776.467	0.0160378
776.545	0.0161697
776.623	0.0160181
776.701	0.0161622
776.780	0.0160155
776.858	0.0162572
776.936	0.0161707
777.014	0.0163912
777.092	0.0162488
777.170	0.0162688
777.248	0.0162346
777.326	0.0162703
777.405	0.0162512
777.483	0.0162279
777.561	0.0163259
777.639	0.0161743
777.717	0.0161036
777.795	0.0162813
777.873	0.0162084
777.951	0.0161095
778.030	0.0160112
778.108	0.0161002
778.186	0.0160532
778.264	0.0159284
778.342	0.0158757
778.420	0.0157699
778.498	0.0156641
778.576	0.0156837
778.655	0.0155998
778.733	0.0153406
778.811	0.0152744
778.889	0.0150433
778.967	0.0149243
779.045	0.0148662
779.123	0.0147557
779.201	0.0146653
779.280	0.0146790
779.358	0.0145485
779.436	0.0146196
779.514	0.0146400
779.592	0.0146899
779.670	0.0149644
779.748	0.0149234
779.826	0.0152564
779.905	0.0153574
779.983	0.0152543
780.061	0.0155247
780.139	0.0157822
780.217	0.0158631
780.295	0.0159666
780.373	0.0160373
780.451	0.0160360
780.530	0.0158706
780.608	0.0158457
780.686	0.0158145
780.764	0.0157578
780.842	0.0156072
780.920	0.0155987
780.998	0.0153117
781.076	0.0152970
781.155	0.0151928
781.233	0.0148966
781.311	0.0147599
781.389	0.0147879
781.467	0.0146419
781.545	0.0145876
781.623	0.0145976
781.701	0.0145117
781.780	0.0144318
781.858	0.0147065
781.936	0.0148058
782.014	0.0147831
782.092	0.0149163
782.170	0.0150392
782.248	0.0151340
782.326	0.0152554
782.405	0.0154804
782.483	0.0154681
782.561	0.0155066
782.639	0.0155983
782.717	0.0156870
782.795	0.0156910
782.873	0.0156615
782.951	0.0155743
783.030	0.0156975
783.108	0.0157211
783.186	0.0156149
783.264	0.0155283
783.342	0.0155077
783.420	0.0155625
783.498	0.0156367
783.576	0.0155372
783.655	0.0156195
783.733	0.0155395
783.811	0.0156216
783.889	0.0156140
783.967	0.0158067
784.045	0.0157671
784.123	0.0159055
784.201	0.0160433
784.280	0.0162596
784.358	0.0160867
784.436	0.0161187
784.514	0.0162404
784.592	0.0162217
784.670	0.0160574
784.748	0.0161201
784.826	0.0160819
784.905	0.0161022
784.983	0.0159009
785.061	0.0158349
785.139	0.0158022
785.217	0.0157214
785.295	0.0156526
785.373	0.0156472
785.451	0.0156105
785.530	0.0155520
785.608	0.0155949
785.686	0.0155569
785.764	0.0155139
785.842	0.0156333
785.920	0.0156516
785.998	0.0156998
786.076	0.0158990
786.155	0.0158862
786.233	0.0157834
786.311	0.0157726
786.389	0.0158303
786.467	0.0158284
786.545	0.0157502
786.623	0.0155894
786.701	0.0156548
786.780	0.0155786
786.858	0.0154651
786.936	0.0153465
787.014	0.0154037
787.092	0.0151344
787.170	0.0150401
787.248	0.0150290
787.326	0.0152120
787.405	0.0149832
787.483	0.0149977
787.561	0.0150426
787.639	0.0151663
787.717	0.0150769
787.795	0.0154499
787.873	0.0156580
787.951	0.0155580
788.030	0.0156339
788.108	0.0156126
788.186	0.0156589
788.264	0.0156652
788.342	0.0159093
788.420	0.0158310
788.498	0.0155168
788.576	0.0155564
788.655	0.0155714
788.733	0.0156141
788.811	0.0153011
788.889	0.0153867
788.967	0.0152693
789.045	0.0151116
789.123	0.0150285
789.201	0.0150400
789.280	0.0151529
789.358	0.0148412
789.436	0.0148326
789.514	0.0149000
789.592	0.0147762
789.670	0.0148664
789.748	0.0150080
789.826	0.0150838
789.905	0.0150613
789.983	0.0152640
790.061	0.0153091
790.139	0.0153572
790.217	0.0154751
790.295	0.0154449
790.373	0.0155112
790.451	0.0156066
790.530	0.0157169
790.608	0.0158096
790.686	0.0156413
790.764	0.0157919
790.842	0.0156580
790.920	0.0156310
790.998	0.0157568
791.076	0.0156410
791.155	0.0158071
791.233	0.0156689
791.311	0.0156665
791.389	0.0157066
791.467	0.0158017
791.545	0.0155313
791.623	0.0157218
791.701	0.0157771
791.780	0.0157952
791.858	0.0156790
791.936	0.0159978
792.014	0.0159633
792.092	0.0159452
792.170	0.0160136
792.248	0.0161469
792.326	0.0161263
792.405	0.0161723
792.483	0.0161908
792.561	0.0162435
792.639	0.0160535
792.717	0.0161233
792.795	0.0159185
792.873	0.0158964
792.951	0.0159923
793.030	0.0158187
793.108	0.0154610
793.186	0.0156560
793.264	0.0156149
793.342	0.0155811
793.420	0.0156402
793.498	0.0155698
793.576	0.0154732
793.655	0.0155720
793.733	0.0155002
793.811	0.0156219
793.889	0.0155123
793.967	0.0155907
794.045	0.0158154
794.123	0.0156345
794.201	0.0157709
794.280	0.0157277
794.358	0.0158318
794.436	0.0158916
794.514	0.0157803
794.592	0.0156863
794.670	0.0158104
794.748	0.0157553
794.826	0.0156339
794.905	0.0156226
794.983	0.0155316
795.061	0.0154415
795.139	0.0154820
795.217	0.0155792
795.295	0.0154670
795.373	0.0152943
795.451	0.0153165
795.530	0.0154464
795.608	0.0153659
795.686	0.0152615
795.764	0.0154659
795.842	0.0155619
795.920	0.0154876
795.998	0.0154760
796.076	0.0155550
796.155	0.0156390
796.233	0.0155528
796.311	0.0155674
796.389	0.0155844
796.467	0.0154443
796.545	0.0156216
796.623	0.0154983
796.701	0.0153661
796.780	0.0152844
796.858	0.0151958
796.936	0.0151580
797.014	0.0150554
797.092	0.0150857
797.170	0.0150237
797.248	0.0151751
797.326	0.0150234
797.405	0.0149938
797.483	0.0150349
797.561	0.0150159
797.639	0.0151209
797.717	0.0151830
797.795	0.0152786
797.873	0.0153249
797.951	0.0153407
798.030	0.0153758
798.108	0.0155173
798.186	0.0154816
798.264	0.0154352
798.342	0.0155580
798.420	0.0154942
798.498	0.0156068
798.576	0.0155788
798.655	0.0154732
798.733	0.0157407
798.811	0.0155387
798.889	0.0158130
798.967	0.0157932
799.045	0.0156841
799.123	0.0156327
799.201	0.0158465
799.280	0.0157663
799.358	0.0158260
799.436	0.0158836
799.514	0.0158348
799.592	0.0158122
799.670	0.0156462
799.748	0.0158293
799.826	0.0160054
799.905	0.0160262
799.983	0.0160654
800.061	0.0160435
800.139	0.0160251
800.217	0.0161713
800.295	0.0160605
800.373	0.0162135
800.451	0.0159995
800.530	0.0159686
800.608	0.0161160
800.686	0.0160112
800.764	0.0160265
800.842	0.0160416
800.920	0.0158838
800.998	0.0158136
801.076	0.0157446
801.155	0.0156072
801.233	0.0155523
801.311	0.0154275
801.389	0.0152367
801.467	0.0154735
801.545	0.0155085
801.623	0.0153362
801.701	0.0154864
801.780	0.0153709
801.858	0.0155007
801.936	0.0156562
802.014	0.0155094
802.092	0.0155926
802.170	0.0156941
802.248	0.0156138
802.326	0.0157228
802.405	0.0157749
802.483	0.0157578
802.561	0.0156668
802.639	0.0156797
802.717	0.0156275
802.795	0.0156615
802.873	0.0155255
802.951	0.0156600
803.030	0.0155656
803.108	0.0155303
803.186	0.0157000
803.264	0.0154634
803.342	0.0155680
803.420	0.0154682
803.498	0.0154865
803.576	0.0154057
803.655	0.0154037
803.733	0.0154868
803.811	0.0152686
803.889	0.0154312
803.967	0.0154373
804.045	0.0153490
804.123	0.0154582
804.201	0.0154453
804.280	0.0153751
804.358	0.0153469
804.436	0.0153649
804.514	0.0154720
804.592	0.0153953
804.670	0.0153134
804.748	0.0152754
804.826	0.0152646
804.905	0.0152016
804.983	0.0153203
805.061	0.0152622
805.139	0.0152520
805.217	0.0152301
805.295	0.0151406
805.373	0.0151891
805.451	0.0152080
805.530	0.0152110
805.608	0.0154077
805.686	0.0153632
805.764	0.0152747
805.842	0.0155159
805.920	0.0154571
805.998	0.0155139
806.076	0.0155965
806.155	0.0156696
806.233	0.0156520
806.311	0.0155878
806.389	0.0156362
806.467	0.0155503
806.545	0.0156552
806.623	0.0156219
806.701	0.0156269
806.780	0.0156467
806.858	0.0155948
806.936	0.0156918
807.014	0.0156696
807.092	0.0158009
807.170	0.0157030
807.248	0.0158080
807.326	0.0158387
807.405	0.0157754
807.483	0.0158389
807.561	0.0158695
807.639	0.0159861
807.717	0.0159064
807.795	0.0160635
807.873	0.0159599
807.951	0.0158576
808.030	0.0158878
808.108	0.0160466
808.186	0.0158090
808.264	0.0157704
808.342	0.0158375
808.420	0.0157900
808.498	0.0158004
808.576	0.0158504
808.655	0.0156480
808.733	0.0157827
808.811	0.0154991
808.889	0.0156073
808.967	0.0153667
809.045	0.0154008
809.123	0.0152425
809.201	0.0153389
809.280	0.0153603
809.358	0.0153588
809.436	0.0153054
809.514	0.0153355
809.592	0.0152557
809.670	0.0152802
809.748	0.0151788
809.826	0.0153872
809.905	0.0154084
809.983	0.0153186
810.061	0.0154552
810.139	0.0153690
810.217	0.0155074
810.295	0.0156036
810.373	0.0156735
810.451	0.0156048
810.530	0.0155943
810.608	0.0155801
810.686	0.0157147
810.764	0.0156873
810.842	0.0155184
810.920	0.0157011
810.998	0.0157275
811.076	0.0158137
811.155	0.0156580
811.233	0.0157174
811.311	0.0155843
811.389	0.0156917
811.467	0.0157176
811.545	0.0155564
811.623	0.0155671
811.701	0.0156734
811.780	0.0155236
811.858	0.0156097
811.936	0.0154676
812.014	0.0155091
812.092	0.0153105
812.170	0.0154253
812.248	0.0153706
812.326	0.0153426
812.405	0.0154500
812.483	0.0153232
812.561	0.0153516
812.639	0.0153615
812.717	0.0154005
812.795	0.0154058
812.873	0.0153049
812.951	0.0154591
813.030	0.0154345
813.108	0.0154521
813.186	0.0154688
813.264	0.0153462
813.342	0.0153830
813.420	0.0155577
813.498	0.0156062
813.576	0.0155404
813.655	0.0154633
813.733	0.0154308
813.811	0.0154629
813.889	0.0156079
813.967	0.0153767
814.045	0.0153719
814.123	0.0153747
814.201	0.0154346
814.280	0.0154452
814.358	0.0153933
814.436	0.0154004
814.514	0.0154547
814.592	0.0155621
814.670	0.0153133
814.748	0.0154971
814.826	0.0155122
814.905	0.0153287
814.983	0.0155593
815.061	0.0156135
815.139	0.0156928
815.217	0.0156519
815.295	0.0156860
815.373	0.0158080
815.451	0.0158897
815.530	0.0158968
815.608	0.0160660
815.686	0.0160419
815.764	0.0160690
815.842	0.0160871
815.920	0.0160459
815.998	0.0161478
816.076	0.0161677
816.155	0.0160158
816.233	0.0161856
816.311	0.0161047
816.389	0.0160283
816.467	0.0160985
816.545	0.0159895
816.623	0.0160544
816.701	0.0159179
816.780	0.0158709
816.858	0.0158659
816.936	0.0157204
817.014	0.0158000
817.092	0.0157870
817.170	0.0155861
817.248	0.0156465
817.326	0.0156240
817.405	0.0156838
817.483	0.0153411
817.561	0.0153957
817.639	0.0155600
817.717	0.0154982
817.795	0.0153069
817.873	0.0152662
817.951	0.0152082
818.030	0.0152144
818.108	0.0151688
818.186	0.0151550
818.264	0.0150761
818.342	0.0150744
818.420	0.0151856
818.498	0.0151340
818.576	0.0150550
818.655	0.0151884
818.733	0.0151252
818.811	0.0151352
818.889	0.0152545
818.967	0.0153415
819.045	0.0155084
819.123	0.0154002
819.201	0.0154202
819.280	0.0156239
819.358	0.0157188
819.436	0.0157092
819.514	0.0156841
819.592	0.0157903
819.670	0.0156982
819.748	0.0157014
819.826	0.0157123
819.905	0.0156838
819.983	0.0157011
820.061	0.0155667
820.139	0.0155334
820.217	0.0154610
820.295	0.0153899
820.373	0.0154306
820.451	0.0152942
820.530	0.0150951
820.608	0.0152630
820.686	0.0152536
820.764	0.0151563
820.842	0.0152081
820.920	0.0153428
820.998	0.0152203
821.076	0.0152148
821.155	0.0154848
821.233	0.0154197
821.311	0.0153708
821.389	0.0155025
821.467	0.0154620
821.545	0.0154166
821.623	0.0156606
821.701	0.0158017
821.780	0.0156791
821.858	0.0157217
821.936	0.0156702
822.014	0.0157163
822.092	0.0158208
822.170	0.0156928
822.248	0.0156035
822.326	0.0156107
822.405	0.0156577
822.483	0.0157145
822.561	0.0155788
822.639	0.0156723
822.717	0.0155797
822.795	0.0154536
822.873	0.0154956
822.951	0.0156384
823.030	0.0157283
823.108	0.0156621
823.186	0.0156428
823.264	0.0155367
823.342	0.0155751
823.420	0.0158061
823.498	0.0157690
823.576	0.0159447
823.655	0.0158655
823.733	0.0158725
823.811	0.0159536
823.889	0.0160391
823.967	0.0161292
824.045	0.0160015
824.123	0.0159750
824.201	0.0160379
824.280	0.0159749
824.358	0.0158254
824.436	0.0158820
824.514	0.0158690
824.592	0.0157832
824.670	0.0155191
824.748	0.0156092
824.826	0.0156689
824.905	0.0154758
824.983	0.0153296
825.061	0.0154311
825.139	0.0154693
825.217	0.0153464
825.295	0.0152354
825.373	0.0153566
825.451	0.0152850
825.530	0.0153912
825.608	0.0152678
825.686	0.0151517
825.764	0.0151261
825.842	0.0151934
825.920	0.0152572
825.998	0.0152399
826.076	0.0152023
826.155	0.0151633
826.233	0.0151599
826.311	0.0151369
826.389	0.0153047
826.467	0.0151936
826.545	0.0151585
826.623	0.0153445
826.701	0.0153286
826.780	0.0154261
826.858	0.0155478
826.936	0.0155690
827.014	0.0157138
827.092	0.0159077
827.170	0.0158199
827.248	0.0159267
827.326	0.0159322
827.405	0.0160870
827.483	0.0161080
827.561	0.0160172
827.639	0.0159557
827.717	0.0162280
827.795	0.0160888
827.873	0.0160115
827.951	0.0159677
828.030	0.0159470
828.108	0.0159322
828.186	0.0160126
828.264	0.0156963
828.342	0.0155655
828.420	0.0157340
828.498	0.0154630
828.576	0.0153876
828.655	0.0154379
828.733	0.0152392
828.811	0.0152528
828.889	0.0152425
828.967	0.0151263
829.045	0.0151038
829.123	0.0151221
829.201	0.0152246
829.280	0.0152626
829.358	0.0152579
829.436	0.0152608
829.514	0.0152247
829.592	0.0153473
829.670	0.0154186
829.748	0.0155432
829.826	0.0154690
829.905	0.0155395
829.983	0.0154897
830.061	0.0154935
830.139	0.0154792
830.217	0.0156729
830.295	0.0157047
830.373	0.0155685
830.451	0.0156995
830.530	0.0154001
830.608	0.0156012
830.686	0.0154884
830.764	0.0154689
830.842	0.0153732
830.920	0.0155716
830.998	0.0156357
831.076	0.0156156
831.155	0.0156830
831.233	0.0157308
831.311	0.0157124
831.389	0.0158140
831.467	0.0158412
831.545	0.0157316
831.623	0.0158200
831.701	0.0157811
831.780	0.0157229
831.858	0.0158680
831.936	0.0159745
832.014	0.0158177
832.092	0.0159493
832.170	0.0159658
832.248	0.0159659
832.326	0.0159521
832.405	0.0158779
832.483	0.0156976
832.561	0.0155652
832.639	0.0156437
832.717	0.0155898
832.795	0.0156761
832.873	0.0155388
832.951	0.0154324
833.030	0.0152882
833.108	0.0153761
833.186	0.0153807
833.264	0.0152010
833.342	0.0152462
833.420	0.0151544
833.498	0.0149973
833.576	0.0150577
833.655	0.0150375
833.733	0.0151279
833.811	0.0151754
833.889	0.0150330
833.967	0.0149606
834.045	0.0150988
834.123	0.0152176
834.201	0.0151836
834.280	0.0152126
834.358	0.0153799
834.436	0.0152915
834.514	0.0154374
834.592	0.0155022
834.670	0.0155174
834.748	0.0157568
834.826	0.0159045
834.905	0.0157774
834.983	0.0157457
835.061	0.0161992
835.139	0.0162045
835.217	0.0161226
835.295	0.0161033
835.373	0.0162195
835.451	0.0163598
835.530	0.0163306
835.608	0.0163279
835.686	0.0162777
835.764	0.0161317
835.842	0.0161990
835.920	0.0161086
835.998	0.0159688
836.076	0.0160274
836.155	0.0155798
836.233	0.0156280
836.311	0.0155327
836.389	0.0154163
836.467	0.0153963
836.545	0.0152013
836.623	0.0152293
836.701	0.0152615
836.780	0.0149954
836.858	0.0150195
836.936	0.0150477
837.014	0.0148863
837.092	0.0149251
837.170	0.0151716
837.248	0.0150610
837.326	0.0150198
837.405	0.0151598
837.483	0.0151697
837.561	0.0154379
837.639	0.0154226
837.717	0.0154808
837.795	0.0153873
837.873	0.0153941
837.951	0.0154678
838.030	0.0155588
838.108	0.0155154
838.186	0.0157603
838.264	0.0154887
838.342	0.0155371
838.420	0.0155898
838.498	0.0155728
838.576	0.0155286
838.655	0.0154425
838.733	0.0154850
838.811	0.0155924
838.889	0.0156390
838.967	0.0155585
839.045	0.0154842
839.123	0.0156969
839.201	0.0156286
839.280	0.0155166
839.358	0.0157407
839.436	0.0156992
839.514	0.0155756
839.592	0.0156467
839.670	0.0158215
839.748	0.0156696
839.826	0.0155594
839.905	0.0156955
839.983	0.0158197
840.061	0.0156179
840.139	0.0155450
840.217	0.0158318
840.295	0.0156897
840.373	0.0157323
840.451	0.0157372
840.530	0.0156027
840.608	0.0154977
840.686	0.0154942
840.764	0.0154865
840.842	0.0154633
840.920	0.0154227
840.998	0.0152738
841.076	0.0152486
841.155	0.0153982
841.233	0.0153951
841.311	0.0153484
841.389	0.0152824
841.467	0.0151833
841.545	0.0151844
841.623	0.0150358
841.701	0.0151988
841.780	0.0152714
841.858	0.0152020
841.936	0.0150704
842.014	0.0152534
842.092	0.0151949
842.170	0.0151878
842.248	0.0154332
842.326	0.0154210
842.405	0.0154456
842.483	0.0154994
842.561	0.0154317
842.639	0.0154666
842.717	0.0156155
842.795	0.0156969
842.873	0.0156802
842.951	0.0157239
843.030	0.0158675
843.108	0.0157890
843.186	0.0159785
843.264	0.0159368
843.342	0.0159214
843.420	0.0159813
843.498	0.0160862
843.576	0.0159806
843.655	0.0160719
843.733	0.0159469
843.811	0.0159810
843.889	0.0160029
843.967	0.0159087
844.045	0.0157748
844.123	0.0156851
844.201	0.0156913
844.280	0.0153210
844.358	0.0153788
844.436	0.0153236
844.514	0.0151667
844.592	0.0152101
844.670	0.0150513
844.748	0.0151499
844.826	0.0149918
844.905	0.0152488
844.983	0.0150758
845.061	0.0150686
845.139	0.0151130
845.217	0.0152599
845.295	0.0152850
845.373	0.0153372
845.451	0.0153216
845.530	0.0154024
845.608	0.0154551
845.686	0.0155336
845.764	0.0156011
845.842	0.0155795
845.920	0.0155956
845.998	0.0156625
846.076	0.0156380
846.155	0.0156374
846.233	0.0157961
846.311	0.0157450
846.389	0.0157066
846.467	0.0156549
846.545	0.0157372
846.623	0.0156843
846.701	0.0157722
846.780	0.0157784
846.858	0.0156139
846.936	0.0158054
847.014	0.0156647
847.092	0.0157631
847.170	0.0156924
847.248	0.0157881
847.326	0.0158893
847.405	0.0158950
847.483	0.0158156
847.561	0.0158105
847.639	0.0157558
847.717	0.0157876
847.795	0.0157712
847.873	0.0156719
847.951	0.0158176
848.030	0.0157777
848.108	0.0157013
848.186	0.0155698
848.264	0.0156325
848.342	0.0157459
848.420	0.0155699
848.498	0.0155074
848.576	0.0154685
848.655	0.0154245
848.733	0.0154165
848.811	0.0155882
848.889	0.0156669
848.967	0.0154067
849.045	0.0154655
849.123	0.0154426
849.201	0.0153525
849.280	0.0154687
849.358	0.0154697
849.436	0.0154585
849.514	0.0153790
849.592	0.0154602
849.670	0.0152603
849.748	0.0153069
849.826	0.0153886
849.905	0.0153208
849.983	0.0153561
850.061	0.0153111
850.139	0.0151663
850.217	0.0154360
850.295	0.0153308
850.373	0.0152519
850.451	0.0153426
850.530	0.0154567
850.608	0.0153870
850.686	0.0154469
850.764	0.0157018
850.842	0.0156927
850.920	0.0156982
850.998	0.0157944
851.076	0.0157561
851.155	0.0157889
851.233	0.0158533
851.311	0.0158459
851.389	0.0158646
851.467	0.0158990
851.545	0.0159151
851.623	0.0157826
851.701	0.0157167
851.780	0.0157889
851.858	0.0157475
851.936	0.0156913
852.014	0.0156912
852.092	0.0156808
852.170	0.0155790
852.248	0.0155723
852.326	0.0153368
852.405	0.0153458
852.483	0.0153613
852.561	0.0153662
852.639	0.0152486
852.717	0.0152122
852.795	0.0152374
852.873	0.0152802
852.951	0.0150826
853.030	0.0150658
853.108	0.0152551
853.186	0.0153143
853.264	0.0152166
853.342	0.0153351
853.420	0.0153915
853.498	0.0154003
853.576	0.0155663
853.655	0.0154356
853.733	0.0154478
853.811	0.0154395
853.889	0.0155094
853.967	0.0156115
854.045	0.0154784
854.123	0.0155891
854.201	0.0155361
854.280	0.0155843
854.358	0.0155354
854.436	0.0154829
854.514	0.0155013
854.592	0.0154372
854.670	0.0153897
854.748	0.0154245
854.826	0.0154133
854.905	0.0153706
854.983	0.0153820
855.061	0.0153834
855.139	0.0154160
855.217	0.0155533
855.295	0.0155953
855.373	0.0154801
855.451	0.0156509
855.530	0.0157066
855.608	0.0157449
855.686	0.0157932
855.764	0.0155152
855.842	0.0156144
855.920	0.0157703
855.998	0.0156938
856.076	0.0156894
856.155	0.0157542
856.233	0.0155363
856.311	0.0155616
856.389	0.0155565
856.467	0.0155737
856.545	0.0154659
856.623	0.0154480
856.701	0.0153517
856.780	0.0154340
856.858	0.0154453
856.936	0.0153550
857.014	0.0153712
857.092	0.0153337
857.170	0.0154021
857.248	0.0153893
857.326	0.0155381
857.405	0.0154792
857.483	0.0154865
857.561	0.0156545
857.639	0.0155357
857.717	0.0155672
857.795	0.0155325
857.873	0.0155261
857.951	0.0157129
858.030	0.0155669
858.108	0.0154557
858.186	0.0156649
858.264	0.0155628
858.342	0.0154340
858.420	0.0155757
858.498	0.0155515
858.576	0.0155620
858.655	0.0154395
858.733	0.0154615
858.811	0.0156335
858.889	0.0156393
858.967	0.0154782
859.045	0.0157527
859.123	0.0156226
859.201	0.0157835
859.280	0.0158047
859.358	0.0157006
859.436	0.0157697
859.514	0.0157620
859.592	0.0157816
859.670	0.0156702
859.748	0.0156941
859.826	0.0157078
859.905	0.0158642
859.983	0.0156641
860.061	0.0156004
860.139	0.0155149
860.217	0.0154454
860.295	0.0156465
860.373	0.0154102
860.451	0.0153708
860.530	0.0154603
860.608	0.0153406
860.686	0.0152543
860.764	0.0152585
860.842	0.0152570
860.920	0.0152364
860.998	0.0151565
861.076	0.0152444
861.155	0.0153128
861.233	0.0152927
861.311	0.0152953
861.389	0.0153116
861.467	0.0154369
861.545	0.0155142
861.623	0.0154279
861.701	0.0153036
861.780	0.0155389
861.858	0.0155704
861.936	0.0154874
862.014	0.0156049
862.092	0.0155110
862.170	0.0156931
862.248	0.0156097
862.326	0.0156176
862.405	0.0156454
862.483	0.0157706
862.561	0.0155673
862.639	0.0154736
862.717	0.0156765
862.795	0.0154452
862.873	0.0155347
862.951	0.0157053
863.030	0.0155566
863.108	0.0155898
863.186	0.0155654
863.264	0.0156049
863.342	0.0155460
863.420	0.0155206
863.498	0.0155791
863.576	0.0155367
863.655	0.0157594
863.733	0.0157433
863.811	0.0156802
863.889	0.0157131
863.967	0.0157913
864.045	0.0156241
864.123	0.0157364
864.201	0.0157464
864.280	0.0158232
864.358	0.0157293
864.436	0.0156125
864.514	0.0157047
864.592	0.0156167
864.670	0.0156123
864.748	0.0157825
864.826	0.0155196
864.905	0.0154221
864.983	0.0155720
865.061	0.0154774
865.139	0.0155876
865.217	0.0155181
865.295	0.0153987
865.373	0.0155022
865.451	0.0152995
865.530	0.0154440
865.608	0.0155079
865.686	0.0154242
865.764	0.0155230
865.842	0.0155089
865.920	0.0154061
865.998	0.0154568
866.076	0.0155095
866.155	0.0156152
866.233	0.0154816
866.311	0.0154983
866.389	0.0155981
866.467	0.0156306
866.545	0.0155375
866.623	0.0155479
866.701	0.0154563
866.780	0.0156126
866.858	0.0156641
866.936	0.0155360
867.014	0.0156857
867.092	0.0156480
867.170	0.0155473
867.248	0.0156072
867.326	0.0157179
867.405	0.0156722
867.483	0.0156232
867.561	0.0157141
867.639	0.0158045
867.717	0.0156672
867.795	0.0156438
867.873	0.0157394
867.951	0.0157629
868.030	0.0155997
868.108	0.0154718
868.186	0.0155511
868.264	0.0155575
868.342	0.0157935
868.420	0.0154573
868.498	0.0154397
868.576	0.0155417
868.655	0.0158456
868.733	0.0155801
868.811	0.0156231
868.889	0.0156783
868.967	0.0154683
869.045	0.0156171
869.123	0.0156648
869.201	0.0155344
869.280	0.0158035
869.358	0.0156048
869.436	0.0156471
869.514	0.0157147
869.592	0.0157327
869.670	0.0156161
869.748	0.0156570
869.826	0.0156490
869.905	0.0156751
869.983	0.0156615
870.061	0.0155724
870.139	0.0155557
870.217	0.0155244
870.295	0.0156746
870.373	0.0156672
870.451	0.0155241
870.530	0.0155658
870.608	0.0154791
870.686	0.0155201
870.764	0.0157213
870.842	0.0154915
870.920	0.0155220
870.998	0.0154609
871.076	0.0156413
871.155	0.0155585
871.233	0.0155212
871.311	0.0156773
871.389	0.0156333
871.467	0.0157147
871.545	0.0158131
871.623	0.0156759
871.701	0.0156758
871.780	0.0158123
871.858	0.0157385
871.936	0.0158086
872.014	0.0158739
872.092	0.0158148
872.170	0.0156812
872.248	0.0156444
872.326	0.0157867
872.405	0.0156764
872.483	0.0156011
872.561	0.0156015
872.639	0.0155162
872.717	0.0155287
872.795	0.0154552
872.873	0.0155595
872.951	0.0154852
873.030	0.0155668
873.108	0.0154602
873.186	0.0154274
873.264	0.0155656
873.342	0.0152756
873.420	0.0153540
873.498	0.0154574
873.576	0.0153727
873.655	0.0154855
873.733	0.0154036
873.811	0.0154005
873.889	0.0154808
873.967	0.0154904
874.045	0.0154621
874.123	0.0154604
874.201	0.0155821
874.280	0.0156158
874.358	0.0155749
874.436	0.0157190
874.514	0.0154890
874.592	0.0155621
874.670	0.0154990
874.748	0.0155791
874.826	0.0155938
874.905	0.0155901
874.983	0.0157104
875.061	0.0157750
875.139	0.0156047
875.217	0.0154990
875.295	0.0154607
875.373	0.0156628
875.451	0.0157828
875.530	0.0155629
875.608	0.0154749
875.686	0.0156161
875.764	0.0157340
875.842	0.0156475
875.920	0.0156780
875.998	0.0156410
876.076	0.0154905
876.155	0.0156039
876.233	0.0156523
876.311	0.0156167
876.389	0.0156760
876.467	0.0156612
876.545	0.0156834
876.623	0.0156223
876.701	0.0156052
876.780	0.0153561
876.858	0.0155292
876.936	0.0154588
877.014	0.0155527
877.092	0.0155878
877.170	0.0156716
877.248	0.0154994
877.326	0.0156271
877.405	0.0157146
877.483	0.0154481
877.561	0.0154224
877.639	0.0155610
877.717	0.0155577
877.795	0.0156030
877.873	0.0154755
877.951	0.0155851
878.030	0.0153893
878.108	0.0154906
878.186	0.0153259
878.264	0.0153613
878.342	0.0154960
878.420	0.0152602
878.498	0.0153806
878.576	0.0153951
878.655	0.0153006
878.733	0.0152079
878.811	0.0153267
878.889	0.0152768
878.967	0.0152811
879.045	0.0154324
879.123	0.0155660
879.201	0.0153642
879.280	0.0153469
879.358	0.0153946
879.436	0.0153868
879.514	0.0155473
879.592	0.0153615
879.670	0.0156500
879.748	0.0155627
879.826	0.0154758
879.905	0.0156147
879.983	0.0156657
880.061	0.0156179
880.139	0.0157078
880.217	0.0156440
880.295	0.0155986
880.373	0.0156918
880.451	0.0158329
880.530	0.0156245
880.608	0.0156729
880.686	0.0156781
880.764	0.0155799
880.842	0.0156458
880.920	0.0157669
880.998	0.0157187
881.076	0.0156538
881.155	0.0155490
881.233	0.0155616
881.311	0.0156678
881.389	0.0156355
881.467	0.0156221
881.545	0.0157154
881.623	0.0155568
881.701	0.0154954
881.780	0.0156441
881.858	0.0155847
881.936	0.0156566
882.014	0.0154858
882.092	0.0156165
882.170	0.0156771
882.248	0.0155517
882.326	0.0153150
882.405	0.0154734
882.483	0.0154744
882.561	0.0154799
882.639	0.0155757
882.717	0.0152866
882.795	0.0154463
882.873	0.0154639
882.951	0.0154263
883.030	0.0153924
883.108	0.0155076
883.186	0.0154607
883.264	0.0156645
883.342	0.0154361
883.420	0.0154459
883.498	0.0154564
883.576	0.0155042
883.655	0.0154668
883.733	0.0153778
883.811	0.0155418
883.889	0.0156911
883.967	0.0155843
884.045	0.0156411
884.123	0.0155068
884.201	0.0156172
884.280	0.0156849
884.358	0.0156242
884.436	0.0158092
884.514	0.0157131
884.592	0.0156441
884.670	0.0156122
884.748	0.0157392
884.826	0.0156412
884.905	0.0157070
884.983	0.0157067
885.061	0.0155984
885.139	0.0155697
885.217	0.0154961
885.295	0.0155419
885.373	0.0154147
885.451	0.0154675
885.530	0.0154899
885.608	0.0154876
885.686	0.0153136
885.764	0.0154298
885.842	0.0153559
885.920	0.0154517
885.998	0.0154683
886.076	0.0152404
886.155	0.0152778
886.233	0.0154704
886.311	0.0153792
886.389	0.0153358
886.467	0.0154173
886.545	0.0154465
886.623	0.0151946
886.701	0.0153346
886.780	0.0154346
886.858	0.0153286
886.936	0.0154472
887.014	0.0154429
887.092	0.0154247
887.170	0.0155717
887.248	0.0156289
887.326	0.0156223
887.405	0.0155039
887.483	0.0155212
887.561	0.0156728
887.639	0.0156833
887.717	0.0156340
887.795	0.0157087
887.873	0.0156612
887.951	0.0155760
888.030	0.0156410
888.108	0.0157059
888.186	0.0156774
888.264	0.0156735
888.342	0.0157385
888.420	0.0156171
888.498	0.0157903
888.576	0.0157008
888.655	0.0156761
888.733	0.0157545
888.811	0.0156368
888.889	0.0156240
888.967	0.0156232
889.045	0.0157233
889.123	0.0156522
889.201	0.0155853
889.280	0.0156066
889.358	0.0156454
889.436	0.0156595
889.514	0.0154008
889.592	0.0155164
889.670	0.0155480
889.748	0.0155652
889.826	0.0156506
889.905	0.0154435
889.983	0.0155231
890.061	0.0155445
890.139	0.0155314
890.217	0.0155760
890.295	0.0155676
890.373	0.0156684
890.451	0.0156696
890.530	0.0155118
890.608	0.0156381
890.686	0.0155882
890.764	0.0157603
890.842	0.0157121
890.920	0.0157285
890.998	0.0156757
891.076	0.0157543
891.155	0.0157571
891.233	0.0158466
891.311	0.0159600
891.389	0.0157509
891.467	0.0157617
891.545	0.0159390
891.623	0.0160313
891.701	0.0157724
891.780	0.0158588
891.858	0.0157017
891.936	0.0158588
892.014	0.0158109
892.092	0.0156914
892.170	0.0158125
892.248	0.0156290
892.326	0.0156620
892.405	0.0156333
892.483	0.0156162
892.561	0.0157156
892.639	0.0157606
892.717	0.0155577
892.795	0.0157372
892.873	0.0156483
892.951	0.0156093
893.030	0.0157823
893.108	0.0156685
893.186	0.0155852
893.264	0.0156400
893.342	0.0156637
893.420	0.0154585
893.498	0.0154405
893.576	0.0156086
893.655	0.0153928
893.733	0.0155032
893.811	0.0154170
893.889	0.0153576
893.967	0.0155318
894.045	0.0154709
894.123	0.0154744
894.201	0.0154156
894.280	0.0155711
894.358	0.0155207
894.436	0.0155280
894.514	0.0155048
894.592	0.0155379
894.670	0.0155348
894.748	0.0155945
894.826	0.0156063
894.905	0.0155786
894.983	0.0155063
895.061	0.0156071
895.139	0.0157066
895.217	0.0155653
895.295	0.0154977
895.373	0.0156319
895.451	0.0156631
895.530	0.0156926
895.608	0.0157152
895.686	0.0156850
895.764	0.0156996
895.842	0.0157710
895.920	0.0157609
895.998	0.0155962
896.076	0.0156334
896.155	0.0156689
896.233	0.0156579
896.311	0.0157084
896.389	0.0158450
896.467	0.0156860
896.545	0.0155910
896.623	0.0156307
896.701	0.0157046
896.780	0.0155909
896.858	0.0155308
896.936	0.0155900
897.014	0.0156473
897.092	0.0156160
897.170	0.0154459
897.248	0.0153577
897.326	0.0155839
897.405	0.0155184
897.483	0.0155955
897.561	0.0155524
897.639	0.0154247
897.717	0.0154710
897.795	0.0155494
897.873	0.0156432
897.951	0.0156087
898.030	0.0156169
898.108	0.0155758
898.186	0.0157618
898.264	0.0156359
898.342	0.0155891
898.420	0.0156062
898.498	0.0154927
898.576	0.0156471
898.655	0.0154497
898.733	0.0155234
898.811	0.0156201
898.889	0.0153646
898.967	0.0155115
899.045	0.0155505
899.123	0.0154359
899.201	0.0155180
899.280	0.0154564
899.358	0.0154780
899.436	0.0155304
899.514	0.0156072
899.592	0.0154694
899.670	0.0155853
899.748	0.0156714
899.826	0.0156591
899.905	0.0156729
899.983	0.0157089
900.061	0.0156318
900.139	0.0154720
900.217	0.0156792
900.295	0.0157380
900.373	0.0156693
900.451	0.0156438
900.530	0.0155326
900.608	0.0155418
900.686	0.0156344
900.764	0.0156351
900.842	0.0155528
900.920	0.0155943
900.998	0.0155112
901.076	0.0155224
901.155	0.0155486
901.233	0.0155483
901.311	0.0155853
901.389	0.0154072
901.467	0.0154312
901.545	0.0153854
901.623	0.0154978
901.701	0.0155484
901.780	0.0153368
901.858	0.0153230
901.936	0.0153872
902.014	0.0153423
902.092	0.0154064
902.170	0.0152663
902.248	0.0153282
902.326	0.0154416
902.405	0.0154173
902.483	0.0153819
902.561	0.0154893
902.639	0.0155116
902.717	0.0154659
902.795	0.0155540
902.873	0.0154099
902.951	0.0155078
903.030	0.0155875
903.108	0.0156182
903.186	0.0154998
903.264	0.0154642
903.342	0.0156096
903.420	0.0155178
903.498	0.0155424
903.576	0.0154411
903.655	0.0155306
903.733	0.0155006
903.811	0.0155673
903.889	0.0155946
903.967	0.0155923
904.045	0.0154427
904.123	0.0155472
904.201	0.0156557
904.280	0.0156515
904.358	0.0156473
904.436	0.0155199
904.514	0.0156283
904.592	0.0156334
904.670	0.0157140
904.748	0.0156667
904.826	0.0156799
904.905	0.0155857
904.983	0.0156223
905.061	0.0154585
905.139	0.0154773
905.217	0.0154467
905.295	0.0154618
905.373	0.0154061
905.451	0.0153815
905.530	0.0155045
905.608	0.0155246
905.686	0.0154220
905.764	0.0154515
905.842	0.0154830
905.920	0.0156377
905.998	0.0156464
906.076	0.0154921
906.155	0.0153741
906.233	0.0154995
906.311	0.0154566
906.389	0.0154192
906.467	0.0156361
906.545	0.0155405
906.623	0.0153825
906.701	0.0156503
906.780	0.0156651
906.858	0.0155636
906.936	0.0155669
907.014	0.0154453
907.092	0.0155640
907.170	0.0157233
907.248	0.0156289
907.326	0.0156090
907.405	0.0157566
907.483	0.0156775
907.561	0.0155112
907.639	0.0156011
907.717	0.0154783
907.795	0.0155652
907.873	0.0154868
907.951	0.0154018
908.030	0.0155975
908.108	0.0154487
908.186	0.0156313
908.264	0.0154099
908.342	0.0156266
908.420	0.0156469
908.498	0.0154975
908.576	0.0155014
908.655	0.0154708
908.733	0.0154829
908.811	0.0152983
908.889	0.0153261
908.967	0.0154863
909.045	0.0154169
909.123	0.0153095
909.201	0.0152654
909.280	0.0154470
909.358	0.0154062
909.436	0.0153409
909.514	0.0154055
909.592	0.0154442
909.670	0.0155055
909.748	0.0154401
909.826	0.0154496
909.905	0.0155465
909.983	0.0154523
910.061	0.0154915
910.139	0.0156008
910.217	0.0156293
910.295	0.0155488
910.373	0.0154375
910.451	0.0154428
910.530	0.0156277
910.608	0.0156889
910.686	0.0156370
910.764	0.0156595
910.842	0.0157363
910.920	0.0156952
910.998	0.0155843
911.076	0.0155743
911.155	0.0157250
911.233	0.0157446
911.311	0.0154306
911.389	0.0156014
911.467	0.0155499
911.545	0.0156247
911.623	0.0156033
911.701	0.0155912
911.780	0.0155151
911.858	0.0155963
911.936	0.0157077
912.014	0.0156246
912.092	0.0155927
912.170	0.0157722
912.248	0.0156744
912.326	0.0155247
912.405	0.0156995
912.483	0.0157610
912.561	0.0156377
912.639	0.0156858
912.717	0.0156371
912.795	0.0156923
912.873	0.0157240
912.951	0.0155763
913.030	0.0157489
913.108	0.0156767
913.186	0.0157336
913.264	0.0157296
913.342	0.0156078
913.420	0.0154853
913.498	0.0154436
913.576	0.0155284
913.655	0.0155239
913.733	0.0155809
913.811	0.0154414
913.889	0.0153627
913.967	0.0154726
914.045	0.0153658
914.123	0.0154430
914.201	0.0155045
914.280	0.0154488
914.358	0.0154440
914.436	0.0153941
914.514	0.0154855
914.592	0.0155426
914.670	0.0154413
914.748	0.0155550
914.826	0.0155853
914.905	0.0154719
914.983	0.0155083
915.061	0.0156371
915.139	0.0155406
915.217	0.0155728
915.295	0.0155473
915.373	0.0155418
915.451	0.0156703
915.530	0.0157379
915.608	0.0155499
915.686	0.0155091
915.764	0.0154335
915.842	0.0155235
915.920	0.0154275
915.998	0.0155117
916.076	0.0155382
916.155	0.0154752
916.233	0.0155307
916.311	0.0153793
916.389	0.0155166
916.467	0.0155280
916.545	0.0155464
916.623	0.0154925
916.701	0.0155429
916.780	0.0155223
916.858	0.0155415
916.936	0.0155072
917.014	0.0153691
917.092	0.0157311
917.170	0.0156214
917.248	0.0154374
917.326	0.0154231
917.405	0.0154674
917.483	0.0154566
917.561	0.0156020
917.639	0.0155836
917.717	0.0155114
917.795	0.0154139
917.873	0.0155050
917.951	0.0154885
918.030	0.0154372
918.108	0.0154758
918.186	0.0155014
918.264	0.0155956
918.342	0.0157434
918.420	0.0155006
918.498	0.0156417
918.576	0.0154752
918.655	0.0156915
918.733	0.0156002
918.811	0.0155093
918.889	0.0156348
918.967	0.0155695
919.045	0.0154801
919.123	0.0154305
919.201	0.0154999
919.280	0.0155345
919.358	0.0155688
919.436	0.0154935
919.514	0.0155863
919.592	0.0155598
919.670	0.0155963
919.748	0.0154987
919.826	0.0156918
919.905	0.0156616
919.983	0.0157203
920.061	0.0155776
920.139	0.0156715
920.217	0.0157344
920.295	0.0157008
920.373	0.0156928
920.451	0.0156347
920.530	0.0156921
920.608	0.0156448
920.686	0.0156335
920.764	0.0155164
920.842	0.0155318
920.920	0.0156026
920.998	0.0155557
921.076	0.0154514
921.155	0.0154530
921.233	0.0153857
921.311	0.0155380
921.389	0.0154687
921.467	0.0154902
921.545	0.0155127
921.623	0.0154664
921.701	0.0153198
921.780	0.0153947
921.858	0.0154497
921.936	0.0154295
922.014	0.0154119
922.092	0.0153009
922.170	0.0154613
922.248	0.0153439
922.326	0.0154253
922.405	0.0153761
922.483	0.0154243
922.561	0.0154698
922.639	0.0154034
922.717	0.0154038
922.795	0.0154070
922.873	0.0154166
922.951	0.0154572
923.030	0.0154478
923.108	0.0153647
923.186	0.0155118
923.264	0.0154337
923.342	0.0154252
923.420	0.0154857
923.498	0.0153281
923.576	0.0154393
923.655	0.0154644
923.733	0.0154286
923.811	0.0154934
923.889	0.0155853
923.967	0.0156696
924.045	0.0155246
924.123	0.0155977
924.201	0.0157394
924.280	0.0155455
924.358	0.0155383
924.436	0.0155466
924.514	0.0156161
924.592	0.0156931
924.670	0.0155895
924.748	0.0156786
924.826	0.0156401
924.905	0.0156552
924.983	0.0156663
925.061	0.0157189
925.139	0.0157974
925.217	0.0158179
925.295	0.0157309
925.373	0.0157882
925.451	0.0157212
925.530	0.0156693
925.608	0.0156721
925.686	0.0156677
925.764	0.0155807
925.842	0.0156292
925.920	0.0155524
925.998	0.0155838
926.076	0.0156754
926.155	0.0155102
926.233	0.0154903
926.311	0.0156281
926.389	0.0155946
926.467	0.0155211
926.545	0.0156193
926.623	0.0155174
926.701	0.0154762
926.780	0.0155497
926.858	0.0156883
926.936	0.0156455
927.014	0.0157094
927.092	0.0157765
927.170	0.0157868
927.248	0.0157164
927.326	0.0157193
927.405	0.0157231
927.483	0.0156354
927.561	0.0155443
927.639	0.0156131
927.717	0.0156840
927.795	0.0157077
927.873	0.0156787
927.951	0.0157716
928.030	0.0157406
928.108	0.0156299
928.186	0.0158249
928.264	0.0156205
928.342	0.0156903
928.420	0.0158038
928.498	0.0155602
928.576	0.0157255
928.655	0.0156038
928.733	0.0156345
928.811	0.0156703
928.889	0.0154516
928.967	0.0154889
929.045	0.0155096
929.123	0.0154629
929.201	0.0154319
929.280	0.0154282
929.358	0.0153149
929.436	0.0155936
929.514	0.0155207
929.592	0.0152091
929.670	0.0154066
929.748	0.0154117
929.826	0.0154579
929.905	0.0155348
929.983	0.0155369
930.061	0.0155014
930.139	0.0156311
930.217	0.0154256
930.295	0.0153699
930.373	0.0155709
930.451	0.0155032
930.530	0.0154739
930.608	0.0156769
930.686	0.0154978
930.764	0.0156108
930.842	0.0154250
930.920	0.0154633
930.998	0.0153951
931.076	0.0153760
931.155	0.0154900
931.233	0.0154982
931.311	0.0154935
931.389	0.0153783
931.467	0.0153703
931.545	0.0154759
931.623	0.0154466
931.701	0.0155213
931.780	0.0157062
931.858	0.0155387
931.936	0.0155943
932.014	0.0156075
932.092	0.0157247
932.170	0.0156967
932.248	0.0157477
932.326	0.0156267
932.405	0.0157808
932.483	0.0158070
932.561	0.0158013
932.639	0.0157459
932.717	0.0157382
932.795	0.0159206
932.873	0.0157198
932.951	0.0157047
933.030	0.0156287
933.108	0.0158002
933.186	0.0156250
933.264	0.0155913
933.342	0.0155274
933.420	0.0156053
933.498	0.0154558
933.576	0.0155381
933.655	0.0154136
933.733	0.0155891
933.811	0.0155225
933.889	0.0154266
933.967	0.0155779
934.045	0.0155911
934.123	0.0154147
934.201	0.0155075
934.280	0.0154884
934.358	0.0154889
934.436	0.0153944
934.514	0.0154318
934.592	0.0154893
934.670	0.0155972
934.748	0.0155569
934.826	0.0155625
934.905	0.0154852
934.983	0.0152679
935.061	0.0154534
935.139	0.0155243
935.217	0.0155119
935.295	0.0155245
935.373	0.0155377
935.451	0.0154944
935.530	0.0153406
935.608	0.0154700
935.686	0.0153301
935.764	0.0153216
935.842	0.0155991
935.920	0.0156155
935.998	0.0154501
936.076	0.0154324
936.155	0.0155091
936.233	0.0153897
936.311	0.0154514
936.389	0.0154642
936.467	0.0154189
936.545	0.0154755
936.623	0.0155502
936.701	0.0156224
936.780	0.0155656
936.858	0.0155453
936.936	0.0156075
937.014	0.0156577
937.092	0.0156211
937.170	0.0155000
937.248	0.0155390
937.326	0.0155685
937.405	0.0155322
937.483	0.0156096
937.561	0.0155833
937.639	0.0153730
937.717	0.0154254
937.795	0.0155327
937.873	0.0154241
937.951	0.0153764
938.030	0.0154107
938.108	0.0154803
938.186	0.0155325
938.264	0.0154433
938.342	0.0154783
938.420	0.0154627
938.498	0.0154726
938.576	0.0154631
938.655	0.0154225
938.733	0.0153253
938.811	0.0155131
938.889	0.0154086
938.967	0.0153272
939.045	0.0153744
939.123	0.0154723
939.201	0.0155146
939.280	0.0154270
939.358	0.0154404
939.436	0.0154151
939.514	0.0154258
939.592	0.0154925
939.670	0.0156718
939.748	0.0156872
939.826	0.0155263
939.905	0.0155081
939.983	0.0155768
940.061	0.0157281
940.139	0.0157191
940.217	0.0155965
940.295	0.0156006
940.373	0.0157891
940.451	0.0156728
940.530	0.0156908
940.608	0.0155842
940.686	0.0159321
940.764	0.0156693
940.842	0.0157323
940.920	0.0156317
940.998	0.0156068
941.076	0.0156661
941.155	0.0157256
941.233	0.0156361
941.311	0.0156631
941.389	0.0154992
941.467	0.0154723
941.545	0.0154476
941.623	0.0154955
941.701	0.0155212
941.780	0.0153512
941.858	0.0154485
941.936	0.0156284
942.014	0.0154047
942.092	0.0154028
942.170	0.0153764
942.248	0.0154011
942.326	0.0155244
942.405	0.0156046
942.483	0.0154671
942.561	0.0154153
942.639	0.0154747
942.717	0.0156506
942.795	0.0155328
942.873	0.0153756
942.951	0.0154617
943.030	0.0154614
943.108	0.0154404
943.186	0.0155068
943.264	0.0155611
943.342	0.0155500
943.420	0.0155503
943.498	0.0154321
943.576	0.0155579
943.655	0.0155956
943.733	0.0155061
943.811	0.0156944
943.889	0.0155938
943.967	0.0155260
944.045	0.0156568
944.123	0.0157395
944.201	0.0155934
944.280	0.0157105
944.358	0.0155962
944.436	0.0155621
944.514	0.0155775
944.592	0.0156444
944.670	0.0156185
944.748	0.0155551
944.826	0.0155585
944.905	0.0156385
944.983	0.0155288
945.061	0.0154279
945.139	0.0155137
945.217	0.0156242
945.295	0.0157442
945.373	0.0156677
945.451	0.0156980
945.530	0.0155843
945.608	0.0156699
945.686	0.0157314
945.764	0.0156516
945.842	0.0156340
945.920	0.0154897
945.998	0.0155515
946.076	0.0155947
946.155	0.0155920
946.233	0.0155544
946.311	0.0153938
946.389	0.0154775
946.467	0.0155354
946.545	0.0155225
946.623	0.0153211
946.701	0.0153259
946.780	0.0153773
946.858	0.0153252
946.936	0.0153590
947.014	0.0153722
947.092	0.0153883
947.170	0.0153094
947.248	0.0153354
947.326	0.0154146
947.405	0.0155463
947.483	0.0155241
947.561	0.0156932
947.639	0.0157516
947.717	0.0156579
947.795	0.0156761
947.873	0.0157776
947.951	0.0158174
948.030	0.0157498
948.108	0.0158698
948.186	0.0159026
948.264	0.0160033
948.342	0.0158766
948.420	0.0158462
948.498	0.0157750
948.576	0.0157493
948.655	0.0158020
948.733	0.0158279
948.811	0.0155930
948.889	0.0155454
948.967	0.0155894
949.045	0.0155784
949.123	0.0154666
949.201	0.0155893
949.280	0.0155341
949.358	0.0154542
949.436	0.0155367
949.514	0.0155814
949.592	0.0153854
949.670	0.0155706
949.748	0.0154777
949.826	0.0155555
949.905	0.0155415
949.983	0.0154223
950.061	0.0155985
950.139	0.0155904
950.217	0.0153529
950.295	0.0155870
950.373	0.0155943
950.451	0.0154655
950.530	0.0155211
950.608	0.0156010
950.686	0.0155521
950.764	0.0156113
950.842	0.0155679
950.920	0.0153668
950.998	0.0154468
951.076	0.0154626
951.155	0.0154296
951.233	0.0153455
951.311	0.0154243
951.389	0.0155697
951.467	0.0154626
951.545	0.0155834
951.623	0.0155534
951.701	0.0155148
951.780	0.0154790
951.858	0.0154393
951.936	0.0156062
952.014	0.0156787
952.092	0.0155974
952.170	0.0154784
952.248	0.0158290
952.326	0.0158170
952.405	0.0155672
952.483	0.0157078
952.561	0.0156783
952.639	0.0156829
952.717	0.0157395
952.795	0.0156792
952.873	0.0157424
952.951	0.0157300
953.030	0.0156997
953.108	0.0158328
953.186	0.0156722
953.264	0.0156005
953.342	0.0156990
953.420	0.0155972
953.498	0.0156908
953.576	0.0156918
953.655	0.0156013
953.733	0.0156869
953.811	0.0155993
953.889	0.0155419
953.967	0.0156476
954.045	0.0155132
954.123	0.0155421
954.201	0.0153433
954.280	0.0156589
954.358	0.0155289
954.436	0.0155515
954.514	0.0154229
954.592	0.0154733
954.670	0.0156754
954.748	0.0153736
954.826	0.0153786
954.905	0.0154468
954.983	0.0155530
955.061	0.0155027
955.139	0.0155421
955.217	0.0155987
955.295	0.0156072
955.373	0.0155135
955.451	0.0155859
955.530	0.0158075
955.608	0.0156631
955.686	0.0156664
955.764	0.0156052
955.842	0.0158708
955.920	0.0158980
955.998	0.0158327
956.076	0.0159074
956.155	0.0158584
956.233	0.0158954
956.311	0.0158049
956.389	0.0158202
956.467	0.0159164
956.545	0.0158902
956.623	0.0157709
956.701	0.0157161
956.780	0.0157186
956.858	0.0156641
956.936	0.0156995
957.014	0.0155091
957.092	0.0155615
957.170	0.0154945
957.248	0.0155735
957.326	0.0154533
957.405	0.0153513
957.483	0.0154914
957.561	0.0155818
957.639	0.0154124
957.717	0.0155019
957.795	0.0154281
957.873	0.0154353
957.951	0.0154559
958.030	0.0155616
958.108	0.0154858
958.186	0.0154099
958.264	0.0154172
958.342	0.0154517
958.420	0.0154830
958.498	0.0155695
958.576	0.0154424
958.655	0.0155559
958.733	0.0155737
958.811	0.0155328
958.889	0.0155466
958.967	0.0154751
959.045	0.0155939
959.123	0.0156776
959.201	0.0156155
959.280	0.0154990
959.358	0.0154288
959.436	0.0154546
959.514	0.0155523
959.592	0.0156073
959.670	0.0155273
959.748	0.0155856
959.826	0.0154866
959.905	0.0155544
