05/17/2022	16:53:44	Ver.	4.1	UNKNOWN
Optical Delay	639.982744	Delta X		0.078125	Sweeps	1	Scan Rate	0/0
Coordinates	Axis 1	NaN	Axis 2	NaN	Axis 3	NaN	Axis 4	NaN	Axis 5	NaN	Axis 6	0.000000
TX Power	0.000000	RX Power	0.000000

639.983	0.0154807
640.061	0.0154465
640.139	0.0156109
640.217	0.0155131
640.295	0.0154320
640.373	0.0154627
640.451	0.0155436
640.530	0.0153532
640.608	0.0154988
640.686	0.0154184
640.764	0.0154955
640.842	0.0155534
640.920	0.0153749
640.998	0.0154198
641.076	0.0155238
641.155	0.0155293
641.233	0.0154970
641.311	0.0152984
641.389	0.0155288
641.467	0.0155251
641.545	0.0154725
641.623	0.0155148
641.701	0.0155262
641.780	0.0154033
641.858	0.0154273
641.936	0.0153860
642.014	0.0154612
642.092	0.0154192
642.170	0.0155852
642.248	0.0155276
642.326	0.0153978
642.405	0.0154968
642.483	0.0153963
642.561	0.0154724
642.639	0.0155510
642.717	0.0154509
642.795	0.0153668
642.873	0.0155519
642.951	0.0155489
643.030	0.0155223
643.108	0.0155250
643.186	0.0154806
643.264	0.0154783
643.342	0.0152985
643.420	0.0153209
643.498	0.0155380
643.576	0.0156609
643.655	0.0154427
643.733	0.0154097
643.811	0.0155363
643.889	0.0154602
643.967	0.0153537
644.045	0.0155247
644.123	0.0154439
644.201	0.0154192
644.280	0.0154571
644.358	0.0155259
644.436	0.0154369
644.514	0.0155744
644.592	0.0152770
644.670	0.0154908
644.748	0.0155393
644.826	0.0155146
644.905	0.0154599
644.983	0.0155901
645.061	0.0154981
645.139	0.0155119
645.217	0.0154089
645.295	0.0153928
645.373	0.0155253
645.451	0.0154884
645.530	0.0153802
645.608	0.0154829
645.686	0.0154464
645.764	0.0155037
645.842	0.0155689
645.920	0.0155682
645.998	0.0154783
646.076	0.0155064
646.155	0.0156218
646.233	0.0156834
646.311	0.0155811
646.389	0.0154906
646.467	0.0154958
646.545	0.0156672
646.623	0.0156739
646.701	0.0156980
646.780	0.0156263
646.858	0.0156043
646.936	0.0155535
647.014	0.0156236
647.092	0.0155495
647.170	0.0156033
647.248	0.0155325
647.326	0.0154350
647.405	0.0155106
647.483	0.0154725
647.561	0.0153439
647.639	0.0154972
647.717	0.0155596
647.795	0.0154887
647.873	0.0155093
647.951	0.0154302
648.030	0.0154838
648.108	0.0155865
648.186	0.0156043
648.264	0.0154577
648.342	0.0155222
648.420	0.0156145
648.498	0.0156750
648.576	0.0156086
648.655	0.0156448
648.733	0.0156820
648.811	0.0156973
648.889	0.0157199
648.967	0.0157597
649.045	0.0157101
649.123	0.0156467
649.201	0.0156721
649.280	0.0155547
649.358	0.0155406
649.436	0.0155900
649.514	0.0154774
649.592	0.0156426
649.670	0.0154478
649.748	0.0153207
649.826	0.0153963
649.905	0.0154245
649.983	0.0152693
650.061	0.0153977
650.139	0.0153563
650.217	0.0153719
650.295	0.0155099
650.373	0.0154270
650.451	0.0154675
650.530	0.0156689
650.608	0.0155188
650.686	0.0158021
650.764	0.0158071
650.842	0.0157407
650.920	0.0158573
650.998	0.0157726
651.076	0.0159760
651.155	0.0159245
651.233	0.0158752
651.311	0.0158664
651.389	0.0157959
651.467	0.0157738
651.545	0.0157082
651.623	0.0156034
651.701	0.0156925
651.780	0.0155461
651.858	0.0155602
651.936	0.0155270
652.014	0.0152608
652.092	0.0152661
652.170	0.0152821
652.248	0.0152653
652.326	0.0153542
652.405	0.0152302
652.483	0.0154202
652.561	0.0154254
652.639	0.0154351
652.717	0.0154375
652.795	0.0155359
652.873	0.0156589
652.951	0.0156112
653.030	0.0157504
653.108	0.0156695
653.186	0.0157226
653.264	0.0157581
653.342	0.0157133
653.420	0.0158352
653.498	0.0158120
653.576	0.0157620
653.655	0.0156706
653.733	0.0157178
653.811	0.0156971
653.889	0.0155305
653.967	0.0155721
654.045	0.0154520
654.123	0.0154183
654.201	0.0153535
654.280	0.0152423
654.358	0.0153045
654.436	0.0153235
654.514	0.0151591
654.592	0.0154068
654.670	0.0154144
654.748	0.0152699
654.826	0.0154439
654.905	0.0154420
654.983	0.0154768
655.061	0.0154848
655.139	0.0156262
655.217	0.0155732
655.295	0.0156171
655.373	0.0156740
655.451	0.0156464
655.530	0.0157173
655.608	0.0158126
655.686	0.0158421
655.764	0.0157974
655.842	0.0157513
655.920	0.0157190
655.998	0.0157653
656.076	0.0157279
656.155	0.0156875
656.233	0.0155460
656.311	0.0154877
656.389	0.0156096
656.467	0.0155109
656.545	0.0153691
656.623	0.0154514
656.701	0.0155189
656.780	0.0153177
656.858	0.0154456
656.936	0.0155354
657.014	0.0155020
657.092	0.0155621
657.170	0.0155712
657.248	0.0154984
657.326	0.0155489
657.405	0.0155873
657.483	0.0154056
657.561	0.0154527
657.639	0.0154311
657.717	0.0155452
657.795	0.0156270
657.873	0.0155658
657.951	0.0155582
658.030	0.0155446
658.108	0.0155766
658.186	0.0155774
658.264	0.0156934
658.342	0.0155967
658.420	0.0155513
658.498	0.0154984
658.576	0.0155092
658.655	0.0154940
658.733	0.0155618
658.811	0.0155829
658.889	0.0153954
658.967	0.0154539
659.045	0.0155434
659.123	0.0154651
659.201	0.0155208
659.280	0.0155169
659.358	0.0155565
659.436	0.0154169
659.514	0.0154610
659.592	0.0154977
659.670	0.0154198
659.748	0.0154451
659.826	0.0152197
659.905	0.0152589
659.983	0.0153678
660.061	0.0155032
660.139	0.0152959
660.217	0.0153692
660.295	0.0153108
660.373	0.0154870
660.451	0.0155117
660.530	0.0155230
660.608	0.0155241
660.686	0.0155606
660.764	0.0155963
660.842	0.0154803
660.920	0.0156102
660.998	0.0156297
661.076	0.0157141
661.155	0.0155397
661.233	0.0156404
661.311	0.0157056
661.389	0.0156227
661.467	0.0155619
661.545	0.0154134
661.623	0.0154906
661.701	0.0155755
661.780	0.0155385
661.858	0.0154215
661.936	0.0154570
662.014	0.0154630
662.092	0.0154609
662.170	0.0155386
662.248	0.0154628
662.326	0.0155971
662.405	0.0154806
662.483	0.0153008
662.561	0.0154497
662.639	0.0155307
662.717	0.0155809
662.795	0.0155102
662.873	0.0155970
662.951	0.0156242
663.030	0.0157795
663.108	0.0157423
663.186	0.0158221
663.264	0.0156959
663.342	0.0158408
663.420	0.0157166
663.498	0.0157304
663.576	0.0156046
663.655	0.0156896
663.733	0.0156225
663.811	0.0156235
663.889	0.0154767
663.967	0.0154556
664.045	0.0154338
664.123	0.0153059
664.201	0.0154118
664.280	0.0154364
664.358	0.0153562
664.436	0.0154478
664.514	0.0152577
664.592	0.0153627
664.670	0.0154953
664.748	0.0153985
664.826	0.0155272
664.905	0.0153915
664.983	0.0156055
665.061	0.0155510
665.139	0.0156927
665.217	0.0157040
665.295	0.0155606
665.373	0.0157717
665.451	0.0156124
665.530	0.0156735
665.608	0.0157137
665.686	0.0156218
665.764	0.0155809
665.842	0.0156766
665.920	0.0156898
665.998	0.0155813
666.076	0.0156315
666.155	0.0154142
666.233	0.0153952
666.311	0.0152352
666.389	0.0152189
666.467	0.0152350
666.545	0.0151588
666.623	0.0151678
666.701	0.0152381
666.780	0.0150033
666.858	0.0151994
666.936	0.0152344
667.014	0.0152689
667.092	0.0154258
667.170	0.0153930
667.248	0.0155138
667.326	0.0155607
667.405	0.0155898
667.483	0.0156783
667.561	0.0157068
667.639	0.0157574
667.717	0.0157910
667.795	0.0157822
667.873	0.0159370
667.951	0.0156269
668.030	0.0155555
668.108	0.0155904
668.186	0.0153902
668.264	0.0153450
668.342	0.0154305
668.420	0.0153329
668.498	0.0152280
668.576	0.0151822
668.655	0.0152808
668.733	0.0150920
668.811	0.0152092
668.889	0.0152069
668.967	0.0152568
669.045	0.0151231
669.123	0.0152421
669.201	0.0153709
669.280	0.0155959
669.358	0.0156757
669.436	0.0157713
669.514	0.0159130
669.592	0.0158319
669.670	0.0159797
669.748	0.0160987
669.826	0.0160325
669.905	0.0160275
669.983	0.0160497
670.061	0.0160965
670.139	0.0160527
670.217	0.0159528
670.295	0.0159488
670.373	0.0158189
670.451	0.0157222
670.530	0.0156398
670.608	0.0158157
670.686	0.0155827
670.764	0.0156261
670.842	0.0156433
670.920	0.0156733
670.998	0.0157079
671.076	0.0155802
671.155	0.0155847
671.233	0.0156691
671.311	0.0156835
671.389	0.0157362
671.467	0.0158088
671.545	0.0157122
671.623	0.0156872
671.701	0.0157385
671.780	0.0158080
671.858	0.0158295
671.936	0.0157637
672.014	0.0157486
672.092	0.0158044
672.170	0.0157662
672.248	0.0157674
672.326	0.0158250
672.405	0.0157680
672.483	0.0154691
672.561	0.0154659
672.639	0.0155074
672.717	0.0154964
672.795	0.0154017
672.873	0.0153337
672.951	0.0152515
673.030	0.0151980
673.108	0.0153093
673.186	0.0151234
673.264	0.0151308
673.342	0.0150220
673.420	0.0150673
673.498	0.0152106
673.576	0.0151082
673.655	0.0150969
673.733	0.0152501
673.811	0.0151912
673.889	0.0151003
673.967	0.0152614
674.045	0.0152525
674.123	0.0151811
674.201	0.0152570
674.280	0.0152402
674.358	0.0152645
674.436	0.0152676
674.514	0.0152884
674.592	0.0152183
674.670	0.0151530
674.748	0.0152711
674.826	0.0152066
674.905	0.0152611
674.983	0.0152638
675.061	0.0151335
675.139	0.0152760
675.217	0.0151601
675.295	0.0151945
675.373	0.0152398
675.451	0.0152878
675.530	0.0152086
675.608	0.0153214
675.686	0.0152954
675.764	0.0153890
675.842	0.0153408
675.920	0.0153645
675.998	0.0153919
676.076	0.0153928
676.155	0.0154462
676.233	0.0153735
676.311	0.0154377
676.389	0.0155104
676.467	0.0156844
676.545	0.0156083
676.623	0.0157570
676.701	0.0157609
676.780	0.0157845
676.858	0.0159121
676.936	0.0159798
677.014	0.0158845
677.092	0.0160532
677.170	0.0161024
677.248	0.0161460
677.326	0.0161772
677.405	0.0161633
677.483	0.0161971
677.561	0.0162379
677.639	0.0160335
677.717	0.0159969
677.795	0.0158589
677.873	0.0157130
677.951	0.0157422
678.030	0.0156785
678.108	0.0156773
678.186	0.0156444
678.264	0.0155894
678.342	0.0154039
678.420	0.0154116
678.498	0.0154199
678.576	0.0152975
678.655	0.0151336
678.733	0.0152902
678.811	0.0150406
678.889	0.0151069
678.967	0.0151611
679.045	0.0151311
679.123	0.0152992
679.201	0.0153028
679.280	0.0153762
679.358	0.0154668
679.436	0.0155566
679.514	0.0156742
679.592	0.0158811
679.670	0.0159167
679.748	0.0162295
679.826	0.0163364
679.905	0.0165060
679.983	0.0165753
680.061	0.0166822
680.139	0.0165860
680.217	0.0167018
680.295	0.0166634
680.373	0.0167091
680.451	0.0167604
680.530	0.0167086
680.608	0.0164875
680.686	0.0164754
680.764	0.0162666
680.842	0.0162544
680.920	0.0159693
680.998	0.0158807
681.076	0.0156729
681.155	0.0155252
681.233	0.0154043
681.311	0.0151883
681.389	0.0150290
681.467	0.0148849
681.545	0.0146086
681.623	0.0145570
681.701	0.0144592
681.780	0.0142538
681.858	0.0143434
681.936	0.0142413
682.014	0.0142747
682.092	0.0143358
682.170	0.0143176
682.248	0.0144353
682.326	0.0146454
682.405	0.0146722
682.483	0.0148242
682.561	0.0148861
682.639	0.0150845
682.717	0.0152901
682.795	0.0153921
682.873	0.0155360
682.951	0.0157426
683.030	0.0157154
683.108	0.0157233
683.186	0.0158573
683.264	0.0160017
683.342	0.0159286
683.420	0.0160762
683.498	0.0161135
683.576	0.0160044
683.655	0.0160809
683.733	0.0160266
683.811	0.0160016
683.889	0.0161124
683.967	0.0160131
684.045	0.0159100
684.123	0.0157818
684.201	0.0157265
684.280	0.0156667
684.358	0.0154732
684.436	0.0154569
684.514	0.0155270
684.592	0.0152554
684.670	0.0149789
684.748	0.0150581
684.826	0.0150793
684.905	0.0150122
684.983	0.0149085
685.061	0.0150550
685.139	0.0150077
685.217	0.0150736
685.295	0.0150404
685.373	0.0150174
685.451	0.0152492
685.530	0.0154707
685.608	0.0154115
685.686	0.0154355
685.764	0.0154867
685.842	0.0156518
685.920	0.0159226
685.998	0.0156806
686.076	0.0158411
686.155	0.0160070
686.233	0.0161031
686.311	0.0161842
686.389	0.0163027
686.467	0.0163657
686.545	0.0165025
686.623	0.0166039
686.701	0.0166005
686.780	0.0165834
686.858	0.0165273
686.936	0.0164924
687.014	0.0165040
687.092	0.0165044
687.170	0.0164175
687.248	0.0162566
687.326	0.0160900
687.405	0.0160262
687.483	0.0158893
687.561	0.0156543
687.639	0.0154662
687.717	0.0152991
687.795	0.0150816
687.873	0.0148068
687.951	0.0145182
688.030	0.0144691
688.108	0.0143938
688.186	0.0141785
688.264	0.0142658
688.342	0.0142854
688.420	0.0142644
688.498	0.0141988
688.576	0.0145171
688.655	0.0144589
688.733	0.0145584
688.811	0.0148152
688.889	0.0150217
688.967	0.0151488
689.045	0.0153030
689.123	0.0155332
689.201	0.0158047
689.280	0.0159104
689.358	0.0161718
689.436	0.0164260
689.514	0.0165119
689.592	0.0165251
689.670	0.0167902
689.748	0.0166976
689.826	0.0167780
689.905	0.0166986
689.983	0.0168391
690.061	0.0166046
690.139	0.0164335
690.217	0.0164318
690.295	0.0161523
690.373	0.0158824
690.451	0.0157528
690.530	0.0156274
690.608	0.0153584
690.686	0.0151784
690.764	0.0151307
690.842	0.0151480
690.920	0.0149656
690.998	0.0149103
691.076	0.0149787
691.155	0.0150667
691.233	0.0151285
691.311	0.0152444
691.389	0.0151746
691.467	0.0151889
691.545	0.0152415
691.623	0.0153013
691.701	0.0151901
691.780	0.0153841
691.858	0.0153291
691.936	0.0151370
692.014	0.0150572
692.092	0.0151553
692.170	0.0151211
692.248	0.0151342
692.326	0.0152325
692.405	0.0150419
692.483	0.0151284
692.561	0.0151746
692.639	0.0152665
692.717	0.0153683
692.795	0.0154468
692.873	0.0155601
692.951	0.0156367
693.030	0.0156294
693.108	0.0158685
693.186	0.0159867
693.264	0.0158482
693.342	0.0158290
693.420	0.0159816
693.498	0.0160110
693.576	0.0159436
693.655	0.0159288
693.733	0.0158984
693.811	0.0158730
693.889	0.0157108
693.967	0.0157417
694.045	0.0157529
694.123	0.0157334
694.201	0.0156281
694.280	0.0155633
694.358	0.0153563
694.436	0.0154800
694.514	0.0154594
694.592	0.0153973
694.670	0.0152761
694.748	0.0153226
694.826	0.0153760
694.905	0.0153108
694.983	0.0154298
695.061	0.0153549
695.139	0.0154063
695.217	0.0153699
695.295	0.0155048
695.373	0.0153568
695.451	0.0154284
695.530	0.0152991
695.608	0.0152984
695.686	0.0151268
695.764	0.0149834
695.842	0.0148753
695.920	0.0148198
695.998	0.0147740
696.076	0.0146774
696.155	0.0147425
696.233	0.0145782
696.311	0.0147529
696.389	0.0148236
696.467	0.0148120
696.545	0.0147826
696.623	0.0149114
696.701	0.0149755
696.780	0.0150668
696.858	0.0153876
696.936	0.0155064
697.014	0.0156666
697.092	0.0157335
697.170	0.0158565
697.248	0.0161228
697.326	0.0161574
697.405	0.0162088
697.483	0.0164670
697.561	0.0163770
697.639	0.0163518
697.717	0.0164462
697.795	0.0164661
697.873	0.0164530
697.951	0.0166743
698.030	0.0165971
698.108	0.0164378
698.186	0.0165473
698.264	0.0165071
698.342	0.0163708
698.420	0.0164146
698.498	0.0163466
698.576	0.0162846
698.655	0.0161907
698.733	0.0160168
698.811	0.0160132
698.889	0.0158902
698.967	0.0156427
699.045	0.0155073
699.123	0.0153953
699.201	0.0153441
699.280	0.0152025
699.358	0.0151717
699.436	0.0151105
699.514	0.0148976
699.592	0.0148278
699.670	0.0148351
699.748	0.0148792
699.826	0.0148450
699.905	0.0147952
699.983	0.0148833
700.061	0.0149441
700.139	0.0149749
700.217	0.0150074
700.295	0.0151703
700.373	0.0152898
700.451	0.0154058
700.530	0.0154403
700.608	0.0154329
700.686	0.0155016
700.764	0.0155208
700.842	0.0158235
700.920	0.0156553
700.998	0.0157232
701.076	0.0158300
701.155	0.0158697
701.233	0.0158595
701.311	0.0158294
701.389	0.0157881
701.467	0.0158340
701.545	0.0157993
701.623	0.0156615
701.701	0.0155766
701.780	0.0155450
701.858	0.0154870
701.936	0.0154685
702.014	0.0152424
702.092	0.0153796
702.170	0.0152554
702.248	0.0152250
702.326	0.0151975
702.405	0.0152113
702.483	0.0151254
702.561	0.0151250
702.639	0.0152225
702.717	0.0151937
702.795	0.0150642
702.873	0.0151555
702.951	0.0151950
703.030	0.0150119
703.108	0.0150179
703.186	0.0152284
703.264	0.0151936
703.342	0.0151548
703.420	0.0154073
703.498	0.0152766
703.576	0.0153743
703.655	0.0155105
703.733	0.0156271
703.811	0.0159016
703.889	0.0160081
703.967	0.0163957
704.045	0.0163531
704.123	0.0163300
704.201	0.0163507
704.280	0.0164921
704.358	0.0166128
704.436	0.0165201
704.514	0.0166009
704.592	0.0165315
704.670	0.0166297
704.748	0.0165495
704.826	0.0164334
704.905	0.0164575
704.983	0.0164196
705.061	0.0164625
705.139	0.0163465
705.217	0.0163776
705.295	0.0164184
705.373	0.0163087
705.451	0.0162251
705.530	0.0161952
705.608	0.0161151
705.686	0.0159161
705.764	0.0158653
705.842	0.0159330
705.920	0.0157253
705.998	0.0155685
706.076	0.0156685
706.155	0.0154166
706.233	0.0154137
706.311	0.0152277
706.389	0.0150208
706.467	0.0149133
706.545	0.0146540
706.623	0.0145451
706.701	0.0145786
706.780	0.0145210
706.858	0.0143469
706.936	0.0144141
707.014	0.0142207
707.092	0.0142518
707.170	0.0141444
707.248	0.0141901
707.326	0.0143999
707.405	0.0144466
707.483	0.0144023
707.561	0.0144616
707.639	0.0144846
707.717	0.0146252
707.795	0.0150262
707.873	0.0151945
707.951	0.0153777
708.030	0.0155299
708.108	0.0155391
708.186	0.0156611
708.264	0.0159550
708.342	0.0159792
708.420	0.0161075
708.498	0.0161782
708.576	0.0161657
708.655	0.0160496
708.733	0.0162018
708.811	0.0162096
708.889	0.0162438
708.967	0.0162810
709.045	0.0162917
709.123	0.0160624
709.201	0.0161564
709.280	0.0161893
709.358	0.0161265
709.436	0.0158696
709.514	0.0160583
709.592	0.0160415
709.670	0.0160372
709.748	0.0160136
709.826	0.0159876
709.905	0.0158320
709.983	0.0159373
710.061	0.0159238
710.139	0.0157847
710.217	0.0156567
710.295	0.0158380
710.373	0.0157703
710.451	0.0156087
710.530	0.0155896
710.608	0.0157697
710.686	0.0157600
710.764	0.0157060
710.842	0.0157700
710.920	0.0157197
710.998	0.0158377
711.076	0.0158844
711.155	0.0158910
711.233	0.0157967
711.311	0.0157704
711.389	0.0156945
711.467	0.0157802
711.545	0.0157388
711.623	0.0156213
711.701	0.0156086
711.780	0.0155618
711.858	0.0155544
711.936	0.0153673
712.014	0.0153944
712.092	0.0152504
712.170	0.0152490
712.248	0.0153966
712.326	0.0152300
712.405	0.0151221
712.483	0.0151192
712.561	0.0150034
712.639	0.0150597
712.717	0.0149933
712.795	0.0150124
712.873	0.0150214
712.951	0.0150464
713.030	0.0151270
713.108	0.0152209
713.186	0.0151797
713.264	0.0152955
713.342	0.0152813
713.420	0.0151665
713.498	0.0151530
713.576	0.0152703
713.655	0.0154085
713.733	0.0152303
713.811	0.0150358
713.889	0.0150749
713.967	0.0150906
714.045	0.0150979
714.123	0.0148467
714.201	0.0150644
714.280	0.0151876
714.358	0.0152559
714.436	0.0150808
714.514	0.0153132
714.592	0.0153801
714.670	0.0154144
714.748	0.0154216
714.826	0.0156834
714.905	0.0156929
714.983	0.0157892
715.061	0.0160055
715.139	0.0161725
715.217	0.0161454
715.295	0.0161639
715.373	0.0163204
715.451	0.0163008
715.530	0.0163197
715.608	0.0163830
715.686	0.0162808
715.764	0.0162122
715.842	0.0161697
715.920	0.0159342
715.998	0.0159396
716.076	0.0157645
716.155	0.0157952
716.233	0.0155666
716.311	0.0153577
716.389	0.0152396
716.467	0.0151949
716.545	0.0150420
716.623	0.0149689
716.701	0.0147027
716.780	0.0146490
716.858	0.0145156
716.936	0.0145977
717.014	0.0145296
717.092	0.0144193
717.170	0.0144708
717.248	0.0144772
717.326	0.0146883
717.405	0.0146874
717.483	0.0146686
717.561	0.0147298
717.639	0.0148962
717.717	0.0150227
717.795	0.0150700
717.873	0.0152910
717.951	0.0153928
718.030	0.0153832
718.108	0.0153841
718.186	0.0155813
718.264	0.0156327
718.342	0.0157693
718.420	0.0156857
718.498	0.0157850
718.576	0.0159278
718.655	0.0158598
718.733	0.0159114
718.811	0.0158252
718.889	0.0159842
718.967	0.0160571
719.045	0.0160458
719.123	0.0161527
719.201	0.0160279
719.280	0.0159976
719.358	0.0161275
719.436	0.0162378
719.514	0.0163744
719.592	0.0162362
719.670	0.0163039
719.748	0.0162221
719.826	0.0163451
719.905	0.0161938
719.983	0.0161620
720.061	0.0162241
720.139	0.0161315
720.217	0.0159534
720.295	0.0158416
720.373	0.0160901
720.451	0.0160144
720.530	0.0159428
720.608	0.0157447
720.686	0.0157291
720.764	0.0157302
720.842	0.0155537
720.920	0.0154771
720.998	0.0152367
721.076	0.0151694
721.155	0.0150091
721.233	0.0147897
721.311	0.0147690
721.389	0.0145609
721.467	0.0144882
721.545	0.0144353
721.623	0.0144284
721.701	0.0145285
721.780	0.0143386
721.858	0.0145827
721.936	0.0146093
722.014	0.0146151
722.092	0.0147263
722.170	0.0148136
722.248	0.0147919
722.326	0.0149649
722.405	0.0150917
722.483	0.0152193
722.561	0.0153093
722.639	0.0154742
722.717	0.0154817
722.795	0.0157003
722.873	0.0157800
722.951	0.0156401
723.030	0.0158067
723.108	0.0158099
723.186	0.0157553
723.264	0.0157018
723.342	0.0157375
723.420	0.0157576
723.498	0.0156862
723.576	0.0154864
723.655	0.0152620
723.733	0.0151750
723.811	0.0150519
723.889	0.0150687
723.967	0.0149159
724.045	0.0148483
724.123	0.0147481
724.201	0.0146516
724.280	0.0147416
724.358	0.0147302
724.436	0.0147630
724.514	0.0148274
724.592	0.0151041
724.670	0.0151134
724.748	0.0152047
724.826	0.0153699
724.905	0.0154757
724.983	0.0157918
725.061	0.0158514
725.139	0.0160146
725.217	0.0162828
725.295	0.0163968
725.373	0.0163874
725.451	0.0166101
725.530	0.0167666
725.608	0.0166698
725.686	0.0167089
725.764	0.0166290
725.842	0.0166792
725.920	0.0168286
725.998	0.0167657
726.076	0.0167873
726.155	0.0168523
726.233	0.0165893
726.311	0.0167806
726.389	0.0168237
726.467	0.0167809
726.545	0.0167399
726.623	0.0169261
726.701	0.0167967
726.780	0.0166266
726.858	0.0166921
726.936	0.0166492
727.014	0.0164545
727.092	0.0163323
727.170	0.0162323
727.248	0.0160480
727.326	0.0158973
727.405	0.0156314
727.483	0.0156187
727.561	0.0155605
727.639	0.0152112
727.717	0.0149818
727.795	0.0149577
727.873	0.0148000
727.951	0.0146060
728.030	0.0144017
728.108	0.0142656
728.186	0.0141806
728.264	0.0141407
728.342	0.0140610
728.420	0.0139141
728.498	0.0139071
728.576	0.0138794
728.655	0.0139971
728.733	0.0139095
728.811	0.0139815
728.889	0.0140743
728.967	0.0141978
729.045	0.0143288
729.123	0.0143643
729.201	0.0144672
729.280	0.0144899
729.358	0.0145236
729.436	0.0149570
729.514	0.0149703
729.592	0.0149496
729.670	0.0151977
729.748	0.0152753
729.826	0.0152729
729.905	0.0153687
729.983	0.0155432
730.061	0.0156693
730.139	0.0158389
730.217	0.0158289
730.295	0.0160001
730.373	0.0160428
730.451	0.0161800
730.530	0.0162304
730.608	0.0163664
730.686	0.0163931
730.764	0.0164272
730.842	0.0165617
730.920	0.0167542
730.998	0.0166485
731.076	0.0166347
731.155	0.0167205
731.233	0.0166432
731.311	0.0164941
731.389	0.0164536
731.467	0.0164359
731.545	0.0163341
731.623	0.0161967
731.701	0.0161106
731.780	0.0159846
731.858	0.0157246
731.936	0.0156629
732.014	0.0156037
732.092	0.0154441
732.170	0.0153809
732.248	0.0152464
732.326	0.0152025
732.405	0.0150379
732.483	0.0150348
732.561	0.0151019
732.639	0.0149870
732.717	0.0151868
732.795	0.0154144
732.873	0.0155725
732.951	0.0157655
733.030	0.0158606
733.108	0.0158434
733.186	0.0162292
733.264	0.0163923
733.342	0.0165201
733.420	0.0167042
733.498	0.0169508
733.576	0.0168959
733.655	0.0170052
733.733	0.0169282
733.811	0.0169330
733.889	0.0168967
733.967	0.0168995
734.045	0.0167123
734.123	0.0165175
734.201	0.0164432
734.280	0.0163065
734.358	0.0160669
734.436	0.0159518
734.514	0.0156514
734.592	0.0156815
734.670	0.0153660
734.748	0.0150598
734.826	0.0150925
734.905	0.0149241
734.983	0.0147852
735.061	0.0145032
735.139	0.0145134
735.217	0.0145551
735.295	0.0143233
735.373	0.0144462
735.451	0.0142162
735.530	0.0141881
735.608	0.0139723
735.686	0.0140363
735.764	0.0140929
735.842	0.0140717
735.920	0.0140248
735.998	0.0139409
736.076	0.0140225
736.155	0.0141391
736.233	0.0141442
736.311	0.0142229
736.389	0.0142504
736.467	0.0141901
736.545	0.0143983
736.623	0.0144093
736.701	0.0145617
736.780	0.0144784
736.858	0.0144344
736.936	0.0146375
737.014	0.0149074
737.092	0.0148074
737.170	0.0148939
737.248	0.0150896
737.326	0.0152802
737.405	0.0154470
737.483	0.0154053
737.561	0.0155737
737.639	0.0156441
737.717	0.0159698
737.795	0.0161182
737.873	0.0163516
737.951	0.0164776
738.030	0.0166110
738.108	0.0168311
738.186	0.0171602
738.264	0.0172040
738.342	0.0172518
738.420	0.0175469
738.498	0.0175124
738.576	0.0176394
738.655	0.0176780
738.733	0.0174635
738.811	0.0174172
738.889	0.0174374
738.967	0.0172952
739.045	0.0168180
739.123	0.0165981
739.201	0.0164162
739.280	0.0161320
739.358	0.0155389
739.436	0.0153204
739.514	0.0149166
739.592	0.0149212
739.670	0.0145386
739.748	0.0144628
739.826	0.0141468
739.905	0.0139407
739.983	0.0140494
740.061	0.0142873
740.139	0.0143237
740.217	0.0145409
740.295	0.0146384
740.373	0.0147884
740.451	0.0148962
740.530	0.0153708
740.608	0.0155071
740.686	0.0158412
740.764	0.0160171
740.842	0.0161901
740.920	0.0163813
740.998	0.0165259
741.076	0.0166667
741.155	0.0167278
741.233	0.0169799
741.311	0.0167823
741.389	0.0167883
741.467	0.0168104
741.545	0.0166711
741.623	0.0166017
741.701	0.0163441
741.780	0.0161634
741.858	0.0160539
741.936	0.0156627
742.014	0.0155340
742.092	0.0153468
742.170	0.0150988
742.248	0.0151730
742.326	0.0149915
742.405	0.0149068
742.483	0.0148267
742.561	0.0147033
742.639	0.0147488
742.717	0.0146820
742.795	0.0147173
742.873	0.0146737
742.951	0.0145432
743.030	0.0145660
743.108	0.0144681
743.186	0.0145694
743.264	0.0144427
743.342	0.0143166
743.420	0.0142292
743.498	0.0142614
743.576	0.0142827
743.655	0.0142716
743.733	0.0141272
743.811	0.0142393
743.889	0.0143119
743.967	0.0143041
744.045	0.0143030
744.123	0.0143317
744.201	0.0145019
744.280	0.0145245
744.358	0.0146725
744.436	0.0148302
744.514	0.0149745
744.592	0.0150761
744.670	0.0149517
744.748	0.0152493
744.826	0.0154297
744.905	0.0156091
744.983	0.0156238
745.061	0.0157073
745.139	0.0158747
745.217	0.0161781
745.295	0.0162949
745.373	0.0163612
745.451	0.0166146
745.530	0.0166482
745.608	0.0167831
745.686	0.0168681
745.764	0.0170261
745.842	0.0172602
745.920	0.0174341
745.998	0.0173582
746.076	0.0175233
746.155	0.0175405
746.233	0.0176286
746.311	0.0176122
746.389	0.0174394
746.467	0.0173494
746.545	0.0173992
746.623	0.0171925
746.701	0.0168909
746.780	0.0167262
746.858	0.0163668
746.936	0.0161535
747.014	0.0159349
747.092	0.0154515
747.170	0.0151226
747.248	0.0148230
747.326	0.0146899
747.405	0.0143790
747.483	0.0142200
747.561	0.0139641
747.639	0.0139481
747.717	0.0139342
747.795	0.0138049
747.873	0.0139486
747.951	0.0140936
748.030	0.0140814
748.108	0.0145467
748.186	0.0147473
748.264	0.0148553
748.342	0.0153159
748.420	0.0155127
748.498	0.0159291
748.576	0.0161436
748.655	0.0161736
748.733	0.0165947
748.811	0.0168071
748.889	0.0168354
748.967	0.0170039
749.045	0.0170613
749.123	0.0170609
749.201	0.0169052
749.280	0.0167186
749.358	0.0166271
749.436	0.0165581
749.514	0.0163933
749.592	0.0160777
749.670	0.0158027
749.748	0.0154968
749.826	0.0153017
749.905	0.0151628
749.983	0.0148772
750.061	0.0145856
750.139	0.0145688
750.217	0.0142007
750.295	0.0141956
750.373	0.0141353
750.451	0.0141624
750.530	0.0141120
750.608	0.0142015
750.686	0.0143110
750.764	0.0142850
750.842	0.0143488
750.920	0.0145724
750.998	0.0145938
751.076	0.0147279
751.155	0.0147942
751.233	0.0148277
751.311	0.0149108
751.389	0.0148594
751.467	0.0149088
751.545	0.0148146
751.623	0.0149783
751.701	0.0148211
751.780	0.0148175
751.858	0.0149599
751.936	0.0150139
752.014	0.0150603
752.092	0.0148667
752.170	0.0149199
752.248	0.0150596
752.326	0.0150810
752.405	0.0152180
752.483	0.0153413
752.561	0.0155547
752.639	0.0157381
752.717	0.0157658
752.795	0.0157501
752.873	0.0159593
752.951	0.0162158
753.030	0.0163264
753.108	0.0165240
753.186	0.0166812
753.264	0.0168060
753.342	0.0167726
753.420	0.0170784
753.498	0.0170492
753.576	0.0170842
753.655	0.0172060
753.733	0.0172267
753.811	0.0174170
753.889	0.0173841
753.967	0.0174882
754.045	0.0173313
754.123	0.0174071
754.201	0.0171726
754.280	0.0171599
754.358	0.0171530
754.436	0.0167512
754.514	0.0166311
754.592	0.0163697
754.670	0.0161720
754.748	0.0159198
754.826	0.0156252
754.905	0.0151579
754.983	0.0150437
755.061	0.0145478
755.139	0.0143501
755.217	0.0141549
755.295	0.0138800
755.373	0.0139349
755.451	0.0138093
755.530	0.0137897
755.608	0.0138347
755.686	0.0139251
755.764	0.0140195
755.842	0.0143214
755.920	0.0146153
755.998	0.0147708
756.076	0.0150273
756.155	0.0153613
756.233	0.0157277
756.311	0.0160005
756.389	0.0161422
756.467	0.0165031
756.545	0.0165302
756.623	0.0168269
756.701	0.0169672
756.780	0.0168133
756.858	0.0168494
756.936	0.0167329
757.014	0.0166041
757.092	0.0165316
757.170	0.0163540
757.248	0.0161003
757.326	0.0157291
757.405	0.0154571
757.483	0.0152560
757.561	0.0149461
757.639	0.0146526
757.717	0.0144377
757.795	0.0142783
757.873	0.0141146
757.951	0.0141447
758.030	0.0139841
758.108	0.0139963
758.186	0.0140311
758.264	0.0139755
758.342	0.0141792
758.420	0.0143224
758.498	0.0144604
758.576	0.0147062
758.655	0.0147282
758.733	0.0148716
758.811	0.0151112
758.889	0.0151803
758.967	0.0150719
759.045	0.0153216
759.123	0.0153196
759.201	0.0152541
759.280	0.0153112
759.358	0.0153502
759.436	0.0153463
759.514	0.0152816
759.592	0.0151992
759.670	0.0152308
759.748	0.0152185
759.826	0.0153386
759.905	0.0152036
759.983	0.0153360
760.061	0.0152388
760.139	0.0154543
760.217	0.0154792
760.295	0.0154935
760.373	0.0156137
760.451	0.0158479
760.530	0.0159261
760.608	0.0159794
760.686	0.0161423
760.764	0.0161962
760.842	0.0162530
760.920	0.0164886
760.998	0.0165260
761.076	0.0164631
761.155	0.0167091
761.233	0.0166755
761.311	0.0166840
761.389	0.0168259
761.467	0.0167192
761.545	0.0168195
761.623	0.0168225
761.701	0.0166961
761.780	0.0167623
761.858	0.0168162
761.936	0.0166610
762.014	0.0167838
762.092	0.0165156
762.170	0.0164725
762.248	0.0164123
762.326	0.0164442
762.405	0.0162786
762.483	0.0158979
762.561	0.0158878
762.639	0.0156393
762.717	0.0153723
762.795	0.0151725
762.873	0.0150179
762.951	0.0147446
763.030	0.0145759
763.108	0.0142744
763.186	0.0141529
763.264	0.0141677
763.342	0.0140854
763.420	0.0139985
763.498	0.0141084
763.576	0.0143589
763.655	0.0143861
763.733	0.0146477
763.811	0.0149043
763.889	0.0152234
763.967	0.0153960
764.045	0.0157421
764.123	0.0160233
764.201	0.0161619
764.280	0.0164286
764.358	0.0165319
764.436	0.0164910
764.514	0.0167613
764.592	0.0166261
764.670	0.0167328
764.748	0.0165364
764.826	0.0165195
764.905	0.0163148
764.983	0.0160706
765.061	0.0158549
765.139	0.0155753
765.217	0.0153406
765.295	0.0150268
765.373	0.0149129
765.451	0.0146939
765.530	0.0144896
765.608	0.0143156
765.686	0.0141728
765.764	0.0140189
765.842	0.0140812
765.920	0.0142339
765.998	0.0141447
766.076	0.0143735
766.155	0.0144602
766.233	0.0144852
766.311	0.0144986
766.389	0.0149298
766.467	0.0151732
766.545	0.0154818
766.623	0.0154305
766.701	0.0155727
766.780	0.0157597
766.858	0.0157269
766.936	0.0158549
767.014	0.0158936
767.092	0.0158295
767.170	0.0156805
767.248	0.0157396
767.326	0.0155846
767.405	0.0155299
767.483	0.0154767
767.561	0.0154437
767.639	0.0154425
767.717	0.0155230
767.795	0.0155538
767.873	0.0154846
767.951	0.0154211
768.030	0.0155337
768.108	0.0156084
768.186	0.0157109
768.264	0.0158282
768.342	0.0159601
768.420	0.0159631
768.498	0.0162224
768.576	0.0161517
768.655	0.0162350
768.733	0.0163344
768.811	0.0163311
768.889	0.0163788
768.967	0.0165289
769.045	0.0163806
769.123	0.0166499
769.201	0.0164774
769.280	0.0165942
769.358	0.0165473
769.436	0.0165864
769.514	0.0165594
769.592	0.0164264
769.670	0.0164966
769.748	0.0164767
769.826	0.0164600
769.905	0.0164205
769.983	0.0162856
770.061	0.0163503
770.139	0.0162561
770.217	0.0162345
770.295	0.0160069
770.373	0.0158907
770.451	0.0158135
770.530	0.0157017
770.608	0.0155259
770.686	0.0152304
770.764	0.0152341
770.842	0.0150207
770.920	0.0148911
770.998	0.0147591
771.076	0.0145985
771.155	0.0145544
771.233	0.0144773
771.311	0.0145616
771.389	0.0146003
771.467	0.0146519
771.545	0.0148610
771.623	0.0149706
771.701	0.0150729
771.780	0.0152444
771.858	0.0155093
771.936	0.0157791
772.014	0.0158571
772.092	0.0158829
772.170	0.0159744
772.248	0.0161342
772.326	0.0161153
772.405	0.0161790
772.483	0.0159692
772.561	0.0160662
772.639	0.0159480
772.717	0.0156829
772.795	0.0157017
772.873	0.0154502
772.951	0.0153161
773.030	0.0150850
773.108	0.0150367
773.186	0.0148636
773.264	0.0145619
773.342	0.0144891
773.420	0.0144376
773.498	0.0141537
773.576	0.0143932
773.655	0.0140470
773.733	0.0141714
773.811	0.0143531
773.889	0.0144492
773.967	0.0145506
774.045	0.0146641
774.123	0.0147310
774.201	0.0148396
774.280	0.0152309
774.358	0.0153593
774.436	0.0153578
774.514	0.0154862
774.592	0.0156290
774.670	0.0157066
774.748	0.0155540
774.826	0.0157088
774.905	0.0157314
774.983	0.0156085
775.061	0.0155177
775.139	0.0156188
775.217	0.0154777
775.295	0.0154997
775.373	0.0154701
775.451	0.0153540
775.530	0.0153559
775.608	0.0154691
775.686	0.0154752
775.764	0.0155701
775.842	0.0154846
775.920	0.0155972
775.998	0.0156522
776.076	0.0156624
776.155	0.0159650
776.233	0.0159288
776.311	0.0159551
776.389	0.0161873
776.467	0.0161350
776.545	0.0161199
776.623	0.0164953
776.701	0.0162700
776.780	0.0163298
776.858	0.0163290
776.936	0.0163408
777.014	0.0162780
777.092	0.0163357
777.170	0.0162674
777.248	0.0162755
777.326	0.0161316
777.405	0.0161961
777.483	0.0161306
777.561	0.0161887
777.639	0.0161266
777.717	0.0161535
777.795	0.0161315
777.873	0.0160336
777.951	0.0159110
778.030	0.0159388
778.108	0.0157549
778.186	0.0157217
778.264	0.0156812
778.342	0.0156283
778.420	0.0154914
778.498	0.0152688
778.576	0.0153352
778.655	0.0152017
778.733	0.0150317
778.811	0.0149678
778.889	0.0147421
778.967	0.0147132
779.045	0.0148232
779.123	0.0146141
779.201	0.0145450
779.280	0.0145901
779.358	0.0145908
779.436	0.0146885
779.514	0.0148529
779.592	0.0149071
779.670	0.0150704
779.748	0.0153106
779.826	0.0153972
779.905	0.0156496
779.983	0.0156254
780.061	0.0157112
780.139	0.0157461
780.217	0.0159324
780.295	0.0160513
780.373	0.0159113
780.451	0.0157636
780.530	0.0157460
780.608	0.0157568
780.686	0.0155479
780.764	0.0154098
780.842	0.0152198
780.920	0.0150726
780.998	0.0149777
781.076	0.0148374
781.155	0.0147938
781.233	0.0146561
781.311	0.0145434
781.389	0.0146835
781.467	0.0145836
781.545	0.0144071
781.623	0.0145197
781.701	0.0145629
781.780	0.0147200
781.858	0.0148739
781.936	0.0149953
782.014	0.0151247
782.092	0.0153044
782.170	0.0153432
782.248	0.0154787
782.326	0.0155531
782.405	0.0157143
782.483	0.0157489
782.561	0.0157338
782.639	0.0157230
782.717	0.0157841
782.795	0.0156303
782.873	0.0156020
782.951	0.0157561
783.030	0.0156297
783.108	0.0155807
783.186	0.0157543
783.264	0.0156493
783.342	0.0156199
783.420	0.0156107
783.498	0.0157537
783.576	0.0156891
783.655	0.0157242
783.733	0.0159110
783.811	0.0157422
783.889	0.0159868
783.967	0.0160925
784.045	0.0160276
784.123	0.0161964
784.201	0.0162836
784.280	0.0162643
784.358	0.0163321
784.436	0.0162016
784.514	0.0161256
784.592	0.0161724
784.670	0.0161236
784.748	0.0160621
784.826	0.0160652
784.905	0.0159079
784.983	0.0159483
785.061	0.0157738
785.139	0.0156138
785.217	0.0156039
785.295	0.0155805
785.373	0.0156538
785.451	0.0156281
785.530	0.0156205
785.608	0.0156407
785.686	0.0155753
785.764	0.0157281
785.842	0.0159509
785.920	0.0158006
785.998	0.0159373
786.076	0.0157804
786.155	0.0159129
786.233	0.0158566
786.311	0.0158764
786.389	0.0160450
786.467	0.0157150
786.545	0.0156544
786.623	0.0156708
786.701	0.0155420
786.780	0.0154927
786.858	0.0154507
786.936	0.0152623
787.014	0.0152397
787.092	0.0151824
787.170	0.0150865
787.248	0.0151131
787.326	0.0150974
787.405	0.0153082
787.483	0.0152985
787.561	0.0152212
787.639	0.0153030
787.717	0.0153428
787.795	0.0154697
787.873	0.0155029
787.951	0.0155573
788.030	0.0155287
788.108	0.0155895
788.186	0.0155922
788.264	0.0155577
788.342	0.0155418
788.420	0.0154851
788.498	0.0155177
788.576	0.0153372
788.655	0.0153070
788.733	0.0150657
788.811	0.0151185
788.889	0.0151717
788.967	0.0152189
789.045	0.0149589
789.123	0.0148574
789.201	0.0148467
789.280	0.0149524
789.358	0.0148959
789.436	0.0149510
789.514	0.0150777
789.592	0.0150383
789.670	0.0151537
789.748	0.0151840
789.826	0.0152633
789.905	0.0152737
789.983	0.0153320
790.061	0.0153265
790.139	0.0154350
790.217	0.0155498
790.295	0.0155264
790.373	0.0156329
790.451	0.0157158
790.530	0.0156316
790.608	0.0157166
790.686	0.0155828
790.764	0.0156879
790.842	0.0156704
790.920	0.0158237
790.998	0.0156666
791.076	0.0157979
791.155	0.0156689
791.233	0.0158508
791.311	0.0158569
791.389	0.0158434
791.467	0.0158101
791.545	0.0160043
791.623	0.0160923
791.701	0.0160820
791.780	0.0160880
791.858	0.0161661
791.936	0.0162734
792.014	0.0160875
792.092	0.0161285
792.170	0.0162357
792.248	0.0162464
792.326	0.0162032
792.405	0.0161574
792.483	0.0161012
792.561	0.0159875
792.639	0.0160556
792.717	0.0158345
792.795	0.0158850
792.873	0.0156480
792.951	0.0156427
793.030	0.0155517
793.108	0.0153770
793.186	0.0153211
793.264	0.0152637
793.342	0.0154131
793.420	0.0153472
793.498	0.0153867
793.576	0.0154269
793.655	0.0156202
793.733	0.0155083
793.811	0.0157667
793.889	0.0157105
793.967	0.0157052
794.045	0.0157504
794.123	0.0156757
794.201	0.0156066
794.280	0.0157191
794.358	0.0156817
794.436	0.0158549
794.514	0.0155984
794.592	0.0154875
794.670	0.0155281
794.748	0.0156233
794.826	0.0156567
794.905	0.0155331
794.983	0.0155412
795.061	0.0154144
795.139	0.0152202
795.217	0.0153479
795.295	0.0153582
795.373	0.0153521
795.451	0.0153629
795.530	0.0152216
795.608	0.0153754
795.686	0.0154615
795.764	0.0154200
795.842	0.0153088
795.920	0.0154008
795.998	0.0153123
796.076	0.0153854
796.155	0.0153756
796.233	0.0152701
796.311	0.0153207
796.389	0.0153555
796.467	0.0152235
796.545	0.0150883
796.623	0.0152426
796.701	0.0150361
796.780	0.0149787
796.858	0.0149657
796.936	0.0150702
797.014	0.0151192
797.092	0.0149812
797.170	0.0149628
797.248	0.0150889
797.326	0.0150552
797.405	0.0150354
797.483	0.0151899
797.561	0.0151323
797.639	0.0152480
797.717	0.0152122
797.795	0.0153297
797.873	0.0153968
797.951	0.0152087
798.030	0.0153783
798.108	0.0154526
798.186	0.0154868
798.264	0.0153657
798.342	0.0155335
798.420	0.0155695
798.498	0.0156824
798.576	0.0157294
798.655	0.0156602
798.733	0.0156654
798.811	0.0158742
798.889	0.0157104
798.967	0.0158158
799.045	0.0158754
799.123	0.0160468
799.201	0.0158405
799.280	0.0159952
799.358	0.0159290
799.436	0.0159986
799.514	0.0159333
799.592	0.0159255
799.670	0.0162132
799.748	0.0161629
799.826	0.0161345
799.905	0.0160419
799.983	0.0160939
800.061	0.0161880
800.139	0.0162874
800.217	0.0161274
800.295	0.0161691
800.373	0.0161618
800.451	0.0161927
800.530	0.0160345
800.608	0.0158016
800.686	0.0158784
800.764	0.0157158
800.842	0.0156134
800.920	0.0156628
800.998	0.0154472
801.076	0.0155619
801.155	0.0155157
801.233	0.0153703
801.311	0.0153439
801.389	0.0153535
801.467	0.0154169
801.545	0.0153626
801.623	0.0153684
801.701	0.0154910
801.780	0.0156061
801.858	0.0153980
801.936	0.0154410
802.014	0.0155363
802.092	0.0155975
802.170	0.0156265
802.248	0.0156248
802.326	0.0156543
802.405	0.0156367
802.483	0.0155003
802.561	0.0155311
802.639	0.0154246
802.717	0.0155327
802.795	0.0155442
802.873	0.0154323
802.951	0.0154163
803.030	0.0154100
803.108	0.0154115
803.186	0.0153891
803.264	0.0154430
803.342	0.0152723
803.420	0.0152003
803.498	0.0152511
803.576	0.0152744
803.655	0.0151038
803.733	0.0152018
803.811	0.0151618
803.889	0.0151609
803.967	0.0152049
804.045	0.0151499
804.123	0.0151136
804.201	0.0151627
804.280	0.0151786
804.358	0.0151852
804.436	0.0151707
804.514	0.0150892
804.592	0.0150813
804.670	0.0150581
804.748	0.0149849
804.826	0.0152115
804.905	0.0152918
804.983	0.0151974
805.061	0.0150953
805.139	0.0151210
805.217	0.0152848
805.295	0.0152678
805.373	0.0153210
805.451	0.0154120
805.530	0.0153583
805.608	0.0154034
805.686	0.0155334
805.764	0.0154000
805.842	0.0155248
805.920	0.0155872
805.998	0.0155859
806.076	0.0156749
806.155	0.0156391
806.233	0.0156973
806.311	0.0156712
806.389	0.0155920
806.467	0.0156387
806.545	0.0157239
806.623	0.0158172
806.701	0.0157682
806.780	0.0156302
806.858	0.0157912
806.936	0.0158795
807.014	0.0157787
807.092	0.0160290
807.170	0.0158750
807.248	0.0159505
807.326	0.0159004
807.405	0.0160323
807.483	0.0161141
807.561	0.0161092
807.639	0.0160925
807.717	0.0159589
807.795	0.0159456
807.873	0.0160491
807.951	0.0161887
808.030	0.0159972
808.108	0.0159360
808.186	0.0159658
808.264	0.0158551
808.342	0.0158707
808.420	0.0159073
808.498	0.0157013
808.576	0.0156199
808.655	0.0155154
808.733	0.0154906
808.811	0.0153262
808.889	0.0152994
808.967	0.0153326
809.045	0.0152431
809.123	0.0152688
809.201	0.0151060
809.280	0.0151055
809.358	0.0152792
809.436	0.0150756
809.514	0.0151729
809.592	0.0150880
809.670	0.0152927
809.748	0.0152393
809.826	0.0153006
809.905	0.0154391
809.983	0.0152470
810.061	0.0153976
810.139	0.0155153
810.217	0.0154622
810.295	0.0155509
810.373	0.0155437
810.451	0.0155172
810.530	0.0156519
810.608	0.0156528
810.686	0.0155003
810.764	0.0156165
810.842	0.0156954
810.920	0.0157455
810.998	0.0156252
811.076	0.0157558
811.155	0.0156204
811.233	0.0157946
811.311	0.0156876
811.389	0.0156789
811.467	0.0156417
811.545	0.0154671
811.623	0.0156902
811.701	0.0155788
811.780	0.0155997
811.858	0.0155837
811.936	0.0155141
812.014	0.0153114
812.092	0.0154041
812.170	0.0153681
812.248	0.0153031
812.326	0.0152911
812.405	0.0153162
812.483	0.0152621
812.561	0.0151626
812.639	0.0151781
812.717	0.0153133
812.795	0.0152869
812.873	0.0153053
812.951	0.0151536
813.030	0.0153910
813.108	0.0152346
813.186	0.0153961
813.264	0.0152868
813.342	0.0153067
813.420	0.0153994
813.498	0.0153704
813.576	0.0154258
813.655	0.0154750
813.733	0.0153635
813.811	0.0154208
813.889	0.0154296
813.967	0.0153214
814.045	0.0154731
814.123	0.0154358
814.201	0.0154016
814.280	0.0154809
814.358	0.0155837
814.436	0.0154645
814.514	0.0154581
814.592	0.0155068
814.670	0.0154543
814.748	0.0155238
814.826	0.0155611
814.905	0.0155225
814.983	0.0158559
815.061	0.0157983
815.139	0.0156476
815.217	0.0158763
815.295	0.0159220
815.373	0.0158799
815.451	0.0158182
815.530	0.0159562
815.608	0.0158605
815.686	0.0160070
815.764	0.0159480
815.842	0.0160935
815.920	0.0161014
815.998	0.0159421
816.076	0.0159267
816.155	0.0159882
816.233	0.0158954
816.311	0.0159859
816.389	0.0158279
816.467	0.0157227
816.545	0.0157910
816.623	0.0157809
816.701	0.0159808
816.780	0.0156644
816.858	0.0156896
816.936	0.0156697
817.014	0.0155906
817.092	0.0155555
817.170	0.0156165
817.248	0.0154604
817.326	0.0154551
817.405	0.0153112
817.483	0.0153047
817.561	0.0152563
817.639	0.0151793
817.717	0.0150806
817.795	0.0150258
817.873	0.0150719
817.951	0.0149542
818.030	0.0151688
818.108	0.0152070
818.186	0.0148875
818.264	0.0151060
818.342	0.0151860
818.420	0.0152215
818.498	0.0152351
818.576	0.0153529
818.655	0.0153329
818.733	0.0154030
818.811	0.0155416
818.889	0.0156598
818.967	0.0156755
819.045	0.0155727
819.123	0.0157629
819.201	0.0157191
819.280	0.0158085
819.358	0.0158067
819.436	0.0157406
819.514	0.0157735
819.592	0.0157861
819.670	0.0158086
819.748	0.0157318
819.826	0.0156300
819.905	0.0155241
819.983	0.0155419
820.061	0.0153710
820.139	0.0154093
820.217	0.0152108
820.295	0.0152819
820.373	0.0153551
820.451	0.0151823
820.530	0.0151488
820.608	0.0150297
820.686	0.0151062
820.764	0.0151492
820.842	0.0151622
820.920	0.0152908
820.998	0.0152285
821.076	0.0153764
821.155	0.0154263
821.233	0.0155573
821.311	0.0153467
821.389	0.0155115
821.467	0.0156314
821.545	0.0155842
821.623	0.0156462
821.701	0.0156356
821.780	0.0156845
821.858	0.0157823
821.936	0.0156680
822.014	0.0157500
822.092	0.0156776
822.170	0.0156773
822.248	0.0156950
822.326	0.0157051
822.405	0.0157656
822.483	0.0157781
822.561	0.0155644
822.639	0.0156757
822.717	0.0157178
822.795	0.0157426
822.873	0.0157517
822.951	0.0156532
823.030	0.0158409
823.108	0.0158276
823.186	0.0159124
823.264	0.0158446
823.342	0.0159132
823.420	0.0159999
823.498	0.0159584
823.576	0.0161712
823.655	0.0161028
823.733	0.0160085
823.811	0.0158821
823.889	0.0159798
823.967	0.0160180
824.045	0.0158478
824.123	0.0158582
824.201	0.0157769
824.280	0.0158734
824.358	0.0156969
824.436	0.0155898
824.514	0.0157111
824.592	0.0153239
824.670	0.0153703
824.748	0.0155356
824.826	0.0153561
824.905	0.0151733
824.983	0.0153204
825.061	0.0152034
825.139	0.0152015
825.217	0.0151646
825.295	0.0151762
825.373	0.0150800
825.451	0.0151955
825.530	0.0152692
825.608	0.0149590
825.686	0.0149760
825.764	0.0150667
825.842	0.0151900
825.920	0.0150565
825.998	0.0149947
826.076	0.0150324
826.155	0.0151131
826.233	0.0150128
826.311	0.0150801
826.389	0.0152046
826.467	0.0153328
826.545	0.0153846
826.623	0.0153769
826.701	0.0154580
826.780	0.0155647
826.858	0.0158353
826.936	0.0157598
827.014	0.0157825
827.092	0.0160094
827.170	0.0160244
827.248	0.0162161
827.326	0.0161678
827.405	0.0161303
827.483	0.0161945
827.561	0.0159908
827.639	0.0160548
827.717	0.0160600
827.795	0.0158559
827.873	0.0159470
827.951	0.0158911
828.030	0.0156982
828.108	0.0156234
828.186	0.0154002
828.264	0.0153541
828.342	0.0154404
828.420	0.0153385
828.498	0.0151054
828.576	0.0150600
828.655	0.0150225
828.733	0.0150599
828.811	0.0149120
828.889	0.0150312
828.967	0.0150311
829.045	0.0150198
829.123	0.0151804
829.201	0.0151278
829.280	0.0151800
829.358	0.0152425
829.436	0.0152597
829.514	0.0154615
829.592	0.0154234
829.670	0.0154476
829.748	0.0154652
829.826	0.0154092
829.905	0.0155437
829.983	0.0156393
830.061	0.0156185
830.139	0.0156802
830.217	0.0156749
830.295	0.0155278
830.373	0.0156091
830.451	0.0157199
830.530	0.0156692
830.608	0.0155229
830.686	0.0156499
830.764	0.0157738
830.842	0.0155581
830.920	0.0154448
830.998	0.0154787
831.076	0.0156915
831.155	0.0158091
831.233	0.0156980
831.311	0.0157215
831.389	0.0156837
831.467	0.0159592
831.545	0.0159093
831.623	0.0157411
831.701	0.0158729
831.780	0.0159913
831.858	0.0158642
831.936	0.0157886
832.014	0.0159661
832.092	0.0157160
832.170	0.0156467
832.248	0.0157127
832.326	0.0156382
832.405	0.0158137
832.483	0.0155812
832.561	0.0154395
832.639	0.0154047
832.717	0.0154745
832.795	0.0153385
832.873	0.0152612
832.951	0.0151866
833.030	0.0151608
833.108	0.0150834
833.186	0.0150600
833.264	0.0149441
833.342	0.0149358
833.420	0.0151019
833.498	0.0149907
833.576	0.0150021
833.655	0.0150168
833.733	0.0149393
833.811	0.0151205
833.889	0.0150268
833.967	0.0151048
834.045	0.0150967
834.123	0.0151148
834.201	0.0152136
834.280	0.0151543
834.358	0.0152534
834.436	0.0152706
834.514	0.0153144
834.592	0.0155473
834.670	0.0156441
834.748	0.0156212
834.826	0.0156621
834.905	0.0157397
834.983	0.0158946
835.061	0.0159638
835.139	0.0159948
835.217	0.0161702
835.295	0.0160967
835.373	0.0161232
835.451	0.0160468
835.530	0.0160281
835.608	0.0162548
835.686	0.0160960
835.764	0.0159110
835.842	0.0159329
835.920	0.0157417
835.998	0.0156690
836.076	0.0156659
836.155	0.0152860
836.233	0.0153081
836.311	0.0153635
836.389	0.0150977
836.467	0.0150770
836.545	0.0150522
836.623	0.0150481
836.701	0.0151081
836.780	0.0148782
836.858	0.0148086
836.936	0.0149889
837.014	0.0150480
837.092	0.0150916
837.170	0.0152409
837.248	0.0151431
837.326	0.0153033
837.405	0.0153384
837.483	0.0152141
837.561	0.0154773
837.639	0.0154601
837.717	0.0155660
837.795	0.0155389
837.873	0.0156132
837.951	0.0156453
838.030	0.0156512
838.108	0.0155252
838.186	0.0154710
838.264	0.0155997
838.342	0.0154332
838.420	0.0155907
838.498	0.0155300
838.576	0.0155900
838.655	0.0153945
838.733	0.0155854
838.811	0.0154758
838.889	0.0156017
838.967	0.0155779
839.045	0.0155490
839.123	0.0155359
839.201	0.0156483
839.280	0.0155839
839.358	0.0156200
839.436	0.0156947
839.514	0.0156135
839.592	0.0157339
839.670	0.0156345
839.748	0.0157677
839.826	0.0156345
839.905	0.0157910
839.983	0.0158060
840.061	0.0157498
840.139	0.0158526
840.217	0.0156519
840.295	0.0156052
840.373	0.0156192
840.451	0.0156773
840.530	0.0156990
840.608	0.0155084
840.686	0.0154733
840.764	0.0156078
840.842	0.0153529
840.920	0.0155450
840.998	0.0154453
841.076	0.0153814
841.155	0.0154953
841.233	0.0153745
841.311	0.0153549
841.389	0.0155178
841.467	0.0153355
841.545	0.0154873
841.623	0.0154434
841.701	0.0153342
841.780	0.0154272
841.858	0.0153281
841.936	0.0153951
842.014	0.0155059
842.092	0.0154888
842.170	0.0154841
842.248	0.0155141
842.326	0.0155065
842.405	0.0155647
842.483	0.0157026
842.561	0.0157802
842.639	0.0157310
842.717	0.0157907
842.795	0.0157346
842.873	0.0158534
842.951	0.0158457
843.030	0.0160775
843.108	0.0160281
843.186	0.0160281
843.264	0.0160832
843.342	0.0160098
843.420	0.0160361
843.498	0.0160632
843.576	0.0159509
843.655	0.0159751
843.733	0.0157479
843.811	0.0156475
843.889	0.0157413
843.967	0.0157381
844.045	0.0154789
844.123	0.0152651
844.201	0.0153941
844.280	0.0153204
844.358	0.0150586
844.436	0.0152698
844.514	0.0151017
844.592	0.0150380
844.670	0.0149999
844.748	0.0149940
844.826	0.0150375
844.905	0.0151964
844.983	0.0150627
845.061	0.0150261
845.139	0.0150182
845.217	0.0152280
845.295	0.0152110
845.373	0.0152602
845.451	0.0151772
845.530	0.0154491
845.608	0.0154920
845.686	0.0154463
845.764	0.0154882
845.842	0.0155940
845.920	0.0156520
845.998	0.0156669
846.076	0.0157407
846.155	0.0157202
846.233	0.0157240
846.311	0.0158149
846.389	0.0158775
846.467	0.0158994
846.545	0.0158569
846.623	0.0158383
846.701	0.0158054
846.780	0.0157582
846.858	0.0157434
846.936	0.0157407
847.014	0.0156750
847.092	0.0157250
847.170	0.0159196
847.248	0.0158514
847.326	0.0157349
847.405	0.0157494
847.483	0.0157544
847.561	0.0158020
847.639	0.0156949
847.717	0.0157758
847.795	0.0156906
847.873	0.0156731
847.951	0.0157091
848.030	0.0156299
848.108	0.0155479
848.186	0.0155933
848.264	0.0155845
848.342	0.0154301
848.420	0.0153645
848.498	0.0155433
848.576	0.0154552
848.655	0.0155119
848.733	0.0155302
848.811	0.0153658
848.889	0.0153436
848.967	0.0153933
849.045	0.0154134
849.123	0.0152621
849.201	0.0153757
849.280	0.0154157
849.358	0.0153911
849.436	0.0152980
849.514	0.0153204
849.592	0.0153434
849.670	0.0153545
849.748	0.0153654
849.826	0.0152647
849.905	0.0152744
849.983	0.0153010
850.061	0.0152367
850.139	0.0151819
850.217	0.0155051
850.295	0.0152104
850.373	0.0153576
850.451	0.0153946
850.530	0.0155501
850.608	0.0155385
850.686	0.0155130
850.764	0.0156377
850.842	0.0157969
850.920	0.0157846
850.998	0.0156229
851.076	0.0157121
851.155	0.0158882
851.233	0.0160006
851.311	0.0160719
851.389	0.0160056
851.467	0.0158205
851.545	0.0159433
851.623	0.0161056
851.701	0.0159058
851.780	0.0158686
851.858	0.0157595
851.936	0.0157426
852.014	0.0155134
852.092	0.0156207
852.170	0.0154160
852.248	0.0154147
852.326	0.0152065
852.405	0.0153046
852.483	0.0153814
852.561	0.0152545
852.639	0.0150904
852.717	0.0151260
852.795	0.0153037
852.873	0.0152213
852.951	0.0151160
853.030	0.0151865
853.108	0.0152460
853.186	0.0153814
853.264	0.0154355
853.342	0.0153667
853.420	0.0152933
853.498	0.0154424
853.576	0.0154773
853.655	0.0155139
853.733	0.0154431
853.811	0.0155408
853.889	0.0155689
853.967	0.0155733
854.045	0.0153707
854.123	0.0154704
854.201	0.0155104
854.280	0.0154060
854.358	0.0154826
854.436	0.0155342
854.514	0.0154888
854.592	0.0155158
854.670	0.0156412
854.748	0.0154457
854.826	0.0155039
854.905	0.0155038
854.983	0.0155066
855.061	0.0156238
855.139	0.0155505
855.217	0.0156476
855.295	0.0154960
855.373	0.0155967
855.451	0.0156300
855.530	0.0155931
855.608	0.0156482
855.686	0.0155072
855.764	0.0156184
855.842	0.0156189
855.920	0.0156262
855.998	0.0156878
856.076	0.0156839
856.155	0.0156046
856.233	0.0155396
856.311	0.0155450
856.389	0.0156536
856.467	0.0154731
856.545	0.0154523
856.623	0.0155585
856.701	0.0154681
856.780	0.0154974
856.858	0.0154193
856.936	0.0153918
857.014	0.0156044
857.092	0.0155638
857.170	0.0154153
857.248	0.0154527
857.326	0.0153897
857.405	0.0154746
857.483	0.0154419
857.561	0.0155305
857.639	0.0155257
857.717	0.0156085
857.795	0.0154980
857.873	0.0154485
857.951	0.0155280
858.030	0.0155896
858.108	0.0156626
858.186	0.0155972
858.264	0.0155491
858.342	0.0155326
858.420	0.0155482
858.498	0.0155317
858.576	0.0154675
858.655	0.0154006
858.733	0.0154918
858.811	0.0155588
858.889	0.0155954
858.967	0.0156462
859.045	0.0156499
859.123	0.0157862
859.201	0.0156928
859.280	0.0156015
859.358	0.0156956
859.436	0.0157343
859.514	0.0156449
859.592	0.0157716
859.670	0.0155790
859.748	0.0156912
859.826	0.0155047
859.905	0.0155457
859.983	0.0155998
860.061	0.0154374
860.139	0.0155061
860.217	0.0154131
860.295	0.0154380
860.373	0.0153888
860.451	0.0152732
860.530	0.0152538
860.608	0.0153748
860.686	0.0152870
860.764	0.0154819
860.842	0.0152923
860.920	0.0154404
860.998	0.0154272
861.076	0.0153510
861.155	0.0155217
861.233	0.0155326
861.311	0.0154422
861.389	0.0155777
861.467	0.0155862
861.545	0.0154769
861.623	0.0155668
861.701	0.0156528
861.780	0.0157687
861.858	0.0154827
861.936	0.0155751
862.014	0.0155082
862.092	0.0155102
862.170	0.0156036
862.248	0.0155893
862.326	0.0154265
862.405	0.0155368
862.483	0.0155224
862.561	0.0156063
862.639	0.0155116
862.717	0.0154855
862.795	0.0156383
862.873	0.0157001
862.951	0.0154514
863.030	0.0155650
863.108	0.0156912
863.186	0.0158128
863.264	0.0157535
863.342	0.0157401
863.420	0.0159465
863.498	0.0158070
863.576	0.0157312
863.655	0.0158956
863.733	0.0158285
863.811	0.0158642
863.889	0.0159338
863.967	0.0158770
864.045	0.0157408
864.123	0.0157843
864.201	0.0155843
864.280	0.0157012
864.358	0.0156039
864.436	0.0153876
864.514	0.0155787
864.592	0.0154747
864.670	0.0154983
864.748	0.0154767
864.826	0.0153374
864.905	0.0153941
864.983	0.0154461
865.061	0.0154751
865.139	0.0153207
865.217	0.0154107
865.295	0.0153915
865.373	0.0155106
865.451	0.0154786
865.530	0.0156361
865.608	0.0156427
865.686	0.0155746
865.764	0.0156209
865.842	0.0156261
865.920	0.0156087
865.998	0.0156396
866.076	0.0156796
866.155	0.0155640
866.233	0.0156770
866.311	0.0155449
866.389	0.0156583
866.467	0.0157383
866.545	0.0156947
866.623	0.0156424
866.701	0.0157108
866.780	0.0156345
866.858	0.0156947
866.936	0.0157344
867.014	0.0157352
867.092	0.0157102
867.170	0.0156285
867.248	0.0157728
867.326	0.0156522
867.405	0.0157467
867.483	0.0156617
867.561	0.0156036
867.639	0.0158269
867.717	0.0156897
867.795	0.0156599
867.873	0.0157325
867.951	0.0155969
868.030	0.0156449
868.108	0.0156064
868.186	0.0156104
868.264	0.0155935
868.342	0.0155524
868.420	0.0155851
868.498	0.0154738
868.576	0.0155612
868.655	0.0155119
868.733	0.0155011
868.811	0.0154128
868.889	0.0155332
868.967	0.0154900
869.045	0.0154716
869.123	0.0154731
869.201	0.0155400
869.280	0.0155942
869.358	0.0155060
869.436	0.0154509
869.514	0.0154276
869.592	0.0156496
869.670	0.0156541
869.748	0.0155189
869.826	0.0155976
869.905	0.0156034
869.983	0.0155048
870.061	0.0155862
870.139	0.0155991
870.217	0.0155178
870.295	0.0154151
870.373	0.0154566
870.451	0.0154904
870.530	0.0155223
870.608	0.0154802
870.686	0.0154734
870.764	0.0153836
870.842	0.0155847
870.920	0.0155240
870.998	0.0155053
871.076	0.0156804
871.155	0.0155888
871.233	0.0155795
871.311	0.0156705
871.389	0.0156593
871.467	0.0157217
871.545	0.0158013
871.623	0.0157299
871.701	0.0159175
871.780	0.0158144
871.858	0.0157298
871.936	0.0157365
872.014	0.0157356
872.092	0.0157887
872.170	0.0156986
872.248	0.0157070
872.326	0.0157158
872.405	0.0155044
872.483	0.0155375
872.561	0.0155576
872.639	0.0154865
872.717	0.0153671
872.795	0.0154876
872.873	0.0154805
872.951	0.0154909
873.030	0.0154218
873.108	0.0155457
873.186	0.0153358
873.264	0.0153450
873.342	0.0153635
873.420	0.0153179
873.498	0.0153381
873.576	0.0154290
873.655	0.0154451
873.733	0.0153634
873.811	0.0153655
873.889	0.0154548
873.967	0.0154948
874.045	0.0156163
874.123	0.0157349
874.201	0.0156201
874.280	0.0154440
874.358	0.0156499
874.436	0.0156091
874.514	0.0157221
874.592	0.0157035
874.670	0.0156235
874.748	0.0156055
874.826	0.0157364
874.905	0.0156774
874.983	0.0157188
875.061	0.0156001
875.139	0.0156908
875.217	0.0156354
875.295	0.0156134
875.373	0.0157590
875.451	0.0154765
875.530	0.0156256
875.608	0.0156924
875.686	0.0156423
875.764	0.0156794
875.842	0.0155544
875.920	0.0155412
875.998	0.0155738
876.076	0.0155267
876.155	0.0154636
876.233	0.0154104
876.311	0.0153656
876.389	0.0153334
876.467	0.0153374
876.545	0.0153672
876.623	0.0155640
876.701	0.0154648
876.780	0.0154047
876.858	0.0155144
876.936	0.0154626
877.014	0.0154355
877.092	0.0154946
877.170	0.0154671
877.248	0.0153784
877.326	0.0154458
877.405	0.0155577
877.483	0.0154160
877.561	0.0154597
877.639	0.0153474
877.717	0.0153309
877.795	0.0152213
877.873	0.0152335
877.951	0.0152859
878.030	0.0152525
878.108	0.0152615
878.186	0.0154247
878.264	0.0153996
878.342	0.0153165
878.420	0.0153133
878.498	0.0153827
878.576	0.0154316
878.655	0.0153391
878.733	0.0154002
878.811	0.0152475
878.889	0.0152757
878.967	0.0154912
879.045	0.0154301
879.123	0.0154847
879.201	0.0155052
879.280	0.0155257
879.358	0.0155223
879.436	0.0155275
879.514	0.0153905
879.592	0.0154636
879.670	0.0154372
879.748	0.0153657
879.826	0.0154276
879.905	0.0155484
879.983	0.0155691
880.061	0.0153813
880.139	0.0154456
880.217	0.0153864
880.295	0.0155054
880.373	0.0155971
880.451	0.0155338
880.530	0.0156586
880.608	0.0155404
880.686	0.0154798
880.764	0.0157067
880.842	0.0155222
880.920	0.0155905
880.998	0.0155098
881.076	0.0155104
881.155	0.0156165
881.233	0.0157255
881.311	0.0155223
881.389	0.0156048
881.467	0.0154787
881.545	0.0153386
881.623	0.0153713
881.701	0.0155567
881.780	0.0155660
881.858	0.0155715
881.936	0.0154628
882.014	0.0153175
882.092	0.0154504
882.170	0.0155434
882.248	0.0154495
882.326	0.0152177
882.405	0.0155005
882.483	0.0157191
882.561	0.0155073
882.639	0.0154311
882.717	0.0154825
882.795	0.0154951
882.873	0.0155611
882.951	0.0155966
883.030	0.0155524
883.108	0.0156487
883.186	0.0157146
883.264	0.0156234
883.342	0.0156972
883.420	0.0156490
883.498	0.0157977
883.576	0.0156116
883.655	0.0157279
883.733	0.0155967
883.811	0.0155077
883.889	0.0157003
883.967	0.0156397
884.045	0.0156346
884.123	0.0156644
884.201	0.0155437
884.280	0.0154990
884.358	0.0157597
884.436	0.0156319
884.514	0.0155693
884.592	0.0157641
884.670	0.0155939
884.748	0.0155713
884.826	0.0157717
884.905	0.0155972
884.983	0.0156076
885.061	0.0155731
885.139	0.0156661
885.217	0.0155284
885.295	0.0154716
885.373	0.0155347
885.451	0.0155168
885.530	0.0154542
885.608	0.0154018
885.686	0.0153888
885.764	0.0155627
885.842	0.0155464
885.920	0.0154910
885.998	0.0153560
886.076	0.0153705
886.155	0.0153129
886.233	0.0154211
886.311	0.0153884
886.389	0.0155129
886.467	0.0155193
886.545	0.0154275
886.623	0.0155451
886.701	0.0153178
886.780	0.0154778
886.858	0.0155707
886.936	0.0155051
887.014	0.0154803
887.092	0.0154488
887.170	0.0154234
887.248	0.0155725
887.326	0.0156530
887.405	0.0156121
887.483	0.0156615
887.561	0.0156005
887.639	0.0156675
887.717	0.0157885
887.795	0.0158377
887.873	0.0155702
887.951	0.0157187
888.030	0.0158782
888.108	0.0157624
888.186	0.0159208
888.264	0.0158665
888.342	0.0158208
888.420	0.0157773
888.498	0.0158479
888.576	0.0157930
888.655	0.0158655
888.733	0.0157135
888.811	0.0157004
888.889	0.0157714
888.967	0.0155518
889.045	0.0156706
889.123	0.0156048
889.201	0.0156681
889.280	0.0155898
889.358	0.0156015
889.436	0.0155994
889.514	0.0156102
889.592	0.0157397
889.670	0.0154983
889.748	0.0154205
889.826	0.0156533
889.905	0.0155170
889.983	0.0155946
890.061	0.0155923
890.139	0.0156776
890.217	0.0155193
890.295	0.0155567
890.373	0.0156503
890.451	0.0156757
890.530	0.0157787
890.608	0.0156751
890.686	0.0157497
890.764	0.0159140
890.842	0.0156366
890.920	0.0155934
890.998	0.0158524
891.076	0.0156994
891.155	0.0157095
891.233	0.0158329
891.311	0.0157053
891.389	0.0156731
891.467	0.0157045
891.545	0.0156416
891.623	0.0157758
891.701	0.0156643
891.780	0.0155367
891.858	0.0155707
891.936	0.0155456
892.014	0.0154894
892.092	0.0155526
892.170	0.0156300
892.248	0.0156030
892.326	0.0156011
892.405	0.0154782
892.483	0.0154755
892.561	0.0156326
892.639	0.0156151
892.717	0.0155499
892.795	0.0154762
892.873	0.0155579
892.951	0.0157046
893.030	0.0154235
893.108	0.0153159
893.186	0.0153989
893.264	0.0155135
893.342	0.0154583
893.420	0.0154340
893.498	0.0153448
893.576	0.0154128
893.655	0.0153375
893.733	0.0153851
893.811	0.0152880
893.889	0.0151521
893.967	0.0151601
894.045	0.0153949
894.123	0.0153014
894.201	0.0154411
894.280	0.0154491
894.358	0.0154366
894.436	0.0155022
894.514	0.0153902
894.592	0.0155511
894.670	0.0156468
894.748	0.0156356
894.826	0.0155685
894.905	0.0155457
894.983	0.0156747
895.061	0.0156420
895.139	0.0156334
895.217	0.0157310
895.295	0.0154462
895.373	0.0156131
895.451	0.0155009
895.530	0.0154733
895.608	0.0154970
895.686	0.0154662
895.764	0.0155601
895.842	0.0155869
895.920	0.0154803
895.998	0.0155609
896.076	0.0155867
896.155	0.0156606
896.233	0.0155428
896.311	0.0156209
896.389	0.0155766
896.467	0.0157157
896.545	0.0156245
896.623	0.0156977
896.701	0.0156036
896.780	0.0156808
896.858	0.0157545
896.936	0.0158434
897.014	0.0156194
897.092	0.0156397
897.170	0.0156000
897.248	0.0155611
897.326	0.0155817
897.405	0.0155494
897.483	0.0156312
897.561	0.0155528
897.639	0.0155685
897.717	0.0155456
897.795	0.0154719
897.873	0.0153635
897.951	0.0152286
898.030	0.0154357
898.108	0.0153725
898.186	0.0154172
898.264	0.0154924
898.342	0.0154784
898.420	0.0153456
898.498	0.0153228
898.576	0.0153174
898.655	0.0153039
898.733	0.0153008
898.811	0.0154528
898.889	0.0154473
898.967	0.0155607
899.045	0.0155149
899.123	0.0155432
899.201	0.0155826
899.280	0.0157177
899.358	0.0158329
899.436	0.0157477
899.514	0.0157782
899.592	0.0155933
899.670	0.0157242
899.748	0.0157666
899.826	0.0157381
899.905	0.0156987
899.983	0.0157368
900.061	0.0156571
900.139	0.0156449
900.217	0.0155888
900.295	0.0154819
900.373	0.0154429
900.451	0.0155044
900.530	0.0153808
900.608	0.0153578
900.686	0.0153903
900.764	0.0154969
900.842	0.0154494
900.920	0.0153199
900.998	0.0154008
901.076	0.0154053
901.155	0.0153166
901.233	0.0152988
901.311	0.0153584
901.389	0.0155627
901.467	0.0154666
901.545	0.0153035
901.623	0.0155042
901.701	0.0153756
901.780	0.0153636
901.858	0.0154534
901.936	0.0153266
902.014	0.0154134
902.092	0.0154085
902.170	0.0154689
902.248	0.0153562
902.326	0.0152878
902.405	0.0154205
902.483	0.0153313
902.561	0.0153432
902.639	0.0154031
902.717	0.0153053
902.795	0.0153818
902.873	0.0154443
902.951	0.0153120
903.030	0.0154263
903.108	0.0155696
903.186	0.0154493
903.264	0.0153851
903.342	0.0155641
903.420	0.0155548
903.498	0.0154309
903.576	0.0154636
903.655	0.0154742
903.733	0.0156029
903.811	0.0155704
903.889	0.0155029
903.967	0.0155438
904.045	0.0155652
904.123	0.0155852
904.201	0.0155965
904.280	0.0156180
904.358	0.0156090
904.436	0.0155158
904.514	0.0155093
904.592	0.0154404
904.670	0.0154630
904.748	0.0154884
904.826	0.0154070
904.905	0.0154083
904.983	0.0154422
905.061	0.0155001
905.139	0.0154308
905.217	0.0153356
905.295	0.0154629
905.373	0.0155351
905.451	0.0153493
905.530	0.0154289
905.608	0.0154523
905.686	0.0155443
905.764	0.0153952
905.842	0.0153850
905.920	0.0154554
905.998	0.0154540
906.076	0.0154260
906.155	0.0154280
906.233	0.0154140
906.311	0.0154878
906.389	0.0155370
906.467	0.0156141
906.545	0.0155991
906.623	0.0155003
906.701	0.0155566
906.780	0.0155880
906.858	0.0156830
906.936	0.0156774
907.014	0.0156400
907.092	0.0155807
907.170	0.0155959
907.248	0.0156798
907.326	0.0156538
907.405	0.0157495
907.483	0.0156425
907.561	0.0156503
907.639	0.0156019
907.717	0.0156463
907.795	0.0156245
907.873	0.0156275
907.951	0.0154507
908.030	0.0155295
908.108	0.0155775
908.186	0.0155990
908.264	0.0154853
908.342	0.0154195
908.420	0.0154649
908.498	0.0155255
908.576	0.0155157
908.655	0.0156226
908.733	0.0154675
908.811	0.0153498
908.889	0.0153719
908.967	0.0154438
909.045	0.0154092
909.123	0.0153156
909.201	0.0153978
909.280	0.0154404
909.358	0.0154318
909.436	0.0153359
909.514	0.0153893
909.592	0.0154547
909.670	0.0157464
909.748	0.0156695
909.826	0.0155473
909.905	0.0154575
909.983	0.0155142
910.061	0.0156687
910.139	0.0156425
910.217	0.0155235
910.295	0.0155515
910.373	0.0155475
910.451	0.0155666
910.530	0.0155864
910.608	0.0155679
910.686	0.0156231
910.764	0.0155750
910.842	0.0156392
910.920	0.0155798
910.998	0.0155625
911.076	0.0155688
911.155	0.0155145
911.233	0.0156200
911.311	0.0154088
911.389	0.0154403
911.467	0.0156525
911.545	0.0156497
911.623	0.0155771
911.701	0.0155396
911.780	0.0157014
911.858	0.0158102
911.936	0.0156049
912.014	0.0156134
912.092	0.0156420
912.170	0.0155257
912.248	0.0156654
912.326	0.0157392
912.405	0.0156548
912.483	0.0156281
912.561	0.0154990
912.639	0.0155778
912.717	0.0156432
912.795	0.0155222
912.873	0.0155695
912.951	0.0155736
913.030	0.0155027
913.108	0.0154720
913.186	0.0155653
913.264	0.0155600
913.342	0.0154588
913.420	0.0155200
913.498	0.0155125
913.576	0.0156847
913.655	0.0154734
913.733	0.0154752
913.811	0.0156496
913.889	0.0156424
913.967	0.0155808
914.045	0.0155381
914.123	0.0155057
914.201	0.0154997
914.280	0.0154092
914.358	0.0154067
914.436	0.0154787
914.514	0.0154471
914.592	0.0154257
914.670	0.0154889
914.748	0.0155208
914.826	0.0155111
914.905	0.0155516
914.983	0.0153982
915.061	0.0154355
915.139	0.0156269
915.217	0.0156338
915.295	0.0156483
915.373	0.0156397
915.451	0.0155679
915.530	0.0154800
915.608	0.0155932
915.686	0.0155910
915.764	0.0154959
915.842	0.0156337
915.920	0.0156493
915.998	0.0155868
916.076	0.0154542
916.155	0.0155895
916.233	0.0156110
916.311	0.0155399
916.389	0.0156477
916.467	0.0155321
916.545	0.0155273
916.623	0.0155060
916.701	0.0153248
916.780	0.0153277
916.858	0.0155594
916.936	0.0154392
917.014	0.0153246
917.092	0.0154133
917.170	0.0153907
917.248	0.0154407
917.326	0.0154327
917.405	0.0156532
917.483	0.0154118
917.561	0.0153753
917.639	0.0154707
917.717	0.0153495
917.795	0.0154664
917.873	0.0155623
917.951	0.0155087
918.030	0.0155865
918.108	0.0154923
918.186	0.0154863
918.264	0.0155386
918.342	0.0155850
918.420	0.0154714
918.498	0.0154747
918.576	0.0154968
918.655	0.0153423
918.733	0.0155428
918.811	0.0156387
918.889	0.0154778
918.967	0.0155014
919.045	0.0155558
919.123	0.0154640
919.201	0.0155247
919.280	0.0155199
919.358	0.0156493
919.436	0.0155783
919.514	0.0156509
919.592	0.0155003
919.670	0.0154849
919.748	0.0156152
919.826	0.0156517
919.905	0.0155049
919.983	0.0156023
920.061	0.0157009
920.139	0.0156538
920.217	0.0157955
920.295	0.0156879
920.373	0.0156575
920.451	0.0156600
920.530	0.0156782
920.608	0.0156787
920.686	0.0157782
920.764	0.0157255
920.842	0.0156003
920.920	0.0156441
920.998	0.0156878
921.076	0.0156602
921.155	0.0156494
921.233	0.0155392
921.311	0.0156125
921.389	0.0156142
921.467	0.0154559
921.545	0.0155457
921.623	0.0153683
921.701	0.0154451
921.780	0.0154583
921.858	0.0153833
921.936	0.0154408
922.014	0.0153205
922.092	0.0154807
922.170	0.0154656
922.248	0.0153719
922.326	0.0153399
922.405	0.0154617
922.483	0.0156120
922.561	0.0154932
922.639	0.0154828
922.717	0.0156030
922.795	0.0155321
922.873	0.0154900
922.951	0.0155352
923.030	0.0154719
923.108	0.0155243
923.186	0.0155176
923.264	0.0155918
923.342	0.0157320
923.420	0.0157254
923.498	0.0156035
923.576	0.0156590
923.655	0.0156023
923.733	0.0157134
923.811	0.0155839
923.889	0.0155859
923.967	0.0156982
924.045	0.0155822
924.123	0.0155859
924.201	0.0154949
924.280	0.0155743
924.358	0.0156789
924.436	0.0155108
924.514	0.0155491
924.592	0.0156181
924.670	0.0154624
924.748	0.0155184
924.826	0.0156952
924.905	0.0157639
924.983	0.0155621
925.061	0.0155248
925.139	0.0156688
925.217	0.0155320
925.295	0.0156818
925.373	0.0155787
925.451	0.0156235
925.530	0.0155666
925.608	0.0155671
925.686	0.0153300
925.764	0.0155818
925.842	0.0155521
925.920	0.0153336
925.998	0.0154472
926.076	0.0153993
926.155	0.0153864
926.233	0.0155315
926.311	0.0153793
926.389	0.0153395
926.467	0.0155033
926.545	0.0154401
926.623	0.0154169
926.701	0.0155130
926.780	0.0153471
926.858	0.0152862
926.936	0.0153585
927.014	0.0155566
927.092	0.0154705
927.170	0.0153859
927.248	0.0153593
927.326	0.0155103
927.405	0.0155927
927.483	0.0155992
927.561	0.0154976
927.639	0.0156530
927.717	0.0155157
927.795	0.0155946
927.873	0.0155377
927.951	0.0157471
928.030	0.0158029
928.108	0.0156787
928.186	0.0157223
928.264	0.0156118
928.342	0.0156496
928.420	0.0156553
928.498	0.0155702
928.576	0.0154940
928.655	0.0154577
928.733	0.0154430
928.811	0.0154965
928.889	0.0152993
928.967	0.0153725
929.045	0.0154127
929.123	0.0154453
929.201	0.0153826
929.280	0.0153192
929.358	0.0153017
929.436	0.0152898
929.514	0.0152747
929.592	0.0153947
929.670	0.0153822
929.748	0.0153899
929.826	0.0153613
929.905	0.0154255
929.983	0.0153140
930.061	0.0154465
930.139	0.0152904
930.217	0.0155009
930.295	0.0154858
930.373	0.0153013
930.451	0.0154435
930.530	0.0155349
930.608	0.0155070
930.686	0.0155119
930.764	0.0154525
930.842	0.0154138
930.920	0.0155916
930.998	0.0154508
931.076	0.0155028
931.155	0.0155460
931.233	0.0154494
931.311	0.0155751
931.389	0.0154743
931.467	0.0155023
931.545	0.0155224
931.623	0.0156325
931.701	0.0155473
931.780	0.0156173
931.858	0.0155547
931.936	0.0157388
932.014	0.0156580
932.092	0.0155918
932.170	0.0156248
932.248	0.0155785
932.326	0.0155640
932.405	0.0156325
932.483	0.0156767
932.561	0.0155853
932.639	0.0158244
932.717	0.0155835
932.795	0.0156123
932.873	0.0155293
932.951	0.0155414
933.030	0.0156040
933.108	0.0155841
933.186	0.0156829
933.264	0.0156442
933.342	0.0154622
933.420	0.0153583
933.498	0.0154430
933.576	0.0155904
933.655	0.0156122
933.733	0.0155865
933.811	0.0155108
933.889	0.0155650
933.967	0.0154479
934.045	0.0155183
934.123	0.0154931
934.201	0.0154084
934.280	0.0154295
934.358	0.0154536
934.436	0.0154713
934.514	0.0153979
934.592	0.0153547
934.670	0.0154416
934.748	0.0153874
934.826	0.0153759
934.905	0.0154825
934.983	0.0153922
935.061	0.0153297
935.139	0.0153492
935.217	0.0153237
935.295	0.0153085
935.373	0.0153165
935.451	0.0154921
935.530	0.0154598
935.608	0.0153288
935.686	0.0154581
935.764	0.0153967
935.842	0.0154079
935.920	0.0154506
935.998	0.0154677
936.076	0.0156381
936.155	0.0153797
936.233	0.0153596
936.311	0.0154489
936.389	0.0155950
936.467	0.0154501
936.545	0.0154243
936.623	0.0154976
936.701	0.0154138
936.780	0.0155042
936.858	0.0155194
936.936	0.0154085
937.014	0.0154301
937.092	0.0156375
937.170	0.0155997
937.248	0.0155166
937.326	0.0154514
937.405	0.0153017
937.483	0.0156570
937.561	0.0154397
937.639	0.0155280
937.717	0.0153953
937.795	0.0155883
937.873	0.0155193
937.951	0.0156026
938.030	0.0154195
938.108	0.0155032
938.186	0.0156581
938.264	0.0155830
938.342	0.0154168
938.420	0.0155294
938.498	0.0153831
938.576	0.0154036
938.655	0.0154598
938.733	0.0156105
938.811	0.0155234
938.889	0.0155702
938.967	0.0154346
939.045	0.0155076
939.123	0.0154295
939.201	0.0155012
939.280	0.0155331
939.358	0.0155456
939.436	0.0155469
939.514	0.0155768
939.592	0.0156815
939.670	0.0157516
939.748	0.0159018
939.826	0.0158794
939.905	0.0158713
939.983	0.0158528
940.061	0.0158834
940.139	0.0159293
940.217	0.0159509
940.295	0.0157515
940.373	0.0157715
940.451	0.0157758
940.530	0.0157301
940.608	0.0156916
940.686	0.0157556
940.764	0.0156300
940.842	0.0157078
940.920	0.0156269
940.998	0.0154765
941.076	0.0154423
941.155	0.0153378
941.233	0.0155175
941.311	0.0154974
941.389	0.0154048
941.467	0.0155127
941.545	0.0154752
941.623	0.0153230
941.701	0.0154368
941.780	0.0156148
941.858	0.0154028
941.936	0.0154276
942.014	0.0155472
942.092	0.0153594
942.170	0.0155099
942.248	0.0154753
942.326	0.0154385
942.405	0.0155172
942.483	0.0155176
942.561	0.0154302
942.639	0.0154304
942.717	0.0154233
942.795	0.0153883
942.873	0.0154435
942.951	0.0154936
943.030	0.0155170
943.108	0.0154050
943.186	0.0155120
943.264	0.0156360
943.342	0.0155121
943.420	0.0154852
943.498	0.0156145
943.576	0.0155202
943.655	0.0156719
943.733	0.0156716
943.811	0.0157809
943.889	0.0156461
943.967	0.0156255
944.045	0.0156116
944.123	0.0157264
944.201	0.0158398
944.280	0.0158006
944.358	0.0157871
944.436	0.0157417
944.514	0.0157091
944.592	0.0157437
944.670	0.0156168
944.748	0.0155682
944.826	0.0155512
944.905	0.0155972
944.983	0.0157006
945.061	0.0157609
945.139	0.0155769
945.217	0.0154672
945.295	0.0156439
945.373	0.0156492
945.451	0.0155566
945.530	0.0157381
945.608	0.0156709
945.686	0.0155191
945.764	0.0157159
945.842	0.0156133
945.920	0.0155255
945.998	0.0156332
946.076	0.0155743
946.155	0.0155061
946.233	0.0154476
946.311	0.0156168
946.389	0.0153321
946.467	0.0153286
946.545	0.0154648
946.623	0.0152962
946.701	0.0152046
946.780	0.0153889
946.858	0.0154205
946.936	0.0154094
947.014	0.0153929
947.092	0.0153113
947.170	0.0154063
947.248	0.0156242
947.326	0.0156328
947.405	0.0154680
947.483	0.0155924
947.561	0.0157539
947.639	0.0157435
947.717	0.0157983
947.795	0.0155336
947.873	0.0157083
947.951	0.0158455
948.030	0.0158069
948.108	0.0158504
948.186	0.0156918
948.264	0.0156720
948.342	0.0156857
948.420	0.0157214
948.498	0.0155402
948.576	0.0155761
948.655	0.0157053
948.733	0.0156493
948.811	0.0154319
948.889	0.0155439
948.967	0.0156069
949.045	0.0155400
949.123	0.0155258
949.201	0.0155399
949.280	0.0156228
949.358	0.0154568
949.436	0.0155099
949.514	0.0155469
949.592	0.0155069
949.670	0.0154054
949.748	0.0154469
949.826	0.0155717
949.905	0.0154362
949.983	0.0154531
950.061	0.0154876
950.139	0.0154469
950.217	0.0154536
950.295	0.0154709
950.373	0.0154259
950.451	0.0154467
950.530	0.0154652
950.608	0.0155267
950.686	0.0154772
950.764	0.0153559
950.842	0.0154470
950.920	0.0153973
950.998	0.0154086
951.076	0.0154619
951.155	0.0154875
951.233	0.0155942
951.311	0.0155438
951.389	0.0155331
951.467	0.0154828
951.545	0.0155643
951.623	0.0155519
951.701	0.0155415
951.780	0.0154655
951.858	0.0155957
951.936	0.0155874
952.014	0.0157170
952.092	0.0156299
952.170	0.0155945
952.248	0.0156934
952.326	0.0156545
952.405	0.0158060
952.483	0.0156826
952.561	0.0156741
952.639	0.0158537
952.717	0.0156950
952.795	0.0156590
952.873	0.0158009
952.951	0.0158224
953.030	0.0157232
953.108	0.0158743
953.186	0.0158906
953.264	0.0157859
953.342	0.0159409
953.420	0.0157580
953.498	0.0156963
953.576	0.0156255
953.655	0.0157181
953.733	0.0157681
953.811	0.0158401
953.889	0.0156893
953.967	0.0157307
954.045	0.0156788
954.123	0.0156608
954.201	0.0155680
954.280	0.0155617
954.358	0.0155521
954.436	0.0154996
954.514	0.0154543
954.592	0.0155293
954.670	0.0154843
954.748	0.0154307
954.826	0.0155346
954.905	0.0155824
954.983	0.0156116
955.061	0.0154282
955.139	0.0155529
955.217	0.0155388
955.295	0.0155770
955.373	0.0155646
955.451	0.0156977
955.530	0.0156824
955.608	0.0157333
955.686	0.0156355
955.764	0.0158954
955.842	0.0158424
955.920	0.0159180
955.998	0.0157636
956.076	0.0158148
956.155	0.0156422
956.233	0.0157289
956.311	0.0156437
956.389	0.0156006
956.467	0.0156649
956.545	0.0156474
956.623	0.0155972
956.701	0.0155123
956.780	0.0153436
956.858	0.0154051
956.936	0.0155892
957.014	0.0153606
957.092	0.0153117
957.170	0.0153635
957.248	0.0153716
957.326	0.0152773
957.405	0.0153329
957.483	0.0153483
957.561	0.0153372
957.639	0.0152803
957.717	0.0153500
957.795	0.0154206
957.873	0.0153854
957.951	0.0154613
958.030	0.0153876
958.108	0.0154317
958.186	0.0153242
958.264	0.0155350
958.342	0.0153284
958.420	0.0154648
958.498	0.0155213
958.576	0.0155197
958.655	0.0154683
958.733	0.0154909
958.811	0.0154240
958.889	0.0154002
958.967	0.0153761
959.045	0.0153088
959.123	0.0155276
959.201	0.0154019
959.280	0.0155175
959.358	0.0154446
959.436	0.0154397
959.514	0.0155200
959.592	0.0154237
959.670	0.0154868
959.748	0.0154542
959.826	0.0155545
959.905	0.0155904
