05/17/2022	16:53:59	Ver.	4.1	UNKNOWN
Optical Delay	639.982744	Delta X		0.078125	Sweeps	1	Scan Rate	0/0
Coordinates	Axis 1	NaN	Axis 2	NaN	Axis 3	NaN	Axis 4	NaN	Axis 5	NaN	Axis 6	0.000000
TX Power	0.000000	RX Power	0.000000

639.983	0.0152770
640.061	0.0152958
640.139	0.0152798
640.217	0.0153329
640.295	0.0153204
640.373	0.0153600
640.451	0.0153681
640.530	0.0153310
640.608	0.0152377
640.686	0.0152785
640.764	0.0152630
640.842	0.0153466
640.920	0.0150912
640.998	0.0152799
641.076	0.0153867
641.155	0.0152969
641.233	0.0151487
641.311	0.0153765
641.389	0.0152795
641.467	0.0153250
641.545	0.0153278
641.623	0.0153375
641.701	0.0153422
641.780	0.0152564
641.858	0.0152838
641.936	0.0154540
642.014	0.0152836
642.092	0.0152459
642.170	0.0152921
642.248	0.0153594
642.326	0.0152145
642.405	0.0153124
642.483	0.0152779
642.561	0.0153730
642.639	0.0155355
642.717	0.0153197
642.795	0.0152924
642.873	0.0154091
642.951	0.0153082
643.030	0.0153001
643.108	0.0152805
643.186	0.0152635
643.264	0.0152038
643.342	0.0152863
643.420	0.0153409
643.498	0.0153702
643.576	0.0153323
643.655	0.0152370
643.733	0.0153645
643.811	0.0153238
643.889	0.0151579
643.967	0.0154480
644.045	0.0154282
644.123	0.0153332
644.201	0.0154635
644.280	0.0152216
644.358	0.0152681
644.436	0.0155131
644.514	0.0154053
644.592	0.0152257
644.670	0.0152827
644.748	0.0154417
644.826	0.0154881
644.905	0.0153084
644.983	0.0154449
645.061	0.0153821
645.139	0.0153371
645.217	0.0153628
645.295	0.0154729
645.373	0.0156033
645.451	0.0154710
645.530	0.0154234
645.608	0.0153951
645.686	0.0154320
645.764	0.0154041
645.842	0.0153097
645.920	0.0152736
645.998	0.0152829
646.076	0.0154325
646.155	0.0153555
646.233	0.0153396
646.311	0.0153669
646.389	0.0155008
646.467	0.0152372
646.545	0.0153443
646.623	0.0153116
646.701	0.0155077
646.780	0.0154411
646.858	0.0154920
646.936	0.0154311
647.014	0.0154841
647.092	0.0154066
647.170	0.0154460
647.248	0.0154457
647.326	0.0155060
647.405	0.0155929
647.483	0.0155733
647.561	0.0155429
647.639	0.0153993
647.717	0.0156036
647.795	0.0154457
647.873	0.0153854
647.951	0.0153168
648.030	0.0153229
648.108	0.0152892
648.186	0.0152423
648.264	0.0153782
648.342	0.0151906
648.420	0.0151012
648.498	0.0152216
648.576	0.0151489
648.655	0.0151118
648.733	0.0151411
648.811	0.0150321
648.889	0.0151585
648.967	0.0152695
649.045	0.0153787
649.123	0.0152423
649.201	0.0152522
649.280	0.0154411
649.358	0.0155193
649.436	0.0156232
649.514	0.0156112
649.592	0.0156082
649.670	0.0155311
649.748	0.0155421
649.826	0.0157530
649.905	0.0155824
649.983	0.0154099
650.061	0.0154726
650.139	0.0154925
650.217	0.0154823
650.295	0.0154095
650.373	0.0154538
650.451	0.0153771
650.530	0.0151517
650.608	0.0152435
650.686	0.0152442
650.764	0.0151694
650.842	0.0151048
650.920	0.0150832
650.998	0.0150846
651.076	0.0151904
651.155	0.0153085
651.233	0.0153627
651.311	0.0154484
651.389	0.0154132
651.467	0.0155479
651.545	0.0155806
651.623	0.0155837
651.701	0.0157510
651.780	0.0157395
651.858	0.0155621
651.936	0.0157025
652.014	0.0156592
652.092	0.0156560
652.170	0.0155405
652.248	0.0155890
652.326	0.0156696
652.405	0.0154211
652.483	0.0154858
652.561	0.0154266
652.639	0.0153828
652.717	0.0152608
652.795	0.0153315
652.873	0.0151704
652.951	0.0152932
653.030	0.0152132
653.108	0.0150623
653.186	0.0151759
653.264	0.0152145
653.342	0.0151815
653.420	0.0152160
653.498	0.0152149
653.576	0.0152195
653.655	0.0152900
653.733	0.0151764
653.811	0.0153299
653.889	0.0153347
653.967	0.0152894
654.045	0.0153125
654.123	0.0154536
654.201	0.0153380
654.280	0.0154678
654.358	0.0156454
654.436	0.0154143
654.514	0.0154049
654.592	0.0153452
654.670	0.0153362
654.748	0.0151731
654.826	0.0153116
654.905	0.0152821
654.983	0.0152660
655.061	0.0152853
655.139	0.0151593
655.217	0.0150391
655.295	0.0151543
655.373	0.0151528
655.451	0.0152029
655.530	0.0151641
655.608	0.0152836
655.686	0.0152923
655.764	0.0151569
655.842	0.0151684
655.920	0.0150929
655.998	0.0152014
656.076	0.0151504
656.155	0.0153500
656.233	0.0152161
656.311	0.0152700
656.389	0.0153421
656.467	0.0151938
656.545	0.0153620
656.623	0.0153283
656.701	0.0153580
656.780	0.0155006
656.858	0.0154581
656.936	0.0152642
657.014	0.0155185
657.092	0.0154982
657.170	0.0153536
657.248	0.0154538
657.326	0.0153259
657.405	0.0153452
657.483	0.0154865
657.561	0.0154494
657.639	0.0153436
657.717	0.0154063
657.795	0.0152506
657.873	0.0153471
657.951	0.0154802
658.030	0.0154667
658.108	0.0152457
658.186	0.0152050
658.264	0.0152277
658.342	0.0153133
658.420	0.0153179
658.498	0.0153481
658.576	0.0153362
658.655	0.0151271
658.733	0.0152885
658.811	0.0153513
658.889	0.0150853
658.967	0.0153073
659.045	0.0154574
659.123	0.0152777
659.201	0.0154625
659.280	0.0154633
659.358	0.0154344
659.436	0.0154739
659.514	0.0154874
659.592	0.0155550
659.670	0.0154276
659.748	0.0154741
659.826	0.0154303
659.905	0.0152898
659.983	0.0153485
660.061	0.0154251
660.139	0.0152312
660.217	0.0153085
660.295	0.0151469
660.373	0.0153162
660.451	0.0152526
660.530	0.0151287
660.608	0.0152766
660.686	0.0152148
660.764	0.0152789
660.842	0.0152745
660.920	0.0153767
660.998	0.0152895
661.076	0.0152660
661.155	0.0153109
661.233	0.0154153
661.311	0.0153413
661.389	0.0153381
661.467	0.0154106
661.545	0.0155112
661.623	0.0154691
661.701	0.0155275
661.780	0.0156000
661.858	0.0155804
661.936	0.0156054
662.014	0.0156042
662.092	0.0154343
662.170	0.0155291
662.248	0.0154852
662.326	0.0153240
662.405	0.0154617
662.483	0.0154691
662.561	0.0153316
662.639	0.0154769
662.717	0.0152969
662.795	0.0152598
662.873	0.0152892
662.951	0.0152352
663.030	0.0151660
663.108	0.0151421
663.186	0.0151633
663.264	0.0151683
663.342	0.0152682
663.420	0.0153032
663.498	0.0152402
663.576	0.0153075
663.655	0.0151663
663.733	0.0154421
663.811	0.0154548
663.889	0.0155180
663.967	0.0155260
664.045	0.0155217
664.123	0.0156017
664.201	0.0155619
664.280	0.0155776
664.358	0.0154939
664.436	0.0155521
664.514	0.0154265
664.592	0.0154073
664.670	0.0153732
664.748	0.0152949
664.826	0.0150851
664.905	0.0150977
664.983	0.0150278
665.061	0.0148790
665.139	0.0148900
665.217	0.0149321
665.295	0.0148637
665.373	0.0149525
665.451	0.0148395
665.530	0.0148979
665.608	0.0150636
665.686	0.0150520
665.764	0.0151900
665.842	0.0152937
665.920	0.0153643
665.998	0.0153803
666.076	0.0153834
666.155	0.0154809
666.233	0.0156061
666.311	0.0155991
666.389	0.0155085
666.467	0.0154206
666.545	0.0155195
666.623	0.0154630
666.701	0.0154933
666.780	0.0154947
666.858	0.0153457
666.936	0.0150368
667.014	0.0150893
667.092	0.0149860
667.170	0.0150375
667.248	0.0149718
667.326	0.0150884
667.405	0.0150135
667.483	0.0147954
667.561	0.0148769
667.639	0.0149153
667.717	0.0150549
667.795	0.0150969
667.873	0.0150655
667.951	0.0153815
668.030	0.0155054
668.108	0.0154212
668.186	0.0155034
668.264	0.0156823
668.342	0.0156558
668.420	0.0156542
668.498	0.0157251
668.576	0.0157504
668.655	0.0158976
668.733	0.0158201
668.811	0.0155401
668.889	0.0157764
668.967	0.0155556
669.045	0.0155362
669.123	0.0155967
669.201	0.0154923
669.280	0.0155087
669.358	0.0154684
669.436	0.0152283
669.514	0.0153485
669.592	0.0155100
669.670	0.0153783
669.748	0.0153876
669.826	0.0154159
669.905	0.0154913
669.983	0.0153112
670.061	0.0154572
670.139	0.0155920
670.217	0.0155576
670.295	0.0155123
670.373	0.0156805
670.451	0.0156534
670.530	0.0155891
670.608	0.0155570
670.686	0.0156099
670.764	0.0156570
670.842	0.0156872
670.920	0.0157007
670.998	0.0154967
671.076	0.0155885
671.155	0.0154823
671.233	0.0156864
671.311	0.0155676
671.389	0.0155842
671.467	0.0153765
671.545	0.0154047
671.623	0.0152364
671.701	0.0153206
671.780	0.0152540
671.858	0.0152192
671.936	0.0152404
672.014	0.0150198
672.092	0.0150291
672.170	0.0149428
672.248	0.0149142
672.326	0.0150669
672.405	0.0148750
672.483	0.0149758
672.561	0.0146923
672.639	0.0147598
672.717	0.0149115
672.795	0.0147939
672.873	0.0148367
672.951	0.0149574
673.030	0.0149106
673.108	0.0150156
673.186	0.0150937
673.264	0.0150889
673.342	0.0152489
673.420	0.0153106
673.498	0.0153190
673.576	0.0153271
673.655	0.0153717
673.733	0.0153557
673.811	0.0152729
673.889	0.0152341
673.967	0.0151963
674.045	0.0152260
674.123	0.0152596
674.201	0.0150901
674.280	0.0150324
674.358	0.0150401
674.436	0.0149868
674.514	0.0148598
674.592	0.0150628
674.670	0.0151199
674.748	0.0150491
674.826	0.0150877
674.905	0.0150339
674.983	0.0151054
675.061	0.0150673
675.139	0.0152573
675.217	0.0152722
675.295	0.0154349
675.373	0.0152929
675.451	0.0155327
675.530	0.0154362
675.608	0.0155200
675.686	0.0155856
675.764	0.0157598
675.842	0.0158176
675.920	0.0159344
675.998	0.0158105
676.076	0.0158955
676.155	0.0158681
676.233	0.0158943
676.311	0.0159068
676.389	0.0158932
676.467	0.0160155
676.545	0.0159642
676.623	0.0157993
676.701	0.0159840
676.780	0.0159245
676.858	0.0157594
676.936	0.0157187
677.014	0.0156918
677.092	0.0156207
677.170	0.0156499
677.248	0.0157676
677.326	0.0156682
677.405	0.0155024
677.483	0.0154646
677.561	0.0153808
677.639	0.0153117
677.717	0.0151178
677.795	0.0151066
677.873	0.0152726
677.951	0.0152297
678.030	0.0150605
678.108	0.0149596
678.186	0.0150773
678.264	0.0150752
678.342	0.0149517
678.420	0.0149947
678.498	0.0152377
678.576	0.0153019
678.655	0.0155257
678.733	0.0154259
678.811	0.0154892
678.889	0.0155013
678.967	0.0155815
679.045	0.0157088
679.123	0.0158932
679.201	0.0157986
679.280	0.0159097
679.358	0.0159454
679.436	0.0159322
679.514	0.0159110
679.592	0.0160628
679.670	0.0159924
679.748	0.0159599
679.826	0.0160372
679.905	0.0159451
679.983	0.0158934
680.061	0.0158543
680.139	0.0158424
680.217	0.0156446
680.295	0.0159090
680.373	0.0156566
680.451	0.0156267
680.530	0.0155350
680.608	0.0154630
680.686	0.0153967
680.764	0.0152688
680.842	0.0152034
680.920	0.0150505
680.998	0.0149705
681.076	0.0147897
681.155	0.0146532
681.233	0.0146299
681.311	0.0146204
681.389	0.0145130
681.467	0.0144366
681.545	0.0143517
681.623	0.0142696
681.701	0.0142645
681.780	0.0142392
681.858	0.0142544
681.936	0.0141530
682.014	0.0143469
682.092	0.0143053
682.170	0.0145172
682.248	0.0147391
682.326	0.0149324
682.405	0.0149545
682.483	0.0151021
682.561	0.0152605
682.639	0.0155336
682.717	0.0156113
682.795	0.0158517
682.873	0.0159755
682.951	0.0160600
683.030	0.0161908
683.108	0.0162845
683.186	0.0163009
683.264	0.0161629
683.342	0.0162890
683.420	0.0163611
683.498	0.0161417
683.576	0.0160449
683.655	0.0159576
683.733	0.0159533
683.811	0.0159053
683.889	0.0157185
683.967	0.0157113
684.045	0.0155190
684.123	0.0154547
684.201	0.0154263
684.280	0.0152698
684.358	0.0150473
684.436	0.0150581
684.514	0.0148980
684.592	0.0147885
684.670	0.0147471
684.748	0.0147977
684.826	0.0146602
684.905	0.0145756
684.983	0.0148708
685.061	0.0148669
685.139	0.0147905
685.217	0.0150027
685.295	0.0150146
685.373	0.0152528
685.451	0.0154098
685.530	0.0155038
685.608	0.0156693
685.686	0.0158927
685.764	0.0159656
685.842	0.0161694
685.920	0.0161498
685.998	0.0162051
686.076	0.0163047
686.155	0.0163570
686.233	0.0165107
686.311	0.0164172
686.389	0.0161386
686.467	0.0163100
686.545	0.0164121
686.623	0.0161233
686.701	0.0160902
686.780	0.0160689
686.858	0.0160590
686.936	0.0159138
687.014	0.0156766
687.092	0.0156478
687.170	0.0155447
687.248	0.0153333
687.326	0.0152280
687.405	0.0148794
687.483	0.0146338
687.561	0.0145615
687.639	0.0144165
687.717	0.0142891
687.795	0.0140839
687.873	0.0139851
687.951	0.0137487
688.030	0.0137846
688.108	0.0138783
688.186	0.0139914
688.264	0.0140150
688.342	0.0143060
688.420	0.0144743
688.498	0.0144064
688.576	0.0147855
688.655	0.0151077
688.733	0.0154021
688.811	0.0155210
688.889	0.0155424
688.967	0.0156667
689.045	0.0159179
689.123	0.0161259
689.201	0.0161718
689.280	0.0162213
689.358	0.0162440
689.436	0.0163262
689.514	0.0162844
689.592	0.0161847
689.670	0.0162567
689.748	0.0161065
689.826	0.0160464
689.905	0.0161214
689.983	0.0161177
690.061	0.0159605
690.139	0.0156363
690.217	0.0155196
690.295	0.0155380
690.373	0.0154520
690.451	0.0150964
690.530	0.0150524
690.608	0.0149261
690.686	0.0147612
690.764	0.0146935
690.842	0.0146902
690.920	0.0147617
690.998	0.0147154
691.076	0.0146001
691.155	0.0146399
691.233	0.0147724
691.311	0.0148775
691.389	0.0148981
691.467	0.0149010
691.545	0.0149734
691.623	0.0149657
691.701	0.0150298
691.780	0.0150418
691.858	0.0151310
691.936	0.0152277
692.014	0.0151772
692.092	0.0152281
692.170	0.0153205
692.248	0.0152680
692.326	0.0153491
692.405	0.0155549
692.483	0.0153999
692.561	0.0153896
692.639	0.0154736
692.717	0.0153524
692.795	0.0153563
692.873	0.0156044
692.951	0.0155083
693.030	0.0154738
693.108	0.0154729
693.186	0.0154056
693.264	0.0155038
693.342	0.0156265
693.420	0.0155116
693.498	0.0154431
693.576	0.0153832
693.655	0.0154865
693.733	0.0156839
693.811	0.0156509
693.889	0.0154421
693.967	0.0155642
694.045	0.0156049
694.123	0.0155817
694.201	0.0155777
694.280	0.0154907
694.358	0.0155110
694.436	0.0153942
694.514	0.0154338
694.592	0.0153454
694.670	0.0154053
694.748	0.0154616
694.826	0.0153343
694.905	0.0154079
694.983	0.0152365
695.061	0.0152840
695.139	0.0150816
695.217	0.0151246
695.295	0.0150549
695.373	0.0150360
695.451	0.0151353
695.530	0.0150364
695.608	0.0149178
695.686	0.0148474
695.764	0.0148572
695.842	0.0148596
695.920	0.0146738
695.998	0.0145927
696.076	0.0147177
696.155	0.0146492
696.233	0.0146681
696.311	0.0148505
696.389	0.0147834
696.467	0.0148118
696.545	0.0148383
696.623	0.0149725
696.701	0.0151897
696.780	0.0153672
696.858	0.0156465
696.936	0.0156516
697.014	0.0156190
697.092	0.0158973
697.170	0.0160398
697.248	0.0161861
697.326	0.0162450
697.405	0.0161651
697.483	0.0163319
697.561	0.0162212
697.639	0.0163634
697.717	0.0162459
697.795	0.0163583
697.873	0.0163347
697.951	0.0162460
698.030	0.0161533
698.108	0.0161095
698.186	0.0161525
698.264	0.0159003
698.342	0.0159775
698.420	0.0158160
698.498	0.0157982
698.576	0.0156928
698.655	0.0156528
698.733	0.0155427
698.811	0.0153812
698.889	0.0155203
698.967	0.0152544
699.045	0.0150727
699.123	0.0149918
699.201	0.0148840
699.280	0.0148549
699.358	0.0147383
699.436	0.0146120
699.514	0.0146754
699.592	0.0145924
699.670	0.0145651
699.748	0.0147045
699.826	0.0147015
699.905	0.0146693
699.983	0.0148147
700.061	0.0148754
700.139	0.0150074
700.217	0.0150582
700.295	0.0151614
700.373	0.0151839
700.451	0.0153050
700.530	0.0152625
700.608	0.0152241
700.686	0.0153452
700.764	0.0153320
700.842	0.0153429
700.920	0.0152599
700.998	0.0151706
701.076	0.0151919
701.155	0.0152323
701.233	0.0151143
701.311	0.0150982
701.389	0.0151442
701.467	0.0151877
701.545	0.0151709
701.623	0.0150111
701.701	0.0152341
701.780	0.0151163
701.858	0.0153413
701.936	0.0153822
702.014	0.0154375
702.092	0.0154797
702.170	0.0153467
702.248	0.0154583
702.326	0.0155257
702.405	0.0155518
702.483	0.0157094
702.561	0.0156233
702.639	0.0156032
702.717	0.0157321
702.795	0.0157525
702.873	0.0157085
702.951	0.0155737
703.030	0.0155538
703.108	0.0154219
703.186	0.0154061
703.264	0.0154439
703.342	0.0153166
703.420	0.0153089
703.498	0.0153186
703.576	0.0152626
703.655	0.0153790
703.733	0.0154634
703.811	0.0155273
703.889	0.0155591
703.967	0.0155674
704.045	0.0156876
704.123	0.0159059
704.201	0.0159434
704.280	0.0158270
704.358	0.0161455
704.436	0.0160693
704.514	0.0160715
704.592	0.0162151
704.670	0.0160594
704.748	0.0159472
704.826	0.0161140
704.905	0.0159669
704.983	0.0159028
705.061	0.0158053
705.139	0.0157194
705.217	0.0157679
705.295	0.0158499
705.373	0.0157365
705.451	0.0156639
705.530	0.0156138
705.608	0.0155137
705.686	0.0153870
705.764	0.0153266
705.842	0.0153594
705.920	0.0151108
705.998	0.0151526
706.076	0.0150958
706.155	0.0148357
706.233	0.0146545
706.311	0.0146239
706.389	0.0145167
706.467	0.0144759
706.545	0.0144759
706.623	0.0142661
706.701	0.0141299
706.780	0.0141755
706.858	0.0141987
706.936	0.0140092
707.014	0.0138900
707.092	0.0139826
707.170	0.0141806
707.248	0.0140938
707.326	0.0141394
707.405	0.0143616
707.483	0.0143723
707.561	0.0144014
707.639	0.0146764
707.717	0.0146308
707.795	0.0148532
707.873	0.0151151
707.951	0.0151247
708.030	0.0154410
708.108	0.0156373
708.186	0.0156640
708.264	0.0157549
708.342	0.0158191
708.420	0.0159482
708.498	0.0160555
708.576	0.0160432
708.655	0.0160006
708.733	0.0159644
708.811	0.0158524
708.889	0.0160288
708.967	0.0159245
709.045	0.0159547
709.123	0.0158347
709.201	0.0158697
709.280	0.0158658
709.358	0.0158694
709.436	0.0158465
709.514	0.0159071
709.592	0.0158828
709.670	0.0158778
709.748	0.0159576
709.826	0.0158646
709.905	0.0159196
709.983	0.0160514
710.061	0.0160924
710.139	0.0161342
710.217	0.0162071
710.295	0.0161141
710.373	0.0160168
710.451	0.0159498
710.530	0.0157903
710.608	0.0158709
710.686	0.0157939
710.764	0.0156614
710.842	0.0156136
710.920	0.0155209
710.998	0.0152938
711.076	0.0151575
711.155	0.0150915
711.233	0.0148914
711.311	0.0148786
711.389	0.0147971
711.467	0.0149795
711.545	0.0147753
711.623	0.0146540
711.701	0.0146278
711.780	0.0147772
711.858	0.0145422
711.936	0.0145260
712.014	0.0145207
712.092	0.0144659
712.170	0.0144016
712.248	0.0144782
712.326	0.0144083
712.405	0.0146069
712.483	0.0146356
712.561	0.0145747
712.639	0.0147118
712.717	0.0145726
712.795	0.0147360
712.873	0.0147056
712.951	0.0147395
713.030	0.0147771
713.108	0.0146928
713.186	0.0148044
713.264	0.0147961
713.342	0.0149294
713.420	0.0149525
713.498	0.0148978
713.576	0.0149720
713.655	0.0150040
713.733	0.0150820
713.811	0.0152280
713.889	0.0152304
713.967	0.0153634
714.045	0.0155157
714.123	0.0156312
714.201	0.0157705
714.280	0.0157862
714.358	0.0158924
714.436	0.0158420
714.514	0.0158862
714.592	0.0160147
714.670	0.0159564
714.748	0.0160729
714.826	0.0159367
714.905	0.0161590
714.983	0.0159942
715.061	0.0158485
715.139	0.0158222
715.217	0.0157742
715.295	0.0158401
715.373	0.0158056
715.451	0.0155630
715.530	0.0157076
715.608	0.0156098
715.686	0.0154897
715.764	0.0153676
715.842	0.0151858
715.920	0.0152379
715.998	0.0150761
716.076	0.0150253
716.155	0.0149167
716.233	0.0148499
716.311	0.0147275
716.389	0.0145611
716.467	0.0145293
716.545	0.0145049
716.623	0.0144809
716.701	0.0144451
716.780	0.0144778
716.858	0.0145189
716.936	0.0146387
717.014	0.0145337
717.092	0.0145086
717.170	0.0148087
717.248	0.0148993
717.326	0.0149839
717.405	0.0149915
717.483	0.0151468
717.561	0.0152712
717.639	0.0153960
717.717	0.0155892
717.795	0.0155482
717.873	0.0156178
717.951	0.0158012
718.030	0.0158930
718.108	0.0157471
718.186	0.0157645
718.264	0.0157280
718.342	0.0157236
718.420	0.0156062
718.498	0.0155888
718.576	0.0154219
718.655	0.0156738
718.733	0.0157333
718.811	0.0155402
718.889	0.0154136
718.967	0.0154484
719.045	0.0154624
719.123	0.0155346
719.201	0.0157020
719.280	0.0155444
719.358	0.0155242
719.436	0.0155067
719.514	0.0157693
719.592	0.0157520
719.670	0.0157260
719.748	0.0157664
719.826	0.0156367
719.905	0.0157865
719.983	0.0156948
720.061	0.0156166
720.139	0.0153903
720.217	0.0156317
720.295	0.0155696
720.373	0.0154472
720.451	0.0153301
720.530	0.0152834
720.608	0.0153065
720.686	0.0152903
720.764	0.0151988
720.842	0.0150536
720.920	0.0149875
720.998	0.0148273
721.076	0.0149576
721.155	0.0148663
721.233	0.0147957
721.311	0.0148609
721.389	0.0147817
721.467	0.0147383
721.545	0.0148395
721.623	0.0147301
721.701	0.0148270
721.780	0.0150524
721.858	0.0150684
721.936	0.0151080
722.014	0.0152289
722.092	0.0152586
722.170	0.0153656
722.248	0.0155383
722.326	0.0155865
722.405	0.0157439
722.483	0.0157632
722.561	0.0157268
722.639	0.0156090
722.717	0.0156586
722.795	0.0154851
722.873	0.0154554
722.951	0.0153595
723.030	0.0150867
723.108	0.0148922
723.186	0.0149609
723.264	0.0147167
723.342	0.0147244
723.420	0.0144134
723.498	0.0144314
723.576	0.0143170
723.655	0.0143587
723.733	0.0142663
723.811	0.0142488
723.889	0.0143754
723.967	0.0145055
724.045	0.0146075
724.123	0.0146763
724.201	0.0148512
724.280	0.0149989
724.358	0.0151505
724.436	0.0154678
724.514	0.0156832
724.592	0.0156827
724.670	0.0158711
724.748	0.0160773
724.826	0.0164038
724.905	0.0164350
724.983	0.0164456
725.061	0.0165820
725.139	0.0168056
725.217	0.0166537
725.295	0.0166013
725.373	0.0167337
725.451	0.0167979
725.530	0.0166759
725.608	0.0167220
725.686	0.0167557
725.764	0.0165675
725.842	0.0167063
725.920	0.0166744
725.998	0.0166196
726.076	0.0165500
726.155	0.0164069
726.233	0.0164333
726.311	0.0163073
726.389	0.0161729
726.467	0.0160698
726.545	0.0160218
726.623	0.0157814
726.701	0.0157834
726.780	0.0155638
726.858	0.0155126
726.936	0.0154028
727.014	0.0152917
727.092	0.0151641
727.170	0.0150349
727.248	0.0148341
727.326	0.0146696
727.405	0.0146764
727.483	0.0144434
727.561	0.0142113
727.639	0.0141244
727.717	0.0139371
727.795	0.0138516
727.873	0.0138881
727.951	0.0137425
728.030	0.0136219
728.108	0.0135940
728.186	0.0136068
728.264	0.0135848
728.342	0.0138288
728.420	0.0139046
728.498	0.0137951
728.576	0.0139516
728.655	0.0141014
728.733	0.0140552
728.811	0.0143633
728.889	0.0145136
728.967	0.0145673
729.045	0.0148744
729.123	0.0149799
729.201	0.0149732
729.280	0.0152750
729.358	0.0154537
729.436	0.0155223
729.514	0.0155982
729.592	0.0157221
729.670	0.0158881
729.748	0.0160189
729.826	0.0160323
729.905	0.0159919
729.983	0.0159945
730.061	0.0160348
730.139	0.0162575
730.217	0.0161332
730.295	0.0160533
730.373	0.0160234
730.451	0.0159064
730.530	0.0159303
730.608	0.0159338
730.686	0.0157814
730.764	0.0157198
730.842	0.0156532
730.920	0.0156192
730.998	0.0155650
731.076	0.0155299
731.155	0.0154185
731.233	0.0152998
731.311	0.0151222
731.389	0.0153339
731.467	0.0153100
731.545	0.0152057
731.623	0.0152156
731.701	0.0151425
731.780	0.0151646
731.858	0.0152122
731.936	0.0152466
732.014	0.0151243
732.092	0.0153818
732.170	0.0153389
732.248	0.0155034
732.326	0.0156592
732.405	0.0157394
732.483	0.0156995
732.561	0.0155926
732.639	0.0158774
732.717	0.0158824
732.795	0.0159935
732.873	0.0158299
732.951	0.0159216
733.030	0.0160760
733.108	0.0161376
733.186	0.0160621
733.264	0.0162324
733.342	0.0161668
733.420	0.0161755
733.498	0.0160551
733.576	0.0161441
733.655	0.0161073
733.733	0.0160278
733.811	0.0158248
733.889	0.0159601
733.967	0.0157678
734.045	0.0155457
734.123	0.0154562
734.201	0.0153686
734.280	0.0151291
734.358	0.0150763
734.436	0.0148461
734.514	0.0146960
734.592	0.0145490
734.670	0.0142783
734.748	0.0142535
734.826	0.0140763
734.905	0.0138203
734.983	0.0136847
735.061	0.0135623
735.139	0.0136270
735.217	0.0134199
735.295	0.0134561
735.373	0.0134991
735.451	0.0134652
735.530	0.0135303
735.608	0.0136511
735.686	0.0136189
735.764	0.0137369
735.842	0.0139104
735.920	0.0140749
735.998	0.0140327
736.076	0.0143379
736.155	0.0144200
736.233	0.0144499
736.311	0.0145921
736.389	0.0147150
736.467	0.0148012
736.545	0.0148502
736.623	0.0150705
736.701	0.0152766
736.780	0.0150883
736.858	0.0152547
736.936	0.0155182
737.014	0.0156036
737.092	0.0157021
737.170	0.0157954
737.248	0.0160426
737.326	0.0160336
737.405	0.0162344
737.483	0.0164394
737.561	0.0164411
737.639	0.0165194
737.717	0.0167972
737.795	0.0169731
737.873	0.0170743
737.951	0.0170034
738.030	0.0172408
738.108	0.0172328
738.186	0.0171950
738.264	0.0169676
738.342	0.0168636
738.420	0.0166266
738.498	0.0163978
738.576	0.0162804
738.655	0.0160349
738.733	0.0158433
738.811	0.0156207
738.889	0.0152751
738.967	0.0149789
739.045	0.0147360
739.123	0.0146227
739.201	0.0145028
739.280	0.0144658
739.358	0.0143958
739.436	0.0144093
739.514	0.0144760
739.592	0.0145586
739.670	0.0146371
739.748	0.0147346
739.826	0.0148763
739.905	0.0149846
739.983	0.0152728
740.061	0.0153419
740.139	0.0156822
740.217	0.0157697
740.295	0.0159468
740.373	0.0159808
740.451	0.0161642
740.530	0.0162667
740.608	0.0162941
740.686	0.0164233
740.764	0.0164725
740.842	0.0163380
740.920	0.0162450
740.998	0.0161824
741.076	0.0160403
741.155	0.0157991
741.233	0.0157343
741.311	0.0156995
741.389	0.0156513
741.467	0.0153987
741.545	0.0152247
741.623	0.0150307
741.701	0.0150452
741.780	0.0149665
741.858	0.0148412
741.936	0.0147158
742.014	0.0146306
742.092	0.0147332
742.170	0.0145887
742.248	0.0145911
742.326	0.0145245
742.405	0.0144810
742.483	0.0145391
742.561	0.0144141
742.639	0.0144537
742.717	0.0144107
742.795	0.0142651
742.873	0.0142965
742.951	0.0142387
743.030	0.0140806
743.108	0.0141062
743.186	0.0140276
743.264	0.0140760
743.342	0.0140469
743.420	0.0139503
743.498	0.0140298
743.576	0.0140425
743.655	0.0142331
743.733	0.0143245
743.811	0.0142805
743.889	0.0143513
743.967	0.0145690
744.045	0.0145401
744.123	0.0148167
744.201	0.0150969
744.280	0.0151214
744.358	0.0152038
744.436	0.0153908
744.514	0.0155322
744.592	0.0157339
744.670	0.0159213
744.748	0.0161008
744.826	0.0161840
744.905	0.0162757
744.983	0.0164195
745.061	0.0164945
745.139	0.0166180
745.217	0.0169504
745.295	0.0171027
745.373	0.0171468
745.451	0.0171892
745.530	0.0170873
745.608	0.0174052
745.686	0.0172848
745.764	0.0172048
745.842	0.0171206
745.920	0.0170723
745.998	0.0170213
746.076	0.0168304
746.155	0.0166999
746.233	0.0165718
746.311	0.0161530
746.389	0.0158215
746.467	0.0155405
746.545	0.0152525
746.623	0.0150002
746.701	0.0148186
746.780	0.0144572
746.858	0.0143213
746.936	0.0140636
747.014	0.0141127
747.092	0.0138451
747.170	0.0137179
747.248	0.0138584
747.326	0.0139294
747.405	0.0139207
747.483	0.0141380
747.561	0.0144776
747.639	0.0145723
747.717	0.0146050
747.795	0.0148978
747.873	0.0153188
747.951	0.0154899
748.030	0.0158470
748.108	0.0159664
748.186	0.0162548
748.264	0.0163436
748.342	0.0164417
748.420	0.0165232
748.498	0.0164594
748.576	0.0164142
748.655	0.0164669
748.733	0.0163512
748.811	0.0161986
748.889	0.0160548
748.967	0.0159129
749.045	0.0157504
749.123	0.0156091
749.201	0.0152829
749.280	0.0151156
749.358	0.0150185
749.436	0.0147272
749.514	0.0148549
749.592	0.0145057
749.670	0.0145009
749.748	0.0141547
749.826	0.0143686
749.905	0.0142409
749.983	0.0142638
750.061	0.0141956
750.139	0.0142875
750.217	0.0142912
750.295	0.0142934
750.373	0.0144556
750.451	0.0144875
750.530	0.0144128
750.608	0.0143651
750.686	0.0144072
750.764	0.0144492
750.842	0.0144045
750.920	0.0142782
750.998	0.0144635
751.076	0.0143645
751.155	0.0144441
751.233	0.0143530
751.311	0.0145078
751.389	0.0146444
751.467	0.0145697
751.545	0.0145770
751.623	0.0146593
751.701	0.0149002
751.780	0.0149411
751.858	0.0149624
751.936	0.0150994
752.014	0.0152016
752.092	0.0154745
752.170	0.0153676
752.248	0.0155963
752.326	0.0158504
752.405	0.0156876
752.483	0.0158495
752.561	0.0160134
752.639	0.0161754
752.717	0.0162096
752.795	0.0164845
752.873	0.0165408
752.951	0.0165847
753.030	0.0166958
753.108	0.0169409
753.186	0.0168571
753.264	0.0168165
753.342	0.0170573
753.420	0.0169976
753.498	0.0168630
753.576	0.0169826
753.655	0.0170697
753.733	0.0168326
753.811	0.0167057
753.889	0.0166474
753.967	0.0166491
754.045	0.0163860
754.123	0.0161205
754.201	0.0158700
754.280	0.0156136
754.358	0.0153107
754.436	0.0148733
754.514	0.0146434
754.592	0.0142801
754.670	0.0142423
754.748	0.0141116
754.826	0.0137825
754.905	0.0136285
754.983	0.0134348
755.061	0.0137987
755.139	0.0135938
755.217	0.0136553
755.295	0.0138905
755.373	0.0139320
755.451	0.0141927
755.530	0.0144978
755.608	0.0146098
755.686	0.0150951
755.764	0.0154079
755.842	0.0156061
755.920	0.0159618
755.998	0.0160547
756.076	0.0163349
756.155	0.0164645
756.233	0.0165807
756.311	0.0167212
756.389	0.0166574
756.467	0.0166614
756.545	0.0165256
756.623	0.0163395
756.701	0.0161047
756.780	0.0160117
756.858	0.0156338
756.936	0.0154020
757.014	0.0151434
757.092	0.0149519
757.170	0.0147322
757.248	0.0146337
757.326	0.0143593
757.405	0.0142078
757.483	0.0142769
757.561	0.0142500
757.639	0.0140170
757.717	0.0140958
757.795	0.0142768
757.873	0.0143047
757.951	0.0142755
758.030	0.0145177
758.108	0.0145712
758.186	0.0147149
758.264	0.0148576
758.342	0.0148441
758.420	0.0150227
758.498	0.0150448
758.576	0.0150914
758.655	0.0150705
758.733	0.0150626
758.811	0.0150809
758.889	0.0150597
758.967	0.0149683
759.045	0.0148357
759.123	0.0149687
759.201	0.0148907
759.280	0.0149017
759.358	0.0148791
759.436	0.0149956
759.514	0.0149189
759.592	0.0151234
759.670	0.0152303
759.748	0.0151662
759.826	0.0153581
759.905	0.0155022
759.983	0.0157961
760.061	0.0157515
760.139	0.0159592
760.217	0.0160107
760.295	0.0160987
760.373	0.0162621
760.451	0.0163406
760.530	0.0164711
760.608	0.0165445
760.686	0.0166940
760.764	0.0165883
760.842	0.0165724
760.920	0.0167915
760.998	0.0166458
761.076	0.0168107
761.155	0.0166811
761.233	0.0166764
761.311	0.0165327
761.389	0.0166267
761.467	0.0167443
761.545	0.0165434
761.623	0.0165202
761.701	0.0164027
761.780	0.0162278
761.858	0.0161035
761.936	0.0160696
762.014	0.0158192
762.092	0.0155350
762.170	0.0154063
762.248	0.0152442
762.326	0.0148743
762.405	0.0148418
762.483	0.0145748
762.561	0.0142655
762.639	0.0142313
762.717	0.0139247
762.795	0.0139756
762.873	0.0139856
762.951	0.0139806
763.030	0.0139014
763.108	0.0140199
763.186	0.0142044
763.264	0.0145381
763.342	0.0146383
763.420	0.0149458
763.498	0.0151787
763.576	0.0155129
763.655	0.0156071
763.733	0.0158470
763.811	0.0162096
763.889	0.0164178
763.967	0.0163869
764.045	0.0164328
764.123	0.0164597
764.201	0.0164451
764.280	0.0164175
764.358	0.0161597
764.436	0.0160755
764.514	0.0159557
764.592	0.0155503
764.670	0.0154592
764.748	0.0152702
764.826	0.0149332
764.905	0.0146641
764.983	0.0144668
765.061	0.0143397
765.139	0.0141669
765.217	0.0140125
765.295	0.0140064
765.373	0.0140165
765.451	0.0140226
765.530	0.0140091
765.608	0.0141143
765.686	0.0143430
765.764	0.0144286
765.842	0.0145584
765.920	0.0147875
765.998	0.0149080
766.076	0.0151266
766.155	0.0153284
766.233	0.0153777
766.311	0.0153061
766.389	0.0154679
766.467	0.0154357
766.545	0.0155396
766.623	0.0155102
766.701	0.0157320
766.780	0.0155713
766.858	0.0154032
766.936	0.0153312
767.014	0.0153777
767.092	0.0153048
767.170	0.0151376
767.248	0.0151829
767.326	0.0151002
767.405	0.0151157
767.483	0.0152178
767.561	0.0153411
767.639	0.0153029
767.717	0.0154124
767.795	0.0154576
767.873	0.0154620
767.951	0.0155663
768.030	0.0157705
768.108	0.0159090
768.186	0.0159885
768.264	0.0160468
768.342	0.0161032
768.420	0.0160419
768.498	0.0161068
768.576	0.0162711
768.655	0.0162855
768.733	0.0163539
768.811	0.0164530
768.889	0.0163566
768.967	0.0162836
769.045	0.0162760
769.123	0.0163175
769.201	0.0163296
769.280	0.0162767
769.358	0.0163020
769.436	0.0162515
769.514	0.0160575
769.592	0.0161134
769.670	0.0159425
769.748	0.0158691
769.826	0.0156291
769.905	0.0156706
769.983	0.0157334
770.061	0.0153556
770.139	0.0152177
770.217	0.0151398
770.295	0.0149130
770.373	0.0145877
770.451	0.0144492
770.530	0.0142907
770.608	0.0142381
770.686	0.0142010
770.764	0.0139225
770.842	0.0141476
770.920	0.0140788
770.998	0.0142091
771.076	0.0145068
771.155	0.0145013
771.233	0.0147018
771.311	0.0149089
771.389	0.0150613
771.467	0.0152076
771.545	0.0154707
771.623	0.0155593
771.701	0.0156277
771.780	0.0158617
771.858	0.0158391
771.936	0.0157735
772.014	0.0158195
772.092	0.0158756
772.170	0.0156873
772.248	0.0156528
772.326	0.0154987
772.405	0.0153043
772.483	0.0151526
772.561	0.0150156
772.639	0.0149187
772.717	0.0146957
772.795	0.0145388
772.873	0.0144102
772.951	0.0144505
773.030	0.0141449
773.108	0.0141245
773.186	0.0142218
773.264	0.0142889
773.342	0.0143447
773.420	0.0142585
773.498	0.0144523
773.576	0.0145570
773.655	0.0148038
773.733	0.0149577
773.811	0.0150738
773.889	0.0152584
773.967	0.0153472
774.045	0.0155313
774.123	0.0156972
774.201	0.0157092
774.280	0.0156242
774.358	0.0156167
774.436	0.0158114
774.514	0.0158858
774.592	0.0154255
774.670	0.0154031
774.748	0.0154274
774.826	0.0154082
774.905	0.0154774
774.983	0.0154896
775.061	0.0153651
775.139	0.0153374
775.217	0.0153426
775.295	0.0152601
775.373	0.0153071
775.451	0.0154856
775.530	0.0154533
775.608	0.0155231
775.686	0.0157336
775.764	0.0157376
775.842	0.0156091
775.920	0.0158556
775.998	0.0157985
776.076	0.0157987
776.155	0.0159775
776.233	0.0158698
776.311	0.0158610
776.389	0.0159452
776.467	0.0159250
776.545	0.0160944
776.623	0.0159792
776.701	0.0159985
776.780	0.0160857
776.858	0.0160350
776.936	0.0159739
777.014	0.0158573
777.092	0.0159883
777.170	0.0157910
777.248	0.0159444
777.326	0.0157490
777.405	0.0158446
777.483	0.0157448
777.561	0.0157167
777.639	0.0155754
777.717	0.0156557
777.795	0.0155293
777.873	0.0154494
777.951	0.0153666
778.030	0.0150986
778.108	0.0150175
778.186	0.0150201
778.264	0.0147977
778.342	0.0147947
778.420	0.0147466
778.498	0.0145909
778.576	0.0146790
778.655	0.0144630
778.733	0.0145912
778.811	0.0145485
778.889	0.0146287
778.967	0.0146741
779.045	0.0148132
779.123	0.0148850
779.201	0.0150610
779.280	0.0151213
779.358	0.0153718
779.436	0.0155836
779.514	0.0155051
779.592	0.0156802
779.670	0.0158094
779.748	0.0157464
779.826	0.0157104
779.905	0.0156956
779.983	0.0157458
780.061	0.0158029
780.139	0.0156144
780.217	0.0155057
780.295	0.0153938
780.373	0.0154591
780.451	0.0152212
780.530	0.0151453
780.608	0.0151173
780.686	0.0148911
780.764	0.0149357
780.842	0.0147256
780.920	0.0146792
780.998	0.0145953
781.076	0.0147495
781.155	0.0146535
781.233	0.0144486
781.311	0.0146668
781.389	0.0147968
781.467	0.0147242
781.545	0.0148640
781.623	0.0149429
781.701	0.0150318
781.780	0.0151743
781.858	0.0153318
781.936	0.0152905
782.014	0.0154513
782.092	0.0155094
782.170	0.0157206
782.248	0.0155537
782.326	0.0155365
782.405	0.0155441
782.483	0.0156615
782.561	0.0156897
782.639	0.0154446
782.717	0.0155667
782.795	0.0155476
782.873	0.0156048
782.951	0.0155244
783.030	0.0155001
783.108	0.0156160
783.186	0.0157196
783.264	0.0156707
783.342	0.0157222
783.420	0.0158303
783.498	0.0157619
783.576	0.0157834
783.655	0.0158881
783.733	0.0157098
783.811	0.0159322
783.889	0.0160208
783.967	0.0158974
784.045	0.0159175
784.123	0.0159377
784.201	0.0157294
784.280	0.0159168
784.358	0.0157971
784.436	0.0156973
784.514	0.0155944
784.592	0.0156486
784.670	0.0157664
784.748	0.0154778
784.826	0.0154490
784.905	0.0155081
784.983	0.0154165
785.061	0.0154788
785.139	0.0154339
785.217	0.0153510
785.295	0.0154707
785.373	0.0154327
785.451	0.0155249
785.530	0.0154382
785.608	0.0155199
785.686	0.0156506
785.764	0.0155072
785.842	0.0154957
785.920	0.0155388
785.998	0.0155393
786.076	0.0155132
786.155	0.0154793
786.233	0.0154411
786.311	0.0154039
786.389	0.0152181
786.467	0.0152496
786.545	0.0152737
786.623	0.0151986
786.701	0.0151338
786.780	0.0150247
786.858	0.0151220
786.936	0.0151633
787.014	0.0150600
787.092	0.0150386
787.170	0.0151553
787.248	0.0151321
787.326	0.0151275
787.405	0.0151392
787.483	0.0152222
787.561	0.0152211
787.639	0.0152112
787.717	0.0151431
787.795	0.0152860
787.873	0.0152332
787.951	0.0152528
788.030	0.0149937
788.108	0.0149928
788.186	0.0149366
788.264	0.0149173
788.342	0.0149135
788.420	0.0149401
788.498	0.0147473
788.576	0.0147105
788.655	0.0147325
788.733	0.0148140
788.811	0.0146857
788.889	0.0147540
788.967	0.0146951
789.045	0.0145505
789.123	0.0146546
789.201	0.0148605
789.280	0.0149224
789.358	0.0149113
789.436	0.0147358
789.514	0.0149558
789.592	0.0150958
789.670	0.0150794
789.748	0.0152305
789.826	0.0155392
789.905	0.0153890
789.983	0.0155122
790.061	0.0154173
790.139	0.0156462
790.217	0.0155820
790.295	0.0156171
790.373	0.0155754
790.451	0.0157535
790.530	0.0157504
790.608	0.0157421
790.686	0.0156079
790.764	0.0156918
790.842	0.0155042
790.920	0.0157327
790.998	0.0157245
791.076	0.0156847
791.155	0.0156422
791.233	0.0158186
791.311	0.0159220
791.389	0.0159025
791.467	0.0157967
791.545	0.0157595
791.623	0.0158121
791.701	0.0158926
791.780	0.0159044
791.858	0.0157256
791.936	0.0157607
792.014	0.0157915
792.092	0.0157162
792.170	0.0155698
792.248	0.0155440
792.326	0.0153819
792.405	0.0152995
792.483	0.0153045
792.561	0.0152383
792.639	0.0152968
792.717	0.0152054
792.795	0.0153086
792.873	0.0150875
792.951	0.0152419
793.030	0.0151748
793.108	0.0152670
793.186	0.0152648
793.264	0.0154526
793.342	0.0154620
793.420	0.0153962
793.498	0.0154845
793.576	0.0154472
793.655	0.0154504
793.733	0.0155283
793.811	0.0156747
793.889	0.0154910
793.967	0.0154862
794.045	0.0154348
794.123	0.0153698
794.201	0.0153732
794.280	0.0155556
794.358	0.0152675
794.436	0.0152746
794.514	0.0154086
794.592	0.0153656
794.670	0.0153429
794.748	0.0153791
794.826	0.0153448
794.905	0.0153330
794.983	0.0153575
795.061	0.0152274
795.139	0.0152644
795.217	0.0151897
795.295	0.0153373
795.373	0.0153157
795.451	0.0153616
795.530	0.0153387
795.608	0.0151939
795.686	0.0151458
795.764	0.0150955
795.842	0.0149765
795.920	0.0151299
795.998	0.0150854
796.076	0.0149427
796.155	0.0148840
796.233	0.0147803
796.311	0.0147289
796.389	0.0146939
796.467	0.0145204
796.545	0.0146154
796.623	0.0146372
796.701	0.0146420
796.780	0.0147282
796.858	0.0146764
796.936	0.0148996
797.014	0.0148774
797.092	0.0146752
797.170	0.0148087
797.248	0.0149482
797.326	0.0150605
797.405	0.0151368
797.483	0.0152113
797.561	0.0152448
797.639	0.0151009
797.717	0.0152650
797.795	0.0152518
797.873	0.0152991
797.951	0.0154504
798.030	0.0152840
798.108	0.0153535
798.186	0.0154811
798.264	0.0156609
798.342	0.0154621
798.420	0.0153944
798.498	0.0156125
798.576	0.0155348
798.655	0.0155089
798.733	0.0154904
798.811	0.0156067
798.889	0.0156046
798.967	0.0155991
799.045	0.0154964
799.123	0.0156180
799.201	0.0156585
799.280	0.0157391
799.358	0.0156985
799.436	0.0157588
799.514	0.0157783
799.592	0.0156926
799.670	0.0156710
799.748	0.0157900
799.826	0.0158683
799.905	0.0157266
799.983	0.0156901
800.061	0.0158157
800.139	0.0158067
800.217	0.0157064
800.295	0.0156265
800.373	0.0156574
800.451	0.0155006
800.530	0.0153481
800.608	0.0152895
800.686	0.0154184
800.764	0.0152152
800.842	0.0152296
800.920	0.0151774
800.998	0.0152158
801.076	0.0151439
801.155	0.0152029
801.233	0.0152287
801.311	0.0152303
801.389	0.0153433
801.467	0.0153234
801.545	0.0153413
801.623	0.0154297
801.701	0.0154016
801.780	0.0153945
801.858	0.0154287
801.936	0.0153495
802.014	0.0152518
802.092	0.0154127
802.170	0.0154240
802.248	0.0153631
802.326	0.0151461
802.405	0.0153239
802.483	0.0154925
802.561	0.0153563
802.639	0.0153516
802.717	0.0153668
802.795	0.0153402
802.873	0.0152928
802.951	0.0152205
803.030	0.0152290
803.108	0.0149805
803.186	0.0151019
803.264	0.0149463
803.342	0.0151517
803.420	0.0150051
803.498	0.0150298
803.576	0.0149422
803.655	0.0146667
803.733	0.0147974
803.811	0.0148876
803.889	0.0148301
803.967	0.0148869
804.045	0.0147790
804.123	0.0148207
804.201	0.0147038
804.280	0.0145643
804.358	0.0147388
804.436	0.0148201
804.514	0.0148146
804.592	0.0147792
804.670	0.0149426
804.748	0.0149704
804.826	0.0150086
804.905	0.0150462
804.983	0.0152058
805.061	0.0152774
805.139	0.0153267
805.217	0.0154061
805.295	0.0155587
805.373	0.0155003
805.451	0.0154319
805.530	0.0154411
805.608	0.0155293
805.686	0.0156049
805.764	0.0155368
805.842	0.0155575
805.920	0.0155968
805.998	0.0155963
806.076	0.0155263
806.155	0.0155936
806.233	0.0156666
806.311	0.0156393
806.389	0.0156683
806.467	0.0157506
806.545	0.0157619
806.623	0.0156313
806.701	0.0157576
806.780	0.0159206
806.858	0.0159696
806.936	0.0159519
807.014	0.0159386
807.092	0.0158788
807.170	0.0159250
807.248	0.0158335
807.326	0.0157900
807.405	0.0158250
807.483	0.0159077
807.561	0.0157741
807.639	0.0156801
807.717	0.0157603
807.795	0.0155654
807.873	0.0155270
807.951	0.0156098
808.030	0.0153931
808.108	0.0153385
808.186	0.0154341
808.264	0.0152892
808.342	0.0150995
808.420	0.0150481
808.498	0.0150813
808.576	0.0149799
808.655	0.0149229
808.733	0.0149659
808.811	0.0148351
808.889	0.0149026
808.967	0.0148148
809.045	0.0148269
809.123	0.0147521
809.201	0.0149223
809.280	0.0148651
809.358	0.0150060
809.436	0.0150137
809.514	0.0150884
809.592	0.0149997
809.670	0.0150760
809.748	0.0151337
809.826	0.0151414
809.905	0.0152280
809.983	0.0154308
810.061	0.0153132
810.139	0.0154179
810.217	0.0155147
810.295	0.0155235
810.373	0.0156374
810.451	0.0156556
810.530	0.0156297
810.608	0.0156955
810.686	0.0156422
810.764	0.0157665
810.842	0.0157367
810.920	0.0157653
810.998	0.0157455
811.076	0.0156711
811.155	0.0156664
811.233	0.0155859
811.311	0.0153835
811.389	0.0155326
811.467	0.0154158
811.545	0.0152677
811.623	0.0151909
811.701	0.0152378
811.780	0.0151050
811.858	0.0149617
811.936	0.0149147
812.014	0.0150445
812.092	0.0147900
812.170	0.0149313
812.248	0.0149120
812.326	0.0148800
812.405	0.0149450
812.483	0.0149371
812.561	0.0149492
812.639	0.0150399
812.717	0.0150269
812.795	0.0149473
812.873	0.0152018
812.951	0.0151794
813.030	0.0151713
813.108	0.0153379
813.186	0.0152577
813.264	0.0153934
813.342	0.0152865
813.420	0.0154367
813.498	0.0152430
813.576	0.0153548
813.655	0.0152829
813.733	0.0152398
813.811	0.0153749
813.889	0.0152773
813.967	0.0154291
814.045	0.0153976
814.123	0.0153090
814.201	0.0153675
814.280	0.0153584
814.358	0.0153431
814.436	0.0154179
814.514	0.0155530
814.592	0.0154263
814.670	0.0153700
814.748	0.0156502
814.826	0.0157019
814.905	0.0157752
814.983	0.0157439
815.061	0.0156835
815.139	0.0157078
815.217	0.0158222
815.295	0.0157796
815.373	0.0158585
815.451	0.0156953
815.530	0.0158710
815.608	0.0156881
815.686	0.0157528
815.764	0.0157609
815.842	0.0159058
815.920	0.0157310
815.998	0.0158546
816.076	0.0156456
816.155	0.0155698
816.233	0.0156279
816.311	0.0155494
816.389	0.0155189
816.467	0.0154694
816.545	0.0154070
816.623	0.0154144
816.701	0.0153358
816.780	0.0152325
816.858	0.0154613
816.936	0.0152058
817.014	0.0152563
817.092	0.0151702
817.170	0.0150873
817.248	0.0148987
817.326	0.0151046
817.405	0.0149914
817.483	0.0150364
817.561	0.0151612
817.639	0.0148676
817.717	0.0149302
817.795	0.0150105
817.873	0.0149430
817.951	0.0149834
818.030	0.0151514
818.108	0.0152872
818.186	0.0152740
818.264	0.0153906
818.342	0.0152999
818.420	0.0154660
818.498	0.0155309
818.576	0.0156223
818.655	0.0155334
818.733	0.0156936
818.811	0.0156651
818.889	0.0157665
818.967	0.0155882
819.045	0.0155775
819.123	0.0154364
819.201	0.0155478
819.280	0.0156236
819.358	0.0155444
819.436	0.0152321
819.514	0.0152176
819.592	0.0152222
819.670	0.0150880
819.748	0.0149496
819.826	0.0148058
819.905	0.0148033
819.983	0.0147971
820.061	0.0147224
820.139	0.0147951
820.217	0.0147289
820.295	0.0146727
820.373	0.0147301
820.451	0.0147997
820.530	0.0147861
820.608	0.0149403
820.686	0.0149524
820.764	0.0151141
820.842	0.0150586
820.920	0.0150830
820.998	0.0152133
821.076	0.0153097
821.155	0.0154378
821.233	0.0154816
821.311	0.0154972
821.389	0.0156265
821.467	0.0156197
821.545	0.0156847
821.623	0.0156443
821.701	0.0157013
821.780	0.0157177
821.858	0.0156545
821.936	0.0158530
822.014	0.0157707
822.092	0.0156303
822.170	0.0157457
822.248	0.0156859
822.326	0.0157177
822.405	0.0158049
822.483	0.0157601
822.561	0.0156878
822.639	0.0157390
822.717	0.0157513
822.795	0.0157034
822.873	0.0157528
822.951	0.0158084
823.030	0.0158452
823.108	0.0158155
823.186	0.0157205
823.264	0.0157408
823.342	0.0159107
823.420	0.0160085
823.498	0.0155849
823.576	0.0155611
823.655	0.0156400
823.733	0.0156813
823.811	0.0155518
823.889	0.0154151
823.967	0.0153773
824.045	0.0154430
824.123	0.0152618
824.201	0.0150744
824.280	0.0151212
824.358	0.0149944
824.436	0.0151022
824.514	0.0149525
824.592	0.0149046
824.670	0.0149114
824.748	0.0147897
824.826	0.0149149
824.905	0.0148335
824.983	0.0148645
825.061	0.0148009
825.139	0.0148998
825.217	0.0148493
825.295	0.0149195
825.373	0.0148536
825.451	0.0148283
825.530	0.0147643
825.608	0.0148921
825.686	0.0149529
825.764	0.0149378
825.842	0.0149461
825.920	0.0149444
825.998	0.0150610
826.076	0.0151729
826.155	0.0153782
826.233	0.0154520
826.311	0.0154839
826.389	0.0155901
826.467	0.0157136
826.545	0.0157809
826.623	0.0157657
826.701	0.0159050
826.780	0.0159537
826.858	0.0158807
826.936	0.0160034
827.014	0.0159495
827.092	0.0159128
827.170	0.0158912
827.248	0.0158014
827.326	0.0157171
827.405	0.0156339
827.483	0.0156305
827.561	0.0154292
827.639	0.0153875
827.717	0.0154284
827.795	0.0151814
827.873	0.0151473
827.951	0.0150311
828.030	0.0148837
828.108	0.0148315
828.186	0.0146848
828.264	0.0147546
828.342	0.0146661
828.420	0.0146602
828.498	0.0146957
828.576	0.0147410
828.655	0.0146887
828.733	0.0147929
828.811	0.0147062
828.889	0.0148944
828.967	0.0148263
829.045	0.0149767
829.123	0.0150377
829.201	0.0151270
829.280	0.0152242
829.358	0.0151393
829.436	0.0152497
829.514	0.0153893
829.592	0.0153056
829.670	0.0152316
829.748	0.0153368
829.826	0.0151785
829.905	0.0152963
829.983	0.0154066
830.061	0.0154953
830.139	0.0153544
830.217	0.0154028
830.295	0.0154049
830.373	0.0154565
830.451	0.0154768
830.530	0.0154168
830.608	0.0155021
830.686	0.0154623
830.764	0.0155581
830.842	0.0155818
830.920	0.0154416
830.998	0.0156033
831.076	0.0156799
831.155	0.0157838
831.233	0.0156084
831.311	0.0155811
831.389	0.0158339
831.467	0.0155809
831.545	0.0156480
831.623	0.0155061
831.701	0.0155994
831.780	0.0156134
831.858	0.0154816
831.936	0.0153424
832.014	0.0154542
832.092	0.0153897
832.170	0.0152628
832.248	0.0152551
832.326	0.0152335
832.405	0.0151682
832.483	0.0150383
832.561	0.0150656
832.639	0.0150227
832.717	0.0150549
832.795	0.0151074
832.873	0.0150141
832.951	0.0149117
833.030	0.0149539
833.108	0.0148908
833.186	0.0147710
833.264	0.0147640
833.342	0.0149096
833.420	0.0148615
833.498	0.0148392
833.576	0.0147972
833.655	0.0148671
833.733	0.0150461
833.811	0.0149837
833.889	0.0148492
833.967	0.0150017
834.045	0.0151144
834.123	0.0152223
834.201	0.0152789
834.280	0.0152615
834.358	0.0154156
834.436	0.0155813
834.514	0.0155643
834.592	0.0156282
834.670	0.0157871
834.748	0.0158614
834.826	0.0160403
834.905	0.0160304
834.983	0.0160249
835.061	0.0158833
835.139	0.0159576
835.217	0.0160721
835.295	0.0158781
835.373	0.0157512
835.451	0.0158535
835.530	0.0156469
835.608	0.0154179
835.686	0.0152783
835.764	0.0153506
835.842	0.0153040
835.920	0.0151934
835.998	0.0151738
836.076	0.0152766
836.155	0.0148402
836.233	0.0148997
836.311	0.0148911
836.389	0.0149867
836.467	0.0148458
836.545	0.0149380
836.623	0.0149902
836.701	0.0151422
836.780	0.0151371
836.858	0.0152203
836.936	0.0152234
837.014	0.0152927
837.092	0.0153903
837.170	0.0155000
837.248	0.0155092
837.326	0.0155807
837.405	0.0156996
837.483	0.0156379
837.561	0.0157058
837.639	0.0157063
837.717	0.0155854
837.795	0.0156375
837.873	0.0155949
837.951	0.0156215
838.030	0.0155719
838.108	0.0155533
838.186	0.0154187
838.264	0.0155699
838.342	0.0155392
838.420	0.0154870
838.498	0.0154453
838.576	0.0153403
838.655	0.0154252
838.733	0.0153091
838.811	0.0153596
838.889	0.0155341
838.967	0.0154451
839.045	0.0154926
839.123	0.0154993
839.201	0.0156499
839.280	0.0155169
839.358	0.0155228
839.436	0.0155673
839.514	0.0154959
839.592	0.0155206
839.670	0.0154395
839.748	0.0153658
839.826	0.0154709
839.905	0.0153972
839.983	0.0155183
840.061	0.0153036
840.139	0.0154190
840.217	0.0152567
840.295	0.0150340
840.373	0.0150432
840.451	0.0151726
840.530	0.0151158
840.608	0.0149966
840.686	0.0150877
840.764	0.0150479
840.842	0.0151680
840.920	0.0151154
840.998	0.0151083
841.076	0.0151063
841.155	0.0151693
841.233	0.0152083
841.311	0.0151157
841.389	0.0151276
841.467	0.0151523
841.545	0.0151373
841.623	0.0152904
841.701	0.0151488
841.780	0.0151685
841.858	0.0152489
841.936	0.0150301
842.014	0.0153471
842.092	0.0155463
842.170	0.0153839
842.248	0.0153345
842.326	0.0154783
842.405	0.0154488
842.483	0.0155699
842.561	0.0156624
842.639	0.0158189
842.717	0.0156974
842.795	0.0158141
842.873	0.0158022
842.951	0.0156927
843.030	0.0157037
843.108	0.0159086
843.186	0.0159413
843.264	0.0156891
843.342	0.0154824
843.420	0.0157539
843.498	0.0155309
843.576	0.0153837
843.655	0.0153802
843.733	0.0153009
843.811	0.0151328
843.889	0.0151156
843.967	0.0149673
844.045	0.0149448
844.123	0.0146816
844.201	0.0146987
844.280	0.0147678
844.358	0.0146780
844.436	0.0146088
844.514	0.0145697
844.592	0.0148152
844.670	0.0149194
844.748	0.0149339
844.826	0.0149799
844.905	0.0148391
844.983	0.0151175
845.061	0.0151627
845.139	0.0152542
845.217	0.0153117
845.295	0.0154916
845.373	0.0153780
845.451	0.0153800
845.530	0.0153609
845.608	0.0154862
845.686	0.0154089
845.764	0.0154720
845.842	0.0154427
845.920	0.0154412
845.998	0.0154221
846.076	0.0154449
846.155	0.0155394
846.233	0.0154543
846.311	0.0153857
846.389	0.0153132
846.467	0.0154552
846.545	0.0154024
846.623	0.0154292
846.701	0.0156169
846.780	0.0154842
846.858	0.0154279
846.936	0.0154596
847.014	0.0155930
847.092	0.0155577
847.170	0.0155361
847.248	0.0157883
847.326	0.0155732
847.405	0.0155727
847.483	0.0156162
847.561	0.0156533
847.639	0.0156258
847.717	0.0153870
847.795	0.0153376
847.873	0.0154290
847.951	0.0153249
848.030	0.0154209
848.108	0.0153280
848.186	0.0152821
848.264	0.0150446
848.342	0.0150433
848.420	0.0151338
848.498	0.0150140
848.576	0.0149911
848.655	0.0150312
848.733	0.0149151
848.811	0.0149087
848.889	0.0150840
848.967	0.0150555
849.045	0.0151060
849.123	0.0150356
849.201	0.0150734
849.280	0.0150182
849.358	0.0151575
849.436	0.0151397
849.514	0.0151598
849.592	0.0152679
849.670	0.0152489
849.748	0.0152757
849.826	0.0152171
849.905	0.0152654
849.983	0.0153074
850.061	0.0151357
850.139	0.0152866
850.217	0.0153351
850.295	0.0154263
850.373	0.0153312
850.451	0.0154543
850.530	0.0154881
850.608	0.0154241
850.686	0.0155373
850.764	0.0155128
850.842	0.0155585
850.920	0.0154677
850.998	0.0155354
851.076	0.0156084
851.155	0.0156303
851.233	0.0157560
851.311	0.0156154
851.389	0.0155910
851.467	0.0155211
851.545	0.0155663
851.623	0.0155860
851.701	0.0153244
851.780	0.0153779
851.858	0.0153618
851.936	0.0153159
852.014	0.0151913
852.092	0.0149988
852.170	0.0150157
852.248	0.0149292
852.326	0.0149384
852.405	0.0149799
852.483	0.0150809
852.561	0.0150261
852.639	0.0151048
852.717	0.0148905
852.795	0.0150948
852.873	0.0152151
852.951	0.0151907
853.030	0.0150963
853.108	0.0153468
853.186	0.0153439
853.264	0.0153431
853.342	0.0153128
853.420	0.0153586
853.498	0.0154328
853.576	0.0152598
853.655	0.0153047
853.733	0.0153617
853.811	0.0154151
853.889	0.0152027
853.967	0.0154284
854.045	0.0152560
854.123	0.0152624
854.201	0.0153903
854.280	0.0152847
854.358	0.0154029
854.436	0.0154546
854.514	0.0155131
854.592	0.0153873
854.670	0.0155015
854.748	0.0154816
854.826	0.0154285
854.905	0.0154256
854.983	0.0155416
855.061	0.0155511
855.139	0.0154679
855.217	0.0155155
855.295	0.0157501
855.373	0.0156097
855.451	0.0155695
855.530	0.0155870
855.608	0.0154697
855.686	0.0154536
855.764	0.0153712
855.842	0.0154526
855.920	0.0153841
855.998	0.0151760
856.076	0.0152386
856.155	0.0152742
856.233	0.0152946
856.311	0.0152575
856.389	0.0150285
856.467	0.0152794
856.545	0.0153267
856.623	0.0151705
856.701	0.0151295
856.780	0.0151986
856.858	0.0152811
856.936	0.0152635
857.014	0.0154684
857.092	0.0152504
857.170	0.0153603
857.248	0.0153580
857.326	0.0154131
857.405	0.0154426
857.483	0.0154568
857.561	0.0155083
857.639	0.0154227
857.717	0.0155338
857.795	0.0156523
857.873	0.0155663
857.951	0.0155044
858.030	0.0155615
858.108	0.0156368
858.186	0.0156384
858.264	0.0154960
858.342	0.0156529
858.420	0.0154774
858.498	0.0154779
858.576	0.0155857
858.655	0.0154025
858.733	0.0153856
858.811	0.0154485
858.889	0.0154203
858.967	0.0155091
859.045	0.0155276
859.123	0.0153895
859.201	0.0153751
859.280	0.0154726
859.358	0.0153531
859.436	0.0154124
859.514	0.0153471
859.592	0.0153865
859.670	0.0153350
859.748	0.0153806
859.826	0.0153398
859.905	0.0152443
859.983	0.0153518
860.061	0.0152274
860.139	0.0151648
860.217	0.0151029
860.295	0.0151395
860.373	0.0150474
860.451	0.0150982
860.530	0.0151516
860.608	0.0150964
860.686	0.0150302
860.764	0.0150679
860.842	0.0151874
860.920	0.0152433
860.998	0.0151299
861.076	0.0152363
861.155	0.0152914
861.233	0.0152832
861.311	0.0151926
861.389	0.0152900
861.467	0.0152526
861.545	0.0152915
861.623	0.0154148
861.701	0.0153970
861.780	0.0153413
861.858	0.0153735
861.936	0.0153189
862.014	0.0152785
862.092	0.0153323
862.170	0.0154636
862.248	0.0154579
862.326	0.0153842
862.405	0.0154610
862.483	0.0154965
862.561	0.0154901
862.639	0.0155616
862.717	0.0154814
862.795	0.0156172
862.873	0.0155003
862.951	0.0155415
863.030	0.0155366
863.108	0.0156249
863.186	0.0156686
863.264	0.0155985
863.342	0.0155108
863.420	0.0156107
863.498	0.0153281
863.576	0.0155505
863.655	0.0154077
863.733	0.0153572
863.811	0.0153712
863.889	0.0153578
863.967	0.0152480
864.045	0.0152605
864.123	0.0151643
864.201	0.0151910
864.280	0.0151816
864.358	0.0151472
864.436	0.0152989
864.514	0.0153340
864.592	0.0152496
864.670	0.0151303
864.748	0.0152212
864.826	0.0152684
864.905	0.0152750
864.983	0.0152205
865.061	0.0153176
865.139	0.0154134
865.217	0.0151994
865.295	0.0153234
865.373	0.0153883
865.451	0.0153362
865.530	0.0153135
865.608	0.0153151
865.686	0.0153627
865.764	0.0154420
865.842	0.0154202
865.920	0.0153507
865.998	0.0154672
866.076	0.0152882
866.155	0.0153448
866.233	0.0154058
866.311	0.0154173
866.389	0.0155631
866.467	0.0155170
866.545	0.0153583
866.623	0.0154037
866.701	0.0154221
866.780	0.0156030
866.858	0.0154309
866.936	0.0153859
867.014	0.0153255
867.092	0.0153663
867.170	0.0153451
867.248	0.0152745
867.326	0.0152553
867.405	0.0153901
867.483	0.0152867
867.561	0.0154013
867.639	0.0153580
867.717	0.0152911
867.795	0.0152849
867.873	0.0152680
867.951	0.0153278
868.030	0.0153542
868.108	0.0152262
868.186	0.0152160
868.264	0.0152042
868.342	0.0152834
868.420	0.0153147
868.498	0.0152738
868.576	0.0150787
868.655	0.0152509
868.733	0.0151781
868.811	0.0151763
868.889	0.0151970
868.967	0.0151307
869.045	0.0151881
869.123	0.0151440
869.201	0.0152487
869.280	0.0151917
869.358	0.0152012
869.436	0.0151971
869.514	0.0152621
869.592	0.0151863
869.670	0.0152258
869.748	0.0152206
869.826	0.0153445
869.905	0.0152634
869.983	0.0152724
870.061	0.0155308
870.139	0.0153000
870.217	0.0153095
870.295	0.0154193
870.373	0.0154723
870.451	0.0154144
870.530	0.0153763
870.608	0.0153900
870.686	0.0154607
870.764	0.0153771
870.842	0.0154615
870.920	0.0155137
870.998	0.0156530
871.076	0.0154968
871.155	0.0156190
871.233	0.0155317
871.311	0.0156020
871.389	0.0155836
871.467	0.0153991
871.545	0.0156120
871.623	0.0156789
871.701	0.0154389
871.780	0.0153887
871.858	0.0154219
871.936	0.0153729
872.014	0.0154162
872.092	0.0153827
872.170	0.0152625
872.248	0.0152573
872.326	0.0150790
872.405	0.0151612
872.483	0.0151736
872.561	0.0151946
872.639	0.0151180
872.717	0.0149490
872.795	0.0150533
872.873	0.0149694
872.951	0.0150783
873.030	0.0151298
873.108	0.0150352
873.186	0.0151373
873.264	0.0150366
873.342	0.0149467
873.420	0.0151566
873.498	0.0152270
873.576	0.0152272
873.655	0.0152497
873.733	0.0153446
873.811	0.0154909
873.889	0.0153062
873.967	0.0154472
874.045	0.0155479
874.123	0.0154624
874.201	0.0155974
874.280	0.0155660
874.358	0.0154899
874.436	0.0154695
874.514	0.0154493
874.592	0.0155552
874.670	0.0155486
874.748	0.0155446
874.826	0.0153667
874.905	0.0153843
874.983	0.0153497
875.061	0.0153320
875.139	0.0152657
875.217	0.0150808
875.295	0.0152136
875.373	0.0152194
875.451	0.0151423
875.530	0.0151257
875.608	0.0152991
875.686	0.0152432
875.764	0.0151077
875.842	0.0150783
875.920	0.0152666
875.998	0.0151399
876.076	0.0151120
876.155	0.0151363
876.233	0.0151100
876.311	0.0152381
876.389	0.0151395
876.467	0.0151270
876.545	0.0152081
876.623	0.0153022
876.701	0.0151620
876.780	0.0153361
876.858	0.0153735
876.936	0.0152498
877.014	0.0152680
877.092	0.0151896
877.170	0.0153242
877.248	0.0152953
877.326	0.0152225
877.405	0.0152705
877.483	0.0152654
877.561	0.0152763
877.639	0.0153853
877.717	0.0153594
877.795	0.0153181
877.873	0.0151764
877.951	0.0154758
878.030	0.0153127
878.108	0.0152907
878.186	0.0154877
878.264	0.0153867
878.342	0.0154636
878.420	0.0153387
878.498	0.0154804
878.576	0.0154803
878.655	0.0153330
878.733	0.0153754
878.811	0.0152037
878.889	0.0154345
878.967	0.0155302
879.045	0.0152638
879.123	0.0154334
879.201	0.0153873
879.280	0.0152653
879.358	0.0154511
879.436	0.0154401
879.514	0.0154636
879.592	0.0153920
879.670	0.0153623
879.748	0.0154900
879.826	0.0154153
879.905	0.0154063
879.983	0.0152829
880.061	0.0154962
880.139	0.0154852
880.217	0.0154993
880.295	0.0153797
880.373	0.0152973
880.451	0.0153192
880.530	0.0153515
880.608	0.0152411
880.686	0.0153810
880.764	0.0153927
880.842	0.0154404
880.920	0.0154408
880.998	0.0153399
881.076	0.0155100
881.155	0.0154060
881.233	0.0152431
881.311	0.0154705
881.389	0.0154801
881.467	0.0154923
881.545	0.0154310
881.623	0.0154235
881.701	0.0155915
881.780	0.0155247
881.858	0.0154005
881.936	0.0154060
882.014	0.0154540
882.092	0.0154401
882.170	0.0155925
882.248	0.0154967
882.326	0.0155389
882.405	0.0155436
882.483	0.0155643
882.561	0.0154821
882.639	0.0155570
882.717	0.0156065
882.795	0.0155488
882.873	0.0154370
882.951	0.0154654
883.030	0.0155342
883.108	0.0155048
883.186	0.0155708
883.264	0.0154816
883.342	0.0154774
883.420	0.0155342
883.498	0.0155654
883.576	0.0154886
883.655	0.0154806
883.733	0.0154331
883.811	0.0154958
883.889	0.0155598
883.967	0.0155112
884.045	0.0156043
884.123	0.0154826
884.201	0.0154205
884.280	0.0154810
884.358	0.0154558
884.436	0.0154878
884.514	0.0155147
884.592	0.0154783
884.670	0.0154487
884.748	0.0153905
884.826	0.0153643
884.905	0.0152975
884.983	0.0153928
885.061	0.0154308
885.139	0.0153491
885.217	0.0153488
885.295	0.0152843
885.373	0.0152714
885.451	0.0152721
885.530	0.0151162
885.608	0.0153758
885.686	0.0152760
885.764	0.0153001
885.842	0.0152992
885.920	0.0152113
885.998	0.0152779
886.076	0.0153392
886.155	0.0152187
886.233	0.0151911
886.311	0.0152906
886.389	0.0152895
886.467	0.0153415
886.545	0.0153946
886.623	0.0153082
886.701	0.0152464
886.780	0.0153219
886.858	0.0153636
886.936	0.0153665
887.014	0.0153780
887.092	0.0155506
887.170	0.0154478
887.248	0.0153914
887.326	0.0154688
887.405	0.0155139
887.483	0.0154785
887.561	0.0154278
887.639	0.0154559
887.717	0.0155873
887.795	0.0153986
887.873	0.0154393
887.951	0.0154758
888.030	0.0153754
888.108	0.0154837
888.186	0.0153931
888.264	0.0153941
888.342	0.0154507
888.420	0.0153411
888.498	0.0154063
888.576	0.0152832
888.655	0.0154195
888.733	0.0153253
888.811	0.0152569
888.889	0.0152146
888.967	0.0151771
889.045	0.0152521
889.123	0.0153406
889.201	0.0154085
889.280	0.0153320
889.358	0.0152178
889.436	0.0151553
889.514	0.0152361
889.592	0.0151836
889.670	0.0152535
889.748	0.0153881
889.826	0.0153839
889.905	0.0152863
889.983	0.0153543
890.061	0.0153419
890.139	0.0153238
890.217	0.0155264
890.295	0.0154147
890.373	0.0154446
890.451	0.0153890
890.530	0.0154674
890.608	0.0154202
890.686	0.0154411
890.764	0.0154166
890.842	0.0154768
890.920	0.0153854
890.998	0.0153987
891.076	0.0155609
891.155	0.0155823
891.233	0.0153388
891.311	0.0154344
891.389	0.0153615
891.467	0.0153920
891.545	0.0152999
891.623	0.0152759
891.701	0.0153107
891.780	0.0153076
891.858	0.0152675
891.936	0.0152636
892.014	0.0152897
892.092	0.0152736
892.170	0.0151321
892.248	0.0150799
892.326	0.0151414
892.405	0.0150257
892.483	0.0151067
892.561	0.0152201
892.639	0.0151076
892.717	0.0152228
892.795	0.0151664
892.873	0.0152063
892.951	0.0151897
893.030	0.0152742
893.108	0.0153114
893.186	0.0153090
893.264	0.0154026
893.342	0.0154290
893.420	0.0152649
893.498	0.0154658
893.576	0.0154681
893.655	0.0153732
893.733	0.0154019
893.811	0.0153577
893.889	0.0151759
893.967	0.0153398
894.045	0.0153058
894.123	0.0152698
894.201	0.0152211
894.280	0.0152981
894.358	0.0153057
894.436	0.0153518
894.514	0.0153051
894.592	0.0153275
894.670	0.0154213
894.748	0.0153661
894.826	0.0151984
894.905	0.0152409
894.983	0.0153809
895.061	0.0153509
895.139	0.0153832
895.217	0.0152162
895.295	0.0153374
895.373	0.0152625
895.451	0.0153397
895.530	0.0153261
895.608	0.0154768
895.686	0.0155449
895.764	0.0154424
895.842	0.0155196
895.920	0.0155027
895.998	0.0154631
896.076	0.0155145
896.155	0.0155108
896.233	0.0155540
896.311	0.0153822
896.389	0.0154459
896.467	0.0153616
896.545	0.0153235
896.623	0.0152329
896.701	0.0152837
896.780	0.0152813
896.858	0.0151940
896.936	0.0152202
897.014	0.0152103
897.092	0.0150502
897.170	0.0151393
897.248	0.0151089
897.326	0.0151161
897.405	0.0151604
897.483	0.0151315
897.561	0.0152337
897.639	0.0151214
897.717	0.0151087
897.795	0.0151218
897.873	0.0152733
897.951	0.0152030
898.030	0.0151871
898.108	0.0152686
898.186	0.0152548
898.264	0.0152539
898.342	0.0151775
898.420	0.0154019
898.498	0.0154566
898.576	0.0153401
898.655	0.0152970
898.733	0.0153417
898.811	0.0153224
898.889	0.0153415
898.967	0.0154453
899.045	0.0152049
899.123	0.0153278
899.201	0.0153009
899.280	0.0154283
899.358	0.0155833
899.436	0.0154683
899.514	0.0153182
899.592	0.0154359
899.670	0.0155956
899.748	0.0153889
899.826	0.0153889
899.905	0.0154939
899.983	0.0154207
900.061	0.0153532
900.139	0.0154510
900.217	0.0154090
900.295	0.0152229
900.373	0.0153625
900.451	0.0152164
900.530	0.0153246
900.608	0.0152795
900.686	0.0152307
900.764	0.0151094
900.842	0.0151923
900.920	0.0151858
900.998	0.0151901
901.076	0.0150901
901.155	0.0152922
901.233	0.0151813
901.311	0.0153291
901.389	0.0152452
901.467	0.0151091
901.545	0.0151902
901.623	0.0152015
901.701	0.0152158
901.780	0.0151891
901.858	0.0152241
901.936	0.0153320
902.014	0.0152779
902.092	0.0152367
902.170	0.0153504
902.248	0.0153261
902.326	0.0153923
902.405	0.0154631
902.483	0.0154729
902.561	0.0153462
902.639	0.0152124
902.717	0.0153584
902.795	0.0154808
902.873	0.0156283
902.951	0.0154746
903.030	0.0154221
903.108	0.0153141
903.186	0.0153345
903.264	0.0154649
903.342	0.0153336
903.420	0.0152502
903.498	0.0154771
903.576	0.0152297
903.655	0.0153561
903.733	0.0152510
903.811	0.0153585
903.889	0.0155006
903.967	0.0152927
904.045	0.0154775
904.123	0.0153396
904.201	0.0152990
904.280	0.0153334
904.358	0.0154277
904.436	0.0152736
904.514	0.0152364
904.592	0.0154102
904.670	0.0154079
904.748	0.0153738
904.826	0.0152947
904.905	0.0152827
904.983	0.0153033
905.061	0.0152806
905.139	0.0153435
905.217	0.0153116
905.295	0.0154812
905.373	0.0153847
905.451	0.0153619
905.530	0.0152892
905.608	0.0153772
905.686	0.0153812
905.764	0.0154874
905.842	0.0153655
905.920	0.0153571
905.998	0.0153427
906.076	0.0153739
906.155	0.0154236
906.233	0.0155122
906.311	0.0154572
906.389	0.0154197
906.467	0.0154800
906.545	0.0153193
906.623	0.0153966
906.701	0.0154171
906.780	0.0153396
906.858	0.0156004
906.936	0.0154880
907.014	0.0154387
907.092	0.0154637
907.170	0.0154620
907.248	0.0155360
907.326	0.0154086
907.405	0.0153644
907.483	0.0154638
907.561	0.0154407
907.639	0.0154877
907.717	0.0154977
907.795	0.0154604
907.873	0.0155446
907.951	0.0153531
908.030	0.0154377
908.108	0.0152632
908.186	0.0152773
908.264	0.0153308
908.342	0.0153130
908.420	0.0152550
908.498	0.0152809
908.576	0.0152456
908.655	0.0153709
908.733	0.0151458
908.811	0.0152316
908.889	0.0152875
908.967	0.0153728
909.045	0.0152718
909.123	0.0152574
909.201	0.0153758
909.280	0.0153744
909.358	0.0153162
909.436	0.0152339
909.514	0.0152579
909.592	0.0153815
909.670	0.0154950
909.748	0.0155746
909.826	0.0154759
909.905	0.0155116
909.983	0.0155495
910.061	0.0154244
910.139	0.0154147
910.217	0.0155432
910.295	0.0153757
910.373	0.0153677
910.451	0.0154354
910.530	0.0154662
910.608	0.0154169
910.686	0.0154830
910.764	0.0153704
910.842	0.0152874
910.920	0.0151852
910.998	0.0152459
911.076	0.0154233
911.155	0.0153329
911.233	0.0152940
911.311	0.0152016
911.389	0.0153043
911.467	0.0152293
911.545	0.0152793
911.623	0.0154353
911.701	0.0154659
911.780	0.0154973
911.858	0.0155139
911.936	0.0154630
912.014	0.0153498
912.092	0.0151839
912.170	0.0153104
912.248	0.0155505
912.326	0.0154131
912.405	0.0153326
912.483	0.0153094
912.561	0.0153582
912.639	0.0152746
912.717	0.0152249
912.795	0.0152687
912.873	0.0153583
912.951	0.0151968
913.030	0.0152380
913.108	0.0150872
913.186	0.0152223
913.264	0.0151517
913.342	0.0152092
913.420	0.0152245
913.498	0.0151395
913.576	0.0151657
913.655	0.0153001
913.733	0.0152054
913.811	0.0151802
913.889	0.0151681
913.967	0.0154331
914.045	0.0153050
914.123	0.0154433
914.201	0.0153117
914.280	0.0153564
914.358	0.0153682
914.436	0.0154164
914.514	0.0154004
914.592	0.0153824
914.670	0.0154438
914.748	0.0155153
914.826	0.0152796
914.905	0.0155363
914.983	0.0155061
915.061	0.0153090
915.139	0.0156347
915.217	0.0156129
915.295	0.0154453
915.373	0.0155463
915.451	0.0155479
915.530	0.0155550
915.608	0.0155324
915.686	0.0155454
915.764	0.0156513
915.842	0.0155315
915.920	0.0154018
915.998	0.0154702
916.076	0.0153669
916.155	0.0153727
916.233	0.0154839
916.311	0.0153854
916.389	0.0153349
916.467	0.0154627
916.545	0.0153927
916.623	0.0153776
916.701	0.0153577
916.780	0.0153976
916.858	0.0153420
916.936	0.0153503
917.014	0.0154096
917.092	0.0153656
917.170	0.0153811
917.248	0.0154831
917.326	0.0155016
917.405	0.0154954
917.483	0.0154577
917.561	0.0153294
917.639	0.0155844
917.717	0.0154379
917.795	0.0154430
917.873	0.0154781
917.951	0.0154568
918.030	0.0152574
918.108	0.0153237
918.186	0.0153168
918.264	0.0154219
918.342	0.0153409
918.420	0.0152496
918.498	0.0153181
918.576	0.0153233
918.655	0.0153506
918.733	0.0154112
918.811	0.0153840
918.889	0.0153246
918.967	0.0152415
919.045	0.0153764
919.123	0.0152907
919.201	0.0153378
919.280	0.0153219
919.358	0.0154321
919.436	0.0152454
919.514	0.0153822
919.592	0.0154545
919.670	0.0154910
919.748	0.0155215
919.826	0.0155100
919.905	0.0154172
919.983	0.0155222
920.061	0.0153510
920.139	0.0155170
920.217	0.0154317
920.295	0.0153601
920.373	0.0154343
920.451	0.0154811
920.530	0.0151803
920.608	0.0154430
920.686	0.0153883
920.764	0.0153402
920.842	0.0152313
920.920	0.0152303
920.998	0.0153101
921.076	0.0150941
921.155	0.0151653
921.233	0.0150792
921.311	0.0151227
921.389	0.0151900
921.467	0.0152548
921.545	0.0151704
921.623	0.0151030
921.701	0.0152393
921.780	0.0152393
921.858	0.0152540
921.936	0.0152158
922.014	0.0152529
922.092	0.0152065
922.170	0.0152136
922.248	0.0153043
922.326	0.0153429
922.405	0.0152271
922.483	0.0153227
922.561	0.0152679
922.639	0.0153497
922.717	0.0153432
922.795	0.0154289
922.873	0.0152238
922.951	0.0154195
923.030	0.0153678
923.108	0.0153534
923.186	0.0152850
923.264	0.0154733
923.342	0.0154951
923.420	0.0153482
923.498	0.0154293
923.576	0.0154781
923.655	0.0154793
923.733	0.0154441
923.811	0.0154069
923.889	0.0154511
923.967	0.0155061
924.045	0.0153793
924.123	0.0153621
924.201	0.0153232
924.280	0.0155080
924.358	0.0154810
924.436	0.0152782
924.514	0.0153156
924.592	0.0154473
924.670	0.0155482
924.748	0.0154086
924.826	0.0154936
924.905	0.0153367
924.983	0.0153519
925.061	0.0154734
925.139	0.0155749
925.217	0.0155138
925.295	0.0154903
925.373	0.0154241
925.451	0.0154053
925.530	0.0152830
925.608	0.0155164
925.686	0.0152519
925.764	0.0151402
925.842	0.0153457
925.920	0.0152489
925.998	0.0153316
926.076	0.0151598
926.155	0.0151122
926.233	0.0152332
926.311	0.0152487
926.389	0.0152285
926.467	0.0150771
926.545	0.0152515
926.623	0.0151916
926.701	0.0152525
926.780	0.0153322
926.858	0.0152682
926.936	0.0152345
927.014	0.0152507
927.092	0.0152673
927.170	0.0153644
927.248	0.0153395
927.326	0.0152888
927.405	0.0154735
927.483	0.0153487
927.561	0.0154387
927.639	0.0154164
927.717	0.0155021
927.795	0.0155563
927.873	0.0154138
927.951	0.0154928
928.030	0.0153104
928.108	0.0153504
928.186	0.0153067
928.264	0.0153439
928.342	0.0153126
928.420	0.0152904
928.498	0.0151305
928.576	0.0151511
928.655	0.0151799
928.733	0.0152199
928.811	0.0152474
928.889	0.0151513
928.967	0.0151025
929.045	0.0152431
929.123	0.0151418
929.201	0.0151151
929.280	0.0151595
929.358	0.0151263
929.436	0.0151588
929.514	0.0153000
929.592	0.0152539
929.670	0.0152365
929.748	0.0152769
929.826	0.0152351
929.905	0.0153149
929.983	0.0153672
930.061	0.0153220
930.139	0.0151683
930.217	0.0152826
930.295	0.0154606
930.373	0.0152989
930.451	0.0154944
930.530	0.0153014
930.608	0.0152531
930.686	0.0153402
930.764	0.0153500
930.842	0.0155106
930.920	0.0155118
930.998	0.0154462
931.076	0.0153977
931.155	0.0153564
931.233	0.0153463
931.311	0.0153519
931.389	0.0153716
931.467	0.0154135
931.545	0.0155048
931.623	0.0153454
931.701	0.0153973
931.780	0.0155138
931.858	0.0154057
931.936	0.0155547
932.014	0.0155602
932.092	0.0155894
932.170	0.0155019
932.248	0.0154917
932.326	0.0154230
932.405	0.0154009
932.483	0.0153976
932.561	0.0153831
932.639	0.0153461
932.717	0.0154350
932.795	0.0154254
932.873	0.0152605
932.951	0.0154465
933.030	0.0153760
933.108	0.0152996
933.186	0.0154971
933.264	0.0153654
933.342	0.0153405
933.420	0.0154491
933.498	0.0154514
933.576	0.0153316
933.655	0.0151948
933.733	0.0153492
933.811	0.0153420
933.889	0.0152621
933.967	0.0153568
934.045	0.0154108
934.123	0.0152892
934.201	0.0152811
934.280	0.0154260
934.358	0.0153559
934.436	0.0153620
934.514	0.0153254
934.592	0.0153046
934.670	0.0152787
934.748	0.0153551
934.826	0.0152261
934.905	0.0152266
934.983	0.0153962
935.061	0.0152766
935.139	0.0153824
935.217	0.0153095
935.295	0.0151977
935.373	0.0152987
935.451	0.0153447
935.530	0.0153089
935.608	0.0151720
935.686	0.0151505
935.764	0.0153168
935.842	0.0153757
935.920	0.0152707
935.998	0.0152808
936.076	0.0151943
936.155	0.0154180
936.233	0.0153924
936.311	0.0152827
936.389	0.0153770
936.467	0.0153949
936.545	0.0153955
936.623	0.0153397
936.701	0.0153465
936.780	0.0154092
936.858	0.0154242
936.936	0.0154195
937.014	0.0154896
937.092	0.0154106
937.170	0.0153381
937.248	0.0155102
937.326	0.0154570
937.405	0.0154362
937.483	0.0153496
937.561	0.0154575
937.639	0.0153945
937.717	0.0154324
937.795	0.0153990
937.873	0.0153137
937.951	0.0153168
938.030	0.0154194
938.108	0.0154573
938.186	0.0153972
938.264	0.0153546
938.342	0.0153036
938.420	0.0153140
938.498	0.0153413
938.576	0.0153876
938.655	0.0153516
938.733	0.0152896
938.811	0.0153890
938.889	0.0153538
938.967	0.0155195
939.045	0.0154684
939.123	0.0155119
939.201	0.0155845
939.280	0.0154790
939.358	0.0156602
939.436	0.0157383
939.514	0.0157092
939.592	0.0157377
939.670	0.0156750
939.748	0.0156782
939.826	0.0157409
939.905	0.0155373
939.983	0.0155953
940.061	0.0154812
940.139	0.0156123
940.217	0.0154708
940.295	0.0154540
940.373	0.0154240
940.451	0.0155000
940.530	0.0153072
940.608	0.0154066
940.686	0.0153414
940.764	0.0151679
940.842	0.0153309
940.920	0.0154133
940.998	0.0153296
941.076	0.0154125
941.155	0.0152636
941.233	0.0153313
941.311	0.0153110
941.389	0.0153067
941.467	0.0154226
941.545	0.0153201
941.623	0.0154016
941.701	0.0153209
941.780	0.0152795
941.858	0.0153557
941.936	0.0153004
942.014	0.0153288
942.092	0.0152757
942.170	0.0153403
942.248	0.0152222
942.326	0.0152161
942.405	0.0154285
942.483	0.0153821
942.561	0.0153085
942.639	0.0151534
942.717	0.0152236
942.795	0.0153024
942.873	0.0152520
942.951	0.0153958
943.030	0.0153172
943.108	0.0154296
943.186	0.0153765
943.264	0.0152732
943.342	0.0153073
943.420	0.0153508
943.498	0.0154334
943.576	0.0155405
943.655	0.0155331
943.733	0.0154353
943.811	0.0153878
943.889	0.0154913
943.967	0.0154758
944.045	0.0155581
944.123	0.0153335
944.201	0.0153220
944.280	0.0153001
944.358	0.0153019
944.436	0.0154362
944.514	0.0152960
944.592	0.0153627
944.670	0.0153382
944.748	0.0154075
944.826	0.0153196
944.905	0.0153640
944.983	0.0152600
945.061	0.0153533
945.139	0.0154121
945.217	0.0152720
945.295	0.0153518
945.373	0.0153528
945.451	0.0152750
945.530	0.0153081
945.608	0.0153862
945.686	0.0153487
945.764	0.0153851
945.842	0.0153416
945.920	0.0152843
945.998	0.0154135
946.076	0.0152660
946.155	0.0152770
946.233	0.0153366
946.311	0.0152682
946.389	0.0151933
946.467	0.0151720
946.545	0.0152628
946.623	0.0152828
946.701	0.0152456
946.780	0.0152676
946.858	0.0152173
946.936	0.0153388
947.014	0.0154960
947.092	0.0154311
947.170	0.0155852
947.248	0.0155428
947.326	0.0154625
947.405	0.0155695
947.483	0.0156213
947.561	0.0155936
947.639	0.0155741
947.717	0.0155070
947.795	0.0155473
947.873	0.0156071
947.951	0.0155400
948.030	0.0155509
948.108	0.0155356
948.186	0.0154819
948.264	0.0155875
948.342	0.0154430
948.420	0.0154843
948.498	0.0154271
948.576	0.0154702
948.655	0.0152587
948.733	0.0152946
948.811	0.0151841
948.889	0.0152270
948.967	0.0153893
949.045	0.0153726
949.123	0.0154050
949.201	0.0152785
949.280	0.0154520
949.358	0.0153855
949.436	0.0153316
949.514	0.0154329
949.592	0.0154699
949.670	0.0152597
949.748	0.0154935
949.826	0.0154427
949.905	0.0152215
949.983	0.0152140
950.061	0.0151267
950.139	0.0152216
950.217	0.0153578
950.295	0.0154336
950.373	0.0150545
950.451	0.0151431
950.530	0.0151805
950.608	0.0150827
950.686	0.0150739
950.764	0.0150158
950.842	0.0152897
950.920	0.0151631
950.998	0.0150881
951.076	0.0150634
951.155	0.0151951
951.233	0.0151221
951.311	0.0150323
951.389	0.0149880
951.467	0.0151605
951.545	0.0154095
951.623	0.0154235
951.701	0.0153809
951.780	0.0153622
951.858	0.0153133
951.936	0.0155124
952.014	0.0153387
952.092	0.0153439
952.170	0.0154836
952.248	0.0153580
952.326	0.0154716
952.405	0.0154713
952.483	0.0154917
952.561	0.0156019
952.639	0.0155666
952.717	0.0154465
952.795	0.0154587
952.873	0.0153653
952.951	0.0154015
953.030	0.0152778
953.108	0.0153620
953.186	0.0153680
953.264	0.0152605
953.342	0.0153748
953.420	0.0153947
953.498	0.0153557
953.576	0.0152190
953.655	0.0151827
953.733	0.0152874
953.811	0.0153074
953.889	0.0153242
953.967	0.0152849
954.045	0.0151317
954.123	0.0151199
954.201	0.0152216
954.280	0.0151188
954.358	0.0153213
954.436	0.0152068
954.514	0.0151795
954.592	0.0152236
954.670	0.0153661
954.748	0.0154297
954.826	0.0153523
954.905	0.0153345
954.983	0.0154362
955.061	0.0155074
955.139	0.0154035
955.217	0.0155151
955.295	0.0154512
955.373	0.0154950
955.451	0.0154379
955.530	0.0154548
955.608	0.0153694
955.686	0.0155007
955.764	0.0154059
955.842	0.0153040
955.920	0.0152529
955.998	0.0153396
956.076	0.0153551
956.155	0.0152765
956.233	0.0152930
956.311	0.0152080
956.389	0.0152133
956.467	0.0151199
956.545	0.0152168
956.623	0.0152806
956.701	0.0152475
956.780	0.0152006
956.858	0.0152242
956.936	0.0150995
957.014	0.0151779
957.092	0.0152654
957.170	0.0151634
957.248	0.0152070
957.326	0.0150877
957.405	0.0151775
957.483	0.0151608
957.561	0.0151154
957.639	0.0152869
957.717	0.0151788
957.795	0.0151902
957.873	0.0152235
957.951	0.0152345
958.030	0.0151725
958.108	0.0151279
958.186	0.0151791
958.264	0.0150886
958.342	0.0152056
958.420	0.0152413
958.498	0.0153378
958.576	0.0152271
958.655	0.0153036
958.733	0.0152906
958.811	0.0152358
958.889	0.0152458
958.967	0.0152938
959.045	0.0152625
959.123	0.0153255
959.201	0.0152910
959.280	0.0152959
959.358	0.0153467
959.436	0.0155144
959.514	0.0154120
959.592	0.0153774
959.670	0.0155450
959.748	0.0154593
959.826	0.0154590
959.905	0.0155200
