05/17/2022	16:55:39	Ver.	4.1	UNKNOWN
Optical Delay	639.982744	Delta X		0.078125	Sweeps	1	Scan Rate	0/0
Coordinates	Axis 1	NaN	Axis 2	NaN	Axis 3	NaN	Axis 4	NaN	Axis 5	NaN	Axis 6	0.000000
TX Power	0.000000	RX Power	0.000000

639.983	0.0164319
640.061	0.0161921
640.139	0.0163492
640.217	0.0164319
640.295	0.0163580
640.373	0.0162626
640.451	0.0162656
640.530	0.0162048
640.608	0.0163944
640.686	0.0164297
640.764	0.0163999
640.842	0.0164019
640.920	0.0162696
640.998	0.0164508
641.076	0.0164951
641.155	0.0164674
641.233	0.0165440
641.311	0.0165946
641.389	0.0165137
641.467	0.0163355
641.545	0.0163982
641.623	0.0164455
641.701	0.0162313
641.780	0.0163938
641.858	0.0164359
641.936	0.0161721
642.014	0.0163381
642.092	0.0162370
642.170	0.0161942
642.248	0.0161622
642.326	0.0163112
642.405	0.0161943
642.483	0.0162884
642.561	0.0162897
642.639	0.0162648
642.717	0.0162521
642.795	0.0162453
642.873	0.0163832
642.951	0.0163528
643.030	0.0163084
643.108	0.0162663
643.186	0.0163739
643.264	0.0165838
643.342	0.0165668
643.420	0.0165532
643.498	0.0165471
643.576	0.0164191
643.655	0.0164317
643.733	0.0165156
643.811	0.0162263
643.889	0.0164175
643.967	0.0164740
644.045	0.0164476
644.123	0.0163031
644.201	0.0163387
644.280	0.0162563
644.358	0.0162099
644.436	0.0162035
644.514	0.0160882
644.592	0.0160090
644.670	0.0162348
644.748	0.0161294
644.826	0.0161139
644.905	0.0163171
644.983	0.0161626
645.061	0.0163046
645.139	0.0163914
645.217	0.0162260
645.295	0.0164014
645.373	0.0163858
645.451	0.0163995
645.530	0.0164289
645.608	0.0165620
645.686	0.0164940
645.764	0.0163948
645.842	0.0164811
645.920	0.0165807
645.998	0.0164672
646.076	0.0164423
646.155	0.0163673
646.233	0.0163940
646.311	0.0163712
646.389	0.0162349
646.467	0.0163943
646.545	0.0161781
646.623	0.0162202
646.701	0.0162440
646.780	0.0162837
646.858	0.0162836
646.936	0.0161312
647.014	0.0161662
647.092	0.0161309
647.170	0.0161642
647.248	0.0162330
647.326	0.0162186
647.405	0.0163180
647.483	0.0162315
647.561	0.0164256
647.639	0.0164042
647.717	0.0163580
647.795	0.0164634
647.873	0.0162914
647.951	0.0162952
648.030	0.0164792
648.108	0.0164812
648.186	0.0164008
648.264	0.0163943
648.342	0.0164210
648.420	0.0164902
648.498	0.0163776
648.576	0.0164912
648.655	0.0163902
648.733	0.0163383
648.811	0.0163167
648.889	0.0162374
648.967	0.0162972
649.045	0.0162979
649.123	0.0162269
649.201	0.0162970
649.280	0.0163802
649.358	0.0164082
649.436	0.0162221
649.514	0.0163422
649.592	0.0162729
649.670	0.0163703
649.748	0.0164338
649.826	0.0164332
649.905	0.0162646
649.983	0.0162711
650.061	0.0162973
650.139	0.0163000
650.217	0.0164030
650.295	0.0164365
650.373	0.0163231
650.451	0.0163751
650.530	0.0163616
650.608	0.0164345
650.686	0.0163871
650.764	0.0164011
650.842	0.0163040
650.920	0.0162942
650.998	0.0164175
651.076	0.0162441
651.155	0.0161582
651.233	0.0163061
651.311	0.0163201
651.389	0.0163511
651.467	0.0162987
651.545	0.0162927
651.623	0.0162018
651.701	0.0162270
651.780	0.0163177
651.858	0.0162968
651.936	0.0163068
652.014	0.0163640
652.092	0.0164498
652.170	0.0164185
652.248	0.0161640
652.326	0.0162658
652.405	0.0161705
652.483	0.0163187
652.561	0.0162548
652.639	0.0163168
652.717	0.0162493
652.795	0.0162983
652.873	0.0162557
652.951	0.0165553
653.030	0.0165726
653.108	0.0163969
653.186	0.0163676
653.264	0.0164053
653.342	0.0165613
653.420	0.0165224
653.498	0.0163861
653.576	0.0165147
653.655	0.0163828
653.733	0.0164104
653.811	0.0163125
653.889	0.0162793
653.967	0.0164692
654.045	0.0163331
654.123	0.0163367
654.201	0.0162967
654.280	0.0163552
654.358	0.0164745
654.436	0.0163242
654.514	0.0163264
654.592	0.0163724
654.670	0.0162325
654.748	0.0163641
654.826	0.0163271
654.905	0.0163985
654.983	0.0162169
655.061	0.0162804
655.139	0.0163551
655.217	0.0162447
655.295	0.0164852
655.373	0.0164572
655.451	0.0164934
655.530	0.0165263
655.608	0.0165444
655.686	0.0166594
655.764	0.0166332
655.842	0.0165089
655.920	0.0163621
655.998	0.0164788
656.076	0.0164655
656.155	0.0164474
656.233	0.0164999
656.311	0.0163586
656.389	0.0165248
656.467	0.0164069
656.545	0.0163051
656.623	0.0164467
656.701	0.0163188
656.780	0.0162024
656.858	0.0162227
656.936	0.0163030
657.014	0.0161909
657.092	0.0163387
657.170	0.0164204
657.248	0.0162947
657.326	0.0162234
657.405	0.0162409
657.483	0.0162011
657.561	0.0164362
657.639	0.0165173
657.717	0.0164133
657.795	0.0163131
657.873	0.0165806
657.951	0.0164323
658.030	0.0163879
658.108	0.0163590
658.186	0.0164150
658.264	0.0163102
658.342	0.0164581
658.420	0.0163406
658.498	0.0162897
658.576	0.0165221
658.655	0.0164294
658.733	0.0163740
658.811	0.0162976
658.889	0.0164198
658.967	0.0162881
659.045	0.0160358
659.123	0.0160745
659.201	0.0161047
659.280	0.0161279
659.358	0.0159728
659.436	0.0161730
659.514	0.0162011
659.592	0.0162685
659.670	0.0162244
659.748	0.0162046
659.826	0.0161794
659.905	0.0162826
659.983	0.0164701
660.061	0.0163238
660.139	0.0164939
660.217	0.0165501
660.295	0.0165759
660.373	0.0163788
660.451	0.0163269
660.530	0.0165033
660.608	0.0164178
660.686	0.0164431
660.764	0.0164831
660.842	0.0165868
660.920	0.0164959
660.998	0.0163701
661.076	0.0163029
661.155	0.0161103
661.233	0.0160711
661.311	0.0162298
661.389	0.0161242
661.467	0.0161822
661.545	0.0161323
661.623	0.0158892
661.701	0.0159673
661.780	0.0160338
661.858	0.0160730
661.936	0.0161115
662.014	0.0161864
662.092	0.0163464
662.170	0.0162601
662.248	0.0164918
662.326	0.0166617
662.405	0.0165646
662.483	0.0166657
662.561	0.0167889
662.639	0.0166505
662.717	0.0166305
662.795	0.0167287
662.873	0.0167002
662.951	0.0165743
663.030	0.0166973
663.108	0.0167802
663.186	0.0166912
663.264	0.0166192
663.342	0.0165439
663.420	0.0164713
663.498	0.0163768
663.576	0.0164548
663.655	0.0164494
663.733	0.0164136
663.811	0.0164135
663.889	0.0163261
663.967	0.0163474
664.045	0.0164265
664.123	0.0163897
664.201	0.0165434
664.280	0.0165168
664.358	0.0165400
664.436	0.0164989
664.514	0.0165333
664.592	0.0164656
664.670	0.0165412
664.748	0.0165217
664.826	0.0165647
664.905	0.0163360
664.983	0.0164082
665.061	0.0165014
665.139	0.0164662
665.217	0.0163755
665.295	0.0162585
665.373	0.0163262
665.451	0.0164500
665.530	0.0163109
665.608	0.0162905
665.686	0.0163344
665.764	0.0162836
665.842	0.0163258
665.920	0.0163423
665.998	0.0162642
666.076	0.0162957
666.155	0.0162022
666.233	0.0161362
666.311	0.0160457
666.389	0.0161048
666.467	0.0160737
666.545	0.0160883
666.623	0.0158689
666.701	0.0159326
666.780	0.0159660
666.858	0.0160371
666.936	0.0159822
667.014	0.0160566
667.092	0.0160190
667.170	0.0160812
667.248	0.0160721
667.326	0.0160853
667.405	0.0159885
667.483	0.0160919
667.561	0.0161823
667.639	0.0160599
667.717	0.0161118
667.795	0.0160767
667.873	0.0160946
667.951	0.0162151
668.030	0.0160555
668.108	0.0159339
668.186	0.0159035
668.264	0.0159335
668.342	0.0159486
668.420	0.0159116
668.498	0.0157554
668.576	0.0158106
668.655	0.0158670
668.733	0.0157449
668.811	0.0158367
668.889	0.0158356
668.967	0.0158171
669.045	0.0159045
669.123	0.0158768
669.201	0.0160551
669.280	0.0160124
669.358	0.0161504
669.436	0.0161761
669.514	0.0161119
669.592	0.0163935
669.670	0.0163433
669.748	0.0163370
669.826	0.0162958
669.905	0.0164088
669.983	0.0165267
670.061	0.0166665
670.139	0.0165324
670.217	0.0165694
670.295	0.0165930
670.373	0.0163923
670.451	0.0165683
670.530	0.0164756
670.608	0.0163204
670.686	0.0165614
670.764	0.0166431
670.842	0.0165621
670.920	0.0165442
670.998	0.0165333
671.076	0.0164125
671.155	0.0165790
671.233	0.0165683
671.311	0.0165498
671.389	0.0165746
671.467	0.0165626
671.545	0.0167905
671.623	0.0169307
671.701	0.0168411
671.780	0.0166653
671.858	0.0168208
671.936	0.0165988
672.014	0.0166293
672.092	0.0165620
672.170	0.0164844
672.248	0.0165757
672.326	0.0165290
672.405	0.0164340
672.483	0.0163301
672.561	0.0162871
672.639	0.0162385
672.717	0.0162536
672.795	0.0161948
672.873	0.0161881
672.951	0.0160362
673.030	0.0162552
673.108	0.0162684
673.186	0.0163949
673.264	0.0163985
673.342	0.0165736
673.420	0.0165038
673.498	0.0164677
673.576	0.0165952
673.655	0.0166536
673.733	0.0168391
673.811	0.0166921
673.889	0.0166407
673.967	0.0166592
674.045	0.0167566
674.123	0.0165734
674.201	0.0164330
674.280	0.0165090
674.358	0.0164285
674.436	0.0164860
674.514	0.0164197
674.592	0.0163582
674.670	0.0164071
674.748	0.0162616
674.826	0.0162427
674.905	0.0162891
674.983	0.0162814
675.061	0.0160558
675.139	0.0162163
675.217	0.0161647
675.295	0.0161176
675.373	0.0160590
675.451	0.0160998
675.530	0.0160892
675.608	0.0159174
675.686	0.0159928
675.764	0.0161615
675.842	0.0159824
675.920	0.0159274
675.998	0.0159969
676.076	0.0160546
676.155	0.0160769
676.233	0.0160767
676.311	0.0160959
676.389	0.0159911
676.467	0.0160190
676.545	0.0159950
676.623	0.0160393
676.701	0.0162231
676.780	0.0161709
676.858	0.0162850
676.936	0.0162914
677.014	0.0162708
677.092	0.0162546
677.170	0.0163405
677.248	0.0162924
677.326	0.0163888
677.405	0.0164366
677.483	0.0165885
677.561	0.0164698
677.639	0.0165261
677.717	0.0165350
677.795	0.0165128
677.873	0.0166243
677.951	0.0166789
678.030	0.0167201
678.108	0.0165385
678.186	0.0165217
678.264	0.0167724
678.342	0.0166519
678.420	0.0166264
678.498	0.0165573
678.576	0.0166344
678.655	0.0167200
678.733	0.0168305
678.811	0.0167998
678.889	0.0166632
678.967	0.0167065
679.045	0.0165957
679.123	0.0166458
679.201	0.0165306
679.280	0.0164931
679.358	0.0164789
679.436	0.0162233
679.514	0.0160283
679.592	0.0159650
679.670	0.0159217
679.748	0.0157487
679.826	0.0156350
679.905	0.0155582
679.983	0.0155258
680.061	0.0154692
680.139	0.0154224
680.217	0.0153355
680.295	0.0154592
680.373	0.0157174
680.451	0.0156289
680.530	0.0155621
680.608	0.0156255
680.686	0.0158822
680.764	0.0160671
680.842	0.0161423
680.920	0.0161803
680.998	0.0162849
681.076	0.0166032
681.155	0.0166894
681.233	0.0170050
681.311	0.0170077
681.389	0.0171241
681.467	0.0172463
681.545	0.0172972
681.623	0.0175417
681.701	0.0176447
681.780	0.0177541
681.858	0.0176849
681.936	0.0176709
682.014	0.0177775
682.092	0.0176927
682.170	0.0173454
682.248	0.0174147
682.326	0.0173325
682.405	0.0171069
682.483	0.0169788
682.561	0.0166663
682.639	0.0166312
682.717	0.0164127
682.795	0.0162004
682.873	0.0159772
682.951	0.0159415
683.030	0.0157903
683.108	0.0155663
683.186	0.0156194
683.264	0.0154224
683.342	0.0153120
683.420	0.0152697
683.498	0.0152126
683.576	0.0151325
683.655	0.0150603
683.733	0.0152100
683.811	0.0151612
683.889	0.0151174
683.967	0.0151173
684.045	0.0152136
684.123	0.0153716
684.201	0.0153979
684.280	0.0155936
684.358	0.0157169
684.436	0.0157803
684.514	0.0160177
684.592	0.0162914
684.670	0.0164616
684.748	0.0165711
684.826	0.0167084
684.905	0.0168851
684.983	0.0170609
685.061	0.0172048
685.139	0.0171700
685.217	0.0173137
685.295	0.0172129
685.373	0.0170164
685.451	0.0169333
685.530	0.0168520
685.608	0.0168515
685.686	0.0164983
685.764	0.0164851
685.842	0.0163730
685.920	0.0161906
685.998	0.0161280
686.076	0.0160906
686.155	0.0159806
686.233	0.0159105
686.311	0.0158750
686.389	0.0159502
686.467	0.0158934
686.545	0.0159154
686.623	0.0157779
686.701	0.0157858
686.780	0.0157661
686.858	0.0157493
686.936	0.0158325
687.014	0.0158346
687.092	0.0158711
687.170	0.0156934
687.248	0.0156782
687.326	0.0158199
687.405	0.0159998
687.483	0.0160649
687.561	0.0160845
687.639	0.0161110
687.717	0.0162766
687.795	0.0162411
687.873	0.0163313
687.951	0.0164779
688.030	0.0166045
688.108	0.0165366
688.186	0.0166224
688.264	0.0167429
688.342	0.0168224
688.420	0.0167158
688.498	0.0166944
688.576	0.0167197
688.655	0.0166899
688.733	0.0167921
688.811	0.0167666
688.889	0.0166590
688.967	0.0167592
689.045	0.0168080
689.123	0.0167239
689.201	0.0167509
689.280	0.0168864
689.358	0.0166201
689.436	0.0165679
689.514	0.0165424
689.592	0.0164536
689.670	0.0162791
689.748	0.0164622
689.826	0.0162546
689.905	0.0162604
689.983	0.0161224
690.061	0.0158629
690.139	0.0159064
690.217	0.0159478
690.295	0.0157695
690.373	0.0156956
690.451	0.0156689
690.530	0.0155358
690.608	0.0155995
690.686	0.0156158
690.764	0.0154744
690.842	0.0153065
690.920	0.0153600
690.998	0.0152482
691.076	0.0152786
691.155	0.0151997
691.233	0.0152668
691.311	0.0153058
691.389	0.0154111
691.467	0.0155402
691.545	0.0154697
691.623	0.0158582
691.701	0.0158200
691.780	0.0158087
691.858	0.0162848
691.936	0.0163596
692.014	0.0165825
692.092	0.0168460
692.170	0.0169279
692.248	0.0170039
692.326	0.0171783
692.405	0.0173763
692.483	0.0174048
692.561	0.0174323
692.639	0.0175082
692.717	0.0175538
692.795	0.0175756
692.873	0.0175661
692.951	0.0172732
693.030	0.0173778
693.108	0.0171655
693.186	0.0169528
693.264	0.0168775
693.342	0.0167207
693.420	0.0165034
693.498	0.0163201
693.576	0.0163972
693.655	0.0160954
693.733	0.0159837
693.811	0.0158548
693.889	0.0158186
693.967	0.0157381
694.045	0.0158108
694.123	0.0157064
694.201	0.0156109
694.280	0.0158940
694.358	0.0156567
694.436	0.0158129
694.514	0.0159345
694.592	0.0158202
694.670	0.0161034
694.748	0.0160793
694.826	0.0160288
694.905	0.0162538
694.983	0.0163097
695.061	0.0163647
695.139	0.0162726
695.217	0.0163423
695.295	0.0165791
695.373	0.0165054
695.451	0.0164381
695.530	0.0165447
695.608	0.0164388
695.686	0.0163264
695.764	0.0164154
695.842	0.0162695
695.920	0.0161328
695.998	0.0161661
696.076	0.0161388
696.155	0.0160983
696.233	0.0161854
696.311	0.0161758
696.389	0.0162130
696.467	0.0161268
696.545	0.0161412
696.623	0.0161316
696.701	0.0164288
696.780	0.0163058
696.858	0.0162251
696.936	0.0163988
697.014	0.0166108
697.092	0.0165388
697.170	0.0164639
697.248	0.0166117
697.326	0.0166569
697.405	0.0166215
697.483	0.0166129
697.561	0.0165494
697.639	0.0166220
697.717	0.0165760
697.795	0.0164665
697.873	0.0163876
697.951	0.0162483
698.030	0.0162679
698.108	0.0163817
698.186	0.0163673
698.264	0.0161817
698.342	0.0160639
698.420	0.0161580
698.498	0.0162331
698.576	0.0161891
698.655	0.0162012
698.733	0.0160303
698.811	0.0160541
698.889	0.0161189
698.967	0.0160845
699.045	0.0160630
699.123	0.0160545
699.201	0.0161212
699.280	0.0160394
699.358	0.0160745
699.436	0.0160283
699.514	0.0159627
699.592	0.0160062
699.670	0.0160600
699.748	0.0160828
699.826	0.0160114
699.905	0.0160868
699.983	0.0160159
700.061	0.0160367
700.139	0.0160911
700.217	0.0160681
700.295	0.0161677
700.373	0.0161816
700.451	0.0162471
700.530	0.0162377
700.608	0.0163317
700.686	0.0162986
700.764	0.0163937
700.842	0.0164612
700.920	0.0165639
700.998	0.0165620
701.076	0.0166859
701.155	0.0167806
701.233	0.0167062
701.311	0.0168144
701.389	0.0171387
701.467	0.0171651
701.545	0.0171454
701.623	0.0172900
701.701	0.0172398
701.780	0.0172923
701.858	0.0174212
701.936	0.0173553
702.014	0.0172283
702.092	0.0173078
702.170	0.0173179
702.248	0.0171951
702.326	0.0171083
702.405	0.0169952
702.483	0.0169704
702.561	0.0167790
702.639	0.0166313
702.717	0.0165182
702.795	0.0163250
702.873	0.0162303
702.951	0.0161071
703.030	0.0159515
703.108	0.0159439
703.186	0.0157504
703.264	0.0159008
703.342	0.0156206
703.420	0.0155892
703.498	0.0157046
703.576	0.0156546
703.655	0.0154491
703.733	0.0155981
703.811	0.0158200
703.889	0.0157190
703.967	0.0159506
704.045	0.0158649
704.123	0.0160323
704.201	0.0162862
704.280	0.0162740
704.358	0.0163177
704.436	0.0163141
704.514	0.0162914
704.592	0.0164417
704.670	0.0164214
704.748	0.0165160
704.826	0.0164783
704.905	0.0165078
704.983	0.0164977
705.061	0.0163824
705.139	0.0163279
705.217	0.0163073
705.295	0.0161404
705.373	0.0162531
705.451	0.0160847
705.530	0.0159560
705.608	0.0160160
705.686	0.0158599
705.764	0.0158259
705.842	0.0158173
705.920	0.0158138
705.998	0.0157756
706.076	0.0157919
706.155	0.0159200
706.233	0.0159766
706.311	0.0159676
706.389	0.0160864
706.467	0.0162453
706.545	0.0163551
706.623	0.0162675
706.701	0.0163442
706.780	0.0165945
706.858	0.0166554
706.936	0.0165039
707.014	0.0165539
707.092	0.0165356
707.170	0.0165400
707.248	0.0166659
707.326	0.0165242
707.405	0.0166321
707.483	0.0166674
707.561	0.0166441
707.639	0.0165374
707.717	0.0165361
707.795	0.0165882
707.873	0.0167106
707.951	0.0167352
708.030	0.0167278
708.108	0.0168097
708.186	0.0168888
708.264	0.0167863
708.342	0.0168295
708.420	0.0168571
708.498	0.0167241
708.576	0.0169970
708.655	0.0168198
708.733	0.0168620
708.811	0.0167577
708.889	0.0169196
708.967	0.0168569
709.045	0.0167287
709.123	0.0165780
709.201	0.0164983
709.280	0.0164890
709.358	0.0163440
709.436	0.0161871
709.514	0.0161469
709.592	0.0159300
709.670	0.0157822
709.748	0.0157388
709.826	0.0155653
709.905	0.0154851
709.983	0.0154319
710.061	0.0154243
710.139	0.0154451
710.217	0.0154480
710.295	0.0154481
710.373	0.0154909
710.451	0.0153905
710.530	0.0154787
710.608	0.0155428
710.686	0.0157008
710.764	0.0156480
710.842	0.0154982
710.920	0.0155553
710.998	0.0155359
711.076	0.0154325
711.155	0.0157166
711.233	0.0157209
711.311	0.0157056
711.389	0.0158714
711.467	0.0158720
711.545	0.0158168
711.623	0.0159550
711.701	0.0160921
711.780	0.0159692
711.858	0.0160658
711.936	0.0162429
712.014	0.0161710
712.092	0.0162068
712.170	0.0164105
712.248	0.0164466
712.326	0.0166495
712.405	0.0165742
712.483	0.0166862
712.561	0.0167483
712.639	0.0167287
712.717	0.0169948
712.795	0.0169676
712.873	0.0168573
712.951	0.0169466
713.030	0.0170908
713.108	0.0170646
713.186	0.0171104
713.264	0.0170082
713.342	0.0170889
713.420	0.0169879
713.498	0.0169523
713.576	0.0170216
713.655	0.0168473
713.733	0.0167777
713.811	0.0167340
713.889	0.0167781
713.967	0.0166744
714.045	0.0167001
714.123	0.0167081
714.201	0.0168009
714.280	0.0166151
714.358	0.0167278
714.436	0.0166005
714.514	0.0166876
714.592	0.0167037
714.670	0.0166163
714.748	0.0166090
714.826	0.0165367
714.905	0.0164115
714.983	0.0164158
715.061	0.0164657
715.139	0.0162943
715.217	0.0162555
715.295	0.0160666
715.373	0.0159031
715.451	0.0160311
715.530	0.0159705
715.608	0.0158686
715.686	0.0158871
715.764	0.0158902
715.842	0.0159966
715.920	0.0160356
715.998	0.0160846
716.076	0.0159418
716.155	0.0163142
716.233	0.0163305
716.311	0.0163797
716.389	0.0163930
716.467	0.0164923
716.545	0.0165335
716.623	0.0164984
716.701	0.0164933
716.780	0.0164845
716.858	0.0164564
716.936	0.0162726
717.014	0.0162341
717.092	0.0161693
717.170	0.0160558
717.248	0.0158769
717.326	0.0158891
717.405	0.0159011
717.483	0.0158260
717.561	0.0156145
717.639	0.0155466
717.717	0.0156816
717.795	0.0154837
717.873	0.0155922
717.951	0.0155883
718.030	0.0156788
718.108	0.0157015
718.186	0.0159532
718.264	0.0159753
718.342	0.0159479
718.420	0.0159477
718.498	0.0161539
718.576	0.0160462
718.655	0.0162730
718.733	0.0164102
718.811	0.0163921
718.889	0.0163741
718.967	0.0166457
719.045	0.0166728
719.123	0.0166174
719.201	0.0167197
719.280	0.0168661
719.358	0.0169376
719.436	0.0170510
719.514	0.0170889
719.592	0.0171870
719.670	0.0173518
719.748	0.0172541
719.826	0.0172382
719.905	0.0172890
719.983	0.0171918
720.061	0.0172601
720.139	0.0172324
720.217	0.0171478
720.295	0.0170676
720.373	0.0169869
720.451	0.0168556
720.530	0.0168978
720.608	0.0165604
720.686	0.0164891
720.764	0.0164686
720.842	0.0162365
720.920	0.0163073
720.998	0.0161671
721.076	0.0159987
721.155	0.0159667
721.233	0.0158659
721.311	0.0158749
721.389	0.0159023
721.467	0.0159409
721.545	0.0157877
721.623	0.0159811
721.701	0.0159581
721.780	0.0159360
721.858	0.0159476
721.936	0.0159277
722.014	0.0158899
722.092	0.0160009
722.170	0.0160442
722.248	0.0158640
722.326	0.0158967
722.405	0.0160832
722.483	0.0159785
722.561	0.0159416
722.639	0.0159296
722.717	0.0159386
722.795	0.0159235
722.873	0.0160526
722.951	0.0160788
723.030	0.0162216
723.108	0.0161223
723.186	0.0161663
723.264	0.0163017
723.342	0.0163389
723.420	0.0164059
723.498	0.0164014
723.576	0.0165022
723.655	0.0165852
723.733	0.0166264
723.811	0.0165675
723.889	0.0168323
723.967	0.0167271
724.045	0.0167590
724.123	0.0167709
724.201	0.0168753
724.280	0.0168231
724.358	0.0168906
724.436	0.0168922
724.514	0.0167202
724.592	0.0167012
724.670	0.0166714
724.748	0.0166774
724.826	0.0166344
724.905	0.0165326
724.983	0.0162784
725.061	0.0162993
725.139	0.0161325
725.217	0.0160349
725.295	0.0160438
725.373	0.0161057
725.451	0.0160368
725.530	0.0159798
725.608	0.0159127
725.686	0.0160378
725.764	0.0158533
725.842	0.0160990
725.920	0.0162176
725.998	0.0162946
726.076	0.0163081
726.155	0.0162691
726.233	0.0162741
726.311	0.0164062
726.389	0.0165028
726.467	0.0165374
726.545	0.0164685
726.623	0.0164701
726.701	0.0163521
726.780	0.0164858
726.858	0.0164413
726.936	0.0163383
727.014	0.0162112
727.092	0.0163306
727.170	0.0162980
727.248	0.0161783
727.326	0.0160770
727.405	0.0161272
727.483	0.0161443
727.561	0.0160318
727.639	0.0160520
727.717	0.0161463
727.795	0.0160267
727.873	0.0161377
727.951	0.0160149
728.030	0.0163033
728.108	0.0163370
728.186	0.0163100
728.264	0.0163093
728.342	0.0163128
728.420	0.0163790
728.498	0.0163287
728.576	0.0162624
728.655	0.0161250
728.733	0.0160948
728.811	0.0160213
728.889	0.0159148
728.967	0.0159937
729.045	0.0157903
729.123	0.0158548
729.201	0.0158828
729.280	0.0155873
729.358	0.0156773
729.436	0.0158490
729.514	0.0157279
729.592	0.0157578
729.670	0.0159021
729.748	0.0159161
729.826	0.0158425
729.905	0.0160116
729.983	0.0160043
730.061	0.0160175
730.139	0.0161188
730.217	0.0163641
730.295	0.0163982
730.373	0.0163946
730.451	0.0166463
730.530	0.0168250
730.608	0.0168374
730.686	0.0168785
730.764	0.0170101
730.842	0.0170321
730.920	0.0170866
730.998	0.0171611
731.076	0.0172003
731.155	0.0170107
731.233	0.0172380
731.311	0.0170235
731.389	0.0171777
731.467	0.0172032
731.545	0.0170885
731.623	0.0169847
731.701	0.0169652
731.780	0.0169191
731.858	0.0168111
731.936	0.0168000
732.014	0.0167484
732.092	0.0165925
732.170	0.0165126
732.248	0.0163293
732.326	0.0162690
732.405	0.0162403
732.483	0.0160712
732.561	0.0160107
732.639	0.0159519
732.717	0.0158862
732.795	0.0158274
732.873	0.0157898
732.951	0.0158943
733.030	0.0157732
733.108	0.0155864
733.186	0.0157018
733.264	0.0156590
733.342	0.0156468
733.420	0.0156792
733.498	0.0155686
733.576	0.0156478
733.655	0.0155132
733.733	0.0154534
733.811	0.0154863
733.889	0.0153745
733.967	0.0152856
734.045	0.0153539
734.123	0.0155012
734.201	0.0155239
734.280	0.0156138
734.358	0.0155593
734.436	0.0157166
734.514	0.0158778
734.592	0.0161057
734.670	0.0159840
734.748	0.0162094
734.826	0.0163827
734.905	0.0164205
734.983	0.0167618
735.061	0.0166399
735.139	0.0168777
735.217	0.0169869
735.295	0.0168666
735.373	0.0169247
735.451	0.0171423
735.530	0.0171741
735.608	0.0169773
735.686	0.0170533
735.764	0.0170021
735.842	0.0170029
735.920	0.0168931
735.998	0.0168743
736.076	0.0168025
736.155	0.0167183
736.233	0.0166877
736.311	0.0166526
736.389	0.0165926
736.467	0.0164471
736.545	0.0164429
736.623	0.0163837
736.701	0.0163381
736.780	0.0163491
736.858	0.0163478
736.936	0.0162204
737.014	0.0162843
737.092	0.0162479
737.170	0.0163301
737.248	0.0163011
737.326	0.0164147
737.405	0.0164531
737.483	0.0164323
737.561	0.0165233
737.639	0.0164362
737.717	0.0165032
737.795	0.0165832
737.873	0.0165329
737.951	0.0167523
738.030	0.0166357
738.108	0.0168427
738.186	0.0167347
738.264	0.0168268
738.342	0.0168309
738.420	0.0169547
738.498	0.0169835
738.576	0.0169295
738.655	0.0168539
738.733	0.0168973
738.811	0.0168277
738.889	0.0167499
738.967	0.0167287
739.045	0.0168296
739.123	0.0166965
739.201	0.0166521
739.280	0.0165479
739.358	0.0164578
739.436	0.0164938
739.514	0.0165290
739.592	0.0163194
739.670	0.0163872
739.748	0.0163952
739.826	0.0162336
739.905	0.0162633
739.983	0.0161813
740.061	0.0161433
740.139	0.0161282
740.217	0.0159752
740.295	0.0160861
740.373	0.0159777
740.451	0.0159668
740.530	0.0158469
740.608	0.0159479
740.686	0.0157935
740.764	0.0157375
740.842	0.0156264
740.920	0.0156313
740.998	0.0155694
741.076	0.0156325
741.155	0.0156451
741.233	0.0155135
741.311	0.0155633
741.389	0.0154227
741.467	0.0155016
741.545	0.0155400
741.623	0.0155150
741.701	0.0156084
741.780	0.0157616
741.858	0.0157983
741.936	0.0157076
742.014	0.0156697
742.092	0.0158009
742.170	0.0159766
742.248	0.0160133
742.326	0.0161691
742.405	0.0161160
742.483	0.0162138
742.561	0.0164774
742.639	0.0165211
742.717	0.0166040
742.795	0.0166796
742.873	0.0168913
742.951	0.0169749
743.030	0.0170267
743.108	0.0170542
743.186	0.0172461
743.264	0.0173498
743.342	0.0173360
743.420	0.0174644
743.498	0.0174148
743.576	0.0174545
743.655	0.0172974
743.733	0.0173022
743.811	0.0172598
743.889	0.0172530
743.967	0.0171562
744.045	0.0170039
744.123	0.0169837
744.201	0.0168510
744.280	0.0167284
744.358	0.0165279
744.436	0.0165173
744.514	0.0164946
744.592	0.0164455
744.670	0.0163173
744.748	0.0162329
744.826	0.0162107
744.905	0.0161089
744.983	0.0161121
745.061	0.0162154
745.139	0.0161200
745.217	0.0162303
745.295	0.0162416
745.373	0.0161572
745.451	0.0163213
745.530	0.0162979
745.608	0.0163026
745.686	0.0163958
745.764	0.0164500
745.842	0.0164411
745.920	0.0164339
745.998	0.0166013
746.076	0.0165820
746.155	0.0165743
746.233	0.0166486
746.311	0.0163440
746.389	0.0162976
746.467	0.0162891
746.545	0.0161268
746.623	0.0163171
746.701	0.0160555
746.780	0.0160454
746.858	0.0158981
746.936	0.0159770
747.014	0.0158068
747.092	0.0158882
747.170	0.0158196
747.248	0.0157354
747.326	0.0157409
747.405	0.0158200
747.483	0.0156595
747.561	0.0157721
747.639	0.0158474
747.717	0.0159004
747.795	0.0158747
747.873	0.0157805
747.951	0.0158843
748.030	0.0160162
748.108	0.0159452
748.186	0.0160233
748.264	0.0159153
748.342	0.0159238
748.420	0.0158147
748.498	0.0158675
748.576	0.0159000
748.655	0.0159400
748.733	0.0157301
748.811	0.0156893
748.889	0.0156422
748.967	0.0156336
749.045	0.0155229
749.123	0.0155221
749.201	0.0154875
749.280	0.0155345
749.358	0.0155420
749.436	0.0156152
749.514	0.0156854
749.592	0.0158375
749.670	0.0158306
749.748	0.0159095
749.826	0.0160622
749.905	0.0161316
749.983	0.0164001
750.061	0.0164699
750.139	0.0166280
750.217	0.0167863
750.295	0.0168710
750.373	0.0168880
750.451	0.0168941
750.530	0.0169714
750.608	0.0171910
750.686	0.0171553
750.764	0.0173844
750.842	0.0173572
750.920	0.0172170
750.998	0.0174239
751.076	0.0174493
751.155	0.0172972
751.233	0.0173907
751.311	0.0173497
751.389	0.0172942
751.467	0.0172902
751.545	0.0171412
751.623	0.0170786
751.701	0.0170718
751.780	0.0171046
751.858	0.0171027
751.936	0.0168800
752.014	0.0167643
752.092	0.0165453
752.170	0.0164288
752.248	0.0162132
752.326	0.0162677
752.405	0.0160752
752.483	0.0160345
752.561	0.0158809
752.639	0.0157598
752.717	0.0157126
752.795	0.0156416
752.873	0.0155875
752.951	0.0156507
753.030	0.0156318
753.108	0.0157058
753.186	0.0155668
753.264	0.0157607
753.342	0.0157277
753.420	0.0157777
753.498	0.0159076
753.576	0.0159635
753.655	0.0159538
753.733	0.0161133
753.811	0.0160445
753.889	0.0160448
753.967	0.0163233
754.045	0.0162344
754.123	0.0161465
754.201	0.0162644
754.280	0.0164699
754.358	0.0163908
754.436	0.0163405
754.514	0.0164513
754.592	0.0163161
754.670	0.0163818
754.748	0.0163792
754.826	0.0163997
754.905	0.0162389
754.983	0.0162807
755.061	0.0161499
755.139	0.0161658
755.217	0.0159680
755.295	0.0161254
755.373	0.0160670
755.451	0.0159297
755.530	0.0160292
755.608	0.0160978
755.686	0.0160434
755.764	0.0159675
755.842	0.0159724
755.920	0.0160577
755.998	0.0161368
756.076	0.0159628
756.155	0.0160606
756.233	0.0160994
756.311	0.0160471
756.389	0.0161848
756.467	0.0159244
756.545	0.0159651
756.623	0.0160986
756.701	0.0160804
756.780	0.0160765
756.858	0.0159852
756.936	0.0160242
757.014	0.0160093
757.092	0.0160467
757.170	0.0159768
757.248	0.0160016
757.326	0.0160713
757.405	0.0160306
757.483	0.0159281
757.561	0.0161465
757.639	0.0160770
757.717	0.0160645
757.795	0.0162031
757.873	0.0162570
757.951	0.0164201
758.030	0.0163421
758.108	0.0165215
758.186	0.0165808
758.264	0.0165533
758.342	0.0166938
758.420	0.0168183
758.498	0.0167436
758.576	0.0168520
758.655	0.0169761
758.733	0.0170210
758.811	0.0169417
758.889	0.0170258
758.967	0.0170659
759.045	0.0170778
759.123	0.0171262
759.201	0.0170480
759.280	0.0170922
759.358	0.0170897
759.436	0.0170087
759.514	0.0170204
759.592	0.0170644
759.670	0.0170363
759.748	0.0172343
759.826	0.0169619
759.905	0.0169840
759.983	0.0168385
760.061	0.0168059
760.139	0.0168468
760.217	0.0166756
760.295	0.0165792
760.373	0.0165784
760.451	0.0164185
760.530	0.0163937
760.608	0.0163564
760.686	0.0160861
760.764	0.0159411
760.842	0.0161552
760.920	0.0160055
760.998	0.0158947
761.076	0.0157941
761.155	0.0158904
761.233	0.0158018
761.311	0.0158694
761.389	0.0159758
761.467	0.0158630
761.545	0.0158279
761.623	0.0158133
761.701	0.0159547
761.780	0.0159747
761.858	0.0159689
761.936	0.0160118
762.014	0.0160705
762.092	0.0162102
762.170	0.0162099
762.248	0.0163647
762.326	0.0162767
762.405	0.0161510
762.483	0.0160946
762.561	0.0162058
762.639	0.0162672
762.717	0.0162875
762.795	0.0161906
762.873	0.0163074
762.951	0.0162586
763.030	0.0159750
763.108	0.0159128
763.186	0.0161266
763.264	0.0160383
763.342	0.0161012
763.420	0.0160850
763.498	0.0159627
763.576	0.0161349
763.655	0.0161129
763.733	0.0161459
763.811	0.0161665
763.889	0.0162599
763.967	0.0162391
764.045	0.0163022
764.123	0.0163879
764.201	0.0162160
764.280	0.0162545
764.358	0.0162623
764.436	0.0161106
764.514	0.0162560
764.592	0.0161592
764.670	0.0162197
764.748	0.0162515
764.826	0.0162663
764.905	0.0161665
764.983	0.0162469
765.061	0.0163328
765.139	0.0162963
765.217	0.0163152
765.295	0.0162078
765.373	0.0163241
765.451	0.0163585
765.530	0.0164539
765.608	0.0165383
765.686	0.0166200
765.764	0.0164445
765.842	0.0165015
765.920	0.0166679
765.998	0.0167110
766.076	0.0166998
766.155	0.0166878
766.233	0.0166382
766.311	0.0167020
766.389	0.0166046
766.467	0.0167088
766.545	0.0167943
766.623	0.0167244
766.701	0.0165601
766.780	0.0167007
766.858	0.0166943
766.936	0.0166689
767.014	0.0166859
767.092	0.0168396
767.170	0.0167087
767.248	0.0167925
767.326	0.0168906
767.405	0.0169409
767.483	0.0167834
767.561	0.0168212
767.639	0.0170943
767.717	0.0168886
767.795	0.0169262
767.873	0.0168277
767.951	0.0168848
768.030	0.0167587
768.108	0.0167816
768.186	0.0167267
768.264	0.0165680
768.342	0.0164468
768.420	0.0162683
768.498	0.0162395
768.576	0.0161131
768.655	0.0157993
768.733	0.0157793
768.811	0.0158581
768.889	0.0155394
768.967	0.0154633
769.045	0.0154292
769.123	0.0154856
769.201	0.0154190
769.280	0.0152910
769.358	0.0156036
769.436	0.0154457
769.514	0.0155821
769.592	0.0155571
769.670	0.0157137
769.748	0.0156225
769.826	0.0157758
769.905	0.0159846
769.983	0.0159724
770.061	0.0162326
770.139	0.0160974
770.217	0.0161781
770.295	0.0162502
770.373	0.0162303
770.451	0.0164655
770.530	0.0166940
770.608	0.0165286
770.686	0.0164583
770.764	0.0164418
770.842	0.0164181
770.920	0.0165192
770.998	0.0164391
771.076	0.0164021
771.155	0.0163490
771.233	0.0162318
771.311	0.0161735
771.389	0.0160822
771.467	0.0160493
771.545	0.0159460
771.623	0.0159287
771.701	0.0159663
771.780	0.0162811
771.858	0.0162842
771.936	0.0163019
772.014	0.0164819
772.092	0.0164936
772.170	0.0163367
772.248	0.0165229
772.326	0.0165509
772.405	0.0164323
772.483	0.0164055
772.561	0.0165031
772.639	0.0166435
772.717	0.0164179
772.795	0.0165260
772.873	0.0165167
772.951	0.0164122
773.030	0.0163839
773.108	0.0162877
773.186	0.0164106
773.264	0.0163221
773.342	0.0161786
773.420	0.0164249
773.498	0.0162087
773.576	0.0163838
773.655	0.0163937
773.733	0.0163651
773.811	0.0163474
773.889	0.0164002
773.967	0.0164771
774.045	0.0164769
774.123	0.0164056
774.201	0.0163757
774.280	0.0164880
774.358	0.0163966
774.436	0.0164388
774.514	0.0165171
774.592	0.0164397
774.670	0.0165717
774.748	0.0166743
774.826	0.0165503
774.905	0.0165163
774.983	0.0166819
775.061	0.0167009
775.139	0.0167082
775.217	0.0167857
775.295	0.0167706
775.373	0.0168018
775.451	0.0167501
775.530	0.0168873
775.608	0.0167557
775.686	0.0168228
775.764	0.0168943
775.842	0.0167559
775.920	0.0167212
775.998	0.0167717
776.076	0.0167008
776.155	0.0166507
776.233	0.0165388
776.311	0.0164959
776.389	0.0163281
776.467	0.0163179
776.545	0.0161810
776.623	0.0159341
776.701	0.0159152
776.780	0.0156770
776.858	0.0154996
776.936	0.0155778
777.014	0.0153373
777.092	0.0153378
777.170	0.0151716
777.248	0.0153098
777.326	0.0153377
777.405	0.0152566
777.483	0.0152824
777.561	0.0152673
777.639	0.0154124
777.717	0.0154991
777.795	0.0155987
777.873	0.0157663
777.951	0.0158825
778.030	0.0159470
778.108	0.0160528
778.186	0.0161360
778.264	0.0163685
778.342	0.0163395
778.420	0.0164646
778.498	0.0164155
778.576	0.0165477
778.655	0.0166422
778.733	0.0165800
778.811	0.0166837
778.889	0.0166650
778.967	0.0167235
779.045	0.0165948
779.123	0.0164856
779.201	0.0163065
779.280	0.0163528
779.358	0.0162344
779.436	0.0161877
779.514	0.0158897
779.592	0.0161219
779.670	0.0159498
779.748	0.0159858
779.826	0.0158826
779.905	0.0160117
779.983	0.0159819
780.061	0.0160579
780.139	0.0159715
780.217	0.0162558
780.295	0.0163481
780.373	0.0163881
780.451	0.0164920
780.530	0.0164139
780.608	0.0165798
780.686	0.0166223
780.764	0.0167403
780.842	0.0166776
780.920	0.0166132
780.998	0.0167736
781.076	0.0168338
781.155	0.0167426
781.233	0.0165567
781.311	0.0166655
781.389	0.0167334
781.467	0.0164883
781.545	0.0166457
781.623	0.0165642
781.701	0.0165217
781.780	0.0165569
781.858	0.0166423
781.936	0.0164487
782.014	0.0165590
782.092	0.0163846
782.170	0.0164311
782.248	0.0164872
782.326	0.0166121
782.405	0.0164888
782.483	0.0164404
782.561	0.0164056
782.639	0.0165093
782.717	0.0164330
782.795	0.0164233
782.873	0.0164147
782.951	0.0163868
783.030	0.0165420
783.108	0.0164084
783.186	0.0163020
783.264	0.0162853
783.342	0.0164057
783.420	0.0163698
783.498	0.0164433
783.576	0.0164278
783.655	0.0163953
783.733	0.0164326
783.811	0.0164127
783.889	0.0164069
783.967	0.0163689
784.045	0.0165034
784.123	0.0162568
784.201	0.0164429
784.280	0.0165949
784.358	0.0164577
784.436	0.0164738
784.514	0.0163982
784.592	0.0162267
784.670	0.0162919
784.748	0.0161763
784.826	0.0159550
784.905	0.0160842
784.983	0.0159381
785.061	0.0157792
785.139	0.0159073
785.217	0.0156944
785.295	0.0157298
785.373	0.0157249
785.451	0.0155531
785.530	0.0156575
785.608	0.0154922
785.686	0.0157243
785.764	0.0157756
785.842	0.0158918
785.920	0.0158259
785.998	0.0159079
786.076	0.0159145
786.155	0.0159785
786.233	0.0160736
786.311	0.0161629
786.389	0.0163488
786.467	0.0163023
786.545	0.0163090
786.623	0.0164525
786.701	0.0164661
786.780	0.0166573
786.858	0.0165430
786.936	0.0167169
787.014	0.0166074
787.092	0.0165424
787.170	0.0164812
787.248	0.0163485
787.326	0.0163442
787.405	0.0162101
787.483	0.0161316
787.561	0.0160943
787.639	0.0160394
787.717	0.0159033
787.795	0.0158446
787.873	0.0158694
787.951	0.0160522
788.030	0.0159999
788.108	0.0160521
788.186	0.0161946
788.264	0.0162598
788.342	0.0163799
788.420	0.0164135
788.498	0.0165034
788.576	0.0166697
788.655	0.0166341
788.733	0.0166580
788.811	0.0167169
788.889	0.0168981
788.967	0.0168951
789.045	0.0167773
789.123	0.0168005
789.201	0.0169238
789.280	0.0168635
789.358	0.0168307
789.436	0.0166317
789.514	0.0166322
789.592	0.0166345
789.670	0.0165266
789.748	0.0164951
789.826	0.0165629
789.905	0.0166409
789.983	0.0164371
790.061	0.0164579
790.139	0.0164606
790.217	0.0164793
790.295	0.0162251
790.373	0.0162302
790.451	0.0163171
790.530	0.0162978
790.608	0.0162631
790.686	0.0160911
790.764	0.0160100
790.842	0.0161987
790.920	0.0162016
790.998	0.0162475
791.076	0.0161115
791.155	0.0161098
791.233	0.0161564
791.311	0.0161250
791.389	0.0161014
791.467	0.0162272
791.545	0.0162462
791.623	0.0164305
791.701	0.0164145
791.780	0.0163512
791.858	0.0164317
791.936	0.0165544
792.014	0.0166136
792.092	0.0165876
792.170	0.0166745
792.248	0.0166062
792.326	0.0166948
792.405	0.0167767
792.483	0.0168280
792.561	0.0169038
792.639	0.0167174
792.717	0.0168043
792.795	0.0167895
792.873	0.0165621
792.951	0.0164764
793.030	0.0163563
793.108	0.0161533
793.186	0.0163190
793.264	0.0161156
793.342	0.0158421
793.420	0.0159702
793.498	0.0158921
793.576	0.0156371
793.655	0.0156753
793.733	0.0156886
793.811	0.0156777
793.889	0.0158022
793.967	0.0157122
794.045	0.0156551
794.123	0.0156860
794.201	0.0160074
794.280	0.0158433
794.358	0.0160047
794.436	0.0160659
794.514	0.0160273
794.592	0.0161675
794.670	0.0162119
794.748	0.0164091
794.826	0.0164648
794.905	0.0164539
794.983	0.0166022
795.061	0.0164952
795.139	0.0167089
795.217	0.0166689
795.295	0.0166086
795.373	0.0165690
795.451	0.0164001
795.530	0.0163503
795.608	0.0164680
795.686	0.0163728
795.764	0.0161948
795.842	0.0161211
795.920	0.0160748
795.998	0.0160428
796.076	0.0160194
796.155	0.0160540
796.233	0.0161637
796.311	0.0163284
796.389	0.0164387
796.467	0.0163221
796.545	0.0164283
796.623	0.0165619
796.701	0.0167091
796.780	0.0167078
796.858	0.0169163
796.936	0.0168255
797.014	0.0170250
797.092	0.0170895
797.170	0.0169740
797.248	0.0170650
797.326	0.0170143
797.405	0.0169630
797.483	0.0168927
797.561	0.0169632
797.639	0.0167324
797.717	0.0168015
797.795	0.0166515
797.873	0.0166328
797.951	0.0166174
798.030	0.0165950
798.108	0.0164912
798.186	0.0163356
798.264	0.0163278
798.342	0.0163719
798.420	0.0164538
798.498	0.0162500
798.576	0.0163306
798.655	0.0164563
798.733	0.0163799
798.811	0.0162426
798.889	0.0162933
798.967	0.0164288
799.045	0.0163639
799.123	0.0165217
799.201	0.0164198
799.280	0.0162955
799.358	0.0163569
799.436	0.0164278
799.514	0.0163531
799.592	0.0162868
799.670	0.0163519
799.748	0.0163524
799.826	0.0163477
799.905	0.0163395
799.983	0.0163605
800.061	0.0164219
800.139	0.0162960
800.217	0.0164558
800.295	0.0165012
800.373	0.0164647
800.451	0.0165797
800.530	0.0167043
800.608	0.0166137
800.686	0.0166396
800.764	0.0167350
800.842	0.0165597
800.920	0.0166296
800.998	0.0165110
801.076	0.0166470
801.155	0.0164127
801.233	0.0163045
801.311	0.0161144
801.389	0.0160374
801.467	0.0158942
801.545	0.0155822
801.623	0.0157236
801.701	0.0155639
801.780	0.0155035
801.858	0.0155164
801.936	0.0154946
802.014	0.0153469
802.092	0.0154463
802.170	0.0154092
802.248	0.0154382
802.326	0.0156111
802.405	0.0155866
802.483	0.0155898
802.561	0.0156808
802.639	0.0156799
802.717	0.0158697
802.795	0.0159978
802.873	0.0161472
802.951	0.0161295
803.030	0.0163416
803.108	0.0163325
803.186	0.0164790
803.264	0.0165502
803.342	0.0166295
803.420	0.0165704
803.498	0.0165082
803.576	0.0165667
803.655	0.0165799
803.733	0.0166282
803.811	0.0164474
803.889	0.0164165
803.967	0.0163789
804.045	0.0165091
804.123	0.0164460
804.201	0.0163530
804.280	0.0163679
804.358	0.0164675
804.436	0.0165897
804.514	0.0166064
804.592	0.0166121
804.670	0.0166139
804.748	0.0168006
804.826	0.0167921
804.905	0.0168713
804.983	0.0171647
805.061	0.0169788
805.139	0.0169743
805.217	0.0170358
805.295	0.0171433
805.373	0.0171645
805.451	0.0170848
805.530	0.0170977
805.608	0.0171178
805.686	0.0167815
805.764	0.0166905
805.842	0.0166357
805.920	0.0165400
805.998	0.0165285
806.076	0.0163751
806.155	0.0161634
806.233	0.0162093
806.311	0.0160948
806.389	0.0159742
806.467	0.0159320
806.545	0.0159508
806.623	0.0159372
806.701	0.0159042
806.780	0.0159150
806.858	0.0159527
806.936	0.0157749
807.014	0.0159411
807.092	0.0157731
807.170	0.0159045
807.248	0.0158807
807.326	0.0157603
807.405	0.0157592
807.483	0.0158914
807.561	0.0158592
807.639	0.0158882
807.717	0.0159440
807.795	0.0159742
807.873	0.0160313
807.951	0.0160353
808.030	0.0159061
808.108	0.0160772
808.186	0.0162300
808.264	0.0162749
808.342	0.0164213
808.420	0.0164254
808.498	0.0164648
808.576	0.0165627
808.655	0.0165826
808.733	0.0166464
808.811	0.0167430
808.889	0.0166910
808.967	0.0168170
809.045	0.0166982
809.123	0.0167937
809.201	0.0167951
809.280	0.0166730
809.358	0.0165668
809.436	0.0165508
809.514	0.0163052
809.592	0.0163335
809.670	0.0161051
809.748	0.0161765
809.826	0.0159559
809.905	0.0156823
809.983	0.0157877
810.061	0.0157461
810.139	0.0157347
810.217	0.0156744
810.295	0.0156244
810.373	0.0155829
810.451	0.0156578
810.530	0.0157473
810.608	0.0156461
810.686	0.0158035
810.764	0.0158190
810.842	0.0159748
810.920	0.0160316
810.998	0.0160558
811.076	0.0160148
811.155	0.0162408
811.233	0.0162896
811.311	0.0164146
811.389	0.0165292
811.467	0.0164986
811.545	0.0166226
811.623	0.0164874
811.701	0.0165372
811.780	0.0166412
811.858	0.0164830
811.936	0.0165422
812.014	0.0165102
812.092	0.0164326
812.170	0.0163503
812.248	0.0162500
812.326	0.0164083
812.405	0.0162956
812.483	0.0163261
812.561	0.0164156
812.639	0.0162564
812.717	0.0162889
812.795	0.0163441
812.873	0.0165463
812.951	0.0165473
813.030	0.0165587
813.108	0.0164429
813.186	0.0166787
813.264	0.0166306
813.342	0.0168256
813.420	0.0168285
813.498	0.0169059
813.576	0.0168889
813.655	0.0168196
813.733	0.0169618
813.811	0.0167842
813.889	0.0166882
813.967	0.0167164
814.045	0.0167303
814.123	0.0165115
814.201	0.0166663
814.280	0.0165688
814.358	0.0163316
814.436	0.0164821
814.514	0.0163706
814.592	0.0162283
814.670	0.0161580
814.748	0.0162773
814.826	0.0161410
814.905	0.0161086
814.983	0.0163004
815.061	0.0161971
815.139	0.0162041
815.217	0.0162079
815.295	0.0162258
815.373	0.0162178
815.451	0.0161775
815.530	0.0162271
815.608	0.0162549
815.686	0.0163266
815.764	0.0163802
815.842	0.0162385
815.920	0.0164302
815.998	0.0163787
816.076	0.0165453
816.155	0.0164401
816.233	0.0165662
816.311	0.0167402
816.389	0.0166944
816.467	0.0167545
816.545	0.0168228
816.623	0.0167121
816.701	0.0168666
816.780	0.0170133
816.858	0.0169638
816.936	0.0168896
817.014	0.0169534
817.092	0.0170828
817.170	0.0170140
817.248	0.0168913
817.326	0.0168755
817.405	0.0168573
817.483	0.0167801
817.561	0.0164773
817.639	0.0164727
817.717	0.0164496
817.795	0.0162046
817.873	0.0160656
817.951	0.0158113
818.030	0.0157984
818.108	0.0155727
818.186	0.0156029
818.264	0.0153768
818.342	0.0154214
818.420	0.0153673
818.498	0.0152815
818.576	0.0152971
818.655	0.0153433
818.733	0.0154593
818.811	0.0152813
818.889	0.0154704
818.967	0.0155021
819.045	0.0156187
819.123	0.0155968
819.201	0.0159016
819.280	0.0159738
819.358	0.0161595
819.436	0.0162772
819.514	0.0163187
819.592	0.0166154
819.670	0.0165686
819.748	0.0166766
819.826	0.0166615
819.905	0.0169542
819.983	0.0167323
820.061	0.0167552
820.139	0.0167998
820.217	0.0167080
820.295	0.0168803
820.373	0.0168334
820.451	0.0167018
820.530	0.0166665
820.608	0.0166589
820.686	0.0165990
820.764	0.0165768
820.842	0.0165466
820.920	0.0165840
820.998	0.0164753
821.076	0.0165656
821.155	0.0165254
821.233	0.0167027
821.311	0.0165254
821.389	0.0166209
821.467	0.0167262
821.545	0.0166560
821.623	0.0167371
821.701	0.0167272
821.780	0.0166849
821.858	0.0167796
821.936	0.0168203
822.014	0.0167474
822.092	0.0166998
822.170	0.0166301
822.248	0.0165324
822.326	0.0165858
822.405	0.0164629
822.483	0.0162542
822.561	0.0162315
822.639	0.0161938
822.717	0.0160482
822.795	0.0159976
822.873	0.0159673
822.951	0.0157844
823.030	0.0159489
823.108	0.0158721
823.186	0.0159203
823.264	0.0158065
823.342	0.0158379
823.420	0.0158628
823.498	0.0160087
823.576	0.0160001
823.655	0.0159947
823.733	0.0161606
823.811	0.0160010
823.889	0.0161831
823.967	0.0161510
824.045	0.0161295
824.123	0.0161957
824.201	0.0162899
824.280	0.0163283
824.358	0.0163750
824.436	0.0163753
824.514	0.0164125
824.592	0.0165235
824.670	0.0163761
824.748	0.0164903
824.826	0.0165591
824.905	0.0166486
824.983	0.0165722
825.061	0.0166307
825.139	0.0165589
825.217	0.0164342
825.295	0.0163844
825.373	0.0166008
825.451	0.0164054
825.530	0.0163139
825.608	0.0163688
825.686	0.0165626
825.764	0.0163457
825.842	0.0161607
825.920	0.0161120
825.998	0.0160322
826.076	0.0159581
826.155	0.0158562
826.233	0.0157961
826.311	0.0157036
826.389	0.0156893
826.467	0.0156119
826.545	0.0156319
826.623	0.0156252
826.701	0.0156043
826.780	0.0156170
826.858	0.0155822
826.936	0.0155582
827.014	0.0156551
827.092	0.0157178
827.170	0.0157740
827.248	0.0159779
827.326	0.0161872
827.405	0.0162534
827.483	0.0164153
827.561	0.0164724
827.639	0.0164673
827.717	0.0165356
827.795	0.0166142
827.873	0.0167914
827.951	0.0169558
828.030	0.0169728
828.108	0.0169793
828.186	0.0170122
828.264	0.0169878
828.342	0.0168942
828.420	0.0171051
828.498	0.0169203
828.576	0.0168298
828.655	0.0169895
828.733	0.0167704
828.811	0.0168497
828.889	0.0167751
828.967	0.0166371
829.045	0.0165948
829.123	0.0166456
829.201	0.0165536
829.280	0.0164924
829.358	0.0164242
829.436	0.0165528
829.514	0.0165752
829.592	0.0165159
829.670	0.0165981
829.748	0.0164980
829.826	0.0165660
829.905	0.0165115
829.983	0.0164983
830.061	0.0165567
830.139	0.0165797
830.217	0.0165702
830.295	0.0165549
830.373	0.0164128
830.451	0.0163039
830.530	0.0163885
830.608	0.0162158
830.686	0.0162635
830.764	0.0161014
830.842	0.0160746
830.920	0.0160743
830.998	0.0160181
831.076	0.0161199
831.155	0.0157906
831.233	0.0158597
831.311	0.0158141
831.389	0.0159191
831.467	0.0160545
831.545	0.0159200
831.623	0.0159628
831.701	0.0159070
831.780	0.0159606
831.858	0.0160570
831.936	0.0161065
832.014	0.0161404
832.092	0.0161309
832.170	0.0160094
832.248	0.0161543
832.326	0.0163201
832.405	0.0163252
832.483	0.0163785
832.561	0.0164145
832.639	0.0163766
832.717	0.0163778
832.795	0.0164309
832.873	0.0166638
832.951	0.0168008
833.030	0.0167373
833.108	0.0165334
833.186	0.0166026
833.264	0.0165569
833.342	0.0166139
833.420	0.0164581
833.498	0.0166160
833.576	0.0165588
833.655	0.0166536
833.733	0.0165686
833.811	0.0164885
833.889	0.0164616
833.967	0.0165045
834.045	0.0164043
834.123	0.0162476
834.201	0.0162783
834.280	0.0162527
834.358	0.0162276
834.436	0.0160490
834.514	0.0161455
834.592	0.0159467
834.670	0.0158354
834.748	0.0159512
834.826	0.0158862
834.905	0.0158691
834.983	0.0156891
835.061	0.0157181
835.139	0.0158394
835.217	0.0158569
835.295	0.0158903
835.373	0.0159750
835.451	0.0160783
835.530	0.0162884
835.608	0.0163310
835.686	0.0163560
835.764	0.0163724
835.842	0.0163316
835.920	0.0165534
835.998	0.0166202
836.076	0.0165905
836.155	0.0167616
836.233	0.0167897
836.311	0.0168452
836.389	0.0167644
836.467	0.0169743
836.545	0.0168578
836.623	0.0167258
836.701	0.0169817
836.780	0.0168311
836.858	0.0167484
836.936	0.0167876
837.014	0.0167698
837.092	0.0168218
837.170	0.0166161
837.248	0.0165984
837.326	0.0166449
837.405	0.0166313
837.483	0.0166420
837.561	0.0165595
837.639	0.0165219
837.717	0.0163733
837.795	0.0163501
837.873	0.0163826
837.951	0.0163837
838.030	0.0163062
838.108	0.0163601
838.186	0.0163767
838.264	0.0162212
838.342	0.0163416
838.420	0.0163840
838.498	0.0162603
838.576	0.0162397
838.655	0.0162525
838.733	0.0160400
838.811	0.0161024
838.889	0.0161324
838.967	0.0160070
839.045	0.0163108
839.123	0.0161858
839.201	0.0160281
839.280	0.0161663
839.358	0.0161018
839.436	0.0159719
839.514	0.0161430
839.592	0.0161743
839.670	0.0162835
839.748	0.0160395
839.826	0.0162315
839.905	0.0162358
839.983	0.0163493
840.061	0.0163277
840.139	0.0162739
840.217	0.0164001
840.295	0.0163547
840.373	0.0164217
840.451	0.0164442
840.530	0.0164196
840.608	0.0164725
840.686	0.0163098
840.764	0.0162814
840.842	0.0163772
840.920	0.0164292
840.998	0.0165577
841.076	0.0164193
841.155	0.0164707
841.233	0.0165237
841.311	0.0164364
841.389	0.0164788
841.467	0.0165725
841.545	0.0166143
841.623	0.0166413
841.701	0.0166446
841.780	0.0166332
841.858	0.0166592
841.936	0.0164236
842.014	0.0163544
842.092	0.0164019
842.170	0.0162563
842.248	0.0162885
842.326	0.0163171
842.405	0.0161433
842.483	0.0162159
842.561	0.0160739
842.639	0.0159394
842.717	0.0159939
842.795	0.0159064
842.873	0.0157654
842.951	0.0157446
843.030	0.0157208
843.108	0.0158278
843.186	0.0158547
843.264	0.0158456
843.342	0.0157959
843.420	0.0159072
843.498	0.0160067
843.576	0.0159539
843.655	0.0160345
843.733	0.0160992
843.811	0.0161989
843.889	0.0162715
843.967	0.0162518
844.045	0.0162065
844.123	0.0163772
844.201	0.0164744
844.280	0.0166522
844.358	0.0166400
844.436	0.0166888
844.514	0.0166352
844.592	0.0165660
844.670	0.0166292
844.748	0.0168032
844.826	0.0166982
844.905	0.0167126
844.983	0.0167454
845.061	0.0169051
845.139	0.0167403
845.217	0.0167191
845.295	0.0166602
845.373	0.0166566
845.451	0.0166740
845.530	0.0166123
845.608	0.0164735
845.686	0.0165977
845.764	0.0165273
845.842	0.0164759
845.920	0.0162772
845.998	0.0164006
846.076	0.0164117
846.155	0.0163300
846.233	0.0163406
846.311	0.0162650
846.389	0.0161998
846.467	0.0163110
846.545	0.0162997
846.623	0.0161269
846.701	0.0162946
846.780	0.0162271
846.858	0.0160815
846.936	0.0161754
847.014	0.0160985
847.092	0.0160616
847.170	0.0161666
847.248	0.0161220
847.326	0.0160318
847.405	0.0160747
847.483	0.0160282
847.561	0.0160249
847.639	0.0162259
847.717	0.0160248
847.795	0.0161139
847.873	0.0162307
847.951	0.0162243
848.030	0.0161395
848.108	0.0163200
848.186	0.0162192
848.264	0.0162978
848.342	0.0162769
848.420	0.0163004
848.498	0.0162392
848.576	0.0163152
848.655	0.0163762
848.733	0.0164109
848.811	0.0163699
848.889	0.0162306
848.967	0.0162508
849.045	0.0165381
849.123	0.0163889
849.201	0.0163203
849.280	0.0162992
849.358	0.0162650
849.436	0.0164698
849.514	0.0163225
849.592	0.0162914
849.670	0.0164059
849.748	0.0163120
849.826	0.0162787
849.905	0.0162879
849.983	0.0162508
850.061	0.0162099
850.139	0.0161834
850.217	0.0161668
850.295	0.0161923
850.373	0.0162064
850.451	0.0161585
850.530	0.0161457
850.608	0.0160806
850.686	0.0159814
850.764	0.0160404
850.842	0.0160117
850.920	0.0160082
850.998	0.0159263
851.076	0.0160436
851.155	0.0159801
851.233	0.0160582
851.311	0.0160036
851.389	0.0159387
851.467	0.0160066
851.545	0.0160044
851.623	0.0159998
851.701	0.0159500
851.780	0.0160291
851.858	0.0160189
851.936	0.0160056
852.014	0.0161527
852.092	0.0160989
852.170	0.0162604
852.248	0.0162935
852.326	0.0162539
852.405	0.0161660
852.483	0.0164038
852.561	0.0164604
852.639	0.0164391
852.717	0.0164407
852.795	0.0163396
852.873	0.0164932
852.951	0.0166038
853.030	0.0165434
853.108	0.0166715
853.186	0.0166183
853.264	0.0165884
853.342	0.0165904
853.420	0.0166075
853.498	0.0166448
853.576	0.0166110
853.655	0.0165559
853.733	0.0163813
853.811	0.0165633
853.889	0.0163535
853.967	0.0164272
854.045	0.0163250
854.123	0.0162630
854.201	0.0162791
854.280	0.0162885
854.358	0.0161319
854.436	0.0161359
854.514	0.0161739
854.592	0.0160448
854.670	0.0160582
854.748	0.0160773
854.826	0.0159651
854.905	0.0160161
854.983	0.0160880
855.061	0.0159929
855.139	0.0159497
855.217	0.0160987
855.295	0.0160458
855.373	0.0161289
855.451	0.0161811
855.530	0.0162960
855.608	0.0162691
855.686	0.0162363
855.764	0.0164175
855.842	0.0163226
855.920	0.0164594
855.998	0.0165177
856.076	0.0164363
856.155	0.0164032
856.233	0.0163736
856.311	0.0164080
856.389	0.0165335
856.467	0.0164794
856.545	0.0164950
856.623	0.0166089
856.701	0.0165325
856.780	0.0165192
856.858	0.0164707
856.936	0.0163977
857.014	0.0164281
857.092	0.0164532
857.170	0.0163353
857.248	0.0164162
857.326	0.0163403
857.405	0.0162664
857.483	0.0164365
857.561	0.0163258
857.639	0.0163213
857.717	0.0162458
857.795	0.0163596
857.873	0.0163439
857.951	0.0162029
858.030	0.0163273
858.108	0.0163213
858.186	0.0162987
858.264	0.0163545
858.342	0.0161909
858.420	0.0162552
858.498	0.0161991
858.576	0.0162859
858.655	0.0163567
858.733	0.0161713
858.811	0.0161986
858.889	0.0162326
858.967	0.0160947
859.045	0.0161642
859.123	0.0161372
859.201	0.0161940
859.280	0.0162223
859.358	0.0161190
859.436	0.0161588
859.514	0.0160828
859.592	0.0162722
859.670	0.0162106
859.748	0.0162908
859.826	0.0162916
859.905	0.0162744
859.983	0.0163969
860.061	0.0164261
860.139	0.0164864
860.217	0.0164799
860.295	0.0165434
860.373	0.0165734
860.451	0.0166189
860.530	0.0167118
860.608	0.0166046
860.686	0.0165554
860.764	0.0166402
860.842	0.0167283
860.920	0.0167354
860.998	0.0167548
861.076	0.0167562
861.155	0.0168073
861.233	0.0169123
861.311	0.0169797
861.389	0.0167616
861.467	0.0168357
861.545	0.0168536
861.623	0.0166551
861.701	0.0168015
861.780	0.0168947
861.858	0.0168242
861.936	0.0167522
862.014	0.0166138
862.092	0.0166517
862.170	0.0165737
862.248	0.0165454
862.326	0.0165237
862.405	0.0165772
862.483	0.0164194
862.561	0.0162920
862.639	0.0163264
862.717	0.0163723
862.795	0.0163573
862.873	0.0163747
862.951	0.0162605
863.030	0.0163418
863.108	0.0162325
863.186	0.0163005
863.264	0.0163992
863.342	0.0163113
863.420	0.0164046
863.498	0.0163815
863.576	0.0164944
863.655	0.0164043
863.733	0.0163853
863.811	0.0164343
863.889	0.0166466
863.967	0.0164258
864.045	0.0164765
864.123	0.0166155
864.201	0.0164220
864.280	0.0162592
864.358	0.0163498
864.436	0.0165073
864.514	0.0162853
864.592	0.0163924
864.670	0.0164376
864.748	0.0163541
864.826	0.0164697
864.905	0.0163944
864.983	0.0163570
865.061	0.0162834
865.139	0.0162207
865.217	0.0163119
865.295	0.0162490
865.373	0.0162368
865.451	0.0161971
865.530	0.0161433
865.608	0.0161324
865.686	0.0161193
865.764	0.0159969
865.842	0.0160500
865.920	0.0159069
865.998	0.0158501
866.076	0.0160208
866.155	0.0159110
866.233	0.0159338
866.311	0.0159230
866.389	0.0159643
866.467	0.0159343
866.545	0.0159011
866.623	0.0159289
866.701	0.0159643
866.780	0.0158429
866.858	0.0159879
866.936	0.0160752
867.014	0.0161997
867.092	0.0160641
867.170	0.0159731
867.248	0.0159459
867.326	0.0160446
867.405	0.0160123
867.483	0.0161045
867.561	0.0161255
867.639	0.0161687
867.717	0.0162354
867.795	0.0161981
867.873	0.0161678
867.951	0.0162644
868.030	0.0163322
868.108	0.0164428
868.186	0.0164028
868.264	0.0162917
868.342	0.0164577
868.420	0.0164407
868.498	0.0164014
868.576	0.0165582
868.655	0.0163685
868.733	0.0164600
868.811	0.0166040
868.889	0.0164844
868.967	0.0164720
869.045	0.0165047
869.123	0.0165788
869.201	0.0166135
869.280	0.0164979
869.358	0.0165342
869.436	0.0166940
869.514	0.0164735
869.592	0.0165895
869.670	0.0167289
869.748	0.0164874
869.826	0.0165527
869.905	0.0166369
869.983	0.0165672
870.061	0.0164459
870.139	0.0163956
870.217	0.0163614
870.295	0.0164097
870.373	0.0164355
870.451	0.0164196
870.530	0.0161655
870.608	0.0161964
870.686	0.0161607
870.764	0.0163483
870.842	0.0162513
870.920	0.0161330
870.998	0.0159773
871.076	0.0160918
871.155	0.0159697
871.233	0.0160712
871.311	0.0159469
871.389	0.0159885
871.467	0.0160862
871.545	0.0160729
871.623	0.0160832
871.701	0.0160650
871.780	0.0161933
871.858	0.0161259
871.936	0.0163573
872.014	0.0162701
872.092	0.0162662
872.170	0.0163279
872.248	0.0163512
872.326	0.0164525
872.405	0.0165961
872.483	0.0165382
872.561	0.0164031
872.639	0.0164547
872.717	0.0164092
872.795	0.0165356
872.873	0.0164243
872.951	0.0164481
873.030	0.0165491
873.108	0.0163760
873.186	0.0163968
873.264	0.0164361
873.342	0.0164442
873.420	0.0164294
873.498	0.0165020
873.576	0.0163201
873.655	0.0162189
873.733	0.0162911
873.811	0.0162693
873.889	0.0161256
873.967	0.0160126
874.045	0.0159444
874.123	0.0160228
874.201	0.0159850
874.280	0.0159382
874.358	0.0159748
874.436	0.0158433
874.514	0.0158429
874.592	0.0157230
874.670	0.0159841
874.748	0.0158359
874.826	0.0159638
874.905	0.0160879
874.983	0.0160226
875.061	0.0159776
875.139	0.0161049
875.217	0.0159642
875.295	0.0162513
875.373	0.0161657
875.451	0.0161359
875.530	0.0162862
875.608	0.0163190
875.686	0.0164507
875.764	0.0163402
875.842	0.0163805
875.920	0.0162479
875.998	0.0162861
876.076	0.0164963
876.155	0.0164212
876.233	0.0163377
876.311	0.0162907
876.389	0.0164514
876.467	0.0164503
876.545	0.0164532
876.623	0.0164767
876.701	0.0164361
876.780	0.0164527
876.858	0.0164149
876.936	0.0165106
877.014	0.0164304
877.092	0.0164529
877.170	0.0164305
877.248	0.0161954
877.326	0.0163046
877.405	0.0163056
877.483	0.0163417
877.561	0.0163741
877.639	0.0164853
877.717	0.0162371
877.795	0.0163459
877.873	0.0163036
877.951	0.0163680
878.030	0.0162762
878.108	0.0162965
878.186	0.0162538
878.264	0.0163659
878.342	0.0162345
878.420	0.0162560
878.498	0.0162471
878.576	0.0163546
878.655	0.0162189
878.733	0.0162183
878.811	0.0163172
878.889	0.0162155
878.967	0.0162606
879.045	0.0163979
879.123	0.0163039
879.201	0.0162650
879.280	0.0162727
879.358	0.0161997
879.436	0.0162997
879.514	0.0161233
879.592	0.0161588
879.670	0.0161467
879.748	0.0162050
879.826	0.0162133
879.905	0.0163103
879.983	0.0162757
880.061	0.0162362
880.139	0.0164611
880.217	0.0163736
880.295	0.0163858
880.373	0.0164539
880.451	0.0164065
880.530	0.0165167
880.608	0.0165170
880.686	0.0166079
880.764	0.0164703
880.842	0.0163369
880.920	0.0165502
880.998	0.0164882
881.076	0.0165157
881.155	0.0164901
881.233	0.0163757
881.311	0.0164214
881.389	0.0164855
881.467	0.0163101
881.545	0.0162576
881.623	0.0162392
881.701	0.0162204
881.780	0.0162983
881.858	0.0160851
881.936	0.0161595
882.014	0.0161819
882.092	0.0161195
882.170	0.0161284
882.248	0.0160983
882.326	0.0162192
882.405	0.0161020
882.483	0.0160284
882.561	0.0161250
882.639	0.0161185
882.717	0.0160901
882.795	0.0162680
882.873	0.0160860
882.951	0.0159940
883.030	0.0161245
883.108	0.0162070
883.186	0.0162561
883.264	0.0162953
883.342	0.0164669
883.420	0.0164806
883.498	0.0163761
883.576	0.0163483
883.655	0.0164735
883.733	0.0165211
883.811	0.0165642
883.889	0.0165891
883.967	0.0165543
884.045	0.0166481
884.123	0.0165840
884.201	0.0165740
884.280	0.0166252
884.358	0.0166386
884.436	0.0165059
884.514	0.0166483
884.592	0.0163723
884.670	0.0164920
884.748	0.0165923
884.826	0.0165406
884.905	0.0163504
884.983	0.0165714
885.061	0.0166383
885.139	0.0165781
885.217	0.0165135
885.295	0.0165471
885.373	0.0163763
885.451	0.0164939
885.530	0.0164297
885.608	0.0164737
885.686	0.0165364
885.764	0.0164310
885.842	0.0165190
885.920	0.0166398
885.998	0.0164291
886.076	0.0163873
886.155	0.0163956
886.233	0.0163632
886.311	0.0164648
886.389	0.0164068
886.467	0.0163236
886.545	0.0163715
886.623	0.0162387
886.701	0.0162067
886.780	0.0162595
886.858	0.0163618
886.936	0.0163290
887.014	0.0162578
887.092	0.0162269
887.170	0.0163079
887.248	0.0163030
887.326	0.0162619
887.405	0.0161422
887.483	0.0161943
887.561	0.0161320
887.639	0.0162166
887.717	0.0161496
887.795	0.0161438
887.873	0.0161692
887.951	0.0161300
888.030	0.0161126
888.108	0.0162140
888.186	0.0161572
888.264	0.0161123
888.342	0.0162975
888.420	0.0163977
888.498	0.0163092
888.576	0.0162823
888.655	0.0162868
888.733	0.0163509
888.811	0.0165402
888.889	0.0164763
888.967	0.0163167
889.045	0.0164858
889.123	0.0164164
889.201	0.0164236
889.280	0.0165324
889.358	0.0163564
889.436	0.0163689
889.514	0.0163418
889.592	0.0164765
889.670	0.0161257
889.748	0.0161835
889.826	0.0162948
889.905	0.0161577
889.983	0.0162154
890.061	0.0161400
890.139	0.0160908
890.217	0.0161135
890.295	0.0161414
890.373	0.0162147
890.451	0.0162078
890.530	0.0160262
890.608	0.0160152
890.686	0.0160942
890.764	0.0160455
890.842	0.0160884
890.920	0.0161836
890.998	0.0162033
891.076	0.0160713
891.155	0.0161932
891.233	0.0163015
891.311	0.0163108
891.389	0.0163090
891.467	0.0162210
891.545	0.0162623
891.623	0.0164129
891.701	0.0164120
891.780	0.0164626
891.858	0.0164379
891.936	0.0164789
892.014	0.0164799
892.092	0.0164269
892.170	0.0165096
892.248	0.0165055
892.326	0.0165839
892.405	0.0165688
892.483	0.0167120
892.561	0.0167428
892.639	0.0165567
892.717	0.0166391
892.795	0.0166153
892.873	0.0166091
892.951	0.0167004
893.030	0.0165788
893.108	0.0165410
893.186	0.0164914
893.264	0.0165186
893.342	0.0165303
893.420	0.0165474
893.498	0.0165099
893.576	0.0166093
893.655	0.0165202
893.733	0.0165426
893.811	0.0166252
893.889	0.0166093
893.967	0.0165193
894.045	0.0163616
894.123	0.0164195
894.201	0.0165296
894.280	0.0164516
894.358	0.0164472
894.436	0.0163285
894.514	0.0164000
894.592	0.0163219
894.670	0.0162967
894.748	0.0163366
894.826	0.0162288
894.905	0.0160933
894.983	0.0162022
895.061	0.0162881
895.139	0.0161333
895.217	0.0161831
895.295	0.0161417
895.373	0.0162463
895.451	0.0164577
895.530	0.0164244
895.608	0.0163174
895.686	0.0162078
895.764	0.0163306
895.842	0.0163317
895.920	0.0162392
895.998	0.0165063
896.076	0.0165109
896.155	0.0164361
896.233	0.0165235
896.311	0.0164169
896.389	0.0163677
896.467	0.0164079
896.545	0.0163257
896.623	0.0163930
896.701	0.0162495
896.780	0.0162426
896.858	0.0165075
896.936	0.0164252
897.014	0.0163286
897.092	0.0162769
897.170	0.0163657
897.248	0.0163216
897.326	0.0162745
897.405	0.0162241
897.483	0.0161160
897.561	0.0161493
897.639	0.0161662
897.717	0.0162430
897.795	0.0160525
897.873	0.0161936
897.951	0.0161974
898.030	0.0161014
898.108	0.0159972
898.186	0.0160818
898.264	0.0161404
898.342	0.0160608
898.420	0.0160986
898.498	0.0159825
898.576	0.0160422
898.655	0.0161272
898.733	0.0159681
898.811	0.0160430
898.889	0.0160316
898.967	0.0160648
899.045	0.0160924
899.123	0.0163428
899.201	0.0163096
899.280	0.0161961
899.358	0.0163409
899.436	0.0161318
899.514	0.0162146
899.592	0.0163123
899.670	0.0164044
899.748	0.0164016
899.826	0.0162579
899.905	0.0162036
899.983	0.0164165
900.061	0.0163953
900.139	0.0164263
900.217	0.0162482
900.295	0.0162907
900.373	0.0164269
900.451	0.0165114
900.530	0.0163990
900.608	0.0165038
900.686	0.0164619
900.764	0.0164960
900.842	0.0164384
900.920	0.0164590
900.998	0.0165069
901.076	0.0165715
901.155	0.0163546
901.233	0.0164620
901.311	0.0165374
901.389	0.0165222
901.467	0.0164399
901.545	0.0164956
901.623	0.0164431
901.701	0.0164250
901.780	0.0163602
901.858	0.0163638
901.936	0.0165118
902.014	0.0163776
902.092	0.0164225
902.170	0.0162302
902.248	0.0163785
902.326	0.0163560
902.405	0.0162301
902.483	0.0164352
902.561	0.0163068
902.639	0.0162016
902.717	0.0162708
902.795	0.0161249
902.873	0.0162456
902.951	0.0160817
903.030	0.0161829
903.108	0.0161372
903.186	0.0162408
903.264	0.0160571
903.342	0.0160167
903.420	0.0161283
903.498	0.0161997
903.576	0.0159251
903.655	0.0161076
903.733	0.0162395
903.811	0.0161556
903.889	0.0161249
903.967	0.0161388
904.045	0.0162333
904.123	0.0162149
904.201	0.0163129
904.280	0.0162669
904.358	0.0163776
904.436	0.0162357
904.514	0.0162122
904.592	0.0163557
904.670	0.0162777
904.748	0.0163538
904.826	0.0163685
904.905	0.0163387
904.983	0.0164098
905.061	0.0163585
905.139	0.0163643
905.217	0.0162717
905.295	0.0163474
905.373	0.0164625
905.451	0.0163993
905.530	0.0163692
905.608	0.0164322
905.686	0.0165534
905.764	0.0163824
905.842	0.0165260
905.920	0.0162807
905.998	0.0163528
906.076	0.0163597
906.155	0.0163663
906.233	0.0164044
906.311	0.0164407
906.389	0.0163117
906.467	0.0163007
906.545	0.0163274
906.623	0.0162473
906.701	0.0163066
906.780	0.0162206
906.858	0.0162180
906.936	0.0163089
907.014	0.0162167
907.092	0.0161662
907.170	0.0162472
907.248	0.0161819
907.326	0.0161291
907.405	0.0161388
907.483	0.0162524
907.561	0.0161340
907.639	0.0162318
907.717	0.0162329
907.795	0.0162617
907.873	0.0161320
907.951	0.0162199
908.030	0.0162477
908.108	0.0163204
908.186	0.0162950
908.264	0.0162329
908.342	0.0162905
908.420	0.0163014
908.498	0.0162823
908.576	0.0165367
908.655	0.0165857
908.733	0.0164236
908.811	0.0164531
908.889	0.0163201
908.967	0.0162762
909.045	0.0164072
909.123	0.0165547
909.201	0.0164847
909.280	0.0165403
909.358	0.0164594
909.436	0.0164790
909.514	0.0165768
909.592	0.0164586
909.670	0.0165303
909.748	0.0164172
909.826	0.0164882
909.905	0.0164808
909.983	0.0164755
910.061	0.0164416
910.139	0.0164264
910.217	0.0165034
910.295	0.0165509
910.373	0.0165272
910.451	0.0165371
910.530	0.0164642
910.608	0.0163576
910.686	0.0163968
910.764	0.0163905
910.842	0.0161385
910.920	0.0163070
910.998	0.0165035
911.076	0.0162663
911.155	0.0162685
911.233	0.0163110
911.311	0.0163729
911.389	0.0161893
911.467	0.0163442
911.545	0.0163284
911.623	0.0161399
911.701	0.0161552
911.780	0.0162707
911.858	0.0161697
911.936	0.0162284
912.014	0.0163033
912.092	0.0163034
912.170	0.0163723
912.248	0.0162840
912.326	0.0162648
912.405	0.0162714
912.483	0.0163306
912.561	0.0162459
912.639	0.0164056
912.717	0.0164265
912.795	0.0164753
912.873	0.0163532
912.951	0.0163126
913.030	0.0163939
913.108	0.0164577
913.186	0.0164680
913.264	0.0164318
913.342	0.0165256
913.420	0.0163801
913.498	0.0164434
913.576	0.0164130
913.655	0.0164787
913.733	0.0163882
913.811	0.0164163
913.889	0.0163786
913.967	0.0163118
914.045	0.0164849
914.123	0.0161234
914.201	0.0161594
914.280	0.0163310
914.358	0.0162945
914.436	0.0163105
914.514	0.0163316
914.592	0.0163351
914.670	0.0163350
914.748	0.0163006
914.826	0.0162675
914.905	0.0163979
914.983	0.0164970
915.061	0.0164192
915.139	0.0161478
915.217	0.0162996
915.295	0.0164562
915.373	0.0163329
915.451	0.0164174
915.530	0.0162993
915.608	0.0164375
915.686	0.0163627
915.764	0.0162587
915.842	0.0164880
915.920	0.0164521
915.998	0.0164031
916.076	0.0163931
916.155	0.0165245
916.233	0.0165067
916.311	0.0163509
916.389	0.0164274
916.467	0.0163032
916.545	0.0163760
916.623	0.0163633
916.701	0.0163464
916.780	0.0163089
916.858	0.0163338
916.936	0.0164101
917.014	0.0163105
917.092	0.0164342
917.170	0.0163474
917.248	0.0163538
917.326	0.0165260
917.405	0.0164670
917.483	0.0165002
917.561	0.0165686
917.639	0.0163827
917.717	0.0165711
917.795	0.0165302
917.873	0.0166247
917.951	0.0165742
918.030	0.0165029
918.108	0.0163831
918.186	0.0164628
918.264	0.0165374
918.342	0.0165758
918.420	0.0164314
918.498	0.0164978
918.576	0.0163449
918.655	0.0163838
918.733	0.0164523
918.811	0.0162965
918.889	0.0161742
918.967	0.0161629
919.045	0.0162589
919.123	0.0163056
919.201	0.0163071
919.280	0.0161031
919.358	0.0160606
919.436	0.0161294
919.514	0.0161929
919.592	0.0161001
919.670	0.0160844
919.748	0.0161298
919.826	0.0162296
919.905	0.0161388
919.983	0.0161954
920.061	0.0161840
920.139	0.0163193
920.217	0.0162652
920.295	0.0162011
920.373	0.0161550
920.451	0.0162615
920.530	0.0163570
920.608	0.0163119
920.686	0.0163966
920.764	0.0162278
920.842	0.0163030
920.920	0.0162392
920.998	0.0162544
921.076	0.0164690
921.155	0.0163897
921.233	0.0164278
921.311	0.0163771
921.389	0.0164315
921.467	0.0164657
921.545	0.0163571
921.623	0.0163813
921.701	0.0163895
921.780	0.0162603
921.858	0.0163729
921.936	0.0164330
922.014	0.0163900
922.092	0.0164189
922.170	0.0163537
922.248	0.0163637
922.326	0.0164002
922.405	0.0163119
922.483	0.0164127
922.561	0.0164078
922.639	0.0162622
922.717	0.0165218
922.795	0.0164162
922.873	0.0163536
922.951	0.0163663
923.030	0.0163271
923.108	0.0162981
923.186	0.0162672
923.264	0.0161523
923.342	0.0161359
923.420	0.0161001
923.498	0.0161345
923.576	0.0162407
923.655	0.0161452
923.733	0.0161625
923.811	0.0161639
923.889	0.0162531
923.967	0.0162511
924.045	0.0162988
924.123	0.0165212
924.201	0.0163971
924.280	0.0163371
924.358	0.0163870
924.436	0.0165032
924.514	0.0164455
924.592	0.0164207
924.670	0.0164310
924.748	0.0164526
924.826	0.0164594
924.905	0.0165458
924.983	0.0165767
925.061	0.0163372
925.139	0.0165205
925.217	0.0165167
925.295	0.0163662
925.373	0.0165879
925.451	0.0165074
925.530	0.0164970
925.608	0.0164039
925.686	0.0165014
925.764	0.0164285
925.842	0.0165330
925.920	0.0165791
925.998	0.0164965
926.076	0.0163735
926.155	0.0164638
926.233	0.0165151
926.311	0.0164828
926.389	0.0165364
926.467	0.0163885
926.545	0.0163637
926.623	0.0163627
926.701	0.0164945
926.780	0.0162103
926.858	0.0163303
926.936	0.0163081
927.014	0.0161443
927.092	0.0161948
927.170	0.0161850
927.248	0.0162485
927.326	0.0160972
927.405	0.0160254
927.483	0.0160780
927.561	0.0161551
927.639	0.0162182
927.717	0.0162152
927.795	0.0161293
927.873	0.0161095
927.951	0.0160574
928.030	0.0161726
928.108	0.0160278
928.186	0.0160315
928.264	0.0161135
928.342	0.0162282
928.420	0.0160560
928.498	0.0161815
928.576	0.0162502
928.655	0.0162830
928.733	0.0162937
928.811	0.0162797
928.889	0.0162518
928.967	0.0164783
929.045	0.0162942
929.123	0.0163203
929.201	0.0164805
929.280	0.0163068
929.358	0.0163169
929.436	0.0164695
929.514	0.0164503
929.592	0.0162948
929.670	0.0163332
929.748	0.0163931
929.826	0.0163233
929.905	0.0162995
929.983	0.0162714
930.061	0.0163311
930.139	0.0163048
930.217	0.0163511
930.295	0.0163514
930.373	0.0162634
930.451	0.0161199
930.530	0.0161826
930.608	0.0163209
930.686	0.0161867
930.764	0.0160807
930.842	0.0161705
930.920	0.0162094
930.998	0.0161207
931.076	0.0160954
931.155	0.0161288
931.233	0.0161285
931.311	0.0160767
931.389	0.0160285
931.467	0.0160435
931.545	0.0161472
931.623	0.0161037
931.701	0.0160152
931.780	0.0160622
931.858	0.0161047
931.936	0.0160737
932.014	0.0162003
932.092	0.0162340
932.170	0.0163206
932.248	0.0163605
932.326	0.0161770
932.405	0.0162542
932.483	0.0163750
932.561	0.0163083
932.639	0.0163950
932.717	0.0164458
932.795	0.0161767
932.873	0.0162478
932.951	0.0163223
933.030	0.0163017
933.108	0.0163188
933.186	0.0163164
933.264	0.0163844
933.342	0.0162431
933.420	0.0162695
933.498	0.0162399
933.576	0.0162852
933.655	0.0162695
933.733	0.0162312
933.811	0.0161804
933.889	0.0162275
933.967	0.0162015
934.045	0.0163033
934.123	0.0161079
934.201	0.0161308
934.280	0.0162472
934.358	0.0161220
934.436	0.0161334
934.514	0.0162002
934.592	0.0161063
934.670	0.0162177
934.748	0.0162163
934.826	0.0161794
934.905	0.0162765
934.983	0.0161925
935.061	0.0161330
935.139	0.0162843
935.217	0.0161066
935.295	0.0162336
935.373	0.0161375
935.451	0.0160996
935.530	0.0162016
935.608	0.0162646
935.686	0.0163132
935.764	0.0161479
935.842	0.0162670
935.920	0.0162450
935.998	0.0162339
936.076	0.0162836
936.155	0.0162506
936.233	0.0162315
936.311	0.0163771
936.389	0.0163642
936.467	0.0161765
936.545	0.0161444
936.623	0.0162092
936.701	0.0161956
936.780	0.0163932
936.858	0.0164087
936.936	0.0162520
937.014	0.0163646
937.092	0.0163062
937.170	0.0164421
937.248	0.0163198
937.326	0.0164111
937.405	0.0164330
937.483	0.0162957
937.561	0.0163989
937.639	0.0163729
937.717	0.0164137
937.795	0.0165022
937.873	0.0164890
937.951	0.0164146
938.030	0.0163572
938.108	0.0164766
938.186	0.0164615
938.264	0.0164754
938.342	0.0165181
938.420	0.0164716
938.498	0.0165739
938.576	0.0164166
938.655	0.0164627
938.733	0.0164730
938.811	0.0164841
938.889	0.0163924
938.967	0.0162614
939.045	0.0162545
939.123	0.0163137
939.201	0.0164197
939.280	0.0162901
939.358	0.0164204
939.436	0.0162505
939.514	0.0163730
939.592	0.0164021
939.670	0.0163986
939.748	0.0162247
939.826	0.0162877
939.905	0.0163913
939.983	0.0163483
940.061	0.0163793
940.139	0.0163202
940.217	0.0163841
940.295	0.0163164
940.373	0.0163861
940.451	0.0163805
940.530	0.0163276
940.608	0.0163096
940.686	0.0162981
940.764	0.0163271
940.842	0.0163754
940.920	0.0162723
940.998	0.0162276
941.076	0.0163226
941.155	0.0161897
941.233	0.0162018
941.311	0.0161733
941.389	0.0162908
941.467	0.0162463
941.545	0.0162054
941.623	0.0161945
941.701	0.0163468
941.780	0.0162641
941.858	0.0163362
941.936	0.0162981
942.014	0.0162322
942.092	0.0162245
942.170	0.0162387
942.248	0.0163013
942.326	0.0162786
942.405	0.0162897
942.483	0.0163087
942.561	0.0163123
942.639	0.0164315
942.717	0.0163934
942.795	0.0163972
942.873	0.0164575
942.951	0.0163726
943.030	0.0164735
943.108	0.0163914
943.186	0.0164484
943.264	0.0164617
943.342	0.0164075
943.420	0.0163720
943.498	0.0163897
943.576	0.0163902
943.655	0.0164988
943.733	0.0164159
943.811	0.0164167
943.889	0.0163866
943.967	0.0164159
944.045	0.0164760
944.123	0.0162878
944.201	0.0162584
944.280	0.0164404
944.358	0.0163513
944.436	0.0162520
944.514	0.0163697
944.592	0.0163480
944.670	0.0164355
944.748	0.0161821
944.826	0.0162361
944.905	0.0163778
944.983	0.0163372
945.061	0.0162501
945.139	0.0162511
945.217	0.0163535
945.295	0.0163259
945.373	0.0164000
945.451	0.0164733
945.530	0.0163541
945.608	0.0162762
945.686	0.0163958
945.764	0.0164549
945.842	0.0163967
945.920	0.0162392
945.998	0.0166139
946.076	0.0164911
946.155	0.0164392
946.233	0.0165454
946.311	0.0165047
946.389	0.0165319
946.467	0.0164394
946.545	0.0164611
946.623	0.0164042
946.701	0.0164821
946.780	0.0165097
946.858	0.0164920
946.936	0.0163809
947.014	0.0164366
947.092	0.0162551
947.170	0.0162766
947.248	0.0162727
947.326	0.0162029
947.405	0.0162088
947.483	0.0162950
947.561	0.0162437
947.639	0.0161802
947.717	0.0161019
947.795	0.0161379
947.873	0.0161798
947.951	0.0162968
948.030	0.0161559
948.108	0.0161643
948.186	0.0162002
948.264	0.0161457
948.342	0.0162151
948.420	0.0161939
948.498	0.0161942
948.576	0.0161961
948.655	0.0162978
948.733	0.0160693
948.811	0.0160848
948.889	0.0162189
948.967	0.0161363
949.045	0.0161825
949.123	0.0162269
949.201	0.0163169
949.280	0.0162649
949.358	0.0161888
949.436	0.0159827
949.514	0.0161877
949.592	0.0163036
949.670	0.0161649
949.748	0.0161687
949.826	0.0162183
949.905	0.0162116
949.983	0.0162565
950.061	0.0162975
950.139	0.0163752
950.217	0.0164248
950.295	0.0164902
950.373	0.0163504
950.451	0.0163951
950.530	0.0163579
950.608	0.0163622
950.686	0.0163862
950.764	0.0164034
950.842	0.0162569
950.920	0.0163306
950.998	0.0163253
951.076	0.0162874
951.155	0.0162948
951.233	0.0163297
951.311	0.0162923
951.389	0.0162276
951.467	0.0162181
951.545	0.0163927
951.623	0.0164392
951.701	0.0162431
951.780	0.0162271
951.858	0.0161938
951.936	0.0161695
952.014	0.0163712
952.092	0.0162115
952.170	0.0161394
952.248	0.0161276
952.326	0.0161641
952.405	0.0161832
952.483	0.0161120
952.561	0.0162219
952.639	0.0162691
952.717	0.0161690
952.795	0.0162002
952.873	0.0161987
952.951	0.0162063
953.030	0.0161858
953.108	0.0163781
953.186	0.0162938
953.264	0.0161996
953.342	0.0161642
953.420	0.0163482
953.498	0.0161935
953.576	0.0163006
953.655	0.0163534
953.733	0.0162828
953.811	0.0164114
953.889	0.0163798
953.967	0.0163294
954.045	0.0164166
954.123	0.0162563
954.201	0.0163410
954.280	0.0164264
954.358	0.0164233
954.436	0.0163869
954.514	0.0162387
954.592	0.0163578
954.670	0.0162929
954.748	0.0163918
954.826	0.0164346
954.905	0.0163804
954.983	0.0163229
955.061	0.0162798
955.139	0.0161700
955.217	0.0161796
955.295	0.0164085
955.373	0.0163036
955.451	0.0162785
955.530	0.0161867
955.608	0.0162489
955.686	0.0162415
955.764	0.0162227
955.842	0.0161420
955.920	0.0161790
955.998	0.0161317
956.076	0.0161874
956.155	0.0161080
956.233	0.0161578
956.311	0.0160605
956.389	0.0161542
956.467	0.0160850
956.545	0.0160712
956.623	0.0160632
956.701	0.0159906
956.780	0.0162122
956.858	0.0162296
956.936	0.0160164
957.014	0.0161417
957.092	0.0162522
957.170	0.0161056
957.248	0.0161184
957.326	0.0162376
957.405	0.0163528
957.483	0.0161960
957.561	0.0163526
957.639	0.0162376
957.717	0.0162778
957.795	0.0162656
957.873	0.0162608
957.951	0.0163654
958.030	0.0164781
958.108	0.0165820
958.186	0.0164919
958.264	0.0164548
958.342	0.0164949
958.420	0.0164536
958.498	0.0165408
958.576	0.0164726
958.655	0.0166077
958.733	0.0166615
958.811	0.0164288
958.889	0.0165833
958.967	0.0164146
959.045	0.0163562
959.123	0.0163676
959.201	0.0164262
959.280	0.0163981
959.358	0.0163385
959.436	0.0163836
959.514	0.0162450
959.592	0.0162251
959.670	0.0162276
959.748	0.0163358
959.826	0.0162615
959.905	0.0162019
