05/17/2022	16:56:19	Ver.	4.1	UNKNOWN
Optical Delay	639.982744	Delta X		0.078125	Sweeps	1	Scan Rate	0/0
Coordinates	Axis 1	NaN	Axis 2	NaN	Axis 3	NaN	Axis 4	NaN	Axis 5	NaN	Axis 6	0.000000
TX Power	0.000000	RX Power	0.000000

639.983	0.0153081
640.061	0.0153823
640.139	0.0151118
640.217	0.0153337
640.295	0.0151391
640.373	0.0152901
640.451	0.0152526
640.530	0.0153603
640.608	0.0152318
640.686	0.0153668
640.764	0.0153874
640.842	0.0154154
640.920	0.0154566
640.998	0.0153120
641.076	0.0154016
641.155	0.0154636
641.233	0.0153716
641.311	0.0153217
641.389	0.0153970
641.467	0.0153124
641.545	0.0154459
641.623	0.0153027
641.701	0.0153623
641.780	0.0153488
641.858	0.0152415
641.936	0.0152686
642.014	0.0151239
642.092	0.0152084
642.170	0.0151403
642.248	0.0151514
642.326	0.0151683
642.405	0.0151255
642.483	0.0152309
642.561	0.0152840
642.639	0.0152715
642.717	0.0152409
642.795	0.0151389
642.873	0.0152509
642.951	0.0153410
643.030	0.0154230
643.108	0.0153314
643.186	0.0153034
643.264	0.0155146
643.342	0.0155238
643.420	0.0154202
643.498	0.0155109
643.576	0.0154589
643.655	0.0154959
643.733	0.0155251
643.811	0.0154379
643.889	0.0154738
643.967	0.0154266
644.045	0.0154401
644.123	0.0153194
644.201	0.0152820
644.280	0.0152138
644.358	0.0152546
644.436	0.0152520
644.514	0.0152531
644.592	0.0152436
644.670	0.0150667
644.748	0.0152393
644.826	0.0151842
644.905	0.0152081
644.983	0.0152110
645.061	0.0152921
645.139	0.0152721
645.217	0.0153402
645.295	0.0152953
645.373	0.0152153
645.451	0.0154073
645.530	0.0153575
645.608	0.0153635
645.686	0.0152952
645.764	0.0153876
645.842	0.0153441
645.920	0.0154342
645.998	0.0154956
646.076	0.0153528
646.155	0.0155106
646.233	0.0154978
646.311	0.0154555
646.389	0.0153464
646.467	0.0153240
646.545	0.0153324
646.623	0.0153580
646.701	0.0153563
646.780	0.0152456
646.858	0.0154023
646.936	0.0154385
647.014	0.0152819
647.092	0.0154435
647.170	0.0152559
647.248	0.0152602
647.326	0.0153683
647.405	0.0153649
647.483	0.0153644
647.561	0.0154445
647.639	0.0153358
647.717	0.0153084
647.795	0.0153088
647.873	0.0152984
647.951	0.0153664
648.030	0.0154473
648.108	0.0153430
648.186	0.0152749
648.264	0.0153642
648.342	0.0153778
648.420	0.0152511
648.498	0.0153262
648.576	0.0154995
648.655	0.0153708
648.733	0.0152288
648.811	0.0153185
648.889	0.0153268
648.967	0.0153106
649.045	0.0153033
649.123	0.0154250
649.201	0.0154948
649.280	0.0153325
649.358	0.0153944
649.436	0.0153076
649.514	0.0152079
649.592	0.0152453
649.670	0.0153386
649.748	0.0153799
649.826	0.0153323
649.905	0.0152482
649.983	0.0153053
650.061	0.0153029
650.139	0.0152214
650.217	0.0153372
650.295	0.0153199
650.373	0.0153233
650.451	0.0153022
650.530	0.0153394
650.608	0.0155297
650.686	0.0155355
650.764	0.0153938
650.842	0.0154227
650.920	0.0154195
650.998	0.0153687
651.076	0.0155054
651.155	0.0154462
651.233	0.0153500
651.311	0.0154416
651.389	0.0154100
651.467	0.0153931
651.545	0.0153870
651.623	0.0152766
651.701	0.0153410
651.780	0.0153992
651.858	0.0151524
651.936	0.0153714
652.014	0.0153212
652.092	0.0153783
652.170	0.0152860
652.248	0.0154313
652.326	0.0152009
652.405	0.0153088
652.483	0.0152919
652.561	0.0152834
652.639	0.0152481
652.717	0.0153133
652.795	0.0152029
652.873	0.0153967
652.951	0.0154166
653.030	0.0155075
653.108	0.0154378
653.186	0.0154387
653.264	0.0154003
653.342	0.0155028
653.420	0.0155987
653.498	0.0154956
653.576	0.0155327
653.655	0.0155624
653.733	0.0155279
653.811	0.0155512
653.889	0.0154746
653.967	0.0153355
654.045	0.0153654
654.123	0.0154625
654.201	0.0154596
654.280	0.0153490
654.358	0.0153603
654.436	0.0153286
654.514	0.0152571
654.592	0.0152692
654.670	0.0152718
654.748	0.0154100
654.826	0.0152887
654.905	0.0152480
654.983	0.0152386
655.061	0.0154023
655.139	0.0153558
655.217	0.0153433
655.295	0.0154427
655.373	0.0154424
655.451	0.0154195
655.530	0.0153020
655.608	0.0153237
655.686	0.0153767
655.764	0.0153910
655.842	0.0152937
655.920	0.0154353
655.998	0.0155197
656.076	0.0153853
656.155	0.0153566
656.233	0.0153722
656.311	0.0152026
656.389	0.0152209
656.467	0.0152505
656.545	0.0151012
656.623	0.0150652
656.701	0.0150928
656.780	0.0150713
656.858	0.0150152
656.936	0.0150859
657.014	0.0150181
657.092	0.0148872
657.170	0.0148660
657.248	0.0149687
657.326	0.0150121
657.405	0.0150471
657.483	0.0152012
657.561	0.0150320
657.639	0.0152245
657.717	0.0151814
657.795	0.0151703
657.873	0.0152390
657.951	0.0153513
658.030	0.0152605
658.108	0.0151824
658.186	0.0151938
658.264	0.0153024
658.342	0.0151891
658.420	0.0152506
658.498	0.0153819
658.576	0.0153187
658.655	0.0152036
658.733	0.0151615
658.811	0.0150454
658.889	0.0150485
658.967	0.0150786
659.045	0.0148866
659.123	0.0150814
659.201	0.0149149
659.280	0.0148973
659.358	0.0148495
659.436	0.0148135
659.514	0.0148899
659.592	0.0149403
659.670	0.0150240
659.748	0.0150888
659.826	0.0151158
659.905	0.0152100
659.983	0.0152726
660.061	0.0153160
660.139	0.0154136
660.217	0.0154501
660.295	0.0154334
660.373	0.0155653
660.451	0.0155282
660.530	0.0155042
660.608	0.0155352
660.686	0.0156112
660.764	0.0154050
660.842	0.0156075
660.920	0.0155313
660.998	0.0154817
661.076	0.0155233
661.155	0.0153444
661.233	0.0154175
661.311	0.0154107
661.389	0.0154553
661.467	0.0154552
661.545	0.0155041
661.623	0.0154131
661.701	0.0153974
661.780	0.0154184
661.858	0.0154926
661.936	0.0153967
662.014	0.0155405
662.092	0.0156030
662.170	0.0155317
662.248	0.0155027
662.326	0.0155803
662.405	0.0155422
662.483	0.0155952
662.561	0.0156506
662.639	0.0156391
662.717	0.0154815
662.795	0.0156246
662.873	0.0154571
662.951	0.0154890
663.030	0.0153462
663.108	0.0153217
663.186	0.0154420
663.264	0.0155354
663.342	0.0153493
663.420	0.0154300
663.498	0.0155084
663.576	0.0153616
663.655	0.0152224
663.733	0.0152026
663.811	0.0152744
663.889	0.0154280
663.967	0.0152267
664.045	0.0152774
664.123	0.0152554
664.201	0.0154708
664.280	0.0149819
664.358	0.0151039
664.436	0.0152506
664.514	0.0151224
664.592	0.0151528
664.670	0.0153070
664.748	0.0152160
664.826	0.0150255
664.905	0.0151057
664.983	0.0151517
665.061	0.0150792
665.139	0.0151301
665.217	0.0150893
665.295	0.0151365
665.373	0.0150626
665.451	0.0151180
665.530	0.0152497
665.608	0.0151234
665.686	0.0150042
665.764	0.0150698
665.842	0.0151895
665.920	0.0150860
665.998	0.0150660
666.076	0.0150047
666.155	0.0150082
666.233	0.0148925
666.311	0.0150391
666.389	0.0150699
666.467	0.0150035
666.545	0.0149893
666.623	0.0149483
666.701	0.0151321
666.780	0.0149742
666.858	0.0148532
666.936	0.0149109
667.014	0.0149590
667.092	0.0150072
667.170	0.0151439
667.248	0.0151070
667.326	0.0152290
667.405	0.0151500
667.483	0.0152270
667.561	0.0151263
667.639	0.0152796
667.717	0.0153848
667.795	0.0153635
667.873	0.0154752
667.951	0.0154148
668.030	0.0155365
668.108	0.0155809
668.186	0.0155946
668.264	0.0154713
668.342	0.0155290
668.420	0.0155480
668.498	0.0153510
668.576	0.0154720
668.655	0.0154797
668.733	0.0155166
668.811	0.0153067
668.889	0.0153415
668.967	0.0154746
669.045	0.0154207
669.123	0.0154662
669.201	0.0153871
669.280	0.0154820
669.358	0.0154743
669.436	0.0153578
669.514	0.0154657
669.592	0.0155627
669.670	0.0155715
669.748	0.0153846
669.826	0.0153958
669.905	0.0155096
669.983	0.0155374
670.061	0.0154724
670.139	0.0153342
670.217	0.0154742
670.295	0.0155590
670.373	0.0155300
670.451	0.0155180
670.530	0.0156687
670.608	0.0155854
670.686	0.0155674
670.764	0.0156835
670.842	0.0157836
670.920	0.0156169
670.998	0.0157434
671.076	0.0156823
671.155	0.0155863
671.233	0.0154283
671.311	0.0155970
671.389	0.0157926
671.467	0.0156201
671.545	0.0154468
671.623	0.0154873
671.701	0.0153233
671.780	0.0151945
671.858	0.0152004
671.936	0.0151855
672.014	0.0151450
672.092	0.0152068
672.170	0.0150738
672.248	0.0151617
672.326	0.0150769
672.405	0.0150520
672.483	0.0151125
672.561	0.0153036
672.639	0.0150862
672.717	0.0151536
672.795	0.0152896
672.873	0.0153127
672.951	0.0153419
673.030	0.0153213
673.108	0.0153566
673.186	0.0153428
673.264	0.0154467
673.342	0.0153391
673.420	0.0154913
673.498	0.0152879
673.576	0.0153146
673.655	0.0153307
673.733	0.0152644
673.811	0.0152619
673.889	0.0151332
673.967	0.0152193
674.045	0.0153449
674.123	0.0152925
674.201	0.0151968
674.280	0.0151713
674.358	0.0151408
674.436	0.0150881
674.514	0.0150880
674.592	0.0150207
674.670	0.0149951
674.748	0.0148743
674.826	0.0149088
674.905	0.0147440
674.983	0.0147882
675.061	0.0147226
675.139	0.0148500
675.217	0.0146940
675.295	0.0149658
675.373	0.0149419
675.451	0.0148675
675.530	0.0150122
675.608	0.0149502
675.686	0.0149880
675.764	0.0151081
675.842	0.0151276
675.920	0.0151643
675.998	0.0152048
676.076	0.0153158
676.155	0.0153077
676.233	0.0154134
676.311	0.0154510
676.389	0.0154144
676.467	0.0153362
676.545	0.0154919
676.623	0.0155285
676.701	0.0157120
676.780	0.0155307
676.858	0.0156385
676.936	0.0156802
677.014	0.0156828
677.092	0.0156712
677.170	0.0156116
677.248	0.0155707
677.326	0.0156017
677.405	0.0155041
677.483	0.0155951
677.561	0.0154964
677.639	0.0154981
677.717	0.0153725
677.795	0.0152654
677.873	0.0153464
677.951	0.0154077
678.030	0.0154698
678.108	0.0153510
678.186	0.0155270
678.264	0.0155275
678.342	0.0155850
678.420	0.0156893
678.498	0.0156311
678.576	0.0155634
678.655	0.0155284
678.733	0.0155540
678.811	0.0155711
678.889	0.0153399
678.967	0.0152171
679.045	0.0151378
679.123	0.0150412
679.201	0.0149165
679.280	0.0148524
679.358	0.0145132
679.436	0.0145438
679.514	0.0146200
679.592	0.0143768
679.670	0.0142651
679.748	0.0143497
679.826	0.0143911
679.905	0.0143840
679.983	0.0143082
680.061	0.0145370
680.139	0.0145158
680.217	0.0147131
680.295	0.0147430
680.373	0.0148692
680.451	0.0150452
680.530	0.0153363
680.608	0.0154748
680.686	0.0154107
680.764	0.0156789
680.842	0.0158741
680.920	0.0159634
680.998	0.0160455
681.076	0.0162706
681.155	0.0163023
681.233	0.0163450
681.311	0.0163997
681.389	0.0165086
681.467	0.0163866
681.545	0.0165376
681.623	0.0163441
681.701	0.0163261
681.780	0.0162144
681.858	0.0160756
681.936	0.0160571
682.014	0.0157383
682.092	0.0156950
682.170	0.0155556
682.248	0.0154902
682.326	0.0152600
682.405	0.0150175
682.483	0.0149945
682.561	0.0148550
682.639	0.0147049
682.717	0.0146609
682.795	0.0144962
682.873	0.0143383
682.951	0.0143943
683.030	0.0145013
683.108	0.0143025
683.186	0.0143557
683.264	0.0141988
683.342	0.0141138
683.420	0.0140237
683.498	0.0141004
683.576	0.0141809
683.655	0.0141431
683.733	0.0142418
683.811	0.0143851
683.889	0.0143512
683.967	0.0144444
684.045	0.0145537
684.123	0.0147362
684.201	0.0149288
684.280	0.0151330
684.358	0.0152686
684.436	0.0155641
684.514	0.0156282
684.592	0.0156673
684.670	0.0158363
684.748	0.0159027
684.826	0.0160925
684.905	0.0162033
684.983	0.0161835
685.061	0.0162104
685.139	0.0161410
685.217	0.0160379
685.295	0.0161285
685.373	0.0160943
685.451	0.0159235
685.530	0.0158199
685.608	0.0159179
685.686	0.0157864
685.764	0.0155750
685.842	0.0157286
685.920	0.0156687
685.998	0.0154063
686.076	0.0152030
686.155	0.0153757
686.233	0.0152976
686.311	0.0151369
686.389	0.0148988
686.467	0.0149364
686.545	0.0148092
686.623	0.0149146
686.701	0.0147707
686.780	0.0146378
686.858	0.0145867
686.936	0.0146336
687.014	0.0144472
687.092	0.0146850
687.170	0.0146436
687.248	0.0147701
687.326	0.0148664
687.405	0.0150303
687.483	0.0151347
687.561	0.0152065
687.639	0.0153895
687.717	0.0153132
687.795	0.0155801
687.873	0.0156013
687.951	0.0156728
688.030	0.0158490
688.108	0.0158418
688.186	0.0157808
688.264	0.0158584
688.342	0.0158202
688.420	0.0158290
688.498	0.0158535
688.576	0.0158076
688.655	0.0157424
688.733	0.0156658
688.811	0.0156680
688.889	0.0156831
688.967	0.0155377
689.045	0.0155006
689.123	0.0154870
689.201	0.0155509
689.280	0.0154684
689.358	0.0153099
689.436	0.0153931
689.514	0.0153429
689.592	0.0154176
689.670	0.0153824
689.748	0.0152017
689.826	0.0150830
689.905	0.0151634
689.983	0.0148916
690.061	0.0147374
690.139	0.0148602
690.217	0.0147146
690.295	0.0147013
690.373	0.0144973
690.451	0.0144381
690.530	0.0143181
690.608	0.0142996
690.686	0.0143571
690.764	0.0142017
690.842	0.0142374
690.920	0.0142838
690.998	0.0142612
691.076	0.0143561
691.155	0.0143279
691.233	0.0147102
691.311	0.0148550
691.389	0.0149864
691.467	0.0150204
691.545	0.0154707
691.623	0.0155099
691.701	0.0157058
691.780	0.0158846
691.858	0.0161136
691.936	0.0162901
692.014	0.0165032
692.092	0.0165604
692.170	0.0166772
692.248	0.0167282
692.326	0.0170396
692.405	0.0168528
692.483	0.0169685
692.561	0.0167616
692.639	0.0168468
692.717	0.0166915
692.795	0.0165775
692.873	0.0164284
692.951	0.0161186
693.030	0.0160874
693.108	0.0157549
693.186	0.0156628
693.264	0.0155092
693.342	0.0154179
693.420	0.0151406
693.498	0.0149201
693.576	0.0147194
693.655	0.0147196
693.733	0.0145190
693.811	0.0143691
693.889	0.0143990
693.967	0.0143512
694.045	0.0144019
694.123	0.0142464
694.201	0.0142928
694.280	0.0144965
694.358	0.0145448
694.436	0.0146223
694.514	0.0147782
694.592	0.0150293
694.670	0.0151473
694.748	0.0152473
694.826	0.0153805
694.905	0.0155210
694.983	0.0156257
695.061	0.0157431
695.139	0.0158447
695.217	0.0158331
695.295	0.0157507
695.373	0.0158288
695.451	0.0157924
695.530	0.0156565
695.608	0.0156506
695.686	0.0155938
695.764	0.0153959
695.842	0.0153719
695.920	0.0152105
695.998	0.0150114
696.076	0.0149281
696.155	0.0148415
696.233	0.0147085
696.311	0.0146647
696.389	0.0148054
696.467	0.0147856
696.545	0.0148666
696.623	0.0148094
696.701	0.0148862
696.780	0.0150220
696.858	0.0151328
696.936	0.0151704
697.014	0.0153625
697.092	0.0155704
697.170	0.0155499
697.248	0.0155391
697.326	0.0157358
697.405	0.0157412
697.483	0.0156891
697.561	0.0156248
697.639	0.0157889
697.717	0.0155682
697.795	0.0157433
697.873	0.0157159
697.951	0.0153667
698.030	0.0154855
698.108	0.0154781
698.186	0.0153075
698.264	0.0152112
698.342	0.0153462
698.420	0.0152898
698.498	0.0150793
698.576	0.0151912
698.655	0.0152084
698.733	0.0149621
698.811	0.0150282
698.889	0.0150477
698.967	0.0151026
699.045	0.0150243
699.123	0.0150900
699.201	0.0150629
699.280	0.0150346
699.358	0.0149371
699.436	0.0150555
699.514	0.0150932
699.592	0.0150301
699.670	0.0150524
699.748	0.0152785
699.826	0.0152735
699.905	0.0152818
699.983	0.0149631
700.061	0.0152871
700.139	0.0152360
700.217	0.0151604
700.295	0.0151944
700.373	0.0152964
700.451	0.0152230
700.530	0.0152350
700.608	0.0151870
700.686	0.0152586
700.764	0.0152055
700.842	0.0152798
700.920	0.0154823
700.998	0.0154375
701.076	0.0154046
701.155	0.0153888
701.233	0.0155396
701.311	0.0156849
701.389	0.0155784
701.467	0.0154946
701.545	0.0156448
701.623	0.0155956
701.701	0.0156261
701.780	0.0156275
701.858	0.0156281
701.936	0.0155515
702.014	0.0155437
702.092	0.0155769
702.170	0.0154366
702.248	0.0153336
702.326	0.0152804
702.405	0.0152312
702.483	0.0152077
702.561	0.0150897
702.639	0.0151115
702.717	0.0149921
702.795	0.0149741
702.873	0.0149834
702.951	0.0149609
703.030	0.0149953
703.108	0.0150825
703.186	0.0150842
703.264	0.0148682
703.342	0.0150061
703.420	0.0151122
703.498	0.0150191
703.576	0.0150240
703.655	0.0151240
703.733	0.0152709
703.811	0.0151809
703.889	0.0152460
703.967	0.0152882
704.045	0.0151733
704.123	0.0152623
704.201	0.0152888
704.280	0.0152038
704.358	0.0152696
704.436	0.0153654
704.514	0.0153879
704.592	0.0151157
704.670	0.0150910
704.748	0.0151649
704.826	0.0151810
704.905	0.0150400
704.983	0.0148935
705.061	0.0149899
705.139	0.0148564
705.217	0.0148222
705.295	0.0148845
705.373	0.0148249
705.451	0.0147890
705.530	0.0148341
705.608	0.0149255
705.686	0.0150299
705.764	0.0149925
705.842	0.0149691
705.920	0.0152088
705.998	0.0153780
706.076	0.0152680
706.155	0.0153080
706.233	0.0155058
706.311	0.0155627
706.389	0.0155544
706.467	0.0156172
706.545	0.0158316
706.623	0.0157466
706.701	0.0157317
706.780	0.0157789
706.858	0.0157906
706.936	0.0156863
707.014	0.0157468
707.092	0.0158318
707.170	0.0158579
707.248	0.0158198
707.326	0.0160161
707.405	0.0160596
707.483	0.0159879
707.561	0.0160958
707.639	0.0162409
707.717	0.0162341
707.795	0.0162815
707.873	0.0162900
707.951	0.0162325
708.030	0.0160775
708.108	0.0161612
708.186	0.0160730
708.264	0.0159297
708.342	0.0156865
708.420	0.0156172
708.498	0.0155556
708.576	0.0153165
708.655	0.0153580
708.733	0.0151358
708.811	0.0149679
708.889	0.0149032
708.967	0.0147775
709.045	0.0148346
709.123	0.0147090
709.201	0.0145486
709.280	0.0145159
709.358	0.0146172
709.436	0.0144787
709.514	0.0144334
709.592	0.0141927
709.670	0.0143387
709.748	0.0145483
709.826	0.0145576
709.905	0.0143198
709.983	0.0143369
710.061	0.0145382
710.139	0.0145594
710.217	0.0146070
710.295	0.0146410
710.373	0.0148076
710.451	0.0147581
710.530	0.0148573
710.608	0.0149104
710.686	0.0150435
710.764	0.0151756
710.842	0.0151981
710.920	0.0152132
710.998	0.0153506
711.076	0.0152161
711.155	0.0152864
711.233	0.0153877
711.311	0.0154323
711.389	0.0154320
711.467	0.0154867
711.545	0.0153485
711.623	0.0153304
711.701	0.0153630
711.780	0.0153788
711.858	0.0154382
711.936	0.0155499
712.014	0.0154874
712.092	0.0155280
712.170	0.0156074
712.248	0.0158109
712.326	0.0159209
712.405	0.0159290
712.483	0.0158937
712.561	0.0159601
712.639	0.0159940
712.717	0.0160881
712.795	0.0160827
712.873	0.0160159
712.951	0.0160976
713.030	0.0159470
713.108	0.0160751
713.186	0.0159348
713.264	0.0158427
713.342	0.0158242
713.420	0.0157545
713.498	0.0157219
713.576	0.0157994
713.655	0.0156017
713.733	0.0155730
713.811	0.0154493
713.889	0.0154977
713.967	0.0154847
714.045	0.0153812
714.123	0.0152454
714.201	0.0153369
714.280	0.0152052
714.358	0.0152682
714.436	0.0151464
714.514	0.0152832
714.592	0.0152139
714.670	0.0151110
714.748	0.0151064
714.826	0.0150993
714.905	0.0151133
714.983	0.0150469
715.061	0.0149950
715.139	0.0149516
715.217	0.0150968
715.295	0.0149010
715.373	0.0149017
715.451	0.0149345
715.530	0.0149155
715.608	0.0147758
715.686	0.0149058
715.764	0.0148284
715.842	0.0148750
715.920	0.0149149
715.998	0.0148473
716.076	0.0147627
716.155	0.0147633
716.233	0.0148880
716.311	0.0150208
716.389	0.0149685
716.467	0.0149281
716.545	0.0149187
716.623	0.0149756
716.701	0.0150059
716.780	0.0148746
716.858	0.0150216
716.936	0.0149772
717.014	0.0149636
717.092	0.0150283
717.170	0.0150381
717.248	0.0150068
717.326	0.0150473
717.405	0.0152601
717.483	0.0152156
717.561	0.0151536
717.639	0.0151858
717.717	0.0151846
717.795	0.0153053
717.873	0.0150992
717.951	0.0152936
718.030	0.0152357
718.108	0.0151790
718.186	0.0152419
718.264	0.0152349
718.342	0.0154260
718.420	0.0153241
718.498	0.0154354
718.576	0.0154251
718.655	0.0155351
718.733	0.0156816
718.811	0.0154541
718.889	0.0156281
718.967	0.0155332
719.045	0.0157483
719.123	0.0158136
719.201	0.0158681
719.280	0.0157047
719.358	0.0158399
719.436	0.0158028
719.514	0.0158553
719.592	0.0158830
719.670	0.0159818
719.748	0.0158538
719.826	0.0159806
719.905	0.0159050
719.983	0.0158569
720.061	0.0157884
720.139	0.0157372
720.217	0.0157211
720.295	0.0155398
720.373	0.0155744
720.451	0.0155704
720.530	0.0155570
720.608	0.0153955
720.686	0.0153370
720.764	0.0152589
720.842	0.0151109
720.920	0.0151488
720.998	0.0149712
721.076	0.0150043
721.155	0.0150526
721.233	0.0151134
721.311	0.0150258
721.389	0.0149539
721.467	0.0150182
721.545	0.0149062
721.623	0.0150188
721.701	0.0149926
721.780	0.0149770
721.858	0.0149701
721.936	0.0149401
722.014	0.0148743
722.092	0.0149004
722.170	0.0147124
722.248	0.0148267
722.326	0.0149081
722.405	0.0149464
722.483	0.0148566
722.561	0.0148797
722.639	0.0150220
722.717	0.0149498
722.795	0.0151141
722.873	0.0152283
722.951	0.0152976
723.030	0.0152291
723.108	0.0152073
723.186	0.0153255
723.264	0.0154072
723.342	0.0153480
723.420	0.0153601
723.498	0.0153442
723.576	0.0154176
723.655	0.0153822
723.733	0.0153915
723.811	0.0154878
723.889	0.0154107
723.967	0.0152638
724.045	0.0152628
724.123	0.0153671
724.201	0.0152885
724.280	0.0151154
724.358	0.0152480
724.436	0.0153207
724.514	0.0152389
724.592	0.0151803
724.670	0.0153011
724.748	0.0153065
724.826	0.0152177
724.905	0.0151936
724.983	0.0153725
725.061	0.0152628
725.139	0.0152765
725.217	0.0153554
725.295	0.0154059
725.373	0.0153866
725.451	0.0153799
725.530	0.0155096
725.608	0.0153895
725.686	0.0155086
725.764	0.0156355
725.842	0.0158701
725.920	0.0158325
725.998	0.0159697
726.076	0.0160574
726.155	0.0159922
726.233	0.0161363
726.311	0.0161348
726.389	0.0160103
726.467	0.0161086
726.545	0.0160438
726.623	0.0161155
726.701	0.0159466
726.780	0.0158233
726.858	0.0156293
726.936	0.0155141
727.014	0.0154156
727.092	0.0153395
727.170	0.0152338
727.248	0.0151015
727.326	0.0149699
727.405	0.0149722
727.483	0.0149567
727.561	0.0150376
727.639	0.0149847
727.717	0.0149265
727.795	0.0150011
727.873	0.0148300
727.951	0.0150231
728.030	0.0150909
728.108	0.0150458
728.186	0.0150249
728.264	0.0151665
728.342	0.0151563
728.420	0.0151531
728.498	0.0152132
728.576	0.0150945
728.655	0.0150998
728.733	0.0151447
728.811	0.0150504
728.889	0.0150900
728.967	0.0151594
729.045	0.0152135
729.123	0.0153391
729.201	0.0150307
729.280	0.0153226
729.358	0.0153161
729.436	0.0152142
729.514	0.0153003
729.592	0.0153334
729.670	0.0155235
729.748	0.0154131
729.826	0.0153064
729.905	0.0154888
729.983	0.0155467
730.061	0.0154621
730.139	0.0155308
730.217	0.0156545
730.295	0.0157624
730.373	0.0157862
730.451	0.0158028
730.530	0.0158077
730.608	0.0158482
730.686	0.0159795
730.764	0.0160114
730.842	0.0160858
730.920	0.0160893
730.998	0.0160164
731.076	0.0160239
731.155	0.0158780
731.233	0.0158812
731.311	0.0159669
731.389	0.0159011
731.467	0.0157413
731.545	0.0156422
731.623	0.0154160
731.701	0.0153237
731.780	0.0152084
731.858	0.0151761
731.936	0.0149405
732.014	0.0148050
732.092	0.0149146
732.170	0.0148087
732.248	0.0147308
732.326	0.0147859
732.405	0.0147415
732.483	0.0145724
732.561	0.0149498
732.639	0.0149789
732.717	0.0150149
732.795	0.0151930
732.873	0.0151008
732.951	0.0151196
733.030	0.0152279
733.108	0.0153645
733.186	0.0152859
733.264	0.0153342
733.342	0.0151182
733.420	0.0150696
733.498	0.0150907
733.576	0.0150936
733.655	0.0151635
733.733	0.0150864
733.811	0.0150311
733.889	0.0150559
733.967	0.0149936
734.045	0.0150021
734.123	0.0150578
734.201	0.0151176
734.280	0.0151691
734.358	0.0152220
734.436	0.0152681
734.514	0.0153555
734.592	0.0154045
734.670	0.0153348
734.748	0.0154160
734.826	0.0153160
734.905	0.0153805
734.983	0.0154794
735.061	0.0152941
735.139	0.0154017
735.217	0.0153977
735.295	0.0152676
735.373	0.0151733
735.451	0.0150816
735.530	0.0152900
735.608	0.0153119
735.686	0.0150921
735.764	0.0151816
735.842	0.0150711
735.920	0.0152240
735.998	0.0153295
736.076	0.0151819
736.155	0.0150348
736.233	0.0151231
736.311	0.0151524
736.389	0.0151656
736.467	0.0150812
736.545	0.0151176
736.623	0.0151382
736.701	0.0151561
736.780	0.0152578
736.858	0.0151998
736.936	0.0153477
737.014	0.0154165
737.092	0.0154139
737.170	0.0153672
737.248	0.0155354
737.326	0.0156007
737.405	0.0155243
737.483	0.0155663
737.561	0.0153481
737.639	0.0154981
737.717	0.0157363
737.795	0.0155713
737.873	0.0155194
737.951	0.0154232
738.030	0.0155756
738.108	0.0156734
738.186	0.0155661
738.264	0.0156676
738.342	0.0156299
738.420	0.0156426
738.498	0.0155225
738.576	0.0154910
738.655	0.0157536
738.733	0.0154935
738.811	0.0154025
738.889	0.0153752
738.967	0.0154911
739.045	0.0152150
739.123	0.0151762
739.201	0.0152030
739.280	0.0150878
739.358	0.0150227
739.436	0.0150446
739.514	0.0149517
739.592	0.0148939
739.670	0.0148750
739.748	0.0148804
739.826	0.0147534
739.905	0.0148093
739.983	0.0146658
740.061	0.0147903
740.139	0.0147671
740.217	0.0147554
740.295	0.0146961
740.373	0.0146921
740.451	0.0146884
740.530	0.0147943
740.608	0.0147410
740.686	0.0146793
740.764	0.0147922
740.842	0.0147471
740.920	0.0147663
740.998	0.0148704
741.076	0.0149377
741.155	0.0150674
741.233	0.0149651
741.311	0.0150779
741.389	0.0151820
741.467	0.0152435
741.545	0.0153182
741.623	0.0152979
741.701	0.0153965
741.780	0.0154496
741.858	0.0153736
741.936	0.0153416
742.014	0.0154950
742.092	0.0154557
742.170	0.0155990
742.248	0.0154224
742.326	0.0155537
742.405	0.0157623
742.483	0.0154822
742.561	0.0154842
742.639	0.0155590
742.717	0.0154986
742.795	0.0155499
742.873	0.0155174
742.951	0.0154227
743.030	0.0154250
743.108	0.0154823
743.186	0.0156262
743.264	0.0155443
743.342	0.0155682
743.420	0.0156110
743.498	0.0155907
743.576	0.0156868
743.655	0.0155653
743.733	0.0155499
743.811	0.0156076
743.889	0.0155276
743.967	0.0154138
744.045	0.0154141
744.123	0.0152771
744.201	0.0152573
744.280	0.0150592
744.358	0.0153338
744.436	0.0151376
744.514	0.0150637
744.592	0.0152267
744.670	0.0150038
744.748	0.0152200
744.826	0.0152705
744.905	0.0152581
744.983	0.0153393
745.061	0.0153606
745.139	0.0153647
745.217	0.0155841
745.295	0.0156445
745.373	0.0156741
745.451	0.0155683
745.530	0.0157340
745.608	0.0157467
745.686	0.0156152
745.764	0.0155714
745.842	0.0157197
745.920	0.0155788
745.998	0.0155796
746.076	0.0155733
746.155	0.0156224
746.233	0.0154045
746.311	0.0152811
746.389	0.0152544
746.467	0.0153934
746.545	0.0152383
746.623	0.0150826
746.701	0.0149381
746.780	0.0149339
746.858	0.0150085
746.936	0.0149150
747.014	0.0147475
747.092	0.0148363
747.170	0.0147025
747.248	0.0146555
747.326	0.0146403
747.405	0.0146529
747.483	0.0147303
747.561	0.0146847
747.639	0.0149216
747.717	0.0147598
747.795	0.0147871
747.873	0.0149728
747.951	0.0150903
748.030	0.0149649
748.108	0.0150642
748.186	0.0149771
748.264	0.0151362
748.342	0.0148228
748.420	0.0148701
748.498	0.0149962
748.576	0.0149915
748.655	0.0148508
748.733	0.0147152
748.811	0.0147688
748.889	0.0148244
748.967	0.0148711
749.045	0.0148681
749.123	0.0150046
749.201	0.0150571
749.280	0.0151993
749.358	0.0152055
749.436	0.0150554
749.514	0.0152869
749.592	0.0154871
749.670	0.0155299
749.748	0.0154479
749.826	0.0155698
749.905	0.0157714
749.983	0.0158704
750.061	0.0160828
750.139	0.0158128
750.217	0.0160078
750.295	0.0159857
750.373	0.0160188
750.451	0.0160728
750.530	0.0161485
750.608	0.0161112
750.686	0.0160519
750.764	0.0161870
750.842	0.0162251
750.920	0.0159444
750.998	0.0160217
751.076	0.0160241
751.155	0.0158701
751.233	0.0159376
751.311	0.0159067
751.389	0.0157198
751.467	0.0157225
751.545	0.0154629
751.623	0.0153865
751.701	0.0154201
751.780	0.0154976
751.858	0.0152006
751.936	0.0150478
752.014	0.0149248
752.092	0.0149683
752.170	0.0148905
752.248	0.0148997
752.326	0.0149837
752.405	0.0149390
752.483	0.0149183
752.561	0.0149698
752.639	0.0148254
752.717	0.0150570
752.795	0.0151149
752.873	0.0151160
752.951	0.0151268
753.030	0.0153420
753.108	0.0153892
753.186	0.0153432
753.264	0.0155031
753.342	0.0154754
753.420	0.0154913
753.498	0.0155574
753.576	0.0154265
753.655	0.0155878
753.733	0.0154279
753.811	0.0153379
753.889	0.0153497
753.967	0.0153599
754.045	0.0152689
754.123	0.0151560
754.201	0.0151679
754.280	0.0151147
754.358	0.0150847
754.436	0.0151035
754.514	0.0150150
754.592	0.0151629
754.670	0.0151173
754.748	0.0149439
754.826	0.0150067
754.905	0.0149708
754.983	0.0148863
755.061	0.0149921
755.139	0.0150877
755.217	0.0151086
755.295	0.0150783
755.373	0.0151583
755.451	0.0151176
755.530	0.0150172
755.608	0.0150060
755.686	0.0150248
755.764	0.0151829
755.842	0.0150650
755.920	0.0150401
755.998	0.0150413
756.076	0.0150060
756.155	0.0150364
756.233	0.0150523
756.311	0.0150381
756.389	0.0150780
756.467	0.0150028
756.545	0.0150488
756.623	0.0151124
756.701	0.0149714
756.780	0.0149895
756.858	0.0150551
756.936	0.0150712
757.014	0.0150977
757.092	0.0152370
757.170	0.0152179
757.248	0.0151955
757.326	0.0153809
757.405	0.0153087
757.483	0.0153886
757.561	0.0155725
757.639	0.0155390
757.717	0.0155524
757.795	0.0157151
757.873	0.0155695
757.951	0.0157948
758.030	0.0158990
758.108	0.0158545
758.186	0.0158362
758.264	0.0160514
758.342	0.0158835
758.420	0.0160208
758.498	0.0160456
758.576	0.0161037
758.655	0.0159356
758.733	0.0159645
758.811	0.0158835
758.889	0.0157758
758.967	0.0159132
759.045	0.0157134
759.123	0.0156970
759.201	0.0154829
759.280	0.0154360
759.358	0.0154297
759.436	0.0152660
759.514	0.0153081
759.592	0.0152348
759.670	0.0151993
759.748	0.0151249
759.826	0.0150082
759.905	0.0150355
759.983	0.0149017
760.061	0.0151083
760.139	0.0149272
760.217	0.0149526
760.295	0.0148900
760.373	0.0151544
760.451	0.0151280
760.530	0.0149393
760.608	0.0151176
760.686	0.0150677
760.764	0.0151373
760.842	0.0151712
760.920	0.0152167
760.998	0.0152308
761.076	0.0151266
761.155	0.0152949
761.233	0.0152151
761.311	0.0152642
761.389	0.0152022
761.467	0.0151289
761.545	0.0150891
761.623	0.0151176
761.701	0.0151228
761.780	0.0152711
761.858	0.0152079
761.936	0.0152354
762.014	0.0150292
762.092	0.0150225
762.170	0.0150858
762.248	0.0152692
762.326	0.0152190
762.405	0.0151109
762.483	0.0151079
762.561	0.0152119
762.639	0.0151871
762.717	0.0150338
762.795	0.0150945
762.873	0.0151128
762.951	0.0152209
763.030	0.0151544
763.108	0.0152668
763.186	0.0153378
763.264	0.0152785
763.342	0.0154524
763.420	0.0152219
763.498	0.0153688
763.576	0.0153099
763.655	0.0151573
763.733	0.0153663
763.811	0.0153442
763.889	0.0154231
763.967	0.0151975
764.045	0.0151387
764.123	0.0152621
764.201	0.0151783
764.280	0.0152433
764.358	0.0152020
764.436	0.0152413
764.514	0.0152286
764.592	0.0152881
764.670	0.0152515
764.748	0.0152879
764.826	0.0150996
764.905	0.0153201
764.983	0.0152256
765.061	0.0151303
765.139	0.0151248
765.217	0.0152507
765.295	0.0153428
765.373	0.0152543
765.451	0.0153588
765.530	0.0153619
765.608	0.0153915
765.686	0.0155488
765.764	0.0155447
765.842	0.0155399
765.920	0.0155981
765.998	0.0156724
766.076	0.0156361
766.155	0.0155457
766.233	0.0157676
766.311	0.0158295
766.389	0.0156101
766.467	0.0156831
766.545	0.0157244
766.623	0.0158140
766.701	0.0155849
766.780	0.0156445
766.858	0.0156323
766.936	0.0155970
767.014	0.0155372
767.092	0.0155667
767.170	0.0156047
767.248	0.0156146
767.326	0.0156153
767.405	0.0155374
767.483	0.0155695
767.561	0.0154441
767.639	0.0155067
767.717	0.0153473
767.795	0.0152827
767.873	0.0151811
767.951	0.0152608
768.030	0.0151905
768.108	0.0151344
768.186	0.0149073
768.264	0.0148661
768.342	0.0149297
768.420	0.0148653
768.498	0.0148945
768.576	0.0147944
768.655	0.0146120
768.733	0.0147978
768.811	0.0147437
768.889	0.0148207
768.967	0.0147472
769.045	0.0148397
769.123	0.0149191
769.201	0.0148447
769.280	0.0149118
769.358	0.0149883
769.436	0.0148700
769.514	0.0149612
769.592	0.0151656
769.670	0.0150295
769.748	0.0149589
769.826	0.0150764
769.905	0.0151065
769.983	0.0151955
770.061	0.0150557
770.139	0.0151955
770.217	0.0149937
770.295	0.0151083
770.373	0.0150733
770.451	0.0150764
770.530	0.0152144
770.608	0.0150275
770.686	0.0151927
770.764	0.0151054
770.842	0.0153416
770.920	0.0151334
770.998	0.0152436
771.076	0.0153043
771.155	0.0153844
771.233	0.0153099
771.311	0.0153642
771.389	0.0154871
771.467	0.0154565
771.545	0.0154017
771.623	0.0155585
771.701	0.0155539
771.780	0.0153973
771.858	0.0154356
771.936	0.0153123
772.014	0.0154584
772.092	0.0154114
772.170	0.0153049
772.248	0.0153690
772.326	0.0152747
772.405	0.0153281
772.483	0.0153798
772.561	0.0153793
772.639	0.0153486
772.717	0.0154758
772.795	0.0153569
772.873	0.0154189
772.951	0.0154687
773.030	0.0153858
773.108	0.0154060
773.186	0.0153100
773.264	0.0154803
773.342	0.0154857
773.420	0.0154449
773.498	0.0153744
773.576	0.0154687
773.655	0.0153493
773.733	0.0152242
773.811	0.0152241
773.889	0.0152930
773.967	0.0152827
774.045	0.0153840
774.123	0.0153290
774.201	0.0153481
774.280	0.0153708
774.358	0.0154604
774.436	0.0154663
774.514	0.0153512
774.592	0.0155810
774.670	0.0155182
774.748	0.0156087
774.826	0.0156000
774.905	0.0155917
774.983	0.0157117
775.061	0.0155827
775.139	0.0155689
775.217	0.0156585
775.295	0.0156460
775.373	0.0155643
775.451	0.0156434
775.530	0.0155847
775.608	0.0155187
775.686	0.0154571
775.764	0.0154755
775.842	0.0153373
775.920	0.0152339
775.998	0.0150466
776.076	0.0151058
776.155	0.0150101
776.233	0.0148204
776.311	0.0147696
776.389	0.0146756
776.467	0.0147226
776.545	0.0147263
776.623	0.0145760
776.701	0.0145296
776.780	0.0147629
776.858	0.0145699
776.936	0.0145631
777.014	0.0146202
777.092	0.0147614
777.170	0.0146896
777.248	0.0148219
777.326	0.0147326
777.405	0.0148770
777.483	0.0150342
777.561	0.0149844
777.639	0.0151543
777.717	0.0151162
777.795	0.0151086
777.873	0.0152100
777.951	0.0153367
778.030	0.0154257
778.108	0.0154453
778.186	0.0154340
778.264	0.0154964
778.342	0.0154124
778.420	0.0154929
778.498	0.0152557
778.576	0.0154960
778.655	0.0154677
778.733	0.0152547
778.811	0.0153300
778.889	0.0153738
778.967	0.0151842
779.045	0.0152324
779.123	0.0153329
779.201	0.0153124
779.280	0.0153134
779.358	0.0152985
779.436	0.0153414
779.514	0.0154883
779.592	0.0153461
779.670	0.0153004
779.748	0.0154169
779.826	0.0152615
779.905	0.0153445
779.983	0.0153175
780.061	0.0153543
780.139	0.0152522
780.217	0.0152235
780.295	0.0151945
780.373	0.0152692
780.451	0.0153961
780.530	0.0151885
780.608	0.0153246
780.686	0.0152599
780.764	0.0152745
780.842	0.0152966
780.920	0.0153049
780.998	0.0153250
781.076	0.0154112
781.155	0.0153495
781.233	0.0153338
781.311	0.0155352
781.389	0.0155105
781.467	0.0154742
781.545	0.0155334
781.623	0.0154289
781.701	0.0152967
781.780	0.0153699
781.858	0.0153559
781.936	0.0153519
782.014	0.0154842
782.092	0.0154698
782.170	0.0153780
782.248	0.0155189
782.326	0.0154485
782.405	0.0154386
782.483	0.0154546
782.561	0.0155649
782.639	0.0156107
782.717	0.0156522
782.795	0.0157315
782.873	0.0156493
782.951	0.0155695
783.030	0.0156245
783.108	0.0157919
783.186	0.0156764
783.264	0.0156757
783.342	0.0157631
783.420	0.0159331
783.498	0.0158051
783.576	0.0156886
783.655	0.0157553
783.733	0.0156570
783.811	0.0157545
783.889	0.0156425
783.967	0.0155679
784.045	0.0154290
784.123	0.0152035
784.201	0.0154877
784.280	0.0151544
784.358	0.0151244
784.436	0.0151031
784.514	0.0148751
784.592	0.0150214
784.670	0.0148132
784.748	0.0149017
784.826	0.0146594
784.905	0.0146794
784.983	0.0147176
785.061	0.0146491
785.139	0.0148187
785.217	0.0148730
785.295	0.0146503
785.373	0.0147089
785.451	0.0149150
785.530	0.0149412
785.608	0.0150146
785.686	0.0149895
785.764	0.0151385
785.842	0.0152216
785.920	0.0153384
785.998	0.0153139
786.076	0.0153239
786.155	0.0153965
786.233	0.0154024
786.311	0.0154965
786.389	0.0154074
786.467	0.0154269
786.545	0.0154785
786.623	0.0153220
786.701	0.0152940
786.780	0.0152225
786.858	0.0152845
786.936	0.0151981
787.014	0.0151839
787.092	0.0152020
787.170	0.0151273
787.248	0.0149822
787.326	0.0150855
787.405	0.0149953
787.483	0.0150755
787.561	0.0151059
787.639	0.0153300
787.717	0.0154161
787.795	0.0154465
787.873	0.0154715
787.951	0.0154803
788.030	0.0155500
788.108	0.0156955
788.186	0.0157118
788.264	0.0157043
788.342	0.0156205
788.420	0.0155782
788.498	0.0155876
788.576	0.0156680
788.655	0.0156106
788.733	0.0156117
788.811	0.0155875
788.889	0.0154188
788.967	0.0156616
789.045	0.0156013
789.123	0.0155093
789.201	0.0153458
789.280	0.0154861
789.358	0.0155422
789.436	0.0155875
789.514	0.0154283
789.592	0.0156076
789.670	0.0155404
789.748	0.0154296
789.826	0.0153860
789.905	0.0154176
789.983	0.0153547
790.061	0.0153069
790.139	0.0152724
790.217	0.0152792
790.295	0.0152598
790.373	0.0152042
790.451	0.0152808
790.530	0.0153336
790.608	0.0152514
790.686	0.0151814
790.764	0.0152321
790.842	0.0152819
790.920	0.0154495
790.998	0.0154031
791.076	0.0154216
791.155	0.0154063
791.233	0.0154633
791.311	0.0154427
791.389	0.0155975
791.467	0.0154875
791.545	0.0155954
791.623	0.0156228
791.701	0.0155251
791.780	0.0156770
791.858	0.0155696
791.936	0.0154175
792.014	0.0154977
792.092	0.0153707
792.170	0.0155084
792.248	0.0152110
792.326	0.0151535
792.405	0.0150822
792.483	0.0151066
792.561	0.0148853
792.639	0.0148715
792.717	0.0146770
792.795	0.0147072
792.873	0.0145933
792.951	0.0144690
793.030	0.0144719
793.108	0.0143913
793.186	0.0144680
793.264	0.0145074
793.342	0.0145538
793.420	0.0145227
793.498	0.0146307
793.576	0.0145930
793.655	0.0147898
793.733	0.0147473
793.811	0.0147436
793.889	0.0148671
793.967	0.0151169
794.045	0.0151163
794.123	0.0153193
794.201	0.0155700
794.280	0.0153854
794.358	0.0156506
794.436	0.0157931
794.514	0.0158287
794.592	0.0157679
794.670	0.0155382
794.748	0.0157092
794.826	0.0157457
794.905	0.0156365
794.983	0.0154914
795.061	0.0154260
795.139	0.0153419
795.217	0.0153608
795.295	0.0152539
795.373	0.0153510
795.451	0.0152480
795.530	0.0150824
795.608	0.0150823
795.686	0.0152655
795.764	0.0151940
795.842	0.0152059
795.920	0.0152796
795.998	0.0153062
796.076	0.0154035
796.155	0.0154550
796.233	0.0154728
796.311	0.0155667
796.389	0.0155439
796.467	0.0156124
796.545	0.0155444
796.623	0.0156773
796.701	0.0156384
796.780	0.0156464
796.858	0.0153625
796.936	0.0155628
797.014	0.0154935
797.092	0.0154052
797.170	0.0153748
797.248	0.0153054
797.326	0.0153753
797.405	0.0153796
797.483	0.0152612
797.561	0.0152377
797.639	0.0150813
797.717	0.0151543
797.795	0.0150440
797.873	0.0153329
797.951	0.0151903
798.030	0.0150681
798.108	0.0151000
798.186	0.0150360
798.264	0.0150668
798.342	0.0152334
798.420	0.0151662
798.498	0.0151673
798.576	0.0152108
798.655	0.0151153
798.733	0.0153377
798.811	0.0152944
798.889	0.0152741
798.967	0.0153987
799.045	0.0152872
799.123	0.0151778
799.201	0.0153574
799.280	0.0152852
799.358	0.0153255
799.436	0.0152356
799.514	0.0152666
799.592	0.0154733
799.670	0.0153371
799.748	0.0153282
799.826	0.0153430
799.905	0.0154451
799.983	0.0154983
800.061	0.0154879
800.139	0.0154150
800.217	0.0154771
800.295	0.0153442
800.373	0.0152718
800.451	0.0153148
800.530	0.0151567
800.608	0.0151546
800.686	0.0149792
800.764	0.0148938
800.842	0.0149358
800.920	0.0146542
800.998	0.0146053
801.076	0.0145139
801.155	0.0145486
801.233	0.0145412
801.311	0.0143377
801.389	0.0143970
801.467	0.0144662
801.545	0.0144617
801.623	0.0144794
801.701	0.0145016
801.780	0.0145502
801.858	0.0146861
801.936	0.0148874
802.014	0.0148370
802.092	0.0149113
802.170	0.0149551
802.248	0.0150687
802.326	0.0152625
802.405	0.0153436
802.483	0.0153507
802.561	0.0155328
802.639	0.0156239
802.717	0.0154967
802.795	0.0155958
802.873	0.0155585
802.951	0.0156147
803.030	0.0156201
803.108	0.0155280
803.186	0.0155819
803.264	0.0154620
803.342	0.0154828
803.420	0.0152854
803.498	0.0153146
803.576	0.0153397
803.655	0.0154136
803.733	0.0152369
803.811	0.0153722
803.889	0.0153767
803.967	0.0154001
804.045	0.0154835
804.123	0.0154432
804.201	0.0155367
804.280	0.0156697
804.358	0.0156927
804.436	0.0157952
804.514	0.0159386
804.592	0.0159277
804.670	0.0161707
804.748	0.0161235
804.826	0.0160443
804.905	0.0159616
804.983	0.0160214
805.061	0.0159044
805.139	0.0159143
805.217	0.0158966
805.295	0.0156463
805.373	0.0155434
805.451	0.0154991
805.530	0.0154813
805.608	0.0153255
805.686	0.0151905
805.764	0.0151500
805.842	0.0151531
805.920	0.0149454
805.998	0.0149915
806.076	0.0152299
806.155	0.0150489
806.233	0.0151469
806.311	0.0149123
806.389	0.0150114
806.467	0.0150991
806.545	0.0150795
806.623	0.0150426
806.701	0.0150609
806.780	0.0152261
806.858	0.0152243
806.936	0.0150584
807.014	0.0152633
807.092	0.0151488
807.170	0.0152618
807.248	0.0152614
807.326	0.0153135
807.405	0.0153320
807.483	0.0153404
807.561	0.0154668
807.639	0.0154683
807.717	0.0155124
807.795	0.0155193
807.873	0.0155573
807.951	0.0156705
808.030	0.0155927
808.108	0.0157252
808.186	0.0157282
808.264	0.0158347
808.342	0.0159094
808.420	0.0156863
808.498	0.0156711
808.576	0.0158143
808.655	0.0156110
808.733	0.0156129
808.811	0.0154746
808.889	0.0154305
808.967	0.0153325
809.045	0.0152730
809.123	0.0152260
809.201	0.0151096
809.280	0.0148132
809.358	0.0149870
809.436	0.0148960
809.514	0.0147860
809.592	0.0148396
809.670	0.0148162
809.748	0.0148038
809.826	0.0147856
809.905	0.0146999
809.983	0.0147292
810.061	0.0147224
810.139	0.0148058
810.217	0.0149578
810.295	0.0150619
810.373	0.0150750
810.451	0.0150204
810.530	0.0151845
810.608	0.0153826
810.686	0.0152572
810.764	0.0154453
810.842	0.0155491
810.920	0.0156004
810.998	0.0156284
811.076	0.0155393
811.155	0.0155516
811.233	0.0154449
811.311	0.0154276
811.389	0.0154950
811.467	0.0153674
811.545	0.0154117
811.623	0.0153048
811.701	0.0151598
811.780	0.0150751
811.858	0.0150558
811.936	0.0150831
812.014	0.0150114
812.092	0.0151109
812.170	0.0151022
812.248	0.0151436
812.326	0.0151008
812.405	0.0151163
812.483	0.0153850
812.561	0.0152753
812.639	0.0153573
812.717	0.0156053
812.795	0.0155139
812.873	0.0155044
812.951	0.0156563
813.030	0.0157636
813.108	0.0157484
813.186	0.0157353
813.264	0.0157263
813.342	0.0155076
813.420	0.0155119
813.498	0.0153078
813.576	0.0152838
813.655	0.0154977
813.733	0.0153127
813.811	0.0150958
813.889	0.0150748
813.967	0.0149448
814.045	0.0148901
814.123	0.0148968
814.201	0.0148728
814.280	0.0150013
814.358	0.0149458
814.436	0.0149380
814.514	0.0150229
814.592	0.0150818
814.670	0.0148619
814.748	0.0150990
814.826	0.0152000
814.905	0.0150789
814.983	0.0150210
815.061	0.0149847
815.139	0.0152032
815.217	0.0152041
815.295	0.0151679
815.373	0.0153176
815.451	0.0153983
815.530	0.0153535
815.608	0.0153761
815.686	0.0152705
815.764	0.0153979
815.842	0.0154828
815.920	0.0155038
815.998	0.0156355
816.076	0.0156237
816.155	0.0156487
816.233	0.0156298
816.311	0.0156898
816.389	0.0157281
816.467	0.0157523
816.545	0.0157229
816.623	0.0156872
816.701	0.0156225
816.780	0.0155820
816.858	0.0155527
816.936	0.0153901
817.014	0.0153490
817.092	0.0153290
817.170	0.0152347
817.248	0.0150848
817.326	0.0149001
817.405	0.0147453
817.483	0.0147418
817.561	0.0145452
817.639	0.0145435
817.717	0.0145921
817.795	0.0143378
817.873	0.0143610
817.951	0.0143668
818.030	0.0144979
818.108	0.0145614
818.186	0.0144914
818.264	0.0145110
818.342	0.0144860
818.420	0.0145808
818.498	0.0148021
818.576	0.0149133
818.655	0.0148650
818.733	0.0150335
818.811	0.0150472
818.889	0.0151934
818.967	0.0151662
819.045	0.0151919
819.123	0.0153229
819.201	0.0156022
819.280	0.0155064
819.358	0.0154735
819.436	0.0156264
819.514	0.0158453
819.592	0.0154836
819.670	0.0157244
819.748	0.0156405
819.826	0.0155578
819.905	0.0155018
819.983	0.0155159
820.061	0.0155774
820.139	0.0155758
820.217	0.0154827
820.295	0.0154637
820.373	0.0155322
820.451	0.0154509
820.530	0.0154236
820.608	0.0156260
820.686	0.0155231
820.764	0.0155442
820.842	0.0155122
820.920	0.0155560
820.998	0.0156232
821.076	0.0157465
821.155	0.0157620
821.233	0.0158089
821.311	0.0156157
821.389	0.0155648
821.467	0.0156923
821.545	0.0156520
821.623	0.0154989
821.701	0.0154195
821.780	0.0154197
821.858	0.0153417
821.936	0.0152426
822.014	0.0151146
822.092	0.0151244
822.170	0.0151515
822.248	0.0150932
822.326	0.0149741
822.405	0.0149951
822.483	0.0148570
822.561	0.0150156
822.639	0.0149522
822.717	0.0148990
822.795	0.0149358
822.873	0.0151028
822.951	0.0151079
823.030	0.0151057
823.108	0.0150563
823.186	0.0150858
823.264	0.0152836
823.342	0.0151772
823.420	0.0152065
823.498	0.0152728
823.576	0.0153088
823.655	0.0152098
823.733	0.0152655
823.811	0.0154184
823.889	0.0154619
823.967	0.0153838
824.045	0.0155193
824.123	0.0156339
824.201	0.0155590
824.280	0.0155962
824.358	0.0156191
824.436	0.0155463
824.514	0.0156493
824.592	0.0157619
824.670	0.0154051
824.748	0.0155920
824.826	0.0155824
824.905	0.0154808
824.983	0.0154663
825.061	0.0152579
825.139	0.0153223
825.217	0.0152434
825.295	0.0153340
825.373	0.0152174
825.451	0.0150591
825.530	0.0150480
825.608	0.0148584
825.686	0.0148794
825.764	0.0148950
825.842	0.0147807
825.920	0.0147078
825.998	0.0147694
826.076	0.0147417
826.155	0.0147064
826.233	0.0146802
826.311	0.0146934
826.389	0.0147225
826.467	0.0146828
826.545	0.0147021
826.623	0.0150050
826.701	0.0149155
826.780	0.0148991
826.858	0.0150894
826.936	0.0151140
827.014	0.0151544
827.092	0.0153185
827.170	0.0153772
827.248	0.0154398
827.326	0.0153333
827.405	0.0155387
827.483	0.0156614
827.561	0.0156919
827.639	0.0156847
827.717	0.0157846
827.795	0.0159079
827.873	0.0158916
827.951	0.0158528
828.030	0.0158664
828.108	0.0157682
828.186	0.0156772
828.264	0.0157095
828.342	0.0157346
828.420	0.0156341
828.498	0.0156357
828.576	0.0155559
828.655	0.0155211
828.733	0.0154865
828.811	0.0155467
828.889	0.0155243
828.967	0.0156435
829.045	0.0154392
829.123	0.0155087
829.201	0.0154520
829.280	0.0154553
829.358	0.0153973
829.436	0.0155037
829.514	0.0155479
829.592	0.0157131
829.670	0.0155492
829.748	0.0154671
829.826	0.0155818
829.905	0.0155528
829.983	0.0154119
830.061	0.0153573
830.139	0.0152535
830.217	0.0152504
830.295	0.0152148
830.373	0.0152480
830.451	0.0151235
830.530	0.0150527
830.608	0.0151311
830.686	0.0150580
830.764	0.0149831
830.842	0.0150050
830.920	0.0149789
830.998	0.0149800
831.076	0.0150243
831.155	0.0150415
831.233	0.0149551
831.311	0.0151516
831.389	0.0151784
831.467	0.0152649
831.545	0.0151514
831.623	0.0152431
831.701	0.0154375
831.780	0.0153322
831.858	0.0153421
831.936	0.0153357
832.014	0.0152855
832.092	0.0155588
832.170	0.0154615
832.248	0.0154387
832.326	0.0153904
832.405	0.0153504
832.483	0.0154779
832.561	0.0154054
832.639	0.0154950
832.717	0.0154339
832.795	0.0152626
832.873	0.0153819
832.951	0.0154382
833.030	0.0153175
833.108	0.0154069
833.186	0.0153751
833.264	0.0152357
833.342	0.0151709
833.420	0.0152348
833.498	0.0153983
833.576	0.0151855
833.655	0.0151273
833.733	0.0150842
833.811	0.0150213
833.889	0.0149040
833.967	0.0148969
834.045	0.0147881
834.123	0.0147334
834.201	0.0147301
834.280	0.0149784
834.358	0.0147227
834.436	0.0147985
834.514	0.0147633
834.592	0.0146976
834.670	0.0147767
834.748	0.0147277
834.826	0.0148361
834.905	0.0149358
834.983	0.0149459
835.061	0.0148875
835.139	0.0150826
835.217	0.0151351
835.295	0.0151450
835.373	0.0152538
835.451	0.0154757
835.530	0.0154453
835.608	0.0155657
835.686	0.0156572
835.764	0.0157446
835.842	0.0158257
835.920	0.0159015
835.998	0.0157516
836.076	0.0157271
836.155	0.0157338
836.233	0.0157585
836.311	0.0157913
836.389	0.0158113
836.467	0.0156952
836.545	0.0156721
836.623	0.0156915
836.701	0.0155867
836.780	0.0154628
836.858	0.0154185
836.936	0.0154749
837.014	0.0153156
837.092	0.0154491
837.170	0.0154274
837.248	0.0152888
837.326	0.0153352
837.405	0.0152178
837.483	0.0152448
837.561	0.0152634
837.639	0.0151913
837.717	0.0153526
837.795	0.0152632
837.873	0.0151620
837.951	0.0153764
838.030	0.0151242
838.108	0.0151765
838.186	0.0151886
838.264	0.0151304
838.342	0.0150484
838.420	0.0150167
838.498	0.0150944
838.576	0.0151282
838.655	0.0150372
838.733	0.0149944
838.811	0.0150845
838.889	0.0150022
838.967	0.0149545
839.045	0.0149412
839.123	0.0148859
839.201	0.0150803
839.280	0.0150650
839.358	0.0151317
839.436	0.0152094
839.514	0.0152187
839.592	0.0151862
839.670	0.0150954
839.748	0.0152904
839.826	0.0152235
839.905	0.0152940
839.983	0.0153521
840.061	0.0154092
840.139	0.0153717
840.217	0.0152097
840.295	0.0153909
840.373	0.0153957
840.451	0.0155384
840.530	0.0152032
840.608	0.0153155
840.686	0.0153831
840.764	0.0153210
840.842	0.0152633
840.920	0.0151780
840.998	0.0152464
841.076	0.0153423
841.155	0.0151958
841.233	0.0152312
841.311	0.0152196
841.389	0.0152035
841.467	0.0153345
841.545	0.0152676
841.623	0.0151140
841.701	0.0152185
841.780	0.0151545
841.858	0.0150680
841.936	0.0150185
842.014	0.0150059
842.092	0.0149035
842.170	0.0147421
842.248	0.0148785
842.326	0.0148783
842.405	0.0148732
842.483	0.0147511
842.561	0.0146510
842.639	0.0146491
842.717	0.0147746
842.795	0.0146923
842.873	0.0146631
842.951	0.0145967
843.030	0.0147768
843.108	0.0147285
843.186	0.0149418
843.264	0.0149072
843.342	0.0149389
843.420	0.0150450
843.498	0.0151518
843.576	0.0152222
843.655	0.0152717
843.733	0.0152171
843.811	0.0153392
843.889	0.0153658
843.967	0.0154661
844.045	0.0155044
844.123	0.0155869
844.201	0.0155912
844.280	0.0157078
844.358	0.0157667
844.436	0.0156458
844.514	0.0156527
844.592	0.0156824
844.670	0.0156521
844.748	0.0157957
844.826	0.0157015
844.905	0.0156380
844.983	0.0156989
845.061	0.0155437
845.139	0.0154390
845.217	0.0153248
845.295	0.0153898
845.373	0.0152299
845.451	0.0153091
845.530	0.0153551
845.608	0.0152303
845.686	0.0152744
845.764	0.0152313
845.842	0.0153045
845.920	0.0152148
845.998	0.0152473
846.076	0.0152837
846.155	0.0153070
846.233	0.0151830
846.311	0.0153085
846.389	0.0153582
846.467	0.0152651
846.545	0.0153179
846.623	0.0153420
846.701	0.0152924
846.780	0.0153044
846.858	0.0153870
846.936	0.0152866
847.014	0.0152026
847.092	0.0153391
847.170	0.0153486
847.248	0.0153360
847.326	0.0153274
847.405	0.0152554
847.483	0.0151825
847.561	0.0153332
847.639	0.0152163
847.717	0.0151978
847.795	0.0155188
847.873	0.0153793
847.951	0.0153667
848.030	0.0152444
848.108	0.0154903
848.186	0.0155140
848.264	0.0154725
848.342	0.0154157
848.420	0.0154908
848.498	0.0153699
848.576	0.0154202
848.655	0.0153825
848.733	0.0155289
848.811	0.0154253
848.889	0.0154849
848.967	0.0153928
849.045	0.0152410
849.123	0.0154065
849.201	0.0154464
849.280	0.0154510
849.358	0.0153784
849.436	0.0152301
849.514	0.0154211
849.592	0.0153655
849.670	0.0153944
849.748	0.0154443
849.826	0.0155151
849.905	0.0154100
849.983	0.0153434
850.061	0.0154149
850.139	0.0153156
850.217	0.0152377
850.295	0.0153377
850.373	0.0153706
850.451	0.0152344
850.530	0.0152444
850.608	0.0151049
850.686	0.0150925
850.764	0.0149501
850.842	0.0150495
850.920	0.0150746
850.998	0.0151381
851.076	0.0150616
851.155	0.0150936
851.233	0.0151700
851.311	0.0151466
851.389	0.0151382
851.467	0.0152603
851.545	0.0153214
851.623	0.0153346
851.701	0.0153717
851.780	0.0154886
851.858	0.0155630
851.936	0.0155038
852.014	0.0156966
852.092	0.0157246
852.170	0.0156532
852.248	0.0157304
852.326	0.0157853
852.405	0.0157446
852.483	0.0157757
852.561	0.0156853
852.639	0.0157294
852.717	0.0158894
852.795	0.0157809
852.873	0.0157737
852.951	0.0159518
853.030	0.0157941
853.108	0.0157263
853.186	0.0157755
853.264	0.0156699
853.342	0.0155721
853.420	0.0155897
853.498	0.0155229
853.576	0.0154652
853.655	0.0153200
853.733	0.0154138
853.811	0.0154059
853.889	0.0153174
853.967	0.0152615
854.045	0.0152902
854.123	0.0151526
854.201	0.0151000
854.280	0.0152732
854.358	0.0152290
854.436	0.0151653
854.514	0.0151352
854.592	0.0151491
854.670	0.0152477
854.748	0.0151704
854.826	0.0152496
854.905	0.0152470
854.983	0.0152962
855.061	0.0153590
855.139	0.0152743
855.217	0.0153548
855.295	0.0152983
855.373	0.0151914
855.451	0.0153046
855.530	0.0152103
855.608	0.0152741
855.686	0.0152094
855.764	0.0151674
855.842	0.0151692
855.920	0.0150883
855.998	0.0152580
856.076	0.0151806
856.155	0.0152588
856.233	0.0152551
856.311	0.0152858
856.389	0.0151913
856.467	0.0151010
856.545	0.0151939
856.623	0.0151861
856.701	0.0150333
856.780	0.0151856
856.858	0.0151795
856.936	0.0149785
857.014	0.0150181
857.092	0.0151300
857.170	0.0151080
857.248	0.0150416
857.326	0.0150078
857.405	0.0150029
857.483	0.0150294
857.561	0.0149809
857.639	0.0151013
857.717	0.0149438
857.795	0.0149225
857.873	0.0148893
857.951	0.0150841
858.030	0.0151275
858.108	0.0150229
858.186	0.0150610
858.264	0.0150956
858.342	0.0150214
858.420	0.0150661
858.498	0.0151062
858.576	0.0151012
858.655	0.0151928
858.733	0.0150823
858.811	0.0150357
858.889	0.0151794
858.967	0.0151387
859.045	0.0150949
859.123	0.0151687
859.201	0.0150555
859.280	0.0149031
859.358	0.0150529
859.436	0.0151492
859.514	0.0149577
859.592	0.0151712
859.670	0.0151457
859.748	0.0151499
859.826	0.0151549
859.905	0.0151170
859.983	0.0151662
860.061	0.0153080
860.139	0.0152589
860.217	0.0152414
860.295	0.0153445
860.373	0.0153500
860.451	0.0154847
860.530	0.0153676
860.608	0.0154707
860.686	0.0155373
860.764	0.0154911
860.842	0.0154912
860.920	0.0156631
860.998	0.0157619
861.076	0.0155730
861.155	0.0156714
861.233	0.0157321
861.311	0.0156799
861.389	0.0155457
861.467	0.0154746
861.545	0.0155676
861.623	0.0155893
861.701	0.0153918
861.780	0.0152821
861.858	0.0153630
861.936	0.0153111
862.014	0.0151454
862.092	0.0152922
862.170	0.0152638
862.248	0.0151324
862.326	0.0151183
862.405	0.0152031
862.483	0.0151340
862.561	0.0150175
862.639	0.0152229
862.717	0.0151726
862.795	0.0153141
862.873	0.0151913
862.951	0.0151617
863.030	0.0152456
863.108	0.0152257
863.186	0.0153938
863.264	0.0153753
863.342	0.0153175
863.420	0.0151900
863.498	0.0153864
863.576	0.0154192
863.655	0.0154762
863.733	0.0153457
863.811	0.0153507
863.889	0.0153002
863.967	0.0152625
864.045	0.0152953
864.123	0.0154227
864.201	0.0153418
864.280	0.0151969
864.358	0.0152209
864.436	0.0151698
864.514	0.0152065
864.592	0.0153751
864.670	0.0152677
864.748	0.0151558
864.826	0.0152872
864.905	0.0152139
864.983	0.0151853
865.061	0.0150311
865.139	0.0150173
865.217	0.0151624
865.295	0.0151692
865.373	0.0151319
865.451	0.0151536
865.530	0.0151003
865.608	0.0150732
865.686	0.0150896
865.764	0.0152093
865.842	0.0149148
865.920	0.0150703
865.998	0.0151461
866.076	0.0150404
866.155	0.0150198
866.233	0.0151449
866.311	0.0151792
866.389	0.0149757
866.467	0.0151480
866.545	0.0150767
866.623	0.0151803
866.701	0.0149832
866.780	0.0150706
866.858	0.0151804
866.936	0.0151685
867.014	0.0151555
867.092	0.0150568
867.170	0.0151250
867.248	0.0151283
867.326	0.0151839
867.405	0.0152394
867.483	0.0152060
867.561	0.0151879
867.639	0.0153891
867.717	0.0153183
867.795	0.0152114
867.873	0.0153546
867.951	0.0152838
868.030	0.0153476
868.108	0.0154060
868.186	0.0153029
868.264	0.0154082
868.342	0.0152911
868.420	0.0153369
868.498	0.0153731
868.576	0.0155006
868.655	0.0153914
868.733	0.0153920
868.811	0.0153880
868.889	0.0153047
868.967	0.0155098
869.045	0.0154213
869.123	0.0153597
869.201	0.0153269
869.280	0.0153439
869.358	0.0153110
869.436	0.0154073
869.514	0.0154021
869.592	0.0153825
869.670	0.0153954
869.748	0.0153694
869.826	0.0154365
869.905	0.0153850
869.983	0.0152549
870.061	0.0153883
870.139	0.0153139
870.217	0.0152622
870.295	0.0153280
870.373	0.0153233
870.451	0.0152956
870.530	0.0152071
870.608	0.0153533
870.686	0.0152729
870.764	0.0151204
870.842	0.0150565
870.920	0.0151305
870.998	0.0151813
871.076	0.0153671
871.155	0.0153146
871.233	0.0154301
871.311	0.0152487
871.389	0.0153210
871.467	0.0154041
871.545	0.0153783
871.623	0.0153526
871.701	0.0154002
871.780	0.0154637
871.858	0.0154813
871.936	0.0155080
872.014	0.0155452
872.092	0.0156020
872.170	0.0156420
872.248	0.0154771
872.326	0.0154679
872.405	0.0154984
872.483	0.0155300
872.561	0.0155180
872.639	0.0154305
872.717	0.0154615
872.795	0.0154043
872.873	0.0154694
872.951	0.0152771
873.030	0.0152934
873.108	0.0153426
873.186	0.0152551
873.264	0.0151098
873.342	0.0150636
873.420	0.0151603
873.498	0.0151431
873.576	0.0150533
873.655	0.0150796
873.733	0.0150005
873.811	0.0149776
873.889	0.0148913
873.967	0.0149906
874.045	0.0150143
874.123	0.0150169
874.201	0.0150043
874.280	0.0150929
874.358	0.0151292
874.436	0.0150159
874.514	0.0150867
874.592	0.0151544
874.670	0.0151935
874.748	0.0153454
874.826	0.0152570
874.905	0.0152428
874.983	0.0152737
875.061	0.0152708
875.139	0.0153879
875.217	0.0153536
875.295	0.0153202
875.373	0.0153862
875.451	0.0153503
875.530	0.0154405
875.608	0.0153492
875.686	0.0155303
875.764	0.0154245
875.842	0.0154243
875.920	0.0153790
875.998	0.0154938
876.076	0.0156093
876.155	0.0155073
876.233	0.0153676
876.311	0.0155234
876.389	0.0156061
876.467	0.0154520
876.545	0.0154469
876.623	0.0155047
876.701	0.0154454
876.780	0.0154227
876.858	0.0155429
876.936	0.0155756
877.014	0.0153598
877.092	0.0153412
877.170	0.0154949
877.248	0.0153861
877.326	0.0152280
877.405	0.0152950
877.483	0.0154346
877.561	0.0154164
877.639	0.0151344
877.717	0.0153510
877.795	0.0152789
877.873	0.0152499
877.951	0.0151949
878.030	0.0152567
878.108	0.0151196
878.186	0.0152654
878.264	0.0152827
878.342	0.0153787
878.420	0.0154221
878.498	0.0152004
878.576	0.0152916
878.655	0.0154922
878.733	0.0152880
878.811	0.0153341
878.889	0.0154787
878.967	0.0154126
879.045	0.0153645
879.123	0.0153497
879.201	0.0153047
879.280	0.0154303
879.358	0.0154790
879.436	0.0153373
879.514	0.0154665
879.592	0.0154256
879.670	0.0156049
879.748	0.0155521
879.826	0.0153912
879.905	0.0154661
879.983	0.0155666
880.061	0.0155300
880.139	0.0154389
880.217	0.0154683
880.295	0.0154880
880.373	0.0154623
880.451	0.0153368
880.530	0.0154749
880.608	0.0154761
880.686	0.0153229
880.764	0.0153288
880.842	0.0151824
880.920	0.0152363
880.998	0.0151640
881.076	0.0150305
881.155	0.0149998
881.233	0.0151379
881.311	0.0149993
881.389	0.0150170
881.467	0.0149400
881.545	0.0150361
881.623	0.0150550
881.701	0.0149364
881.780	0.0148338
881.858	0.0149680
881.936	0.0150958
882.014	0.0149621
882.092	0.0149304
882.170	0.0150769
882.248	0.0150495
882.326	0.0150151
882.405	0.0152312
882.483	0.0151183
882.561	0.0150396
882.639	0.0151895
882.717	0.0152067
882.795	0.0154002
882.873	0.0153931
882.951	0.0153967
883.030	0.0155490
883.108	0.0153414
883.186	0.0154546
883.264	0.0153848
883.342	0.0156142
883.420	0.0156056
883.498	0.0154607
883.576	0.0157314
883.655	0.0156447
883.733	0.0156917
883.811	0.0155759
883.889	0.0156618
883.967	0.0156196
884.045	0.0155779
884.123	0.0156162
884.201	0.0155140
884.280	0.0155904
884.358	0.0156019
884.436	0.0155959
884.514	0.0154198
884.592	0.0153611
884.670	0.0155255
884.748	0.0155545
884.826	0.0155254
884.905	0.0154092
884.983	0.0152688
885.061	0.0152943
885.139	0.0153508
885.217	0.0152956
885.295	0.0153106
885.373	0.0154321
885.451	0.0153392
885.530	0.0152955
885.608	0.0153916
885.686	0.0153225
885.764	0.0153693
885.842	0.0153762
885.920	0.0153416
885.998	0.0153715
886.076	0.0153666
886.155	0.0153911
886.233	0.0154296
886.311	0.0153700
886.389	0.0155161
886.467	0.0153882
886.545	0.0154120
886.623	0.0155460
886.701	0.0153475
886.780	0.0152835
886.858	0.0153609
886.936	0.0154049
887.014	0.0154262
887.092	0.0154153
887.170	0.0152299
887.248	0.0152140
887.326	0.0154720
887.405	0.0151926
887.483	0.0151636
887.561	0.0153476
887.639	0.0152704
887.717	0.0152811
887.795	0.0153307
887.873	0.0152220
887.951	0.0153016
888.030	0.0152634
888.108	0.0153113
888.186	0.0153213
888.264	0.0153027
888.342	0.0152460
888.420	0.0153059
888.498	0.0152847
888.576	0.0152466
888.655	0.0152586
888.733	0.0154054
888.811	0.0153676
888.889	0.0153455
888.967	0.0151785
889.045	0.0150404
889.123	0.0151829
889.201	0.0152512
889.280	0.0151590
889.358	0.0150884
889.436	0.0150713
889.514	0.0150262
889.592	0.0150849
889.670	0.0150146
889.748	0.0149751
889.826	0.0149805
889.905	0.0149693
889.983	0.0148562
890.061	0.0150189
890.139	0.0148743
890.217	0.0149104
890.295	0.0148846
890.373	0.0149075
890.451	0.0148392
890.530	0.0148207
890.608	0.0148919
890.686	0.0148895
890.764	0.0149086
890.842	0.0151572
890.920	0.0151607
890.998	0.0152043
891.076	0.0152693
891.155	0.0149998
891.233	0.0152156
891.311	0.0152335
891.389	0.0153092
891.467	0.0153618
891.545	0.0154832
891.623	0.0155325
891.701	0.0154569
891.780	0.0154992
891.858	0.0156589
891.936	0.0155975
892.014	0.0155443
892.092	0.0156949
892.170	0.0156496
892.248	0.0156242
892.326	0.0156830
892.405	0.0155294
892.483	0.0156248
892.561	0.0156494
892.639	0.0154337
892.717	0.0155296
892.795	0.0154382
892.873	0.0154151
892.951	0.0154208
893.030	0.0153155
893.108	0.0152644
893.186	0.0153612
893.264	0.0152395
893.342	0.0151865
893.420	0.0150832
893.498	0.0150858
893.576	0.0152055
893.655	0.0149580
893.733	0.0149788
893.811	0.0150460
893.889	0.0149957
893.967	0.0150069
894.045	0.0150726
894.123	0.0150295
894.201	0.0149546
894.280	0.0149169
894.358	0.0149483
894.436	0.0151184
894.514	0.0149133
894.592	0.0148785
894.670	0.0150142
894.748	0.0150101
894.826	0.0149521
894.905	0.0151279
894.983	0.0150925
895.061	0.0151433
895.139	0.0153611
895.217	0.0152924
895.295	0.0152341
895.373	0.0152463
895.451	0.0153294
895.530	0.0153190
895.608	0.0152081
895.686	0.0153645
895.764	0.0153107
895.842	0.0153172
895.920	0.0152766
895.998	0.0153931
896.076	0.0152817
896.155	0.0151815
896.233	0.0153302
896.311	0.0153761
896.389	0.0153839
896.467	0.0152675
896.545	0.0152894
896.623	0.0151849
896.701	0.0152016
896.780	0.0152502
896.858	0.0152149
896.936	0.0152667
897.014	0.0152338
897.092	0.0150970
897.170	0.0151502
897.248	0.0151200
897.326	0.0151407
897.405	0.0150584
897.483	0.0150407
897.561	0.0151641
897.639	0.0149403
897.717	0.0150262
897.795	0.0151152
897.873	0.0150219
897.951	0.0149651
898.030	0.0150069
898.108	0.0150765
898.186	0.0151435
898.264	0.0149192
898.342	0.0150798
898.420	0.0151014
898.498	0.0150182
898.576	0.0150896
898.655	0.0152196
898.733	0.0153155
898.811	0.0152371
898.889	0.0152411
898.967	0.0153434
899.045	0.0153682
899.123	0.0153900
899.201	0.0155824
899.280	0.0154427
899.358	0.0154329
899.436	0.0155672
899.514	0.0155661
899.592	0.0156113
899.670	0.0155592
899.748	0.0155556
899.826	0.0155197
899.905	0.0154977
899.983	0.0155486
900.061	0.0156069
900.139	0.0156500
900.217	0.0154708
900.295	0.0155571
900.373	0.0155415
900.451	0.0155511
900.530	0.0155516
900.608	0.0155883
900.686	0.0154868
900.764	0.0155801
900.842	0.0156698
900.920	0.0155943
900.998	0.0154610
901.076	0.0153467
901.155	0.0153880
901.233	0.0153625
901.311	0.0154060
901.389	0.0153187
901.467	0.0153680
901.545	0.0153896
901.623	0.0154536
901.701	0.0153951
901.780	0.0153550
901.858	0.0153711
901.936	0.0153076
902.014	0.0153117
902.092	0.0153284
902.170	0.0152677
902.248	0.0152380
902.326	0.0154019
902.405	0.0153247
902.483	0.0152762
902.561	0.0152894
902.639	0.0154716
902.717	0.0151943
902.795	0.0152606
902.873	0.0152838
902.951	0.0154742
903.030	0.0153053
903.108	0.0152070
903.186	0.0152979
903.264	0.0153149
903.342	0.0152774
903.420	0.0155313
903.498	0.0154487
903.576	0.0155500
903.655	0.0155030
903.733	0.0155119
903.811	0.0153297
903.889	0.0155305
903.967	0.0155064
904.045	0.0154245
904.123	0.0154585
904.201	0.0155403
904.280	0.0154383
904.358	0.0154633
904.436	0.0154589
904.514	0.0153477
904.592	0.0154515
904.670	0.0154741
904.748	0.0153031
904.826	0.0152773
904.905	0.0153391
904.983	0.0152862
905.061	0.0152372
905.139	0.0151778
905.217	0.0152282
905.295	0.0151920
905.373	0.0152161
905.451	0.0151837
905.530	0.0151723
905.608	0.0152451
905.686	0.0152367
905.764	0.0153172
905.842	0.0150605
905.920	0.0150616
905.998	0.0151598
906.076	0.0151969
906.155	0.0151759
906.233	0.0151283
906.311	0.0153103
906.389	0.0152578
906.467	0.0152113
906.545	0.0151999
906.623	0.0153213
906.701	0.0152805
906.780	0.0153027
906.858	0.0152024
906.936	0.0152588
907.014	0.0153596
907.092	0.0153181
907.170	0.0154017
907.248	0.0153631
907.326	0.0154620
907.405	0.0152740
907.483	0.0153718
907.561	0.0153918
907.639	0.0155910
907.717	0.0152908
907.795	0.0153471
907.873	0.0154328
907.951	0.0154308
908.030	0.0153768
908.108	0.0156019
908.186	0.0156652
908.264	0.0155961
908.342	0.0155765
908.420	0.0154954
908.498	0.0155477
908.576	0.0157133
908.655	0.0156879
908.733	0.0157027
908.811	0.0155736
908.889	0.0156434
908.967	0.0155144
909.045	0.0155584
909.123	0.0155927
909.201	0.0156003
909.280	0.0155625
909.358	0.0154059
909.436	0.0155117
909.514	0.0153915
909.592	0.0152910
909.670	0.0153693
909.748	0.0153722
909.826	0.0152621
909.905	0.0153066
909.983	0.0152038
910.061	0.0152954
910.139	0.0151333
910.217	0.0151436
910.295	0.0151928
910.373	0.0151963
910.451	0.0150726
910.530	0.0152007
910.608	0.0151119
910.686	0.0150622
910.764	0.0151973
910.842	0.0151712
910.920	0.0152420
910.998	0.0152624
911.076	0.0150475
911.155	0.0152482
911.233	0.0152640
911.311	0.0151657
911.389	0.0153072
911.467	0.0152783
911.545	0.0151581
911.623	0.0151897
911.701	0.0153224
911.780	0.0153236
911.858	0.0153865
911.936	0.0151330
912.014	0.0153167
912.092	0.0153661
912.170	0.0151818
912.248	0.0153628
912.326	0.0153622
912.405	0.0151701
912.483	0.0153492
912.561	0.0153510
912.639	0.0153002
912.717	0.0153569
912.795	0.0153052
912.873	0.0151756
912.951	0.0151743
913.030	0.0152813
913.108	0.0152876
913.186	0.0153236
913.264	0.0152701
913.342	0.0152200
913.420	0.0151910
913.498	0.0153290
913.576	0.0152704
913.655	0.0151794
913.733	0.0152196
913.811	0.0152209
913.889	0.0151296
913.967	0.0151125
914.045	0.0152558
914.123	0.0152307
914.201	0.0152180
914.280	0.0153197
914.358	0.0152903
914.436	0.0152572
914.514	0.0154188
914.592	0.0153566
914.670	0.0151707
914.748	0.0153286
914.826	0.0152293
914.905	0.0150972
914.983	0.0153084
915.061	0.0151875
915.139	0.0151821
915.217	0.0152579
915.295	0.0152510
915.373	0.0152483
915.451	0.0152884
915.530	0.0152483
915.608	0.0151485
915.686	0.0153042
915.764	0.0151698
915.842	0.0152441
915.920	0.0153126
915.998	0.0152865
916.076	0.0152098
916.155	0.0152545
916.233	0.0153607
916.311	0.0153093
916.389	0.0152407
916.467	0.0154211
916.545	0.0153507
916.623	0.0155175
916.701	0.0152412
916.780	0.0154257
916.858	0.0153460
916.936	0.0154116
917.014	0.0155433
917.092	0.0154454
917.170	0.0155424
917.248	0.0153700
917.326	0.0152502
917.405	0.0153146
917.483	0.0154603
917.561	0.0153156
917.639	0.0152175
917.717	0.0154583
917.795	0.0152820
917.873	0.0151871
917.951	0.0152257
918.030	0.0152760
918.108	0.0151197
918.186	0.0152483
918.264	0.0150870
918.342	0.0151640
918.420	0.0150560
918.498	0.0150746
918.576	0.0150653
918.655	0.0150172
918.733	0.0148553
918.811	0.0149134
918.889	0.0148735
918.967	0.0149599
919.045	0.0148783
919.123	0.0148574
919.201	0.0148798
919.280	0.0149573
919.358	0.0149582
919.436	0.0149988
919.514	0.0149356
919.592	0.0150189
919.670	0.0150262
919.748	0.0150449
919.826	0.0148175
919.905	0.0151327
919.983	0.0151007
920.061	0.0151273
920.139	0.0150226
920.217	0.0150846
920.295	0.0151812
920.373	0.0150881
920.451	0.0151501
920.530	0.0152564
920.608	0.0151807
920.686	0.0151994
920.764	0.0151765
920.842	0.0152163
920.920	0.0152476
920.998	0.0151408
921.076	0.0152495
921.155	0.0152715
921.233	0.0151115
921.311	0.0152677
921.389	0.0152314
921.467	0.0153250
921.545	0.0151662
921.623	0.0151555
921.701	0.0152541
921.780	0.0153262
921.858	0.0152914
921.936	0.0151691
922.014	0.0152952
922.092	0.0152665
922.170	0.0151915
922.248	0.0152438
922.326	0.0153004
922.405	0.0152845
922.483	0.0153639
922.561	0.0152438
922.639	0.0152426
922.717	0.0151495
922.795	0.0152007
922.873	0.0151683
922.951	0.0151413
923.030	0.0150477
923.108	0.0151550
923.186	0.0150063
923.264	0.0149566
923.342	0.0151639
923.420	0.0149960
923.498	0.0150439
923.576	0.0151325
923.655	0.0151382
923.733	0.0151758
923.811	0.0151927
923.889	0.0151523
923.967	0.0151387
924.045	0.0152001
924.123	0.0153270
924.201	0.0152559
924.280	0.0154382
924.358	0.0153186
924.436	0.0153675
924.514	0.0153532
924.592	0.0152517
924.670	0.0154005
924.748	0.0153277
924.826	0.0154379
924.905	0.0153471
924.983	0.0153795
925.061	0.0154576
925.139	0.0153854
925.217	0.0154539
925.295	0.0153743
925.373	0.0154268
925.451	0.0155061
925.530	0.0153881
925.608	0.0153966
925.686	0.0154705
925.764	0.0154510
925.842	0.0153029
925.920	0.0154958
925.998	0.0154417
926.076	0.0153050
926.155	0.0154220
926.233	0.0153101
926.311	0.0151591
926.389	0.0151653
926.467	0.0151913
926.545	0.0152782
926.623	0.0150307
926.701	0.0150903
926.780	0.0150385
926.858	0.0150780
926.936	0.0150938
927.014	0.0150223
927.092	0.0150224
927.170	0.0151296
927.248	0.0150816
927.326	0.0151073
927.405	0.0151165
927.483	0.0151835
927.561	0.0150335
927.639	0.0151657
927.717	0.0152116
927.795	0.0150536
927.873	0.0152434
927.951	0.0153130
928.030	0.0152725
928.108	0.0152739
928.186	0.0153384
928.264	0.0153627
928.342	0.0153769
928.420	0.0154715
928.498	0.0153465
928.576	0.0153288
928.655	0.0154334
928.733	0.0155186
928.811	0.0155839
928.889	0.0155629
928.967	0.0155451
929.045	0.0155463
929.123	0.0154324
929.201	0.0156902
929.280	0.0156767
929.358	0.0155864
929.436	0.0156245
929.514	0.0156017
929.592	0.0155931
929.670	0.0155715
929.748	0.0153227
929.826	0.0153453
929.905	0.0154148
929.983	0.0154089
930.061	0.0153223
930.139	0.0152067
930.217	0.0152489
930.295	0.0151328
930.373	0.0151469
930.451	0.0152267
930.530	0.0151703
930.608	0.0150050
930.686	0.0149957
930.764	0.0151270
930.842	0.0151766
930.920	0.0150967
930.998	0.0152031
931.076	0.0152707
931.155	0.0150685
931.233	0.0151075
931.311	0.0151868
931.389	0.0150816
931.467	0.0152439
931.545	0.0154224
931.623	0.0152761
931.701	0.0152676
931.780	0.0154686
931.858	0.0154852
931.936	0.0153481
932.014	0.0153401
932.092	0.0153617
932.170	0.0154968
932.248	0.0153394
932.326	0.0153177
932.405	0.0153860
932.483	0.0153938
932.561	0.0154273
932.639	0.0154919
932.717	0.0153806
932.795	0.0154314
932.873	0.0153951
932.951	0.0154251
933.030	0.0153792
933.108	0.0154066
933.186	0.0153600
933.264	0.0155280
933.342	0.0154021
933.420	0.0153145
933.498	0.0153487
933.576	0.0154315
933.655	0.0153345
933.733	0.0153598
933.811	0.0152560
933.889	0.0153759
933.967	0.0154819
934.045	0.0152655
934.123	0.0154258
934.201	0.0152369
934.280	0.0153107
934.358	0.0152329
934.436	0.0153603
934.514	0.0154515
934.592	0.0153439
934.670	0.0152605
934.748	0.0152168
934.826	0.0153271
934.905	0.0151862
934.983	0.0152554
935.061	0.0153362
935.139	0.0152094
935.217	0.0151061
935.295	0.0153254
935.373	0.0153438
935.451	0.0150845
935.530	0.0152003
935.608	0.0151820
935.686	0.0151911
935.764	0.0152869
935.842	0.0152228
935.920	0.0153892
935.998	0.0152906
936.076	0.0151198
936.155	0.0151836
936.233	0.0151878
936.311	0.0152710
936.389	0.0152068
936.467	0.0152170
936.545	0.0153039
936.623	0.0153719
936.701	0.0153049
936.780	0.0154018
936.858	0.0153761
936.936	0.0153706
937.014	0.0154652
937.092	0.0154611
937.170	0.0153422
937.248	0.0153014
937.326	0.0153484
937.405	0.0154560
937.483	0.0153911
937.561	0.0153457
937.639	0.0153390
937.717	0.0153177
937.795	0.0154281
937.873	0.0153630
937.951	0.0152780
938.030	0.0153212
938.108	0.0153832
938.186	0.0152801
938.264	0.0150757
938.342	0.0151305
938.420	0.0151654
938.498	0.0150877
938.576	0.0150185
938.655	0.0151746
938.733	0.0150975
938.811	0.0150223
938.889	0.0151414
938.967	0.0150658
939.045	0.0151116
939.123	0.0150941
939.201	0.0150153
939.280	0.0150493
939.358	0.0151885
939.436	0.0152051
939.514	0.0151514
939.592	0.0152108
939.670	0.0151953
939.748	0.0152682
939.826	0.0150778
939.905	0.0151273
939.983	0.0152557
940.061	0.0150518
940.139	0.0153238
940.217	0.0151379
940.295	0.0152021
940.373	0.0151135
940.451	0.0152486
940.530	0.0150835
940.608	0.0150840
940.686	0.0150443
940.764	0.0151311
940.842	0.0150446
940.920	0.0150531
940.998	0.0151268
941.076	0.0149770
941.155	0.0151203
941.233	0.0151658
941.311	0.0151569
941.389	0.0150587
941.467	0.0150963
941.545	0.0150497
941.623	0.0151411
941.701	0.0151793
941.780	0.0150404
941.858	0.0149509
941.936	0.0150176
942.014	0.0150422
942.092	0.0150536
942.170	0.0151357
942.248	0.0151721
942.326	0.0152524
942.405	0.0152237
942.483	0.0150189
942.561	0.0152084
942.639	0.0151216
942.717	0.0151198
942.795	0.0150744
942.873	0.0152799
942.951	0.0151451
943.030	0.0151535
943.108	0.0152937
943.186	0.0151890
943.264	0.0150945
943.342	0.0152141
943.420	0.0151103
943.498	0.0151520
943.576	0.0151765
943.655	0.0151219
943.733	0.0150834
943.811	0.0151770
943.889	0.0151587
943.967	0.0150600
944.045	0.0151902
944.123	0.0152999
944.201	0.0151479
944.280	0.0152563
944.358	0.0153148
944.436	0.0152015
944.514	0.0151917
944.592	0.0153074
944.670	0.0152824
944.748	0.0151551
944.826	0.0151479
944.905	0.0153236
944.983	0.0153529
945.061	0.0152855
945.139	0.0152628
945.217	0.0153214
945.295	0.0153754
945.373	0.0151421
945.451	0.0153139
945.530	0.0152966
945.608	0.0154179
945.686	0.0152987
945.764	0.0152921
945.842	0.0153983
945.920	0.0152435
945.998	0.0150596
946.076	0.0152584
946.155	0.0153192
946.233	0.0153470
946.311	0.0153983
946.389	0.0154424
946.467	0.0152148
946.545	0.0152116
946.623	0.0152685
946.701	0.0151738
946.780	0.0151740
946.858	0.0152272
946.936	0.0152379
947.014	0.0153162
947.092	0.0153933
947.170	0.0152533
947.248	0.0151958
947.326	0.0152439
947.405	0.0153400
947.483	0.0153785
947.561	0.0153226
947.639	0.0153522
947.717	0.0154501
947.795	0.0154957
947.873	0.0154192
947.951	0.0153732
948.030	0.0152894
948.108	0.0152745
948.186	0.0152503
948.264	0.0152673
948.342	0.0153166
948.420	0.0152272
948.498	0.0152283
948.576	0.0153470
948.655	0.0152126
948.733	0.0152232
948.811	0.0151817
948.889	0.0151180
948.967	0.0151517
949.045	0.0152251
949.123	0.0151672
949.201	0.0152361
949.280	0.0151055
949.358	0.0151540
949.436	0.0152597
949.514	0.0153297
949.592	0.0152659
949.670	0.0153532
949.748	0.0153515
949.826	0.0152773
949.905	0.0154015
949.983	0.0152920
950.061	0.0152644
950.139	0.0152553
950.217	0.0152935
950.295	0.0153294
950.373	0.0152206
950.451	0.0151840
950.530	0.0152521
950.608	0.0153420
950.686	0.0152443
950.764	0.0152918
950.842	0.0152808
950.920	0.0151260
950.998	0.0152888
951.076	0.0152970
951.155	0.0153490
951.233	0.0153497
951.311	0.0152885
951.389	0.0153982
951.467	0.0153991
951.545	0.0153494
951.623	0.0154024
951.701	0.0152728
951.780	0.0153806
951.858	0.0153452
951.936	0.0154626
952.014	0.0153975
952.092	0.0152434
952.170	0.0153912
952.248	0.0153862
952.326	0.0154105
952.405	0.0154224
952.483	0.0155483
952.561	0.0153745
952.639	0.0152884
952.717	0.0154427
952.795	0.0153232
952.873	0.0153607
952.951	0.0152928
953.030	0.0153968
953.108	0.0154713
953.186	0.0153285
953.264	0.0153871
953.342	0.0153543
953.420	0.0154723
953.498	0.0153179
953.576	0.0154180
953.655	0.0153706
953.733	0.0154334
953.811	0.0154768
953.889	0.0154885
953.967	0.0152951
954.045	0.0152962
954.123	0.0154444
954.201	0.0154795
954.280	0.0153777
954.358	0.0152718
954.436	0.0153154
954.514	0.0151586
954.592	0.0152590
954.670	0.0153012
954.748	0.0152096
954.826	0.0152136
954.905	0.0152642
954.983	0.0153024
955.061	0.0152354
955.139	0.0151301
955.217	0.0151394
955.295	0.0151763
955.373	0.0151851
955.451	0.0152415
955.530	0.0151582
955.608	0.0151421
955.686	0.0150729
955.764	0.0152317
955.842	0.0150980
955.920	0.0152303
955.998	0.0152712
956.076	0.0151112
956.155	0.0152144
956.233	0.0151817
956.311	0.0152325
956.389	0.0152699
956.467	0.0151944
956.545	0.0151511
956.623	0.0150340
956.701	0.0151615
956.780	0.0150497
956.858	0.0151344
956.936	0.0150690
957.014	0.0151102
957.092	0.0152547
957.170	0.0151226
957.248	0.0152209
957.326	0.0151959
957.405	0.0152380
957.483	0.0151921
957.561	0.0152780
957.639	0.0153778
957.717	0.0154150
957.795	0.0153521
957.873	0.0153596
957.951	0.0153520
958.030	0.0154969
958.108	0.0155545
958.186	0.0154549
958.264	0.0153590
958.342	0.0155310
958.420	0.0156116
958.498	0.0154112
958.576	0.0154368
958.655	0.0153522
958.733	0.0153979
958.811	0.0154652
958.889	0.0153027
958.967	0.0152871
959.045	0.0153152
959.123	0.0152919
959.201	0.0154144
959.280	0.0155538
959.358	0.0154226
959.436	0.0154669
959.514	0.0153810
959.592	0.0153902
959.670	0.0154635
959.748	0.0155014
959.826	0.0153583
959.905	0.0154082
