05/17/2022	16:57:39	Ver.	4.1	UNKNOWN
Optical Delay	639.982744	Delta X		0.078125	Sweeps	1	Scan Rate	0/0
Coordinates	Axis 1	NaN	Axis 2	NaN	Axis 3	NaN	Axis 4	NaN	Axis 5	NaN	Axis 6	0.000000
TX Power	0.000000	RX Power	0.000000

639.983	0.0154072
640.061	0.0152851
640.139	0.0153806
640.217	0.0154911
640.295	0.0154943
640.373	0.0155206
640.451	0.0155249
640.530	0.0154006
640.608	0.0154787
640.686	0.0153963
640.764	0.0154581
640.842	0.0154494
640.920	0.0154943
640.998	0.0153995
641.076	0.0154099
641.155	0.0155420
641.233	0.0154720
641.311	0.0155200
641.389	0.0154787
641.467	0.0154827
641.545	0.0155113
641.623	0.0155764
641.701	0.0155775
641.780	0.0153747
641.858	0.0154682
641.936	0.0155492
642.014	0.0154623
642.092	0.0155042
642.170	0.0155015
642.248	0.0156017
642.326	0.0155148
642.405	0.0153901
642.483	0.0154197
642.561	0.0154427
642.639	0.0154803
642.717	0.0154771
642.795	0.0155698
642.873	0.0157464
642.951	0.0156670
643.030	0.0156505
643.108	0.0155871
643.186	0.0155902
643.264	0.0155499
643.342	0.0156274
643.420	0.0155675
643.498	0.0155562
643.576	0.0156110
643.655	0.0155900
643.733	0.0154317
643.811	0.0157011
643.889	0.0156087
643.967	0.0155896
644.045	0.0155817
644.123	0.0156474
644.201	0.0155925
644.280	0.0155480
644.358	0.0155830
644.436	0.0155723
644.514	0.0156062
644.592	0.0156045
644.670	0.0155328
644.748	0.0154518
644.826	0.0156148
644.905	0.0155088
644.983	0.0154819
645.061	0.0155910
645.139	0.0155038
645.217	0.0154230
645.295	0.0155685
645.373	0.0154356
645.451	0.0154813
645.530	0.0156789
645.608	0.0156653
645.686	0.0155318
645.764	0.0155569
645.842	0.0155312
645.920	0.0154066
645.998	0.0154839
646.076	0.0154800
646.155	0.0155706
646.233	0.0155776
646.311	0.0156611
646.389	0.0156465
646.467	0.0155602
646.545	0.0155443
646.623	0.0155139
646.701	0.0154963
646.780	0.0154939
646.858	0.0155928
646.936	0.0156732
647.014	0.0155102
647.092	0.0153281
647.170	0.0155363
647.248	0.0154816
647.326	0.0153130
647.405	0.0153878
647.483	0.0154634
647.561	0.0154996
647.639	0.0156110
647.717	0.0154295
647.795	0.0154880
647.873	0.0154839
647.951	0.0154472
648.030	0.0155168
648.108	0.0156526
648.186	0.0156084
648.264	0.0156932
648.342	0.0156492
648.420	0.0155402
648.498	0.0156262
648.576	0.0157330
648.655	0.0157281
648.733	0.0157378
648.811	0.0155323
648.889	0.0157156
648.967	0.0157057
649.045	0.0154362
649.123	0.0155663
649.201	0.0155495
649.280	0.0155421
649.358	0.0155433
649.436	0.0154620
649.514	0.0154020
649.592	0.0154852
649.670	0.0154912
649.748	0.0154583
649.826	0.0155209
649.905	0.0154822
649.983	0.0156004
650.061	0.0157236
650.139	0.0156328
650.217	0.0155062
650.295	0.0155463
650.373	0.0154878
650.451	0.0156233
650.530	0.0156175
650.608	0.0155190
650.686	0.0155508
650.764	0.0157272
650.842	0.0158492
650.920	0.0156205
650.998	0.0156795
651.076	0.0155875
651.155	0.0157486
651.233	0.0156208
651.311	0.0156306
651.389	0.0157555
651.467	0.0156270
651.545	0.0154480
651.623	0.0155440
651.701	0.0156313
651.780	0.0155112
651.858	0.0153676
651.936	0.0154917
652.014	0.0154389
652.092	0.0153978
652.170	0.0155180
652.248	0.0155208
652.326	0.0154094
652.405	0.0154619
652.483	0.0154234
652.561	0.0154187
652.639	0.0153596
652.717	0.0155570
652.795	0.0155750
652.873	0.0153696
652.951	0.0156568
653.030	0.0154877
653.108	0.0154759
653.186	0.0155991
653.264	0.0155898
653.342	0.0156322
653.420	0.0154713
653.498	0.0155209
653.576	0.0154743
653.655	0.0156448
653.733	0.0156555
653.811	0.0155704
653.889	0.0155930
653.967	0.0155232
654.045	0.0154438
654.123	0.0153246
654.201	0.0153600
654.280	0.0152980
654.358	0.0152019
654.436	0.0152707
654.514	0.0153255
654.592	0.0153944
654.670	0.0153132
654.748	0.0151927
654.826	0.0154212
654.905	0.0152422
654.983	0.0154363
655.061	0.0153430
655.139	0.0154083
655.217	0.0155070
655.295	0.0155278
655.373	0.0155358
655.451	0.0155878
655.530	0.0154928
655.608	0.0155276
655.686	0.0155237
655.764	0.0156037
655.842	0.0156902
655.920	0.0156883
655.998	0.0156013
656.076	0.0156065
656.155	0.0155195
656.233	0.0155293
656.311	0.0154819
656.389	0.0155557
656.467	0.0155656
656.545	0.0155325
656.623	0.0154852
656.701	0.0155933
656.780	0.0155125
656.858	0.0156319
656.936	0.0155550
657.014	0.0155028
657.092	0.0154937
657.170	0.0156129
657.248	0.0155588
657.326	0.0156978
657.405	0.0156301
657.483	0.0156227
657.561	0.0156967
657.639	0.0156703
657.717	0.0156074
657.795	0.0156824
657.873	0.0155710
657.951	0.0155785
658.030	0.0155675
658.108	0.0156903
658.186	0.0156067
658.264	0.0156106
658.342	0.0156517
658.420	0.0155865
658.498	0.0156689
658.576	0.0156815
658.655	0.0155904
658.733	0.0155956
658.811	0.0155877
658.889	0.0154517
658.967	0.0154569
659.045	0.0154942
659.123	0.0155573
659.201	0.0155062
659.280	0.0154712
659.358	0.0154888
659.436	0.0155007
659.514	0.0154221
659.592	0.0155400
659.670	0.0155354
659.748	0.0154140
659.826	0.0153333
659.905	0.0153490
659.983	0.0153263
660.061	0.0155040
660.139	0.0153849
660.217	0.0152937
660.295	0.0153446
660.373	0.0153758
660.451	0.0152497
660.530	0.0151889
660.608	0.0153809
660.686	0.0153685
660.764	0.0152275
660.842	0.0152506
660.920	0.0152790
660.998	0.0151492
661.076	0.0152269
661.155	0.0151960
661.233	0.0151186
661.311	0.0151839
661.389	0.0150346
661.467	0.0151260
661.545	0.0151246
661.623	0.0151300
661.701	0.0151476
661.780	0.0149917
661.858	0.0151675
661.936	0.0151125
662.014	0.0151681
662.092	0.0151323
662.170	0.0152951
662.248	0.0151823
662.326	0.0152723
662.405	0.0154111
662.483	0.0152826
662.561	0.0154890
662.639	0.0155211
662.717	0.0155440
662.795	0.0156054
662.873	0.0158056
662.951	0.0156617
663.030	0.0156464
663.108	0.0157489
663.186	0.0156036
663.264	0.0157301
663.342	0.0156506
663.420	0.0156370
663.498	0.0157754
663.576	0.0157281
663.655	0.0156036
663.733	0.0156495
663.811	0.0156687
663.889	0.0155909
663.967	0.0156777
664.045	0.0156226
664.123	0.0155724
664.201	0.0157399
664.280	0.0156252
664.358	0.0156593
664.436	0.0155170
664.514	0.0157809
664.592	0.0157542
664.670	0.0156413
664.748	0.0157115
664.826	0.0156786
664.905	0.0156210
664.983	0.0156422
665.061	0.0156466
665.139	0.0155949
665.217	0.0157921
665.295	0.0157299
665.373	0.0157155
665.451	0.0159081
665.530	0.0157364
665.608	0.0156447
665.686	0.0156816
665.764	0.0156400
665.842	0.0155608
665.920	0.0156622
665.998	0.0156576
666.076	0.0156002
666.155	0.0155650
666.233	0.0155431
666.311	0.0155544
666.389	0.0157030
666.467	0.0156290
666.545	0.0154881
666.623	0.0154768
666.701	0.0155538
666.780	0.0156437
666.858	0.0154659
666.936	0.0155259
667.014	0.0154573
667.092	0.0155905
667.170	0.0156224
667.248	0.0156381
667.326	0.0156813
667.405	0.0157000
667.483	0.0157761
667.561	0.0157304
667.639	0.0155273
667.717	0.0154354
667.795	0.0156834
667.873	0.0156750
667.951	0.0157157
668.030	0.0155896
668.108	0.0156290
668.186	0.0156542
668.264	0.0154955
668.342	0.0154417
668.420	0.0154665
668.498	0.0154366
668.576	0.0153778
668.655	0.0154401
668.733	0.0155200
668.811	0.0153934
668.889	0.0154675
668.967	0.0155674
669.045	0.0154204
669.123	0.0154453
669.201	0.0155920
669.280	0.0154781
669.358	0.0154897
669.436	0.0154946
669.514	0.0156721
669.592	0.0157533
669.670	0.0156145
669.748	0.0156076
669.826	0.0155827
669.905	0.0157286
669.983	0.0155837
670.061	0.0154928
670.139	0.0154409
670.217	0.0153899
670.295	0.0153804
670.373	0.0152708
670.451	0.0152829
670.530	0.0151604
670.608	0.0150822
670.686	0.0151184
670.764	0.0152003
670.842	0.0151738
670.920	0.0150901
670.998	0.0151866
671.076	0.0152578
671.155	0.0153071
671.233	0.0153320
671.311	0.0154930
671.389	0.0154825
671.467	0.0154533
671.545	0.0154453
671.623	0.0155952
671.701	0.0155999
671.780	0.0158142
671.858	0.0156512
671.936	0.0157806
672.014	0.0156970
672.092	0.0159129
672.170	0.0158791
672.248	0.0157826
672.326	0.0157943
672.405	0.0158788
672.483	0.0156964
672.561	0.0158572
672.639	0.0156938
672.717	0.0157843
672.795	0.0156525
672.873	0.0156264
672.951	0.0157170
673.030	0.0156103
673.108	0.0154520
673.186	0.0154510
673.264	0.0154774
673.342	0.0154235
673.420	0.0151961
673.498	0.0153980
673.576	0.0152837
673.655	0.0153753
673.733	0.0153564
673.811	0.0154182
673.889	0.0153752
673.967	0.0153365
674.045	0.0154279
674.123	0.0154861
674.201	0.0155332
674.280	0.0155023
674.358	0.0155229
674.436	0.0155946
674.514	0.0156298
674.592	0.0157122
674.670	0.0156364
674.748	0.0157006
674.826	0.0158163
674.905	0.0159101
674.983	0.0159700
675.061	0.0159479
675.139	0.0160390
675.217	0.0161080
675.295	0.0160170
675.373	0.0162350
675.451	0.0161520
675.530	0.0161811
675.608	0.0161423
675.686	0.0161776
675.764	0.0159621
675.842	0.0159393
675.920	0.0159122
675.998	0.0158083
676.076	0.0156274
676.155	0.0155019
676.233	0.0154191
676.311	0.0154807
676.389	0.0152829
676.467	0.0152515
676.545	0.0150136
676.623	0.0150694
676.701	0.0151749
676.780	0.0151812
676.858	0.0151396
676.936	0.0152192
677.014	0.0152561
677.092	0.0152888
677.170	0.0153540
677.248	0.0154888
677.326	0.0154942
677.405	0.0155770
677.483	0.0155054
677.561	0.0155859
677.639	0.0155531
677.717	0.0154720
677.795	0.0153731
677.873	0.0154080
677.951	0.0151351
678.030	0.0150949
678.108	0.0150043
678.186	0.0150002
678.264	0.0149706
678.342	0.0149640
678.420	0.0149200
678.498	0.0149841
678.576	0.0148279
678.655	0.0149168
678.733	0.0147565
678.811	0.0148383
678.889	0.0150626
678.967	0.0151128
679.045	0.0151268
679.123	0.0152319
679.201	0.0153098
679.280	0.0154565
679.358	0.0155326
679.436	0.0154561
679.514	0.0155764
679.592	0.0157603
679.670	0.0158612
679.748	0.0159614
679.826	0.0159483
679.905	0.0159334
679.983	0.0161718
680.061	0.0161852
680.139	0.0161983
680.217	0.0162021
680.295	0.0162054
680.373	0.0162424
680.451	0.0162045
680.530	0.0160548
680.608	0.0160222
680.686	0.0159473
680.764	0.0159957
680.842	0.0159112
680.920	0.0157592
680.998	0.0158398
681.076	0.0157482
681.155	0.0155111
681.233	0.0153886
681.311	0.0153329
681.389	0.0151678
681.467	0.0150476
681.545	0.0150802
681.623	0.0150462
681.701	0.0150060
681.780	0.0148226
681.858	0.0148400
681.936	0.0148279
682.014	0.0146096
682.092	0.0145741
682.170	0.0146337
682.248	0.0147363
682.326	0.0145745
682.405	0.0145885
682.483	0.0145322
682.561	0.0146635
682.639	0.0146381
682.717	0.0146844
682.795	0.0147293
682.873	0.0148029
682.951	0.0148035
683.030	0.0148085
683.108	0.0149560
683.186	0.0150730
683.264	0.0151504
683.342	0.0152830
683.420	0.0153206
683.498	0.0155170
683.576	0.0155692
683.655	0.0156353
683.733	0.0157891
683.811	0.0159039
683.889	0.0159196
683.967	0.0162334
684.045	0.0162457
684.123	0.0164201
684.201	0.0165578
684.280	0.0166286
684.358	0.0167857
684.436	0.0169795
684.514	0.0168881
684.592	0.0168699
684.670	0.0168997
684.748	0.0169196
684.826	0.0169788
684.905	0.0168191
684.983	0.0167278
685.061	0.0166235
685.139	0.0162843
685.217	0.0162298
685.295	0.0159875
685.373	0.0158428
685.451	0.0153067
685.530	0.0151190
685.608	0.0150847
685.686	0.0149278
685.764	0.0145470
685.842	0.0143700
685.920	0.0143808
685.998	0.0142218
686.076	0.0141771
686.155	0.0141261
686.233	0.0140720
686.311	0.0141036
686.389	0.0143372
686.467	0.0144082
686.545	0.0144360
686.623	0.0145567
686.701	0.0146442
686.780	0.0147601
686.858	0.0150707
686.936	0.0150654
687.014	0.0153812
687.092	0.0154353
687.170	0.0155254
687.248	0.0159223
687.326	0.0159306
687.405	0.0160030
687.483	0.0160965
687.561	0.0161593
687.639	0.0163689
687.717	0.0164563
687.795	0.0164555
687.873	0.0165663
687.951	0.0164051
688.030	0.0164597
688.108	0.0164882
688.186	0.0164701
688.264	0.0163153
688.342	0.0161913
688.420	0.0161158
688.498	0.0160319
688.576	0.0159084
688.655	0.0158199
688.733	0.0155638
688.811	0.0155585
688.889	0.0153043
688.967	0.0152506
689.045	0.0151927
689.123	0.0152097
689.201	0.0151337
689.280	0.0150393
689.358	0.0150838
689.436	0.0150033
689.514	0.0150702
689.592	0.0152146
689.670	0.0151034
689.748	0.0152967
689.826	0.0153211
689.905	0.0152355
689.983	0.0155003
690.061	0.0152872
690.139	0.0154361
690.217	0.0155868
690.295	0.0156253
690.373	0.0157416
690.451	0.0157314
690.530	0.0156689
690.608	0.0159901
690.686	0.0159612
690.764	0.0159424
690.842	0.0160195
690.920	0.0159911
690.998	0.0162018
691.076	0.0159560
691.155	0.0159575
691.233	0.0161705
691.311	0.0161459
691.389	0.0161278
691.467	0.0161328
691.545	0.0161952
691.623	0.0160181
691.701	0.0159521
691.780	0.0160704
691.858	0.0161404
691.936	0.0160857
692.014	0.0159321
692.092	0.0159730
692.170	0.0156604
692.248	0.0158340
692.326	0.0155614
692.405	0.0155650
692.483	0.0152837
692.561	0.0151971
692.639	0.0152404
692.717	0.0152135
692.795	0.0149806
692.873	0.0149787
692.951	0.0148379
693.030	0.0148727
693.108	0.0147831
693.186	0.0148611
693.264	0.0148751
693.342	0.0148813
693.420	0.0149478
693.498	0.0147886
693.576	0.0150456
693.655	0.0150714
693.733	0.0149667
693.811	0.0151198
693.889	0.0151168
693.967	0.0151812
694.045	0.0151981
694.123	0.0151286
694.201	0.0152346
694.280	0.0154555
694.358	0.0155364
694.436	0.0155130
694.514	0.0156094
694.592	0.0157030
694.670	0.0156687
694.748	0.0158185
694.826	0.0158088
694.905	0.0159055
694.983	0.0159629
695.061	0.0158925
695.139	0.0160005
695.217	0.0158876
695.295	0.0158601
695.373	0.0159206
695.451	0.0157791
695.530	0.0158459
695.608	0.0158588
695.686	0.0158318
695.764	0.0157410
695.842	0.0157883
695.920	0.0156999
695.998	0.0156779
696.076	0.0157050
696.155	0.0156200
696.233	0.0156111
696.311	0.0156638
696.389	0.0157050
696.467	0.0155026
696.545	0.0156834
696.623	0.0156865
696.701	0.0154366
696.780	0.0154449
696.858	0.0155989
696.936	0.0155839
697.014	0.0155152
697.092	0.0155782
697.170	0.0155532
697.248	0.0156773
697.326	0.0155690
697.405	0.0156078
697.483	0.0155788
697.561	0.0155371
697.639	0.0155543
697.717	0.0154991
697.795	0.0154925
697.873	0.0155444
697.951	0.0155010
698.030	0.0154313
698.108	0.0153516
698.186	0.0153299
698.264	0.0153470
698.342	0.0152766
698.420	0.0151902
698.498	0.0152861
698.576	0.0152546
698.655	0.0154445
698.733	0.0151463
698.811	0.0151738
698.889	0.0151582
698.967	0.0151527
699.045	0.0152021
699.123	0.0153242
699.201	0.0152760
699.280	0.0151336
699.358	0.0152371
699.436	0.0153324
699.514	0.0154367
699.592	0.0155352
699.670	0.0154485
699.748	0.0156174
699.826	0.0156082
699.905	0.0157587
699.983	0.0158990
700.061	0.0158168
700.139	0.0157838
700.217	0.0158529
700.295	0.0158455
700.373	0.0158476
700.451	0.0158652
700.530	0.0157529
700.608	0.0158025
700.686	0.0157619
700.764	0.0155711
700.842	0.0156567
700.920	0.0154905
700.998	0.0154714
701.076	0.0153712
701.155	0.0153111
701.233	0.0153129
701.311	0.0152849
701.389	0.0154449
701.467	0.0152582
701.545	0.0151265
701.623	0.0152867
701.701	0.0152131
701.780	0.0151849
701.858	0.0153192
701.936	0.0152181
702.014	0.0149702
702.092	0.0151292
702.170	0.0152300
702.248	0.0151498
702.326	0.0149645
702.405	0.0150832
702.483	0.0152172
702.561	0.0153704
702.639	0.0152924
702.717	0.0152921
702.795	0.0154689
702.873	0.0155883
702.951	0.0156524
703.030	0.0156651
703.108	0.0158697
703.186	0.0159118
703.264	0.0160033
703.342	0.0161001
703.420	0.0160097
703.498	0.0161358
703.576	0.0160970
703.655	0.0162760
703.733	0.0160659
703.811	0.0161157
703.889	0.0161475
703.967	0.0160622
704.045	0.0160220
704.123	0.0160994
704.201	0.0159013
704.280	0.0159785
704.358	0.0157848
704.436	0.0158811
704.514	0.0159228
704.592	0.0157980
704.670	0.0157629
704.748	0.0156913
704.826	0.0157298
704.905	0.0157489
704.983	0.0157560
705.061	0.0154613
705.139	0.0153732
705.217	0.0154450
705.295	0.0153714
705.373	0.0153517
705.451	0.0151182
705.530	0.0149770
705.608	0.0147907
705.686	0.0147394
705.764	0.0146677
705.842	0.0147661
705.920	0.0146642
705.998	0.0147277
706.076	0.0148505
706.155	0.0149046
706.233	0.0149341
706.311	0.0150220
706.389	0.0151471
706.467	0.0152860
706.545	0.0154449
706.623	0.0157255
706.701	0.0159776
706.780	0.0161628
706.858	0.0162623
706.936	0.0163084
707.014	0.0162968
707.092	0.0164264
707.170	0.0165610
707.248	0.0165240
707.326	0.0165292
707.405	0.0164675
707.483	0.0165523
707.561	0.0163258
707.639	0.0164590
707.717	0.0162849
707.795	0.0161243
707.873	0.0160175
707.951	0.0158994
708.030	0.0158730
708.108	0.0157562
708.186	0.0155125
708.264	0.0153793
708.342	0.0152521
708.420	0.0151939
708.498	0.0151355
708.576	0.0150826
708.655	0.0151054
708.733	0.0151007
708.811	0.0150165
708.889	0.0151046
708.967	0.0150030
709.045	0.0149591
709.123	0.0151694
709.201	0.0149297
709.280	0.0150578
709.358	0.0150822
709.436	0.0151043
709.514	0.0150691
709.592	0.0149902
709.670	0.0151956
709.748	0.0153159
709.826	0.0150872
709.905	0.0152862
709.983	0.0153027
710.061	0.0152584
710.139	0.0154327
710.217	0.0154563
710.295	0.0154160
710.373	0.0155070
710.451	0.0154901
710.530	0.0155346
710.608	0.0154665
710.686	0.0155061
710.764	0.0153712
710.842	0.0154687
710.920	0.0156036
710.998	0.0155809
711.076	0.0156727
711.155	0.0158450
711.233	0.0158241
711.311	0.0156435
711.389	0.0158630
711.467	0.0160506
711.545	0.0159499
711.623	0.0161735
711.701	0.0160735
711.780	0.0161723
711.858	0.0161972
711.936	0.0161880
712.014	0.0162397
712.092	0.0162709
712.170	0.0162711
712.248	0.0163911
712.326	0.0163362
712.405	0.0162485
712.483	0.0163282
712.561	0.0161837
712.639	0.0161632
712.717	0.0161159
712.795	0.0160555
712.873	0.0160571
712.951	0.0161122
713.030	0.0158584
713.108	0.0158845
713.186	0.0158479
713.264	0.0157932
713.342	0.0157157
713.420	0.0156532
713.498	0.0155730
713.576	0.0154919
713.655	0.0153554
713.733	0.0152131
713.811	0.0151482
713.889	0.0150548
713.967	0.0148058
714.045	0.0147911
714.123	0.0146849
714.201	0.0147823
714.280	0.0145531
714.358	0.0145303
714.436	0.0144847
714.514	0.0145620
714.592	0.0145116
714.670	0.0144926
714.748	0.0145533
714.826	0.0145262
714.905	0.0146922
714.983	0.0147782
715.061	0.0148001
715.139	0.0149060
715.217	0.0149423
715.295	0.0149518
715.373	0.0152465
715.451	0.0153142
715.530	0.0153604
715.608	0.0154302
715.686	0.0154671
715.764	0.0156557
715.842	0.0155406
715.920	0.0157536
715.998	0.0158358
716.076	0.0157089
716.155	0.0158147
716.233	0.0159826
716.311	0.0161395
716.389	0.0159482
716.467	0.0160342
716.545	0.0160444
716.623	0.0160729
716.701	0.0159573
716.780	0.0159652
716.858	0.0158582
716.936	0.0157756
717.014	0.0156789
717.092	0.0156538
717.170	0.0155743
717.248	0.0155029
717.326	0.0155705
717.405	0.0154929
717.483	0.0154646
717.561	0.0155939
717.639	0.0154994
717.717	0.0156662
717.795	0.0158333
717.873	0.0158121
717.951	0.0158311
718.030	0.0157673
718.108	0.0159987
718.186	0.0159857
718.264	0.0161798
718.342	0.0160976
718.420	0.0161759
718.498	0.0162027
718.576	0.0160860
718.655	0.0161234
718.733	0.0160168
718.811	0.0158085
718.889	0.0158228
718.967	0.0158215
719.045	0.0157185
719.123	0.0155736
719.201	0.0152999
719.280	0.0152052
719.358	0.0152621
719.436	0.0153641
719.514	0.0152784
719.592	0.0150008
719.670	0.0150684
719.748	0.0150475
719.826	0.0151707
719.905	0.0150847
719.983	0.0150181
720.061	0.0150896
720.139	0.0150587
720.217	0.0151315
720.295	0.0150987
720.373	0.0150896
720.451	0.0150668
720.530	0.0151402
720.608	0.0151621
720.686	0.0151359
720.764	0.0151640
720.842	0.0151389
720.920	0.0151618
720.998	0.0151802
721.076	0.0151665
721.155	0.0152023
721.233	0.0152142
721.311	0.0150504
721.389	0.0152641
721.467	0.0154301
721.545	0.0151682
721.623	0.0152794
721.701	0.0154435
721.780	0.0152638
721.858	0.0154250
721.936	0.0153973
722.014	0.0152997
722.092	0.0152437
722.170	0.0153042
722.248	0.0154372
722.326	0.0154101
722.405	0.0153723
722.483	0.0152113
722.561	0.0153178
722.639	0.0154025
722.717	0.0153821
722.795	0.0154110
722.873	0.0155604
722.951	0.0156687
723.030	0.0156689
723.108	0.0155267
723.186	0.0157345
723.264	0.0158724
723.342	0.0156991
723.420	0.0157941
723.498	0.0158871
723.576	0.0157388
723.655	0.0158604
723.733	0.0157571
723.811	0.0156207
723.889	0.0156437
723.967	0.0156854
724.045	0.0157994
724.123	0.0158495
724.201	0.0156696
724.280	0.0156411
724.358	0.0158445
724.436	0.0158414
724.514	0.0159064
724.592	0.0158918
724.670	0.0161057
724.748	0.0159569
724.826	0.0157971
724.905	0.0158004
724.983	0.0158113
725.061	0.0157539
725.139	0.0157895
725.217	0.0156211
725.295	0.0154560
725.373	0.0155898
725.451	0.0153902
725.530	0.0154642
725.608	0.0152791
725.686	0.0152082
725.764	0.0153716
725.842	0.0152953
725.920	0.0151892
725.998	0.0152190
726.076	0.0152654
726.155	0.0153944
726.233	0.0153895
726.311	0.0152925
726.389	0.0153323
726.467	0.0153032
726.545	0.0153584
726.623	0.0154054
726.701	0.0154681
726.780	0.0154292
726.858	0.0154562
726.936	0.0153970
727.014	0.0154187
727.092	0.0153252
727.170	0.0153039
727.248	0.0152864
727.326	0.0152665
727.405	0.0153325
727.483	0.0152530
727.561	0.0153084
727.639	0.0153719
727.717	0.0152970
727.795	0.0153256
727.873	0.0154439
727.951	0.0154723
728.030	0.0155885
728.108	0.0155836
728.186	0.0155588
728.264	0.0156829
728.342	0.0158291
728.420	0.0155862
728.498	0.0157447
728.576	0.0157677
728.655	0.0156002
728.733	0.0156419
728.811	0.0155255
728.889	0.0154717
728.967	0.0154767
729.045	0.0153888
729.123	0.0154073
729.201	0.0154414
729.280	0.0155654
729.358	0.0155887
729.436	0.0156616
729.514	0.0155633
729.592	0.0155515
729.670	0.0154797
729.748	0.0155610
729.826	0.0155320
729.905	0.0154836
729.983	0.0154932
730.061	0.0154408
730.139	0.0154519
730.217	0.0154740
730.295	0.0154023
730.373	0.0151859
730.451	0.0154179
730.530	0.0153290
730.608	0.0153814
730.686	0.0153143
730.764	0.0153908
730.842	0.0153742
730.920	0.0154153
730.998	0.0154498
731.076	0.0154210
731.155	0.0154285
731.233	0.0155001
731.311	0.0155952
731.389	0.0156674
731.467	0.0156625
731.545	0.0157445
731.623	0.0156746
731.701	0.0157848
731.780	0.0157854
731.858	0.0157243
731.936	0.0158727
732.014	0.0158118
732.092	0.0158282
732.170	0.0158294
732.248	0.0156288
732.326	0.0156174
732.405	0.0156668
732.483	0.0156071
732.561	0.0156302
732.639	0.0155132
732.717	0.0155199
732.795	0.0153963
732.873	0.0154358
732.951	0.0152536
733.030	0.0152820
733.108	0.0153464
733.186	0.0152071
733.264	0.0151055
733.342	0.0151863
733.420	0.0152492
733.498	0.0153257
733.576	0.0152965
733.655	0.0154259
733.733	0.0154000
733.811	0.0154214
733.889	0.0155565
733.967	0.0155402
734.045	0.0156629
734.123	0.0157298
734.201	0.0157789
734.280	0.0158937
734.358	0.0157931
734.436	0.0156916
734.514	0.0157999
734.592	0.0157613
734.670	0.0157954
734.748	0.0157709
734.826	0.0157748
734.905	0.0157686
734.983	0.0156189
735.061	0.0155999
735.139	0.0156998
735.217	0.0154723
735.295	0.0154516
735.373	0.0154392
735.451	0.0155331
735.530	0.0156767
735.608	0.0156808
735.686	0.0156383
735.764	0.0155553
735.842	0.0156035
735.920	0.0155138
735.998	0.0155695
736.076	0.0156538
736.155	0.0157074
736.233	0.0156458
736.311	0.0155923
736.389	0.0155774
736.467	0.0157154
736.545	0.0156521
736.623	0.0155736
736.701	0.0156419
736.780	0.0157271
736.858	0.0157660
736.936	0.0156478
737.014	0.0156576
737.092	0.0156368
737.170	0.0155904
737.248	0.0156897
737.326	0.0156425
737.405	0.0154661
737.483	0.0156367
737.561	0.0155522
737.639	0.0154860
737.717	0.0155173
737.795	0.0154269
737.873	0.0151794
737.951	0.0152188
738.030	0.0152478
738.108	0.0151017
738.186	0.0151126
738.264	0.0151854
738.342	0.0149606
738.420	0.0150564
738.498	0.0150896
738.576	0.0149512
738.655	0.0151612
738.733	0.0152883
738.811	0.0151685
738.889	0.0152899
738.967	0.0153326
739.045	0.0155196
739.123	0.0155627
739.201	0.0155327
739.280	0.0154608
739.358	0.0154676
739.436	0.0155737
739.514	0.0155095
739.592	0.0157416
739.670	0.0156785
739.748	0.0156062
739.826	0.0157584
739.905	0.0156236
739.983	0.0156669
740.061	0.0156374
740.139	0.0156097
740.217	0.0156203
740.295	0.0155765
740.373	0.0154462
740.451	0.0155296
740.530	0.0154739
740.608	0.0154540
740.686	0.0153654
740.764	0.0153761
740.842	0.0154294
740.920	0.0154323
740.998	0.0153608
741.076	0.0154297
741.155	0.0154784
741.233	0.0156496
741.311	0.0155598
741.389	0.0156010
741.467	0.0156971
741.545	0.0157064
741.623	0.0155484
741.701	0.0157601
741.780	0.0156553
741.858	0.0155263
741.936	0.0156278
742.014	0.0156409
742.092	0.0155454
742.170	0.0155915
742.248	0.0155508
742.326	0.0155191
742.405	0.0155605
742.483	0.0155816
742.561	0.0154970
742.639	0.0153431
742.717	0.0155552
742.795	0.0154733
742.873	0.0152802
742.951	0.0154625
743.030	0.0155435
743.108	0.0154705
743.186	0.0154781
743.264	0.0154675
743.342	0.0154745
743.420	0.0154946
743.498	0.0155090
743.576	0.0156985
743.655	0.0157431
743.733	0.0156854
743.811	0.0157409
743.889	0.0157128
743.967	0.0159251
744.045	0.0157633
744.123	0.0157771
744.201	0.0157332
744.280	0.0157475
744.358	0.0158150
744.436	0.0158233
744.514	0.0158109
744.592	0.0157948
744.670	0.0156828
744.748	0.0157082
744.826	0.0156991
744.905	0.0155680
744.983	0.0156319
745.061	0.0155576
745.139	0.0153937
745.217	0.0154736
745.295	0.0152490
745.373	0.0153251
745.451	0.0153207
745.530	0.0151425
745.608	0.0152918
745.686	0.0152041
745.764	0.0151331
745.842	0.0151237
745.920	0.0151155
745.998	0.0151151
746.076	0.0151367
746.155	0.0151842
746.233	0.0151617
746.311	0.0152271
746.389	0.0152694
746.467	0.0153609
746.545	0.0153228
746.623	0.0152769
746.701	0.0153987
746.780	0.0154249
746.858	0.0154054
746.936	0.0154034
747.014	0.0154385
747.092	0.0155444
747.170	0.0154890
747.248	0.0153371
747.326	0.0154453
747.405	0.0153913
747.483	0.0155238
747.561	0.0154760
747.639	0.0154305
747.717	0.0154560
747.795	0.0154207
747.873	0.0154762
747.951	0.0153811
748.030	0.0154103
748.108	0.0154973
748.186	0.0154351
748.264	0.0154553
748.342	0.0155922
748.420	0.0156387
748.498	0.0155873
748.576	0.0155994
748.655	0.0156149
748.733	0.0157035
748.811	0.0156597
748.889	0.0155721
748.967	0.0157324
749.045	0.0157455
749.123	0.0155665
749.201	0.0155952
749.280	0.0157956
749.358	0.0156577
749.436	0.0156317
749.514	0.0155901
749.592	0.0156193
749.670	0.0155930
749.748	0.0156438
749.826	0.0155679
749.905	0.0154241
749.983	0.0154282
750.061	0.0154109
750.139	0.0153427
750.217	0.0152039
750.295	0.0154880
750.373	0.0154716
750.451	0.0153978
750.530	0.0154779
750.608	0.0153951
750.686	0.0152479
750.764	0.0152813
750.842	0.0153526
750.920	0.0153815
750.998	0.0154974
751.076	0.0154618
751.155	0.0155326
751.233	0.0153183
751.311	0.0156233
751.389	0.0156746
751.467	0.0155008
751.545	0.0155328
751.623	0.0157823
751.701	0.0156328
751.780	0.0155647
751.858	0.0155704
751.936	0.0156542
752.014	0.0157156
752.092	0.0155871
752.170	0.0155943
752.248	0.0154967
752.326	0.0156636
752.405	0.0155919
752.483	0.0154901
752.561	0.0154827
752.639	0.0155446
752.717	0.0155075
752.795	0.0154623
752.873	0.0154188
752.951	0.0153177
753.030	0.0152525
753.108	0.0152693
753.186	0.0153015
753.264	0.0151919
753.342	0.0152800
753.420	0.0150934
753.498	0.0150743
753.576	0.0151122
753.655	0.0151305
753.733	0.0152637
753.811	0.0150577
753.889	0.0151396
753.967	0.0151820
754.045	0.0152386
754.123	0.0153052
754.201	0.0152409
754.280	0.0152446
754.358	0.0153091
754.436	0.0153253
754.514	0.0153709
754.592	0.0153844
754.670	0.0152839
754.748	0.0154255
754.826	0.0154925
754.905	0.0154007
754.983	0.0155489
755.061	0.0156186
755.139	0.0156502
755.217	0.0155592
755.295	0.0158445
755.373	0.0157404
755.451	0.0157736
755.530	0.0158415
755.608	0.0158761
755.686	0.0158015
755.764	0.0157623
755.842	0.0157605
755.920	0.0159320
755.998	0.0159722
756.076	0.0157459
756.155	0.0157956
756.233	0.0157735
756.311	0.0158064
756.389	0.0156994
756.467	0.0157200
756.545	0.0156693
756.623	0.0155019
756.701	0.0154977
756.780	0.0155811
756.858	0.0156389
756.936	0.0155869
757.014	0.0155977
757.092	0.0155886
757.170	0.0155025
757.248	0.0154572
757.326	0.0154975
757.405	0.0156749
757.483	0.0156589
757.561	0.0156752
757.639	0.0155815
757.717	0.0157246
757.795	0.0156467
757.873	0.0155447
757.951	0.0155869
758.030	0.0155782
758.108	0.0154497
758.186	0.0154131
758.264	0.0154140
758.342	0.0153320
758.420	0.0151833
758.498	0.0150922
758.576	0.0150237
758.655	0.0150218
758.733	0.0150184
758.811	0.0150832
758.889	0.0151055
758.967	0.0150146
759.045	0.0151547
759.123	0.0150961
759.201	0.0152633
759.280	0.0152765
759.358	0.0154501
759.436	0.0155037
759.514	0.0155126
759.592	0.0156372
759.670	0.0158404
759.748	0.0155986
759.826	0.0157357
759.905	0.0157903
759.983	0.0156866
760.061	0.0159139
760.139	0.0157549
760.217	0.0159182
760.295	0.0158476
760.373	0.0156900
760.451	0.0156818
760.530	0.0157267
760.608	0.0154862
760.686	0.0154893
760.764	0.0154992
760.842	0.0154472
760.920	0.0153261
760.998	0.0155071
761.076	0.0153371
761.155	0.0152608
761.233	0.0152177
761.311	0.0152950
761.389	0.0153755
761.467	0.0153508
761.545	0.0153452
761.623	0.0153985
761.701	0.0153048
761.780	0.0154441
761.858	0.0154501
761.936	0.0153285
762.014	0.0154209
762.092	0.0155223
762.170	0.0153816
762.248	0.0155856
762.326	0.0155237
762.405	0.0153264
762.483	0.0154413
762.561	0.0155322
762.639	0.0155338
762.717	0.0155207
762.795	0.0156037
762.873	0.0157485
762.951	0.0156574
763.030	0.0155071
763.108	0.0156857
763.186	0.0157162
763.264	0.0157717
763.342	0.0156773
763.420	0.0157190
763.498	0.0156578
763.576	0.0156168
763.655	0.0157249
763.733	0.0156096
763.811	0.0156823
763.889	0.0155782
763.967	0.0156794
764.045	0.0157417
764.123	0.0157480
764.201	0.0157378
764.280	0.0156538
764.358	0.0156300
764.436	0.0157641
764.514	0.0157972
764.592	0.0158659
764.670	0.0158845
764.748	0.0159164
764.826	0.0159995
764.905	0.0159782
764.983	0.0160183
765.061	0.0159499
765.139	0.0160503
765.217	0.0161115
765.295	0.0159529
765.373	0.0160876
765.451	0.0159154
765.530	0.0159524
765.608	0.0160256
765.686	0.0157288
765.764	0.0158042
765.842	0.0157475
765.920	0.0156386
765.998	0.0154968
766.076	0.0154073
766.155	0.0154816
766.233	0.0154787
766.311	0.0153316
766.389	0.0152953
766.467	0.0152078
766.545	0.0153152
766.623	0.0152782
766.701	0.0152197
766.780	0.0152459
766.858	0.0153168
766.936	0.0152987
767.014	0.0154751
767.092	0.0154392
767.170	0.0154004
767.248	0.0155762
767.326	0.0155107
767.405	0.0156967
767.483	0.0155907
767.561	0.0156642
767.639	0.0156437
767.717	0.0155905
767.795	0.0155571
767.873	0.0157146
767.951	0.0156676
768.030	0.0155607
768.108	0.0155519
768.186	0.0155785
768.264	0.0156239
768.342	0.0155399
768.420	0.0156228
768.498	0.0155978
768.576	0.0155894
768.655	0.0155664
768.733	0.0155794
768.811	0.0156074
768.889	0.0154876
768.967	0.0153751
769.045	0.0153544
769.123	0.0155934
769.201	0.0156641
769.280	0.0153781
769.358	0.0153076
769.436	0.0154844
769.514	0.0153210
769.592	0.0153808
769.670	0.0154853
769.748	0.0155161
769.826	0.0154859
769.905	0.0154929
769.983	0.0153915
770.061	0.0154344
770.139	0.0155292
770.217	0.0154439
770.295	0.0156133
770.373	0.0155701
770.451	0.0155563
770.530	0.0156685
770.608	0.0157450
770.686	0.0157024
770.764	0.0155251
770.842	0.0157422
770.920	0.0156454
770.998	0.0156592
771.076	0.0155988
771.155	0.0157428
771.233	0.0154593
771.311	0.0154603
771.389	0.0156741
771.467	0.0156224
771.545	0.0155101
771.623	0.0154829
771.701	0.0154938
771.780	0.0152923
771.858	0.0153535
771.936	0.0155682
772.014	0.0154752
772.092	0.0153671
772.170	0.0154768
772.248	0.0155552
772.326	0.0156407
772.405	0.0156521
772.483	0.0155943
772.561	0.0156146
772.639	0.0157404
772.717	0.0159158
772.795	0.0158239
772.873	0.0158808
772.951	0.0158319
773.030	0.0157948
773.108	0.0157446
773.186	0.0159430
773.264	0.0157339
773.342	0.0156923
773.420	0.0157482
773.498	0.0157446
773.576	0.0156244
773.655	0.0155463
773.733	0.0156109
773.811	0.0155228
773.889	0.0154342
773.967	0.0154562
774.045	0.0154124
774.123	0.0154490
774.201	0.0153941
774.280	0.0152047
774.358	0.0151659
774.436	0.0151804
774.514	0.0152396
774.592	0.0151881
774.670	0.0151336
774.748	0.0152000
774.826	0.0152370
774.905	0.0150732
774.983	0.0151295
775.061	0.0151694
775.139	0.0150211
775.217	0.0151464
775.295	0.0152216
775.373	0.0150014
775.451	0.0152505
775.530	0.0152245
775.608	0.0152574
775.686	0.0152403
775.764	0.0153739
775.842	0.0154019
775.920	0.0153866
775.998	0.0153597
776.076	0.0154395
776.155	0.0155888
776.233	0.0155146
776.311	0.0155133
776.389	0.0154553
776.467	0.0154156
776.545	0.0154882
776.623	0.0155733
776.701	0.0155937
776.780	0.0155221
776.858	0.0155869
776.936	0.0156194
777.014	0.0155016
777.092	0.0154548
777.170	0.0154533
777.248	0.0155861
777.326	0.0155129
777.405	0.0155527
777.483	0.0154791
777.561	0.0155392
777.639	0.0157088
777.717	0.0155785
777.795	0.0156602
777.873	0.0157140
777.951	0.0158976
778.030	0.0156179
778.108	0.0157388
778.186	0.0157745
778.264	0.0156887
778.342	0.0156592
778.420	0.0158655
778.498	0.0157659
778.576	0.0156773
778.655	0.0156420
778.733	0.0155998
778.811	0.0154958
778.889	0.0154398
778.967	0.0155501
779.045	0.0154420
779.123	0.0153577
779.201	0.0154665
779.280	0.0154904
779.358	0.0154509
779.436	0.0152467
779.514	0.0152854
779.592	0.0152243
779.670	0.0153373
779.748	0.0154095
779.826	0.0154956
779.905	0.0153210
779.983	0.0153894
780.061	0.0152785
780.139	0.0153980
780.217	0.0154056
780.295	0.0156625
780.373	0.0155240
780.451	0.0154850
780.530	0.0156141
780.608	0.0156885
780.686	0.0156042
780.764	0.0158206
780.842	0.0158597
780.920	0.0158591
780.998	0.0160017
781.076	0.0158648
781.155	0.0160403
781.233	0.0160110
781.311	0.0160213
781.389	0.0160548
781.467	0.0160645
781.545	0.0160000
781.623	0.0159148
781.701	0.0159585
781.780	0.0159274
781.858	0.0157753
781.936	0.0156824
782.014	0.0157008
782.092	0.0155453
782.170	0.0155930
782.248	0.0154391
782.326	0.0153988
782.405	0.0153539
782.483	0.0152820
782.561	0.0151720
782.639	0.0153567
782.717	0.0150611
782.795	0.0151756
782.873	0.0149970
782.951	0.0150373
783.030	0.0149665
783.108	0.0149387
783.186	0.0150430
783.264	0.0151054
783.342	0.0149851
783.420	0.0150864
783.498	0.0152590
783.576	0.0152279
783.655	0.0153263
783.733	0.0152347
783.811	0.0155097
783.889	0.0153335
783.967	0.0154290
784.045	0.0154131
784.123	0.0154995
784.201	0.0153923
784.280	0.0155609
784.358	0.0155199
784.436	0.0154829
784.514	0.0155241
784.592	0.0153677
784.670	0.0154025
784.748	0.0156142
784.826	0.0155010
784.905	0.0155181
784.983	0.0153931
785.061	0.0155676
785.139	0.0156528
785.217	0.0157785
785.295	0.0156830
785.373	0.0157224
785.451	0.0157076
785.530	0.0156677
785.608	0.0157397
785.686	0.0157764
785.764	0.0158060
785.842	0.0158427
785.920	0.0159431
785.998	0.0159248
786.076	0.0159156
786.155	0.0159469
786.233	0.0158554
786.311	0.0158977
786.389	0.0159924
786.467	0.0159212
786.545	0.0159087
786.623	0.0158824
786.701	0.0159604
786.780	0.0159872
786.858	0.0158569
786.936	0.0159084
787.014	0.0159137
787.092	0.0158257
787.170	0.0158531
787.248	0.0157116
787.326	0.0157928
787.405	0.0158112
787.483	0.0157793
787.561	0.0156896
787.639	0.0155320
787.717	0.0157503
787.795	0.0158818
787.873	0.0155782
787.951	0.0155999
788.030	0.0157094
788.108	0.0155996
788.186	0.0155909
788.264	0.0156042
788.342	0.0156452
788.420	0.0155815
788.498	0.0156863
788.576	0.0157704
788.655	0.0158215
788.733	0.0157127
788.811	0.0157625
788.889	0.0158708
788.967	0.0156800
789.045	0.0158529
789.123	0.0159146
789.201	0.0160622
789.280	0.0159661
789.358	0.0159112
789.436	0.0158060
789.514	0.0158801
789.592	0.0159856
789.670	0.0158344
789.748	0.0157168
789.826	0.0156169
789.905	0.0157651
789.983	0.0157171
790.061	0.0156084
790.139	0.0154382
790.217	0.0155429
790.295	0.0155795
790.373	0.0156474
790.451	0.0154524
790.530	0.0154182
790.608	0.0154084
790.686	0.0154217
790.764	0.0153130
790.842	0.0154172
790.920	0.0153202
790.998	0.0154518
791.076	0.0152372
791.155	0.0151624
791.233	0.0151353
791.311	0.0151974
791.389	0.0151601
791.467	0.0153094
791.545	0.0153515
791.623	0.0153622
791.701	0.0151893
791.780	0.0151739
791.858	0.0152493
791.936	0.0152198
792.014	0.0151816
792.092	0.0153997
792.170	0.0154830
792.248	0.0154082
792.326	0.0154988
792.405	0.0154462
792.483	0.0152559
792.561	0.0155481
792.639	0.0154047
792.717	0.0154782
792.795	0.0156268
792.873	0.0154698
792.951	0.0156813
793.030	0.0156103
793.108	0.0155126
793.186	0.0156057
793.264	0.0156390
793.342	0.0155264
793.420	0.0156362
793.498	0.0156525
793.576	0.0155719
793.655	0.0156695
793.733	0.0157113
793.811	0.0155191
793.889	0.0154669
793.967	0.0157055
794.045	0.0157666
794.123	0.0158463
794.201	0.0156146
794.280	0.0156866
794.358	0.0155824
794.436	0.0157110
794.514	0.0156429
794.592	0.0157212
794.670	0.0156380
794.748	0.0157355
794.826	0.0155783
794.905	0.0155816
794.983	0.0155518
795.061	0.0155871
795.139	0.0155215
795.217	0.0153584
795.295	0.0154455
795.373	0.0152504
795.451	0.0152203
795.530	0.0154000
795.608	0.0151999
795.686	0.0153342
795.764	0.0154681
795.842	0.0153255
795.920	0.0152183
795.998	0.0153989
796.076	0.0153566
796.155	0.0153089
796.233	0.0151708
796.311	0.0153062
796.389	0.0154803
796.467	0.0152715
796.545	0.0153939
796.623	0.0154541
796.701	0.0154540
796.780	0.0154749
796.858	0.0155044
796.936	0.0155547
797.014	0.0157317
797.092	0.0156182
797.170	0.0156056
797.248	0.0157896
797.326	0.0155590
797.405	0.0158041
797.483	0.0158549
797.561	0.0157694
797.639	0.0157793
797.717	0.0158527
797.795	0.0156674
797.873	0.0157773
797.951	0.0157532
798.030	0.0156557
798.108	0.0157292
798.186	0.0156368
798.264	0.0156226
798.342	0.0155228
798.420	0.0153200
798.498	0.0153490
798.576	0.0154211
798.655	0.0153093
798.733	0.0151933
798.811	0.0151611
798.889	0.0152071
798.967	0.0150809
799.045	0.0149471
799.123	0.0151019
799.201	0.0150732
799.280	0.0150159
799.358	0.0150663
799.436	0.0150670
799.514	0.0150868
799.592	0.0149650
799.670	0.0150579
799.748	0.0152168
799.826	0.0151331
799.905	0.0151620
799.983	0.0152332
800.061	0.0151533
800.139	0.0153190
800.217	0.0153288
800.295	0.0153324
800.373	0.0154333
800.451	0.0153574
800.530	0.0153807
800.608	0.0155055
800.686	0.0155585
800.764	0.0153949
800.842	0.0154515
800.920	0.0155939
800.998	0.0156787
801.076	0.0156216
801.155	0.0156069
801.233	0.0156201
801.311	0.0157568
801.389	0.0156724
801.467	0.0156893
801.545	0.0158958
801.623	0.0157764
801.701	0.0156879
801.780	0.0157156
801.858	0.0157265
801.936	0.0156953
802.014	0.0158202
802.092	0.0156602
802.170	0.0156007
802.248	0.0156633
802.326	0.0157776
802.405	0.0156822
802.483	0.0158213
802.561	0.0156916
802.639	0.0156633
802.717	0.0157336
802.795	0.0155941
802.873	0.0155128
802.951	0.0157603
803.030	0.0156574
803.108	0.0154984
803.186	0.0155211
803.264	0.0155895
803.342	0.0155103
803.420	0.0155115
803.498	0.0156141
803.576	0.0154951
803.655	0.0155192
803.733	0.0155271
803.811	0.0153579
803.889	0.0156181
803.967	0.0154942
804.045	0.0155552
804.123	0.0155779
804.201	0.0154404
804.280	0.0154143
804.358	0.0156217
804.436	0.0156319
804.514	0.0155942
804.592	0.0154488
804.670	0.0154205
804.748	0.0154300
804.826	0.0154214
804.905	0.0155224
804.983	0.0154710
805.061	0.0154177
805.139	0.0155197
805.217	0.0154663
805.295	0.0155785
805.373	0.0155624
805.451	0.0155161
805.530	0.0154630
805.608	0.0156910
805.686	0.0157273
805.764	0.0156431
805.842	0.0157022
805.920	0.0158066
805.998	0.0155044
806.076	0.0157015
806.155	0.0157337
806.233	0.0158131
806.311	0.0157586
806.389	0.0157767
806.467	0.0156865
806.545	0.0157307
806.623	0.0156827
806.701	0.0155879
806.780	0.0154449
806.858	0.0155421
806.936	0.0155995
807.014	0.0153992
807.092	0.0155002
807.170	0.0154382
807.248	0.0154441
807.326	0.0154388
807.405	0.0153883
807.483	0.0154598
807.561	0.0154813
807.639	0.0153967
807.717	0.0153808
807.795	0.0154575
807.873	0.0155197
807.951	0.0155255
808.030	0.0156104
808.108	0.0154944
808.186	0.0155631
808.264	0.0155148
808.342	0.0156606
808.420	0.0156538
808.498	0.0155790
808.576	0.0155164
808.655	0.0156290
808.733	0.0156310
808.811	0.0157414
808.889	0.0156430
808.967	0.0156821
809.045	0.0157642
809.123	0.0157637
809.201	0.0157420
809.280	0.0157671
809.358	0.0157600
809.436	0.0155599
809.514	0.0157764
809.592	0.0158294
809.670	0.0158707
809.748	0.0157591
809.826	0.0156367
809.905	0.0156840
809.983	0.0157790
810.061	0.0156262
810.139	0.0157115
810.217	0.0156146
810.295	0.0154366
810.373	0.0156908
810.451	0.0155644
810.530	0.0156017
810.608	0.0155704
810.686	0.0154920
810.764	0.0155314
810.842	0.0154012
810.920	0.0155078
810.998	0.0155770
811.076	0.0154635
811.155	0.0154923
811.233	0.0155073
811.311	0.0155791
811.389	0.0155507
811.467	0.0156160
811.545	0.0155714
811.623	0.0155573
811.701	0.0155833
811.780	0.0155258
811.858	0.0155063
811.936	0.0154031
812.014	0.0154461
812.092	0.0153970
812.170	0.0155173
812.248	0.0154520
812.326	0.0154262
812.405	0.0155499
812.483	0.0153620
812.561	0.0154852
812.639	0.0155263
812.717	0.0154607
812.795	0.0154414
812.873	0.0154446
812.951	0.0154404
813.030	0.0154799
813.108	0.0154515
813.186	0.0156091
813.264	0.0153699
813.342	0.0153390
813.420	0.0155425
813.498	0.0155838
813.576	0.0155269
813.655	0.0156402
813.733	0.0156038
813.811	0.0155222
813.889	0.0156135
813.967	0.0158559
814.045	0.0157638
814.123	0.0156645
814.201	0.0156327
814.280	0.0158266
814.358	0.0158205
814.436	0.0158247
814.514	0.0158783
814.592	0.0158916
814.670	0.0160001
814.748	0.0159537
814.826	0.0158369
814.905	0.0158190
814.983	0.0157943
815.061	0.0157829
815.139	0.0158081
815.217	0.0155701
815.295	0.0155242
815.373	0.0155699
815.451	0.0154593
815.530	0.0153234
815.608	0.0152840
815.686	0.0153387
815.764	0.0151967
815.842	0.0151575
815.920	0.0150783
815.998	0.0149459
816.076	0.0149180
816.155	0.0148357
816.233	0.0149614
816.311	0.0149096
816.389	0.0147305
816.467	0.0148434
816.545	0.0149062
816.623	0.0148367
816.701	0.0147411
816.780	0.0149931
816.858	0.0150922
816.936	0.0151126
817.014	0.0151081
817.092	0.0152390
817.170	0.0152709
817.248	0.0154223
817.326	0.0154550
817.405	0.0155058
817.483	0.0155022
817.561	0.0154631
817.639	0.0156422
817.717	0.0155186
817.795	0.0156700
817.873	0.0157430
817.951	0.0155700
818.030	0.0156362
818.108	0.0157108
818.186	0.0156785
818.264	0.0157286
818.342	0.0157335
818.420	0.0156522
818.498	0.0156779
818.576	0.0155312
818.655	0.0154933
818.733	0.0157642
818.811	0.0154855
818.889	0.0156039
818.967	0.0155917
819.045	0.0155860
819.123	0.0155605
819.201	0.0155442
819.280	0.0157430
819.358	0.0156810
819.436	0.0155473
819.514	0.0156931
819.592	0.0156619
819.670	0.0156479
819.748	0.0157597
819.826	0.0157425
819.905	0.0156297
819.983	0.0157185
820.061	0.0156112
820.139	0.0154557
820.217	0.0154826
820.295	0.0154882
820.373	0.0154011
820.451	0.0154099
820.530	0.0152444
820.608	0.0152480
820.686	0.0153870
820.764	0.0152689
820.842	0.0153384
820.920	0.0152691
820.998	0.0153779
821.076	0.0152681
821.155	0.0153246
821.233	0.0154275
821.311	0.0153066
821.389	0.0152511
821.467	0.0153496
821.545	0.0154166
821.623	0.0153169
821.701	0.0151967
821.780	0.0153318
821.858	0.0154516
821.936	0.0154609
822.014	0.0154140
822.092	0.0153738
822.170	0.0154833
822.248	0.0154389
822.326	0.0154207
822.405	0.0156499
822.483	0.0155977
822.561	0.0157271
822.639	0.0156186
822.717	0.0155927
822.795	0.0157015
822.873	0.0156805
822.951	0.0155877
823.030	0.0156466
823.108	0.0156628
823.186	0.0155888
823.264	0.0155827
823.342	0.0156709
823.420	0.0154527
823.498	0.0153942
823.576	0.0154577
823.655	0.0154900
823.733	0.0153613
823.811	0.0153292
823.889	0.0152539
823.967	0.0152245
824.045	0.0151802
824.123	0.0151564
824.201	0.0151801
824.280	0.0150665
824.358	0.0149868
824.436	0.0149566
824.514	0.0149873
824.592	0.0150220
824.670	0.0149984
824.748	0.0150027
824.826	0.0149697
824.905	0.0151518
824.983	0.0151627
825.061	0.0151833
825.139	0.0153419
825.217	0.0153290
825.295	0.0153501
825.373	0.0154186
825.451	0.0156264
825.530	0.0156363
825.608	0.0155412
825.686	0.0157095
825.764	0.0157594
825.842	0.0158215
825.920	0.0156933
825.998	0.0157789
826.076	0.0159035
826.155	0.0158093
826.233	0.0157450
826.311	0.0158580
826.389	0.0157333
826.467	0.0157276
826.545	0.0157749
826.623	0.0156940
826.701	0.0157540
826.780	0.0158118
826.858	0.0156021
826.936	0.0155450
827.014	0.0156125
827.092	0.0154430
827.170	0.0155949
827.248	0.0156258
827.326	0.0155064
827.405	0.0156305
827.483	0.0155302
827.561	0.0156091
827.639	0.0156316
827.717	0.0155511
827.795	0.0155953
827.873	0.0156793
827.951	0.0155485
828.030	0.0155715
828.108	0.0155670
828.186	0.0155356
828.264	0.0155533
828.342	0.0155112
828.420	0.0156001
828.498	0.0154200
828.576	0.0155024
828.655	0.0156551
828.733	0.0154276
828.811	0.0153755
828.889	0.0156068
828.967	0.0154767
829.045	0.0156765
829.123	0.0154716
829.201	0.0155553
829.280	0.0157293
829.358	0.0155122
829.436	0.0155674
829.514	0.0155096
829.592	0.0156129
829.670	0.0157290
829.748	0.0155789
829.826	0.0154706
829.905	0.0157126
829.983	0.0156425
830.061	0.0156853
830.139	0.0156046
830.217	0.0156647
830.295	0.0156818
830.373	0.0155358
830.451	0.0157984
830.530	0.0159030
830.608	0.0156922
830.686	0.0157834
830.764	0.0158382
830.842	0.0158382
830.920	0.0159326
830.998	0.0158874
831.076	0.0158852
831.155	0.0158529
831.233	0.0158195
831.311	0.0158332
831.389	0.0156448
831.467	0.0157587
831.545	0.0157312
831.623	0.0158302
831.701	0.0157252
831.780	0.0157305
831.858	0.0156464
831.936	0.0156199
832.014	0.0156847
832.092	0.0155755
832.170	0.0156671
832.248	0.0154927
832.326	0.0154295
832.405	0.0153328
832.483	0.0155303
832.561	0.0152847
832.639	0.0153867
832.717	0.0153612
832.795	0.0152715
832.873	0.0154187
832.951	0.0153618
833.030	0.0153333
833.108	0.0155146
833.186	0.0154382
833.264	0.0153781
833.342	0.0154336
833.420	0.0154166
833.498	0.0155188
833.576	0.0155434
833.655	0.0156408
833.733	0.0157776
833.811	0.0157520
833.889	0.0156315
833.967	0.0157912
834.045	0.0158416
834.123	0.0159634
834.201	0.0160937
834.280	0.0158346
834.358	0.0158401
834.436	0.0159222
834.514	0.0159370
834.592	0.0160423
834.670	0.0160128
834.748	0.0158538
834.826	0.0159505
834.905	0.0159489
834.983	0.0159377
835.061	0.0159113
835.139	0.0156712
835.217	0.0157053
835.295	0.0156602
835.373	0.0155324
835.451	0.0157081
835.530	0.0157343
835.608	0.0156427
835.686	0.0156689
835.764	0.0155534
835.842	0.0155051
835.920	0.0155173
835.998	0.0153899
836.076	0.0155700
836.155	0.0156744
836.233	0.0154836
836.311	0.0155039
836.389	0.0155700
836.467	0.0155544
836.545	0.0157047
836.623	0.0155242
836.701	0.0155370
836.780	0.0155040
836.858	0.0154613
836.936	0.0154861
837.014	0.0153928
837.092	0.0154280
837.170	0.0153263
837.248	0.0152636
837.326	0.0152640
837.405	0.0152415
837.483	0.0151878
837.561	0.0151991
837.639	0.0153776
837.717	0.0153617
837.795	0.0153218
837.873	0.0153187
837.951	0.0152171
838.030	0.0152638
838.108	0.0153580
838.186	0.0154787
838.264	0.0153319
838.342	0.0154546
838.420	0.0155569
838.498	0.0154762
838.576	0.0153059
838.655	0.0155167
838.733	0.0155621
838.811	0.0154182
838.889	0.0156844
838.967	0.0156039
839.045	0.0156280
839.123	0.0153851
839.201	0.0155583
839.280	0.0155742
839.358	0.0156519
839.436	0.0156413
839.514	0.0156920
839.592	0.0156206
839.670	0.0155459
839.748	0.0156318
839.826	0.0155506
839.905	0.0156835
839.983	0.0156248
840.061	0.0154436
840.139	0.0155310
840.217	0.0153758
840.295	0.0154997
840.373	0.0155228
840.451	0.0153260
840.530	0.0153194
840.608	0.0153973
840.686	0.0154333
840.764	0.0153878
840.842	0.0153669
840.920	0.0153828
840.998	0.0152586
841.076	0.0153310
841.155	0.0153084
841.233	0.0153477
841.311	0.0153653
841.389	0.0152928
841.467	0.0152727
841.545	0.0151782
841.623	0.0153083
841.701	0.0154130
841.780	0.0153400
841.858	0.0152624
841.936	0.0153104
842.014	0.0153278
842.092	0.0153197
842.170	0.0152460
842.248	0.0154042
842.326	0.0153598
842.405	0.0154848
842.483	0.0154504
842.561	0.0155917
842.639	0.0155116
842.717	0.0156095
842.795	0.0156322
842.873	0.0155444
842.951	0.0156544
843.030	0.0156245
843.108	0.0156928
843.186	0.0157585
843.264	0.0155876
843.342	0.0157124
843.420	0.0155888
843.498	0.0155601
843.576	0.0155862
843.655	0.0157569
843.733	0.0155080
843.811	0.0155799
843.889	0.0154611
843.967	0.0153316
844.045	0.0153229
844.123	0.0153434
844.201	0.0153225
844.280	0.0154993
844.358	0.0152983
844.436	0.0154130
844.514	0.0155004
844.592	0.0153991
844.670	0.0154578
844.748	0.0155669
844.826	0.0155276
844.905	0.0155696
844.983	0.0155401
845.061	0.0154866
845.139	0.0154533
845.217	0.0156181
845.295	0.0155878
845.373	0.0154183
845.451	0.0153498
845.530	0.0155479
845.608	0.0156118
845.686	0.0154649
845.764	0.0154571
845.842	0.0154945
845.920	0.0154356
845.998	0.0155897
846.076	0.0153850
846.155	0.0155244
846.233	0.0156499
846.311	0.0156237
846.389	0.0155694
846.467	0.0155183
846.545	0.0156268
846.623	0.0155728
846.701	0.0156022
846.780	0.0156306
846.858	0.0156041
846.936	0.0155222
847.014	0.0157134
847.092	0.0155639
847.170	0.0155151
847.248	0.0155469
847.326	0.0154488
847.405	0.0155778
847.483	0.0154947
847.561	0.0154698
847.639	0.0155965
847.717	0.0154335
847.795	0.0155058
847.873	0.0154128
847.951	0.0153865
848.030	0.0153514
848.108	0.0153679
848.186	0.0154189
848.264	0.0153804
848.342	0.0153581
848.420	0.0152959
848.498	0.0152248
848.576	0.0152914
848.655	0.0152847
848.733	0.0153021
848.811	0.0153220
848.889	0.0153531
848.967	0.0151867
849.045	0.0152123
849.123	0.0152876
849.201	0.0152902
849.280	0.0152161
849.358	0.0152236
849.436	0.0152480
849.514	0.0153422
849.592	0.0152691
849.670	0.0151875
849.748	0.0152055
849.826	0.0151556
849.905	0.0152249
849.983	0.0152379
850.061	0.0152139
850.139	0.0152752
850.217	0.0151170
850.295	0.0153009
850.373	0.0152279
850.451	0.0154491
850.530	0.0153209
850.608	0.0154405
850.686	0.0154662
850.764	0.0153892
850.842	0.0155412
850.920	0.0155997
850.998	0.0155730
851.076	0.0157630
851.155	0.0156979
851.233	0.0156264
851.311	0.0158011
851.389	0.0157331
851.467	0.0157491
851.545	0.0158067
851.623	0.0157302
851.701	0.0158080
851.780	0.0157439
851.858	0.0157757
851.936	0.0156052
852.014	0.0155738
852.092	0.0155965
852.170	0.0156948
852.248	0.0155799
852.326	0.0155005
852.405	0.0156448
852.483	0.0155956
852.561	0.0154899
852.639	0.0153626
852.717	0.0155029
852.795	0.0155987
852.873	0.0156778
852.951	0.0156797
853.030	0.0156031
853.108	0.0158952
853.186	0.0157192
853.264	0.0156310
853.342	0.0157578
853.420	0.0156450
853.498	0.0157973
853.576	0.0157914
853.655	0.0155594
853.733	0.0157521
853.811	0.0156351
853.889	0.0155885
853.967	0.0158909
854.045	0.0155647
854.123	0.0155797
854.201	0.0156998
854.280	0.0155968
854.358	0.0157040
854.436	0.0155038
854.514	0.0155298
854.592	0.0156448
854.670	0.0155823
854.748	0.0156003
854.826	0.0157152
854.905	0.0156446
854.983	0.0156226
855.061	0.0156629
855.139	0.0157363
855.217	0.0156495
855.295	0.0156171
855.373	0.0156669
855.451	0.0156837
855.530	0.0155762
855.608	0.0155743
855.686	0.0156509
855.764	0.0155373
855.842	0.0154910
855.920	0.0155751
855.998	0.0155519
856.076	0.0155347
856.155	0.0155032
856.233	0.0154757
856.311	0.0155196
856.389	0.0156622
856.467	0.0155074
856.545	0.0155733
856.623	0.0155612
856.701	0.0154254
856.780	0.0155847
856.858	0.0156237
856.936	0.0156302
857.014	0.0155635
857.092	0.0156087
857.170	0.0156357
857.248	0.0154845
857.326	0.0155055
857.405	0.0154276
857.483	0.0155312
857.561	0.0155173
857.639	0.0154971
857.717	0.0153400
857.795	0.0155042
857.873	0.0154874
857.951	0.0154680
858.030	0.0155753
858.108	0.0155048
858.186	0.0154938
858.264	0.0154630
858.342	0.0155357
858.420	0.0154961
858.498	0.0153706
858.576	0.0155469
858.655	0.0156801
858.733	0.0154954
858.811	0.0155187
858.889	0.0155859
858.967	0.0156569
859.045	0.0156998
859.123	0.0156789
859.201	0.0156304
859.280	0.0157732
859.358	0.0157786
859.436	0.0158105
859.514	0.0159661
859.592	0.0158718
859.670	0.0158662
859.748	0.0157668
859.826	0.0158707
859.905	0.0158405
859.983	0.0158182
860.061	0.0156145
860.139	0.0157291
860.217	0.0157569
860.295	0.0157322
860.373	0.0156472
860.451	0.0156358
860.530	0.0156619
860.608	0.0155988
860.686	0.0156256
860.764	0.0155788
860.842	0.0155853
860.920	0.0156177
860.998	0.0154737
861.076	0.0156899
861.155	0.0157910
861.233	0.0157750
861.311	0.0156144
861.389	0.0156844
861.467	0.0158430
861.545	0.0159157
861.623	0.0158562
861.701	0.0159189
861.780	0.0157166
861.858	0.0158844
861.936	0.0158398
862.014	0.0157493
862.092	0.0157286
862.170	0.0157321
862.248	0.0156772
862.326	0.0155506
862.405	0.0155904
862.483	0.0155579
862.561	0.0155258
862.639	0.0156253
862.717	0.0154004
862.795	0.0154865
862.873	0.0155399
862.951	0.0154715
863.030	0.0154050
863.108	0.0155350
863.186	0.0156343
863.264	0.0154986
863.342	0.0155775
863.420	0.0156196
863.498	0.0155308
863.576	0.0155598
863.655	0.0155545
863.733	0.0156213
863.811	0.0155182
863.889	0.0155130
863.967	0.0155396
864.045	0.0153964
864.123	0.0154989
864.201	0.0154018
864.280	0.0153657
864.358	0.0154152
864.436	0.0154288
864.514	0.0153885
864.592	0.0153683
864.670	0.0154330
864.748	0.0154032
864.826	0.0153803
864.905	0.0152932
864.983	0.0154454
865.061	0.0153117
865.139	0.0154029
865.217	0.0153143
865.295	0.0154053
865.373	0.0154894
865.451	0.0155419
865.530	0.0155781
865.608	0.0155884
865.686	0.0154067
865.764	0.0154632
865.842	0.0154135
865.920	0.0154049
865.998	0.0156272
866.076	0.0156445
866.155	0.0155624
866.233	0.0154494
866.311	0.0154664
866.389	0.0153477
866.467	0.0154638
866.545	0.0154033
866.623	0.0154834
866.701	0.0156545
866.780	0.0154762
866.858	0.0155540
866.936	0.0154332
867.014	0.0155286
867.092	0.0155890
867.170	0.0155766
867.248	0.0155529
867.326	0.0155994
867.405	0.0155492
867.483	0.0155296
867.561	0.0155961
867.639	0.0156910
867.717	0.0155347
867.795	0.0154250
867.873	0.0154346
867.951	0.0155704
868.030	0.0156909
868.108	0.0156860
868.186	0.0156606
868.264	0.0155399
868.342	0.0155143
868.420	0.0156744
868.498	0.0156800
868.576	0.0156255
868.655	0.0156506
868.733	0.0157404
868.811	0.0155752
868.889	0.0155983
868.967	0.0155115
869.045	0.0155343
869.123	0.0154853
869.201	0.0155098
869.280	0.0154972
869.358	0.0154694
869.436	0.0155442
869.514	0.0155460
869.592	0.0155279
869.670	0.0155676
869.748	0.0155801
869.826	0.0155674
869.905	0.0157633
869.983	0.0156223
870.061	0.0156079
870.139	0.0157420
870.217	0.0156992
870.295	0.0156245
870.373	0.0156183
870.451	0.0156067
870.530	0.0156249
870.608	0.0156427
870.686	0.0154058
870.764	0.0156470
870.842	0.0156005
870.920	0.0154863
870.998	0.0155882
871.076	0.0154417
871.155	0.0154057
871.233	0.0155281
871.311	0.0153692
871.389	0.0154713
871.467	0.0153445
871.545	0.0154722
871.623	0.0154263
871.701	0.0153896
871.780	0.0155321
871.858	0.0153648
871.936	0.0152837
872.014	0.0153660
872.092	0.0153037
872.170	0.0154333
872.248	0.0153881
872.326	0.0152218
872.405	0.0154331
872.483	0.0152785
872.561	0.0152087
872.639	0.0153347
872.717	0.0153471
872.795	0.0154804
872.873	0.0152355
872.951	0.0153133
873.030	0.0154765
873.108	0.0153460
873.186	0.0153024
873.264	0.0153209
873.342	0.0153236
873.420	0.0152272
873.498	0.0153156
873.576	0.0152881
873.655	0.0153863
873.733	0.0152212
873.811	0.0153812
873.889	0.0152559
873.967	0.0151675
874.045	0.0151664
874.123	0.0153459
874.201	0.0153033
874.280	0.0153493
874.358	0.0152041
874.436	0.0152187
874.514	0.0152962
874.592	0.0153591
874.670	0.0152084
874.748	0.0154411
874.826	0.0154220
874.905	0.0155006
874.983	0.0153526
875.061	0.0152809
875.139	0.0152570
875.217	0.0154955
875.295	0.0155331
875.373	0.0155043
875.451	0.0156171
875.530	0.0156398
875.608	0.0155920
875.686	0.0157351
875.764	0.0155946
875.842	0.0156300
875.920	0.0156806
875.998	0.0156878
876.076	0.0157368
876.155	0.0157780
876.233	0.0156851
876.311	0.0158024
876.389	0.0157880
876.467	0.0156350
876.545	0.0156227
876.623	0.0155653
876.701	0.0157542
876.780	0.0156150
876.858	0.0156303
876.936	0.0155687
877.014	0.0156434
877.092	0.0156401
877.170	0.0154800
877.248	0.0155531
877.326	0.0155363
877.405	0.0154815
877.483	0.0154348
877.561	0.0156865
877.639	0.0155342
877.717	0.0154973
877.795	0.0155219
877.873	0.0156019
877.951	0.0157870
878.030	0.0156966
878.108	0.0158048
878.186	0.0157238
878.264	0.0157864
878.342	0.0157721
878.420	0.0158930
878.498	0.0158288
878.576	0.0157829
878.655	0.0158406
878.733	0.0158605
878.811	0.0158980
878.889	0.0157864
878.967	0.0157684
879.045	0.0157989
879.123	0.0156547
879.201	0.0156212
879.280	0.0156055
879.358	0.0154957
879.436	0.0157104
879.514	0.0157786
879.592	0.0153626
879.670	0.0152957
879.748	0.0152852
879.826	0.0152547
879.905	0.0153212
879.983	0.0153860
880.061	0.0153951
880.139	0.0153149
880.217	0.0154078
880.295	0.0154225
880.373	0.0153465
880.451	0.0152563
880.530	0.0152917
880.608	0.0154449
880.686	0.0154330
880.764	0.0153093
880.842	0.0154543
880.920	0.0155010
880.998	0.0155795
881.076	0.0154340
881.155	0.0154140
881.233	0.0154843
881.311	0.0156354
881.389	0.0155299
881.467	0.0155706
881.545	0.0156889
881.623	0.0156435
881.701	0.0156716
881.780	0.0156351
881.858	0.0156978
881.936	0.0158342
882.014	0.0156279
882.092	0.0156589
882.170	0.0157632
882.248	0.0157919
882.326	0.0158442
882.405	0.0159175
882.483	0.0157919
882.561	0.0159010
882.639	0.0157426
882.717	0.0156917
882.795	0.0158454
882.873	0.0159238
882.951	0.0158247
883.030	0.0156312
883.108	0.0158035
883.186	0.0156292
883.264	0.0156361
883.342	0.0156759
883.420	0.0155975
883.498	0.0157059
883.576	0.0155272
883.655	0.0155907
883.733	0.0156951
883.811	0.0156888
883.889	0.0155337
883.967	0.0155257
884.045	0.0156757
884.123	0.0155187
884.201	0.0155663
884.280	0.0155665
884.358	0.0155826
884.436	0.0156405
884.514	0.0155961
884.592	0.0155838
884.670	0.0156021
884.748	0.0154885
884.826	0.0156565
884.905	0.0155173
884.983	0.0156435
885.061	0.0157166
885.139	0.0157113
885.217	0.0157314
885.295	0.0157406
885.373	0.0157603
885.451	0.0156382
885.530	0.0157189
885.608	0.0158141
885.686	0.0157255
885.764	0.0157712
885.842	0.0157878
885.920	0.0158139
885.998	0.0156535
886.076	0.0157738
886.155	0.0157013
886.233	0.0157684
886.311	0.0159288
886.389	0.0157173
886.467	0.0157071
886.545	0.0157335
886.623	0.0157825
886.701	0.0159026
886.780	0.0158565
886.858	0.0156870
886.936	0.0157797
887.014	0.0156503
887.092	0.0157245
887.170	0.0157571
887.248	0.0156910
887.326	0.0156431
887.405	0.0156328
887.483	0.0155755
887.561	0.0156285
887.639	0.0154752
887.717	0.0155016
887.795	0.0153991
887.873	0.0152843
887.951	0.0153753
888.030	0.0153310
888.108	0.0153535
888.186	0.0153233
888.264	0.0152963
888.342	0.0151823
888.420	0.0152510
888.498	0.0154649
888.576	0.0154838
888.655	0.0153539
888.733	0.0153954
888.811	0.0153154
888.889	0.0154505
888.967	0.0154958
889.045	0.0153557
889.123	0.0155303
889.201	0.0155296
889.280	0.0155178
889.358	0.0154509
889.436	0.0155191
889.514	0.0153838
889.592	0.0155608
889.670	0.0155981
889.748	0.0155218
889.826	0.0156985
889.905	0.0156415
889.983	0.0156770
890.061	0.0156306
890.139	0.0157417
890.217	0.0157350
890.295	0.0155365
890.373	0.0157117
890.451	0.0156253
890.530	0.0157224
890.608	0.0158001
890.686	0.0157360
890.764	0.0155208
890.842	0.0156512
890.920	0.0156853
890.998	0.0156885
891.076	0.0154656
891.155	0.0156386
891.233	0.0156651
891.311	0.0155840
891.389	0.0156316
891.467	0.0155833
891.545	0.0155125
891.623	0.0155368
891.701	0.0154858
891.780	0.0156033
891.858	0.0155721
891.936	0.0154879
892.014	0.0154614
892.092	0.0156098
892.170	0.0154529
892.248	0.0154311
892.326	0.0154298
892.405	0.0153229
892.483	0.0155421
892.561	0.0154540
892.639	0.0154813
892.717	0.0155393
892.795	0.0154674
892.873	0.0155395
892.951	0.0155547
893.030	0.0155994
893.108	0.0156611
893.186	0.0156788
893.264	0.0156060
893.342	0.0156020
893.420	0.0157060
893.498	0.0156475
893.576	0.0155485
893.655	0.0156992
893.733	0.0157552
893.811	0.0157897
893.889	0.0158156
893.967	0.0156592
894.045	0.0158115
894.123	0.0158113
894.201	0.0157782
894.280	0.0158505
894.358	0.0157787
894.436	0.0157827
894.514	0.0157915
894.592	0.0158845
894.670	0.0156879
894.748	0.0156522
894.826	0.0157119
894.905	0.0156532
894.983	0.0157004
895.061	0.0155955
895.139	0.0156491
895.217	0.0157071
895.295	0.0155060
895.373	0.0156017
895.451	0.0154303
895.530	0.0155434
895.608	0.0155127
895.686	0.0156001
895.764	0.0154308
895.842	0.0155264
895.920	0.0154195
895.998	0.0154589
896.076	0.0154165
896.155	0.0154158
896.233	0.0151889
896.311	0.0151159
896.389	0.0152213
896.467	0.0151765
896.545	0.0150912
896.623	0.0150963
896.701	0.0150858
896.780	0.0151018
896.858	0.0151516
896.936	0.0151526
897.014	0.0151507
897.092	0.0152026
897.170	0.0152877
897.248	0.0152292
897.326	0.0152296
897.405	0.0153695
897.483	0.0152899
897.561	0.0154508
897.639	0.0155894
897.717	0.0155478
897.795	0.0155456
897.873	0.0155294
897.951	0.0156660
898.030	0.0154999
898.108	0.0157124
898.186	0.0157790
898.264	0.0157603
898.342	0.0157977
898.420	0.0158047
898.498	0.0158295
898.576	0.0158251
898.655	0.0159653
898.733	0.0155936
898.811	0.0158409
898.889	0.0159235
898.967	0.0157764
899.045	0.0157268
899.123	0.0158376
899.201	0.0157186
899.280	0.0156712
899.358	0.0156712
899.436	0.0156215
899.514	0.0155571
899.592	0.0154745
899.670	0.0154952
899.748	0.0154194
899.826	0.0153358
899.905	0.0153252
899.983	0.0153995
900.061	0.0152839
900.139	0.0153759
900.217	0.0152972
900.295	0.0151376
900.373	0.0152937
900.451	0.0152816
900.530	0.0151369
900.608	0.0151675
900.686	0.0151961
900.764	0.0152161
900.842	0.0151821
900.920	0.0152036
900.998	0.0153064
901.076	0.0153333
901.155	0.0152409
901.233	0.0153997
901.311	0.0154288
901.389	0.0154366
901.467	0.0155608
901.545	0.0156177
901.623	0.0156036
901.701	0.0157311
901.780	0.0155135
901.858	0.0155350
901.936	0.0156779
902.014	0.0157143
902.092	0.0157477
902.170	0.0156124
902.248	0.0157668
902.326	0.0157785
902.405	0.0156020
902.483	0.0156272
902.561	0.0157062
902.639	0.0155788
902.717	0.0155057
902.795	0.0154134
902.873	0.0154980
902.951	0.0154005
903.030	0.0154723
903.108	0.0153803
903.186	0.0152753
903.264	0.0154034
903.342	0.0153475
903.420	0.0152525
903.498	0.0155564
903.576	0.0153506
903.655	0.0154220
903.733	0.0154087
903.811	0.0152670
903.889	0.0154272
903.967	0.0153370
904.045	0.0154026
904.123	0.0154352
904.201	0.0154373
904.280	0.0154818
904.358	0.0153638
904.436	0.0154363
904.514	0.0153952
904.592	0.0152647
904.670	0.0152022
904.748	0.0153594
904.826	0.0153466
904.905	0.0151173
904.983	0.0151890
905.061	0.0152027
905.139	0.0151295
905.217	0.0151620
905.295	0.0153162
905.373	0.0152491
905.451	0.0152982
905.530	0.0153686
905.608	0.0152952
905.686	0.0154539
905.764	0.0154653
905.842	0.0153793
905.920	0.0154862
905.998	0.0155386
906.076	0.0155138
906.155	0.0156245
906.233	0.0155235
906.311	0.0156596
906.389	0.0156783
906.467	0.0156938
906.545	0.0157195
906.623	0.0156933
906.701	0.0157382
906.780	0.0157243
906.858	0.0157686
906.936	0.0156065
907.014	0.0157156
907.092	0.0157559
907.170	0.0157121
907.248	0.0155763
907.326	0.0157574
907.405	0.0156781
907.483	0.0156575
907.561	0.0156282
907.639	0.0157115
907.717	0.0157106
907.795	0.0156422
907.873	0.0155922
907.951	0.0156590
908.030	0.0156532
908.108	0.0157576
908.186	0.0155730
908.264	0.0155630
908.342	0.0156065
908.420	0.0156493
908.498	0.0155663
908.576	0.0155184
908.655	0.0155158
908.733	0.0155123
908.811	0.0154448
908.889	0.0154366
908.967	0.0154644
909.045	0.0154601
909.123	0.0157538
909.201	0.0155144
909.280	0.0156096
909.358	0.0156017
909.436	0.0154981
909.514	0.0156004
909.592	0.0155520
909.670	0.0155652
909.748	0.0157520
909.826	0.0156824
909.905	0.0156420
909.983	0.0156575
910.061	0.0156544
910.139	0.0157914
910.217	0.0158020
910.295	0.0157912
910.373	0.0157738
910.451	0.0157215
910.530	0.0157166
910.608	0.0158430
910.686	0.0156654
910.764	0.0158524
910.842	0.0158223
910.920	0.0156841
910.998	0.0157852
911.076	0.0157278
911.155	0.0156940
911.233	0.0156929
911.311	0.0156931
911.389	0.0155710
911.467	0.0156752
911.545	0.0157194
911.623	0.0156077
911.701	0.0156088
911.780	0.0156203
911.858	0.0155909
911.936	0.0155269
912.014	0.0156323
912.092	0.0155955
912.170	0.0156759
912.248	0.0154877
912.326	0.0155101
912.405	0.0155061
912.483	0.0155192
912.561	0.0155444
912.639	0.0156145
912.717	0.0155531
912.795	0.0153849
912.873	0.0155093
912.951	0.0155448
913.030	0.0155029
913.108	0.0154903
913.186	0.0154902
913.264	0.0154120
913.342	0.0154890
913.420	0.0154420
913.498	0.0152833
913.576	0.0153454
913.655	0.0153788
913.733	0.0153789
913.811	0.0154982
913.889	0.0155328
913.967	0.0154148
914.045	0.0154720
914.123	0.0155218
914.201	0.0153772
914.280	0.0154822
914.358	0.0155543
914.436	0.0156159
914.514	0.0156670
914.592	0.0156078
914.670	0.0156181
914.748	0.0156794
914.826	0.0156878
914.905	0.0156755
914.983	0.0157486
915.061	0.0156753
915.139	0.0157067
915.217	0.0157847
915.295	0.0156960
915.373	0.0156813
915.451	0.0156989
915.530	0.0156079
915.608	0.0156667
915.686	0.0156097
915.764	0.0155207
915.842	0.0155054
915.920	0.0155817
915.998	0.0154269
916.076	0.0155302
916.155	0.0157003
916.233	0.0155608
916.311	0.0155238
916.389	0.0155466
916.467	0.0155208
916.545	0.0155501
916.623	0.0156715
916.701	0.0155453
916.780	0.0155354
916.858	0.0155631
916.936	0.0155588
917.014	0.0153111
917.092	0.0154104
917.170	0.0153967
917.248	0.0154508
917.326	0.0154300
917.405	0.0154527
917.483	0.0154331
917.561	0.0154162
917.639	0.0154308
917.717	0.0154453
917.795	0.0154514
917.873	0.0154328
917.951	0.0155965
918.030	0.0155273
918.108	0.0154745
918.186	0.0156062
918.264	0.0156783
918.342	0.0156169
918.420	0.0156532
918.498	0.0155371
918.576	0.0155354
918.655	0.0157001
918.733	0.0156315
918.811	0.0156956
918.889	0.0156298
918.967	0.0156857
919.045	0.0156495
919.123	0.0156190
919.201	0.0156168
919.280	0.0155949
919.358	0.0156107
919.436	0.0156836
919.514	0.0155849
919.592	0.0155478
919.670	0.0156152
919.748	0.0155919
919.826	0.0154083
919.905	0.0154214
919.983	0.0155156
920.061	0.0154735
920.139	0.0153904
920.217	0.0154344
920.295	0.0152902
920.373	0.0154047
920.451	0.0153690
920.530	0.0153635
920.608	0.0153896
920.686	0.0153193
920.764	0.0154475
920.842	0.0153323
920.920	0.0152677
920.998	0.0153043
921.076	0.0151886
921.155	0.0152693
921.233	0.0152432
921.311	0.0154372
921.389	0.0153223
921.467	0.0152256
921.545	0.0152473
921.623	0.0154216
921.701	0.0153347
921.780	0.0152537
921.858	0.0153360
921.936	0.0153483
922.014	0.0152817
922.092	0.0153678
922.170	0.0153486
922.248	0.0153423
922.326	0.0155004
922.405	0.0155183
922.483	0.0154527
922.561	0.0154058
922.639	0.0154797
922.717	0.0155764
922.795	0.0155999
922.873	0.0156793
922.951	0.0154116
923.030	0.0157817
923.108	0.0157961
923.186	0.0156332
923.264	0.0157228
923.342	0.0155840
923.420	0.0155774
923.498	0.0157039
923.576	0.0155962
923.655	0.0156569
923.733	0.0156815
923.811	0.0156229
923.889	0.0154210
923.967	0.0154421
924.045	0.0154041
924.123	0.0155342
924.201	0.0154932
924.280	0.0155510
924.358	0.0155757
924.436	0.0155699
924.514	0.0154446
924.592	0.0156961
924.670	0.0155417
924.748	0.0156158
924.826	0.0156106
924.905	0.0155517
924.983	0.0156570
925.061	0.0155236
925.139	0.0156749
925.217	0.0155144
925.295	0.0155972
925.373	0.0155156
925.451	0.0154638
925.530	0.0154478
925.608	0.0154005
925.686	0.0154697
925.764	0.0153472
925.842	0.0152349
925.920	0.0152969
925.998	0.0152956
926.076	0.0153938
926.155	0.0153468
926.233	0.0152110
926.311	0.0152428
926.389	0.0153084
926.467	0.0152783
926.545	0.0154043
926.623	0.0152193
926.701	0.0153242
926.780	0.0153148
926.858	0.0153889
926.936	0.0154412
927.014	0.0153278
927.092	0.0152869
927.170	0.0153175
927.248	0.0154288
927.326	0.0155250
927.405	0.0153850
927.483	0.0154095
927.561	0.0156644
927.639	0.0156191
927.717	0.0156841
927.795	0.0156948
927.873	0.0156979
927.951	0.0157456
928.030	0.0157435
928.108	0.0155119
928.186	0.0156446
928.264	0.0156864
928.342	0.0156248
928.420	0.0153429
928.498	0.0155283
928.576	0.0154892
928.655	0.0154647
928.733	0.0154948
928.811	0.0154328
928.889	0.0154457
928.967	0.0153625
929.045	0.0154296
929.123	0.0154580
929.201	0.0154538
929.280	0.0156226
929.358	0.0155162
929.436	0.0154967
929.514	0.0155500
929.592	0.0155025
929.670	0.0156615
929.748	0.0154366
929.826	0.0156639
929.905	0.0155788
929.983	0.0155877
930.061	0.0155091
930.139	0.0155397
930.217	0.0155966
930.295	0.0155849
930.373	0.0154726
930.451	0.0155952
930.530	0.0155122
930.608	0.0155899
930.686	0.0156236
930.764	0.0155890
930.842	0.0154981
930.920	0.0156842
930.998	0.0157500
931.076	0.0155247
931.155	0.0155801
931.233	0.0157901
931.311	0.0157862
931.389	0.0156889
931.467	0.0156370
931.545	0.0157152
931.623	0.0156253
931.701	0.0157518
931.780	0.0156982
931.858	0.0156275
931.936	0.0156657
932.014	0.0155385
932.092	0.0155214
932.170	0.0155171
932.248	0.0154699
932.326	0.0156802
932.405	0.0155112
932.483	0.0156012
932.561	0.0154826
932.639	0.0155160
932.717	0.0155991
932.795	0.0156644
932.873	0.0156595
932.951	0.0155453
933.030	0.0156859
933.108	0.0155450
933.186	0.0155305
933.264	0.0155537
933.342	0.0156183
933.420	0.0155885
933.498	0.0154998
933.576	0.0155916
933.655	0.0155318
933.733	0.0154720
933.811	0.0155441
933.889	0.0155748
933.967	0.0155913
934.045	0.0155519
934.123	0.0155386
934.201	0.0154156
934.280	0.0154353
934.358	0.0155543
934.436	0.0155374
934.514	0.0156112
934.592	0.0155264
934.670	0.0154794
934.748	0.0156691
934.826	0.0156491
934.905	0.0156501
934.983	0.0156708
935.061	0.0157347
935.139	0.0156637
935.217	0.0156622
935.295	0.0157480
935.373	0.0157207
935.451	0.0156953
935.530	0.0156896
935.608	0.0158305
935.686	0.0156778
935.764	0.0156140
935.842	0.0156443
935.920	0.0157863
935.998	0.0155906
936.076	0.0155813
936.155	0.0157207
936.233	0.0155510
936.311	0.0155373
936.389	0.0154878
936.467	0.0154778
936.545	0.0154992
936.623	0.0154684
936.701	0.0154852
936.780	0.0153107
936.858	0.0153362
936.936	0.0154396
937.014	0.0154334
937.092	0.0152760
937.170	0.0152155
937.248	0.0153936
937.326	0.0153964
937.405	0.0154736
937.483	0.0153382
937.561	0.0152701
937.639	0.0152779
937.717	0.0155777
937.795	0.0153979
937.873	0.0154619
937.951	0.0154742
938.030	0.0156140
938.108	0.0153545
938.186	0.0153796
938.264	0.0155555
938.342	0.0155935
938.420	0.0156142
938.498	0.0156166
938.576	0.0156446
938.655	0.0156617
938.733	0.0157024
938.811	0.0157058
938.889	0.0156836
938.967	0.0157557
939.045	0.0156440
939.123	0.0156924
939.201	0.0156271
939.280	0.0156890
939.358	0.0156963
939.436	0.0156479
939.514	0.0155149
939.592	0.0156278
939.670	0.0157002
939.748	0.0156060
939.826	0.0155429
939.905	0.0155790
939.983	0.0157966
940.061	0.0156285
940.139	0.0156074
940.217	0.0156098
940.295	0.0157275
940.373	0.0156305
940.451	0.0156599
940.530	0.0156647
940.608	0.0156387
940.686	0.0155226
940.764	0.0156649
940.842	0.0157529
940.920	0.0157190
940.998	0.0157047
941.076	0.0157456
941.155	0.0155548
941.233	0.0157020
941.311	0.0156459
941.389	0.0157043
941.467	0.0158643
941.545	0.0157419
941.623	0.0156551
941.701	0.0157278
941.780	0.0157660
941.858	0.0156432
941.936	0.0156516
942.014	0.0157140
942.092	0.0158096
942.170	0.0157655
942.248	0.0157915
942.326	0.0156766
942.405	0.0156381
942.483	0.0155874
942.561	0.0156999
942.639	0.0157281
942.717	0.0156201
942.795	0.0157072
942.873	0.0157226
942.951	0.0157846
943.030	0.0155740
943.108	0.0155811
943.186	0.0154519
943.264	0.0156230
943.342	0.0156187
943.420	0.0154852
943.498	0.0155296
943.576	0.0156298
943.655	0.0155876
943.733	0.0154301
943.811	0.0155322
943.889	0.0154804
943.967	0.0155345
944.045	0.0155663
944.123	0.0155022
944.201	0.0153907
944.280	0.0154671
944.358	0.0154398
944.436	0.0154511
944.514	0.0155334
944.592	0.0154059
944.670	0.0154118
944.748	0.0152631
944.826	0.0154240
944.905	0.0154411
944.983	0.0154490
945.061	0.0154948
945.139	0.0154624
945.217	0.0154573
945.295	0.0153922
945.373	0.0154646
945.451	0.0155695
945.530	0.0155068
945.608	0.0153406
945.686	0.0154715
945.764	0.0155231
945.842	0.0154601
945.920	0.0154665
945.998	0.0154851
946.076	0.0155390
946.155	0.0155499
946.233	0.0154217
946.311	0.0155154
946.389	0.0155068
946.467	0.0156334
946.545	0.0155307
946.623	0.0154762
946.701	0.0155888
946.780	0.0154607
946.858	0.0156145
946.936	0.0155680
947.014	0.0154491
947.092	0.0156382
947.170	0.0156002
947.248	0.0156702
947.326	0.0153376
947.405	0.0155427
947.483	0.0155357
947.561	0.0153780
947.639	0.0154807
947.717	0.0153777
947.795	0.0153908
947.873	0.0155341
947.951	0.0156553
948.030	0.0155067
948.108	0.0154868
948.186	0.0155082
948.264	0.0156432
948.342	0.0154985
948.420	0.0155628
948.498	0.0157909
948.576	0.0158083
948.655	0.0156906
948.733	0.0156354
948.811	0.0155927
948.889	0.0156934
948.967	0.0157053
949.045	0.0155930
949.123	0.0156547
949.201	0.0156181
949.280	0.0156254
949.358	0.0156299
949.436	0.0156749
949.514	0.0155809
949.592	0.0155872
949.670	0.0155077
949.748	0.0155571
949.826	0.0154966
949.905	0.0154790
949.983	0.0155569
950.061	0.0154150
950.139	0.0156168
950.217	0.0156151
950.295	0.0156011
950.373	0.0155662
950.451	0.0154239
950.530	0.0156644
950.608	0.0155509
950.686	0.0154364
950.764	0.0156171
950.842	0.0157153
950.920	0.0156226
950.998	0.0155361
951.076	0.0156042
951.155	0.0156427
951.233	0.0155792
951.311	0.0155254
951.389	0.0155302
951.467	0.0155241
951.545	0.0155418
951.623	0.0155120
951.701	0.0155326
951.780	0.0155094
951.858	0.0154610
951.936	0.0155114
952.014	0.0155257
952.092	0.0155485
952.170	0.0155873
952.248	0.0154370
952.326	0.0155206
952.405	0.0154656
952.483	0.0154491
952.561	0.0153514
952.639	0.0153853
952.717	0.0154013
952.795	0.0154702
952.873	0.0153731
952.951	0.0154601
953.030	0.0154221
953.108	0.0154688
953.186	0.0153036
953.264	0.0154538
953.342	0.0155077
953.420	0.0154373
953.498	0.0156775
953.576	0.0157178
953.655	0.0155038
953.733	0.0155753
953.811	0.0155539
953.889	0.0155847
953.967	0.0155592
954.045	0.0155381
954.123	0.0156734
954.201	0.0156232
954.280	0.0155495
954.358	0.0155475
954.436	0.0155931
954.514	0.0156297
954.592	0.0157261
954.670	0.0156437
954.748	0.0155637
954.826	0.0156739
954.905	0.0156699
954.983	0.0156006
955.061	0.0157169
955.139	0.0157158
955.217	0.0155619
955.295	0.0155159
955.373	0.0155432
955.451	0.0155540
955.530	0.0156512
955.608	0.0155518
955.686	0.0156281
955.764	0.0156042
955.842	0.0155648
955.920	0.0156351
955.998	0.0155222
956.076	0.0155653
956.155	0.0155817
956.233	0.0155411
956.311	0.0155969
956.389	0.0154601
956.467	0.0155730
956.545	0.0157520
956.623	0.0156830
956.701	0.0155590
956.780	0.0157425
956.858	0.0158578
956.936	0.0157648
957.014	0.0156726
957.092	0.0156133
957.170	0.0158777
957.248	0.0158135
957.326	0.0157599
957.405	0.0157102
957.483	0.0158017
957.561	0.0158997
957.639	0.0158758
957.717	0.0157346
957.795	0.0158727
957.873	0.0158122
957.951	0.0157825
958.030	0.0158033
958.108	0.0157766
958.186	0.0157134
958.264	0.0157639
958.342	0.0156059
958.420	0.0157737
958.498	0.0156449
958.576	0.0156535
958.655	0.0157697
958.733	0.0156393
958.811	0.0155493
958.889	0.0156214
958.967	0.0156244
959.045	0.0155655
959.123	0.0157004
959.201	0.0156075
959.280	0.0155826
959.358	0.0155747
959.436	0.0155537
959.514	0.0154293
959.592	0.0155844
959.670	0.0154927
959.748	0.0155178
959.826	0.0154197
959.905	0.0154526
