05/17/2022	16:58:29	Ver.	4.1	UNKNOWN
Optical Delay	639.982744	Delta X		0.078125	Sweeps	1	Scan Rate	0/0
Coordinates	Axis 1	NaN	Axis 2	NaN	Axis 3	NaN	Axis 4	NaN	Axis 5	NaN	Axis 6	0.000000
TX Power	0.000000	RX Power	0.000000

639.983	0.0160979
640.061	0.0158870
640.139	0.0159635
640.217	0.0160305
640.295	0.0161672
640.373	0.0161031
640.451	0.0162600
640.530	0.0162241
640.608	0.0161090
640.686	0.0160851
640.764	0.0161701
640.842	0.0161108
640.920	0.0161784
640.998	0.0161465
641.076	0.0162186
641.155	0.0162576
641.233	0.0160797
641.311	0.0160870
641.389	0.0161079
641.467	0.0160633
641.545	0.0161296
641.623	0.0162212
641.701	0.0161303
641.780	0.0160246
641.858	0.0160780
641.936	0.0159903
642.014	0.0159993
642.092	0.0160072
642.170	0.0160912
642.248	0.0161030
642.326	0.0159966
642.405	0.0160194
642.483	0.0160260
642.561	0.0159566
642.639	0.0158604
642.717	0.0159664
642.795	0.0160384
642.873	0.0159953
642.951	0.0161107
643.030	0.0161029
643.108	0.0160078
643.186	0.0159344
643.264	0.0160100
643.342	0.0160020
643.420	0.0160565
643.498	0.0161680
643.576	0.0160924
643.655	0.0160112
643.733	0.0160118
643.811	0.0161417
643.889	0.0161588
643.967	0.0161273
644.045	0.0159371
644.123	0.0160201
644.201	0.0160859
644.280	0.0160868
644.358	0.0160385
644.436	0.0160427
644.514	0.0161319
644.592	0.0160279
644.670	0.0160020
644.748	0.0159563
644.826	0.0160455
644.905	0.0160017
644.983	0.0160152
645.061	0.0160783
645.139	0.0161983
645.217	0.0160548
645.295	0.0159722
645.373	0.0159899
645.451	0.0161434
645.530	0.0160161
645.608	0.0159639
645.686	0.0160306
645.764	0.0162043
645.842	0.0161353
645.920	0.0160487
645.998	0.0162331
646.076	0.0162098
646.155	0.0160701
646.233	0.0159608
646.311	0.0160992
646.389	0.0162125
646.467	0.0160652
646.545	0.0160780
646.623	0.0161741
646.701	0.0159705
646.780	0.0159378
646.858	0.0159663
646.936	0.0159256
647.014	0.0160410
647.092	0.0159407
647.170	0.0159111
647.248	0.0160897
647.326	0.0159693
647.405	0.0159406
647.483	0.0160525
647.561	0.0159386
647.639	0.0161281
647.717	0.0160676
647.795	0.0161700
647.873	0.0161058
647.951	0.0160580
648.030	0.0161205
648.108	0.0160302
648.186	0.0160912
648.264	0.0161455
648.342	0.0160713
648.420	0.0160807
648.498	0.0160956
648.576	0.0161538
648.655	0.0161449
648.733	0.0161412
648.811	0.0160815
648.889	0.0161317
648.967	0.0162007
649.045	0.0161227
649.123	0.0160304
649.201	0.0161219
649.280	0.0161011
649.358	0.0159512
649.436	0.0160570
649.514	0.0159775
649.592	0.0159970
649.670	0.0160829
649.748	0.0160827
649.826	0.0159798
649.905	0.0160275
649.983	0.0158794
650.061	0.0160331
650.139	0.0159254
650.217	0.0160054
650.295	0.0159769
650.373	0.0159718
650.451	0.0159377
650.530	0.0159641
650.608	0.0159966
650.686	0.0162312
650.764	0.0161697
650.842	0.0160165
650.920	0.0160490
650.998	0.0160335
651.076	0.0160537
651.155	0.0159887
651.233	0.0159370
651.311	0.0159509
651.389	0.0158746
651.467	0.0159396
651.545	0.0159293
651.623	0.0159251
651.701	0.0158915
651.780	0.0158547
651.858	0.0158047
651.936	0.0158267
652.014	0.0158636
652.092	0.0158940
652.170	0.0159025
652.248	0.0159689
652.326	0.0158679
652.405	0.0160348
652.483	0.0161476
652.561	0.0160271
652.639	0.0159270
652.717	0.0159318
652.795	0.0160116
652.873	0.0160215
652.951	0.0160383
653.030	0.0161381
653.108	0.0160783
653.186	0.0161008
653.264	0.0161273
653.342	0.0161156
653.420	0.0160600
653.498	0.0161243
653.576	0.0160519
653.655	0.0161285
653.733	0.0161998
653.811	0.0161023
653.889	0.0159867
653.967	0.0159985
654.045	0.0160410
654.123	0.0160133
654.201	0.0160284
654.280	0.0161058
654.358	0.0160501
654.436	0.0161212
654.514	0.0161865
654.592	0.0161175
654.670	0.0161935
654.748	0.0162111
654.826	0.0162085
654.905	0.0162418
654.983	0.0163533
655.061	0.0163975
655.139	0.0162889
655.217	0.0162236
655.295	0.0162988
655.373	0.0162687
655.451	0.0163379
655.530	0.0162746
655.608	0.0162675
655.686	0.0163030
655.764	0.0162917
655.842	0.0162344
655.920	0.0162351
655.998	0.0162986
656.076	0.0163252
656.155	0.0162390
656.233	0.0161372
656.311	0.0161806
656.389	0.0163108
656.467	0.0160786
656.545	0.0160381
656.623	0.0162257
656.701	0.0161169
656.780	0.0158972
656.858	0.0159134
656.936	0.0159782
657.014	0.0159409
657.092	0.0160044
657.170	0.0160748
657.248	0.0159004
657.326	0.0161005
657.405	0.0160100
657.483	0.0160631
657.561	0.0161552
657.639	0.0159823
657.717	0.0159442
657.795	0.0160401
657.873	0.0160494
657.951	0.0160612
658.030	0.0161445
658.108	0.0160233
658.186	0.0160141
658.264	0.0161132
658.342	0.0159880
658.420	0.0161169
658.498	0.0160496
658.576	0.0160341
658.655	0.0159399
658.733	0.0159932
658.811	0.0160505
658.889	0.0158580
658.967	0.0158684
659.045	0.0159266
659.123	0.0158344
659.201	0.0160127
659.280	0.0159449
659.358	0.0158324
659.436	0.0157307
659.514	0.0157144
659.592	0.0158147
659.670	0.0159050
659.748	0.0158228
659.826	0.0158936
659.905	0.0160584
659.983	0.0159513
660.061	0.0159243
660.139	0.0160935
660.217	0.0159476
660.295	0.0160046
660.373	0.0162260
660.451	0.0162062
660.530	0.0162036
660.608	0.0162059
660.686	0.0162258
660.764	0.0163122
660.842	0.0161223
660.920	0.0160349
660.998	0.0163277
661.076	0.0161115
661.155	0.0161774
661.233	0.0162681
661.311	0.0160873
661.389	0.0160349
661.467	0.0161190
661.545	0.0160915
661.623	0.0160111
661.701	0.0160081
661.780	0.0160629
661.858	0.0160089
661.936	0.0159824
662.014	0.0162093
662.092	0.0161044
662.170	0.0161306
662.248	0.0161317
662.326	0.0160780
662.405	0.0160056
662.483	0.0162309
662.561	0.0164516
662.639	0.0164129
662.717	0.0164154
662.795	0.0163700
662.873	0.0162078
662.951	0.0162775
663.030	0.0164114
663.108	0.0161444
663.186	0.0163219
663.264	0.0161550
663.342	0.0162391
663.420	0.0162830
663.498	0.0162902
663.576	0.0162196
663.655	0.0162878
663.733	0.0161218
663.811	0.0162156
663.889	0.0162481
663.967	0.0160825
664.045	0.0162283
664.123	0.0162351
664.201	0.0161146
664.280	0.0163532
664.358	0.0161994
664.436	0.0161814
664.514	0.0162879
664.592	0.0162274
664.670	0.0161274
664.748	0.0163121
664.826	0.0162587
664.905	0.0162873
664.983	0.0162720
665.061	0.0161878
665.139	0.0161831
665.217	0.0161391
665.295	0.0160968
665.373	0.0161758
665.451	0.0161028
665.530	0.0161703
665.608	0.0161554
665.686	0.0160406
665.764	0.0160520
665.842	0.0160658
665.920	0.0159711
665.998	0.0159834
666.076	0.0161092
666.155	0.0159210
666.233	0.0159775
666.311	0.0159550
666.389	0.0159029
666.467	0.0159293
666.545	0.0160735
666.623	0.0160048
666.701	0.0160285
666.780	0.0160191
666.858	0.0159475
666.936	0.0159781
667.014	0.0160877
667.092	0.0160194
667.170	0.0160068
667.248	0.0160041
667.326	0.0159518
667.405	0.0160165
667.483	0.0158877
667.561	0.0158655
667.639	0.0157707
667.717	0.0158429
667.795	0.0159037
667.873	0.0160016
667.951	0.0157506
668.030	0.0157448
668.108	0.0157893
668.186	0.0157784
668.264	0.0159342
668.342	0.0160226
668.420	0.0160028
668.498	0.0159221
668.576	0.0160848
668.655	0.0160689
668.733	0.0161712
668.811	0.0161256
668.889	0.0160764
668.967	0.0162136
669.045	0.0162027
669.123	0.0162335
669.201	0.0161546
669.280	0.0161480
669.358	0.0160320
669.436	0.0159751
669.514	0.0159561
669.592	0.0159548
669.670	0.0159221
669.748	0.0156839
669.826	0.0156891
669.905	0.0155880
669.983	0.0157704
670.061	0.0156405
670.139	0.0156604
670.217	0.0156550
670.295	0.0157725
670.373	0.0157732
670.451	0.0158378
670.530	0.0157271
670.608	0.0161143
670.686	0.0161826
670.764	0.0160036
670.842	0.0159903
670.920	0.0161791
670.998	0.0163987
671.076	0.0164890
671.155	0.0163954
671.233	0.0163692
671.311	0.0164798
671.389	0.0164451
671.467	0.0164512
671.545	0.0164629
671.623	0.0164585
671.701	0.0164920
671.780	0.0164524
671.858	0.0163886
671.936	0.0164938
672.014	0.0163364
672.092	0.0162424
672.170	0.0161215
672.248	0.0161863
672.326	0.0160410
672.405	0.0159058
672.483	0.0159279
672.561	0.0159622
672.639	0.0158424
672.717	0.0158675
672.795	0.0157750
672.873	0.0157194
672.951	0.0158218
673.030	0.0157030
673.108	0.0156770
673.186	0.0157537
673.264	0.0157854
673.342	0.0158280
673.420	0.0158187
673.498	0.0159025
673.576	0.0159310
673.655	0.0158872
673.733	0.0160990
673.811	0.0160459
673.889	0.0161614
673.967	0.0162766
674.045	0.0163210
674.123	0.0164976
674.201	0.0163316
674.280	0.0165955
674.358	0.0165351
674.436	0.0165888
674.514	0.0167744
674.592	0.0166303
674.670	0.0166797
674.748	0.0166695
674.826	0.0167257
674.905	0.0167268
674.983	0.0165215
675.061	0.0165514
675.139	0.0163908
675.217	0.0161664
675.295	0.0161452
675.373	0.0160617
675.451	0.0158916
675.530	0.0157971
675.608	0.0156834
675.686	0.0155451
675.764	0.0156062
675.842	0.0155102
675.920	0.0155061
675.998	0.0154411
676.076	0.0155433
676.155	0.0155106
676.233	0.0158816
676.311	0.0157902
676.389	0.0159011
676.467	0.0159416
676.545	0.0159046
676.623	0.0159254
676.701	0.0160561
676.780	0.0162703
676.858	0.0162180
676.936	0.0161614
677.014	0.0162388
677.092	0.0163320
677.170	0.0161388
677.248	0.0161666
677.326	0.0160611
677.405	0.0162083
677.483	0.0161819
677.561	0.0160407
677.639	0.0160664
677.717	0.0160643
677.795	0.0161325
677.873	0.0160952
677.951	0.0159557
678.030	0.0158553
678.108	0.0159422
678.186	0.0160170
678.264	0.0161205
678.342	0.0161251
678.420	0.0160343
678.498	0.0160774
678.576	0.0162218
678.655	0.0162614
678.733	0.0162395
678.811	0.0162166
678.889	0.0161880
678.967	0.0163237
679.045	0.0165425
679.123	0.0165055
679.201	0.0164380
679.280	0.0164336
679.358	0.0163524
679.436	0.0165031
679.514	0.0166898
679.592	0.0166193
679.670	0.0166048
679.748	0.0165249
679.826	0.0165606
679.905	0.0166318
679.983	0.0166798
680.061	0.0164986
680.139	0.0165420
680.217	0.0165594
680.295	0.0165012
680.373	0.0165198
680.451	0.0164513
680.530	0.0164160
680.608	0.0161803
680.686	0.0161707
680.764	0.0160265
680.842	0.0160580
680.920	0.0159579
680.998	0.0158443
681.076	0.0158448
681.155	0.0157236
681.233	0.0157846
681.311	0.0156721
681.389	0.0154497
681.467	0.0154822
681.545	0.0154653
681.623	0.0154233
681.701	0.0153738
681.780	0.0154948
681.858	0.0153643
681.936	0.0154086
682.014	0.0153248
682.092	0.0152512
682.170	0.0153798
682.248	0.0154270
682.326	0.0155061
682.405	0.0156070
682.483	0.0156181
682.561	0.0158567
682.639	0.0158335
682.717	0.0157338
682.795	0.0158823
682.873	0.0158702
682.951	0.0161022
683.030	0.0160698
683.108	0.0162535
683.186	0.0164334
683.264	0.0161922
683.342	0.0165889
683.420	0.0166629
683.498	0.0167780
683.576	0.0169292
683.655	0.0170703
683.733	0.0170702
683.811	0.0173271
683.889	0.0174158
683.967	0.0174575
684.045	0.0174432
684.123	0.0174254
684.201	0.0175822
684.280	0.0174426
684.358	0.0174095
684.436	0.0173783
684.514	0.0171159
684.592	0.0170289
684.670	0.0168399
684.748	0.0167326
684.826	0.0163804
684.905	0.0162099
684.983	0.0158704
685.061	0.0157780
685.139	0.0155878
685.217	0.0153010
685.295	0.0150804
685.373	0.0150691
685.451	0.0148592
685.530	0.0147646
685.608	0.0147714
685.686	0.0147111
685.764	0.0146133
685.842	0.0147271
685.920	0.0147419
685.998	0.0148555
686.076	0.0148200
686.155	0.0149316
686.233	0.0150308
686.311	0.0151035
686.389	0.0152785
686.467	0.0152503
686.545	0.0153870
686.623	0.0155428
686.701	0.0157080
686.780	0.0157798
686.858	0.0160132
686.936	0.0159884
687.014	0.0161604
687.092	0.0164672
687.170	0.0165633
687.248	0.0166793
687.326	0.0168576
687.405	0.0169526
687.483	0.0167971
687.561	0.0170053
687.639	0.0171637
687.717	0.0172795
687.795	0.0172573
687.873	0.0173322
687.951	0.0172418
688.030	0.0171612
688.108	0.0170776
688.186	0.0170689
688.264	0.0167490
688.342	0.0165979
688.420	0.0166388
688.498	0.0164172
688.576	0.0162721
688.655	0.0160435
688.733	0.0159197
688.811	0.0158820
688.889	0.0157503
688.967	0.0155099
689.045	0.0154716
689.123	0.0154717
689.201	0.0153793
689.280	0.0153371
689.358	0.0154101
689.436	0.0154371
689.514	0.0154762
689.592	0.0155704
689.670	0.0157109
689.748	0.0158559
689.826	0.0159790
689.905	0.0159604
689.983	0.0160793
690.061	0.0162952
690.139	0.0165335
690.217	0.0163932
690.295	0.0164997
690.373	0.0166990
690.451	0.0165636
690.530	0.0166635
690.608	0.0165948
690.686	0.0166897
690.764	0.0164951
690.842	0.0166010
690.920	0.0165533
690.998	0.0165488
691.076	0.0163233
691.155	0.0163516
691.233	0.0162711
691.311	0.0162781
691.389	0.0162286
691.467	0.0160716
691.545	0.0159530
691.623	0.0160004
691.701	0.0159344
691.780	0.0159563
691.858	0.0158700
691.936	0.0158456
692.014	0.0159018
692.092	0.0158734
692.170	0.0158398
692.248	0.0159258
692.326	0.0158390
692.405	0.0156673
692.483	0.0157710
692.561	0.0158156
692.639	0.0159593
692.717	0.0158186
692.795	0.0158887
692.873	0.0158817
692.951	0.0159061
693.030	0.0158749
693.108	0.0160062
693.186	0.0160177
693.264	0.0160674
693.342	0.0161963
693.420	0.0161440
693.498	0.0161276
693.576	0.0160114
693.655	0.0161836
693.733	0.0162627
693.811	0.0162431
693.889	0.0163042
693.967	0.0163100
694.045	0.0162868
694.123	0.0164923
694.201	0.0164377
694.280	0.0162400
694.358	0.0163796
694.436	0.0165310
694.514	0.0163760
694.592	0.0164654
694.670	0.0164626
694.748	0.0164291
694.826	0.0165191
694.905	0.0164496
694.983	0.0165295
695.061	0.0164351
695.139	0.0165002
695.217	0.0165916
695.295	0.0164244
695.373	0.0165025
695.451	0.0164253
695.530	0.0164664
695.608	0.0164706
695.686	0.0165081
695.764	0.0165185
695.842	0.0164166
695.920	0.0166969
695.998	0.0165374
696.076	0.0165147
696.155	0.0164059
696.233	0.0165448
696.311	0.0164615
696.389	0.0164098
696.467	0.0163692
696.545	0.0163136
696.623	0.0162649
696.701	0.0161766
696.780	0.0159921
696.858	0.0160049
696.936	0.0159544
697.014	0.0159703
697.092	0.0159324
697.170	0.0159631
697.248	0.0159280
697.326	0.0157513
697.405	0.0157500
697.483	0.0157438
697.561	0.0157230
697.639	0.0156004
697.717	0.0157159
697.795	0.0156738
697.873	0.0158224
697.951	0.0157141
698.030	0.0156047
698.108	0.0155626
698.186	0.0155761
698.264	0.0156149
698.342	0.0154855
698.420	0.0154891
698.498	0.0154574
698.576	0.0156383
698.655	0.0156573
698.733	0.0156278
698.811	0.0158003
698.889	0.0158537
698.967	0.0160797
699.045	0.0162003
699.123	0.0164212
699.201	0.0165962
699.280	0.0166637
699.358	0.0166482
699.436	0.0167528
699.514	0.0169180
699.592	0.0168015
699.670	0.0169373
699.748	0.0169297
699.826	0.0169203
699.905	0.0169279
699.983	0.0168920
700.061	0.0167914
700.139	0.0165830
700.217	0.0164752
700.295	0.0165011
700.373	0.0162970
700.451	0.0162480
700.530	0.0160741
700.608	0.0159563
700.686	0.0157915
700.764	0.0158461
700.842	0.0156984
700.920	0.0156213
700.998	0.0155877
701.076	0.0157005
701.155	0.0156405
701.233	0.0155047
701.311	0.0156977
701.389	0.0156883
701.467	0.0156409
701.545	0.0156408
701.623	0.0157752
701.701	0.0158128
701.780	0.0157486
701.858	0.0158527
701.936	0.0158926
702.014	0.0160647
702.092	0.0161948
702.170	0.0161519
702.248	0.0161604
702.326	0.0161405
702.405	0.0163205
702.483	0.0163795
702.561	0.0163251
702.639	0.0164600
702.717	0.0165225
702.795	0.0163610
702.873	0.0164464
702.951	0.0164870
703.030	0.0164429
703.108	0.0164289
703.186	0.0164578
703.264	0.0163688
703.342	0.0163995
703.420	0.0163862
703.498	0.0164021
703.576	0.0162737
703.655	0.0162807
703.733	0.0163046
703.811	0.0163227
703.889	0.0164302
703.967	0.0163756
704.045	0.0164870
704.123	0.0163392
704.201	0.0164142
704.280	0.0163286
704.358	0.0165005
704.436	0.0165475
704.514	0.0165292
704.592	0.0165277
704.670	0.0163710
704.748	0.0163369
704.826	0.0164626
704.905	0.0162386
704.983	0.0160538
705.061	0.0160613
705.139	0.0160502
705.217	0.0159421
705.295	0.0157689
705.373	0.0156936
705.451	0.0156670
705.530	0.0153965
705.608	0.0154245
705.686	0.0154113
705.764	0.0154906
705.842	0.0153901
705.920	0.0153973
705.998	0.0152214
706.076	0.0153127
706.155	0.0153616
706.233	0.0153207
706.311	0.0154932
706.389	0.0154142
706.467	0.0153867
706.545	0.0155032
706.623	0.0156657
706.701	0.0158766
706.780	0.0158540
706.858	0.0158633
706.936	0.0160902
707.014	0.0162293
707.092	0.0161350
707.170	0.0163358
707.248	0.0165090
707.326	0.0165420
707.405	0.0166606
707.483	0.0167486
707.561	0.0167003
707.639	0.0168240
707.717	0.0168147
707.795	0.0167952
707.873	0.0167167
707.951	0.0166794
708.030	0.0167495
708.108	0.0166345
708.186	0.0164458
708.264	0.0164487
708.342	0.0162284
708.420	0.0161104
708.498	0.0160055
708.576	0.0158778
708.655	0.0155714
708.733	0.0156606
708.811	0.0155217
708.889	0.0153992
708.967	0.0153301
709.045	0.0153363
709.123	0.0153634
709.201	0.0154285
709.280	0.0154463
709.358	0.0154144
709.436	0.0156844
709.514	0.0157818
709.592	0.0157842
709.670	0.0159772
709.748	0.0159483
709.826	0.0161205
709.905	0.0161007
709.983	0.0159875
710.061	0.0160529
710.139	0.0163190
710.217	0.0163354
710.295	0.0163009
710.373	0.0163046
710.451	0.0161893
710.530	0.0161892
710.608	0.0163086
710.686	0.0163079
710.764	0.0163732
710.842	0.0162968
710.920	0.0162183
710.998	0.0162760
711.076	0.0162769
711.155	0.0164365
711.233	0.0163246
711.311	0.0162556
711.389	0.0164037
711.467	0.0163891
711.545	0.0161599
711.623	0.0163276
711.701	0.0162309
711.780	0.0163847
711.858	0.0164921
711.936	0.0165427
712.014	0.0163777
712.092	0.0161861
712.170	0.0163416
712.248	0.0163807
712.326	0.0162225
712.405	0.0163971
712.483	0.0162878
712.561	0.0163250
712.639	0.0162610
712.717	0.0161672
712.795	0.0162895
712.873	0.0162965
712.951	0.0162228
713.030	0.0164133
713.108	0.0163714
713.186	0.0163944
713.264	0.0161800
713.342	0.0162657
713.420	0.0163948
713.498	0.0163175
713.576	0.0163690
713.655	0.0162253
713.733	0.0160703
713.811	0.0158697
713.889	0.0159840
713.967	0.0157858
714.045	0.0157147
714.123	0.0156866
714.201	0.0155586
714.280	0.0155778
714.358	0.0155746
714.436	0.0153908
714.514	0.0155038
714.592	0.0155428
714.670	0.0152782
714.748	0.0154016
714.826	0.0153801
714.905	0.0154784
714.983	0.0155152
715.061	0.0156565
715.139	0.0156082
715.217	0.0158730
715.295	0.0160461
715.373	0.0159716
715.451	0.0159426
715.530	0.0160037
715.608	0.0162086
715.686	0.0161427
715.764	0.0162632
715.842	0.0162491
715.920	0.0162924
715.998	0.0164422
716.076	0.0163392
716.155	0.0165191
716.233	0.0164472
716.311	0.0164320
716.389	0.0164779
716.467	0.0164660
716.545	0.0164098
716.623	0.0163238
716.701	0.0163531
716.780	0.0163550
716.858	0.0162708
716.936	0.0163597
717.014	0.0163283
717.092	0.0163470
717.170	0.0163321
717.248	0.0163470
717.326	0.0162840
717.405	0.0163195
717.483	0.0165217
717.561	0.0164167
717.639	0.0165305
717.717	0.0166984
717.795	0.0165511
717.873	0.0165698
717.951	0.0167553
718.030	0.0166750
718.108	0.0167113
718.186	0.0167325
718.264	0.0166511
718.342	0.0165369
718.420	0.0166492
718.498	0.0164944
718.576	0.0164300
718.655	0.0162582
718.733	0.0162810
718.811	0.0160617
718.889	0.0159374
718.967	0.0159232
719.045	0.0158333
719.123	0.0157557
719.201	0.0155849
719.280	0.0154810
719.358	0.0154169
719.436	0.0155023
719.514	0.0154734
719.592	0.0155491
719.670	0.0156320
719.748	0.0157576
719.826	0.0156676
719.905	0.0157001
719.983	0.0158796
720.061	0.0159056
720.139	0.0159812
720.217	0.0158299
720.295	0.0159875
720.373	0.0159442
720.451	0.0158927
720.530	0.0159744
720.608	0.0158735
720.686	0.0156769
720.764	0.0157658
720.842	0.0156813
720.920	0.0156615
720.998	0.0155051
721.076	0.0156076
721.155	0.0155893
721.233	0.0155840
721.311	0.0155023
721.389	0.0153911
721.467	0.0154589
721.545	0.0155075
721.623	0.0156253
721.701	0.0154955
721.780	0.0156779
721.858	0.0157055
721.936	0.0156596
722.014	0.0158294
722.092	0.0159818
722.170	0.0159534
722.248	0.0160802
722.326	0.0162677
722.405	0.0164115
722.483	0.0164967
722.561	0.0166771
722.639	0.0167035
722.717	0.0169981
722.795	0.0170530
722.873	0.0171146
722.951	0.0172433
723.030	0.0171521
723.108	0.0172394
723.186	0.0170179
723.264	0.0168980
723.342	0.0169126
723.420	0.0167410
723.498	0.0167295
723.576	0.0166029
723.655	0.0163746
723.733	0.0163272
723.811	0.0163264
723.889	0.0162288
723.967	0.0161564
724.045	0.0159529
724.123	0.0160464
724.201	0.0161324
724.280	0.0159415
724.358	0.0160274
724.436	0.0159405
724.514	0.0161842
724.592	0.0161160
724.670	0.0160285
724.748	0.0162963
724.826	0.0161777
724.905	0.0164248
724.983	0.0163783
725.061	0.0164149
725.139	0.0164133
725.217	0.0162849
725.295	0.0160970
725.373	0.0163901
725.451	0.0162418
725.530	0.0161344
725.608	0.0161031
725.686	0.0159973
725.764	0.0160098
725.842	0.0161158
725.920	0.0159435
725.998	0.0159535
726.076	0.0160145
726.155	0.0160926
726.233	0.0159985
726.311	0.0160145
726.389	0.0160950
726.467	0.0160001
726.545	0.0160363
726.623	0.0160217
726.701	0.0160522
726.780	0.0158681
726.858	0.0158847
726.936	0.0159334
727.014	0.0157550
727.092	0.0157094
727.170	0.0156837
727.248	0.0156738
727.326	0.0156721
727.405	0.0157342
727.483	0.0156489
727.561	0.0156413
727.639	0.0156218
727.717	0.0156751
727.795	0.0157806
727.873	0.0157732
727.951	0.0158758
728.030	0.0159508
728.108	0.0160028
728.186	0.0161308
728.264	0.0160578
728.342	0.0160935
728.420	0.0161343
728.498	0.0161250
728.576	0.0159008
728.655	0.0160596
728.733	0.0161144
728.811	0.0158482
728.889	0.0158459
728.967	0.0160073
729.045	0.0160329
729.123	0.0159517
729.201	0.0159998
729.280	0.0160011
729.358	0.0158647
729.436	0.0158954
729.514	0.0160115
729.592	0.0160973
729.670	0.0161671
729.748	0.0163594
729.826	0.0163390
729.905	0.0162834
729.983	0.0162959
730.061	0.0163931
730.139	0.0163333
730.217	0.0163589
730.295	0.0164213
730.373	0.0163961
730.451	0.0164619
730.530	0.0164171
730.608	0.0163937
730.686	0.0165726
730.764	0.0164086
730.842	0.0163490
730.920	0.0164616
730.998	0.0163874
731.076	0.0164610
731.155	0.0166538
731.233	0.0164012
731.311	0.0164297
731.389	0.0165708
731.467	0.0165716
731.545	0.0162744
731.623	0.0163020
731.701	0.0162075
731.780	0.0162088
731.858	0.0161782
731.936	0.0160986
732.014	0.0160966
732.092	0.0160422
732.170	0.0160934
732.248	0.0160273
732.326	0.0157681
732.405	0.0159678
732.483	0.0158722
732.561	0.0158282
732.639	0.0159911
732.717	0.0158657
732.795	0.0158085
732.873	0.0160455
732.951	0.0160482
733.030	0.0160448
733.108	0.0161564
733.186	0.0162857
733.264	0.0164265
733.342	0.0163370
733.420	0.0163266
733.498	0.0164754
733.576	0.0163911
733.655	0.0165168
733.733	0.0163314
733.811	0.0163206
733.889	0.0164802
733.967	0.0164072
734.045	0.0162080
734.123	0.0160909
734.201	0.0160385
734.280	0.0158770
734.358	0.0160847
734.436	0.0160915
734.514	0.0160041
734.592	0.0159061
734.670	0.0159527
734.748	0.0159429
734.826	0.0159990
734.905	0.0160505
734.983	0.0159189
735.061	0.0159521
735.139	0.0160179
735.217	0.0159624
735.295	0.0159523
735.373	0.0160038
735.451	0.0160555
735.530	0.0159978
735.608	0.0159798
735.686	0.0160059
735.764	0.0159655
735.842	0.0160288
735.920	0.0161765
735.998	0.0161675
736.076	0.0160513
736.155	0.0164021
736.233	0.0163065
736.311	0.0160865
736.389	0.0161237
736.467	0.0161308
736.545	0.0161654
736.623	0.0160444
736.701	0.0159343
736.780	0.0159605
736.858	0.0160240
736.936	0.0159386
737.014	0.0157950
737.092	0.0159203
737.170	0.0159306
737.248	0.0158624
737.326	0.0159885
737.405	0.0160195
737.483	0.0160289
737.561	0.0160099
737.639	0.0159559
737.717	0.0161001
737.795	0.0160998
737.873	0.0160366
737.951	0.0159805
738.030	0.0161152
738.108	0.0162203
738.186	0.0160919
738.264	0.0160707
738.342	0.0161009
738.420	0.0163000
738.498	0.0162640
738.576	0.0162054
738.655	0.0161890
738.733	0.0161441
738.811	0.0161120
738.889	0.0162719
738.967	0.0161730
739.045	0.0162638
739.123	0.0163315
739.201	0.0162321
739.280	0.0164310
739.358	0.0163519
739.436	0.0161427
739.514	0.0161433
739.592	0.0162365
739.670	0.0161259
739.748	0.0160487
739.826	0.0159549
739.905	0.0160023
739.983	0.0159936
740.061	0.0159232
740.139	0.0158253
740.217	0.0156281
740.295	0.0157467
740.373	0.0155973
740.451	0.0155749
740.530	0.0156412
740.608	0.0156624
740.686	0.0157043
740.764	0.0158481
740.842	0.0159038
740.920	0.0157538
740.998	0.0159526
741.076	0.0160944
741.155	0.0160806
741.233	0.0160577
741.311	0.0164046
741.389	0.0164082
741.467	0.0163528
741.545	0.0164430
741.623	0.0163633
741.701	0.0164464
741.780	0.0162792
741.858	0.0163828
741.936	0.0162589
742.014	0.0160856
742.092	0.0160379
742.170	0.0161304
742.248	0.0159296
742.326	0.0158057
742.405	0.0157240
742.483	0.0157869
742.561	0.0157216
742.639	0.0156065
742.717	0.0156396
742.795	0.0157915
742.873	0.0156478
742.951	0.0158781
743.030	0.0157684
743.108	0.0159402
743.186	0.0159801
743.264	0.0160807
743.342	0.0161464
743.420	0.0161106
743.498	0.0162161
743.576	0.0161594
743.655	0.0163723
743.733	0.0164543
743.811	0.0161327
743.889	0.0162061
743.967	0.0164127
744.045	0.0163037
744.123	0.0163193
744.201	0.0161277
744.280	0.0161434
744.358	0.0161651
744.436	0.0160423
744.514	0.0161803
744.592	0.0160682
744.670	0.0160672
744.748	0.0161538
744.826	0.0161635
744.905	0.0161019
744.983	0.0160858
745.061	0.0160696
745.139	0.0159421
745.217	0.0158878
745.295	0.0160258
745.373	0.0161156
745.451	0.0159472
745.530	0.0158915
745.608	0.0160578
745.686	0.0160163
745.764	0.0158569
745.842	0.0160172
745.920	0.0159749
745.998	0.0160408
746.076	0.0161227
746.155	0.0161541
746.233	0.0161385
746.311	0.0160903
746.389	0.0161102
746.467	0.0161397
746.545	0.0161290
746.623	0.0162693
746.701	0.0161410
746.780	0.0161580
746.858	0.0160934
746.936	0.0161439
747.014	0.0161797
747.092	0.0161832
747.170	0.0162721
747.248	0.0160701
747.326	0.0160442
747.405	0.0160056
747.483	0.0160976
747.561	0.0161075
747.639	0.0160806
747.717	0.0159624
747.795	0.0159389
747.873	0.0159859
747.951	0.0160207
748.030	0.0159657
748.108	0.0158776
748.186	0.0158425
748.264	0.0158994
748.342	0.0160092
748.420	0.0161594
748.498	0.0159893
748.576	0.0160993
748.655	0.0160864
748.733	0.0162485
748.811	0.0162508
748.889	0.0161573
748.967	0.0162675
749.045	0.0163828
749.123	0.0163073
749.201	0.0162077
749.280	0.0162688
749.358	0.0163407
749.436	0.0160753
749.514	0.0161624
749.592	0.0161346
749.670	0.0161646
749.748	0.0160302
749.826	0.0158587
749.905	0.0158373
749.983	0.0158846
750.061	0.0157695
750.139	0.0158141
750.217	0.0158945
750.295	0.0157849
750.373	0.0158188
750.451	0.0159308
750.530	0.0159010
750.608	0.0158000
750.686	0.0159837
750.764	0.0159796
750.842	0.0161907
750.920	0.0161749
750.998	0.0161771
751.076	0.0162485
751.155	0.0163879
751.233	0.0163417
751.311	0.0163840
751.389	0.0164741
751.467	0.0164915
751.545	0.0164809
751.623	0.0164657
751.701	0.0164866
751.780	0.0162997
751.858	0.0164905
751.936	0.0165984
752.014	0.0165006
752.092	0.0164745
752.170	0.0162228
752.248	0.0162795
752.326	0.0163452
752.405	0.0162781
752.483	0.0160681
752.561	0.0161005
752.639	0.0161292
752.717	0.0159673
752.795	0.0160808
752.873	0.0159932
752.951	0.0159702
753.030	0.0160975
753.108	0.0158950
753.186	0.0159684
753.264	0.0160089
753.342	0.0159657
753.420	0.0160979
753.498	0.0159130
753.576	0.0159914
753.655	0.0159583
753.733	0.0159245
753.811	0.0159829
753.889	0.0159836
753.967	0.0159245
754.045	0.0159119
754.123	0.0160222
754.201	0.0161086
754.280	0.0160207
754.358	0.0161243
754.436	0.0160902
754.514	0.0160512
754.592	0.0161265
754.670	0.0163173
754.748	0.0162556
754.826	0.0164449
754.905	0.0163856
754.983	0.0163903
755.061	0.0162993
755.139	0.0165002
755.217	0.0165367
755.295	0.0165196
755.373	0.0166145
755.451	0.0167103
755.530	0.0166107
755.608	0.0165894
755.686	0.0165310
755.764	0.0165467
755.842	0.0165735
755.920	0.0164378
755.998	0.0162671
756.076	0.0165147
756.155	0.0164532
756.233	0.0164593
756.311	0.0161490
756.389	0.0162604
756.467	0.0163903
756.545	0.0163618
756.623	0.0164020
756.701	0.0163102
756.780	0.0162614
756.858	0.0164584
756.936	0.0163470
757.014	0.0162632
757.092	0.0163831
757.170	0.0163278
757.248	0.0164175
757.326	0.0163717
757.405	0.0163963
757.483	0.0163377
757.561	0.0162707
757.639	0.0161513
757.717	0.0162167
757.795	0.0159148
757.873	0.0160946
757.951	0.0160362
758.030	0.0156799
758.108	0.0156520
758.186	0.0156988
758.264	0.0156607
758.342	0.0157965
758.420	0.0155660
758.498	0.0156678
758.576	0.0157584
758.655	0.0157296
758.733	0.0158698
758.811	0.0159093
758.889	0.0159648
758.967	0.0160474
759.045	0.0160926
759.123	0.0164244
759.201	0.0161879
759.280	0.0162706
759.358	0.0163562
759.436	0.0163856
759.514	0.0165540
759.592	0.0165248
759.670	0.0164545
759.748	0.0165962
759.826	0.0165752
759.905	0.0164877
759.983	0.0163423
760.061	0.0163506
760.139	0.0164690
760.217	0.0163079
760.295	0.0161383
760.373	0.0161385
760.451	0.0161295
760.530	0.0160340
760.608	0.0160141
760.686	0.0158380
760.764	0.0158627
760.842	0.0159373
760.920	0.0160384
760.998	0.0159505
761.076	0.0160469
761.155	0.0159497
761.233	0.0158829
761.311	0.0159207
761.389	0.0162486
761.467	0.0158972
761.545	0.0159274
761.623	0.0160190
761.701	0.0160135
761.780	0.0157705
761.858	0.0160278
761.936	0.0159883
762.014	0.0158470
762.092	0.0157987
762.170	0.0158114
762.248	0.0158929
762.326	0.0158849
762.405	0.0158523
762.483	0.0159973
762.561	0.0159324
762.639	0.0159819
762.717	0.0160637
762.795	0.0158691
762.873	0.0160964
762.951	0.0161027
763.030	0.0162208
763.108	0.0162775
763.186	0.0164894
763.264	0.0162380
763.342	0.0162927
763.420	0.0163108
763.498	0.0163386
763.576	0.0163077
763.655	0.0162232
763.733	0.0161441
763.811	0.0161552
763.889	0.0160837
763.967	0.0161262
764.045	0.0158968
764.123	0.0161279
764.201	0.0160393
764.280	0.0159917
764.358	0.0157818
764.436	0.0158713
764.514	0.0161040
764.592	0.0161082
764.670	0.0160938
764.748	0.0160473
764.826	0.0160629
764.905	0.0161383
764.983	0.0161906
765.061	0.0162083
765.139	0.0162646
765.217	0.0162199
765.295	0.0162833
765.373	0.0163155
765.451	0.0163354
765.530	0.0163167
765.608	0.0161872
765.686	0.0160037
765.764	0.0160238
765.842	0.0160234
765.920	0.0159574
765.998	0.0158600
766.076	0.0159576
766.155	0.0157352
766.233	0.0158823
766.311	0.0156878
766.389	0.0156777
766.467	0.0157153
766.545	0.0158189
766.623	0.0157510
766.701	0.0158791
766.780	0.0157986
766.858	0.0159200
766.936	0.0159869
767.014	0.0159281
767.092	0.0159769
767.170	0.0159730
767.248	0.0160681
767.326	0.0162346
767.405	0.0160607
767.483	0.0161725
767.561	0.0162615
767.639	0.0163219
767.717	0.0162542
767.795	0.0162621
767.873	0.0162086
767.951	0.0162503
768.030	0.0161469
768.108	0.0162358
768.186	0.0162440
768.264	0.0162019
768.342	0.0161395
768.420	0.0161070
768.498	0.0162495
768.576	0.0162238
768.655	0.0161858
768.733	0.0160591
768.811	0.0161609
768.889	0.0161991
768.967	0.0161596
769.045	0.0160883
769.123	0.0160922
769.201	0.0160074
769.280	0.0161902
769.358	0.0160117
769.436	0.0160732
769.514	0.0159238
769.592	0.0160637
769.670	0.0160443
769.748	0.0160121
769.826	0.0160900
769.905	0.0159544
769.983	0.0160175
770.061	0.0161835
770.139	0.0160371
770.217	0.0159718
770.295	0.0159384
770.373	0.0160471
770.451	0.0160561
770.530	0.0161320
770.608	0.0161565
770.686	0.0161768
770.764	0.0161741
770.842	0.0163235
770.920	0.0162984
770.998	0.0162881
771.076	0.0162705
771.155	0.0163151
771.233	0.0163364
771.311	0.0162809
771.389	0.0163378
771.467	0.0162266
771.545	0.0161570
771.623	0.0161794
771.701	0.0162188
771.780	0.0160915
771.858	0.0161758
771.936	0.0160313
772.014	0.0158475
772.092	0.0160572
772.170	0.0160609
772.248	0.0159269
772.326	0.0160341
772.405	0.0160346
772.483	0.0162028
772.561	0.0162685
772.639	0.0162586
772.717	0.0162926
772.795	0.0162833
772.873	0.0164155
772.951	0.0162601
773.030	0.0163246
773.108	0.0163943
773.186	0.0162893
773.264	0.0163123
773.342	0.0162138
773.420	0.0160796
773.498	0.0162898
773.576	0.0163221
773.655	0.0160083
773.733	0.0159254
773.811	0.0161473
773.889	0.0158023
773.967	0.0157833
774.045	0.0159158
774.123	0.0159505
774.201	0.0160383
774.280	0.0160079
774.358	0.0159185
774.436	0.0159089
774.514	0.0157763
774.592	0.0160336
774.670	0.0160748
774.748	0.0159956
774.826	0.0162405
774.905	0.0160989
774.983	0.0160799
775.061	0.0161462
775.139	0.0162494
775.217	0.0162257
775.295	0.0163128
775.373	0.0162667
775.451	0.0163572
775.530	0.0163253
775.608	0.0162228
775.686	0.0163295
775.764	0.0163471
775.842	0.0163215
775.920	0.0163565
775.998	0.0163972
776.076	0.0164020
776.155	0.0163692
776.233	0.0164084
776.311	0.0165296
776.389	0.0165000
776.467	0.0164934
776.545	0.0164674
776.623	0.0166325
776.701	0.0163921
776.780	0.0163589
776.858	0.0163795
776.936	0.0163224
777.014	0.0163274
777.092	0.0164791
777.170	0.0165091
777.248	0.0163773
777.326	0.0163416
777.405	0.0163283
777.483	0.0161886
777.561	0.0161247
777.639	0.0162352
777.717	0.0162312
777.795	0.0161301
777.873	0.0161688
777.951	0.0162290
778.030	0.0160821
778.108	0.0159766
778.186	0.0160552
778.264	0.0161285
778.342	0.0160337
778.420	0.0160850
778.498	0.0159853
778.576	0.0159592
778.655	0.0159399
778.733	0.0159984
778.811	0.0159883
778.889	0.0160440
778.967	0.0161931
779.045	0.0161329
779.123	0.0161167
779.201	0.0161938
779.280	0.0160110
779.358	0.0160822
779.436	0.0162594
779.514	0.0160460
779.592	0.0160458
779.670	0.0161288
779.748	0.0163149
779.826	0.0162056
779.905	0.0161387
779.983	0.0163313
780.061	0.0163810
780.139	0.0162514
780.217	0.0163274
780.295	0.0164255
780.373	0.0163671
780.451	0.0164563
780.530	0.0165694
780.608	0.0165926
780.686	0.0165926
780.764	0.0166100
780.842	0.0165791
780.920	0.0165465
780.998	0.0165668
781.076	0.0166137
781.155	0.0164361
781.233	0.0164909
781.311	0.0163671
781.389	0.0164126
781.467	0.0162687
781.545	0.0163697
781.623	0.0163491
781.701	0.0161341
781.780	0.0161160
781.858	0.0162276
781.936	0.0160152
782.014	0.0159525
782.092	0.0159189
782.170	0.0158944
782.248	0.0157970
782.326	0.0157742
782.405	0.0158160
782.483	0.0158280
782.561	0.0156892
782.639	0.0157876
782.717	0.0156409
782.795	0.0157820
782.873	0.0159714
782.951	0.0158636
783.030	0.0158002
783.108	0.0159451
783.186	0.0160359
783.264	0.0158890
783.342	0.0158650
783.420	0.0160674
783.498	0.0159389
783.576	0.0161036
783.655	0.0160159
783.733	0.0160368
783.811	0.0161306
783.889	0.0160611
783.967	0.0160678
784.045	0.0162493
784.123	0.0162794
784.201	0.0162401
784.280	0.0162350
784.358	0.0162993
784.436	0.0164409
784.514	0.0162753
784.592	0.0163605
784.670	0.0163220
784.748	0.0161192
784.826	0.0161852
784.905	0.0162563
784.983	0.0161975
785.061	0.0160956
785.139	0.0160600
785.217	0.0161136
785.295	0.0161045
785.373	0.0160836
785.451	0.0159840
785.530	0.0159779
785.608	0.0161568
785.686	0.0160857
785.764	0.0159767
785.842	0.0161165
785.920	0.0160676
785.998	0.0159998
786.076	0.0162007
786.155	0.0160203
786.233	0.0161204
786.311	0.0162078
786.389	0.0160409
786.467	0.0161572
786.545	0.0163618
786.623	0.0161700
786.701	0.0160568
786.780	0.0163405
786.858	0.0162868
786.936	0.0162717
787.014	0.0161115
787.092	0.0162339
787.170	0.0162419
787.248	0.0161911
787.326	0.0161950
787.405	0.0162950
787.483	0.0161893
787.561	0.0161012
787.639	0.0160715
787.717	0.0161148
787.795	0.0161305
787.873	0.0161057
787.951	0.0160458
788.030	0.0161810
788.108	0.0161170
788.186	0.0162405
788.264	0.0162228
788.342	0.0161651
788.420	0.0162729
788.498	0.0163927
788.576	0.0161766
788.655	0.0162158
788.733	0.0162919
788.811	0.0164072
788.889	0.0162618
788.967	0.0163981
789.045	0.0163061
789.123	0.0162156
789.201	0.0162352
789.280	0.0161989
789.358	0.0161167
789.436	0.0160254
789.514	0.0160899
789.592	0.0159403
789.670	0.0159634
789.748	0.0160575
789.826	0.0157953
789.905	0.0158992
789.983	0.0160720
790.061	0.0159833
790.139	0.0160617
790.217	0.0159067
790.295	0.0159991
790.373	0.0158051
790.451	0.0158486
790.530	0.0159695
790.608	0.0158990
790.686	0.0161027
790.764	0.0158629
790.842	0.0157774
790.920	0.0159277
790.998	0.0158546
791.076	0.0160907
791.155	0.0160126
791.233	0.0160682
791.311	0.0161466
791.389	0.0159109
791.467	0.0160190
791.545	0.0160709
791.623	0.0160555
791.701	0.0161034
791.780	0.0160893
791.858	0.0161997
791.936	0.0162426
792.014	0.0160186
792.092	0.0162020
792.170	0.0161725
792.248	0.0161259
792.326	0.0162316
792.405	0.0163172
792.483	0.0162144
792.561	0.0163611
792.639	0.0162543
792.717	0.0162737
792.795	0.0162859
792.873	0.0162106
792.951	0.0161450
793.030	0.0161725
793.108	0.0161156
793.186	0.0160791
793.264	0.0161134
793.342	0.0160738
793.420	0.0160867
793.498	0.0160613
793.576	0.0161924
793.655	0.0162060
793.733	0.0160989
793.811	0.0161289
793.889	0.0160587
793.967	0.0160185
794.045	0.0160949
794.123	0.0161496
794.201	0.0161543
794.280	0.0160952
794.358	0.0161243
794.436	0.0160439
794.514	0.0160764
794.592	0.0159763
794.670	0.0161070
794.748	0.0159932
794.826	0.0159466
794.905	0.0159676
794.983	0.0160154
795.061	0.0160638
795.139	0.0161369
795.217	0.0160404
795.295	0.0159412
795.373	0.0161331
795.451	0.0160264
795.530	0.0159621
795.608	0.0160943
795.686	0.0161079
795.764	0.0161449
795.842	0.0162637
795.920	0.0162656
795.998	0.0162546
796.076	0.0162500
796.155	0.0162826
796.233	0.0161642
796.311	0.0162761
796.389	0.0162818
796.467	0.0164352
796.545	0.0165347
796.623	0.0165005
796.701	0.0163519
796.780	0.0163902
796.858	0.0164449
796.936	0.0164096
797.014	0.0163695
797.092	0.0164085
797.170	0.0164359
797.248	0.0164820
797.326	0.0164735
797.405	0.0164845
797.483	0.0163997
797.561	0.0164812
797.639	0.0162837
797.717	0.0162636
797.795	0.0162663
797.873	0.0163697
797.951	0.0161491
798.030	0.0160783
798.108	0.0162041
798.186	0.0161874
798.264	0.0161504
798.342	0.0160957
798.420	0.0161602
798.498	0.0160694
798.576	0.0159115
798.655	0.0158667
798.733	0.0160381
798.811	0.0158697
798.889	0.0157635
798.967	0.0158405
799.045	0.0158374
799.123	0.0157780
799.201	0.0158519
799.280	0.0159084
799.358	0.0158805
799.436	0.0159661
799.514	0.0159230
799.592	0.0159472
799.670	0.0160612
799.748	0.0160321
799.826	0.0160454
799.905	0.0161297
799.983	0.0160977
800.061	0.0161839
800.139	0.0161707
800.217	0.0161997
800.295	0.0161527
800.373	0.0162618
800.451	0.0163911
800.530	0.0162800
800.608	0.0162020
800.686	0.0164027
800.764	0.0163870
800.842	0.0163413
800.920	0.0164424
800.998	0.0163898
801.076	0.0162495
801.155	0.0164383
801.233	0.0163492
801.311	0.0164063
801.389	0.0162837
801.467	0.0162957
801.545	0.0162067
801.623	0.0162521
801.701	0.0163268
801.780	0.0161774
801.858	0.0162165
801.936	0.0161424
802.014	0.0162499
802.092	0.0163683
802.170	0.0163642
802.248	0.0162490
802.326	0.0163226
802.405	0.0163840
802.483	0.0162583
802.561	0.0162432
802.639	0.0163579
802.717	0.0162138
802.795	0.0161258
802.873	0.0160856
802.951	0.0161194
803.030	0.0159777
803.108	0.0159071
803.186	0.0159636
803.264	0.0160226
803.342	0.0160257
803.420	0.0158840
803.498	0.0159475
803.576	0.0160178
803.655	0.0158955
803.733	0.0160142
803.811	0.0159183
803.889	0.0160547
803.967	0.0160994
804.045	0.0161087
804.123	0.0161016
804.201	0.0161123
804.280	0.0161526
804.358	0.0161284
804.436	0.0161543
804.514	0.0161014
804.592	0.0159475
804.670	0.0161665
804.748	0.0161321
804.826	0.0162048
804.905	0.0161936
804.983	0.0162349
805.061	0.0161069
805.139	0.0162270
805.217	0.0161519
805.295	0.0160740
805.373	0.0160493
805.451	0.0161819
805.530	0.0161087
805.608	0.0161638
805.686	0.0162299
805.764	0.0161260
805.842	0.0161595
805.920	0.0160664
805.998	0.0160464
806.076	0.0159884
806.155	0.0160256
806.233	0.0160053
806.311	0.0159063
806.389	0.0159481
806.467	0.0159912
806.545	0.0158411
806.623	0.0158442
806.701	0.0158929
806.780	0.0158815
806.858	0.0159680
806.936	0.0160672
807.014	0.0158987
807.092	0.0159256
807.170	0.0158318
807.248	0.0157947
807.326	0.0159544
807.405	0.0159110
807.483	0.0158744
807.561	0.0158544
807.639	0.0160479
807.717	0.0159698
807.795	0.0159487
807.873	0.0160769
807.951	0.0160738
808.030	0.0162241
808.108	0.0161468
808.186	0.0160840
808.264	0.0161922
808.342	0.0161576
808.420	0.0161671
808.498	0.0162970
808.576	0.0162726
808.655	0.0163055
808.733	0.0162302
808.811	0.0162238
808.889	0.0162939
808.967	0.0163171
809.045	0.0161939
809.123	0.0163965
809.201	0.0163126
809.280	0.0162669
809.358	0.0163412
809.436	0.0161677
809.514	0.0162323
809.592	0.0161746
809.670	0.0162430
809.748	0.0162077
809.826	0.0160275
809.905	0.0161228
809.983	0.0161523
810.061	0.0160825
810.139	0.0160857
810.217	0.0161786
810.295	0.0161142
810.373	0.0160623
810.451	0.0160554
810.530	0.0161089
810.608	0.0161051
810.686	0.0159081
810.764	0.0160269
810.842	0.0159528
810.920	0.0158705
810.998	0.0158678
811.076	0.0157852
811.155	0.0160156
811.233	0.0158997
811.311	0.0157278
811.389	0.0158927
811.467	0.0159009
811.545	0.0159715
811.623	0.0158960
811.701	0.0157879
811.780	0.0156126
811.858	0.0158245
811.936	0.0157474
812.014	0.0157557
812.092	0.0158659
812.170	0.0158624
812.248	0.0158521
812.326	0.0160081
812.405	0.0159900
812.483	0.0160637
812.561	0.0158457
812.639	0.0161189
812.717	0.0160497
812.795	0.0159450
812.873	0.0161143
812.951	0.0161283
813.030	0.0162223
813.108	0.0161527
813.186	0.0160968
813.264	0.0161871
813.342	0.0161909
813.420	0.0162564
813.498	0.0163483
813.576	0.0164410
813.655	0.0164595
813.733	0.0163847
813.811	0.0163033
813.889	0.0164215
813.967	0.0164133
814.045	0.0164652
814.123	0.0165802
814.201	0.0164444
814.280	0.0163731
814.358	0.0166041
814.436	0.0163935
814.514	0.0164649
814.592	0.0164378
814.670	0.0163383
814.748	0.0163819
814.826	0.0162886
814.905	0.0162382
814.983	0.0162952
815.061	0.0161010
815.139	0.0161391
815.217	0.0161479
815.295	0.0160230
815.373	0.0158485
815.451	0.0160140
815.530	0.0157751
815.608	0.0157816
815.686	0.0156860
815.764	0.0157139
815.842	0.0156139
815.920	0.0156134
815.998	0.0156066
816.076	0.0157404
816.155	0.0156677
816.233	0.0157656
816.311	0.0157132
816.389	0.0158324
816.467	0.0159008
816.545	0.0158584
816.623	0.0159921
816.701	0.0160587
816.780	0.0161084
816.858	0.0160665
816.936	0.0162346
817.014	0.0162155
817.092	0.0161695
817.170	0.0162467
817.248	0.0163058
817.326	0.0162380
817.405	0.0163411
817.483	0.0164124
817.561	0.0161347
817.639	0.0161388
817.717	0.0162749
817.795	0.0161680
817.873	0.0161736
817.951	0.0160943
818.030	0.0161046
818.108	0.0160089
818.186	0.0161317
818.264	0.0161494
818.342	0.0160769
818.420	0.0161066
818.498	0.0162410
818.576	0.0163496
818.655	0.0162901
818.733	0.0161610
818.811	0.0162932
818.889	0.0163651
818.967	0.0163242
819.045	0.0162331
819.123	0.0163789
819.201	0.0161826
819.280	0.0161503
819.358	0.0162798
819.436	0.0162496
819.514	0.0163262
819.592	0.0163354
819.670	0.0161875
819.748	0.0161855
819.826	0.0161649
819.905	0.0163271
819.983	0.0163562
820.061	0.0163679
820.139	0.0163047
820.217	0.0163567
820.295	0.0161050
820.373	0.0162177
820.451	0.0163316
820.530	0.0161951
820.608	0.0162843
820.686	0.0163119
820.764	0.0162623
820.842	0.0163102
820.920	0.0162685
820.998	0.0164339
821.076	0.0163126
821.155	0.0164464
821.233	0.0163006
821.311	0.0163643
821.389	0.0163384
821.467	0.0161612
821.545	0.0161317
821.623	0.0162798
821.701	0.0163007
821.780	0.0162371
821.858	0.0163570
821.936	0.0161966
822.014	0.0161536
822.092	0.0163088
822.170	0.0162587
822.248	0.0162881
822.326	0.0162914
822.405	0.0163559
822.483	0.0162893
822.561	0.0161766
822.639	0.0161904
822.717	0.0164074
822.795	0.0162624
822.873	0.0163287
822.951	0.0162199
823.030	0.0161735
823.108	0.0162059
823.186	0.0161283
823.264	0.0160481
823.342	0.0161684
823.420	0.0160355
823.498	0.0162270
823.576	0.0160796
823.655	0.0160339
823.733	0.0159776
823.811	0.0159459
823.889	0.0159493
823.967	0.0160227
824.045	0.0159348
824.123	0.0159525
824.201	0.0159267
824.280	0.0160208
824.358	0.0159415
824.436	0.0159377
824.514	0.0159943
824.592	0.0161619
824.670	0.0160822
824.748	0.0160855
824.826	0.0161397
824.905	0.0161874
824.983	0.0160907
825.061	0.0162254
825.139	0.0161416
825.217	0.0163599
825.295	0.0162783
825.373	0.0162725
825.451	0.0164053
825.530	0.0163069
825.608	0.0163424
825.686	0.0163437
825.764	0.0164164
825.842	0.0163485
825.920	0.0164140
825.998	0.0163010
826.076	0.0162508
826.155	0.0161815
826.233	0.0162789
826.311	0.0163180
826.389	0.0162368
826.467	0.0161723
826.545	0.0161440
826.623	0.0161047
826.701	0.0160593
826.780	0.0159598
826.858	0.0162148
826.936	0.0160851
827.014	0.0161008
827.092	0.0159975
827.170	0.0159868
827.248	0.0159573
827.326	0.0159528
827.405	0.0159127
827.483	0.0159640
827.561	0.0159399
827.639	0.0159023
827.717	0.0159162
827.795	0.0158808
827.873	0.0158840
827.951	0.0159306
828.030	0.0159293
828.108	0.0157301
828.186	0.0159237
828.264	0.0158798
828.342	0.0159092
828.420	0.0160469
828.498	0.0161438
828.576	0.0159965
828.655	0.0159768
828.733	0.0160545
828.811	0.0159889
828.889	0.0160545
828.967	0.0160682
829.045	0.0161755
829.123	0.0159734
829.201	0.0159949
829.280	0.0160697
829.358	0.0160897
829.436	0.0159790
829.514	0.0158561
829.592	0.0159160
829.670	0.0160635
829.748	0.0159095
829.826	0.0159068
829.905	0.0159741
829.983	0.0161027
830.061	0.0159516
830.139	0.0159996
830.217	0.0161060
830.295	0.0161816
830.373	0.0162370
830.451	0.0162104
830.530	0.0161236
830.608	0.0162165
830.686	0.0162468
830.764	0.0162316
830.842	0.0162489
830.920	0.0161057
830.998	0.0161676
831.076	0.0161935
831.155	0.0161969
831.233	0.0160479
831.311	0.0161558
831.389	0.0162517
831.467	0.0160230
831.545	0.0161290
831.623	0.0160850
831.701	0.0161119
831.780	0.0160033
831.858	0.0160655
831.936	0.0162506
832.014	0.0159570
832.092	0.0161485
832.170	0.0159718
832.248	0.0159209
832.326	0.0161298
832.405	0.0160736
832.483	0.0160150
832.561	0.0160876
832.639	0.0160262
832.717	0.0161197
832.795	0.0160199
832.873	0.0160182
832.951	0.0160189
833.030	0.0160799
833.108	0.0161138
833.186	0.0161041
833.264	0.0160215
833.342	0.0161031
833.420	0.0160681
833.498	0.0161889
833.576	0.0161910
833.655	0.0161899
833.733	0.0161835
833.811	0.0160943
833.889	0.0162263
833.967	0.0162004
834.045	0.0160880
834.123	0.0164164
834.201	0.0161840
834.280	0.0160938
834.358	0.0162410
834.436	0.0161671
834.514	0.0160649
834.592	0.0160844
834.670	0.0160600
834.748	0.0160363
834.826	0.0161293
834.905	0.0160506
834.983	0.0161137
835.061	0.0160193
835.139	0.0160993
835.217	0.0161020
835.295	0.0159854
835.373	0.0161065
835.451	0.0160269
835.530	0.0160057
835.608	0.0159870
835.686	0.0159700
835.764	0.0161131
835.842	0.0160500
835.920	0.0160660
835.998	0.0161043
836.076	0.0161871
836.155	0.0160852
836.233	0.0160574
836.311	0.0159686
836.389	0.0161230
836.467	0.0161715
836.545	0.0161318
836.623	0.0161890
836.701	0.0160986
836.780	0.0162091
836.858	0.0161370
836.936	0.0162500
837.014	0.0161575
837.092	0.0161055
837.170	0.0161730
837.248	0.0160568
837.326	0.0161523
837.405	0.0163850
837.483	0.0161942
837.561	0.0162531
837.639	0.0161520
837.717	0.0162309
837.795	0.0162669
837.873	0.0162309
837.951	0.0162464
838.030	0.0162945
838.108	0.0163712
838.186	0.0162555
838.264	0.0162610
838.342	0.0162738
838.420	0.0162685
838.498	0.0162881
838.576	0.0163255
838.655	0.0162778
838.733	0.0163046
838.811	0.0162869
838.889	0.0162359
838.967	0.0163193
839.045	0.0162932
839.123	0.0162402
839.201	0.0162041
839.280	0.0162962
839.358	0.0161860
839.436	0.0161102
839.514	0.0159125
839.592	0.0161797
839.670	0.0159869
839.748	0.0159772
839.826	0.0160022
839.905	0.0159474
839.983	0.0160576
840.061	0.0159121
840.139	0.0159043
840.217	0.0158818
840.295	0.0158366
840.373	0.0158215
840.451	0.0157211
840.530	0.0158733
840.608	0.0157921
840.686	0.0158829
840.764	0.0158037
840.842	0.0158213
840.920	0.0158036
840.998	0.0158377
841.076	0.0158060
841.155	0.0159943
841.233	0.0158521
841.311	0.0157893
841.389	0.0158698
841.467	0.0161503
841.545	0.0160456
841.623	0.0160809
841.701	0.0160844
841.780	0.0160754
841.858	0.0159552
841.936	0.0160492
842.014	0.0161620
842.092	0.0161207
842.170	0.0161086
842.248	0.0160002
842.326	0.0161345
842.405	0.0161359
842.483	0.0161501
842.561	0.0160826
842.639	0.0161403
842.717	0.0161607
842.795	0.0161302
842.873	0.0161087
842.951	0.0162773
843.030	0.0162804
843.108	0.0161875
843.186	0.0161651
843.264	0.0162544
843.342	0.0162154
843.420	0.0162714
843.498	0.0161871
843.576	0.0162105
843.655	0.0162997
843.733	0.0163432
843.811	0.0163205
843.889	0.0162309
843.967	0.0163090
844.045	0.0162690
844.123	0.0161806
844.201	0.0162067
844.280	0.0163531
844.358	0.0162321
844.436	0.0162817
844.514	0.0163045
844.592	0.0162632
844.670	0.0161710
844.748	0.0162894
844.826	0.0162003
844.905	0.0162462
844.983	0.0161854
845.061	0.0162392
845.139	0.0161893
845.217	0.0161967
845.295	0.0161736
845.373	0.0161834
845.451	0.0161256
845.530	0.0162251
845.608	0.0162654
845.686	0.0161479
845.764	0.0163503
845.842	0.0164036
845.920	0.0162547
845.998	0.0162567
846.076	0.0162951
846.155	0.0163735
846.233	0.0162077
846.311	0.0161420
846.389	0.0162181
846.467	0.0163161
846.545	0.0163085
846.623	0.0164040
846.701	0.0162322
846.780	0.0161865
846.858	0.0161161
846.936	0.0162862
847.014	0.0162041
847.092	0.0162320
847.170	0.0160432
847.248	0.0161260
847.326	0.0161297
847.405	0.0161275
847.483	0.0161331
847.561	0.0160461
847.639	0.0160311
847.717	0.0162238
847.795	0.0160796
847.873	0.0161493
847.951	0.0160920
848.030	0.0160673
848.108	0.0159948
848.186	0.0162022
848.264	0.0161600
848.342	0.0159917
848.420	0.0160385
848.498	0.0160461
848.576	0.0160147
848.655	0.0160294
848.733	0.0161105
848.811	0.0160780
848.889	0.0160857
848.967	0.0160195
849.045	0.0159277
849.123	0.0160512
849.201	0.0159613
849.280	0.0158479
849.358	0.0159332
849.436	0.0158380
849.514	0.0160131
849.592	0.0159889
849.670	0.0160162
849.748	0.0159756
849.826	0.0160951
849.905	0.0160690
849.983	0.0159930
850.061	0.0161293
850.139	0.0160571
850.217	0.0160696
850.295	0.0161449
850.373	0.0160462
850.451	0.0161967
850.530	0.0160894
850.608	0.0161139
850.686	0.0162104
850.764	0.0162246
850.842	0.0162656
850.920	0.0162045
850.998	0.0162503
851.076	0.0163205
851.155	0.0161800
851.233	0.0161533
851.311	0.0163221
851.389	0.0162855
851.467	0.0162701
851.545	0.0163876
851.623	0.0164598
851.701	0.0161485
851.780	0.0162666
851.858	0.0164091
851.936	0.0164087
852.014	0.0162341
852.092	0.0162695
852.170	0.0163600
852.248	0.0162224
852.326	0.0163783
852.405	0.0163567
852.483	0.0162413
852.561	0.0163054
852.639	0.0162321
852.717	0.0162443
852.795	0.0163659
852.873	0.0163017
852.951	0.0162321
853.030	0.0162055
853.108	0.0164067
853.186	0.0162843
853.264	0.0161884
853.342	0.0162268
853.420	0.0162268
853.498	0.0162342
853.576	0.0163661
853.655	0.0163010
853.733	0.0163097
853.811	0.0162147
853.889	0.0162684
853.967	0.0163343
854.045	0.0162571
854.123	0.0162666
854.201	0.0162991
854.280	0.0164272
854.358	0.0162238
854.436	0.0161951
854.514	0.0162976
854.592	0.0162421
854.670	0.0161469
854.748	0.0161669
854.826	0.0162527
854.905	0.0161949
854.983	0.0161404
855.061	0.0161725
855.139	0.0161874
855.217	0.0162103
855.295	0.0160605
855.373	0.0160403
855.451	0.0161478
855.530	0.0161716
855.608	0.0163041
855.686	0.0162220
855.764	0.0161306
855.842	0.0162289
855.920	0.0160939
855.998	0.0160815
856.076	0.0161777
856.155	0.0161110
856.233	0.0161233
856.311	0.0162853
856.389	0.0160635
856.467	0.0160178
856.545	0.0161042
856.623	0.0159663
856.701	0.0159508
856.780	0.0160039
856.858	0.0159244
856.936	0.0158243
857.014	0.0157890
857.092	0.0159709
857.170	0.0158708
857.248	0.0158961
857.326	0.0158530
857.405	0.0158963
857.483	0.0161050
857.561	0.0158591
857.639	0.0158741
857.717	0.0159712
857.795	0.0159172
857.873	0.0161166
857.951	0.0159556
858.030	0.0161395
858.108	0.0160632
858.186	0.0162211
858.264	0.0161018
858.342	0.0161105
858.420	0.0161793
858.498	0.0160531
858.576	0.0162742
858.655	0.0161125
858.733	0.0162905
858.811	0.0162338
858.889	0.0162058
858.967	0.0163181
859.045	0.0161350
859.123	0.0162596
859.201	0.0161023
859.280	0.0162489
859.358	0.0162286
859.436	0.0162094
859.514	0.0162256
859.592	0.0162631
859.670	0.0163422
859.748	0.0162824
859.826	0.0163470
859.905	0.0163309
859.983	0.0163691
860.061	0.0161964
860.139	0.0163091
860.217	0.0162552
860.295	0.0162196
860.373	0.0162569
860.451	0.0163300
860.530	0.0163477
860.608	0.0162117
860.686	0.0162766
860.764	0.0161532
860.842	0.0161715
860.920	0.0161959
860.998	0.0161877
861.076	0.0160397
861.155	0.0162363
861.233	0.0160953
861.311	0.0161100
861.389	0.0161411
861.467	0.0160247
861.545	0.0159969
861.623	0.0159904
861.701	0.0160870
861.780	0.0160865
861.858	0.0159843
861.936	0.0160774
862.014	0.0160317
862.092	0.0160030
862.170	0.0159734
862.248	0.0159226
862.326	0.0159531
862.405	0.0160758
862.483	0.0160517
862.561	0.0159883
862.639	0.0158652
862.717	0.0160523
862.795	0.0159348
862.873	0.0158092
862.951	0.0159181
863.030	0.0158807
863.108	0.0158610
863.186	0.0159192
863.264	0.0158873
863.342	0.0159517
863.420	0.0157841
863.498	0.0159116
863.576	0.0159140
863.655	0.0159266
863.733	0.0158826
863.811	0.0158961
863.889	0.0158540
863.967	0.0158213
864.045	0.0158463
864.123	0.0157829
864.201	0.0158456
864.280	0.0158997
864.358	0.0157971
864.436	0.0157994
864.514	0.0158407
864.592	0.0156430
864.670	0.0157950
864.748	0.0158057
864.826	0.0157870
864.905	0.0158127
864.983	0.0157776
865.061	0.0158740
865.139	0.0158226
865.217	0.0156732
865.295	0.0158958
865.373	0.0159053
865.451	0.0158055
865.530	0.0158989
865.608	0.0159669
865.686	0.0159767
865.764	0.0158305
865.842	0.0159642
865.920	0.0159416
865.998	0.0160884
866.076	0.0160862
866.155	0.0160088
866.233	0.0159225
866.311	0.0159479
866.389	0.0161697
866.467	0.0159314
866.545	0.0159930
866.623	0.0159940
866.701	0.0160591
866.780	0.0159100
866.858	0.0160533
866.936	0.0160022
867.014	0.0160425
867.092	0.0160196
867.170	0.0160565
867.248	0.0160642
867.326	0.0160118
867.405	0.0161312
867.483	0.0162373
867.561	0.0161243
867.639	0.0161611
867.717	0.0162755
867.795	0.0163416
867.873	0.0163163
867.951	0.0161567
868.030	0.0163903
868.108	0.0163443
868.186	0.0163688
868.264	0.0164439
868.342	0.0164629
868.420	0.0163571
868.498	0.0163437
868.576	0.0163510
868.655	0.0164117
868.733	0.0163570
868.811	0.0162955
868.889	0.0163995
868.967	0.0162717
869.045	0.0162373
869.123	0.0162879
869.201	0.0161908
869.280	0.0161665
869.358	0.0163396
869.436	0.0161570
869.514	0.0161890
869.592	0.0161220
869.670	0.0162175
869.748	0.0161790
869.826	0.0161095
869.905	0.0162492
869.983	0.0160764
870.061	0.0161268
870.139	0.0161318
870.217	0.0161139
870.295	0.0160254
870.373	0.0159908
870.451	0.0160545
870.530	0.0161818
870.608	0.0162466
870.686	0.0160667
870.764	0.0160976
870.842	0.0160917
870.920	0.0160339
870.998	0.0162016
871.076	0.0160183
871.155	0.0161292
871.233	0.0161893
871.311	0.0160193
871.389	0.0160638
871.467	0.0161313
871.545	0.0162624
871.623	0.0161443
871.701	0.0160265
871.780	0.0159357
871.858	0.0159966
871.936	0.0161392
872.014	0.0161198
872.092	0.0160982
872.170	0.0161198
872.248	0.0160920
872.326	0.0161600
872.405	0.0161229
872.483	0.0161313
872.561	0.0162053
872.639	0.0162177
872.717	0.0161959
872.795	0.0162191
872.873	0.0163217
872.951	0.0161483
873.030	0.0162610
873.108	0.0163013
873.186	0.0162247
873.264	0.0162903
873.342	0.0160090
873.420	0.0160844
873.498	0.0159881
873.576	0.0161458
873.655	0.0161881
873.733	0.0159579
873.811	0.0161090
873.889	0.0159084
873.967	0.0159206
874.045	0.0160564
874.123	0.0160422
874.201	0.0160593
874.280	0.0159449
874.358	0.0159470
874.436	0.0160669
874.514	0.0160836
874.592	0.0160669
874.670	0.0161626
874.748	0.0160260
874.826	0.0161814
874.905	0.0163820
874.983	0.0162281
875.061	0.0162791
875.139	0.0162741
875.217	0.0163543
875.295	0.0163170
875.373	0.0163615
875.451	0.0165744
875.530	0.0164485
875.608	0.0163597
875.686	0.0163589
875.764	0.0164286
875.842	0.0165119
875.920	0.0163193
875.998	0.0162723
876.076	0.0162558
876.155	0.0163783
876.233	0.0164342
876.311	0.0162894
876.389	0.0163892
876.467	0.0163226
876.545	0.0162592
876.623	0.0162366
876.701	0.0162241
876.780	0.0161888
876.858	0.0163618
876.936	0.0162610
877.014	0.0162624
877.092	0.0162344
877.170	0.0162025
877.248	0.0162654
877.326	0.0161912
877.405	0.0162955
877.483	0.0161864
877.561	0.0162256
877.639	0.0162982
877.717	0.0162682
877.795	0.0163010
877.873	0.0164254
877.951	0.0163048
878.030	0.0164935
878.108	0.0164757
878.186	0.0162472
878.264	0.0164033
878.342	0.0164326
878.420	0.0163088
878.498	0.0162036
878.576	0.0163312
878.655	0.0163745
878.733	0.0162817
878.811	0.0162080
878.889	0.0162459
878.967	0.0163369
879.045	0.0161607
879.123	0.0161570
879.201	0.0160874
879.280	0.0162502
879.358	0.0161924
879.436	0.0160881
879.514	0.0161024
879.592	0.0161033
879.670	0.0160705
879.748	0.0160036
879.826	0.0159615
879.905	0.0160537
879.983	0.0160297
880.061	0.0160560
880.139	0.0159899
880.217	0.0159328
880.295	0.0159386
880.373	0.0159577
880.451	0.0160375
880.530	0.0160054
880.608	0.0160751
880.686	0.0161159
880.764	0.0160004
880.842	0.0160999
880.920	0.0159549
880.998	0.0160962
881.076	0.0160844
881.155	0.0161946
881.233	0.0160196
881.311	0.0162788
881.389	0.0161304
881.467	0.0162278
881.545	0.0162010
881.623	0.0161389
881.701	0.0162531
881.780	0.0162378
881.858	0.0161285
881.936	0.0162081
882.014	0.0160736
882.092	0.0161852
882.170	0.0161279
882.248	0.0161856
882.326	0.0161448
882.405	0.0162682
882.483	0.0161154
882.561	0.0160181
882.639	0.0161115
882.717	0.0161695
882.795	0.0161562
882.873	0.0161691
882.951	0.0160910
883.030	0.0159987
883.108	0.0161739
883.186	0.0161345
883.264	0.0161186
883.342	0.0161956
883.420	0.0160878
883.498	0.0161432
883.576	0.0161523
883.655	0.0161851
883.733	0.0160873
883.811	0.0160590
883.889	0.0162238
883.967	0.0161519
884.045	0.0160814
884.123	0.0161320
884.201	0.0161787
884.280	0.0160713
884.358	0.0162372
884.436	0.0162287
884.514	0.0162624
884.592	0.0162717
884.670	0.0164275
884.748	0.0161579
884.826	0.0161978
884.905	0.0162354
884.983	0.0163424
885.061	0.0162655
885.139	0.0162197
885.217	0.0160713
885.295	0.0161809
885.373	0.0162001
885.451	0.0161045
885.530	0.0161063
885.608	0.0161246
885.686	0.0160613
885.764	0.0161054
885.842	0.0160276
885.920	0.0161347
885.998	0.0160632
886.076	0.0161076
886.155	0.0161732
886.233	0.0161695
886.311	0.0162317
886.389	0.0160579
886.467	0.0161056
886.545	0.0159601
886.623	0.0160840
886.701	0.0160160
886.780	0.0160968
886.858	0.0159890
886.936	0.0160468
887.014	0.0160222
887.092	0.0159704
887.170	0.0158918
887.248	0.0158492
887.326	0.0157817
887.405	0.0157559
887.483	0.0159217
887.561	0.0158153
887.639	0.0156852
887.717	0.0157666
887.795	0.0158791
887.873	0.0157622
887.951	0.0157378
888.030	0.0159479
888.108	0.0157542
888.186	0.0157156
888.264	0.0157925
888.342	0.0157928
888.420	0.0157768
888.498	0.0157454
888.576	0.0157902
888.655	0.0157642
888.733	0.0158625
888.811	0.0157000
888.889	0.0158122
888.967	0.0158318
889.045	0.0157814
889.123	0.0158502
889.201	0.0159492
889.280	0.0158488
889.358	0.0158136
889.436	0.0159415
889.514	0.0159514
889.592	0.0160147
889.670	0.0158193
889.748	0.0159875
889.826	0.0159752
889.905	0.0159709
889.983	0.0160435
890.061	0.0158605
890.139	0.0159829
890.217	0.0160342
890.295	0.0160612
890.373	0.0160120
890.451	0.0160201
890.530	0.0160053
890.608	0.0161934
890.686	0.0160504
890.764	0.0161459
890.842	0.0160960
890.920	0.0161937
890.998	0.0162223
891.076	0.0163307
891.155	0.0162675
891.233	0.0161198
891.311	0.0162034
891.389	0.0161652
891.467	0.0162408
891.545	0.0161089
891.623	0.0160489
891.701	0.0160419
891.780	0.0161844
891.858	0.0160120
891.936	0.0159842
892.014	0.0160879
892.092	0.0160403
892.170	0.0160042
892.248	0.0159453
892.326	0.0158912
892.405	0.0160646
892.483	0.0162008
892.561	0.0159452
892.639	0.0160534
892.717	0.0161407
892.795	0.0161262
892.873	0.0160447
892.951	0.0161114
893.030	0.0160866
893.108	0.0160241
893.186	0.0161369
893.264	0.0162752
893.342	0.0161552
893.420	0.0161979
893.498	0.0163741
893.576	0.0161520
893.655	0.0162481
893.733	0.0162468
893.811	0.0163022
893.889	0.0163888
893.967	0.0162292
894.045	0.0161802
894.123	0.0162396
894.201	0.0162881
894.280	0.0162093
894.358	0.0162180
894.436	0.0162150
894.514	0.0160725
894.592	0.0160896
894.670	0.0160912
894.748	0.0160392
894.826	0.0160560
894.905	0.0159840
894.983	0.0159367
895.061	0.0162428
895.139	0.0161320
895.217	0.0159341
895.295	0.0159576
895.373	0.0159431
895.451	0.0159808
895.530	0.0159409
895.608	0.0161695
895.686	0.0159160
895.764	0.0158492
895.842	0.0159101
895.920	0.0159750
895.998	0.0159327
896.076	0.0159436
896.155	0.0159412
896.233	0.0159100
896.311	0.0158413
896.389	0.0158250
896.467	0.0159201
896.545	0.0160310
896.623	0.0158492
896.701	0.0159351
896.780	0.0160476
896.858	0.0159913
896.936	0.0159249
897.014	0.0160029
897.092	0.0159876
897.170	0.0159131
897.248	0.0161398
897.326	0.0158888
897.405	0.0159573
897.483	0.0159290
897.561	0.0159519
897.639	0.0160751
897.717	0.0160974
897.795	0.0162627
897.873	0.0160522
897.951	0.0160939
898.030	0.0162629
898.108	0.0162160
898.186	0.0162402
898.264	0.0162778
898.342	0.0162981
898.420	0.0164127
898.498	0.0163905
898.576	0.0164661
898.655	0.0164751
898.733	0.0165910
898.811	0.0164504
898.889	0.0166319
898.967	0.0164573
899.045	0.0164751
899.123	0.0165683
899.201	0.0163129
899.280	0.0164211
899.358	0.0162244
899.436	0.0162707
899.514	0.0164320
899.592	0.0162315
899.670	0.0162522
899.748	0.0162318
899.826	0.0163502
899.905	0.0162400
899.983	0.0162212
900.061	0.0163746
900.139	0.0161844
900.217	0.0161959
900.295	0.0162934
900.373	0.0162260
900.451	0.0162430
900.530	0.0162033
900.608	0.0163039
900.686	0.0161987
900.764	0.0161160
900.842	0.0161735
900.920	0.0163020
900.998	0.0163051
901.076	0.0163113
901.155	0.0160415
901.233	0.0163025
901.311	0.0163242
901.389	0.0164807
901.467	0.0164287
901.545	0.0163813
901.623	0.0163270
901.701	0.0163490
901.780	0.0164513
901.858	0.0166064
901.936	0.0165437
902.014	0.0165218
902.092	0.0164550
902.170	0.0164274
902.248	0.0163495
902.326	0.0163366
902.405	0.0164191
902.483	0.0163283
902.561	0.0162969
902.639	0.0163151
902.717	0.0163226
902.795	0.0163575
902.873	0.0162660
902.951	0.0161359
903.030	0.0161180
903.108	0.0163017
903.186	0.0161088
903.264	0.0162029
903.342	0.0161649
903.420	0.0161872
903.498	0.0160954
903.576	0.0162675
903.655	0.0160874
903.733	0.0161726
903.811	0.0159759
903.889	0.0161502
903.967	0.0160059
904.045	0.0160045
904.123	0.0160960
904.201	0.0160757
904.280	0.0159619
904.358	0.0159345
904.436	0.0159531
904.514	0.0158810
904.592	0.0157075
904.670	0.0159845
904.748	0.0158344
904.826	0.0159268
904.905	0.0159831
904.983	0.0160836
905.061	0.0160085
905.139	0.0158076
905.217	0.0158395
905.295	0.0160371
905.373	0.0159033
905.451	0.0158267
905.530	0.0159349
905.608	0.0159093
905.686	0.0160286
905.764	0.0159875
905.842	0.0159541
905.920	0.0162663
905.998	0.0160503
906.076	0.0160706
906.155	0.0160721
906.233	0.0161080
906.311	0.0162085
906.389	0.0162543
906.467	0.0160841
906.545	0.0162659
906.623	0.0163805
906.701	0.0162101
906.780	0.0163023
906.858	0.0162479
906.936	0.0163526
907.014	0.0164036
907.092	0.0161355
907.170	0.0161963
907.248	0.0163032
907.326	0.0162649
907.405	0.0161712
907.483	0.0160583
907.561	0.0161485
907.639	0.0160671
907.717	0.0161089
907.795	0.0161471
907.873	0.0161732
907.951	0.0160982
908.030	0.0160056
908.108	0.0160210
908.186	0.0160533
908.264	0.0160500
908.342	0.0160973
908.420	0.0160682
908.498	0.0159375
908.576	0.0160307
908.655	0.0160701
908.733	0.0160223
908.811	0.0160798
908.889	0.0160009
908.967	0.0161785
909.045	0.0161480
909.123	0.0160523
909.201	0.0160122
909.280	0.0160574
909.358	0.0160486
909.436	0.0160620
909.514	0.0160698
909.592	0.0161690
909.670	0.0160471
909.748	0.0160880
909.826	0.0161600
909.905	0.0160316
909.983	0.0161486
910.061	0.0161291
910.139	0.0162013
910.217	0.0162193
910.295	0.0162544
910.373	0.0162396
910.451	0.0160506
910.530	0.0161160
910.608	0.0159109
910.686	0.0161569
910.764	0.0160719
910.842	0.0160067
910.920	0.0160904
910.998	0.0160281
911.076	0.0159885
911.155	0.0160476
911.233	0.0160451
911.311	0.0158292
911.389	0.0159280
911.467	0.0158672
911.545	0.0159435
911.623	0.0158257
911.701	0.0158955
911.780	0.0159660
911.858	0.0159360
911.936	0.0159181
912.014	0.0157939
912.092	0.0159196
912.170	0.0158195
912.248	0.0159822
912.326	0.0159682
912.405	0.0159050
912.483	0.0159258
912.561	0.0159000
912.639	0.0159901
912.717	0.0159225
912.795	0.0160412
912.873	0.0159115
912.951	0.0157578
913.030	0.0159476
913.108	0.0160033
913.186	0.0157856
913.264	0.0158891
913.342	0.0159819
913.420	0.0158942
913.498	0.0160926
913.576	0.0158961
913.655	0.0159282
913.733	0.0160773
913.811	0.0159750
913.889	0.0160931
913.967	0.0160444
914.045	0.0159505
914.123	0.0161723
914.201	0.0161376
914.280	0.0160959
914.358	0.0161984
914.436	0.0161660
914.514	0.0161229
914.592	0.0161526
914.670	0.0161787
914.748	0.0162489
914.826	0.0162311
914.905	0.0162161
914.983	0.0162799
915.061	0.0162321
915.139	0.0161412
915.217	0.0161784
915.295	0.0161971
915.373	0.0161529
915.451	0.0161419
915.530	0.0160382
915.608	0.0162023
915.686	0.0159859
915.764	0.0159963
915.842	0.0160960
915.920	0.0161813
915.998	0.0161526
916.076	0.0162196
916.155	0.0160628
916.233	0.0159885
916.311	0.0161938
916.389	0.0161722
916.467	0.0161428
916.545	0.0160845
916.623	0.0160452
916.701	0.0161082
916.780	0.0160207
916.858	0.0160736
916.936	0.0162002
917.014	0.0159661
917.092	0.0160561
917.170	0.0161500
917.248	0.0160657
917.326	0.0160697
917.405	0.0160699
917.483	0.0161986
917.561	0.0161436
917.639	0.0160037
917.717	0.0162141
917.795	0.0162512
917.873	0.0161184
917.951	0.0161412
918.030	0.0162638
918.108	0.0163365
918.186	0.0163194
918.264	0.0163207
918.342	0.0163837
918.420	0.0163939
918.498	0.0164237
918.576	0.0163148
918.655	0.0162604
918.733	0.0162891
918.811	0.0163556
918.889	0.0163662
918.967	0.0164092
919.045	0.0163236
919.123	0.0162784
919.201	0.0162096
919.280	0.0160913
919.358	0.0161135
919.436	0.0162089
919.514	0.0162110
919.592	0.0161603
919.670	0.0160870
919.748	0.0161862
919.826	0.0161201
919.905	0.0160451
919.983	0.0159648
920.061	0.0159509
920.139	0.0161078
920.217	0.0159171
920.295	0.0159487
920.373	0.0161134
920.451	0.0159666
920.530	0.0159590
920.608	0.0161224
920.686	0.0160678
920.764	0.0161239
920.842	0.0160128
920.920	0.0160510
920.998	0.0160528
921.076	0.0160853
921.155	0.0160986
921.233	0.0160307
921.311	0.0160706
921.389	0.0160601
921.467	0.0161466
921.545	0.0161602
921.623	0.0161276
921.701	0.0162102
921.780	0.0161600
921.858	0.0159103
921.936	0.0160180
922.014	0.0160606
922.092	0.0161849
922.170	0.0161414
922.248	0.0161446
922.326	0.0163027
922.405	0.0161864
922.483	0.0162238
922.561	0.0162109
922.639	0.0164694
922.717	0.0163071
922.795	0.0164063
922.873	0.0163761
922.951	0.0162334
923.030	0.0163792
923.108	0.0164315
923.186	0.0163354
923.264	0.0163279
923.342	0.0163696
923.420	0.0164778
923.498	0.0162775
923.576	0.0162863
923.655	0.0163485
923.733	0.0163499
923.811	0.0161584
923.889	0.0162655
923.967	0.0161843
924.045	0.0161839
924.123	0.0162701
924.201	0.0160909
924.280	0.0162146
924.358	0.0162296
924.436	0.0162178
924.514	0.0163054
924.592	0.0162337
924.670	0.0162778
924.748	0.0162848
924.826	0.0161553
924.905	0.0161687
924.983	0.0161837
925.061	0.0161633
925.139	0.0161189
925.217	0.0160931
925.295	0.0161109
925.373	0.0161913
925.451	0.0160539
925.530	0.0160600
925.608	0.0160814
925.686	0.0160205
925.764	0.0160921
925.842	0.0160691
925.920	0.0161134
925.998	0.0161605
926.076	0.0160321
926.155	0.0160883
926.233	0.0160609
926.311	0.0159734
926.389	0.0160522
926.467	0.0160989
926.545	0.0160468
926.623	0.0160146
926.701	0.0160581
926.780	0.0162733
926.858	0.0162195
926.936	0.0162506
927.014	0.0162771
927.092	0.0160821
927.170	0.0162778
927.248	0.0162794
927.326	0.0161438
927.405	0.0163429
927.483	0.0162035
927.561	0.0162277
927.639	0.0162008
927.717	0.0162924
927.795	0.0163159
927.873	0.0160767
927.951	0.0161759
928.030	0.0161905
928.108	0.0163399
928.186	0.0161741
928.264	0.0160416
928.342	0.0161222
928.420	0.0160067
928.498	0.0160816
928.576	0.0160754
928.655	0.0160864
928.733	0.0160287
928.811	0.0161491
928.889	0.0161455
928.967	0.0162095
929.045	0.0161897
929.123	0.0162900
929.201	0.0160207
929.280	0.0161173
929.358	0.0162048
929.436	0.0161278
929.514	0.0162379
929.592	0.0161642
929.670	0.0161839
929.748	0.0162505
929.826	0.0163259
929.905	0.0162456
929.983	0.0162636
930.061	0.0160985
930.139	0.0161273
930.217	0.0161829
930.295	0.0161977
930.373	0.0160832
930.451	0.0161321
930.530	0.0160639
930.608	0.0161000
930.686	0.0162265
930.764	0.0161874
930.842	0.0161084
930.920	0.0161662
930.998	0.0161543
931.076	0.0161716
931.155	0.0162263
931.233	0.0162946
931.311	0.0161852
931.389	0.0161983
931.467	0.0163158
931.545	0.0162804
931.623	0.0162838
931.701	0.0161510
931.780	0.0162155
931.858	0.0162157
931.936	0.0162208
932.014	0.0162259
932.092	0.0162711
932.170	0.0162650
932.248	0.0160055
932.326	0.0159898
932.405	0.0161808
932.483	0.0160484
932.561	0.0159983
932.639	0.0160546
932.717	0.0161155
932.795	0.0160701
932.873	0.0161019
932.951	0.0161687
933.030	0.0161136
933.108	0.0160877
933.186	0.0160445
933.264	0.0161390
933.342	0.0159750
933.420	0.0161054
933.498	0.0161234
933.576	0.0159834
933.655	0.0161392
933.733	0.0161414
933.811	0.0159064
933.889	0.0160578
933.967	0.0160976
934.045	0.0161039
934.123	0.0160247
934.201	0.0160593
934.280	0.0160767
934.358	0.0161224
934.436	0.0160595
934.514	0.0161059
934.592	0.0160151
934.670	0.0161266
934.748	0.0161705
934.826	0.0162222
934.905	0.0160362
934.983	0.0161437
935.061	0.0161386
935.139	0.0162668
935.217	0.0162624
935.295	0.0162138
935.373	0.0161220
935.451	0.0161981
935.530	0.0161816
935.608	0.0160101
935.686	0.0162264
935.764	0.0162109
935.842	0.0161998
935.920	0.0160029
935.998	0.0160220
936.076	0.0160384
936.155	0.0160194
936.233	0.0159776
936.311	0.0160845
936.389	0.0160269
936.467	0.0160145
936.545	0.0160667
936.623	0.0160217
936.701	0.0159911
936.780	0.0158660
936.858	0.0159801
936.936	0.0159965
937.014	0.0159550
937.092	0.0159750
937.170	0.0159770
937.248	0.0161427
937.326	0.0161785
937.405	0.0160865
937.483	0.0160983
937.561	0.0160931
937.639	0.0160481
937.717	0.0161837
937.795	0.0160664
937.873	0.0161819
937.951	0.0160660
938.030	0.0162151
938.108	0.0163190
938.186	0.0162454
938.264	0.0162213
938.342	0.0161639
938.420	0.0162073
938.498	0.0162568
938.576	0.0162887
938.655	0.0160916
938.733	0.0160841
938.811	0.0161642
938.889	0.0162181
938.967	0.0161158
939.045	0.0161548
939.123	0.0161065
939.201	0.0161407
939.280	0.0161040
939.358	0.0160815
939.436	0.0160350
939.514	0.0160606
939.592	0.0160891
939.670	0.0159746
939.748	0.0161692
939.826	0.0161198
939.905	0.0161884
939.983	0.0161841
940.061	0.0161799
940.139	0.0163569
940.217	0.0161884
940.295	0.0162055
940.373	0.0162892
940.451	0.0162297
940.530	0.0163934
940.608	0.0162895
940.686	0.0162583
940.764	0.0163779
940.842	0.0162389
940.920	0.0162329
940.998	0.0161835
941.076	0.0161359
941.155	0.0160983
941.233	0.0161812
941.311	0.0161100
941.389	0.0160699
941.467	0.0162470
941.545	0.0160461
941.623	0.0160767
941.701	0.0161092
941.780	0.0161052
941.858	0.0161361
941.936	0.0161230
942.014	0.0160355
942.092	0.0159452
942.170	0.0160429
942.248	0.0162371
942.326	0.0161600
942.405	0.0161195
942.483	0.0163068
942.561	0.0162096
942.639	0.0162577
942.717	0.0161804
942.795	0.0161119
942.873	0.0161024
942.951	0.0161341
943.030	0.0161634
943.108	0.0163561
943.186	0.0161508
943.264	0.0161702
943.342	0.0163113
943.420	0.0162066
943.498	0.0161186
943.576	0.0162229
943.655	0.0161411
943.733	0.0162724
943.811	0.0162221
943.889	0.0161952
943.967	0.0162530
944.045	0.0161922
944.123	0.0162553
944.201	0.0162657
944.280	0.0163414
944.358	0.0162436
944.436	0.0161442
944.514	0.0162354
944.592	0.0162602
944.670	0.0161890
944.748	0.0161314
944.826	0.0161135
944.905	0.0162382
944.983	0.0162823
945.061	0.0162239
945.139	0.0161966
945.217	0.0161871
945.295	0.0162559
945.373	0.0162198
945.451	0.0160969
945.530	0.0161606
945.608	0.0162629
945.686	0.0161691
945.764	0.0160762
945.842	0.0161311
945.920	0.0162386
945.998	0.0162064
946.076	0.0163343
946.155	0.0161142
946.233	0.0162428
946.311	0.0162581
946.389	0.0161329
946.467	0.0160715
946.545	0.0161922
946.623	0.0162891
946.701	0.0161961
946.780	0.0160709
946.858	0.0160825
946.936	0.0162048
947.014	0.0161816
947.092	0.0161692
947.170	0.0161359
947.248	0.0160263
947.326	0.0161236
947.405	0.0161227
947.483	0.0161698
947.561	0.0160509
947.639	0.0161075
947.717	0.0161544
947.795	0.0160977
947.873	0.0160245
947.951	0.0161614
948.030	0.0161684
948.108	0.0161996
948.186	0.0161633
948.264	0.0161221
948.342	0.0161956
948.420	0.0161697
948.498	0.0160528
948.576	0.0160842
948.655	0.0162504
948.733	0.0160562
948.811	0.0161432
948.889	0.0161505
948.967	0.0161642
949.045	0.0161410
949.123	0.0161393
949.201	0.0161098
949.280	0.0161408
949.358	0.0161566
949.436	0.0161597
949.514	0.0161681
949.592	0.0161555
949.670	0.0161494
949.748	0.0162196
949.826	0.0160751
949.905	0.0160244
949.983	0.0161732
950.061	0.0161456
950.139	0.0162505
950.217	0.0162688
950.295	0.0161973
950.373	0.0161509
950.451	0.0162296
950.530	0.0162070
950.608	0.0161167
950.686	0.0162624
950.764	0.0160589
950.842	0.0162226
950.920	0.0160432
950.998	0.0161972
951.076	0.0162085
951.155	0.0160872
951.233	0.0161634
951.311	0.0161595
951.389	0.0162319
951.467	0.0160962
951.545	0.0160632
951.623	0.0160095
951.701	0.0161099
951.780	0.0160719
951.858	0.0161156
951.936	0.0161747
952.014	0.0160951
952.092	0.0162844
952.170	0.0161331
952.248	0.0160881
952.326	0.0161554
952.405	0.0161710
952.483	0.0161636
952.561	0.0161317
952.639	0.0160551
952.717	0.0160458
952.795	0.0161492
952.873	0.0162207
952.951	0.0160769
953.030	0.0162363
953.108	0.0161395
953.186	0.0160825
953.264	0.0162775
953.342	0.0160812
953.420	0.0162309
953.498	0.0160276
953.576	0.0160781
953.655	0.0160949
953.733	0.0161440
953.811	0.0161687
953.889	0.0160475
953.967	0.0160952
954.045	0.0161655
954.123	0.0160256
954.201	0.0161294
954.280	0.0162363
954.358	0.0160939
954.436	0.0163593
954.514	0.0162088
954.592	0.0162557
954.670	0.0161497
954.748	0.0165281
954.826	0.0163676
954.905	0.0164619
954.983	0.0164241
955.061	0.0163692
955.139	0.0164567
955.217	0.0164460
955.295	0.0162799
955.373	0.0162627
955.451	0.0163591
955.530	0.0162715
955.608	0.0162344
955.686	0.0164365
955.764	0.0162714
955.842	0.0163163
955.920	0.0162483
955.998	0.0163840
956.076	0.0162479
956.155	0.0161660
956.233	0.0162291
956.311	0.0164172
956.389	0.0163528
956.467	0.0161486
956.545	0.0163213
956.623	0.0161072
956.701	0.0161541
956.780	0.0161192
956.858	0.0161718
956.936	0.0162016
957.014	0.0161532
957.092	0.0159621
957.170	0.0161287
957.248	0.0161620
957.326	0.0161024
957.405	0.0161535
957.483	0.0162067
957.561	0.0159660
957.639	0.0160684
957.717	0.0160799
957.795	0.0160259
957.873	0.0160973
957.951	0.0160406
958.030	0.0159332
958.108	0.0160564
958.186	0.0160476
958.264	0.0160275
958.342	0.0160985
958.420	0.0160912
958.498	0.0160639
958.576	0.0160013
958.655	0.0160561
958.733	0.0160849
958.811	0.0158912
958.889	0.0159354
958.967	0.0160190
959.045	0.0160374
959.123	0.0161399
959.201	0.0160189
959.280	0.0159907
959.358	0.0160113
959.436	0.0160467
959.514	0.0160500
959.592	0.0161343
959.670	0.0160900
959.748	0.0160013
959.826	0.0158998
959.905	0.0160435
