05/17/2022	17:01:54	Ver.	4.1	UNKNOWN
Optical Delay	639.982744	Delta X		0.078125	Sweeps	1	Scan Rate	0/0
Coordinates	Axis 1	NaN	Axis 2	NaN	Axis 3	NaN	Axis 4	NaN	Axis 5	NaN	Axis 6	0.000000
TX Power	0.000000	RX Power	0.000000

639.983	0.0160559
640.061	0.0160149
640.139	0.0160821
640.217	0.0161422
640.295	0.0160782
640.373	0.0161106
640.451	0.0161420
640.530	0.0161220
640.608	0.0160948
640.686	0.0160563
640.764	0.0162151
640.842	0.0161860
640.920	0.0161362
640.998	0.0160640
641.076	0.0161853
641.155	0.0162231
641.233	0.0161360
641.311	0.0159909
641.389	0.0161970
641.467	0.0159745
641.545	0.0159164
641.623	0.0161521
641.701	0.0160847
641.780	0.0159452
641.858	0.0160080
641.936	0.0161413
642.014	0.0159189
642.092	0.0159396
642.170	0.0160635
642.248	0.0160421
642.326	0.0159602
642.405	0.0160149
642.483	0.0159372
642.561	0.0160667
642.639	0.0161890
642.717	0.0160242
642.795	0.0160419
642.873	0.0161575
642.951	0.0161279
643.030	0.0159815
643.108	0.0160726
643.186	0.0161266
643.264	0.0161654
643.342	0.0160176
643.420	0.0160211
643.498	0.0160676
643.576	0.0161241
643.655	0.0159573
643.733	0.0160185
643.811	0.0160378
643.889	0.0160837
643.967	0.0160245
644.045	0.0158879
644.123	0.0158079
644.201	0.0160340
644.280	0.0159468
644.358	0.0158007
644.436	0.0158257
644.514	0.0159871
644.592	0.0159313
644.670	0.0159709
644.748	0.0158659
644.826	0.0160847
644.905	0.0160463
644.983	0.0160937
645.061	0.0160299
645.139	0.0161046
645.217	0.0158821
645.295	0.0158799
645.373	0.0160195
645.451	0.0160353
645.530	0.0160517
645.608	0.0158990
645.686	0.0160609
645.764	0.0160165
645.842	0.0160242
645.920	0.0159503
645.998	0.0159369
646.076	0.0159186
646.155	0.0161418
646.233	0.0160648
646.311	0.0160055
646.389	0.0158733
646.467	0.0159229
646.545	0.0159818
646.623	0.0160966
646.701	0.0160912
646.780	0.0159715
646.858	0.0159154
646.936	0.0161166
647.014	0.0161295
647.092	0.0160820
647.170	0.0162475
647.248	0.0162041
647.326	0.0161850
647.405	0.0161916
647.483	0.0160452
647.561	0.0161036
647.639	0.0162203
647.717	0.0161493
647.795	0.0161198
647.873	0.0161416
647.951	0.0160315
648.030	0.0162441
648.108	0.0161070
648.186	0.0161329
648.264	0.0160625
648.342	0.0163336
648.420	0.0161729
648.498	0.0162242
648.576	0.0159139
648.655	0.0160579
648.733	0.0161034
648.811	0.0161836
648.889	0.0161195
648.967	0.0161766
649.045	0.0161471
649.123	0.0161316
649.201	0.0159900
649.280	0.0160831
649.358	0.0162733
649.436	0.0162223
649.514	0.0160800
649.592	0.0160693
649.670	0.0160429
649.748	0.0160620
649.826	0.0161704
649.905	0.0161133
649.983	0.0161800
650.061	0.0163514
650.139	0.0161469
650.217	0.0159785
650.295	0.0160780
650.373	0.0160822
650.451	0.0160514
650.530	0.0162386
650.608	0.0162009
650.686	0.0161829
650.764	0.0162338
650.842	0.0162026
650.920	0.0161996
650.998	0.0160099
651.076	0.0161205
651.155	0.0161955
651.233	0.0162713
651.311	0.0161584
651.389	0.0162173
651.467	0.0160253
651.545	0.0161102
651.623	0.0160369
651.701	0.0159404
651.780	0.0160992
651.858	0.0162170
651.936	0.0160265
652.014	0.0160564
652.092	0.0160277
652.170	0.0161407
652.248	0.0160110
652.326	0.0159882
652.405	0.0160605
652.483	0.0160152
652.561	0.0161496
652.639	0.0161360
652.717	0.0161777
652.795	0.0160642
652.873	0.0161025
652.951	0.0160426
653.030	0.0161338
653.108	0.0160810
653.186	0.0159653
653.264	0.0159651
653.342	0.0160054
653.420	0.0160880
653.498	0.0162285
653.576	0.0160839
653.655	0.0159888
653.733	0.0160014
653.811	0.0160854
653.889	0.0160875
653.967	0.0160715
654.045	0.0160174
654.123	0.0160338
654.201	0.0160288
654.280	0.0159909
654.358	0.0158848
654.436	0.0160665
654.514	0.0160855
654.592	0.0159968
654.670	0.0161259
654.748	0.0159528
654.826	0.0160528
654.905	0.0159718
654.983	0.0160476
655.061	0.0161423
655.139	0.0160775
655.217	0.0162233
655.295	0.0161826
655.373	0.0160156
655.451	0.0159620
655.530	0.0160288
655.608	0.0159154
655.686	0.0161053
655.764	0.0159650
655.842	0.0159785
655.920	0.0161325
655.998	0.0161798
656.076	0.0160560
656.155	0.0159396
656.233	0.0159859
656.311	0.0159764
656.389	0.0160385
656.467	0.0160969
656.545	0.0160851
656.623	0.0159734
656.701	0.0159756
656.780	0.0161951
656.858	0.0161608
656.936	0.0161412
657.014	0.0159917
657.092	0.0161665
657.170	0.0161868
657.248	0.0160980
657.326	0.0162062
657.405	0.0162350
657.483	0.0161179
657.561	0.0161460
657.639	0.0161810
657.717	0.0161601
657.795	0.0162378
657.873	0.0161378
657.951	0.0160408
658.030	0.0159888
658.108	0.0160683
658.186	0.0160817
658.264	0.0160631
658.342	0.0160278
658.420	0.0161159
658.498	0.0160844
658.576	0.0160447
658.655	0.0160173
658.733	0.0159389
658.811	0.0158648
658.889	0.0160494
658.967	0.0159560
659.045	0.0159566
659.123	0.0160933
659.201	0.0161302
659.280	0.0160857
659.358	0.0159978
659.436	0.0159632
659.514	0.0160587
659.592	0.0160095
659.670	0.0159268
659.748	0.0160447
659.826	0.0160009
659.905	0.0161163
659.983	0.0161588
660.061	0.0160990
660.139	0.0160333
660.217	0.0160172
660.295	0.0159433
660.373	0.0161961
660.451	0.0161563
660.530	0.0160004
660.608	0.0160300
660.686	0.0162024
660.764	0.0159579
660.842	0.0161340
660.920	0.0161559
660.998	0.0159886
661.076	0.0162239
661.155	0.0160847
661.233	0.0160183
661.311	0.0162350
661.389	0.0160092
661.467	0.0160622
661.545	0.0161279
661.623	0.0159832
661.701	0.0161620
661.780	0.0159698
661.858	0.0161308
661.936	0.0159760
662.014	0.0160806
662.092	0.0160679
662.170	0.0160824
662.248	0.0161481
662.326	0.0159292
662.405	0.0160677
662.483	0.0160657
662.561	0.0160640
662.639	0.0158685
662.717	0.0160950
662.795	0.0160159
662.873	0.0160421
662.951	0.0159812
663.030	0.0160764
663.108	0.0160641
663.186	0.0160696
663.264	0.0159704
663.342	0.0160645
663.420	0.0161135
663.498	0.0160950
663.576	0.0161139
663.655	0.0160401
663.733	0.0161617
663.811	0.0160548
663.889	0.0160592
663.967	0.0161530
664.045	0.0162268
664.123	0.0161165
664.201	0.0161637
664.280	0.0160939
664.358	0.0161804
664.436	0.0161677
664.514	0.0161690
664.592	0.0162659
664.670	0.0161910
664.748	0.0161243
664.826	0.0162076
664.905	0.0162858
664.983	0.0160964
665.061	0.0160277
665.139	0.0162296
665.217	0.0160686
665.295	0.0160233
665.373	0.0159883
665.451	0.0159047
665.530	0.0158186
665.608	0.0156982
665.686	0.0156583
665.764	0.0158675
665.842	0.0157632
665.920	0.0157985
665.998	0.0157726
666.076	0.0157610
666.155	0.0157786
666.233	0.0158170
666.311	0.0157871
666.389	0.0158602
666.467	0.0160238
666.545	0.0160403
666.623	0.0160268
666.701	0.0163128
666.780	0.0163459
666.858	0.0163734
666.936	0.0164664
667.014	0.0163706
667.092	0.0164703
667.170	0.0164915
667.248	0.0165363
667.326	0.0164624
667.405	0.0164470
667.483	0.0165649
667.561	0.0162835
667.639	0.0164167
667.717	0.0161776
667.795	0.0162169
667.873	0.0160007
667.951	0.0158910
668.030	0.0159198
668.108	0.0157758
668.186	0.0157171
668.264	0.0156511
668.342	0.0156525
668.420	0.0156040
668.498	0.0154977
668.576	0.0154563
668.655	0.0154666
668.733	0.0153971
668.811	0.0154142
668.889	0.0155138
668.967	0.0155894
669.045	0.0155344
669.123	0.0155460
669.201	0.0157934
669.280	0.0159229
669.358	0.0159756
669.436	0.0161793
669.514	0.0162277
669.592	0.0163563
669.670	0.0164878
669.748	0.0164468
669.826	0.0165818
669.905	0.0165498
669.983	0.0168699
670.061	0.0168523
670.139	0.0168263
670.217	0.0168282
670.295	0.0168822
670.373	0.0166780
670.451	0.0170033
670.530	0.0167856
670.608	0.0165825
670.686	0.0166605
670.764	0.0165498
670.842	0.0162801
670.920	0.0162547
670.998	0.0159653
671.076	0.0160899
671.155	0.0159254
671.233	0.0157928
671.311	0.0156538
671.389	0.0156415
671.467	0.0155774
671.545	0.0153197
671.623	0.0155225
671.701	0.0154652
671.780	0.0154577
671.858	0.0153966
671.936	0.0153575
672.014	0.0153416
672.092	0.0154084
672.170	0.0156357
672.248	0.0154893
672.326	0.0156720
672.405	0.0156358
672.483	0.0156418
672.561	0.0158079
672.639	0.0158646
672.717	0.0159253
672.795	0.0161412
672.873	0.0160411
672.951	0.0161600
673.030	0.0163042
673.108	0.0163072
673.186	0.0161803
673.264	0.0164023
673.342	0.0164234
673.420	0.0164799
673.498	0.0165199
673.576	0.0165723
673.655	0.0165622
673.733	0.0164386
673.811	0.0163907
673.889	0.0164998
673.967	0.0165098
674.045	0.0165090
674.123	0.0164926
674.201	0.0165055
674.280	0.0164971
674.358	0.0164974
674.436	0.0163340
674.514	0.0162819
674.592	0.0163107
674.670	0.0163526
674.748	0.0161811
674.826	0.0161746
674.905	0.0161184
674.983	0.0159741
675.061	0.0159204
675.139	0.0157202
675.217	0.0157525
675.295	0.0155782
675.373	0.0154297
675.451	0.0154916
675.530	0.0153084
675.608	0.0151382
675.686	0.0151714
675.764	0.0151833
675.842	0.0150169
675.920	0.0149442
675.998	0.0151102
676.076	0.0150232
676.155	0.0152461
676.233	0.0153047
676.311	0.0153947
676.389	0.0156294
676.467	0.0157027
676.545	0.0157893
676.623	0.0159261
676.701	0.0159731
676.780	0.0162198
676.858	0.0164397
676.936	0.0165344
677.014	0.0165948
677.092	0.0167657
677.170	0.0168925
677.248	0.0169393
677.326	0.0169732
677.405	0.0170180
677.483	0.0171799
677.561	0.0170170
677.639	0.0168226
677.717	0.0169935
677.795	0.0167964
677.873	0.0166811
677.951	0.0165434
678.030	0.0163929
678.108	0.0163679
678.186	0.0161243
678.264	0.0159363
678.342	0.0157832
678.420	0.0156944
678.498	0.0155667
678.576	0.0153571
678.655	0.0153199
678.733	0.0152577
678.811	0.0151418
678.889	0.0149237
678.967	0.0149500
679.045	0.0151108
679.123	0.0150108
679.201	0.0151056
679.280	0.0153162
679.358	0.0153125
679.436	0.0153780
679.514	0.0156147
679.592	0.0157032
679.670	0.0157421
679.748	0.0159513
679.826	0.0159938
679.905	0.0161007
679.983	0.0162939
680.061	0.0164983
680.139	0.0165294
680.217	0.0164072
680.295	0.0167197
680.373	0.0168057
680.451	0.0167082
680.530	0.0167105
680.608	0.0167350
680.686	0.0167931
680.764	0.0167197
680.842	0.0166299
680.920	0.0167031
680.998	0.0167472
681.076	0.0165318
681.155	0.0164606
681.233	0.0161829
681.311	0.0161385
681.389	0.0162390
681.467	0.0162267
681.545	0.0161829
681.623	0.0160393
681.701	0.0159099
681.780	0.0158002
681.858	0.0157045
681.936	0.0155967
682.014	0.0155904
682.092	0.0156714
682.170	0.0153978
682.248	0.0154686
682.326	0.0154610
682.405	0.0152625
682.483	0.0153879
682.561	0.0151937
682.639	0.0150779
682.717	0.0150861
682.795	0.0151217
682.873	0.0151601
682.951	0.0153020
683.030	0.0151813
683.108	0.0152268
683.186	0.0153169
683.264	0.0152706
683.342	0.0154787
683.420	0.0155141
683.498	0.0155193
683.576	0.0155970
683.655	0.0156289
683.733	0.0158626
683.811	0.0160842
683.889	0.0159542
683.967	0.0159544
684.045	0.0161363
684.123	0.0162003
684.201	0.0163203
684.280	0.0165017
684.358	0.0166635
684.436	0.0166090
684.514	0.0165060
684.592	0.0167495
684.670	0.0167773
684.748	0.0168417
684.826	0.0170393
684.905	0.0169464
684.983	0.0169465
685.061	0.0170095
685.139	0.0170482
685.217	0.0170025
685.295	0.0168564
685.373	0.0168828
685.451	0.0168445
685.530	0.0169238
685.608	0.0167107
685.686	0.0167522
685.764	0.0164944
685.842	0.0163458
685.920	0.0162206
685.998	0.0161619
686.076	0.0160249
686.155	0.0158820
686.233	0.0157807
686.311	0.0156557
686.389	0.0154771
686.467	0.0154763
686.545	0.0153259
686.623	0.0154375
686.701	0.0152438
686.780	0.0152451
686.858	0.0152074
686.936	0.0151107
687.014	0.0151700
687.092	0.0152253
687.170	0.0151360
687.248	0.0151481
687.326	0.0153974
687.405	0.0150803
687.483	0.0153630
687.561	0.0153001
687.639	0.0153077
687.717	0.0154874
687.795	0.0153925
687.873	0.0154986
687.951	0.0157285
688.030	0.0156779
688.108	0.0156919
688.186	0.0158323
688.264	0.0157185
688.342	0.0157831
688.420	0.0158489
688.498	0.0158886
688.576	0.0159232
688.655	0.0158987
688.733	0.0159929
688.811	0.0159255
688.889	0.0161091
688.967	0.0160204
689.045	0.0160405
689.123	0.0161919
689.201	0.0161941
689.280	0.0161955
689.358	0.0161739
689.436	0.0165391
689.514	0.0165035
689.592	0.0166092
689.670	0.0165823
689.748	0.0167947
689.826	0.0169812
689.905	0.0169605
689.983	0.0171254
690.061	0.0173183
690.139	0.0173112
690.217	0.0173118
690.295	0.0173716
690.373	0.0174880
690.451	0.0176230
690.530	0.0175383
690.608	0.0174123
690.686	0.0174997
690.764	0.0173814
690.842	0.0171972
690.920	0.0172266
690.998	0.0171722
691.076	0.0169350
691.155	0.0168108
691.233	0.0165023
691.311	0.0162885
691.389	0.0161933
691.467	0.0157717
691.545	0.0155946
691.623	0.0155523
691.701	0.0152547
691.780	0.0150648
691.858	0.0147598
691.936	0.0146938
692.014	0.0146083
692.092	0.0145541
692.170	0.0144231
692.248	0.0144859
692.326	0.0145733
692.405	0.0145641
692.483	0.0145357
692.561	0.0144652
692.639	0.0148273
692.717	0.0147764
692.795	0.0149577
692.873	0.0150699
692.951	0.0152874
693.030	0.0155239
693.108	0.0157851
693.186	0.0159032
693.264	0.0161233
693.342	0.0162926
693.420	0.0165036
693.498	0.0164239
693.576	0.0165961
693.655	0.0166588
693.733	0.0166895
693.811	0.0166954
693.889	0.0167475
693.967	0.0166838
694.045	0.0166524
694.123	0.0164108
694.201	0.0163543
694.280	0.0162423
694.358	0.0160066
694.436	0.0158712
694.514	0.0159351
694.592	0.0159392
694.670	0.0157710
694.748	0.0156508
694.826	0.0156827
694.905	0.0155042
694.983	0.0154863
695.061	0.0155566
695.139	0.0156287
695.217	0.0157684
695.295	0.0156644
695.373	0.0158874
695.451	0.0160168
695.530	0.0162578
695.608	0.0162387
695.686	0.0163299
695.764	0.0165317
695.842	0.0167334
695.920	0.0169031
695.998	0.0169363
696.076	0.0171539
696.155	0.0173058
696.233	0.0173917
696.311	0.0173392
696.389	0.0175498
696.467	0.0176008
696.545	0.0175589
696.623	0.0174605
696.701	0.0174236
696.780	0.0172323
696.858	0.0172334
696.936	0.0170007
697.014	0.0168976
697.092	0.0165069
697.170	0.0164782
697.248	0.0162314
697.326	0.0158808
697.405	0.0158157
697.483	0.0156152
697.561	0.0154289
697.639	0.0151833
697.717	0.0149136
697.795	0.0148679
697.873	0.0147090
697.951	0.0147749
698.030	0.0147379
698.108	0.0147499
698.186	0.0146433
698.264	0.0146798
698.342	0.0149110
698.420	0.0149275
698.498	0.0149650
698.576	0.0150153
698.655	0.0151031
698.733	0.0151537
698.811	0.0151720
698.889	0.0152847
698.967	0.0153234
699.045	0.0153654
699.123	0.0154160
699.201	0.0152807
699.280	0.0153880
699.358	0.0155991
699.436	0.0154810
699.514	0.0155225
699.592	0.0154706
699.670	0.0154990
699.748	0.0156056
699.826	0.0158430
699.905	0.0156751
699.983	0.0157723
700.061	0.0159297
700.139	0.0158865
700.217	0.0159599
700.295	0.0162517
700.373	0.0162895
700.451	0.0163717
700.530	0.0164495
700.608	0.0165559
700.686	0.0166212
700.764	0.0168877
700.842	0.0168251
700.920	0.0168906
700.998	0.0169614
701.076	0.0171778
701.155	0.0170587
701.233	0.0170433
701.311	0.0171173
701.389	0.0171720
701.467	0.0171263
701.545	0.0170851
701.623	0.0170560
701.701	0.0171645
701.780	0.0169736
701.858	0.0170126
701.936	0.0169817
702.014	0.0169259
702.092	0.0169527
702.170	0.0167679
702.248	0.0166431
702.326	0.0165228
702.405	0.0164535
702.483	0.0162615
702.561	0.0162784
702.639	0.0162489
702.717	0.0159494
702.795	0.0158485
702.873	0.0156721
702.951	0.0156242
703.030	0.0153821
703.108	0.0153167
703.186	0.0151958
703.264	0.0150589
703.342	0.0150753
703.420	0.0150556
703.498	0.0148274
703.576	0.0148771
703.655	0.0147298
703.733	0.0147329
703.811	0.0148446
703.889	0.0147537
703.967	0.0149371
704.045	0.0149842
704.123	0.0150888
704.201	0.0152953
704.280	0.0153706
704.358	0.0154279
704.436	0.0154980
704.514	0.0156432
704.592	0.0156987
704.670	0.0157974
704.748	0.0160140
704.826	0.0159924
704.905	0.0162121
704.983	0.0163271
705.061	0.0163037
705.139	0.0165788
705.217	0.0165137
705.295	0.0166138
705.373	0.0166765
705.451	0.0166321
705.530	0.0167554
705.608	0.0165964
705.686	0.0165230
705.764	0.0164684
705.842	0.0163609
705.920	0.0163545
705.998	0.0162517
706.076	0.0161362
706.155	0.0160853
706.233	0.0160505
706.311	0.0160167
706.389	0.0159059
706.467	0.0158773
706.545	0.0158485
706.623	0.0157673
706.701	0.0158311
706.780	0.0157516
706.858	0.0157628
706.936	0.0158518
707.014	0.0159273
707.092	0.0160074
707.170	0.0161648
707.248	0.0163746
707.326	0.0163979
707.405	0.0166548
707.483	0.0166953
707.561	0.0167564
707.639	0.0168909
707.717	0.0170532
707.795	0.0168222
707.873	0.0170410
707.951	0.0169379
708.030	0.0170166
708.108	0.0169245
708.186	0.0169894
708.264	0.0168194
708.342	0.0166862
708.420	0.0167368
708.498	0.0165090
708.576	0.0162290
708.655	0.0161768
708.733	0.0159737
708.811	0.0158550
708.889	0.0156747
708.967	0.0154890
709.045	0.0152714
709.123	0.0151257
709.201	0.0151436
709.280	0.0150378
709.358	0.0150419
709.436	0.0148679
709.514	0.0147298
709.592	0.0148814
709.670	0.0148479
709.748	0.0146516
709.826	0.0149981
709.905	0.0150357
709.983	0.0152814
710.061	0.0152861
710.139	0.0154356
710.217	0.0156689
710.295	0.0159568
710.373	0.0160960
710.451	0.0163828
710.530	0.0166209
710.608	0.0166804
710.686	0.0168893
710.764	0.0171243
710.842	0.0169180
710.920	0.0172012
710.998	0.0173301
711.076	0.0172431
711.155	0.0172103
711.233	0.0171412
711.311	0.0171391
711.389	0.0170296
711.467	0.0168439
711.545	0.0166042
711.623	0.0165503
711.701	0.0162187
711.780	0.0160872
711.858	0.0159829
711.936	0.0159135
712.014	0.0155622
712.092	0.0155794
712.170	0.0155450
712.248	0.0154910
712.326	0.0155292
712.405	0.0155688
712.483	0.0155535
712.561	0.0156003
712.639	0.0156963
712.717	0.0158477
712.795	0.0159581
712.873	0.0160495
712.951	0.0160973
713.030	0.0162359
713.108	0.0163393
713.186	0.0163872
713.264	0.0165343
713.342	0.0164924
713.420	0.0166307
713.498	0.0165239
713.576	0.0164125
713.655	0.0165454
713.733	0.0164309
713.811	0.0163965
713.889	0.0163565
713.967	0.0161735
714.045	0.0161178
714.123	0.0161210
714.201	0.0158544
714.280	0.0158675
714.358	0.0158211
714.436	0.0157257
714.514	0.0156183
714.592	0.0155437
714.670	0.0153568
714.748	0.0153988
714.826	0.0154373
714.905	0.0155226
714.983	0.0156376
715.061	0.0155526
715.139	0.0155646
715.217	0.0157175
715.295	0.0157691
715.373	0.0158987
715.451	0.0161079
715.530	0.0161192
715.608	0.0161584
715.686	0.0162529
715.764	0.0162516
715.842	0.0163000
715.920	0.0164281
715.998	0.0162592
716.076	0.0164116
716.155	0.0164104
716.233	0.0163466
716.311	0.0163781
716.389	0.0164204
716.467	0.0164117
716.545	0.0164013
716.623	0.0164950
716.701	0.0163159
716.780	0.0163908
716.858	0.0164835
716.936	0.0164745
717.014	0.0166592
717.092	0.0165810
717.170	0.0166148
717.248	0.0165930
717.326	0.0167146
717.405	0.0167030
717.483	0.0166273
717.561	0.0166278
717.639	0.0166962
717.717	0.0166412
717.795	0.0164025
717.873	0.0163101
717.951	0.0161862
718.030	0.0163187
718.108	0.0161687
718.186	0.0158984
718.264	0.0159093
718.342	0.0158844
718.420	0.0157539
718.498	0.0156175
718.576	0.0156309
718.655	0.0156318
718.733	0.0156526
718.811	0.0156862
718.889	0.0157484
718.967	0.0156888
719.045	0.0158190
719.123	0.0157461
719.201	0.0159296
719.280	0.0159225
719.358	0.0159285
719.436	0.0160909
719.514	0.0160285
719.592	0.0161398
719.670	0.0162144
719.748	0.0160822
719.826	0.0163073
719.905	0.0162852
719.983	0.0163041
720.061	0.0162421
720.139	0.0162125
720.217	0.0162550
720.295	0.0162135
720.373	0.0163734
720.451	0.0163068
720.530	0.0163269
720.608	0.0163069
720.686	0.0164316
720.764	0.0163098
720.842	0.0163580
720.920	0.0162535
720.998	0.0162109
721.076	0.0163496
721.155	0.0163272
721.233	0.0162402
721.311	0.0160793
721.389	0.0161475
721.467	0.0162405
721.545	0.0160083
721.623	0.0160226
721.701	0.0160081
721.780	0.0159052
721.858	0.0159721
721.936	0.0158179
722.014	0.0158585
722.092	0.0159094
722.170	0.0157722
722.248	0.0158353
722.326	0.0157375
722.405	0.0157223
722.483	0.0157028
722.561	0.0157741
722.639	0.0158022
722.717	0.0157297
722.795	0.0157551
722.873	0.0156719
722.951	0.0157249
723.030	0.0157947
723.108	0.0158884
723.186	0.0158174
723.264	0.0160038
723.342	0.0160233
723.420	0.0160464
723.498	0.0160265
723.576	0.0160098
723.655	0.0161896
723.733	0.0162126
723.811	0.0163654
723.889	0.0162963
723.967	0.0163763
724.045	0.0162773
724.123	0.0164365
724.201	0.0164538
724.280	0.0164678
724.358	0.0164954
724.436	0.0165639
724.514	0.0165160
724.592	0.0165828
724.670	0.0164503
724.748	0.0164724
724.826	0.0164415
724.905	0.0165961
724.983	0.0164017
725.061	0.0164240
725.139	0.0162903
725.217	0.0162567
725.295	0.0162010
725.373	0.0161299
725.451	0.0161655
725.530	0.0161166
725.608	0.0159218
725.686	0.0158912
725.764	0.0159389
725.842	0.0158612
725.920	0.0156320
725.998	0.0157174
726.076	0.0157020
726.155	0.0157977
726.233	0.0157307
726.311	0.0156139
726.389	0.0157292
726.467	0.0157679
726.545	0.0157973
726.623	0.0157339
726.701	0.0156494
726.780	0.0158368
726.858	0.0158006
726.936	0.0156033
727.014	0.0157940
727.092	0.0159664
727.170	0.0159235
727.248	0.0158064
727.326	0.0159232
727.405	0.0161050
727.483	0.0159693
727.561	0.0159248
727.639	0.0160837
727.717	0.0161073
727.795	0.0161126
727.873	0.0162203
727.951	0.0161778
728.030	0.0161292
728.108	0.0162446
728.186	0.0162041
728.264	0.0160885
728.342	0.0162737
728.420	0.0161966
728.498	0.0161665
728.576	0.0160284
728.655	0.0161199
728.733	0.0162482
728.811	0.0161588
728.889	0.0160141
728.967	0.0160187
729.045	0.0160917
729.123	0.0161879
729.201	0.0160092
729.280	0.0159756
729.358	0.0160346
729.436	0.0160679
729.514	0.0160941
729.592	0.0157999
729.670	0.0159543
729.748	0.0158808
729.826	0.0158833
729.905	0.0157995
729.983	0.0157822
730.061	0.0158563
730.139	0.0158807
730.217	0.0158689
730.295	0.0158534
730.373	0.0157742
730.451	0.0158313
730.530	0.0158680
730.608	0.0158421
730.686	0.0159087
730.764	0.0158791
730.842	0.0158477
730.920	0.0157786
730.998	0.0159814
731.076	0.0161110
731.155	0.0161036
731.233	0.0161308
731.311	0.0161911
731.389	0.0162254
731.467	0.0162633
731.545	0.0162691
731.623	0.0161202
731.701	0.0163583
731.780	0.0164173
731.858	0.0165100
731.936	0.0164337
732.014	0.0164244
732.092	0.0164565
732.170	0.0164348
732.248	0.0163283
732.326	0.0164471
732.405	0.0164573
732.483	0.0162868
732.561	0.0163558
732.639	0.0161622
732.717	0.0160895
732.795	0.0162538
732.873	0.0162738
732.951	0.0160619
733.030	0.0158958
733.108	0.0160941
733.186	0.0159743
733.264	0.0160103
733.342	0.0160259
733.420	0.0161658
733.498	0.0160709
733.576	0.0157961
733.655	0.0158972
733.733	0.0159858
733.811	0.0159422
733.889	0.0157449
733.967	0.0157272
734.045	0.0158393
734.123	0.0158562
734.201	0.0158292
734.280	0.0158384
734.358	0.0158540
734.436	0.0157284
734.514	0.0157759
734.592	0.0158247
734.670	0.0159396
734.748	0.0159698
734.826	0.0160796
734.905	0.0160775
734.983	0.0161503
735.061	0.0162072
735.139	0.0162035
735.217	0.0163103
735.295	0.0163065
735.373	0.0163490
735.451	0.0163216
735.530	0.0163876
735.608	0.0163795
735.686	0.0165076
735.764	0.0163641
735.842	0.0164332
735.920	0.0163568
735.998	0.0163848
736.076	0.0163686
736.155	0.0164429
736.233	0.0163416
736.311	0.0163725
736.389	0.0164203
736.467	0.0163689
736.545	0.0163596
736.623	0.0163052
736.701	0.0162013
736.780	0.0164967
736.858	0.0162850
736.936	0.0161933
737.014	0.0161552
737.092	0.0160409
737.170	0.0160113
737.248	0.0160252
737.326	0.0160850
737.405	0.0160838
737.483	0.0159353
737.561	0.0158028
737.639	0.0159592
737.717	0.0160347
737.795	0.0158888
737.873	0.0159412
737.951	0.0160670
738.030	0.0159876
738.108	0.0158971
738.186	0.0159613
738.264	0.0159760
738.342	0.0160152
738.420	0.0159431
738.498	0.0160229
738.576	0.0160220
738.655	0.0160390
738.733	0.0159933
738.811	0.0160115
738.889	0.0160551
738.967	0.0160837
739.045	0.0160098
739.123	0.0160592
739.201	0.0161311
739.280	0.0160920
739.358	0.0160277
739.436	0.0162654
739.514	0.0162984
739.592	0.0164076
739.670	0.0163874
739.748	0.0163699
739.826	0.0163955
739.905	0.0166297
739.983	0.0166064
740.061	0.0167011
740.139	0.0167209
740.217	0.0165952
740.295	0.0167154
740.373	0.0167744
740.451	0.0166309
740.530	0.0166267
740.608	0.0165992
740.686	0.0165666
740.764	0.0165154
740.842	0.0162075
740.920	0.0162312
740.998	0.0161497
741.076	0.0160407
741.155	0.0159895
741.233	0.0159406
741.311	0.0158868
741.389	0.0157921
741.467	0.0158480
741.545	0.0157492
741.623	0.0157336
741.701	0.0155805
741.780	0.0155982
741.858	0.0157375
741.936	0.0156963
742.014	0.0157336
742.092	0.0158355
742.170	0.0158761
742.248	0.0159314
742.326	0.0159711
742.405	0.0159776
742.483	0.0158720
742.561	0.0161441
742.639	0.0161620
742.717	0.0162807
742.795	0.0161903
742.873	0.0162545
742.951	0.0162072
743.030	0.0161261
743.108	0.0162726
743.186	0.0159956
743.264	0.0161154
743.342	0.0160537
743.420	0.0159629
743.498	0.0159811
743.576	0.0157891
743.655	0.0159780
743.733	0.0158604
743.811	0.0157764
743.889	0.0157159
743.967	0.0157836
744.045	0.0157085
744.123	0.0157919
744.201	0.0157664
744.280	0.0158125
744.358	0.0158140
744.436	0.0159193
744.514	0.0158670
744.592	0.0159811
744.670	0.0159563
744.748	0.0161449
744.826	0.0161702
744.905	0.0161092
744.983	0.0160715
745.061	0.0161887
745.139	0.0162917
745.217	0.0161250
745.295	0.0161414
745.373	0.0161182
745.451	0.0158998
745.530	0.0160076
745.608	0.0157906
745.686	0.0157439
745.764	0.0158906
745.842	0.0156515
745.920	0.0158540
745.998	0.0158219
746.076	0.0156722
746.155	0.0157062
746.233	0.0157701
746.311	0.0157807
746.389	0.0158899
746.467	0.0157773
746.545	0.0158925
746.623	0.0159563
746.701	0.0159863
746.780	0.0160063
746.858	0.0161355
746.936	0.0161680
747.014	0.0162084
747.092	0.0163155
747.170	0.0161891
747.248	0.0162129
747.326	0.0163915
747.405	0.0163248
747.483	0.0164409
747.561	0.0163364
747.639	0.0164157
747.717	0.0165633
747.795	0.0164855
747.873	0.0162857
747.951	0.0163573
748.030	0.0163939
748.108	0.0163181
748.186	0.0162296
748.264	0.0162204
748.342	0.0160899
748.420	0.0161113
748.498	0.0159856
748.576	0.0160101
748.655	0.0159305
748.733	0.0159362
748.811	0.0158228
748.889	0.0158212
748.967	0.0157155
749.045	0.0156410
749.123	0.0156462
749.201	0.0157140
749.280	0.0156012
749.358	0.0156341
749.436	0.0157877
749.514	0.0157151
749.592	0.0156792
749.670	0.0157560
749.748	0.0157073
749.826	0.0157075
749.905	0.0158916
749.983	0.0158797
750.061	0.0159933
750.139	0.0160276
750.217	0.0160448
750.295	0.0161471
750.373	0.0161075
750.451	0.0160979
750.530	0.0162399
750.608	0.0162318
750.686	0.0163049
750.764	0.0161726
750.842	0.0162202
750.920	0.0162790
750.998	0.0163205
751.076	0.0161132
751.155	0.0161108
751.233	0.0161993
751.311	0.0160310
751.389	0.0161323
751.467	0.0160011
751.545	0.0158334
751.623	0.0158542
751.701	0.0160442
751.780	0.0160330
751.858	0.0158338
751.936	0.0159300
752.014	0.0160741
752.092	0.0160667
752.170	0.0158784
752.248	0.0160430
752.326	0.0160741
752.405	0.0162176
752.483	0.0162193
752.561	0.0161562
752.639	0.0160632
752.717	0.0161991
752.795	0.0162048
752.873	0.0160808
752.951	0.0161437
753.030	0.0160820
753.108	0.0162577
753.186	0.0161549
753.264	0.0158878
753.342	0.0159892
753.420	0.0159021
753.498	0.0159299
753.576	0.0157761
753.655	0.0159223
753.733	0.0158870
753.811	0.0158365
753.889	0.0159084
753.967	0.0159987
754.045	0.0160035
754.123	0.0160122
754.201	0.0160906
754.280	0.0160083
754.358	0.0161034
754.436	0.0161762
754.514	0.0162716
754.592	0.0162747
754.670	0.0162845
754.748	0.0161143
754.826	0.0161308
754.905	0.0162787
754.983	0.0162989
755.061	0.0160545
755.139	0.0163363
755.217	0.0161343
755.295	0.0160487
755.373	0.0160567
755.451	0.0161522
755.530	0.0159931
755.608	0.0161181
755.686	0.0161460
755.764	0.0161561
755.842	0.0162923
755.920	0.0162622
755.998	0.0160773
756.076	0.0161014
756.155	0.0162508
756.233	0.0160680
756.311	0.0162302
756.389	0.0162057
756.467	0.0161726
756.545	0.0161304
756.623	0.0160580
756.701	0.0160095
756.780	0.0159391
756.858	0.0159100
756.936	0.0158699
757.014	0.0157483
757.092	0.0158298
757.170	0.0156905
757.248	0.0157491
757.326	0.0157848
757.405	0.0157980
757.483	0.0157526
757.561	0.0159536
757.639	0.0158037
757.717	0.0159396
757.795	0.0159937
757.873	0.0160661
757.951	0.0161423
758.030	0.0162177
758.108	0.0162808
758.186	0.0161812
758.264	0.0162552
758.342	0.0163592
758.420	0.0164149
758.498	0.0164024
758.576	0.0164085
758.655	0.0163695
758.733	0.0162578
758.811	0.0161113
758.889	0.0162561
758.967	0.0162791
759.045	0.0160268
759.123	0.0160565
759.201	0.0158957
759.280	0.0158920
759.358	0.0158376
759.436	0.0158321
759.514	0.0159313
759.592	0.0159357
759.670	0.0159142
759.748	0.0160212
759.826	0.0159948
759.905	0.0160143
759.983	0.0160490
760.061	0.0161906
760.139	0.0163012
760.217	0.0162392
760.295	0.0163330
760.373	0.0163319
760.451	0.0162829
760.530	0.0164253
760.608	0.0163626
760.686	0.0163448
760.764	0.0162569
760.842	0.0162377
760.920	0.0162683
760.998	0.0160835
761.076	0.0160058
761.155	0.0160358
761.233	0.0159886
761.311	0.0158601
761.389	0.0159911
761.467	0.0159685
761.545	0.0160100
761.623	0.0160103
761.701	0.0159145
761.780	0.0159626
761.858	0.0160069
761.936	0.0160418
762.014	0.0161343
762.092	0.0160456
762.170	0.0161110
762.248	0.0161691
762.326	0.0162933
762.405	0.0161953
762.483	0.0162247
762.561	0.0161943
762.639	0.0161509
762.717	0.0163139
762.795	0.0161768
762.873	0.0161192
762.951	0.0162756
763.030	0.0162414
763.108	0.0161755
763.186	0.0160811
763.264	0.0162089
763.342	0.0161533
763.420	0.0161588
763.498	0.0162826
763.576	0.0162778
763.655	0.0162104
763.733	0.0163029
763.811	0.0163942
763.889	0.0162129
763.967	0.0164253
764.045	0.0162594
764.123	0.0163029
764.201	0.0162921
764.280	0.0162495
764.358	0.0162079
764.436	0.0160351
764.514	0.0161792
764.592	0.0160840
764.670	0.0159579
764.748	0.0159770
764.826	0.0158977
764.905	0.0159061
764.983	0.0158434
765.061	0.0157286
765.139	0.0157929
765.217	0.0158254
765.295	0.0158647
765.373	0.0157862
765.451	0.0159126
765.530	0.0158418
765.608	0.0158962
765.686	0.0158127
765.764	0.0159417
765.842	0.0159187
765.920	0.0161024
765.998	0.0161320
766.076	0.0161723
766.155	0.0161172
766.233	0.0161796
766.311	0.0162265
766.389	0.0160880
766.467	0.0162199
766.545	0.0161591
766.623	0.0160675
766.701	0.0160187
766.780	0.0159657
766.858	0.0159547
766.936	0.0158907
767.014	0.0157362
767.092	0.0157381
767.170	0.0156512
767.248	0.0157816
767.326	0.0159122
767.405	0.0156496
767.483	0.0157349
767.561	0.0157390
767.639	0.0157474
767.717	0.0158344
767.795	0.0159019
767.873	0.0159051
767.951	0.0159361
768.030	0.0159795
768.108	0.0160685
768.186	0.0160270
768.264	0.0159145
768.342	0.0161771
768.420	0.0160767
768.498	0.0161745
768.576	0.0160245
768.655	0.0161831
768.733	0.0162724
768.811	0.0161102
768.889	0.0160136
768.967	0.0160985
769.045	0.0160820
769.123	0.0159873
769.201	0.0159998
769.280	0.0159928
769.358	0.0160005
769.436	0.0160651
769.514	0.0160186
769.592	0.0159371
769.670	0.0159827
769.748	0.0160423
769.826	0.0160686
769.905	0.0159489
769.983	0.0160145
770.061	0.0159873
770.139	0.0161667
770.217	0.0161915
770.295	0.0159915
770.373	0.0160447
770.451	0.0161350
770.530	0.0160894
770.608	0.0160162
770.686	0.0162064
770.764	0.0160616
770.842	0.0160895
770.920	0.0160095
770.998	0.0159324
771.076	0.0160193
771.155	0.0160377
771.233	0.0159153
771.311	0.0159822
771.389	0.0159571
771.467	0.0158234
771.545	0.0160238
771.623	0.0160464
771.701	0.0158925
771.780	0.0158338
771.858	0.0158520
771.936	0.0159130
772.014	0.0156644
772.092	0.0159277
772.170	0.0157645
772.248	0.0155942
772.326	0.0157311
772.405	0.0156246
772.483	0.0157556
772.561	0.0157255
772.639	0.0156218
772.717	0.0156526
772.795	0.0157162
772.873	0.0155657
772.951	0.0157542
773.030	0.0157089
773.108	0.0156820
773.186	0.0158660
773.264	0.0159991
773.342	0.0160378
773.420	0.0160320
773.498	0.0161491
773.576	0.0161089
773.655	0.0162572
773.733	0.0161440
773.811	0.0161659
773.889	0.0161100
773.967	0.0162874
774.045	0.0163687
774.123	0.0162157
774.201	0.0161980
774.280	0.0162285
774.358	0.0162895
774.436	0.0162048
774.514	0.0161590
774.592	0.0161087
774.670	0.0161217
774.748	0.0160368
774.826	0.0160908
774.905	0.0160616
774.983	0.0160206
775.061	0.0159212
775.139	0.0158378
775.217	0.0158443
775.295	0.0158022
775.373	0.0157687
775.451	0.0158503
775.530	0.0157935
775.608	0.0157107
775.686	0.0158983
775.764	0.0158580
775.842	0.0159040
775.920	0.0157935
775.998	0.0159550
776.076	0.0158870
776.155	0.0159159
776.233	0.0159975
776.311	0.0160703
776.389	0.0160427
776.467	0.0160841
776.545	0.0159803
776.623	0.0159899
776.701	0.0158769
776.780	0.0158956
776.858	0.0161967
776.936	0.0160242
777.014	0.0161273
777.092	0.0160460
777.170	0.0160458
777.248	0.0161000
777.326	0.0161633
777.405	0.0161547
777.483	0.0161112
777.561	0.0162290
777.639	0.0160905
777.717	0.0161945
777.795	0.0161104
777.873	0.0161649
777.951	0.0161207
778.030	0.0162203
778.108	0.0161969
778.186	0.0163465
778.264	0.0162845
778.342	0.0162808
778.420	0.0162533
778.498	0.0162813
778.576	0.0163800
778.655	0.0161920
778.733	0.0162260
778.811	0.0162904
778.889	0.0160757
778.967	0.0161073
779.045	0.0159122
779.123	0.0159579
779.201	0.0159621
779.280	0.0159778
779.358	0.0159308
779.436	0.0160159
779.514	0.0160183
779.592	0.0160641
779.670	0.0160499
779.748	0.0160188
779.826	0.0160647
779.905	0.0160291
779.983	0.0159312
780.061	0.0160446
780.139	0.0158914
780.217	0.0160201
780.295	0.0161213
780.373	0.0160559
780.451	0.0158234
780.530	0.0159675
780.608	0.0160102
780.686	0.0159693
780.764	0.0160777
780.842	0.0159919
780.920	0.0160275
780.998	0.0159919
781.076	0.0161471
781.155	0.0163348
781.233	0.0162672
781.311	0.0163233
781.389	0.0162551
781.467	0.0164017
781.545	0.0164417
781.623	0.0164387
781.701	0.0163203
781.780	0.0162503
781.858	0.0163634
781.936	0.0163783
782.014	0.0162499
782.092	0.0163742
782.170	0.0163428
782.248	0.0162424
782.326	0.0161667
782.405	0.0160755
782.483	0.0161488
782.561	0.0160709
782.639	0.0160278
782.717	0.0159306
782.795	0.0158501
782.873	0.0158493
782.951	0.0157947
783.030	0.0157595
783.108	0.0157455
783.186	0.0157813
783.264	0.0154988
783.342	0.0156588
783.420	0.0158485
783.498	0.0158624
783.576	0.0157476
783.655	0.0158009
783.733	0.0158441
783.811	0.0157770
783.889	0.0159029
783.967	0.0158482
784.045	0.0160287
784.123	0.0159846
784.201	0.0158837
784.280	0.0159910
784.358	0.0161366
784.436	0.0160266
784.514	0.0159869
784.592	0.0160265
784.670	0.0159702
784.748	0.0160063
784.826	0.0161467
784.905	0.0160299
784.983	0.0161142
785.061	0.0160135
785.139	0.0161755
785.217	0.0161246
785.295	0.0162376
785.373	0.0162185
785.451	0.0163587
785.530	0.0161429
785.608	0.0162168
785.686	0.0162698
785.764	0.0163077
785.842	0.0163300
785.920	0.0162748
785.998	0.0163020
786.076	0.0162994
786.155	0.0163889
786.233	0.0164343
786.311	0.0164237
786.389	0.0165501
786.467	0.0163132
786.545	0.0164097
786.623	0.0164725
786.701	0.0164408
786.780	0.0164010
786.858	0.0163001
786.936	0.0164252
787.014	0.0163717
787.092	0.0162192
787.170	0.0163644
787.248	0.0163505
787.326	0.0164830
787.405	0.0162683
787.483	0.0161584
787.561	0.0163134
787.639	0.0161433
787.717	0.0162450
787.795	0.0162978
787.873	0.0162505
787.951	0.0161336
788.030	0.0160316
788.108	0.0160699
788.186	0.0160410
788.264	0.0159483
788.342	0.0158469
788.420	0.0156956
788.498	0.0157679
788.576	0.0157510
788.655	0.0158693
788.733	0.0158015
788.811	0.0156264
788.889	0.0157954
788.967	0.0157294
789.045	0.0156109
789.123	0.0158235
789.201	0.0156428
789.280	0.0159726
789.358	0.0159403
789.436	0.0160052
789.514	0.0159606
789.592	0.0160048
789.670	0.0160485
789.748	0.0160135
789.826	0.0159641
789.905	0.0159072
789.983	0.0160890
790.061	0.0160426
790.139	0.0158607
790.217	0.0160396
790.295	0.0160919
790.373	0.0159408
790.451	0.0159181
790.530	0.0160713
790.608	0.0161599
790.686	0.0161890
790.764	0.0161724
790.842	0.0160959
790.920	0.0162540
790.998	0.0161745
791.076	0.0160858
791.155	0.0161954
791.233	0.0160946
791.311	0.0160284
791.389	0.0161154
791.467	0.0162586
791.545	0.0162579
791.623	0.0160913
791.701	0.0160695
791.780	0.0161204
791.858	0.0161522
791.936	0.0161069
792.014	0.0162190
792.092	0.0160947
792.170	0.0160442
792.248	0.0162419
792.326	0.0161878
792.405	0.0162640
792.483	0.0162093
792.561	0.0162292
792.639	0.0164076
792.717	0.0163168
792.795	0.0162719
792.873	0.0163551
792.951	0.0161886
793.030	0.0164256
793.108	0.0163577
793.186	0.0162637
793.264	0.0163554
793.342	0.0163438
793.420	0.0164070
793.498	0.0163035
793.576	0.0163297
793.655	0.0162151
793.733	0.0162367
793.811	0.0163309
793.889	0.0162449
793.967	0.0160846
794.045	0.0160313
794.123	0.0159292
794.201	0.0159402
794.280	0.0157416
794.358	0.0156583
794.436	0.0157883
794.514	0.0159676
794.592	0.0157540
794.670	0.0158093
794.748	0.0157677
794.826	0.0157335
794.905	0.0156009
794.983	0.0157537
795.061	0.0157292
795.139	0.0157426
795.217	0.0159122
795.295	0.0157521
795.373	0.0158755
795.451	0.0157119
795.530	0.0157626
795.608	0.0160166
795.686	0.0158845
795.764	0.0158504
795.842	0.0158855
795.920	0.0158908
795.998	0.0159279
796.076	0.0159519
796.155	0.0159526
796.233	0.0160380
796.311	0.0160126
796.389	0.0159530
796.467	0.0160235
796.545	0.0159418
796.623	0.0159128
796.701	0.0159609
796.780	0.0160995
796.858	0.0161660
796.936	0.0160683
797.014	0.0160670
797.092	0.0161462
797.170	0.0160236
797.248	0.0161002
797.326	0.0161752
797.405	0.0162852
797.483	0.0163120
797.561	0.0162727
797.639	0.0162914
797.717	0.0161825
797.795	0.0163275
797.873	0.0163791
797.951	0.0162741
798.030	0.0162543
798.108	0.0164352
798.186	0.0162920
798.264	0.0162051
798.342	0.0161845
798.420	0.0161864
798.498	0.0162654
798.576	0.0162057
798.655	0.0161891
798.733	0.0159841
798.811	0.0160281
798.889	0.0162357
798.967	0.0159162
799.045	0.0157861
799.123	0.0158424
799.201	0.0160080
799.280	0.0157964
799.358	0.0159015
799.436	0.0156772
799.514	0.0157501
799.592	0.0157163
799.670	0.0157778
799.748	0.0155056
799.826	0.0156628
799.905	0.0156208
799.983	0.0156381
800.061	0.0155055
800.139	0.0154884
800.217	0.0156243
800.295	0.0157495
800.373	0.0156166
800.451	0.0156651
800.530	0.0156961
800.608	0.0157227
800.686	0.0157137
800.764	0.0156357
800.842	0.0156694
800.920	0.0158701
800.998	0.0159568
801.076	0.0158213
801.155	0.0159010
801.233	0.0160545
801.311	0.0159904
801.389	0.0159627
801.467	0.0161109
801.545	0.0161176
801.623	0.0160731
801.701	0.0161131
801.780	0.0161117
801.858	0.0161564
801.936	0.0161855
802.014	0.0162640
802.092	0.0162095
802.170	0.0162972
802.248	0.0161627
802.326	0.0161230
802.405	0.0162487
802.483	0.0162769
802.561	0.0162264
802.639	0.0162255
802.717	0.0162090
802.795	0.0160993
802.873	0.0161961
802.951	0.0161677
803.030	0.0160326
803.108	0.0162124
803.186	0.0162424
803.264	0.0162439
803.342	0.0161536
803.420	0.0160938
803.498	0.0161374
803.576	0.0161895
803.655	0.0160173
803.733	0.0160468
803.811	0.0159287
803.889	0.0161047
803.967	0.0160601
804.045	0.0160387
804.123	0.0160723
804.201	0.0161221
804.280	0.0160555
804.358	0.0161635
804.436	0.0161474
804.514	0.0159791
804.592	0.0161060
804.670	0.0161676
804.748	0.0160824
804.826	0.0160141
804.905	0.0160065
804.983	0.0161904
805.061	0.0160390
805.139	0.0159927
805.217	0.0158812
805.295	0.0159969
805.373	0.0159556
805.451	0.0159534
805.530	0.0159629
805.608	0.0160215
805.686	0.0159715
805.764	0.0160437
805.842	0.0158353
805.920	0.0158105
805.998	0.0158616
806.076	0.0158502
806.155	0.0158836
806.233	0.0158970
806.311	0.0158209
806.389	0.0158909
806.467	0.0159061
806.545	0.0160206
806.623	0.0159610
806.701	0.0159164
806.780	0.0159568
806.858	0.0159293
806.936	0.0162408
807.014	0.0161129
807.092	0.0160256
807.170	0.0161639
807.248	0.0162604
807.326	0.0162466
807.405	0.0161974
807.483	0.0162563
807.561	0.0162029
807.639	0.0161753
807.717	0.0163283
807.795	0.0161662
807.873	0.0160797
807.951	0.0161340
808.030	0.0160844
808.108	0.0159805
808.186	0.0161000
808.264	0.0161318
808.342	0.0159856
808.420	0.0159699
808.498	0.0159968
808.576	0.0159695
808.655	0.0158636
808.733	0.0160832
808.811	0.0160805
808.889	0.0160099
808.967	0.0162098
809.045	0.0160686
809.123	0.0162027
809.201	0.0160704
809.280	0.0161086
809.358	0.0161105
809.436	0.0162361
809.514	0.0162932
809.592	0.0162850
809.670	0.0161640
809.748	0.0160020
809.826	0.0162936
809.905	0.0162209
809.983	0.0161573
810.061	0.0160439
810.139	0.0160641
810.217	0.0159065
810.295	0.0160188
810.373	0.0160634
810.451	0.0159138
810.530	0.0159190
810.608	0.0160532
810.686	0.0160099
810.764	0.0159953
810.842	0.0159074
810.920	0.0161182
810.998	0.0159839
811.076	0.0161604
811.155	0.0159967
811.233	0.0159667
811.311	0.0160721
811.389	0.0160831
811.467	0.0160426
811.545	0.0160878
811.623	0.0160134
811.701	0.0159745
811.780	0.0159672
811.858	0.0159729
811.936	0.0159853
812.014	0.0161409
812.092	0.0161149
812.170	0.0159969
812.248	0.0159887
812.326	0.0161123
812.405	0.0160852
812.483	0.0162061
812.561	0.0161683
812.639	0.0161067
812.717	0.0161784
812.795	0.0162006
812.873	0.0162865
812.951	0.0162108
813.030	0.0162170
813.108	0.0163294
813.186	0.0162073
813.264	0.0162542
813.342	0.0164228
813.420	0.0162024
813.498	0.0161395
813.576	0.0163029
813.655	0.0161548
813.733	0.0160258
813.811	0.0161533
813.889	0.0161915
813.967	0.0162391
814.045	0.0162879
814.123	0.0160806
814.201	0.0161978
814.280	0.0162547
814.358	0.0161175
814.436	0.0161749
814.514	0.0161938
814.592	0.0163719
814.670	0.0160487
814.748	0.0162880
814.826	0.0161655
814.905	0.0160489
814.983	0.0161312
815.061	0.0161400
815.139	0.0160928
815.217	0.0161002
815.295	0.0161200
815.373	0.0159203
815.451	0.0161089
815.530	0.0159666
815.608	0.0161468
815.686	0.0159615
815.764	0.0159628
815.842	0.0158820
815.920	0.0158769
815.998	0.0159779
816.076	0.0160045
816.155	0.0160764
816.233	0.0159084
816.311	0.0160141
816.389	0.0160429
816.467	0.0160162
816.545	0.0159258
816.623	0.0160458
816.701	0.0160287
816.780	0.0160818
816.858	0.0160948
816.936	0.0160390
817.014	0.0161157
817.092	0.0161180
817.170	0.0161272
817.248	0.0161531
817.326	0.0161363
817.405	0.0163321
817.483	0.0160348
817.561	0.0162935
817.639	0.0163070
817.717	0.0163886
817.795	0.0163636
817.873	0.0163448
817.951	0.0162993
818.030	0.0163521
818.108	0.0162681
818.186	0.0161127
818.264	0.0161722
818.342	0.0164051
818.420	0.0161675
818.498	0.0163136
818.576	0.0162625
818.655	0.0162792
818.733	0.0162695
818.811	0.0160379
818.889	0.0162569
818.967	0.0162841
819.045	0.0161338
819.123	0.0162128
819.201	0.0161984
819.280	0.0161009
819.358	0.0162304
819.436	0.0161523
819.514	0.0161049
819.592	0.0160776
819.670	0.0160155
819.748	0.0159055
819.826	0.0160522
819.905	0.0160147
819.983	0.0160489
820.061	0.0160487
820.139	0.0160063
820.217	0.0160368
820.295	0.0159958
820.373	0.0161461
820.451	0.0160381
820.530	0.0161935
820.608	0.0160729
820.686	0.0160757
820.764	0.0160831
820.842	0.0160654
820.920	0.0161147
820.998	0.0161248
821.076	0.0161646
821.155	0.0160526
821.233	0.0161868
821.311	0.0159747
821.389	0.0160908
821.467	0.0160149
821.545	0.0159504
821.623	0.0160598
821.701	0.0159542
821.780	0.0161343
821.858	0.0161112
821.936	0.0158971
822.014	0.0160191
822.092	0.0160879
822.170	0.0160238
822.248	0.0159615
822.326	0.0159532
822.405	0.0160143
822.483	0.0160753
822.561	0.0159845
822.639	0.0160199
822.717	0.0160396
822.795	0.0160359
822.873	0.0160477
822.951	0.0161254
823.030	0.0160072
823.108	0.0161168
823.186	0.0160995
823.264	0.0161817
823.342	0.0161469
823.420	0.0160362
823.498	0.0159567
823.576	0.0160613
823.655	0.0160842
823.733	0.0159967
823.811	0.0159994
823.889	0.0159290
823.967	0.0160812
824.045	0.0158543
824.123	0.0159345
824.201	0.0160693
824.280	0.0161210
824.358	0.0159103
824.436	0.0158988
824.514	0.0157759
824.592	0.0158131
824.670	0.0159877
824.748	0.0159809
824.826	0.0159045
824.905	0.0159085
824.983	0.0159606
825.061	0.0159103
825.139	0.0158328
825.217	0.0159658
825.295	0.0159061
825.373	0.0159129
825.451	0.0160668
825.530	0.0161220
825.608	0.0160086
825.686	0.0159447
825.764	0.0160708
825.842	0.0160197
825.920	0.0160947
825.998	0.0159863
826.076	0.0160413
826.155	0.0157375
826.233	0.0159377
826.311	0.0159084
826.389	0.0159483
826.467	0.0160088
826.545	0.0159930
826.623	0.0158022
826.701	0.0157112
826.780	0.0157708
826.858	0.0159066
826.936	0.0158176
827.014	0.0158096
827.092	0.0158327
827.170	0.0158795
827.248	0.0158918
827.326	0.0158108
827.405	0.0157271
827.483	0.0159184
827.561	0.0158278
827.639	0.0158940
827.717	0.0158862
827.795	0.0159480
827.873	0.0158404
827.951	0.0159963
828.030	0.0159217
828.108	0.0158367
828.186	0.0160205
828.264	0.0159515
828.342	0.0157186
828.420	0.0159377
828.498	0.0158186
828.576	0.0158184
828.655	0.0160352
828.733	0.0160884
828.811	0.0159998
828.889	0.0158510
828.967	0.0158447
829.045	0.0160723
829.123	0.0160105
829.201	0.0160564
829.280	0.0160193
829.358	0.0161440
829.436	0.0160516
829.514	0.0161119
829.592	0.0159135
829.670	0.0160051
829.748	0.0162007
829.826	0.0159191
829.905	0.0159088
829.983	0.0159341
830.061	0.0158972
830.139	0.0157352
830.217	0.0158737
830.295	0.0157777
830.373	0.0156751
830.451	0.0157967
830.530	0.0156587
830.608	0.0158063
830.686	0.0157886
830.764	0.0157121
830.842	0.0158770
830.920	0.0158628
830.998	0.0158792
831.076	0.0157857
831.155	0.0158039
831.233	0.0157982
831.311	0.0159084
831.389	0.0159087
831.467	0.0159898
831.545	0.0160556
831.623	0.0160409
831.701	0.0159100
831.780	0.0160229
831.858	0.0160699
831.936	0.0160703
832.014	0.0159889
832.092	0.0160728
832.170	0.0160025
832.248	0.0160111
832.326	0.0159621
832.405	0.0159392
832.483	0.0161294
832.561	0.0160941
832.639	0.0160024
832.717	0.0160278
832.795	0.0160393
832.873	0.0161127
832.951	0.0160314
833.030	0.0160768
833.108	0.0161506
833.186	0.0161196
833.264	0.0161707
833.342	0.0161581
833.420	0.0160941
833.498	0.0162059
833.576	0.0162000
833.655	0.0161439
833.733	0.0161951
833.811	0.0160664
833.889	0.0161803
833.967	0.0162125
834.045	0.0162099
834.123	0.0162069
834.201	0.0160252
834.280	0.0159785
834.358	0.0161572
834.436	0.0160805
834.514	0.0159725
834.592	0.0161221
834.670	0.0160844
834.748	0.0161436
834.826	0.0160738
834.905	0.0161484
834.983	0.0161601
835.061	0.0160587
835.139	0.0160467
835.217	0.0159759
835.295	0.0158880
835.373	0.0159082
835.451	0.0160403
835.530	0.0161423
835.608	0.0160553
835.686	0.0159932
835.764	0.0159764
835.842	0.0160998
835.920	0.0159924
835.998	0.0159446
836.076	0.0160654
836.155	0.0162558
836.233	0.0159052
836.311	0.0160202
836.389	0.0160178
836.467	0.0159296
836.545	0.0160339
836.623	0.0160507
836.701	0.0160853
836.780	0.0160740
836.858	0.0160825
836.936	0.0161044
837.014	0.0160475
837.092	0.0161419
837.170	0.0161897
837.248	0.0161084
837.326	0.0160883
837.405	0.0160690
837.483	0.0160829
837.561	0.0160085
837.639	0.0161844
837.717	0.0161141
837.795	0.0162615
837.873	0.0160830
837.951	0.0160750
838.030	0.0161499
838.108	0.0160156
838.186	0.0161478
838.264	0.0161938
838.342	0.0160562
838.420	0.0161249
838.498	0.0160451
838.576	0.0160117
838.655	0.0161261
838.733	0.0160513
838.811	0.0159954
838.889	0.0159102
838.967	0.0160600
839.045	0.0161563
839.123	0.0159994
839.201	0.0162686
839.280	0.0161612
839.358	0.0160732
839.436	0.0161404
839.514	0.0162734
839.592	0.0162721
839.670	0.0161858
839.748	0.0161887
839.826	0.0161034
839.905	0.0160322
839.983	0.0159898
840.061	0.0161563
840.139	0.0161123
840.217	0.0160973
840.295	0.0161184
840.373	0.0159694
840.451	0.0161199
840.530	0.0161335
840.608	0.0161870
840.686	0.0160411
840.764	0.0160294
840.842	0.0160639
840.920	0.0160336
840.998	0.0161198
841.076	0.0161288
841.155	0.0161389
841.233	0.0161841
841.311	0.0161250
841.389	0.0159466
841.467	0.0161693
841.545	0.0160494
841.623	0.0160036
841.701	0.0159875
841.780	0.0160705
841.858	0.0159508
841.936	0.0158273
842.014	0.0158144
842.092	0.0159159
842.170	0.0158627
842.248	0.0159555
842.326	0.0158723
842.405	0.0160967
842.483	0.0158802
842.561	0.0160326
842.639	0.0159090
842.717	0.0159193
842.795	0.0159257
842.873	0.0160135
842.951	0.0159126
843.030	0.0158742
843.108	0.0160013
843.186	0.0158532
843.264	0.0158807
843.342	0.0158930
843.420	0.0160753
843.498	0.0160362
843.576	0.0159931
843.655	0.0161646
843.733	0.0159573
843.811	0.0159355
843.889	0.0159947
843.967	0.0160609
844.045	0.0160354
844.123	0.0159499
844.201	0.0160644
844.280	0.0160600
844.358	0.0159122
844.436	0.0160638
844.514	0.0159666
844.592	0.0160945
844.670	0.0161138
844.748	0.0161278
844.826	0.0160327
844.905	0.0158473
844.983	0.0162048
845.061	0.0158813
845.139	0.0160153
845.217	0.0159512
845.295	0.0159968
845.373	0.0160105
845.451	0.0159685
845.530	0.0161689
845.608	0.0160143
845.686	0.0161379
845.764	0.0159605
845.842	0.0158886
845.920	0.0160699
845.998	0.0159876
846.076	0.0160357
846.155	0.0161472
846.233	0.0160297
846.311	0.0159520
846.389	0.0158918
846.467	0.0158746
846.545	0.0160294
846.623	0.0159724
846.701	0.0160693
846.780	0.0159637
846.858	0.0158259
846.936	0.0159907
847.014	0.0159369
847.092	0.0158501
847.170	0.0159613
847.248	0.0157330
847.326	0.0159077
847.405	0.0160454
847.483	0.0160918
847.561	0.0159621
847.639	0.0159117
847.717	0.0160789
847.795	0.0160098
847.873	0.0159649
847.951	0.0159301
848.030	0.0158274
848.108	0.0159921
848.186	0.0159587
848.264	0.0159388
848.342	0.0158655
848.420	0.0158979
848.498	0.0159786
848.576	0.0158380
848.655	0.0158439
848.733	0.0159779
848.811	0.0160465
848.889	0.0158269
848.967	0.0159004
849.045	0.0159521
849.123	0.0160777
849.201	0.0159301
849.280	0.0159384
849.358	0.0159463
849.436	0.0160075
849.514	0.0161017
849.592	0.0159233
849.670	0.0159593
849.748	0.0160382
849.826	0.0158887
849.905	0.0159600
849.983	0.0161083
850.061	0.0158469
850.139	0.0160125
850.217	0.0160571
850.295	0.0159891
850.373	0.0159631
850.451	0.0158144
850.530	0.0158669
850.608	0.0156979
850.686	0.0159077
850.764	0.0159503
850.842	0.0157681
850.920	0.0159782
850.998	0.0158521
851.076	0.0158058
851.155	0.0159943
851.233	0.0158563
851.311	0.0158114
851.389	0.0159952
851.467	0.0159353
851.545	0.0159924
851.623	0.0159444
851.701	0.0158118
851.780	0.0159354
851.858	0.0160564
851.936	0.0160382
852.014	0.0160607
852.092	0.0159833
852.170	0.0159647
852.248	0.0160016
852.326	0.0159620
852.405	0.0160390
852.483	0.0160359
852.561	0.0160139
852.639	0.0158569
852.717	0.0158767
852.795	0.0159714
852.873	0.0160545
852.951	0.0159785
853.030	0.0160850
853.108	0.0160413
853.186	0.0159803
853.264	0.0159046
853.342	0.0159046
853.420	0.0159557
853.498	0.0160455
853.576	0.0160084
853.655	0.0160378
853.733	0.0158892
853.811	0.0160182
853.889	0.0160675
853.967	0.0158404
854.045	0.0159335
854.123	0.0158977
854.201	0.0160286
854.280	0.0159634
854.358	0.0159806
854.436	0.0160529
854.514	0.0160049
854.592	0.0160774
854.670	0.0158595
854.748	0.0159480
854.826	0.0159746
854.905	0.0159552
854.983	0.0159569
855.061	0.0158699
855.139	0.0160294
855.217	0.0160442
855.295	0.0160888
855.373	0.0158242
855.451	0.0160257
855.530	0.0158143
855.608	0.0159634
855.686	0.0159367
855.764	0.0160745
855.842	0.0159656
855.920	0.0159179
855.998	0.0159016
856.076	0.0157514
856.155	0.0158209
856.233	0.0160549
856.311	0.0160648
856.389	0.0159794
856.467	0.0160133
856.545	0.0160041
856.623	0.0159101
856.701	0.0160283
856.780	0.0159998
856.858	0.0159406
856.936	0.0160815
857.014	0.0160746
857.092	0.0162060
857.170	0.0161151
857.248	0.0160423
857.326	0.0160494
857.405	0.0160762
857.483	0.0161657
857.561	0.0162391
857.639	0.0160258
857.717	0.0161456
857.795	0.0163366
857.873	0.0162679
857.951	0.0161475
858.030	0.0161424
858.108	0.0160971
858.186	0.0162117
858.264	0.0161674
858.342	0.0161672
858.420	0.0162103
858.498	0.0162344
858.576	0.0161716
858.655	0.0160648
858.733	0.0160059
858.811	0.0159406
858.889	0.0160712
858.967	0.0160632
859.045	0.0160698
859.123	0.0159946
859.201	0.0160233
859.280	0.0161215
859.358	0.0161147
859.436	0.0159177
859.514	0.0159248
859.592	0.0158301
859.670	0.0159277
859.748	0.0159233
859.826	0.0159234
859.905	0.0159594
859.983	0.0161652
860.061	0.0160666
860.139	0.0160391
860.217	0.0159510
860.295	0.0161233
860.373	0.0160450
860.451	0.0159978
860.530	0.0161299
860.608	0.0160886
860.686	0.0160653
860.764	0.0161676
860.842	0.0161918
860.920	0.0161511
860.998	0.0161342
861.076	0.0160497
861.155	0.0161207
861.233	0.0161458
861.311	0.0161226
861.389	0.0161408
861.467	0.0161194
861.545	0.0163220
861.623	0.0160891
861.701	0.0160260
861.780	0.0162177
861.858	0.0162048
861.936	0.0161317
862.014	0.0161030
862.092	0.0161205
862.170	0.0161003
862.248	0.0159926
862.326	0.0160956
862.405	0.0159716
862.483	0.0161504
862.561	0.0160803
862.639	0.0160480
862.717	0.0159057
862.795	0.0159651
862.873	0.0159393
862.951	0.0159084
863.030	0.0159660
863.108	0.0159621
863.186	0.0158897
863.264	0.0160047
863.342	0.0160943
863.420	0.0159451
863.498	0.0160196
863.576	0.0160892
863.655	0.0161475
863.733	0.0161900
863.811	0.0159903
863.889	0.0159650
863.967	0.0160452
864.045	0.0160040
864.123	0.0161132
864.201	0.0161642
864.280	0.0160526
864.358	0.0159286
864.436	0.0160201
864.514	0.0160161
864.592	0.0161633
864.670	0.0161203
864.748	0.0161063
864.826	0.0160493
864.905	0.0159307
864.983	0.0161017
865.061	0.0162059
865.139	0.0161056
865.217	0.0161456
865.295	0.0161522
865.373	0.0162100
865.451	0.0162598
865.530	0.0160032
865.608	0.0159956
865.686	0.0160978
865.764	0.0161308
865.842	0.0160904
865.920	0.0159235
865.998	0.0158954
866.076	0.0160719
866.155	0.0159349
866.233	0.0160499
866.311	0.0160558
866.389	0.0160507
866.467	0.0160201
866.545	0.0159583
866.623	0.0159338
866.701	0.0159190
866.780	0.0161028
866.858	0.0160425
866.936	0.0159554
867.014	0.0159800
867.092	0.0159903
867.170	0.0161098
867.248	0.0159515
867.326	0.0158884
867.405	0.0160140
867.483	0.0160944
867.561	0.0160201
867.639	0.0159655
867.717	0.0158143
867.795	0.0159864
867.873	0.0159789
867.951	0.0160762
868.030	0.0160321
868.108	0.0160352
868.186	0.0159689
868.264	0.0160514
868.342	0.0160987
868.420	0.0161034
868.498	0.0160899
868.576	0.0160546
868.655	0.0161330
868.733	0.0160017
868.811	0.0160152
868.889	0.0160955
868.967	0.0160958
869.045	0.0160790
869.123	0.0160780
869.201	0.0160337
869.280	0.0160974
869.358	0.0159913
869.436	0.0161084
869.514	0.0160727
869.592	0.0160319
869.670	0.0160231
869.748	0.0161073
869.826	0.0159843
869.905	0.0160036
869.983	0.0159521
870.061	0.0158516
870.139	0.0159086
870.217	0.0159570
870.295	0.0160220
870.373	0.0159206
870.451	0.0160239
870.530	0.0158748
870.608	0.0158710
870.686	0.0160100
870.764	0.0159491
870.842	0.0158810
870.920	0.0160175
870.998	0.0160632
871.076	0.0160318
871.155	0.0159064
871.233	0.0159811
871.311	0.0160468
871.389	0.0160265
871.467	0.0160212
871.545	0.0160204
871.623	0.0159961
871.701	0.0159988
871.780	0.0161659
871.858	0.0159669
871.936	0.0161711
872.014	0.0160740
872.092	0.0160799
872.170	0.0161396
872.248	0.0159373
872.326	0.0159415
872.405	0.0160031
872.483	0.0161274
872.561	0.0160901
872.639	0.0159808
872.717	0.0159637
872.795	0.0161026
872.873	0.0159934
872.951	0.0160313
873.030	0.0160800
873.108	0.0160276
873.186	0.0159953
873.264	0.0160329
873.342	0.0160702
873.420	0.0161439
873.498	0.0161044
873.576	0.0159905
873.655	0.0160229
873.733	0.0161452
873.811	0.0160766
873.889	0.0159456
873.967	0.0160626
874.045	0.0160155
874.123	0.0160250
874.201	0.0160632
874.280	0.0160481
874.358	0.0161684
874.436	0.0161102
874.514	0.0160465
874.592	0.0161324
874.670	0.0160015
874.748	0.0160872
874.826	0.0159032
874.905	0.0160644
874.983	0.0160063
875.061	0.0160154
875.139	0.0160654
875.217	0.0160648
875.295	0.0160715
875.373	0.0160957
875.451	0.0161076
875.530	0.0159805
875.608	0.0161402
875.686	0.0160225
875.764	0.0159821
875.842	0.0161421
875.920	0.0161560
875.998	0.0160502
876.076	0.0160537
876.155	0.0162763
876.233	0.0160501
876.311	0.0159999
876.389	0.0160393
876.467	0.0161074
876.545	0.0161086
876.623	0.0161895
876.701	0.0161799
876.780	0.0161420
876.858	0.0159998
876.936	0.0160979
877.014	0.0159616
877.092	0.0159802
877.170	0.0160899
877.248	0.0160162
877.326	0.0159292
877.405	0.0161136
877.483	0.0160706
877.561	0.0161492
877.639	0.0159210
877.717	0.0159407
877.795	0.0161219
877.873	0.0160106
877.951	0.0160527
878.030	0.0159971
878.108	0.0160087
878.186	0.0162867
878.264	0.0161966
878.342	0.0160558
878.420	0.0161665
878.498	0.0161020
878.576	0.0161789
878.655	0.0161447
878.733	0.0163310
878.811	0.0161568
878.889	0.0161818
878.967	0.0161904
879.045	0.0160049
879.123	0.0162766
879.201	0.0160012
879.280	0.0161938
879.358	0.0161768
879.436	0.0161153
879.514	0.0161383
879.592	0.0160940
879.670	0.0162396
879.748	0.0162111
879.826	0.0161144
879.905	0.0160450
879.983	0.0160175
880.061	0.0160631
880.139	0.0160235
880.217	0.0161493
880.295	0.0159736
880.373	0.0158646
880.451	0.0159715
880.530	0.0161126
880.608	0.0159652
880.686	0.0158835
880.764	0.0160471
880.842	0.0158962
880.920	0.0159917
880.998	0.0159986
881.076	0.0158801
881.155	0.0160722
881.233	0.0159931
881.311	0.0159400
881.389	0.0159748
881.467	0.0160863
881.545	0.0161095
881.623	0.0161417
881.701	0.0161295
881.780	0.0160294
881.858	0.0161677
881.936	0.0160911
882.014	0.0161343
882.092	0.0161290
882.170	0.0160288
882.248	0.0160554
882.326	0.0159595
882.405	0.0159661
882.483	0.0160960
882.561	0.0159718
882.639	0.0159832
882.717	0.0158621
882.795	0.0159322
882.873	0.0160435
882.951	0.0160615
883.030	0.0159097
883.108	0.0158693
883.186	0.0159023
883.264	0.0158945
883.342	0.0159972
883.420	0.0158286
883.498	0.0159280
883.576	0.0159880
883.655	0.0158645
883.733	0.0159058
883.811	0.0160139
883.889	0.0160265
883.967	0.0158363
884.045	0.0160846
884.123	0.0160126
884.201	0.0160688
884.280	0.0159824
884.358	0.0161658
884.436	0.0160756
884.514	0.0161407
884.592	0.0161949
884.670	0.0161715
884.748	0.0159839
884.826	0.0160484
884.905	0.0159562
884.983	0.0160546
885.061	0.0160978
885.139	0.0161692
885.217	0.0160479
885.295	0.0160814
885.373	0.0159021
885.451	0.0160035
885.530	0.0159663
885.608	0.0158825
885.686	0.0160301
885.764	0.0158241
885.842	0.0158375
885.920	0.0158008
885.998	0.0157494
886.076	0.0157789
886.155	0.0159655
886.233	0.0159409
886.311	0.0158807
886.389	0.0159541
886.467	0.0158704
886.545	0.0158720
886.623	0.0159690
886.701	0.0159722
886.780	0.0159528
886.858	0.0159309
886.936	0.0159379
887.014	0.0160939
887.092	0.0160403
887.170	0.0160828
887.248	0.0160928
887.326	0.0159226
887.405	0.0160283
887.483	0.0162148
887.561	0.0160841
887.639	0.0160932
887.717	0.0161340
887.795	0.0161207
887.873	0.0161359
887.951	0.0161789
888.030	0.0161709
888.108	0.0161201
888.186	0.0160178
888.264	0.0162754
888.342	0.0161770
888.420	0.0163170
888.498	0.0161169
888.576	0.0161956
888.655	0.0160040
888.733	0.0161129
888.811	0.0160868
888.889	0.0160629
888.967	0.0159731
889.045	0.0160631
889.123	0.0160786
889.201	0.0160699
889.280	0.0160089
889.358	0.0158286
889.436	0.0160602
889.514	0.0160595
889.592	0.0159758
889.670	0.0161054
889.748	0.0160378
889.826	0.0161057
889.905	0.0161524
889.983	0.0161752
890.061	0.0161938
890.139	0.0162498
890.217	0.0160989
890.295	0.0160884
890.373	0.0162556
890.451	0.0161472
890.530	0.0161898
890.608	0.0161425
890.686	0.0161608
890.764	0.0161841
890.842	0.0161200
890.920	0.0161185
890.998	0.0160872
891.076	0.0162394
891.155	0.0162650
891.233	0.0161456
891.311	0.0160622
891.389	0.0160589
891.467	0.0161093
891.545	0.0162380
891.623	0.0161948
891.701	0.0161582
891.780	0.0162365
891.858	0.0162000
891.936	0.0160876
892.014	0.0161812
892.092	0.0161744
892.170	0.0161893
892.248	0.0162357
892.326	0.0162224
892.405	0.0161166
892.483	0.0161539
892.561	0.0162275
892.639	0.0162123
892.717	0.0160237
892.795	0.0161896
892.873	0.0160634
892.951	0.0159606
893.030	0.0161032
893.108	0.0161355
893.186	0.0160634
893.264	0.0161142
893.342	0.0159192
893.420	0.0159718
893.498	0.0160264
893.576	0.0158867
893.655	0.0159261
893.733	0.0159180
893.811	0.0158908
893.889	0.0158358
893.967	0.0158207
894.045	0.0159366
894.123	0.0159306
894.201	0.0157922
894.280	0.0160129
894.358	0.0159481
894.436	0.0158581
894.514	0.0158311
894.592	0.0158067
894.670	0.0159631
894.748	0.0159518
894.826	0.0158675
894.905	0.0159231
894.983	0.0160453
895.061	0.0160475
895.139	0.0160706
895.217	0.0160882
895.295	0.0160254
895.373	0.0160893
895.451	0.0161777
895.530	0.0160323
895.608	0.0162688
895.686	0.0160872
895.764	0.0161972
895.842	0.0161353
895.920	0.0161610
895.998	0.0160885
896.076	0.0160899
896.155	0.0161254
896.233	0.0162726
896.311	0.0160603
896.389	0.0161141
896.467	0.0162014
896.545	0.0162015
896.623	0.0163087
896.701	0.0161427
896.780	0.0162707
896.858	0.0160957
896.936	0.0161177
897.014	0.0161196
897.092	0.0163224
897.170	0.0162709
897.248	0.0162122
897.326	0.0161684
897.405	0.0162413
897.483	0.0161192
897.561	0.0160903
897.639	0.0162251
897.717	0.0160696
897.795	0.0162002
897.873	0.0161227
897.951	0.0160906
898.030	0.0162189
898.108	0.0160764
898.186	0.0160774
898.264	0.0161201
898.342	0.0161664
898.420	0.0160560
898.498	0.0159726
898.576	0.0161437
898.655	0.0161961
898.733	0.0161040
898.811	0.0161768
898.889	0.0162264
898.967	0.0161829
899.045	0.0160590
899.123	0.0160524
899.201	0.0160774
899.280	0.0160458
899.358	0.0160846
899.436	0.0161410
899.514	0.0161798
899.592	0.0161990
899.670	0.0161438
899.748	0.0160931
899.826	0.0161383
899.905	0.0159554
899.983	0.0160481
900.061	0.0161399
900.139	0.0161040
900.217	0.0160410
900.295	0.0160311
900.373	0.0158832
900.451	0.0159936
900.530	0.0160637
900.608	0.0159924
900.686	0.0159766
900.764	0.0158718
900.842	0.0160895
900.920	0.0159412
900.998	0.0159786
901.076	0.0158895
901.155	0.0159734
901.233	0.0159902
901.311	0.0159483
901.389	0.0160471
901.467	0.0160158
901.545	0.0160444
901.623	0.0159647
901.701	0.0160242
901.780	0.0160097
901.858	0.0161276
901.936	0.0160536
902.014	0.0160439
902.092	0.0159367
902.170	0.0161043
902.248	0.0161595
902.326	0.0162217
902.405	0.0161214
902.483	0.0161280
902.561	0.0161006
902.639	0.0161209
902.717	0.0160934
902.795	0.0161336
902.873	0.0160258
902.951	0.0160268
903.030	0.0159750
903.108	0.0159830
903.186	0.0160197
903.264	0.0160551
903.342	0.0160540
903.420	0.0160691
903.498	0.0159536
903.576	0.0159161
903.655	0.0160352
903.733	0.0160262
903.811	0.0159667
903.889	0.0160616
903.967	0.0160005
904.045	0.0160583
904.123	0.0160172
904.201	0.0159489
904.280	0.0160847
904.358	0.0160064
904.436	0.0160566
904.514	0.0160522
904.592	0.0160371
904.670	0.0161613
904.748	0.0161540
904.826	0.0160411
904.905	0.0161530
904.983	0.0161344
905.061	0.0161942
905.139	0.0161272
905.217	0.0162012
905.295	0.0160931
905.373	0.0161011
905.451	0.0162761
905.530	0.0162315
905.608	0.0161906
905.686	0.0161768
905.764	0.0160869
905.842	0.0160895
905.920	0.0161636
905.998	0.0161269
906.076	0.0162114
906.155	0.0161677
906.233	0.0163001
906.311	0.0163266
906.389	0.0161861
906.467	0.0161173
906.545	0.0161503
906.623	0.0162130
906.701	0.0162354
906.780	0.0163081
906.858	0.0162159
906.936	0.0161528
907.014	0.0160072
907.092	0.0163294
907.170	0.0162222
907.248	0.0161172
907.326	0.0162055
907.405	0.0161891
907.483	0.0162346
907.561	0.0162622
907.639	0.0162592
907.717	0.0160277
907.795	0.0161684
907.873	0.0161061
907.951	0.0161446
908.030	0.0160717
908.108	0.0160711
908.186	0.0161375
908.264	0.0160330
908.342	0.0161479
908.420	0.0161641
908.498	0.0161040
908.576	0.0161647
908.655	0.0160409
908.733	0.0161220
908.811	0.0161723
908.889	0.0160932
908.967	0.0159817
909.045	0.0159721
909.123	0.0161486
909.201	0.0160355
909.280	0.0160555
909.358	0.0160131
909.436	0.0159230
909.514	0.0160312
909.592	0.0159628
909.670	0.0159618
909.748	0.0158839
909.826	0.0159288
909.905	0.0159843
909.983	0.0160332
910.061	0.0159799
910.139	0.0161629
910.217	0.0161502
910.295	0.0160201
910.373	0.0160699
910.451	0.0160680
910.530	0.0161102
910.608	0.0159354
910.686	0.0161242
910.764	0.0160789
910.842	0.0162512
910.920	0.0161515
910.998	0.0161430
911.076	0.0160867
911.155	0.0160995
911.233	0.0161726
911.311	0.0161255
911.389	0.0160471
911.467	0.0160824
911.545	0.0160490
911.623	0.0161375
911.701	0.0162708
911.780	0.0160891
911.858	0.0161472
911.936	0.0162442
912.014	0.0160735
912.092	0.0160841
912.170	0.0160410
912.248	0.0160744
912.326	0.0162389
912.405	0.0162066
912.483	0.0161407
912.561	0.0159509
912.639	0.0160147
912.717	0.0163077
912.795	0.0162314
912.873	0.0160707
912.951	0.0161248
913.030	0.0161576
913.108	0.0162115
913.186	0.0161829
913.264	0.0162127
913.342	0.0162828
913.420	0.0162775
913.498	0.0162800
913.576	0.0161409
913.655	0.0161054
913.733	0.0162035
913.811	0.0162469
913.889	0.0162259
913.967	0.0161876
914.045	0.0160896
914.123	0.0161350
914.201	0.0162307
914.280	0.0160267
914.358	0.0161313
914.436	0.0159700
914.514	0.0162367
914.592	0.0160696
914.670	0.0160405
914.748	0.0160011
914.826	0.0161120
914.905	0.0158021
914.983	0.0161021
915.061	0.0160607
915.139	0.0159770
915.217	0.0159419
915.295	0.0160241
915.373	0.0160894
915.451	0.0158900
915.530	0.0158564
915.608	0.0159842
915.686	0.0161026
915.764	0.0160067
915.842	0.0159377
915.920	0.0158581
915.998	0.0160931
916.076	0.0160287
916.155	0.0161022
916.233	0.0158259
916.311	0.0159384
916.389	0.0160098
916.467	0.0159007
916.545	0.0158628
916.623	0.0158466
916.701	0.0158619
916.780	0.0159473
916.858	0.0159107
916.936	0.0159573
917.014	0.0159192
917.092	0.0158455
917.170	0.0158436
917.248	0.0158635
917.326	0.0160157
917.405	0.0160615
917.483	0.0158881
917.561	0.0160814
917.639	0.0159822
917.717	0.0160725
917.795	0.0160918
917.873	0.0160828
917.951	0.0161456
918.030	0.0162536
918.108	0.0162084
918.186	0.0161592
918.264	0.0160958
918.342	0.0161537
918.420	0.0161787
918.498	0.0160635
918.576	0.0161008
918.655	0.0161992
918.733	0.0161404
918.811	0.0162072
918.889	0.0160756
918.967	0.0161386
919.045	0.0160855
919.123	0.0160873
919.201	0.0161603
919.280	0.0161184
919.358	0.0161419
919.436	0.0161765
919.514	0.0160486
919.592	0.0160617
919.670	0.0160833
919.748	0.0159502
919.826	0.0160020
919.905	0.0159811
919.983	0.0159365
920.061	0.0160401
920.139	0.0158351
920.217	0.0160011
920.295	0.0160306
920.373	0.0160179
920.451	0.0160215
920.530	0.0159576
920.608	0.0159980
920.686	0.0159132
920.764	0.0160352
920.842	0.0160392
920.920	0.0159955
920.998	0.0160416
921.076	0.0160664
921.155	0.0160532
921.233	0.0160017
921.311	0.0158929
921.389	0.0159805
921.467	0.0160673
921.545	0.0160423
921.623	0.0159477
921.701	0.0159837
921.780	0.0160409
921.858	0.0159481
921.936	0.0159502
922.014	0.0160347
922.092	0.0159595
922.170	0.0160499
922.248	0.0159409
922.326	0.0159995
922.405	0.0160564
922.483	0.0159627
922.561	0.0159113
922.639	0.0161449
922.717	0.0161017
922.795	0.0161022
922.873	0.0161458
922.951	0.0160827
923.030	0.0159760
923.108	0.0161285
923.186	0.0161040
923.264	0.0162522
923.342	0.0160324
923.420	0.0159814
923.498	0.0160667
923.576	0.0161609
923.655	0.0160652
923.733	0.0160659
923.811	0.0161253
923.889	0.0160678
923.967	0.0160870
924.045	0.0161516
924.123	0.0160998
924.201	0.0161394
924.280	0.0161772
924.358	0.0159592
924.436	0.0162208
924.514	0.0161465
924.592	0.0160813
924.670	0.0161176
924.748	0.0162431
924.826	0.0161317
924.905	0.0159759
924.983	0.0161228
925.061	0.0163430
925.139	0.0161272
925.217	0.0161665
925.295	0.0161207
925.373	0.0161224
925.451	0.0160249
925.530	0.0160914
925.608	0.0161539
925.686	0.0161773
925.764	0.0160453
925.842	0.0159232
925.920	0.0159801
925.998	0.0159435
926.076	0.0161480
926.155	0.0159456
926.233	0.0159313
926.311	0.0159178
926.389	0.0158215
926.467	0.0159446
926.545	0.0159261
926.623	0.0159804
926.701	0.0159430
926.780	0.0159427
926.858	0.0159453
926.936	0.0158790
927.014	0.0160415
927.092	0.0160155
927.170	0.0159175
927.248	0.0158022
927.326	0.0158572
927.405	0.0158700
927.483	0.0158529
927.561	0.0160039
927.639	0.0159572
927.717	0.0158810
927.795	0.0159908
927.873	0.0159940
927.951	0.0159801
928.030	0.0159666
928.108	0.0160857
928.186	0.0159168
928.264	0.0158315
928.342	0.0160525
928.420	0.0159840
928.498	0.0159476
928.576	0.0159903
928.655	0.0159826
928.733	0.0159230
928.811	0.0160517
928.889	0.0160002
928.967	0.0159679
929.045	0.0161314
929.123	0.0159708
929.201	0.0159872
929.280	0.0161020
929.358	0.0160697
929.436	0.0160576
929.514	0.0160223
929.592	0.0160287
929.670	0.0160311
929.748	0.0161501
929.826	0.0159878
929.905	0.0160982
929.983	0.0161110
930.061	0.0160326
930.139	0.0160359
930.217	0.0160500
930.295	0.0159450
930.373	0.0159466
930.451	0.0160439
930.530	0.0160526
930.608	0.0160779
930.686	0.0160370
930.764	0.0161818
930.842	0.0160772
930.920	0.0159850
930.998	0.0160811
931.076	0.0161330
931.155	0.0161002
931.233	0.0160706
931.311	0.0160709
931.389	0.0160129
931.467	0.0159876
931.545	0.0160561
931.623	0.0161545
931.701	0.0160737
931.780	0.0159329
931.858	0.0162091
931.936	0.0161044
932.014	0.0161481
932.092	0.0161258
932.170	0.0160680
932.248	0.0160845
932.326	0.0161402
932.405	0.0161392
932.483	0.0160347
932.561	0.0161379
932.639	0.0161695
932.717	0.0160867
932.795	0.0159275
932.873	0.0160743
932.951	0.0159933
933.030	0.0159276
933.108	0.0160514
933.186	0.0159724
933.264	0.0161093
933.342	0.0161117
933.420	0.0161890
933.498	0.0160547
933.576	0.0160574
933.655	0.0160352
933.733	0.0159863
933.811	0.0161588
933.889	0.0160036
933.967	0.0160210
934.045	0.0161063
934.123	0.0161043
934.201	0.0160568
934.280	0.0160640
934.358	0.0161151
934.436	0.0161359
934.514	0.0160586
934.592	0.0159805
934.670	0.0159969
934.748	0.0160204
934.826	0.0161919
934.905	0.0159315
934.983	0.0159857
935.061	0.0161263
935.139	0.0159492
935.217	0.0160641
935.295	0.0160528
935.373	0.0161142
935.451	0.0161144
935.530	0.0159554
935.608	0.0160231
935.686	0.0162102
935.764	0.0159712
935.842	0.0160865
935.920	0.0160065
935.998	0.0160793
936.076	0.0160330
936.155	0.0160458
936.233	0.0160535
936.311	0.0161320
936.389	0.0162543
936.467	0.0160161
936.545	0.0158853
936.623	0.0159013
936.701	0.0161061
936.780	0.0159836
936.858	0.0159398
936.936	0.0159307
937.014	0.0159708
937.092	0.0159437
937.170	0.0160091
937.248	0.0158901
937.326	0.0159544
937.405	0.0160576
937.483	0.0160255
937.561	0.0158133
937.639	0.0158958
937.717	0.0160366
937.795	0.0159938
937.873	0.0159899
937.951	0.0158927
938.030	0.0159149
938.108	0.0158875
938.186	0.0159859
938.264	0.0158394
938.342	0.0160805
938.420	0.0160078
938.498	0.0158996
938.576	0.0160210
938.655	0.0160011
938.733	0.0159256
938.811	0.0159348
938.889	0.0160553
938.967	0.0160090
939.045	0.0159659
939.123	0.0159853
939.201	0.0161015
939.280	0.0158806
939.358	0.0158897
939.436	0.0160057
939.514	0.0159410
939.592	0.0158778
939.670	0.0160030
939.748	0.0159452
939.826	0.0159589
939.905	0.0158189
939.983	0.0158814
940.061	0.0160177
940.139	0.0161164
940.217	0.0159335
940.295	0.0158897
940.373	0.0160087
940.451	0.0160478
940.530	0.0159413
940.608	0.0158997
940.686	0.0161108
940.764	0.0159686
940.842	0.0160184
940.920	0.0160224
940.998	0.0160575
941.076	0.0160593
941.155	0.0159644
941.233	0.0160736
941.311	0.0160468
941.389	0.0160403
941.467	0.0160257
941.545	0.0159601
941.623	0.0160509
941.701	0.0161352
941.780	0.0159564
941.858	0.0159839
941.936	0.0159831
942.014	0.0159493
942.092	0.0160107
942.170	0.0160261
942.248	0.0159612
942.326	0.0159544
942.405	0.0159531
942.483	0.0159306
942.561	0.0158886
942.639	0.0158096
942.717	0.0159297
942.795	0.0158878
942.873	0.0159856
942.951	0.0159257
943.030	0.0159169
943.108	0.0157568
943.186	0.0158858
943.264	0.0158066
943.342	0.0158952
943.420	0.0159486
943.498	0.0159357
943.576	0.0159902
943.655	0.0159912
943.733	0.0160049
943.811	0.0160418
943.889	0.0161193
943.967	0.0159345
944.045	0.0158501
944.123	0.0159731
944.201	0.0161511
944.280	0.0160191
944.358	0.0160428
944.436	0.0160743
944.514	0.0160217
944.592	0.0159015
944.670	0.0160424
944.748	0.0160489
944.826	0.0160464
944.905	0.0159769
944.983	0.0160369
945.061	0.0160581
945.139	0.0160652
945.217	0.0159884
945.295	0.0159168
945.373	0.0160590
945.451	0.0160999
945.530	0.0159880
945.608	0.0160729
945.686	0.0162171
945.764	0.0162121
945.842	0.0160052
945.920	0.0161755
945.998	0.0161169
946.076	0.0161767
946.155	0.0161122
946.233	0.0162234
946.311	0.0160281
946.389	0.0160551
946.467	0.0161478
946.545	0.0161401
946.623	0.0161266
946.701	0.0161433
946.780	0.0161130
946.858	0.0160215
946.936	0.0159425
947.014	0.0162228
947.092	0.0160952
947.170	0.0160400
947.248	0.0160876
947.326	0.0159150
947.405	0.0160358
947.483	0.0159012
947.561	0.0159705
947.639	0.0159430
947.717	0.0158651
947.795	0.0157846
947.873	0.0160064
947.951	0.0158903
948.030	0.0159588
948.108	0.0159264
948.186	0.0158937
948.264	0.0159218
948.342	0.0159274
948.420	0.0158918
948.498	0.0158162
948.576	0.0158276
948.655	0.0160130
948.733	0.0159971
948.811	0.0159798
948.889	0.0159978
948.967	0.0159834
949.045	0.0159857
949.123	0.0160500
949.201	0.0160199
949.280	0.0161184
949.358	0.0159543
949.436	0.0160394
949.514	0.0161311
949.592	0.0159900
949.670	0.0160899
949.748	0.0159673
949.826	0.0160343
949.905	0.0160796
949.983	0.0160608
950.061	0.0159296
950.139	0.0160345
950.217	0.0159305
950.295	0.0158607
950.373	0.0159668
950.451	0.0160747
950.530	0.0159435
950.608	0.0158543
950.686	0.0159751
950.764	0.0159973
950.842	0.0159590
950.920	0.0160303
950.998	0.0159960
951.076	0.0158842
951.155	0.0158353
951.233	0.0161455
951.311	0.0159034
951.389	0.0159164
951.467	0.0160053
951.545	0.0159953
951.623	0.0159368
951.701	0.0160034
951.780	0.0160707
951.858	0.0162208
951.936	0.0160760
952.014	0.0160551
952.092	0.0162245
952.170	0.0160833
952.248	0.0161938
952.326	0.0161390
952.405	0.0160810
952.483	0.0160242
952.561	0.0160833
952.639	0.0160677
952.717	0.0161954
952.795	0.0160486
952.873	0.0160244
952.951	0.0159966
953.030	0.0160706
953.108	0.0159695
953.186	0.0160538
953.264	0.0159501
953.342	0.0161182
953.420	0.0160206
953.498	0.0158816
953.576	0.0159895
953.655	0.0162159
953.733	0.0160613
953.811	0.0159707
953.889	0.0161314
953.967	0.0160597
954.045	0.0161189
954.123	0.0161347
954.201	0.0161556
954.280	0.0159898
954.358	0.0160761
954.436	0.0161587
954.514	0.0162369
954.592	0.0160088
954.670	0.0160145
954.748	0.0159811
954.826	0.0160522
954.905	0.0161170
954.983	0.0161369
955.061	0.0161758
955.139	0.0161478
955.217	0.0161232
955.295	0.0161330
955.373	0.0161633
955.451	0.0161597
955.530	0.0160326
955.608	0.0160596
955.686	0.0161040
955.764	0.0160630
955.842	0.0159777
955.920	0.0160543
955.998	0.0160902
956.076	0.0160368
956.155	0.0160927
956.233	0.0161069
956.311	0.0161837
956.389	0.0158573
956.467	0.0159689
956.545	0.0160682
956.623	0.0160099
956.701	0.0159234
956.780	0.0160462
956.858	0.0159818
956.936	0.0159785
957.014	0.0160413
957.092	0.0158345
957.170	0.0158429
957.248	0.0158339
957.326	0.0160051
957.405	0.0159689
957.483	0.0158986
957.561	0.0159653
957.639	0.0158919
957.717	0.0159251
957.795	0.0160406
957.873	0.0160614
957.951	0.0159429
958.030	0.0159166
958.108	0.0161038
958.186	0.0160899
958.264	0.0161172
958.342	0.0160847
958.420	0.0160885
958.498	0.0160806
958.576	0.0159867
958.655	0.0159228
958.733	0.0161005
958.811	0.0160201
958.889	0.0160035
958.967	0.0158512
959.045	0.0159365
959.123	0.0159837
959.201	0.0159812
959.280	0.0159498
959.358	0.0160503
959.436	0.0160750
959.514	0.0160948
959.592	0.0160192
959.670	0.0160238
959.748	0.0160181
959.826	0.0161297
959.905	0.0160415
