05/17/2022	16:31:17	Ver.	4.1	UNKNOWN
Optical Delay	639.982744	Delta X		0.078125	Sweeps	1	Scan Rate	0/0
Coordinates	Axis 1	NaN	Axis 2	NaN	Axis 3	NaN	Axis 4	NaN	Axis 5	NaN	Axis 6	0.000000
TX Power	0.000000	RX Power	0.000000

639.983	0.0153547
640.061	0.0154542
640.139	0.0152927
640.217	0.0153757
640.295	0.0154830
640.373	0.0153646
640.451	0.0153944
640.530	0.0153655
640.608	0.0154140
640.686	0.0154134
640.764	0.0154136
640.842	0.0152977
640.920	0.0154234
640.998	0.0152790
641.076	0.0153152
641.155	0.0153901
641.233	0.0153634
641.311	0.0153288
641.389	0.0154055
641.467	0.0152831
641.545	0.0153220
641.623	0.0152873
641.701	0.0151951
641.780	0.0154741
641.858	0.0155476
641.936	0.0153752
642.014	0.0154141
642.092	0.0154382
642.170	0.0154936
642.248	0.0152838
642.326	0.0152146
642.405	0.0152935
642.483	0.0152073
642.561	0.0153156
642.639	0.0152653
642.717	0.0153777
642.795	0.0153942
642.873	0.0153683
642.951	0.0152714
643.030	0.0154253
643.108	0.0153236
643.186	0.0153976
643.264	0.0153532
643.342	0.0152726
643.420	0.0153586
643.498	0.0154285
643.576	0.0153505
643.655	0.0153883
643.733	0.0153966
643.811	0.0153065
643.889	0.0153735
643.967	0.0153579
644.045	0.0153165
644.123	0.0153178
644.201	0.0153892
644.280	0.0153415
644.358	0.0154053
644.436	0.0153178
644.514	0.0153757
644.592	0.0152827
644.670	0.0153362
644.748	0.0153358
644.826	0.0153465
644.905	0.0153783
644.983	0.0152868
645.061	0.0152614
645.139	0.0153770
645.217	0.0154975
645.295	0.0153867
645.373	0.0153266
645.451	0.0153641
645.530	0.0153480
645.608	0.0153008
645.686	0.0153453
645.764	0.0153552
645.842	0.0152941
645.920	0.0153476
645.998	0.0153682
646.076	0.0153815
646.155	0.0153817
646.233	0.0152591
646.311	0.0152516
646.389	0.0153096
646.467	0.0154068
646.545	0.0153190
646.623	0.0153576
646.701	0.0153629
646.780	0.0153564
646.858	0.0153801
646.936	0.0153332
647.014	0.0153433
647.092	0.0152364
647.170	0.0152533
647.248	0.0153593
647.326	0.0154321
647.405	0.0151758
647.483	0.0153029
647.561	0.0153848
647.639	0.0155035
647.717	0.0153097
647.795	0.0153573
647.873	0.0153770
647.951	0.0153419
648.030	0.0153747
648.108	0.0152229
648.186	0.0153313
648.264	0.0154012
648.342	0.0154238
648.420	0.0154691
648.498	0.0153557
648.576	0.0153087
648.655	0.0152623
648.733	0.0153456
648.811	0.0152736
648.889	0.0153153
648.967	0.0154395
649.045	0.0153744
649.123	0.0154942
649.201	0.0154581
649.280	0.0153452
649.358	0.0153980
649.436	0.0153683
649.514	0.0154875
649.592	0.0153111
649.670	0.0153290
649.748	0.0153760
649.826	0.0153352
649.905	0.0154160
649.983	0.0153400
650.061	0.0152863
650.139	0.0154051
650.217	0.0154176
650.295	0.0153579
650.373	0.0152825
650.451	0.0153164
650.530	0.0153074
650.608	0.0153588
650.686	0.0153491
650.764	0.0152440
650.842	0.0153989
650.920	0.0153867
650.998	0.0153566
651.076	0.0153843
651.155	0.0153606
651.233	0.0154240
651.311	0.0154591
651.389	0.0153575
651.467	0.0153996
651.545	0.0154542
651.623	0.0154887
651.701	0.0153662
651.780	0.0154430
651.858	0.0153129
651.936	0.0153918
652.014	0.0152972
652.092	0.0152366
652.170	0.0153465
652.248	0.0153537
652.326	0.0152222
652.405	0.0153681
652.483	0.0153234
652.561	0.0153540
652.639	0.0152889
652.717	0.0153008
652.795	0.0154403
652.873	0.0153822
652.951	0.0154205
653.030	0.0153050
653.108	0.0153098
653.186	0.0153385
653.264	0.0153247
653.342	0.0153603
653.420	0.0153706
653.498	0.0153016
653.576	0.0153709
653.655	0.0153137
653.733	0.0153787
653.811	0.0153923
653.889	0.0152879
653.967	0.0154221
654.045	0.0154963
654.123	0.0153507
654.201	0.0152937
654.280	0.0154858
654.358	0.0155016
654.436	0.0154345
654.514	0.0153981
654.592	0.0154347
654.670	0.0154353
654.748	0.0152986
654.826	0.0153590
654.905	0.0153361
654.983	0.0152278
655.061	0.0152441
655.139	0.0154067
655.217	0.0153003
655.295	0.0153216
655.373	0.0151852
655.451	0.0153938
655.530	0.0155213
655.608	0.0153571
655.686	0.0153646
655.764	0.0152581
655.842	0.0152233
655.920	0.0153568
655.998	0.0154060
656.076	0.0153787
656.155	0.0153568
656.233	0.0153741
656.311	0.0154452
656.389	0.0154983
656.467	0.0153835
656.545	0.0153277
656.623	0.0153998
656.701	0.0153762
656.780	0.0153518
656.858	0.0153819
656.936	0.0153529
657.014	0.0154298
657.092	0.0154362
657.170	0.0154357
657.248	0.0154274
657.326	0.0153177
657.405	0.0152035
657.483	0.0153944
657.561	0.0153523
657.639	0.0152659
657.717	0.0153497
657.795	0.0152943
657.873	0.0154702
657.951	0.0154086
658.030	0.0152579
658.108	0.0153640
658.186	0.0153504
658.264	0.0153276
658.342	0.0154073
658.420	0.0153255
658.498	0.0153761
658.576	0.0153535
658.655	0.0153377
658.733	0.0154839
658.811	0.0153274
658.889	0.0154236
658.967	0.0154469
659.045	0.0153677
659.123	0.0154420
659.201	0.0154369
659.280	0.0152585
659.358	0.0153213
659.436	0.0153287
659.514	0.0154099
659.592	0.0153309
659.670	0.0154282
659.748	0.0152747
659.826	0.0153399
659.905	0.0153500
659.983	0.0152356
660.061	0.0154240
660.139	0.0152554
660.217	0.0153845
660.295	0.0153165
660.373	0.0152650
660.451	0.0152266
660.530	0.0154646
660.608	0.0153127
660.686	0.0152677
660.764	0.0153449
660.842	0.0152235
660.920	0.0153396
660.998	0.0153162
661.076	0.0154076
661.155	0.0154179
661.233	0.0154176
661.311	0.0153255
661.389	0.0153080
661.467	0.0153448
661.545	0.0152879
661.623	0.0153212
661.701	0.0154015
661.780	0.0153313
661.858	0.0152680
661.936	0.0154101
662.014	0.0153672
662.092	0.0154196
662.170	0.0153387
662.248	0.0153500
662.326	0.0153770
662.405	0.0152203
662.483	0.0153241
662.561	0.0155129
662.639	0.0154146
662.717	0.0153258
662.795	0.0153098
662.873	0.0153654
662.951	0.0154623
663.030	0.0154563
663.108	0.0153310
663.186	0.0155004
663.264	0.0154635
663.342	0.0153828
663.420	0.0153651
663.498	0.0153384
663.576	0.0153474
663.655	0.0155447
663.733	0.0153758
663.811	0.0154523
663.889	0.0153216
663.967	0.0152647
664.045	0.0152971
664.123	0.0152991
664.201	0.0155977
664.280	0.0152779
664.358	0.0152846
664.436	0.0154997
664.514	0.0152192
664.592	0.0153139
664.670	0.0154439
664.748	0.0151662
664.826	0.0154176
664.905	0.0153541
664.983	0.0154465
665.061	0.0153037
665.139	0.0152982
665.217	0.0153017
665.295	0.0154988
665.373	0.0153923
665.451	0.0153231
665.530	0.0153104
665.608	0.0152281
665.686	0.0152983
665.764	0.0154116
665.842	0.0154302
665.920	0.0154304
665.998	0.0155352
666.076	0.0153718
666.155	0.0153074
666.233	0.0154187
666.311	0.0154418
666.389	0.0152876
666.467	0.0155361
666.545	0.0153099
666.623	0.0152934
666.701	0.0153266
666.780	0.0153024
666.858	0.0154041
666.936	0.0154297
667.014	0.0154716
667.092	0.0153789
667.170	0.0153975
667.248	0.0154113
667.326	0.0152383
667.405	0.0152310
667.483	0.0153297
667.561	0.0153036
667.639	0.0152382
667.717	0.0153619
667.795	0.0153497
667.873	0.0154164
667.951	0.0153003
668.030	0.0152709
668.108	0.0152451
668.186	0.0153200
668.264	0.0154089
668.342	0.0154239
668.420	0.0153650
668.498	0.0152588
668.576	0.0153274
668.655	0.0152938
668.733	0.0154313
668.811	0.0153474
668.889	0.0152928
668.967	0.0152522
669.045	0.0154124
669.123	0.0152776
669.201	0.0153802
669.280	0.0154698
669.358	0.0153803
669.436	0.0152651
669.514	0.0150945
669.592	0.0153392
669.670	0.0152475
669.748	0.0152554
669.826	0.0153797
669.905	0.0152942
669.983	0.0152643
670.061	0.0153170
670.139	0.0153053
670.217	0.0153905
670.295	0.0151892
670.373	0.0152964
670.451	0.0153030
670.530	0.0152829
670.608	0.0151782
670.686	0.0151490
670.764	0.0154088
670.842	0.0151759
670.920	0.0154041
670.998	0.0152328
671.076	0.0152684
671.155	0.0153703
671.233	0.0153029
671.311	0.0151953
671.389	0.0153133
671.467	0.0153713
671.545	0.0153856
671.623	0.0153026
671.701	0.0153046
671.780	0.0153395
671.858	0.0153687
671.936	0.0153287
672.014	0.0152547
672.092	0.0152679
672.170	0.0152728
672.248	0.0152395
672.326	0.0153704
672.405	0.0152859
672.483	0.0152999
672.561	0.0152278
672.639	0.0152772
672.717	0.0153690
672.795	0.0152752
672.873	0.0151981
672.951	0.0153226
673.030	0.0153311
673.108	0.0153030
673.186	0.0153056
673.264	0.0152661
673.342	0.0153617
673.420	0.0153595
673.498	0.0152441
673.576	0.0153022
673.655	0.0153537
673.733	0.0154298
673.811	0.0154090
673.889	0.0152743
673.967	0.0151994
674.045	0.0153724
674.123	0.0154045
674.201	0.0154965
674.280	0.0153547
674.358	0.0153745
674.436	0.0153542
674.514	0.0154396
674.592	0.0154091
674.670	0.0153116
674.748	0.0153746
674.826	0.0154011
674.905	0.0153735
674.983	0.0153373
675.061	0.0155148
675.139	0.0153267
675.217	0.0154131
675.295	0.0156145
675.373	0.0154170
675.451	0.0155112
675.530	0.0154559
675.608	0.0154916
675.686	0.0154507
675.764	0.0154988
675.842	0.0154417
675.920	0.0153544
675.998	0.0155643
676.076	0.0155843
676.155	0.0154406
676.233	0.0154372
676.311	0.0154745
676.389	0.0154657
676.467	0.0155279
676.545	0.0155334
676.623	0.0154853
676.701	0.0154428
676.780	0.0154043
676.858	0.0156367
676.936	0.0154027
677.014	0.0154457
677.092	0.0155972
677.170	0.0153782
677.248	0.0154356
677.326	0.0155338
677.405	0.0154221
677.483	0.0154711
677.561	0.0155463
677.639	0.0154403
677.717	0.0155363
677.795	0.0153802
677.873	0.0154820
677.951	0.0154356
678.030	0.0154030
678.108	0.0154273
678.186	0.0154629
678.264	0.0153943
678.342	0.0153752
678.420	0.0154436
678.498	0.0154456
678.576	0.0155116
678.655	0.0154630
678.733	0.0153631
678.811	0.0154705
678.889	0.0155221
678.967	0.0154417
679.045	0.0154379
679.123	0.0154404
679.201	0.0155238
679.280	0.0154926
679.358	0.0154833
679.436	0.0152871
679.514	0.0153658
679.592	0.0153788
679.670	0.0153090
679.748	0.0153841
679.826	0.0154487
679.905	0.0154189
679.983	0.0155744
680.061	0.0153722
680.139	0.0153729
680.217	0.0153493
680.295	0.0153931
680.373	0.0153872
680.451	0.0152491
680.530	0.0152735
680.608	0.0153367
680.686	0.0153929
680.764	0.0153506
680.842	0.0152755
680.920	0.0153711
680.998	0.0152451
681.076	0.0152007
681.155	0.0152654
681.233	0.0153049
681.311	0.0152127
681.389	0.0153292
681.467	0.0152607
681.545	0.0153931
681.623	0.0152901
681.701	0.0151310
681.780	0.0152164
681.858	0.0151930
681.936	0.0151722
682.014	0.0151544
682.092	0.0153287
682.170	0.0152316
682.248	0.0153201
682.326	0.0153264
682.405	0.0152435
682.483	0.0153194
682.561	0.0152080
682.639	0.0152513
682.717	0.0154634
682.795	0.0153156
682.873	0.0152753
682.951	0.0153137
683.030	0.0152637
683.108	0.0153468
683.186	0.0153921
683.264	0.0152219
683.342	0.0152540
683.420	0.0153951
683.498	0.0153586
683.576	0.0152010
683.655	0.0152088
683.733	0.0154259
683.811	0.0154039
683.889	0.0152956
683.967	0.0154000
684.045	0.0153311
684.123	0.0152073
684.201	0.0153099
684.280	0.0152436
684.358	0.0152912
684.436	0.0154180
684.514	0.0153690
684.592	0.0152901
684.670	0.0153546
684.748	0.0154424
684.826	0.0153041
684.905	0.0151207
684.983	0.0154132
685.061	0.0153096
685.139	0.0154033
685.217	0.0153522
685.295	0.0153319
685.373	0.0153831
685.451	0.0153454
685.530	0.0154166
685.608	0.0152597
685.686	0.0152640
685.764	0.0152815
685.842	0.0153651
685.920	0.0153926
685.998	0.0153078
686.076	0.0152625
686.155	0.0152554
686.233	0.0152761
686.311	0.0153514
686.389	0.0153273
686.467	0.0152279
686.545	0.0151661
686.623	0.0154587
686.701	0.0154884
686.780	0.0151859
686.858	0.0152827
686.936	0.0152039
687.014	0.0152968
687.092	0.0153958
687.170	0.0154300
687.248	0.0154883
687.326	0.0152868
687.405	0.0152773
687.483	0.0152864
687.561	0.0154263
687.639	0.0152880
687.717	0.0152489
687.795	0.0152947
687.873	0.0152366
687.951	0.0151979
688.030	0.0153205
688.108	0.0152702
688.186	0.0152950
688.264	0.0154594
688.342	0.0153280
688.420	0.0154092
688.498	0.0153696
688.576	0.0153235
688.655	0.0154966
688.733	0.0155564
688.811	0.0154226
688.889	0.0153506
688.967	0.0153114
689.045	0.0153561
689.123	0.0152859
689.201	0.0153278
689.280	0.0153367
689.358	0.0150552
689.436	0.0151355
689.514	0.0150333
689.592	0.0152096
689.670	0.0152522
689.748	0.0152548
689.826	0.0151318
689.905	0.0153059
689.983	0.0153770
690.061	0.0155849
690.139	0.0157727
690.217	0.0159258
690.295	0.0157403
690.373	0.0159180
690.451	0.0159019
690.530	0.0160645
690.608	0.0157753
690.686	0.0157107
690.764	0.0157310
690.842	0.0154589
690.920	0.0152895
690.998	0.0151411
691.076	0.0149109
691.155	0.0148980
691.233	0.0146635
691.311	0.0146143
691.389	0.0146648
691.467	0.0147068
691.545	0.0145962
691.623	0.0145441
691.701	0.0146598
691.780	0.0147972
691.858	0.0149526
691.936	0.0150580
692.014	0.0152409
692.092	0.0154179
692.170	0.0155772
692.248	0.0156093
692.326	0.0157985
692.405	0.0159008
692.483	0.0160471
692.561	0.0158858
692.639	0.0159447
692.717	0.0158710
692.795	0.0159870
692.873	0.0160824
692.951	0.0159261
693.030	0.0156149
693.108	0.0156661
693.186	0.0155560
693.264	0.0154197
693.342	0.0152213
693.420	0.0150229
693.498	0.0150698
693.576	0.0150139
693.655	0.0148566
693.733	0.0149742
693.811	0.0148234
693.889	0.0147305
693.967	0.0149301
694.045	0.0147860
694.123	0.0147737
694.201	0.0148675
694.280	0.0148616
694.358	0.0149008
694.436	0.0149954
694.514	0.0152299
694.592	0.0152868
694.670	0.0152569
694.748	0.0153812
694.826	0.0154968
694.905	0.0154762
694.983	0.0156252
695.061	0.0156679
695.139	0.0158022
695.217	0.0157288
695.295	0.0157346
695.373	0.0158295
695.451	0.0157278
695.530	0.0155774
695.608	0.0155581
695.686	0.0155936
695.764	0.0154955
695.842	0.0153992
695.920	0.0153796
695.998	0.0152623
696.076	0.0152825
696.155	0.0153103
696.233	0.0151149
696.311	0.0151324
696.389	0.0152615
696.467	0.0154096
696.545	0.0151270
696.623	0.0152533
696.701	0.0153732
696.780	0.0154242
696.858	0.0154409
696.936	0.0154291
697.014	0.0153824
697.092	0.0155055
697.170	0.0153573
697.248	0.0154183
697.326	0.0155395
697.405	0.0153717
697.483	0.0153510
697.561	0.0153240
697.639	0.0152275
697.717	0.0151709
697.795	0.0149421
697.873	0.0149177
697.951	0.0147992
698.030	0.0147896
698.108	0.0146976
698.186	0.0146572
698.264	0.0146479
698.342	0.0146303
698.420	0.0146113
698.498	0.0148521
698.576	0.0148750
698.655	0.0149427
698.733	0.0151791
698.811	0.0153384
698.889	0.0155448
698.967	0.0155855
699.045	0.0158627
699.123	0.0159760
699.201	0.0158768
699.280	0.0159634
699.358	0.0160982
699.436	0.0159759
699.514	0.0160844
699.592	0.0159535
699.670	0.0158118
699.748	0.0156509
699.826	0.0156744
699.905	0.0156543
699.983	0.0154827
700.061	0.0154610
700.139	0.0153803
700.217	0.0153534
700.295	0.0150954
700.373	0.0149980
700.451	0.0148916
700.530	0.0147289
700.608	0.0147242
700.686	0.0147729
700.764	0.0147900
700.842	0.0149826
700.920	0.0148784
700.998	0.0149554
701.076	0.0150831
701.155	0.0151301
701.233	0.0152615
701.311	0.0154076
701.389	0.0154730
701.467	0.0155058
701.545	0.0156487
701.623	0.0157465
701.701	0.0156181
701.780	0.0155919
701.858	0.0155546
701.936	0.0156323
702.014	0.0154328
702.092	0.0153949
702.170	0.0153901
702.248	0.0154650
702.326	0.0152240
702.405	0.0151601
702.483	0.0151633
702.561	0.0151270
702.639	0.0150722
702.717	0.0151422
702.795	0.0150163
702.873	0.0151930
702.951	0.0154829
703.030	0.0152959
703.108	0.0154828
703.186	0.0157184
703.264	0.0157007
703.342	0.0158208
703.420	0.0158681
703.498	0.0156760
703.576	0.0156739
703.655	0.0158818
703.733	0.0157936
703.811	0.0155678
703.889	0.0155750
703.967	0.0154379
704.045	0.0154684
704.123	0.0153869
704.201	0.0152781
704.280	0.0152181
704.358	0.0151769
704.436	0.0150629
704.514	0.0149979
704.592	0.0150484
704.670	0.0151130
704.748	0.0149200
704.826	0.0151890
704.905	0.0151192
704.983	0.0151379
705.061	0.0151971
705.139	0.0153497
705.217	0.0153880
705.295	0.0155112
705.373	0.0156407
705.451	0.0156219
705.530	0.0157672
705.608	0.0159631
705.686	0.0158762
705.764	0.0159655
705.842	0.0159959
705.920	0.0159724
705.998	0.0159525
706.076	0.0158875
706.155	0.0156503
706.233	0.0154306
706.311	0.0153882
706.389	0.0152774
706.467	0.0151121
706.545	0.0149155
706.623	0.0148956
706.701	0.0149120
706.780	0.0149368
706.858	0.0147874
706.936	0.0149537
707.014	0.0150607
707.092	0.0150776
707.170	0.0151077
707.248	0.0152356
707.326	0.0153294
707.405	0.0153728
707.483	0.0153416
707.561	0.0153645
707.639	0.0154295
707.717	0.0153930
707.795	0.0152917
707.873	0.0152293
707.951	0.0151955
708.030	0.0151698
708.108	0.0151888
708.186	0.0151611
708.264	0.0152563
708.342	0.0152478
708.420	0.0150894
708.498	0.0151416
708.576	0.0149697
708.655	0.0150452
708.733	0.0150581
708.811	0.0150944
708.889	0.0152631
708.967	0.0152107
709.045	0.0152548
709.123	0.0152394
709.201	0.0154707
709.280	0.0157919
709.358	0.0157539
709.436	0.0158296
709.514	0.0158202
709.592	0.0160219
709.670	0.0161208
709.748	0.0159987
709.826	0.0159106
709.905	0.0159718
709.983	0.0158187
710.061	0.0157044
710.139	0.0155044
710.217	0.0153419
710.295	0.0151505
710.373	0.0150079
710.451	0.0148762
710.530	0.0149909
710.608	0.0148897
710.686	0.0146922
710.764	0.0148260
710.842	0.0147495
710.920	0.0148607
710.998	0.0150392
711.076	0.0150603
711.155	0.0151694
711.233	0.0154034
711.311	0.0156335
711.389	0.0158102
711.467	0.0160430
711.545	0.0161385
711.623	0.0161961
711.701	0.0162181
711.780	0.0162709
711.858	0.0161430
711.936	0.0163315
712.014	0.0161115
712.092	0.0159718
712.170	0.0158292
712.248	0.0156866
712.326	0.0155704
712.405	0.0152631
712.483	0.0152277
712.561	0.0150989
712.639	0.0149724
712.717	0.0149413
712.795	0.0149928
712.873	0.0150296
712.951	0.0149240
713.030	0.0150397
713.108	0.0151466
713.186	0.0152824
713.264	0.0151665
713.342	0.0150247
713.420	0.0152467
713.498	0.0152694
713.576	0.0150600
713.655	0.0151080
713.733	0.0151247
713.811	0.0150344
713.889	0.0150748
713.967	0.0151124
714.045	0.0153078
714.123	0.0153137
714.201	0.0154383
714.280	0.0153836
714.358	0.0155522
714.436	0.0155782
714.514	0.0154564
714.592	0.0156818
714.670	0.0156171
714.748	0.0156540
714.826	0.0156737
714.905	0.0155862
714.983	0.0155569
715.061	0.0153135
715.139	0.0152885
715.217	0.0152013
715.295	0.0150477
715.373	0.0150146
715.451	0.0149450
715.530	0.0149796
715.608	0.0149500
715.686	0.0147733
715.764	0.0146644
715.842	0.0149184
715.920	0.0150214
715.998	0.0151545
716.076	0.0152704
716.155	0.0151373
716.233	0.0153132
716.311	0.0156068
716.389	0.0157376
716.467	0.0154980
716.545	0.0157314
716.623	0.0156470
716.701	0.0156019
716.780	0.0157189
716.858	0.0154550
716.936	0.0154207
717.014	0.0155328
717.092	0.0154144
717.170	0.0153319
717.248	0.0153658
717.326	0.0152918
717.405	0.0152523
717.483	0.0152863
717.561	0.0153342
717.639	0.0152676
717.717	0.0152171
717.795	0.0151020
717.873	0.0149963
717.951	0.0150202
718.030	0.0151203
718.108	0.0151645
718.186	0.0151142
718.264	0.0150530
718.342	0.0152941
718.420	0.0153709
718.498	0.0153832
718.576	0.0156312
718.655	0.0156407
718.733	0.0156266
718.811	0.0155545
718.889	0.0156647
718.967	0.0157099
719.045	0.0155884
719.123	0.0154742
719.201	0.0155507
719.280	0.0153906
719.358	0.0154530
719.436	0.0152401
719.514	0.0153941
719.592	0.0153316
719.670	0.0153641
719.748	0.0154385
719.826	0.0154444
719.905	0.0155892
719.983	0.0155987
720.061	0.0154802
720.139	0.0156359
720.217	0.0155135
720.295	0.0155115
720.373	0.0155782
720.451	0.0155571
720.530	0.0156155
720.608	0.0156450
720.686	0.0156615
720.764	0.0155096
720.842	0.0154704
720.920	0.0153812
720.998	0.0152597
721.076	0.0153236
721.155	0.0152221
721.233	0.0152120
721.311	0.0150624
721.389	0.0150230
721.467	0.0150532
721.545	0.0150155
721.623	0.0150402
721.701	0.0150359
721.780	0.0149740
721.858	0.0149738
721.936	0.0149651
722.014	0.0148894
722.092	0.0150628
722.170	0.0151210
722.248	0.0152422
722.326	0.0152176
722.405	0.0152922
722.483	0.0153127
722.561	0.0153921
722.639	0.0153688
722.717	0.0154918
722.795	0.0154528
722.873	0.0155519
722.951	0.0153790
723.030	0.0154153
723.108	0.0153277
723.186	0.0154704
723.264	0.0152102
723.342	0.0152248
723.420	0.0151290
723.498	0.0149861
723.576	0.0149108
723.655	0.0147846
723.733	0.0147440
723.811	0.0148669
723.889	0.0148256
723.967	0.0147250
724.045	0.0147467
724.123	0.0149444
724.201	0.0150626
724.280	0.0150035
724.358	0.0151867
724.436	0.0152898
724.514	0.0155495
724.592	0.0157549
724.670	0.0158561
724.748	0.0156826
724.826	0.0159035
724.905	0.0159897
724.983	0.0158160
725.061	0.0159139
725.139	0.0158414
725.217	0.0156815
725.295	0.0154637
725.373	0.0155579
725.451	0.0153329
725.530	0.0154398
725.608	0.0152614
725.686	0.0152026
725.764	0.0150110
725.842	0.0149846
725.920	0.0152106
725.998	0.0152747
726.076	0.0152802
726.155	0.0153099
726.233	0.0154001
726.311	0.0154491
726.389	0.0153363
726.467	0.0154916
726.545	0.0154646
726.623	0.0156030
726.701	0.0156415
726.780	0.0155716
726.858	0.0155460
726.936	0.0155312
727.014	0.0155078
727.092	0.0155141
727.170	0.0153819
727.248	0.0155005
727.326	0.0152335
727.405	0.0151677
727.483	0.0152008
727.561	0.0152065
727.639	0.0151895
727.717	0.0151087
727.795	0.0150626
727.873	0.0150481
727.951	0.0152024
728.030	0.0151012
728.108	0.0150748
728.186	0.0152027
728.264	0.0151940
728.342	0.0152803
728.420	0.0152396
728.498	0.0153819
728.576	0.0154120
728.655	0.0154292
728.733	0.0153754
728.811	0.0153539
728.889	0.0153308
728.967	0.0153948
729.045	0.0154386
729.123	0.0153320
729.201	0.0152641
729.280	0.0150546
729.358	0.0151888
729.436	0.0150994
729.514	0.0152245
729.592	0.0150821
729.670	0.0149879
729.748	0.0150673
729.826	0.0150486
729.905	0.0151323
729.983	0.0153413
730.061	0.0152014
730.139	0.0153635
730.217	0.0153606
730.295	0.0152604
730.373	0.0153096
730.451	0.0154134
730.530	0.0155737
730.608	0.0153960
730.686	0.0154040
730.764	0.0153513
730.842	0.0153755
730.920	0.0154759
730.998	0.0153579
731.076	0.0155099
731.155	0.0155232
731.233	0.0153585
731.311	0.0153062
731.389	0.0155325
731.467	0.0153716
731.545	0.0154203
731.623	0.0153841
731.701	0.0155041
731.780	0.0154648
731.858	0.0154191
731.936	0.0154827
732.014	0.0153358
732.092	0.0155350
732.170	0.0154273
732.248	0.0153540
732.326	0.0153731
732.405	0.0154365
732.483	0.0153880
732.561	0.0155112
732.639	0.0154296
732.717	0.0152325
732.795	0.0152937
732.873	0.0152895
732.951	0.0151372
733.030	0.0151011
733.108	0.0150779
733.186	0.0152709
733.264	0.0151810
733.342	0.0152314
733.420	0.0154399
733.498	0.0152619
733.576	0.0153649
733.655	0.0154855
733.733	0.0155397
733.811	0.0156021
733.889	0.0155807
733.967	0.0156040
734.045	0.0155217
734.123	0.0155614
734.201	0.0155759
734.280	0.0153905
734.358	0.0153154
734.436	0.0152136
734.514	0.0150134
734.592	0.0150612
734.670	0.0150408
734.748	0.0150136
734.826	0.0149982
734.905	0.0148117
734.983	0.0148643
735.061	0.0149313
735.139	0.0150271
735.217	0.0150984
735.295	0.0151270
735.373	0.0152647
735.451	0.0152769
735.530	0.0153223
735.608	0.0154145
735.686	0.0154948
735.764	0.0155083
735.842	0.0156250
735.920	0.0157058
735.998	0.0155573
736.076	0.0155944
736.155	0.0157187
736.233	0.0156087
736.311	0.0154974
736.389	0.0156715
736.467	0.0154088
736.545	0.0154459
736.623	0.0154668
736.701	0.0154561
736.780	0.0153369
736.858	0.0151983
736.936	0.0152237
737.014	0.0152753
737.092	0.0152072
737.170	0.0151857
737.248	0.0151221
737.326	0.0152394
737.405	0.0152333
737.483	0.0152796
737.561	0.0152544
737.639	0.0152328
737.717	0.0152602
737.795	0.0154744
737.873	0.0153711
737.951	0.0152815
738.030	0.0154184
738.108	0.0153470
738.186	0.0152738
738.264	0.0152940
738.342	0.0152888
738.420	0.0154211
738.498	0.0153983
738.576	0.0153019
738.655	0.0153117
738.733	0.0153704
738.811	0.0152868
738.889	0.0153487
738.967	0.0152156
739.045	0.0154331
739.123	0.0153260
739.201	0.0154478
739.280	0.0155226
739.358	0.0155611
739.436	0.0154334
739.514	0.0153379
739.592	0.0154153
739.670	0.0155208
739.748	0.0152812
739.826	0.0153617
739.905	0.0153030
739.983	0.0153105
740.061	0.0152450
740.139	0.0151247
740.217	0.0151160
740.295	0.0151089
740.373	0.0150381
740.451	0.0150124
740.530	0.0151673
740.608	0.0151170
740.686	0.0152747
740.764	0.0151731
740.842	0.0153290
740.920	0.0153951
740.998	0.0153937
741.076	0.0155501
741.155	0.0154957
741.233	0.0155540
741.311	0.0156541
741.389	0.0156522
741.467	0.0157127
741.545	0.0156410
741.623	0.0155946
741.701	0.0156664
741.780	0.0157124
741.858	0.0156251
741.936	0.0154897
742.014	0.0153120
742.092	0.0154351
742.170	0.0154249
742.248	0.0152789
742.326	0.0150353
742.405	0.0151320
742.483	0.0152112
742.561	0.0150411
742.639	0.0151292
742.717	0.0150558
742.795	0.0151640
742.873	0.0152055
742.951	0.0151100
743.030	0.0151510
743.108	0.0152075
743.186	0.0152751
743.264	0.0154670
743.342	0.0152959
743.420	0.0152405
743.498	0.0155641
743.576	0.0154013
743.655	0.0153805
743.733	0.0155269
743.811	0.0154604
743.889	0.0153167
743.967	0.0154414
744.045	0.0155002
744.123	0.0154099
744.201	0.0153854
744.280	0.0153181
744.358	0.0152490
744.436	0.0153685
744.514	0.0152074
744.592	0.0153503
744.670	0.0150719
744.748	0.0152056
744.826	0.0152831
744.905	0.0152736
744.983	0.0152584
745.061	0.0152521
745.139	0.0153690
745.217	0.0152460
745.295	0.0152177
745.373	0.0153194
745.451	0.0153246
745.530	0.0152284
745.608	0.0153217
745.686	0.0153598
745.764	0.0152882
745.842	0.0154504
745.920	0.0153819
745.998	0.0152769
746.076	0.0151691
746.155	0.0152730
746.233	0.0153723
746.311	0.0155182
746.389	0.0153597
746.467	0.0154781
746.545	0.0154028
746.623	0.0155324
746.701	0.0155846
746.780	0.0154942
746.858	0.0155338
746.936	0.0154959
747.014	0.0155128
747.092	0.0154198
747.170	0.0153495
747.248	0.0152808
747.326	0.0152723
747.405	0.0152490
747.483	0.0153026
747.561	0.0151827
747.639	0.0151213
747.717	0.0152064
747.795	0.0151426
747.873	0.0149070
747.951	0.0150605
748.030	0.0151053
748.108	0.0151991
748.186	0.0151013
748.264	0.0149744
748.342	0.0153193
748.420	0.0153170
748.498	0.0153900
748.576	0.0153525
748.655	0.0154237
748.733	0.0154687
748.811	0.0154894
748.889	0.0156004
748.967	0.0156617
749.045	0.0155486
749.123	0.0154713
749.201	0.0156419
749.280	0.0155990
749.358	0.0155500
749.436	0.0154360
749.514	0.0155211
749.592	0.0153632
749.670	0.0153227
749.748	0.0153088
749.826	0.0151656
749.905	0.0151182
749.983	0.0150854
750.061	0.0151413
750.139	0.0151244
750.217	0.0150514
750.295	0.0151891
750.373	0.0151614
750.451	0.0152390
750.530	0.0151493
750.608	0.0152297
750.686	0.0153860
750.764	0.0152644
750.842	0.0155070
750.920	0.0154315
750.998	0.0153701
751.076	0.0155140
751.155	0.0154686
751.233	0.0154372
751.311	0.0155024
751.389	0.0154112
751.467	0.0154507
751.545	0.0154716
751.623	0.0154902
751.701	0.0155076
751.780	0.0155938
751.858	0.0155241
751.936	0.0155647
752.014	0.0153437
752.092	0.0154491
752.170	0.0154358
752.248	0.0154131
752.326	0.0154477
752.405	0.0154164
752.483	0.0154409
752.561	0.0153561
752.639	0.0154634
752.717	0.0154874
752.795	0.0155618
752.873	0.0153374
752.951	0.0152497
753.030	0.0151855
753.108	0.0151804
753.186	0.0152743
753.264	0.0152132
753.342	0.0151859
753.420	0.0151315
753.498	0.0150509
753.576	0.0152679
753.655	0.0152962
753.733	0.0150865
753.811	0.0150780
753.889	0.0153053
753.967	0.0153294
754.045	0.0153940
754.123	0.0153912
754.201	0.0153403
754.280	0.0155910
754.358	0.0154107
754.436	0.0154778
754.514	0.0154902
754.592	0.0154040
754.670	0.0154092
754.748	0.0153845
754.826	0.0154118
754.905	0.0154272
754.983	0.0153471
755.061	0.0153115
755.139	0.0153680
755.217	0.0153523
755.295	0.0153163
755.373	0.0152560
755.451	0.0151016
755.530	0.0151986
755.608	0.0152417
755.686	0.0151781
755.764	0.0151536
755.842	0.0150785
755.920	0.0151399
755.998	0.0152305
756.076	0.0152434
756.155	0.0152747
756.233	0.0153532
756.311	0.0153307
756.389	0.0153898
756.467	0.0153931
756.545	0.0154493
756.623	0.0154464
756.701	0.0155042
756.780	0.0155041
756.858	0.0155616
756.936	0.0154773
757.014	0.0153471
757.092	0.0154063
757.170	0.0154453
757.248	0.0154697
757.326	0.0153644
757.405	0.0153996
757.483	0.0152573
757.561	0.0150980
757.639	0.0153101
757.717	0.0152860
757.795	0.0150772
757.873	0.0151518
757.951	0.0153168
758.030	0.0150577
758.108	0.0149923
758.186	0.0151225
758.264	0.0152216
758.342	0.0152731
758.420	0.0152705
758.498	0.0152946
758.576	0.0153602
758.655	0.0152996
758.733	0.0154485
758.811	0.0154942
758.889	0.0153532
758.967	0.0153770
759.045	0.0153785
759.123	0.0153474
759.201	0.0153852
759.280	0.0153468
759.358	0.0153758
759.436	0.0152874
759.514	0.0153655
759.592	0.0154050
759.670	0.0153863
759.748	0.0154214
759.826	0.0152889
759.905	0.0153488
759.983	0.0154677
760.061	0.0153424
760.139	0.0153767
760.217	0.0152740
760.295	0.0153664
760.373	0.0153217
760.451	0.0153916
760.530	0.0154005
760.608	0.0153944
760.686	0.0154585
760.764	0.0153175
760.842	0.0152689
760.920	0.0153092
760.998	0.0152257
761.076	0.0153848
761.155	0.0153561
761.233	0.0154013
761.311	0.0154515
761.389	0.0154004
761.467	0.0154767
761.545	0.0154880
761.623	0.0154572
761.701	0.0156146
761.780	0.0154539
761.858	0.0155802
761.936	0.0153625
762.014	0.0155264
762.092	0.0155907
762.170	0.0155860
762.248	0.0154823
762.326	0.0155332
762.405	0.0154593
762.483	0.0156051
762.561	0.0154713
762.639	0.0152247
762.717	0.0153754
762.795	0.0153294
762.873	0.0152224
762.951	0.0152428
763.030	0.0151795
763.108	0.0150919
763.186	0.0152235
763.264	0.0152713
763.342	0.0151220
763.420	0.0151016
763.498	0.0152020
763.576	0.0153632
763.655	0.0152293
763.733	0.0150754
763.811	0.0152560
763.889	0.0152457
763.967	0.0152869
764.045	0.0153483
764.123	0.0152681
764.201	0.0151425
764.280	0.0152161
764.358	0.0152192
764.436	0.0153710
764.514	0.0151882
764.592	0.0152431
764.670	0.0153333
764.748	0.0152043
764.826	0.0152687
764.905	0.0154817
764.983	0.0155297
765.061	0.0154530
765.139	0.0153625
765.217	0.0155342
765.295	0.0155357
765.373	0.0154971
765.451	0.0155064
765.530	0.0154841
765.608	0.0155045
765.686	0.0154850
765.764	0.0154528
765.842	0.0154331
765.920	0.0154688
765.998	0.0154041
766.076	0.0153277
766.155	0.0153149
766.233	0.0153513
766.311	0.0153652
766.389	0.0155128
766.467	0.0154568
766.545	0.0152570
766.623	0.0154945
766.701	0.0153929
766.780	0.0154482
766.858	0.0154906
766.936	0.0155383
767.014	0.0155188
767.092	0.0154250
767.170	0.0155373
767.248	0.0155819
767.326	0.0155824
767.405	0.0154913
767.483	0.0155384
767.561	0.0154696
767.639	0.0154333
767.717	0.0154130
767.795	0.0153368
767.873	0.0153093
767.951	0.0152803
768.030	0.0152751
768.108	0.0152314
768.186	0.0151983
768.264	0.0152206
768.342	0.0151993
768.420	0.0152212
768.498	0.0152195
768.576	0.0152321
768.655	0.0151324
768.733	0.0152174
768.811	0.0153061
768.889	0.0151672
768.967	0.0152634
769.045	0.0152939
769.123	0.0152488
769.201	0.0152196
769.280	0.0152677
769.358	0.0152287
769.436	0.0152355
769.514	0.0153907
769.592	0.0152940
769.670	0.0152721
769.748	0.0151856
769.826	0.0152115
769.905	0.0152745
769.983	0.0152567
770.061	0.0152772
770.139	0.0154649
770.217	0.0153886
770.295	0.0152874
770.373	0.0154323
770.451	0.0153806
770.530	0.0153184
770.608	0.0154266
770.686	0.0153992
770.764	0.0154422
770.842	0.0153551
770.920	0.0153030
770.998	0.0153134
771.076	0.0155392
771.155	0.0154078
771.233	0.0154053
771.311	0.0153631
771.389	0.0154144
771.467	0.0153000
771.545	0.0154368
771.623	0.0153232
771.701	0.0152259
771.780	0.0154503
771.858	0.0153297
771.936	0.0153815
772.014	0.0155064
772.092	0.0154529
772.170	0.0155855
772.248	0.0154568
772.326	0.0154335
772.405	0.0155121
772.483	0.0155768
772.561	0.0155439
772.639	0.0154939
772.717	0.0156087
772.795	0.0155120
772.873	0.0156196
772.951	0.0155733
773.030	0.0155186
773.108	0.0156364
773.186	0.0153379
773.264	0.0154951
773.342	0.0153949
773.420	0.0152211
773.498	0.0153754
773.576	0.0153825
773.655	0.0154179
773.733	0.0153797
773.811	0.0152788
773.889	0.0153110
773.967	0.0153145
774.045	0.0152403
774.123	0.0152835
774.201	0.0153182
774.280	0.0152750
774.358	0.0152306
774.436	0.0153819
774.514	0.0154034
774.592	0.0153497
774.670	0.0154724
774.748	0.0155318
774.826	0.0154135
774.905	0.0153241
774.983	0.0154279
775.061	0.0153641
775.139	0.0153216
775.217	0.0153993
775.295	0.0154802
775.373	0.0155885
775.451	0.0153032
775.530	0.0153656
775.608	0.0154578
775.686	0.0152787
775.764	0.0152103
775.842	0.0152583
775.920	0.0153391
775.998	0.0153619
776.076	0.0153199
776.155	0.0152082
776.233	0.0152966
776.311	0.0153308
776.389	0.0153822
776.467	0.0152573
776.545	0.0153139
776.623	0.0153503
776.701	0.0153480
776.780	0.0152605
776.858	0.0152761
776.936	0.0152029
777.014	0.0153352
777.092	0.0153203
777.170	0.0153351
777.248	0.0153717
777.326	0.0154690
777.405	0.0154130
777.483	0.0154684
777.561	0.0154206
777.639	0.0154313
777.717	0.0155186
777.795	0.0154781
777.873	0.0154492
777.951	0.0154657
778.030	0.0153937
778.108	0.0155563
778.186	0.0155843
778.264	0.0155070
778.342	0.0155122
778.420	0.0154936
778.498	0.0155071
778.576	0.0154942
778.655	0.0154295
778.733	0.0153339
778.811	0.0153681
778.889	0.0154981
778.967	0.0154018
779.045	0.0154240
779.123	0.0152468
779.201	0.0152198
779.280	0.0151917
779.358	0.0152039
779.436	0.0152373
779.514	0.0152202
779.592	0.0153682
779.670	0.0151854
779.748	0.0151830
779.826	0.0153066
779.905	0.0153775
779.983	0.0151949
780.061	0.0153455
780.139	0.0154417
780.217	0.0153871
780.295	0.0154049
780.373	0.0154298
780.451	0.0153548
780.530	0.0154074
780.608	0.0154664
780.686	0.0153638
780.764	0.0154922
780.842	0.0154989
780.920	0.0154195
780.998	0.0154005
781.076	0.0153083
781.155	0.0153768
781.233	0.0154979
781.311	0.0153845
781.389	0.0153607
781.467	0.0151691
781.545	0.0152197
781.623	0.0152980
781.701	0.0154141
781.780	0.0154300
781.858	0.0152830
781.936	0.0153624
782.014	0.0153391
782.092	0.0152589
782.170	0.0154520
782.248	0.0154484
782.326	0.0153877
782.405	0.0154900
782.483	0.0151957
782.561	0.0154807
782.639	0.0154104
782.717	0.0154198
782.795	0.0153216
782.873	0.0154182
782.951	0.0155015
783.030	0.0154637
783.108	0.0153391
783.186	0.0155021
783.264	0.0154175
783.342	0.0154279
783.420	0.0153533
783.498	0.0153506
783.576	0.0153786
783.655	0.0154917
783.733	0.0154277
783.811	0.0152960
783.889	0.0152994
783.967	0.0154890
784.045	0.0153584
784.123	0.0153801
784.201	0.0155059
784.280	0.0152676
784.358	0.0153578
784.436	0.0153786
784.514	0.0154900
784.592	0.0153791
784.670	0.0154870
784.748	0.0154370
784.826	0.0154208
784.905	0.0153401
784.983	0.0153886
785.061	0.0153986
785.139	0.0154479
785.217	0.0153695
785.295	0.0154190
785.373	0.0153310
785.451	0.0153433
785.530	0.0153654
785.608	0.0153058
785.686	0.0153001
785.764	0.0153361
785.842	0.0152287
785.920	0.0153049
785.998	0.0153026
786.076	0.0152864
786.155	0.0153453
786.233	0.0153165
786.311	0.0154914
786.389	0.0154884
786.467	0.0154440
786.545	0.0154639
786.623	0.0153873
786.701	0.0153957
786.780	0.0154850
786.858	0.0155399
786.936	0.0155801
787.014	0.0153376
787.092	0.0154630
787.170	0.0155035
787.248	0.0153609
787.326	0.0155178
787.405	0.0155196
787.483	0.0152694
787.561	0.0152639
787.639	0.0153658
787.717	0.0153366
787.795	0.0153042
787.873	0.0153051
787.951	0.0152917
788.030	0.0151837
788.108	0.0152453
788.186	0.0150627
788.264	0.0151522
788.342	0.0151131
788.420	0.0152408
788.498	0.0151128
788.576	0.0152759
788.655	0.0152122
788.733	0.0152076
788.811	0.0153692
788.889	0.0153601
788.967	0.0154750
789.045	0.0153594
789.123	0.0154189
789.201	0.0153922
789.280	0.0155974
789.358	0.0155644
789.436	0.0154088
789.514	0.0153972
789.592	0.0154693
789.670	0.0154996
789.748	0.0154504
789.826	0.0152979
789.905	0.0153381
789.983	0.0152992
790.061	0.0153772
790.139	0.0152145
790.217	0.0152251
790.295	0.0152493
790.373	0.0152128
790.451	0.0151599
790.530	0.0151036
790.608	0.0152435
790.686	0.0151492
790.764	0.0151927
790.842	0.0151518
790.920	0.0151099
790.998	0.0151788
791.076	0.0152886
791.155	0.0151857
791.233	0.0152824
791.311	0.0153082
791.389	0.0152859
791.467	0.0151385
791.545	0.0152651
791.623	0.0153327
791.701	0.0153741
791.780	0.0154694
791.858	0.0152808
791.936	0.0154186
792.014	0.0153172
792.092	0.0153645
792.170	0.0153125
792.248	0.0153283
792.326	0.0153803
792.405	0.0153514
792.483	0.0154221
792.561	0.0153642
792.639	0.0155420
792.717	0.0155393
792.795	0.0154014
792.873	0.0153703
792.951	0.0154894
793.030	0.0154190
793.108	0.0154224
793.186	0.0152826
793.264	0.0154365
793.342	0.0152857
793.420	0.0152531
793.498	0.0152466
793.576	0.0151657
793.655	0.0153756
793.733	0.0152901
793.811	0.0152763
793.889	0.0151974
793.967	0.0152486
794.045	0.0153278
794.123	0.0152728
794.201	0.0154021
794.280	0.0153894
794.358	0.0153184
794.436	0.0152308
794.514	0.0152081
794.592	0.0152909
794.670	0.0152907
794.748	0.0153796
794.826	0.0154352
794.905	0.0151752
794.983	0.0153328
795.061	0.0154481
795.139	0.0152940
795.217	0.0152864
795.295	0.0152756
795.373	0.0153313
795.451	0.0153362
795.530	0.0154324
795.608	0.0154244
795.686	0.0153536
795.764	0.0153559
795.842	0.0153342
795.920	0.0152801
795.998	0.0153298
796.076	0.0153557
796.155	0.0152519
796.233	0.0153024
796.311	0.0153901
796.389	0.0154723
796.467	0.0154188
796.545	0.0153407
796.623	0.0154611
796.701	0.0153802
796.780	0.0154602
796.858	0.0154253
796.936	0.0152872
797.014	0.0153504
797.092	0.0154150
797.170	0.0154501
797.248	0.0153787
797.326	0.0154478
797.405	0.0153559
797.483	0.0153045
797.561	0.0155040
797.639	0.0153583
797.717	0.0153006
797.795	0.0153307
797.873	0.0153284
797.951	0.0152615
798.030	0.0154384
798.108	0.0153871
798.186	0.0152525
798.264	0.0153823
798.342	0.0153065
798.420	0.0152567
798.498	0.0152859
798.576	0.0153126
798.655	0.0152650
798.733	0.0153984
798.811	0.0153586
798.889	0.0152418
798.967	0.0153231
799.045	0.0151745
799.123	0.0152240
799.201	0.0154928
799.280	0.0154464
799.358	0.0153256
799.436	0.0154983
799.514	0.0153496
799.592	0.0154375
799.670	0.0155848
799.748	0.0155734
799.826	0.0153362
799.905	0.0153471
799.983	0.0154265
800.061	0.0153974
800.139	0.0153448
800.217	0.0154347
800.295	0.0153766
800.373	0.0152725
800.451	0.0152087
800.530	0.0153157
800.608	0.0152945
800.686	0.0152991
800.764	0.0152121
800.842	0.0153354
800.920	0.0152922
800.998	0.0151680
801.076	0.0152246
801.155	0.0152372
801.233	0.0151910
801.311	0.0151619
801.389	0.0151823
801.467	0.0153080
801.545	0.0152372
801.623	0.0151883
801.701	0.0153716
801.780	0.0153123
801.858	0.0152573
801.936	0.0155949
802.014	0.0154053
802.092	0.0153108
802.170	0.0153890
802.248	0.0153296
802.326	0.0154028
802.405	0.0153813
802.483	0.0154206
802.561	0.0154572
802.639	0.0154119
802.717	0.0153751
802.795	0.0154166
802.873	0.0152677
802.951	0.0151839
803.030	0.0153131
803.108	0.0152812
803.186	0.0153639
803.264	0.0153584
803.342	0.0151611
803.420	0.0152747
803.498	0.0153838
803.576	0.0152847
803.655	0.0151324
803.733	0.0153397
803.811	0.0152365
803.889	0.0152847
803.967	0.0152715
804.045	0.0153712
804.123	0.0153536
804.201	0.0151397
804.280	0.0153162
804.358	0.0153671
804.436	0.0153279
804.514	0.0152937
804.592	0.0153022
804.670	0.0154228
804.748	0.0153086
804.826	0.0153696
804.905	0.0152795
804.983	0.0152711
805.061	0.0154298
805.139	0.0154927
805.217	0.0154988
805.295	0.0154557
805.373	0.0153571
805.451	0.0152993
805.530	0.0154170
805.608	0.0154250
805.686	0.0153897
805.764	0.0153836
805.842	0.0153485
805.920	0.0153954
805.998	0.0153229
806.076	0.0153432
806.155	0.0152796
806.233	0.0152428
806.311	0.0152802
806.389	0.0152480
806.467	0.0151942
806.545	0.0152547
806.623	0.0153345
806.701	0.0152009
806.780	0.0152013
806.858	0.0151891
806.936	0.0153630
807.014	0.0153672
807.092	0.0152535
807.170	0.0152009
807.248	0.0153699
807.326	0.0153542
807.405	0.0152491
807.483	0.0152060
807.561	0.0154082
807.639	0.0153342
807.717	0.0153444
807.795	0.0152906
807.873	0.0153178
807.951	0.0153856
808.030	0.0153786
808.108	0.0154138
808.186	0.0153735
808.264	0.0153450
808.342	0.0153238
808.420	0.0153198
808.498	0.0153915
808.576	0.0154713
808.655	0.0153802
808.733	0.0154033
808.811	0.0153740
808.889	0.0154047
808.967	0.0152930
809.045	0.0153727
809.123	0.0154152
809.201	0.0154988
809.280	0.0153426
809.358	0.0153572
809.436	0.0153218
809.514	0.0152983
809.592	0.0153624
809.670	0.0154649
809.748	0.0154108
809.826	0.0154951
809.905	0.0154042
809.983	0.0155260
810.061	0.0154894
810.139	0.0153740
810.217	0.0155341
810.295	0.0156314
810.373	0.0156905
810.451	0.0156139
810.530	0.0155058
810.608	0.0155153
810.686	0.0155032
810.764	0.0154935
810.842	0.0155453
810.920	0.0154418
810.998	0.0153698
811.076	0.0153312
811.155	0.0153392
811.233	0.0153918
811.311	0.0153665
811.389	0.0152853
811.467	0.0153838
811.545	0.0151396
811.623	0.0151934
811.701	0.0152927
811.780	0.0151853
811.858	0.0151645
811.936	0.0152451
812.014	0.0151637
812.092	0.0152287
812.170	0.0153028
812.248	0.0153419
812.326	0.0153113
812.405	0.0153827
812.483	0.0154005
812.561	0.0153498
812.639	0.0153731
812.717	0.0154025
812.795	0.0154372
812.873	0.0154287
812.951	0.0154033
813.030	0.0154733
813.108	0.0154352
813.186	0.0155087
813.264	0.0154431
813.342	0.0154366
813.420	0.0154233
813.498	0.0154668
813.576	0.0154633
813.655	0.0153452
813.733	0.0153374
813.811	0.0153063
813.889	0.0153728
813.967	0.0152681
814.045	0.0153065
814.123	0.0152859
814.201	0.0153161
814.280	0.0151579
814.358	0.0151397
814.436	0.0151409
814.514	0.0152225
814.592	0.0152529
814.670	0.0151543
814.748	0.0152391
814.826	0.0154110
814.905	0.0151899
814.983	0.0152908
815.061	0.0154290
815.139	0.0154331
815.217	0.0152876
815.295	0.0153152
815.373	0.0152712
815.451	0.0154267
815.530	0.0153143
815.608	0.0153623
815.686	0.0153562
815.764	0.0154112
815.842	0.0154089
815.920	0.0153959
815.998	0.0152468
816.076	0.0151939
816.155	0.0153393
816.233	0.0153507
816.311	0.0153197
816.389	0.0153546
816.467	0.0154709
816.545	0.0152676
816.623	0.0154086
816.701	0.0153415
816.780	0.0153436
816.858	0.0153550
816.936	0.0153664
817.014	0.0153941
817.092	0.0155791
817.170	0.0154465
817.248	0.0154519
817.326	0.0153896
817.405	0.0153452
817.483	0.0153610
817.561	0.0153442
817.639	0.0152526
817.717	0.0151257
817.795	0.0152495
817.873	0.0152608
817.951	0.0152927
818.030	0.0152367
818.108	0.0152552
818.186	0.0152325
818.264	0.0151598
818.342	0.0151791
818.420	0.0152003
818.498	0.0153340
818.576	0.0152886
818.655	0.0150952
818.733	0.0153398
818.811	0.0152193
818.889	0.0154187
818.967	0.0153371
819.045	0.0153815
819.123	0.0153178
819.201	0.0154431
819.280	0.0152188
819.358	0.0153050
819.436	0.0153710
819.514	0.0153432
819.592	0.0153016
819.670	0.0152421
819.748	0.0151948
819.826	0.0152149
819.905	0.0152702
819.983	0.0152692
820.061	0.0150685
820.139	0.0151948
820.217	0.0153403
820.295	0.0152160
820.373	0.0153279
820.451	0.0152517
820.530	0.0153448
820.608	0.0153841
820.686	0.0154214
820.764	0.0152737
820.842	0.0154530
820.920	0.0155112
820.998	0.0153478
821.076	0.0154462
821.155	0.0154840
821.233	0.0154562
821.311	0.0154340
821.389	0.0154993
821.467	0.0155917
821.545	0.0154305
821.623	0.0154487
821.701	0.0155349
821.780	0.0155051
821.858	0.0153666
821.936	0.0154259
822.014	0.0153326
822.092	0.0152488
822.170	0.0153674
822.248	0.0154369
822.326	0.0153997
822.405	0.0153532
822.483	0.0153698
822.561	0.0154624
822.639	0.0154559
822.717	0.0152039
822.795	0.0152533
822.873	0.0153008
822.951	0.0154106
823.030	0.0154076
823.108	0.0154211
823.186	0.0154389
823.264	0.0153652
823.342	0.0152433
823.420	0.0153444
823.498	0.0153310
823.576	0.0153028
823.655	0.0153558
823.733	0.0153281
823.811	0.0152427
823.889	0.0152250
823.967	0.0152903
824.045	0.0154230
824.123	0.0152995
824.201	0.0153416
824.280	0.0152248
824.358	0.0152253
824.436	0.0151123
824.514	0.0151567
824.592	0.0151671
824.670	0.0152093
824.748	0.0151521
824.826	0.0150723
824.905	0.0150672
824.983	0.0151449
825.061	0.0151924
825.139	0.0150594
825.217	0.0152522
825.295	0.0152975
825.373	0.0152097
825.451	0.0153020
825.530	0.0151270
825.608	0.0152305
825.686	0.0152015
825.764	0.0152488
825.842	0.0152460
825.920	0.0152768
825.998	0.0153706
826.076	0.0153995
826.155	0.0155317
826.233	0.0154018
826.311	0.0153874
826.389	0.0154171
826.467	0.0153987
826.545	0.0154824
826.623	0.0154516
826.701	0.0154462
826.780	0.0154758
826.858	0.0154626
826.936	0.0155653
827.014	0.0155795
827.092	0.0154640
827.170	0.0153847
827.248	0.0154015
827.326	0.0154060
827.405	0.0155121
827.483	0.0154060
827.561	0.0154282
827.639	0.0154741
827.717	0.0153848
827.795	0.0154908
827.873	0.0155573
827.951	0.0153879
828.030	0.0152226
828.108	0.0154146
828.186	0.0154539
828.264	0.0153773
828.342	0.0153799
828.420	0.0155391
828.498	0.0153940
828.576	0.0152526
828.655	0.0153128
828.733	0.0153411
828.811	0.0153084
828.889	0.0152393
828.967	0.0152968
829.045	0.0151110
829.123	0.0151111
829.201	0.0151504
829.280	0.0151493
829.358	0.0152777
829.436	0.0153273
829.514	0.0152301
829.592	0.0151686
829.670	0.0152596
829.748	0.0152213
829.826	0.0152132
829.905	0.0153206
829.983	0.0151591
830.061	0.0151769
830.139	0.0150927
830.217	0.0152988
830.295	0.0151355
830.373	0.0152844
830.451	0.0153140
830.530	0.0152148
830.608	0.0153215
830.686	0.0153286
830.764	0.0152853
830.842	0.0152757
830.920	0.0152849
830.998	0.0153961
831.076	0.0153731
831.155	0.0153230
831.233	0.0153024
831.311	0.0153611
831.389	0.0152914
831.467	0.0154000
831.545	0.0155573
831.623	0.0154292
831.701	0.0154152
831.780	0.0154524
831.858	0.0155121
831.936	0.0155021
832.014	0.0154832
832.092	0.0154852
832.170	0.0154426
832.248	0.0153609
832.326	0.0153993
832.405	0.0153496
832.483	0.0153710
832.561	0.0152411
832.639	0.0154269
832.717	0.0154651
832.795	0.0152145
832.873	0.0153702
832.951	0.0154739
833.030	0.0155514
833.108	0.0153904
833.186	0.0153339
833.264	0.0154691
833.342	0.0154217
833.420	0.0152947
833.498	0.0154403
833.576	0.0154271
833.655	0.0154443
833.733	0.0154145
833.811	0.0155220
833.889	0.0154570
833.967	0.0154893
834.045	0.0151526
834.123	0.0153051
834.201	0.0153200
834.280	0.0153377
834.358	0.0153467
834.436	0.0152372
834.514	0.0152349
834.592	0.0153408
834.670	0.0153096
834.748	0.0151398
834.826	0.0152314
834.905	0.0151871
834.983	0.0151471
835.061	0.0151271
835.139	0.0154041
835.217	0.0152135
835.295	0.0152461
835.373	0.0152832
835.451	0.0153192
835.530	0.0152646
835.608	0.0153998
835.686	0.0153745
835.764	0.0153628
835.842	0.0153981
835.920	0.0153564
835.998	0.0155169
836.076	0.0154698
836.155	0.0155311
836.233	0.0154823
836.311	0.0154798
836.389	0.0153488
836.467	0.0152753
836.545	0.0153539
836.623	0.0154192
836.701	0.0153865
836.780	0.0153916
836.858	0.0153738
836.936	0.0155023
837.014	0.0154578
837.092	0.0153600
837.170	0.0153901
837.248	0.0154913
837.326	0.0153970
837.405	0.0153979
837.483	0.0152875
837.561	0.0154127
837.639	0.0153636
837.717	0.0153658
837.795	0.0154364
837.873	0.0154276
837.951	0.0153796
838.030	0.0154226
838.108	0.0153115
838.186	0.0154732
838.264	0.0154839
838.342	0.0155334
838.420	0.0153541
838.498	0.0154333
838.576	0.0154824
838.655	0.0151731
838.733	0.0153114
838.811	0.0155075
838.889	0.0154292
838.967	0.0152318
839.045	0.0152710
839.123	0.0153972
839.201	0.0153850
839.280	0.0152443
839.358	0.0152787
839.436	0.0153403
839.514	0.0153353
839.592	0.0153924
839.670	0.0153893
839.748	0.0154107
839.826	0.0153660
839.905	0.0154385
839.983	0.0154230
840.061	0.0154426
840.139	0.0154503
840.217	0.0154972
840.295	0.0154071
840.373	0.0155704
840.451	0.0152951
840.530	0.0154125
840.608	0.0154661
840.686	0.0153898
840.764	0.0154318
840.842	0.0154041
840.920	0.0153590
840.998	0.0154421
841.076	0.0152060
841.155	0.0153367
841.233	0.0153805
841.311	0.0152841
841.389	0.0153591
841.467	0.0153381
841.545	0.0151898
841.623	0.0152942
841.701	0.0152803
841.780	0.0152731
841.858	0.0153754
841.936	0.0152097
842.014	0.0154156
842.092	0.0153260
842.170	0.0152693
842.248	0.0153432
842.326	0.0153275
842.405	0.0153097
842.483	0.0152641
842.561	0.0151918
842.639	0.0152506
842.717	0.0152760
842.795	0.0152847
842.873	0.0153346
842.951	0.0153074
843.030	0.0153259
843.108	0.0151888
843.186	0.0153066
843.264	0.0154075
843.342	0.0153326
843.420	0.0152203
843.498	0.0151701
843.576	0.0152325
843.655	0.0152958
843.733	0.0151997
843.811	0.0153856
843.889	0.0153875
843.967	0.0153121
844.045	0.0152905
844.123	0.0152211
844.201	0.0152299
844.280	0.0153736
844.358	0.0153756
844.436	0.0153550
844.514	0.0152754
844.592	0.0153506
844.670	0.0154129
844.748	0.0153581
844.826	0.0154152
844.905	0.0152670
844.983	0.0152451
845.061	0.0153899
845.139	0.0154146
845.217	0.0154037
845.295	0.0153200
845.373	0.0153817
845.451	0.0155518
845.530	0.0153763
845.608	0.0153885
845.686	0.0152663
845.764	0.0154041
845.842	0.0153945
845.920	0.0153735
845.998	0.0153665
846.076	0.0153368
846.155	0.0152934
846.233	0.0154852
846.311	0.0153577
846.389	0.0152493
846.467	0.0154679
846.545	0.0152689
846.623	0.0153423
846.701	0.0154375
846.780	0.0152853
846.858	0.0154704
846.936	0.0153582
847.014	0.0153453
847.092	0.0154231
847.170	0.0154548
847.248	0.0153951
847.326	0.0153584
847.405	0.0155964
847.483	0.0154367
847.561	0.0154348
847.639	0.0152928
847.717	0.0154209
847.795	0.0154050
847.873	0.0153321
847.951	0.0153938
848.030	0.0153103
848.108	0.0153539
848.186	0.0154662
848.264	0.0154251
848.342	0.0153641
848.420	0.0154269
848.498	0.0154213
848.576	0.0153951
848.655	0.0153822
848.733	0.0153466
848.811	0.0153453
848.889	0.0152953
848.967	0.0153708
849.045	0.0153097
849.123	0.0153059
849.201	0.0152172
849.280	0.0153447
849.358	0.0151810
849.436	0.0152455
849.514	0.0151569
849.592	0.0152563
849.670	0.0151487
849.748	0.0151852
849.826	0.0150726
849.905	0.0151920
849.983	0.0151697
850.061	0.0151615
850.139	0.0153079
850.217	0.0151755
850.295	0.0151387
850.373	0.0153189
850.451	0.0153128
850.530	0.0152921
850.608	0.0153584
850.686	0.0153147
850.764	0.0152717
850.842	0.0153072
850.920	0.0154658
850.998	0.0152750
851.076	0.0151683
851.155	0.0153974
851.233	0.0153867
851.311	0.0154314
851.389	0.0154276
851.467	0.0153889
851.545	0.0153552
851.623	0.0152914
851.701	0.0153592
851.780	0.0154694
851.858	0.0154272
851.936	0.0153325
852.014	0.0156284
852.092	0.0153767
852.170	0.0154195
852.248	0.0155564
852.326	0.0155181
852.405	0.0155600
852.483	0.0154298
852.561	0.0155077
852.639	0.0154732
852.717	0.0154375
852.795	0.0154200
852.873	0.0154225
852.951	0.0154800
853.030	0.0153779
853.108	0.0153308
853.186	0.0154652
853.264	0.0155122
853.342	0.0154782
853.420	0.0153915
853.498	0.0153482
853.576	0.0153596
853.655	0.0153228
853.733	0.0153855
853.811	0.0153699
853.889	0.0154605
853.967	0.0154984
854.045	0.0153465
854.123	0.0154353
854.201	0.0153920
854.280	0.0153846
854.358	0.0154919
854.436	0.0153919
854.514	0.0155613
854.592	0.0153755
854.670	0.0152207
854.748	0.0152909
854.826	0.0153830
854.905	0.0154278
854.983	0.0153161
855.061	0.0153414
855.139	0.0152296
855.217	0.0153515
855.295	0.0153904
855.373	0.0153156
855.451	0.0152541
855.530	0.0153043
855.608	0.0153461
855.686	0.0154150
855.764	0.0152059
855.842	0.0152494
855.920	0.0152943
855.998	0.0153755
856.076	0.0153424
856.155	0.0152883
856.233	0.0152389
856.311	0.0152920
856.389	0.0152140
856.467	0.0153472
856.545	0.0152619
856.623	0.0152357
856.701	0.0153186
856.780	0.0152804
856.858	0.0152308
856.936	0.0153023
857.014	0.0152905
857.092	0.0153397
857.170	0.0152059
857.248	0.0152771
857.326	0.0152824
857.405	0.0152776
857.483	0.0153829
857.561	0.0154559
857.639	0.0152445
857.717	0.0152838
857.795	0.0153848
857.873	0.0154462
857.951	0.0154177
858.030	0.0155090
858.108	0.0154000
858.186	0.0154634
858.264	0.0155395
858.342	0.0153878
858.420	0.0153645
858.498	0.0154890
858.576	0.0155495
858.655	0.0155944
858.733	0.0154798
858.811	0.0154436
858.889	0.0155534
858.967	0.0153746
859.045	0.0154816
859.123	0.0155372
859.201	0.0153725
859.280	0.0154174
859.358	0.0153696
859.436	0.0153462
859.514	0.0153661
859.592	0.0152998
859.670	0.0152689
859.748	0.0153334
859.826	0.0152431
859.905	0.0153472
859.983	0.0154290
860.061	0.0154025
860.139	0.0153747
860.217	0.0153596
860.295	0.0152463
860.373	0.0153786
860.451	0.0153347
860.530	0.0152471
860.608	0.0153156
860.686	0.0154304
860.764	0.0155025
860.842	0.0155428
860.920	0.0154224
860.998	0.0155177
861.076	0.0154517
861.155	0.0154463
861.233	0.0153406
861.311	0.0151950
861.389	0.0154372
861.467	0.0153791
861.545	0.0151706
861.623	0.0152579
861.701	0.0153777
861.780	0.0152668
861.858	0.0152207
861.936	0.0151976
862.014	0.0152997
862.092	0.0151223
862.170	0.0152058
862.248	0.0153021
862.326	0.0152795
862.405	0.0153473
862.483	0.0154027
862.561	0.0151566
862.639	0.0153666
862.717	0.0153268
862.795	0.0152844
862.873	0.0153319
862.951	0.0155277
863.030	0.0154021
863.108	0.0153860
863.186	0.0155592
863.264	0.0155601
863.342	0.0153745
863.420	0.0153902
863.498	0.0155039
863.576	0.0153412
863.655	0.0153863
863.733	0.0154229
863.811	0.0154865
863.889	0.0154482
863.967	0.0154680
864.045	0.0153807
864.123	0.0152612
864.201	0.0153419
864.280	0.0153606
864.358	0.0154356
864.436	0.0153615
864.514	0.0154445
864.592	0.0154063
864.670	0.0153539
864.748	0.0153089
864.826	0.0154598
864.905	0.0153760
864.983	0.0154023
865.061	0.0154179
865.139	0.0152716
865.217	0.0153354
865.295	0.0153575
865.373	0.0155306
865.451	0.0154185
865.530	0.0153529
865.608	0.0154343
865.686	0.0153063
865.764	0.0153497
865.842	0.0154256
865.920	0.0154367
865.998	0.0153270
866.076	0.0153306
866.155	0.0153174
866.233	0.0153374
866.311	0.0153526
866.389	0.0154034
866.467	0.0152718
866.545	0.0150713
866.623	0.0153461
866.701	0.0153295
866.780	0.0153335
866.858	0.0154037
866.936	0.0152538
867.014	0.0153511
867.092	0.0153286
867.170	0.0154113
867.248	0.0154384
867.326	0.0153080
867.405	0.0154967
867.483	0.0153217
867.561	0.0153978
867.639	0.0154195
867.717	0.0154316
867.795	0.0153506
867.873	0.0154563
867.951	0.0152037
868.030	0.0152722
868.108	0.0153188
868.186	0.0153732
868.264	0.0152179
868.342	0.0154702
868.420	0.0152724
868.498	0.0153192
868.576	0.0152755
868.655	0.0153295
868.733	0.0152228
868.811	0.0153764
868.889	0.0154792
868.967	0.0152668
869.045	0.0152254
869.123	0.0152164
869.201	0.0154296
869.280	0.0153214
869.358	0.0152025
869.436	0.0153583
869.514	0.0154208
869.592	0.0154008
869.670	0.0153191
869.748	0.0153925
869.826	0.0152921
869.905	0.0152830
869.983	0.0153301
870.061	0.0154318
870.139	0.0153602
870.217	0.0153632
870.295	0.0154287
870.373	0.0153838
870.451	0.0153402
870.530	0.0152746
870.608	0.0154653
870.686	0.0153529
870.764	0.0152896
870.842	0.0153084
870.920	0.0153579
870.998	0.0153192
871.076	0.0154066
871.155	0.0153812
871.233	0.0153234
871.311	0.0154026
871.389	0.0154672
871.467	0.0153397
871.545	0.0154196
871.623	0.0154661
871.701	0.0154916
871.780	0.0155047
871.858	0.0153591
871.936	0.0153689
872.014	0.0154020
872.092	0.0154365
872.170	0.0154459
872.248	0.0154697
872.326	0.0153668
872.405	0.0154076
872.483	0.0154115
872.561	0.0153436
872.639	0.0153656
872.717	0.0153392
872.795	0.0153829
872.873	0.0152834
872.951	0.0153733
873.030	0.0152309
873.108	0.0152180
873.186	0.0153433
873.264	0.0154456
873.342	0.0152424
873.420	0.0151188
873.498	0.0152909
873.576	0.0153423
873.655	0.0154019
873.733	0.0154154
873.811	0.0154143
873.889	0.0153320
873.967	0.0153220
874.045	0.0155210
874.123	0.0156064
874.201	0.0154091
874.280	0.0154715
874.358	0.0154021
874.436	0.0155215
874.514	0.0153828
874.592	0.0155112
874.670	0.0154451
874.748	0.0153864
874.826	0.0153812
874.905	0.0154260
874.983	0.0153856
875.061	0.0152795
875.139	0.0153551
875.217	0.0154205
875.295	0.0153998
875.373	0.0152873
875.451	0.0154352
875.530	0.0152838
875.608	0.0152444
875.686	0.0151850
875.764	0.0153126
875.842	0.0154499
875.920	0.0152327
875.998	0.0152815
876.076	0.0153339
876.155	0.0153916
876.233	0.0152039
876.311	0.0151165
876.389	0.0152120
876.467	0.0152850
876.545	0.0152809
876.623	0.0150829
876.701	0.0151544
876.780	0.0152569
876.858	0.0152457
876.936	0.0152477
877.014	0.0152171
877.092	0.0153225
877.170	0.0154230
877.248	0.0152134
877.326	0.0153353
877.405	0.0154764
877.483	0.0154964
877.561	0.0152426
877.639	0.0152634
877.717	0.0152428
877.795	0.0153925
877.873	0.0151811
877.951	0.0153593
878.030	0.0153001
878.108	0.0153424
878.186	0.0154102
878.264	0.0153290
878.342	0.0153327
878.420	0.0152872
878.498	0.0154786
878.576	0.0153142
878.655	0.0152570
878.733	0.0154008
878.811	0.0154566
878.889	0.0153849
878.967	0.0154555
879.045	0.0154214
879.123	0.0152394
879.201	0.0152768
879.280	0.0153190
879.358	0.0154354
879.436	0.0153708
879.514	0.0154026
879.592	0.0152976
879.670	0.0152965
879.748	0.0152074
879.826	0.0153165
879.905	0.0153934
879.983	0.0152417
880.061	0.0153248
880.139	0.0153355
880.217	0.0152116
880.295	0.0153747
880.373	0.0153172
880.451	0.0152653
880.530	0.0153646
880.608	0.0153235
880.686	0.0153358
880.764	0.0152270
880.842	0.0153769
880.920	0.0154406
880.998	0.0153632
881.076	0.0153853
881.155	0.0153405
881.233	0.0154823
881.311	0.0153839
881.389	0.0154515
881.467	0.0153436
881.545	0.0153347
881.623	0.0154154
881.701	0.0154871
881.780	0.0155518
881.858	0.0153693
881.936	0.0154104
882.014	0.0154137
882.092	0.0153432
882.170	0.0154437
882.248	0.0153229
882.326	0.0152782
882.405	0.0152148
882.483	0.0153626
882.561	0.0152466
882.639	0.0153107
882.717	0.0151616
882.795	0.0151529
882.873	0.0152861
882.951	0.0152868
883.030	0.0150940
883.108	0.0150458
883.186	0.0151171
883.264	0.0153434
883.342	0.0151938
883.420	0.0154066
883.498	0.0151818
883.576	0.0152237
883.655	0.0154744
883.733	0.0152813
883.811	0.0152917
883.889	0.0153100
883.967	0.0154094
884.045	0.0153208
884.123	0.0153997
884.201	0.0153401
884.280	0.0152991
884.358	0.0153423
884.436	0.0154057
884.514	0.0152345
884.592	0.0152195
884.670	0.0152750
884.748	0.0153327
884.826	0.0152128
884.905	0.0151337
884.983	0.0152228
885.061	0.0152737
885.139	0.0150583
885.217	0.0152558
885.295	0.0152393
885.373	0.0151723
885.451	0.0152245
885.530	0.0152969
885.608	0.0152165
885.686	0.0154236
885.764	0.0153036
885.842	0.0153576
885.920	0.0154359
885.998	0.0154161
886.076	0.0152778
886.155	0.0154037
886.233	0.0154638
886.311	0.0153034
886.389	0.0153294
886.467	0.0153672
886.545	0.0153047
886.623	0.0153979
886.701	0.0151855
886.780	0.0153303
886.858	0.0152568
886.936	0.0152763
887.014	0.0151736
887.092	0.0151632
887.170	0.0152795
887.248	0.0152495
887.326	0.0153138
887.405	0.0153386
887.483	0.0152454
887.561	0.0151765
887.639	0.0152501
887.717	0.0151837
887.795	0.0152306
887.873	0.0153090
887.951	0.0152220
888.030	0.0152491
888.108	0.0152843
888.186	0.0152012
888.264	0.0152036
888.342	0.0153625
888.420	0.0152337
888.498	0.0152245
888.576	0.0151902
888.655	0.0152209
888.733	0.0153280
888.811	0.0153234
888.889	0.0153676
888.967	0.0152411
889.045	0.0152885
889.123	0.0152065
889.201	0.0152562
889.280	0.0153362
889.358	0.0153368
889.436	0.0152542
889.514	0.0153720
889.592	0.0151170
889.670	0.0152882
889.748	0.0152445
889.826	0.0154203
889.905	0.0155148
889.983	0.0151973
890.061	0.0153057
890.139	0.0152816
890.217	0.0153143
890.295	0.0152745
890.373	0.0154019
890.451	0.0154996
890.530	0.0153165
890.608	0.0153668
890.686	0.0155058
890.764	0.0154115
890.842	0.0155651
890.920	0.0154376
890.998	0.0152865
891.076	0.0154311
891.155	0.0154459
891.233	0.0152915
891.311	0.0153229
891.389	0.0152853
891.467	0.0153180
891.545	0.0152736
891.623	0.0151752
891.701	0.0151656
891.780	0.0153801
891.858	0.0152731
891.936	0.0151061
892.014	0.0151154
892.092	0.0152460
892.170	0.0152240
892.248	0.0150924
892.326	0.0150692
892.405	0.0151685
892.483	0.0151852
892.561	0.0152394
892.639	0.0151620
892.717	0.0151880
892.795	0.0151932
892.873	0.0152392
892.951	0.0154027
893.030	0.0153566
893.108	0.0154325
893.186	0.0153889
893.264	0.0153040
893.342	0.0153319
893.420	0.0154659
893.498	0.0153828
893.576	0.0153905
893.655	0.0154205
893.733	0.0152050
893.811	0.0153108
893.889	0.0153885
893.967	0.0154497
894.045	0.0151897
894.123	0.0152661
894.201	0.0151378
894.280	0.0152375
894.358	0.0152442
894.436	0.0153051
894.514	0.0152650
894.592	0.0151814
894.670	0.0152187
894.748	0.0152908
894.826	0.0152254
894.905	0.0151579
894.983	0.0152636
895.061	0.0151219
895.139	0.0151502
895.217	0.0151985
895.295	0.0152744
895.373	0.0152547
895.451	0.0153169
895.530	0.0152628
895.608	0.0153638
895.686	0.0153185
895.764	0.0153547
895.842	0.0153538
895.920	0.0152301
895.998	0.0153471
896.076	0.0153432
896.155	0.0153477
896.233	0.0153830
896.311	0.0152599
896.389	0.0153204
896.467	0.0154138
896.545	0.0153556
896.623	0.0154216
896.701	0.0154148
896.780	0.0151952
896.858	0.0154202
896.936	0.0154359
897.014	0.0153264
897.092	0.0153800
897.170	0.0153487
897.248	0.0154470
897.326	0.0153437
897.405	0.0153783
897.483	0.0154198
897.561	0.0154652
897.639	0.0153991
897.717	0.0153339
897.795	0.0154112
897.873	0.0152730
897.951	0.0154063
898.030	0.0152902
898.108	0.0152301
898.186	0.0151927
898.264	0.0152554
898.342	0.0151971
898.420	0.0153183
898.498	0.0152758
898.576	0.0153127
898.655	0.0152648
898.733	0.0152998
898.811	0.0153850
898.889	0.0153270
898.967	0.0152415
899.045	0.0153362
899.123	0.0153378
899.201	0.0153623
899.280	0.0153227
899.358	0.0153349
899.436	0.0153149
899.514	0.0152893
899.592	0.0152380
899.670	0.0153508
899.748	0.0153703
899.826	0.0152948
899.905	0.0152863
899.983	0.0152605
900.061	0.0152342
900.139	0.0153384
900.217	0.0154388
900.295	0.0152373
900.373	0.0151946
900.451	0.0152670
900.530	0.0153411
900.608	0.0153355
900.686	0.0153145
900.764	0.0153877
900.842	0.0151650
900.920	0.0153951
900.998	0.0153558
901.076	0.0152642
901.155	0.0153559
901.233	0.0152901
901.311	0.0152049
901.389	0.0153387
901.467	0.0152756
901.545	0.0150027
901.623	0.0152266
901.701	0.0152518
901.780	0.0151421
901.858	0.0152797
901.936	0.0151081
902.014	0.0150528
902.092	0.0150600
902.170	0.0151141
902.248	0.0152992
902.326	0.0151894
902.405	0.0152020
902.483	0.0152415
902.561	0.0152136
902.639	0.0152837
902.717	0.0152496
902.795	0.0153574
902.873	0.0154064
902.951	0.0154247
903.030	0.0154974
903.108	0.0154556
903.186	0.0153620
903.264	0.0151832
903.342	0.0154018
903.420	0.0153493
903.498	0.0153475
903.576	0.0153146
903.655	0.0152183
903.733	0.0153052
903.811	0.0151960
903.889	0.0151797
903.967	0.0152259
904.045	0.0152988
904.123	0.0152263
904.201	0.0152296
904.280	0.0152281
904.358	0.0153187
904.436	0.0152133
904.514	0.0153407
904.592	0.0151793
904.670	0.0151579
904.748	0.0154283
904.826	0.0152706
904.905	0.0153865
904.983	0.0153876
905.061	0.0154257
905.139	0.0154729
905.217	0.0153225
905.295	0.0153762
905.373	0.0153376
905.451	0.0153898
905.530	0.0153131
905.608	0.0153014
905.686	0.0153226
905.764	0.0153216
905.842	0.0153442
905.920	0.0153799
905.998	0.0151598
906.076	0.0151422
906.155	0.0152777
906.233	0.0151923
906.311	0.0152186
906.389	0.0152564
906.467	0.0153734
906.545	0.0152785
906.623	0.0152970
906.701	0.0152777
906.780	0.0153242
906.858	0.0153779
906.936	0.0153310
907.014	0.0153296
907.092	0.0152885
907.170	0.0153638
907.248	0.0152998
907.326	0.0153133
907.405	0.0152628
907.483	0.0153793
907.561	0.0152848
907.639	0.0153097
907.717	0.0152186
907.795	0.0152337
907.873	0.0152730
907.951	0.0151901
908.030	0.0151705
908.108	0.0152266
908.186	0.0150598
908.264	0.0151810
908.342	0.0152367
908.420	0.0151804
908.498	0.0151405
908.576	0.0151920
908.655	0.0152052
908.733	0.0151816
908.811	0.0150632
908.889	0.0152185
908.967	0.0154446
909.045	0.0153897
909.123	0.0153698
909.201	0.0154662
909.280	0.0153778
909.358	0.0153987
909.436	0.0153440
909.514	0.0154256
909.592	0.0154052
909.670	0.0153388
909.748	0.0154880
909.826	0.0154706
909.905	0.0153482
909.983	0.0154387
910.061	0.0153064
910.139	0.0152887
910.217	0.0153333
910.295	0.0152089
910.373	0.0152852
910.451	0.0153976
910.530	0.0154044
910.608	0.0153334
910.686	0.0151982
910.764	0.0151251
910.842	0.0153412
910.920	0.0151723
910.998	0.0152139
911.076	0.0152337
911.155	0.0152862
911.233	0.0154015
911.311	0.0153848
911.389	0.0153629
911.467	0.0152813
911.545	0.0153643
911.623	0.0152716
911.701	0.0154026
911.780	0.0153640
911.858	0.0153209
911.936	0.0153002
912.014	0.0152173
912.092	0.0152549
912.170	0.0151397
912.248	0.0153276
912.326	0.0152357
912.405	0.0151398
912.483	0.0153004
912.561	0.0150809
912.639	0.0151307
912.717	0.0152241
912.795	0.0151978
912.873	0.0151432
912.951	0.0152953
913.030	0.0150937
913.108	0.0152370
913.186	0.0153756
913.264	0.0153070
913.342	0.0152565
913.420	0.0154548
913.498	0.0152420
913.576	0.0153148
913.655	0.0153471
913.733	0.0153191
913.811	0.0154292
913.889	0.0152784
913.967	0.0153401
914.045	0.0154436
914.123	0.0154217
914.201	0.0152948
914.280	0.0153473
914.358	0.0153799
914.436	0.0153158
914.514	0.0153694
914.592	0.0151486
914.670	0.0151645
914.748	0.0152489
914.826	0.0151811
914.905	0.0152388
914.983	0.0154286
915.061	0.0152271
915.139	0.0153109
915.217	0.0154297
915.295	0.0152259
915.373	0.0153168
915.451	0.0152749
915.530	0.0153801
915.608	0.0152451
915.686	0.0153423
915.764	0.0153891
915.842	0.0153397
915.920	0.0153149
915.998	0.0153241
916.076	0.0153671
916.155	0.0152947
916.233	0.0154392
916.311	0.0154485
916.389	0.0154813
916.467	0.0152650
916.545	0.0152937
916.623	0.0153690
916.701	0.0155148
916.780	0.0153913
916.858	0.0152676
916.936	0.0152797
917.014	0.0154019
917.092	0.0154976
917.170	0.0153761
917.248	0.0153368
917.326	0.0154305
917.405	0.0153659
917.483	0.0152215
917.561	0.0152534
917.639	0.0153738
917.717	0.0153511
917.795	0.0153036
917.873	0.0152015
917.951	0.0152892
918.030	0.0153748
918.108	0.0152870
918.186	0.0153465
918.264	0.0153338
918.342	0.0154012
918.420	0.0153751
918.498	0.0153321
918.576	0.0153343
918.655	0.0153413
918.733	0.0153975
918.811	0.0154056
918.889	0.0154717
918.967	0.0154893
919.045	0.0153957
919.123	0.0153354
919.201	0.0153861
919.280	0.0153812
919.358	0.0153085
919.436	0.0154649
919.514	0.0153915
919.592	0.0152786
919.670	0.0153780
919.748	0.0154684
919.826	0.0154105
919.905	0.0153645
919.983	0.0155300
920.061	0.0155038
920.139	0.0154185
920.217	0.0152672
920.295	0.0151701
920.373	0.0153342
920.451	0.0153753
920.530	0.0153542
920.608	0.0155648
920.686	0.0153035
920.764	0.0152449
920.842	0.0152805
920.920	0.0153433
920.998	0.0154162
921.076	0.0154601
921.155	0.0153775
921.233	0.0153523
921.311	0.0155409
921.389	0.0155853
921.467	0.0153975
921.545	0.0153391
921.623	0.0154805
921.701	0.0154772
921.780	0.0154735
921.858	0.0154316
921.936	0.0154636
922.014	0.0154285
922.092	0.0155034
922.170	0.0155476
922.248	0.0154402
922.326	0.0154682
922.405	0.0153194
922.483	0.0152505
922.561	0.0154183
922.639	0.0154076
922.717	0.0154618
922.795	0.0153304
922.873	0.0152965
922.951	0.0154370
923.030	0.0154229
923.108	0.0153118
923.186	0.0154108
923.264	0.0153083
923.342	0.0153907
923.420	0.0153851
923.498	0.0153434
923.576	0.0153546
923.655	0.0153754
923.733	0.0153864
923.811	0.0154191
923.889	0.0153701
923.967	0.0153872
924.045	0.0155189
924.123	0.0153382
924.201	0.0153366
924.280	0.0153248
924.358	0.0154648
924.436	0.0153469
924.514	0.0153270
924.592	0.0153545
924.670	0.0153342
924.748	0.0153296
924.826	0.0154089
924.905	0.0153784
924.983	0.0153078
925.061	0.0153623
925.139	0.0153854
925.217	0.0153051
925.295	0.0153725
925.373	0.0153111
925.451	0.0153777
925.530	0.0153043
925.608	0.0152884
925.686	0.0154099
925.764	0.0153338
925.842	0.0152402
925.920	0.0153189
925.998	0.0153690
926.076	0.0153741
926.155	0.0151406
926.233	0.0152126
926.311	0.0152985
926.389	0.0152470
926.467	0.0151493
926.545	0.0153415
926.623	0.0154175
926.701	0.0152248
926.780	0.0151980
926.858	0.0152328
926.936	0.0153128
927.014	0.0152419
927.092	0.0153205
927.170	0.0152248
927.248	0.0153276
927.326	0.0152463
927.405	0.0153432
927.483	0.0153052
927.561	0.0152758
927.639	0.0152872
927.717	0.0151275
927.795	0.0153622
927.873	0.0152077
927.951	0.0152729
928.030	0.0152969
928.108	0.0153616
928.186	0.0153877
928.264	0.0153796
928.342	0.0153841
928.420	0.0154491
928.498	0.0152589
928.576	0.0153417
928.655	0.0154370
928.733	0.0153379
928.811	0.0154587
928.889	0.0152703
928.967	0.0154420
929.045	0.0154220
929.123	0.0153989
929.201	0.0153268
929.280	0.0153111
929.358	0.0153811
929.436	0.0153461
929.514	0.0152870
929.592	0.0152165
929.670	0.0153016
929.748	0.0153743
929.826	0.0152563
929.905	0.0153182
929.983	0.0154173
930.061	0.0151720
930.139	0.0152050
930.217	0.0152248
930.295	0.0153079
930.373	0.0154195
930.451	0.0152560
930.530	0.0153287
930.608	0.0153888
930.686	0.0154079
930.764	0.0153658
930.842	0.0153145
930.920	0.0153497
930.998	0.0153094
931.076	0.0153205
931.155	0.0153167
931.233	0.0152792
931.311	0.0153995
931.389	0.0153378
931.467	0.0152675
931.545	0.0151806
931.623	0.0155265
931.701	0.0154395
931.780	0.0153253
931.858	0.0153835
931.936	0.0154233
932.014	0.0153918
932.092	0.0155389
932.170	0.0154707
932.248	0.0153628
932.326	0.0154235
932.405	0.0152484
932.483	0.0153318
932.561	0.0154459
932.639	0.0154897
932.717	0.0153423
932.795	0.0154423
932.873	0.0153891
932.951	0.0153833
933.030	0.0154868
933.108	0.0154180
933.186	0.0153287
933.264	0.0153485
933.342	0.0153539
933.420	0.0153844
933.498	0.0154623
933.576	0.0153719
933.655	0.0153287
933.733	0.0153063
933.811	0.0153951
933.889	0.0155361
933.967	0.0154736
934.045	0.0154453
934.123	0.0153740
934.201	0.0153826
934.280	0.0153860
934.358	0.0154311
934.436	0.0153493
934.514	0.0152083
934.592	0.0152892
934.670	0.0153260
934.748	0.0153017
934.826	0.0154729
934.905	0.0152461
934.983	0.0153460
935.061	0.0152636
935.139	0.0153258
935.217	0.0153653
935.295	0.0153111
935.373	0.0154523
935.451	0.0151609
935.530	0.0152682
935.608	0.0154385
935.686	0.0153518
935.764	0.0154916
935.842	0.0155227
935.920	0.0155778
935.998	0.0154118
936.076	0.0153312
936.155	0.0153804
936.233	0.0153777
936.311	0.0154152
936.389	0.0154195
936.467	0.0153797
936.545	0.0154523
936.623	0.0153979
936.701	0.0153353
936.780	0.0154369
936.858	0.0154030
936.936	0.0153737
937.014	0.0153532
937.092	0.0154536
937.170	0.0154268
937.248	0.0153833
937.326	0.0153987
937.405	0.0153696
937.483	0.0152529
937.561	0.0153835
937.639	0.0153296
937.717	0.0153925
937.795	0.0154147
937.873	0.0153312
937.951	0.0153314
938.030	0.0153347
938.108	0.0153030
938.186	0.0152766
938.264	0.0153773
938.342	0.0154546
938.420	0.0152988
938.498	0.0153593
938.576	0.0153348
938.655	0.0153461
938.733	0.0153597
938.811	0.0154121
938.889	0.0152950
938.967	0.0152531
939.045	0.0152372
939.123	0.0152968
939.201	0.0152611
939.280	0.0152914
939.358	0.0150853
939.436	0.0152406
939.514	0.0153587
939.592	0.0153487
939.670	0.0152825
939.748	0.0151289
939.826	0.0153094
939.905	0.0153787
939.983	0.0153404
940.061	0.0153927
940.139	0.0154695
940.217	0.0154650
940.295	0.0153598
940.373	0.0153239
940.451	0.0154357
940.530	0.0154167
940.608	0.0154547
940.686	0.0153745
940.764	0.0153354
940.842	0.0154424
940.920	0.0155580
940.998	0.0155026
941.076	0.0154963
941.155	0.0154735
941.233	0.0153980
941.311	0.0153898
941.389	0.0152791
941.467	0.0154047
941.545	0.0154169
941.623	0.0152554
941.701	0.0153751
941.780	0.0153079
941.858	0.0153041
941.936	0.0153279
942.014	0.0152670
942.092	0.0153406
942.170	0.0153989
942.248	0.0153855
942.326	0.0154810
942.405	0.0153298
942.483	0.0154037
942.561	0.0153793
942.639	0.0155247
942.717	0.0154221
942.795	0.0153844
942.873	0.0155881
942.951	0.0154964
943.030	0.0154672
943.108	0.0154916
943.186	0.0153803
943.264	0.0154891
943.342	0.0155019
943.420	0.0153979
943.498	0.0155037
943.576	0.0155209
943.655	0.0155583
943.733	0.0154782
943.811	0.0154283
943.889	0.0154388
943.967	0.0153944
944.045	0.0154317
944.123	0.0153296
944.201	0.0153896
944.280	0.0153780
944.358	0.0154356
944.436	0.0153942
944.514	0.0154102
944.592	0.0153525
944.670	0.0152166
944.748	0.0154226
944.826	0.0154174
944.905	0.0153917
944.983	0.0152994
945.061	0.0154995
945.139	0.0153302
945.217	0.0152638
945.295	0.0152648
945.373	0.0154782
945.451	0.0152688
945.530	0.0153562
945.608	0.0154814
945.686	0.0154457
945.764	0.0154158
945.842	0.0152885
945.920	0.0155500
945.998	0.0155585
946.076	0.0153813
946.155	0.0153284
946.233	0.0153790
946.311	0.0153932
946.389	0.0153305
946.467	0.0152200
946.545	0.0152982
946.623	0.0153560
946.701	0.0153811
946.780	0.0153465
946.858	0.0152990
946.936	0.0153403
947.014	0.0153799
947.092	0.0154997
947.170	0.0153343
947.248	0.0153892
947.326	0.0153181
947.405	0.0154367
947.483	0.0153212
947.561	0.0154561
947.639	0.0155201
947.717	0.0155892
947.795	0.0154176
947.873	0.0154477
947.951	0.0154851
948.030	0.0154301
948.108	0.0155413
948.186	0.0154202
948.264	0.0154117
948.342	0.0153941
948.420	0.0154546
948.498	0.0153917
948.576	0.0154191
948.655	0.0153783
948.733	0.0154278
948.811	0.0155200
948.889	0.0153069
948.967	0.0153201
949.045	0.0153911
949.123	0.0154082
949.201	0.0153472
949.280	0.0154763
949.358	0.0155045
949.436	0.0154296
949.514	0.0152759
949.592	0.0154781
949.670	0.0154333
949.748	0.0153210
949.826	0.0153106
949.905	0.0154173
949.983	0.0153421
950.061	0.0154572
950.139	0.0154471
950.217	0.0153455
950.295	0.0153303
950.373	0.0154321
950.451	0.0152620
950.530	0.0152466
950.608	0.0153838
950.686	0.0154306
950.764	0.0154598
950.842	0.0152969
950.920	0.0152652
950.998	0.0152946
951.076	0.0152345
951.155	0.0154018
951.233	0.0154300
951.311	0.0152698
951.389	0.0152372
951.467	0.0153316
951.545	0.0153034
951.623	0.0153242
951.701	0.0152644
951.780	0.0152493
951.858	0.0153144
951.936	0.0153432
952.014	0.0153646
952.092	0.0152947
952.170	0.0153848
952.248	0.0153924
952.326	0.0153547
952.405	0.0152051
952.483	0.0151661
952.561	0.0154443
952.639	0.0154162
952.717	0.0153107
952.795	0.0153236
952.873	0.0153863
952.951	0.0154133
953.030	0.0153809
953.108	0.0154807
953.186	0.0153786
953.264	0.0155460
953.342	0.0154849
953.420	0.0154070
953.498	0.0154987
953.576	0.0155060
953.655	0.0154926
953.733	0.0154926
953.811	0.0154382
953.889	0.0154412
953.967	0.0154977
954.045	0.0155070
954.123	0.0153333
954.201	0.0153725
954.280	0.0154357
954.358	0.0154154
954.436	0.0153961
954.514	0.0154044
954.592	0.0154015
954.670	0.0153645
954.748	0.0153603
954.826	0.0152840
954.905	0.0153313
954.983	0.0153662
955.061	0.0154299
955.139	0.0154668
955.217	0.0154589
955.295	0.0154607
955.373	0.0153337
955.451	0.0154618
955.530	0.0155297
955.608	0.0154525
955.686	0.0152829
955.764	0.0154754
955.842	0.0154993
955.920	0.0154800
955.998	0.0154504
956.076	0.0155316
956.155	0.0153103
956.233	0.0154710
956.311	0.0155432
956.389	0.0153774
956.467	0.0153208
956.545	0.0154161
956.623	0.0154311
956.701	0.0153078
956.780	0.0152541
956.858	0.0152648
956.936	0.0152689
957.014	0.0152020
957.092	0.0152745
957.170	0.0151166
957.248	0.0152060
957.326	0.0152563
957.405	0.0152308
957.483	0.0153358
957.561	0.0153825
957.639	0.0152178
957.717	0.0151003
957.795	0.0152827
957.873	0.0153981
957.951	0.0152949
958.030	0.0153126
958.108	0.0152791
958.186	0.0155140
958.264	0.0154010
958.342	0.0151830
958.420	0.0152581
958.498	0.0153738
958.576	0.0153510
958.655	0.0154458
958.733	0.0154652
958.811	0.0154227
958.889	0.0152980
958.967	0.0153483
959.045	0.0154384
959.123	0.0154736
959.201	0.0153138
959.280	0.0154194
959.358	0.0153392
959.436	0.0153632
959.514	0.0152322
959.592	0.0152345
959.670	0.0152453
959.748	0.0154297
959.826	0.0152941
959.905	0.0154343
