05/17/2022	17:04:59	Ver.	4.1	UNKNOWN
Optical Delay	639.982744	Delta X		0.078125	Sweeps	1	Scan Rate	0/0
Coordinates	Axis 1	NaN	Axis 2	NaN	Axis 3	NaN	Axis 4	NaN	Axis 5	NaN	Axis 6	0.000000
TX Power	0.000000	RX Power	0.000000

639.983	0.0163419
640.061	0.0164236
640.139	0.0161419
640.217	0.0163125
640.295	0.0162801
640.373	0.0162347
640.451	0.0163721
640.530	0.0162257
640.608	0.0162619
640.686	0.0161648
640.764	0.0162917
640.842	0.0162682
640.920	0.0162977
640.998	0.0162275
641.076	0.0163436
641.155	0.0163188
641.233	0.0162517
641.311	0.0163504
641.389	0.0164894
641.467	0.0164747
641.545	0.0164161
641.623	0.0164119
641.701	0.0164414
641.780	0.0164500
641.858	0.0164264
641.936	0.0163258
642.014	0.0161963
642.092	0.0162175
642.170	0.0163752
642.248	0.0163339
642.326	0.0163689
642.405	0.0162641
642.483	0.0162625
642.561	0.0162438
642.639	0.0160908
642.717	0.0163699
642.795	0.0164084
642.873	0.0163190
642.951	0.0161560
643.030	0.0160554
643.108	0.0161713
643.186	0.0163615
643.264	0.0164376
643.342	0.0163192
643.420	0.0163097
643.498	0.0163329
643.576	0.0162712
643.655	0.0161823
643.733	0.0162634
643.811	0.0162442
643.889	0.0162215
643.967	0.0161810
644.045	0.0161837
644.123	0.0162161
644.201	0.0162669
644.280	0.0161935
644.358	0.0163523
644.436	0.0163844
644.514	0.0162275
644.592	0.0162185
644.670	0.0163441
644.748	0.0163264
644.826	0.0162411
644.905	0.0163358
644.983	0.0162256
645.061	0.0163464
645.139	0.0164454
645.217	0.0163605
645.295	0.0162454
645.373	0.0164304
645.451	0.0164178
645.530	0.0162238
645.608	0.0162144
645.686	0.0164065
645.764	0.0163335
645.842	0.0162937
645.920	0.0163181
645.998	0.0162138
646.076	0.0161814
646.155	0.0163827
646.233	0.0163367
646.311	0.0161135
646.389	0.0164442
646.467	0.0163898
646.545	0.0163662
646.623	0.0165057
646.701	0.0164955
646.780	0.0164087
646.858	0.0164971
646.936	0.0165558
647.014	0.0165173
647.092	0.0164605
647.170	0.0165121
647.248	0.0165727
647.326	0.0165643
647.405	0.0165307
647.483	0.0164516
647.561	0.0164536
647.639	0.0165880
647.717	0.0165567
647.795	0.0163702
647.873	0.0164216
647.951	0.0165818
648.030	0.0164726
648.108	0.0166267
648.186	0.0165709
648.264	0.0165948
648.342	0.0164775
648.420	0.0166643
648.498	0.0166274
648.576	0.0167009
648.655	0.0167658
648.733	0.0166312
648.811	0.0167363
648.889	0.0167630
648.967	0.0166914
649.045	0.0167292
649.123	0.0167516
649.201	0.0166560
649.280	0.0167622
649.358	0.0166544
649.436	0.0166894
649.514	0.0166719
649.592	0.0165958
649.670	0.0165904
649.748	0.0165778
649.826	0.0166618
649.905	0.0167663
649.983	0.0166054
650.061	0.0165928
650.139	0.0165914
650.217	0.0166200
650.295	0.0166953
650.373	0.0165225
650.451	0.0166137
650.530	0.0167256
650.608	0.0166295
650.686	0.0166675
650.764	0.0166318
650.842	0.0165952
650.920	0.0164874
650.998	0.0165450
651.076	0.0166782
651.155	0.0165192
651.233	0.0164258
651.311	0.0163831
651.389	0.0164337
651.467	0.0165111
651.545	0.0164030
651.623	0.0163824
651.701	0.0163345
651.780	0.0163825
651.858	0.0166005
651.936	0.0164730
652.014	0.0164165
652.092	0.0164221
652.170	0.0165294
652.248	0.0163892
652.326	0.0165076
652.405	0.0163470
652.483	0.0163950
652.561	0.0164365
652.639	0.0164989
652.717	0.0165401
652.795	0.0165433
652.873	0.0165711
652.951	0.0165176
653.030	0.0165433
653.108	0.0165912
653.186	0.0165138
653.264	0.0164334
653.342	0.0166328
653.420	0.0165081
653.498	0.0163914
653.576	0.0163204
653.655	0.0163657
653.733	0.0164353
653.811	0.0162508
653.889	0.0162581
653.967	0.0164005
654.045	0.0163757
654.123	0.0163155
654.201	0.0163257
654.280	0.0163991
654.358	0.0164256
654.436	0.0163894
654.514	0.0164030
654.592	0.0165041
654.670	0.0162825
654.748	0.0163432
654.826	0.0164116
654.905	0.0163428
654.983	0.0164788
655.061	0.0164457
655.139	0.0162907
655.217	0.0163519
655.295	0.0164133
655.373	0.0164014
655.451	0.0164245
655.530	0.0163206
655.608	0.0163364
655.686	0.0165546
655.764	0.0164215
655.842	0.0164478
655.920	0.0163299
655.998	0.0166070
656.076	0.0166232
656.155	0.0165764
656.233	0.0164669
656.311	0.0166519
656.389	0.0165128
656.467	0.0165285
656.545	0.0166431
656.623	0.0165060
656.701	0.0165944
656.780	0.0166235
656.858	0.0165929
656.936	0.0165137
657.014	0.0165015
657.092	0.0163681
657.170	0.0165908
657.248	0.0164110
657.326	0.0164828
657.405	0.0164508
657.483	0.0163789
657.561	0.0165035
657.639	0.0163226
657.717	0.0165186
657.795	0.0164075
657.873	0.0164793
657.951	0.0164800
658.030	0.0165293
658.108	0.0165086
658.186	0.0164670
658.264	0.0165188
658.342	0.0164982
658.420	0.0164938
658.498	0.0164156
658.576	0.0164421
658.655	0.0165803
658.733	0.0165793
658.811	0.0164380
658.889	0.0164584
658.967	0.0165625
659.045	0.0164636
659.123	0.0164346
659.201	0.0164166
659.280	0.0165072
659.358	0.0165746
659.436	0.0164632
659.514	0.0164587
659.592	0.0163679
659.670	0.0165143
659.748	0.0164172
659.826	0.0163680
659.905	0.0164352
659.983	0.0163795
660.061	0.0163971
660.139	0.0164010
660.217	0.0164182
660.295	0.0165118
660.373	0.0165020
660.451	0.0165510
660.530	0.0164326
660.608	0.0164847
660.686	0.0165980
660.764	0.0165788
660.842	0.0165849
660.920	0.0165360
660.998	0.0166558
661.076	0.0166148
661.155	0.0166093
661.233	0.0166090
661.311	0.0164246
661.389	0.0165946
661.467	0.0166766
661.545	0.0165387
661.623	0.0166779
661.701	0.0164210
661.780	0.0164766
661.858	0.0163253
661.936	0.0165213
662.014	0.0164870
662.092	0.0164094
662.170	0.0164796
662.248	0.0165089
662.326	0.0163857
662.405	0.0163737
662.483	0.0161611
662.561	0.0162886
662.639	0.0161736
662.717	0.0160939
662.795	0.0161223
662.873	0.0160281
662.951	0.0160854
663.030	0.0159846
663.108	0.0158987
663.186	0.0159576
663.264	0.0160011
663.342	0.0159637
663.420	0.0158261
663.498	0.0160034
663.576	0.0160340
663.655	0.0161507
663.733	0.0160556
663.811	0.0160876
663.889	0.0160670
663.967	0.0162103
664.045	0.0164177
664.123	0.0162744
664.201	0.0163993
664.280	0.0163441
664.358	0.0165273
664.436	0.0164861
664.514	0.0165616
664.592	0.0166746
664.670	0.0164852
664.748	0.0164848
664.826	0.0165938
664.905	0.0165146
664.983	0.0165490
665.061	0.0164767
665.139	0.0164422
665.217	0.0164845
665.295	0.0164097
665.373	0.0163933
665.451	0.0162041
665.530	0.0163470
665.608	0.0161546
665.686	0.0161839
665.764	0.0160952
665.842	0.0159533
665.920	0.0158131
665.998	0.0157439
666.076	0.0157912
666.155	0.0156843
666.233	0.0156718
666.311	0.0156258
666.389	0.0155962
666.467	0.0156525
666.545	0.0156222
666.623	0.0156650
666.701	0.0157406
666.780	0.0158297
666.858	0.0158765
666.936	0.0159395
667.014	0.0161938
667.092	0.0161137
667.170	0.0162209
667.248	0.0162819
667.326	0.0164414
667.405	0.0166312
667.483	0.0166792
667.561	0.0166464
667.639	0.0168776
667.717	0.0168894
667.795	0.0170167
667.873	0.0171634
667.951	0.0171580
668.030	0.0170558
668.108	0.0172284
668.186	0.0173964
668.264	0.0171567
668.342	0.0170068
668.420	0.0170434
668.498	0.0170360
668.576	0.0170362
668.655	0.0168964
668.733	0.0166738
668.811	0.0166929
668.889	0.0165313
668.967	0.0162513
669.045	0.0161552
669.123	0.0161404
669.201	0.0160075
669.280	0.0159904
669.358	0.0158238
669.436	0.0158119
669.514	0.0155869
669.592	0.0157246
669.670	0.0157108
669.748	0.0156120
669.826	0.0157611
669.905	0.0156446
669.983	0.0157243
670.061	0.0158289
670.139	0.0159626
670.217	0.0159934
670.295	0.0160566
670.373	0.0163700
670.451	0.0163483
670.530	0.0164979
670.608	0.0166107
670.686	0.0169323
670.764	0.0170259
670.842	0.0171705
670.920	0.0174062
670.998	0.0174480
671.076	0.0174433
671.155	0.0175235
671.233	0.0176785
671.311	0.0176869
671.389	0.0177338
671.467	0.0177418
671.545	0.0176818
671.623	0.0178392
671.701	0.0176235
671.780	0.0176191
671.858	0.0176629
671.936	0.0175137
672.014	0.0174126
672.092	0.0173521
672.170	0.0173608
672.248	0.0173137
672.326	0.0171311
672.405	0.0168533
672.483	0.0167998
672.561	0.0166584
672.639	0.0164743
672.717	0.0163270
672.795	0.0162606
672.873	0.0161344
672.951	0.0160661
673.030	0.0159441
673.108	0.0159544
673.186	0.0156979
673.264	0.0155967
673.342	0.0155296
673.420	0.0156386
673.498	0.0157014
673.576	0.0156113
673.655	0.0156679
673.733	0.0157368
673.811	0.0158955
673.889	0.0159102
673.967	0.0160084
674.045	0.0162436
674.123	0.0162679
674.201	0.0163660
674.280	0.0164036
674.358	0.0165386
674.436	0.0166820
674.514	0.0168076
674.592	0.0169445
674.670	0.0168321
674.748	0.0168740
674.826	0.0169668
674.905	0.0170292
674.983	0.0169678
675.061	0.0169347
675.139	0.0170219
675.217	0.0168486
675.295	0.0169087
675.373	0.0168863
675.451	0.0168967
675.530	0.0168030
675.608	0.0167210
675.686	0.0166207
675.764	0.0165897
675.842	0.0165108
675.920	0.0164004
675.998	0.0165342
676.076	0.0163738
676.155	0.0162604
676.233	0.0164170
676.311	0.0163083
676.389	0.0162647
676.467	0.0163491
676.545	0.0162621
676.623	0.0162502
676.701	0.0162110
676.780	0.0161838
676.858	0.0160773
676.936	0.0160616
677.014	0.0161224
677.092	0.0160155
677.170	0.0161079
677.248	0.0160473
677.326	0.0160137
677.405	0.0159666
677.483	0.0160258
677.561	0.0159241
677.639	0.0158673
677.717	0.0158445
677.795	0.0158153
677.873	0.0159083
677.951	0.0157572
678.030	0.0157529
678.108	0.0158452
678.186	0.0158094
678.264	0.0158829
678.342	0.0160364
678.420	0.0157964
678.498	0.0160237
678.576	0.0160694
678.655	0.0160761
678.733	0.0162093
678.811	0.0162883
678.889	0.0163055
678.967	0.0163371
679.045	0.0165404
679.123	0.0165765
679.201	0.0168728
679.280	0.0168446
679.358	0.0170627
679.436	0.0170613
679.514	0.0171835
679.592	0.0173498
679.670	0.0174094
679.748	0.0173338
679.826	0.0173814
679.905	0.0174575
679.983	0.0175187
680.061	0.0174498
680.139	0.0175745
680.217	0.0174386
680.295	0.0174702
680.373	0.0172822
680.451	0.0172428
680.530	0.0170773
680.608	0.0169580
680.686	0.0167396
680.764	0.0166433
680.842	0.0166201
680.920	0.0163126
680.998	0.0161770
681.076	0.0159584
681.155	0.0157131
681.233	0.0157336
681.311	0.0156794
681.389	0.0155318
681.467	0.0154752
681.545	0.0155036
681.623	0.0153526
681.701	0.0152557
681.780	0.0154211
681.858	0.0154416
681.936	0.0156552
682.014	0.0157358
682.092	0.0159055
682.170	0.0161115
682.248	0.0163031
682.326	0.0163976
682.405	0.0165099
682.483	0.0167778
682.561	0.0170419
682.639	0.0171061
682.717	0.0173829
682.795	0.0174989
682.873	0.0176579
682.951	0.0176820
683.030	0.0179284
683.108	0.0179043
683.186	0.0178828
683.264	0.0178114
683.342	0.0180116
683.420	0.0178888
683.498	0.0177220
683.576	0.0176798
683.655	0.0175512
683.733	0.0172280
683.811	0.0171586
683.889	0.0169570
683.967	0.0167850
684.045	0.0165262
684.123	0.0163068
684.201	0.0162377
684.280	0.0160172
684.358	0.0157829
684.436	0.0157963
684.514	0.0157024
684.592	0.0156228
684.670	0.0157587
684.748	0.0155754
684.826	0.0154698
684.905	0.0156636
684.983	0.0156400
685.061	0.0157339
685.139	0.0158701
685.217	0.0159834
685.295	0.0161220
685.373	0.0160542
685.451	0.0161135
685.530	0.0162665
685.608	0.0164780
685.686	0.0165218
685.764	0.0166694
685.842	0.0166750
685.920	0.0167244
685.998	0.0166811
686.076	0.0168362
686.155	0.0168832
686.233	0.0170119
686.311	0.0168889
686.389	0.0168688
686.467	0.0168981
686.545	0.0169715
686.623	0.0169424
686.701	0.0168863
686.780	0.0168282
686.858	0.0169068
686.936	0.0167464
687.014	0.0167986
687.092	0.0168245
687.170	0.0167290
687.248	0.0167287
687.326	0.0167029
687.405	0.0167252
687.483	0.0167296
687.561	0.0166064
687.639	0.0167259
687.717	0.0167626
687.795	0.0166987
687.873	0.0167339
687.951	0.0165458
688.030	0.0166171
688.108	0.0166608
688.186	0.0166328
688.264	0.0165221
688.342	0.0165643
688.420	0.0165720
688.498	0.0165329
688.576	0.0164438
688.655	0.0162707
688.733	0.0163441
688.811	0.0164153
688.889	0.0164068
688.967	0.0162364
689.045	0.0161622
689.123	0.0161796
689.201	0.0161818
689.280	0.0160939
689.358	0.0159647
689.436	0.0161335
689.514	0.0161182
689.592	0.0160499
689.670	0.0162590
689.748	0.0162737
689.826	0.0162192
689.905	0.0162157
689.983	0.0163554
690.061	0.0163708
690.139	0.0163199
690.217	0.0164434
690.295	0.0163868
690.373	0.0164709
690.451	0.0166257
690.530	0.0167130
690.608	0.0167139
690.686	0.0167213
690.764	0.0169318
690.842	0.0167463
690.920	0.0168699
690.998	0.0168820
691.076	0.0168504
691.155	0.0167626
691.233	0.0168384
691.311	0.0168965
691.389	0.0167274
691.467	0.0166296
691.545	0.0167390
691.623	0.0164971
691.701	0.0165219
691.780	0.0163090
691.858	0.0163117
691.936	0.0160934
692.014	0.0161995
692.092	0.0161263
692.170	0.0159258
692.248	0.0159254
692.326	0.0158357
692.405	0.0159139
692.483	0.0157132
692.561	0.0160108
692.639	0.0158228
692.717	0.0159411
692.795	0.0159024
692.873	0.0158485
692.951	0.0159742
693.030	0.0161458
693.108	0.0163737
693.186	0.0164409
693.264	0.0164301
693.342	0.0167207
693.420	0.0167838
693.498	0.0169740
693.576	0.0172398
693.655	0.0171719
693.733	0.0173508
693.811	0.0174650
693.889	0.0174425
693.967	0.0175431
694.045	0.0175921
694.123	0.0177305
694.201	0.0176504
694.280	0.0177216
694.358	0.0177290
694.436	0.0176315
694.514	0.0175925
694.592	0.0176068
694.670	0.0174366
694.748	0.0173860
694.826	0.0172337
694.905	0.0171722
694.983	0.0169748
695.061	0.0167635
695.139	0.0164782
695.217	0.0164346
695.295	0.0162477
695.373	0.0163071
695.451	0.0159356
695.530	0.0158845
695.608	0.0157080
695.686	0.0153831
695.764	0.0155106
695.842	0.0153078
695.920	0.0151402
695.998	0.0151775
696.076	0.0152356
696.155	0.0152129
696.233	0.0151630
696.311	0.0150384
696.389	0.0152358
696.467	0.0152783
696.545	0.0152615
696.623	0.0154475
696.701	0.0154197
696.780	0.0154825
696.858	0.0154796
696.936	0.0155052
697.014	0.0155621
697.092	0.0156010
697.170	0.0158101
697.248	0.0157957
697.326	0.0155882
697.405	0.0157258
697.483	0.0159753
697.561	0.0158018
697.639	0.0158939
697.717	0.0161091
697.795	0.0160192
697.873	0.0162457
697.951	0.0163087
698.030	0.0164835
698.108	0.0165619
698.186	0.0166698
698.264	0.0169459
698.342	0.0170059
698.420	0.0173030
698.498	0.0172688
698.576	0.0174685
698.655	0.0175261
698.733	0.0175810
698.811	0.0178014
698.889	0.0176101
698.967	0.0177498
699.045	0.0177534
699.123	0.0176361
699.201	0.0178130
699.280	0.0175997
699.358	0.0176459
699.436	0.0174322
699.514	0.0174920
699.592	0.0174530
699.670	0.0172851
699.748	0.0171646
699.826	0.0171017
699.905	0.0171103
699.983	0.0170163
700.061	0.0169527
700.139	0.0169600
700.217	0.0169357
700.295	0.0168341
700.373	0.0167272
700.451	0.0166535
700.530	0.0167884
700.608	0.0166792
700.686	0.0166461
700.764	0.0167064
700.842	0.0167632
700.920	0.0166943
700.998	0.0166224
701.076	0.0168726
701.155	0.0167878
701.233	0.0166135
701.311	0.0166966
701.389	0.0166849
701.467	0.0166950
701.545	0.0165658
701.623	0.0164083
701.701	0.0165952
701.780	0.0165849
701.858	0.0165522
701.936	0.0165056
702.014	0.0161770
702.092	0.0161505
702.170	0.0160392
702.248	0.0160046
702.326	0.0158204
702.405	0.0157964
702.483	0.0158323
702.561	0.0157417
702.639	0.0156107
702.717	0.0157308
702.795	0.0156259
702.873	0.0157201
702.951	0.0158337
703.030	0.0158220
703.108	0.0157401
703.186	0.0158714
703.264	0.0159857
703.342	0.0160578
703.420	0.0161305
703.498	0.0160635
703.576	0.0161852
703.655	0.0162150
703.733	0.0162118
703.811	0.0163642
703.889	0.0164074
703.967	0.0164804
704.045	0.0166098
704.123	0.0164494
704.201	0.0163458
704.280	0.0164807
704.358	0.0164492
704.436	0.0163905
704.514	0.0165935
704.592	0.0165042
704.670	0.0164931
704.748	0.0165742
704.826	0.0164826
704.905	0.0166338
704.983	0.0165939
705.061	0.0167043
705.139	0.0166576
705.217	0.0166863
705.295	0.0167924
705.373	0.0168277
705.451	0.0170339
705.530	0.0170792
705.608	0.0171246
705.686	0.0172925
705.764	0.0175211
705.842	0.0175448
705.920	0.0176955
705.998	0.0178104
706.076	0.0177629
706.155	0.0179084
706.233	0.0178468
706.311	0.0178231
706.389	0.0177686
706.467	0.0178420
706.545	0.0176585
706.623	0.0176755
706.701	0.0174043
706.780	0.0173056
706.858	0.0170592
706.936	0.0170611
707.014	0.0167890
707.092	0.0165812
707.170	0.0166549
707.248	0.0163139
707.326	0.0160853
707.405	0.0159613
707.483	0.0157698
707.561	0.0155308
707.639	0.0152725
707.717	0.0152325
707.795	0.0150046
707.873	0.0148346
707.951	0.0147835
708.030	0.0146957
708.108	0.0146799
708.186	0.0145411
708.264	0.0145827
708.342	0.0146676
708.420	0.0146715
708.498	0.0147868
708.576	0.0148863
708.655	0.0149728
708.733	0.0149193
708.811	0.0150688
708.889	0.0154310
708.967	0.0156088
709.045	0.0156346
709.123	0.0157345
709.201	0.0160770
709.280	0.0162031
709.358	0.0163158
709.436	0.0164286
709.514	0.0165886
709.592	0.0168462
709.670	0.0168737
709.748	0.0169096
709.826	0.0169748
709.905	0.0172691
709.983	0.0172026
710.061	0.0173747
710.139	0.0174480
710.217	0.0172758
710.295	0.0174235
710.373	0.0174902
710.451	0.0172776
710.530	0.0174545
710.608	0.0174598
710.686	0.0172979
710.764	0.0174472
710.842	0.0172421
710.920	0.0172755
710.998	0.0172700
711.076	0.0173022
711.155	0.0172882
711.233	0.0171865
711.311	0.0170951
711.389	0.0169476
711.467	0.0170151
711.545	0.0170943
711.623	0.0169117
711.701	0.0168195
711.780	0.0168104
711.858	0.0166514
711.936	0.0167648
712.014	0.0167525
712.092	0.0166129
712.170	0.0164265
712.248	0.0164939
712.326	0.0164457
712.405	0.0164429
712.483	0.0162793
712.561	0.0163025
712.639	0.0162992
712.717	0.0162389
712.795	0.0163066
712.873	0.0161320
712.951	0.0161437
713.030	0.0162088
713.108	0.0163142
713.186	0.0161689
713.264	0.0162408
713.342	0.0161630
713.420	0.0164018
713.498	0.0162852
713.576	0.0163764
713.655	0.0166084
713.733	0.0164881
713.811	0.0165452
713.889	0.0165685
713.967	0.0167088
714.045	0.0165997
714.123	0.0166824
714.201	0.0166758
714.280	0.0166286
714.358	0.0167570
714.436	0.0167628
714.514	0.0168054
714.592	0.0167691
714.670	0.0167764
714.748	0.0167012
714.826	0.0167858
714.905	0.0167223
714.983	0.0166992
715.061	0.0166326
715.139	0.0165699
715.217	0.0165639
715.295	0.0165374
715.373	0.0165060
715.451	0.0163927
715.530	0.0164141
715.608	0.0162140
715.686	0.0161627
715.764	0.0160524
715.842	0.0159257
715.920	0.0160397
715.998	0.0162243
716.076	0.0160889
716.155	0.0160262
716.233	0.0162170
716.311	0.0162011
716.389	0.0161428
716.467	0.0161424
716.545	0.0162420
716.623	0.0163499
716.701	0.0162870
716.780	0.0163319
716.858	0.0164906
716.936	0.0163838
717.014	0.0164938
717.092	0.0165997
717.170	0.0166839
717.248	0.0166099
717.326	0.0165854
717.405	0.0166092
717.483	0.0165459
717.561	0.0166956
717.639	0.0166504
717.717	0.0167138
717.795	0.0167596
717.873	0.0167683
717.951	0.0167551
718.030	0.0168655
718.108	0.0168198
718.186	0.0168395
718.264	0.0168798
718.342	0.0167168
718.420	0.0168997
718.498	0.0167112
718.576	0.0167045
718.655	0.0167820
718.733	0.0166814
718.811	0.0166016
718.889	0.0167299
718.967	0.0166476
719.045	0.0165239
719.123	0.0163400
719.201	0.0164391
719.280	0.0164555
719.358	0.0164598
719.436	0.0163540
719.514	0.0162267
719.592	0.0161874
719.670	0.0161510
719.748	0.0162143
719.826	0.0159106
719.905	0.0158663
719.983	0.0159905
720.061	0.0159516
720.139	0.0158144
720.217	0.0157870
720.295	0.0158789
720.373	0.0158613
720.451	0.0158750
720.530	0.0159058
720.608	0.0158620
720.686	0.0160209
720.764	0.0160426
720.842	0.0161516
720.920	0.0162537
720.998	0.0162309
721.076	0.0163018
721.155	0.0162902
721.233	0.0163548
721.311	0.0162835
721.389	0.0164886
721.467	0.0164645
721.545	0.0166022
721.623	0.0165495
721.701	0.0165552
721.780	0.0166530
721.858	0.0165934
721.936	0.0165623
722.014	0.0165575
722.092	0.0166772
722.170	0.0165842
722.248	0.0165709
722.326	0.0166257
722.405	0.0165807
722.483	0.0165163
722.561	0.0165108
722.639	0.0164979
722.717	0.0163585
722.795	0.0164551
722.873	0.0165998
722.951	0.0165228
723.030	0.0164328
723.108	0.0166286
723.186	0.0168219
723.264	0.0165489
723.342	0.0166599
723.420	0.0166934
723.498	0.0167159
723.576	0.0168659
723.655	0.0166923
723.733	0.0167736
723.811	0.0168485
723.889	0.0167586
723.967	0.0167003
724.045	0.0166354
724.123	0.0164392
724.201	0.0166499
724.280	0.0165271
724.358	0.0164097
724.436	0.0162190
724.514	0.0164272
724.592	0.0161965
724.670	0.0161160
724.748	0.0160549
724.826	0.0162297
724.905	0.0160896
724.983	0.0160136
725.061	0.0161073
725.139	0.0160390
725.217	0.0160423
725.295	0.0161419
725.373	0.0161588
725.451	0.0162584
725.530	0.0163350
725.608	0.0163235
725.686	0.0164298
725.764	0.0165402
725.842	0.0166220
725.920	0.0166208
725.998	0.0167060
726.076	0.0167487
726.155	0.0167484
726.233	0.0168256
726.311	0.0167625
726.389	0.0167849
726.467	0.0166370
726.545	0.0167137
726.623	0.0166918
726.701	0.0167451
726.780	0.0165990
726.858	0.0164794
726.936	0.0164246
727.014	0.0164767
727.092	0.0164703
727.170	0.0163201
727.248	0.0163170
727.326	0.0161961
727.405	0.0163541
727.483	0.0162804
727.561	0.0161590
727.639	0.0162070
727.717	0.0163360
727.795	0.0164375
727.873	0.0164469
727.951	0.0165273
728.030	0.0163542
728.108	0.0166021
728.186	0.0166741
728.264	0.0167934
728.342	0.0165718
728.420	0.0166040
728.498	0.0167173
728.576	0.0166548
728.655	0.0165903
728.733	0.0166165
728.811	0.0165807
728.889	0.0165260
728.967	0.0164883
729.045	0.0165034
729.123	0.0164446
729.201	0.0163663
729.280	0.0161606
729.358	0.0162585
729.436	0.0163364
729.514	0.0163152
729.592	0.0163565
729.670	0.0163457
729.748	0.0164803
729.826	0.0165155
729.905	0.0164973
729.983	0.0165931
730.061	0.0166950
730.139	0.0166812
730.217	0.0166083
730.295	0.0166736
730.373	0.0167280
730.451	0.0166152
730.530	0.0168214
730.608	0.0167760
730.686	0.0167190
730.764	0.0166557
730.842	0.0166144
730.920	0.0166057
730.998	0.0165047
731.076	0.0164223
731.155	0.0163434
731.233	0.0162003
731.311	0.0161932
731.389	0.0161856
731.467	0.0159560
731.545	0.0160622
731.623	0.0160644
731.701	0.0157204
731.780	0.0159713
731.858	0.0160014
731.936	0.0159123
732.014	0.0159560
732.092	0.0158736
732.170	0.0160303
732.248	0.0160272
732.326	0.0159390
732.405	0.0159935
732.483	0.0161460
732.561	0.0160956
732.639	0.0162742
732.717	0.0161849
732.795	0.0162007
732.873	0.0162381
732.951	0.0164603
733.030	0.0163833
733.108	0.0164159
733.186	0.0164807
733.264	0.0165648
733.342	0.0166740
733.420	0.0165684
733.498	0.0165339
733.576	0.0165910
733.655	0.0166447
733.733	0.0167243
733.811	0.0166955
733.889	0.0167104
733.967	0.0166977
734.045	0.0168182
734.123	0.0166692
734.201	0.0166458
734.280	0.0166692
734.358	0.0167896
734.436	0.0167695
734.514	0.0168206
734.592	0.0168166
734.670	0.0167171
734.748	0.0168165
734.826	0.0166960
734.905	0.0166153
734.983	0.0166658
735.061	0.0166032
735.139	0.0165342
735.217	0.0165233
735.295	0.0165828
735.373	0.0164925
735.451	0.0166829
735.530	0.0165914
735.608	0.0165345
735.686	0.0164497
735.764	0.0165153
735.842	0.0164659
735.920	0.0162659
735.998	0.0163251
736.076	0.0165297
736.155	0.0163802
736.233	0.0161991
736.311	0.0163206
736.389	0.0163663
736.467	0.0163567
736.545	0.0163779
736.623	0.0164505
736.701	0.0162827
736.780	0.0162907
736.858	0.0163362
736.936	0.0163573
737.014	0.0163497
737.092	0.0163413
737.170	0.0162794
737.248	0.0162917
737.326	0.0164257
737.405	0.0163425
737.483	0.0164086
737.561	0.0165048
737.639	0.0164567
737.717	0.0164447
737.795	0.0164343
737.873	0.0165000
737.951	0.0166387
738.030	0.0166994
738.108	0.0166811
738.186	0.0165370
738.264	0.0166364
738.342	0.0165763
738.420	0.0166103
738.498	0.0166372
738.576	0.0165024
738.655	0.0164571
738.733	0.0164856
738.811	0.0164909
738.889	0.0164235
738.967	0.0164013
739.045	0.0163728
739.123	0.0162322
739.201	0.0161578
739.280	0.0160215
739.358	0.0160388
739.436	0.0158953
739.514	0.0157777
739.592	0.0159019
739.670	0.0158813
739.748	0.0158499
739.826	0.0158058
739.905	0.0157938
739.983	0.0159750
740.061	0.0158887
740.139	0.0159972
740.217	0.0161180
740.295	0.0162481
740.373	0.0160965
740.451	0.0162192
740.530	0.0162583
740.608	0.0163343
740.686	0.0166199
740.764	0.0166151
740.842	0.0166306
740.920	0.0167375
740.998	0.0168073
741.076	0.0167854
741.155	0.0168247
741.233	0.0168794
741.311	0.0168729
741.389	0.0167857
741.467	0.0169374
741.545	0.0168574
741.623	0.0168007
741.701	0.0168015
741.780	0.0166835
741.858	0.0168295
741.936	0.0166359
742.014	0.0166018
742.092	0.0166329
742.170	0.0164126
742.248	0.0163264
742.326	0.0163211
742.405	0.0163418
742.483	0.0164864
742.561	0.0162891
742.639	0.0161847
742.717	0.0160912
742.795	0.0160666
742.873	0.0160484
742.951	0.0160960
743.030	0.0161328
743.108	0.0160461
743.186	0.0162755
743.264	0.0161308
743.342	0.0161609
743.420	0.0163142
743.498	0.0163393
743.576	0.0163377
743.655	0.0164423
743.733	0.0165023
743.811	0.0165437
743.889	0.0164594
743.967	0.0166435
744.045	0.0168047
744.123	0.0166283
744.201	0.0165739
744.280	0.0167327
744.358	0.0167362
744.436	0.0165610
744.514	0.0165277
744.592	0.0164924
744.670	0.0164239
744.748	0.0163330
744.826	0.0163970
744.905	0.0164250
744.983	0.0161848
745.061	0.0162930
745.139	0.0163464
745.217	0.0162178
745.295	0.0162595
745.373	0.0163418
745.451	0.0163127
745.530	0.0163873
745.608	0.0164718
745.686	0.0165473
745.764	0.0166203
745.842	0.0165562
745.920	0.0165965
745.998	0.0167636
746.076	0.0167357
746.155	0.0168446
746.233	0.0169004
746.311	0.0167493
746.389	0.0168429
746.467	0.0166308
746.545	0.0166544
746.623	0.0166936
746.701	0.0166133
746.780	0.0163611
746.858	0.0163289
746.936	0.0161576
747.014	0.0162201
747.092	0.0160270
747.170	0.0158908
747.248	0.0158882
747.326	0.0159286
747.405	0.0157919
747.483	0.0158650
747.561	0.0157993
747.639	0.0158284
747.717	0.0157584
747.795	0.0158768
747.873	0.0161198
747.951	0.0161469
748.030	0.0161140
748.108	0.0162068
748.186	0.0164236
748.264	0.0165563
748.342	0.0165940
748.420	0.0166009
748.498	0.0165961
748.576	0.0166563
748.655	0.0167308
748.733	0.0168444
748.811	0.0168301
748.889	0.0168867
748.967	0.0167092
749.045	0.0167085
749.123	0.0165598
749.201	0.0165541
749.280	0.0166148
749.358	0.0165473
749.436	0.0164529
749.514	0.0164223
749.592	0.0162805
749.670	0.0164877
749.748	0.0161166
749.826	0.0161189
749.905	0.0161179
749.983	0.0162749
750.061	0.0162945
750.139	0.0162079
750.217	0.0163342
750.295	0.0163497
750.373	0.0161814
750.451	0.0162256
750.530	0.0163747
750.608	0.0162981
750.686	0.0163210
750.764	0.0163114
750.842	0.0163678
750.920	0.0166531
750.998	0.0163972
751.076	0.0165051
751.155	0.0165822
751.233	0.0166109
751.311	0.0164534
751.389	0.0165257
751.467	0.0164864
751.545	0.0165126
751.623	0.0167002
751.701	0.0166187
751.780	0.0165972
751.858	0.0166959
751.936	0.0166776
752.014	0.0165704
752.092	0.0165474
752.170	0.0166692
752.248	0.0164191
752.326	0.0166451
752.405	0.0164476
752.483	0.0164391
752.561	0.0164744
752.639	0.0164449
752.717	0.0164651
752.795	0.0164090
752.873	0.0163525
752.951	0.0163586
753.030	0.0163185
753.108	0.0163274
753.186	0.0164273
753.264	0.0164358
753.342	0.0165171
753.420	0.0164105
753.498	0.0165443
753.576	0.0167180
753.655	0.0167237
753.733	0.0168185
753.811	0.0166985
753.889	0.0167812
753.967	0.0169024
754.045	0.0166549
754.123	0.0167033
754.201	0.0167857
754.280	0.0165636
754.358	0.0166069
754.436	0.0166589
754.514	0.0164435
754.592	0.0164584
754.670	0.0163750
754.748	0.0161859
754.826	0.0160949
754.905	0.0160106
754.983	0.0160475
755.061	0.0158794
755.139	0.0159171
755.217	0.0158825
755.295	0.0158332
755.373	0.0157491
755.451	0.0159071
755.530	0.0159046
755.608	0.0160037
755.686	0.0159375
755.764	0.0160631
755.842	0.0162259
755.920	0.0163387
755.998	0.0163243
756.076	0.0164216
756.155	0.0165199
756.233	0.0167480
756.311	0.0166991
756.389	0.0167399
756.467	0.0169096
756.545	0.0167787
756.623	0.0168926
756.701	0.0167865
756.780	0.0167951
756.858	0.0167797
756.936	0.0167096
757.014	0.0167629
757.092	0.0166071
757.170	0.0163902
757.248	0.0165172
757.326	0.0164011
757.405	0.0164263
757.483	0.0165639
757.561	0.0163879
757.639	0.0164072
757.717	0.0163425
757.795	0.0164955
757.873	0.0164920
757.951	0.0165232
758.030	0.0163768
758.108	0.0163956
758.186	0.0164667
758.264	0.0165507
758.342	0.0164866
758.420	0.0166513
758.498	0.0166776
758.576	0.0164201
758.655	0.0164909
758.733	0.0165672
758.811	0.0166177
758.889	0.0165890
758.967	0.0163721
759.045	0.0166398
759.123	0.0166140
759.201	0.0166600
759.280	0.0166973
759.358	0.0165561
759.436	0.0165546
759.514	0.0166290
759.592	0.0164805
759.670	0.0164671
759.748	0.0165228
759.826	0.0165038
759.905	0.0164046
759.983	0.0164365
760.061	0.0163494
760.139	0.0162243
760.217	0.0163440
760.295	0.0162890
760.373	0.0160978
760.451	0.0160085
760.530	0.0161481
760.608	0.0161123
760.686	0.0161235
760.764	0.0161334
760.842	0.0162002
760.920	0.0161426
760.998	0.0162109
761.076	0.0163046
761.155	0.0163867
761.233	0.0164392
761.311	0.0165953
761.389	0.0165829
761.467	0.0167919
761.545	0.0168472
761.623	0.0169247
761.701	0.0169541
761.780	0.0170478
761.858	0.0170626
761.936	0.0169978
762.014	0.0169355
762.092	0.0169619
762.170	0.0170278
762.248	0.0171561
762.326	0.0168411
762.405	0.0167402
762.483	0.0167503
762.561	0.0167610
762.639	0.0166464
762.717	0.0164841
762.795	0.0164411
762.873	0.0163058
762.951	0.0161693
763.030	0.0163186
763.108	0.0162502
763.186	0.0160610
763.264	0.0161850
763.342	0.0161424
763.420	0.0163252
763.498	0.0163555
763.576	0.0164157
763.655	0.0163709
763.733	0.0164885
763.811	0.0163805
763.889	0.0165862
763.967	0.0167091
764.045	0.0168111
764.123	0.0166764
764.201	0.0167090
764.280	0.0166450
764.358	0.0166773
764.436	0.0166971
764.514	0.0167088
764.592	0.0166000
764.670	0.0168132
764.748	0.0165321
764.826	0.0166099
764.905	0.0164275
764.983	0.0164991
765.061	0.0163347
765.139	0.0163499
765.217	0.0165244
765.295	0.0164996
765.373	0.0164061
765.451	0.0164169
765.530	0.0164494
765.608	0.0164886
765.686	0.0164488
765.764	0.0165009
765.842	0.0165675
765.920	0.0164563
765.998	0.0165444
766.076	0.0165901
766.155	0.0165022
766.233	0.0166129
766.311	0.0165349
766.389	0.0165928
766.467	0.0165366
766.545	0.0166108
766.623	0.0167113
766.701	0.0166982
766.780	0.0165064
766.858	0.0166074
766.936	0.0163766
767.014	0.0166016
767.092	0.0165321
767.170	0.0164254
767.248	0.0165148
767.326	0.0165394
767.405	0.0165683
767.483	0.0164462
767.561	0.0165292
767.639	0.0165532
767.717	0.0165302
767.795	0.0165042
767.873	0.0165750
767.951	0.0166052
768.030	0.0165452
768.108	0.0163941
768.186	0.0162837
768.264	0.0164022
768.342	0.0163535
768.420	0.0162947
768.498	0.0163349
768.576	0.0162997
768.655	0.0163245
768.733	0.0162369
768.811	0.0163123
768.889	0.0162901
768.967	0.0163988
769.045	0.0163414
769.123	0.0163164
769.201	0.0164242
769.280	0.0164424
769.358	0.0166462
769.436	0.0164747
769.514	0.0163799
769.592	0.0164442
769.670	0.0164966
769.748	0.0164613
769.826	0.0164501
769.905	0.0164540
769.983	0.0164085
770.061	0.0163933
770.139	0.0163834
770.217	0.0161847
770.295	0.0163268
770.373	0.0160452
770.451	0.0162472
770.530	0.0162310
770.608	0.0160724
770.686	0.0161560
770.764	0.0160717
770.842	0.0160332
770.920	0.0162708
770.998	0.0162666
771.076	0.0162648
771.155	0.0162636
771.233	0.0163298
771.311	0.0163821
771.389	0.0163568
771.467	0.0164693
771.545	0.0166047
771.623	0.0165884
771.701	0.0165588
771.780	0.0166185
771.858	0.0165906
771.936	0.0165511
772.014	0.0166556
772.092	0.0166537
772.170	0.0166453
772.248	0.0166813
772.326	0.0167307
772.405	0.0165488
772.483	0.0166302
772.561	0.0165794
772.639	0.0165712
772.717	0.0164925
772.795	0.0165376
772.873	0.0164823
772.951	0.0163503
773.030	0.0164460
773.108	0.0162455
773.186	0.0162853
773.264	0.0163938
773.342	0.0162828
773.420	0.0163022
773.498	0.0163371
773.576	0.0161942
773.655	0.0163879
773.733	0.0164250
773.811	0.0163382
773.889	0.0162466
773.967	0.0164263
774.045	0.0165195
774.123	0.0163260
774.201	0.0164717
774.280	0.0164819
774.358	0.0165244
774.436	0.0164275
774.514	0.0165701
774.592	0.0166126
774.670	0.0165220
774.748	0.0166410
774.826	0.0165711
774.905	0.0166534
774.983	0.0164683
775.061	0.0166089
775.139	0.0164525
775.217	0.0164788
775.295	0.0164284
775.373	0.0164817
775.451	0.0164580
775.530	0.0165056
775.608	0.0163943
775.686	0.0163194
775.764	0.0165362
775.842	0.0163123
775.920	0.0163602
775.998	0.0162603
776.076	0.0163551
776.155	0.0163432
776.233	0.0163820
776.311	0.0163790
776.389	0.0164226
776.467	0.0164039
776.545	0.0164357
776.623	0.0164140
776.701	0.0165536
776.780	0.0165076
776.858	0.0167029
776.936	0.0167886
777.014	0.0165740
777.092	0.0166520
777.170	0.0167229
777.248	0.0166596
777.326	0.0165371
777.405	0.0166378
777.483	0.0167422
777.561	0.0166515
777.639	0.0165600
777.717	0.0164911
777.795	0.0164475
777.873	0.0163927
777.951	0.0162871
778.030	0.0162827
778.108	0.0161996
778.186	0.0163485
778.264	0.0161490
778.342	0.0161480
778.420	0.0162505
778.498	0.0161212
778.576	0.0162673
778.655	0.0162890
778.733	0.0162441
778.811	0.0161711
778.889	0.0163277
778.967	0.0163885
779.045	0.0163626
779.123	0.0164335
779.201	0.0164240
779.280	0.0164862
779.358	0.0165240
779.436	0.0164633
779.514	0.0165257
779.592	0.0165353
779.670	0.0166347
779.748	0.0165932
779.826	0.0164624
779.905	0.0165649
779.983	0.0165840
780.061	0.0167490
780.139	0.0164387
780.217	0.0164484
780.295	0.0164590
780.373	0.0165722
780.451	0.0165086
780.530	0.0163307
780.608	0.0163958
780.686	0.0164747
780.764	0.0162572
780.842	0.0164219
780.920	0.0162982
780.998	0.0162890
781.076	0.0163795
781.155	0.0164237
781.233	0.0163371
781.311	0.0163349
781.389	0.0162468
781.467	0.0163130
781.545	0.0164240
781.623	0.0163390
781.701	0.0164385
781.780	0.0164178
781.858	0.0164917
781.936	0.0165639
782.014	0.0165499
782.092	0.0164237
782.170	0.0166296
782.248	0.0166573
782.326	0.0166581
782.405	0.0166766
782.483	0.0165821
782.561	0.0168145
782.639	0.0167136
782.717	0.0166519
782.795	0.0167542
782.873	0.0167194
782.951	0.0167915
783.030	0.0167940
783.108	0.0166726
783.186	0.0165971
783.264	0.0166151
783.342	0.0164489
783.420	0.0165792
783.498	0.0166422
783.576	0.0164773
783.655	0.0163620
783.733	0.0165048
783.811	0.0163238
783.889	0.0163785
783.967	0.0164944
784.045	0.0164503
784.123	0.0164180
784.201	0.0164282
784.280	0.0164934
784.358	0.0165743
784.436	0.0165495
784.514	0.0165170
784.592	0.0166358
784.670	0.0165423
784.748	0.0166776
784.826	0.0168075
784.905	0.0166115
784.983	0.0167595
785.061	0.0167171
785.139	0.0167781
785.217	0.0167680
785.295	0.0166685
785.373	0.0166260
785.451	0.0164870
785.530	0.0166758
785.608	0.0166719
785.686	0.0164698
785.764	0.0165009
785.842	0.0164196
785.920	0.0163723
785.998	0.0163694
786.076	0.0163435
786.155	0.0162128
786.233	0.0162624
786.311	0.0163765
786.389	0.0162647
786.467	0.0163197
786.545	0.0162532
786.623	0.0161747
786.701	0.0162488
786.780	0.0162975
786.858	0.0162977
786.936	0.0163997
787.014	0.0164030
787.092	0.0163865
787.170	0.0164153
787.248	0.0164192
787.326	0.0164034
787.405	0.0165427
787.483	0.0164053
787.561	0.0163010
787.639	0.0164168
787.717	0.0164282
787.795	0.0165353
787.873	0.0163634
787.951	0.0163799
788.030	0.0163909
788.108	0.0164955
788.186	0.0162183
788.264	0.0162556
788.342	0.0164231
788.420	0.0164330
788.498	0.0164371
788.576	0.0162945
788.655	0.0164299
788.733	0.0161925
788.811	0.0161909
788.889	0.0164415
788.967	0.0164278
789.045	0.0164548
789.123	0.0163626
789.201	0.0162651
789.280	0.0164275
789.358	0.0163567
789.436	0.0164230
789.514	0.0163174
789.592	0.0163297
789.670	0.0164606
789.748	0.0164238
789.826	0.0164995
789.905	0.0164153
789.983	0.0166447
790.061	0.0166837
790.139	0.0167045
790.217	0.0168191
790.295	0.0167510
790.373	0.0167627
790.451	0.0168589
790.530	0.0168985
790.608	0.0170762
790.686	0.0170374
790.764	0.0169384
790.842	0.0170278
790.920	0.0170869
790.998	0.0168822
791.076	0.0169487
791.155	0.0170384
791.233	0.0170110
791.311	0.0169546
791.389	0.0168503
791.467	0.0167471
791.545	0.0169695
791.623	0.0167381
791.701	0.0166051
791.780	0.0165084
791.858	0.0164413
791.936	0.0165234
792.014	0.0165622
792.092	0.0163639
792.170	0.0163759
792.248	0.0163923
792.326	0.0162932
792.405	0.0163924
792.483	0.0163685
792.561	0.0163265
792.639	0.0163107
792.717	0.0161962
792.795	0.0162438
792.873	0.0162920
792.951	0.0162341
793.030	0.0163020
793.108	0.0163090
793.186	0.0162930
793.264	0.0162231
793.342	0.0162676
793.420	0.0162930
793.498	0.0161743
793.576	0.0161485
793.655	0.0162057
793.733	0.0162535
793.811	0.0162386
793.889	0.0162610
793.967	0.0162917
794.045	0.0160404
794.123	0.0161288
794.201	0.0163474
794.280	0.0162268
794.358	0.0163002
794.436	0.0164392
794.514	0.0165002
794.592	0.0164460
794.670	0.0165969
794.748	0.0165424
794.826	0.0166593
794.905	0.0167924
794.983	0.0167705
795.061	0.0166331
795.139	0.0169656
795.217	0.0170269
795.295	0.0169386
795.373	0.0167912
795.451	0.0169280
795.530	0.0169544
795.608	0.0169338
795.686	0.0168935
795.764	0.0168346
795.842	0.0167613
795.920	0.0168742
795.998	0.0167777
796.076	0.0168092
796.155	0.0166836
796.233	0.0166605
796.311	0.0166747
796.389	0.0165034
796.467	0.0166061
796.545	0.0166288
796.623	0.0165636
796.701	0.0165846
796.780	0.0165898
796.858	0.0164546
796.936	0.0164718
797.014	0.0164847
797.092	0.0164263
797.170	0.0164935
797.248	0.0164485
797.326	0.0163712
797.405	0.0163777
797.483	0.0163661
797.561	0.0163453
797.639	0.0163238
797.717	0.0162908
797.795	0.0161793
797.873	0.0163097
797.951	0.0161976
798.030	0.0162701
798.108	0.0161888
798.186	0.0161352
798.264	0.0162389
798.342	0.0161803
798.420	0.0161391
798.498	0.0162954
798.576	0.0163522
798.655	0.0162698
798.733	0.0161988
798.811	0.0162270
798.889	0.0162952
798.967	0.0163030
799.045	0.0163377
799.123	0.0162255
799.201	0.0162479
799.280	0.0163098
799.358	0.0162964
799.436	0.0161812
799.514	0.0162167
799.592	0.0162041
799.670	0.0161402
799.748	0.0160812
799.826	0.0160355
799.905	0.0161309
799.983	0.0162154
800.061	0.0161684
800.139	0.0161634
800.217	0.0162256
800.295	0.0162912
800.373	0.0161823
800.451	0.0163250
800.530	0.0162173
800.608	0.0162868
800.686	0.0164056
800.764	0.0163921
800.842	0.0163551
800.920	0.0163665
800.998	0.0162110
801.076	0.0162852
801.155	0.0164118
801.233	0.0164869
801.311	0.0164801
801.389	0.0164191
801.467	0.0162760
801.545	0.0164774
801.623	0.0164176
801.701	0.0164722
801.780	0.0163803
801.858	0.0165690
801.936	0.0165220
802.014	0.0164511
802.092	0.0163914
802.170	0.0165683
802.248	0.0165910
802.326	0.0164778
802.405	0.0166012
802.483	0.0166619
802.561	0.0165425
802.639	0.0167213
802.717	0.0166203
802.795	0.0166415
802.873	0.0166073
802.951	0.0168246
803.030	0.0166993
803.108	0.0166839
803.186	0.0167542
803.264	0.0167615
803.342	0.0167535
803.420	0.0165532
803.498	0.0167391
803.576	0.0165842
803.655	0.0165525
803.733	0.0166090
803.811	0.0165727
803.889	0.0164656
803.967	0.0164919
804.045	0.0164888
804.123	0.0163177
804.201	0.0161702
804.280	0.0161404
804.358	0.0161623
804.436	0.0162576
804.514	0.0162278
804.592	0.0161681
804.670	0.0160435
804.748	0.0159495
804.826	0.0161832
804.905	0.0161784
804.983	0.0162854
805.061	0.0162251
805.139	0.0161574
805.217	0.0163371
805.295	0.0163174
805.373	0.0163141
805.451	0.0163710
805.530	0.0163135
805.608	0.0163957
805.686	0.0164505
805.764	0.0165633
805.842	0.0164681
805.920	0.0164204
805.998	0.0165392
806.076	0.0165885
806.155	0.0166049
806.233	0.0167236
806.311	0.0166531
806.389	0.0167825
806.467	0.0166856
806.545	0.0166058
806.623	0.0168964
806.701	0.0168961
806.780	0.0169202
806.858	0.0168842
806.936	0.0168923
807.014	0.0168198
807.092	0.0168111
807.170	0.0170390
807.248	0.0169347
807.326	0.0167915
807.405	0.0168430
807.483	0.0167896
807.561	0.0168733
807.639	0.0166166
807.717	0.0167868
807.795	0.0165831
807.873	0.0164855
807.951	0.0165012
808.030	0.0165568
808.108	0.0164445
808.186	0.0164397
808.264	0.0164892
808.342	0.0162996
808.420	0.0163219
808.498	0.0163118
808.576	0.0163155
808.655	0.0163020
808.733	0.0163327
808.811	0.0162684
808.889	0.0162797
808.967	0.0162727
809.045	0.0162948
809.123	0.0162531
809.201	0.0161276
809.280	0.0163585
809.358	0.0163622
809.436	0.0162289
809.514	0.0161024
809.592	0.0162445
809.670	0.0162080
809.748	0.0163062
809.826	0.0162724
809.905	0.0161418
809.983	0.0161730
810.061	0.0160979
810.139	0.0162129
810.217	0.0161071
810.295	0.0162668
810.373	0.0163298
810.451	0.0163129
810.530	0.0162585
810.608	0.0163587
810.686	0.0164104
810.764	0.0161803
810.842	0.0162790
810.920	0.0162907
810.998	0.0164490
811.076	0.0164554
811.155	0.0163454
811.233	0.0165823
811.311	0.0166147
811.389	0.0165228
811.467	0.0164284
811.545	0.0164352
811.623	0.0165679
811.701	0.0165628
811.780	0.0165540
811.858	0.0166046
811.936	0.0165565
812.014	0.0165791
812.092	0.0165775
812.170	0.0167005
812.248	0.0165147
812.326	0.0164803
812.405	0.0165383
812.483	0.0165060
812.561	0.0163946
812.639	0.0164964
812.717	0.0164971
812.795	0.0163936
812.873	0.0165365
812.951	0.0164103
813.030	0.0165164
813.108	0.0165910
813.186	0.0163437
813.264	0.0164944
813.342	0.0164626
813.420	0.0165784
813.498	0.0165007
813.576	0.0164571
813.655	0.0165586
813.733	0.0164550
813.811	0.0166196
813.889	0.0165618
813.967	0.0166096
814.045	0.0166563
814.123	0.0165956
814.201	0.0166558
814.280	0.0165956
814.358	0.0166798
814.436	0.0166732
814.514	0.0166188
814.592	0.0166503
814.670	0.0166679
814.748	0.0167647
814.826	0.0167648
814.905	0.0166356
814.983	0.0166045
815.061	0.0166627
815.139	0.0165744
815.217	0.0166499
815.295	0.0166089
815.373	0.0166200
815.451	0.0167583
815.530	0.0165809
815.608	0.0166535
815.686	0.0166340
815.764	0.0166114
815.842	0.0165862
815.920	0.0165118
815.998	0.0165628
816.076	0.0164284
816.155	0.0163599
816.233	0.0163860
816.311	0.0164045
816.389	0.0164592
816.467	0.0164651
816.545	0.0164198
816.623	0.0163634
816.701	0.0162621
816.780	0.0163120
816.858	0.0162007
816.936	0.0164214
817.014	0.0163608
817.092	0.0163866
817.170	0.0164030
817.248	0.0163507
817.326	0.0164443
817.405	0.0164236
817.483	0.0165450
817.561	0.0164217
817.639	0.0163911
817.717	0.0165736
817.795	0.0164692
817.873	0.0165135
817.951	0.0164878
818.030	0.0164454
818.108	0.0165742
818.186	0.0164944
818.264	0.0165267
818.342	0.0164191
818.420	0.0163664
818.498	0.0164767
818.576	0.0163622
818.655	0.0163870
818.733	0.0163033
818.811	0.0163631
818.889	0.0163522
818.967	0.0164336
819.045	0.0165175
819.123	0.0164671
819.201	0.0165379
819.280	0.0164410
819.358	0.0165919
819.436	0.0165138
819.514	0.0166042
819.592	0.0165791
819.670	0.0167117
819.748	0.0165661
819.826	0.0166608
819.905	0.0165206
819.983	0.0166667
820.061	0.0165491
820.139	0.0165768
820.217	0.0164835
820.295	0.0165269
820.373	0.0165833
820.451	0.0166019
820.530	0.0164536
820.608	0.0164671
820.686	0.0165350
820.764	0.0164477
820.842	0.0162917
820.920	0.0163787
820.998	0.0163209
821.076	0.0163615
821.155	0.0163105
821.233	0.0162248
821.311	0.0162510
821.389	0.0162815
821.467	0.0162662
821.545	0.0163287
821.623	0.0164664
821.701	0.0163802
821.780	0.0164610
821.858	0.0165211
821.936	0.0165054
822.014	0.0165193
822.092	0.0165688
822.170	0.0165983
822.248	0.0165076
822.326	0.0165536
822.405	0.0165927
822.483	0.0165987
822.561	0.0165469
822.639	0.0165038
822.717	0.0165805
822.795	0.0165093
822.873	0.0166020
822.951	0.0164777
823.030	0.0165027
823.108	0.0164589
823.186	0.0164751
823.264	0.0164770
823.342	0.0166623
823.420	0.0165196
823.498	0.0165717
823.576	0.0166304
823.655	0.0164323
823.733	0.0166435
823.811	0.0166809
823.889	0.0164938
823.967	0.0165281
824.045	0.0165182
824.123	0.0165290
824.201	0.0165096
824.280	0.0165015
824.358	0.0165230
824.436	0.0165702
824.514	0.0165372
824.592	0.0164356
824.670	0.0163792
824.748	0.0164680
824.826	0.0164067
824.905	0.0164738
824.983	0.0164415
825.061	0.0165726
825.139	0.0165869
825.217	0.0165308
825.295	0.0165947
825.373	0.0165963
825.451	0.0166801
825.530	0.0165517
825.608	0.0167965
825.686	0.0168114
825.764	0.0166837
825.842	0.0167736
825.920	0.0169193
825.998	0.0167931
826.076	0.0165600
826.155	0.0167058
826.233	0.0166639
826.311	0.0166215
826.389	0.0166644
826.467	0.0164783
826.545	0.0166274
826.623	0.0167009
826.701	0.0167023
826.780	0.0165745
826.858	0.0167422
826.936	0.0167404
827.014	0.0168054
827.092	0.0168250
827.170	0.0167834
827.248	0.0169469
827.326	0.0168378
827.405	0.0167697
827.483	0.0167309
827.561	0.0168159
827.639	0.0167137
827.717	0.0166468
827.795	0.0167812
827.873	0.0167914
827.951	0.0166596
828.030	0.0167424
828.108	0.0164833
828.186	0.0165022
828.264	0.0165295
828.342	0.0165059
828.420	0.0163458
828.498	0.0164375
828.576	0.0163421
828.655	0.0161714
828.733	0.0161563
828.811	0.0161784
828.889	0.0161996
828.967	0.0162058
829.045	0.0161894
829.123	0.0160458
829.201	0.0161816
829.280	0.0161909
829.358	0.0161780
829.436	0.0160456
829.514	0.0162891
829.592	0.0161781
829.670	0.0160827
829.748	0.0162069
829.826	0.0161541
829.905	0.0161488
829.983	0.0162621
830.061	0.0161053
830.139	0.0161754
830.217	0.0162704
830.295	0.0161873
830.373	0.0161489
830.451	0.0162711
830.530	0.0164426
830.608	0.0162358
830.686	0.0162576
830.764	0.0163485
830.842	0.0164204
830.920	0.0163382
830.998	0.0162659
831.076	0.0162832
831.155	0.0163000
831.233	0.0165083
831.311	0.0164336
831.389	0.0164247
831.467	0.0163679
831.545	0.0164022
831.623	0.0165612
831.701	0.0164780
831.780	0.0163741
831.858	0.0164125
831.936	0.0164796
832.014	0.0164151
832.092	0.0165185
832.170	0.0165999
832.248	0.0164141
832.326	0.0164899
832.405	0.0166448
832.483	0.0164527
832.561	0.0165032
832.639	0.0163354
832.717	0.0163922
832.795	0.0164581
832.873	0.0163882
832.951	0.0162672
833.030	0.0162317
833.108	0.0163390
833.186	0.0161352
833.264	0.0162777
833.342	0.0164402
833.420	0.0163319
833.498	0.0163074
833.576	0.0162372
833.655	0.0162666
833.733	0.0162786
833.811	0.0163412
833.889	0.0163184
833.967	0.0163897
834.045	0.0162467
834.123	0.0162357
834.201	0.0162314
834.280	0.0162890
834.358	0.0162065
834.436	0.0162871
834.514	0.0162521
834.592	0.0162603
834.670	0.0163950
834.748	0.0162534
834.826	0.0161824
834.905	0.0162101
834.983	0.0163619
835.061	0.0162487
835.139	0.0162652
835.217	0.0162552
835.295	0.0163565
835.373	0.0163467
835.451	0.0164604
835.530	0.0164318
835.608	0.0163469
835.686	0.0165310
835.764	0.0164877
835.842	0.0165759
835.920	0.0165368
835.998	0.0165766
836.076	0.0166005
836.155	0.0165089
836.233	0.0164079
836.311	0.0164079
836.389	0.0165422
836.467	0.0165150
836.545	0.0164864
836.623	0.0165655
836.701	0.0167142
836.780	0.0165546
836.858	0.0165499
836.936	0.0165012
837.014	0.0165154
837.092	0.0166119
837.170	0.0164613
837.248	0.0165412
837.326	0.0164588
837.405	0.0165961
837.483	0.0164533
837.561	0.0162398
837.639	0.0164146
837.717	0.0164681
837.795	0.0165739
837.873	0.0164243
837.951	0.0164268
838.030	0.0165026
838.108	0.0165620
838.186	0.0164948
838.264	0.0166573
838.342	0.0165729
838.420	0.0165836
838.498	0.0165971
838.576	0.0165218
838.655	0.0165295
838.733	0.0166709
838.811	0.0166105
838.889	0.0165715
838.967	0.0164447
839.045	0.0165020
839.123	0.0164642
839.201	0.0165675
839.280	0.0165250
839.358	0.0164866
839.436	0.0164743
839.514	0.0165379
839.592	0.0164044
839.670	0.0165527
839.748	0.0165434
839.826	0.0164387
839.905	0.0165881
839.983	0.0165886
840.061	0.0164801
840.139	0.0165277
840.217	0.0166059
840.295	0.0165884
840.373	0.0165343
840.451	0.0166344
840.530	0.0164946
840.608	0.0165575
840.686	0.0166241
840.764	0.0165295
840.842	0.0164504
840.920	0.0163380
840.998	0.0164956
841.076	0.0163393
841.155	0.0163103
841.233	0.0164668
841.311	0.0163660
841.389	0.0163599
841.467	0.0164281
841.545	0.0162457
841.623	0.0163438
841.701	0.0164069
841.780	0.0163985
841.858	0.0164567
841.936	0.0163676
842.014	0.0165757
842.092	0.0165146
842.170	0.0164330
842.248	0.0163773
842.326	0.0164895
842.405	0.0165041
842.483	0.0164298
842.561	0.0165201
842.639	0.0164281
842.717	0.0164265
842.795	0.0163445
842.873	0.0165416
842.951	0.0164957
843.030	0.0164821
843.108	0.0165269
843.186	0.0164320
843.264	0.0164339
843.342	0.0163716
843.420	0.0165152
843.498	0.0164658
843.576	0.0165418
843.655	0.0165604
843.733	0.0164341
843.811	0.0164970
843.889	0.0165609
843.967	0.0165393
844.045	0.0164120
844.123	0.0164922
844.201	0.0163831
844.280	0.0165523
844.358	0.0165509
844.436	0.0166934
844.514	0.0165788
844.592	0.0166246
844.670	0.0164589
844.748	0.0164386
844.826	0.0166563
844.905	0.0167400
844.983	0.0166602
845.061	0.0165135
845.139	0.0166348
845.217	0.0165890
845.295	0.0164296
845.373	0.0164217
845.451	0.0164241
845.530	0.0164297
845.608	0.0162098
845.686	0.0162929
845.764	0.0162922
845.842	0.0162730
845.920	0.0162322
845.998	0.0161931
846.076	0.0160488
846.155	0.0160753
846.233	0.0163216
846.311	0.0163518
846.389	0.0163464
846.467	0.0163976
846.545	0.0165988
846.623	0.0165431
846.701	0.0166318
846.780	0.0167322
846.858	0.0167468
846.936	0.0168050
847.014	0.0168899
847.092	0.0168021
847.170	0.0168567
847.248	0.0167999
847.326	0.0166885
847.405	0.0166691
847.483	0.0167520
847.561	0.0164078
847.639	0.0163195
847.717	0.0165990
847.795	0.0163831
847.873	0.0164124
847.951	0.0164487
848.030	0.0165266
848.108	0.0166401
848.186	0.0165022
848.264	0.0164752
848.342	0.0165114
848.420	0.0163585
848.498	0.0164318
848.576	0.0165575
848.655	0.0165325
848.733	0.0165727
848.811	0.0164892
848.889	0.0164568
848.967	0.0165550
849.045	0.0164756
849.123	0.0165738
849.201	0.0165147
849.280	0.0163847
849.358	0.0165018
849.436	0.0164686
849.514	0.0164722
849.592	0.0166135
849.670	0.0165236
849.748	0.0165653
849.826	0.0167287
849.905	0.0165208
849.983	0.0164507
850.061	0.0165196
850.139	0.0166367
850.217	0.0166041
850.295	0.0165184
850.373	0.0164801
850.451	0.0165034
850.530	0.0163708
850.608	0.0165569
850.686	0.0165115
850.764	0.0165800
850.842	0.0165195
850.920	0.0165281
850.998	0.0163947
851.076	0.0165844
851.155	0.0164713
851.233	0.0164517
851.311	0.0163746
851.389	0.0165497
851.467	0.0164877
851.545	0.0165803
851.623	0.0165010
851.701	0.0164516
851.780	0.0165930
851.858	0.0165253
851.936	0.0164928
852.014	0.0164674
852.092	0.0164471
852.170	0.0164365
852.248	0.0163353
852.326	0.0163039
852.405	0.0164577
852.483	0.0164225
852.561	0.0163393
852.639	0.0163076
852.717	0.0162003
852.795	0.0163210
852.873	0.0163198
852.951	0.0162563
853.030	0.0163718
853.108	0.0163322
853.186	0.0164561
853.264	0.0163647
853.342	0.0162997
853.420	0.0163126
853.498	0.0164544
853.576	0.0163406
853.655	0.0163118
853.733	0.0162082
853.811	0.0162596
853.889	0.0163646
853.967	0.0164139
854.045	0.0164631
854.123	0.0162624
854.201	0.0164860
854.280	0.0164719
854.358	0.0165099
854.436	0.0164911
854.514	0.0164667
854.592	0.0165033
854.670	0.0165746
854.748	0.0166630
854.826	0.0166375
854.905	0.0166180
854.983	0.0165614
855.061	0.0166233
855.139	0.0166311
855.217	0.0166323
855.295	0.0166431
855.373	0.0166047
855.451	0.0168103
855.530	0.0165993
855.608	0.0166016
855.686	0.0164941
855.764	0.0168027
855.842	0.0167997
855.920	0.0166600
855.998	0.0167952
856.076	0.0166989
856.155	0.0165639
856.233	0.0168666
856.311	0.0167442
856.389	0.0165225
856.467	0.0167332
856.545	0.0166584
856.623	0.0165865
856.701	0.0166251
856.780	0.0166617
856.858	0.0164561
856.936	0.0165179
857.014	0.0165461
857.092	0.0165900
857.170	0.0166286
857.248	0.0165813
857.326	0.0165395
857.405	0.0165347
857.483	0.0164179
857.561	0.0164832
857.639	0.0165298
857.717	0.0163550
857.795	0.0164125
857.873	0.0163249
857.951	0.0163081
858.030	0.0163723
858.108	0.0164920
858.186	0.0163353
858.264	0.0161768
858.342	0.0163933
858.420	0.0164251
858.498	0.0163279
858.576	0.0163052
858.655	0.0164433
858.733	0.0164073
858.811	0.0164528
858.889	0.0164999
858.967	0.0164755
859.045	0.0165220
859.123	0.0164153
859.201	0.0165269
859.280	0.0165679
859.358	0.0164246
859.436	0.0164429
859.514	0.0163773
859.592	0.0164300
859.670	0.0163735
859.748	0.0163815
859.826	0.0164342
859.905	0.0162881
859.983	0.0162547
860.061	0.0163956
860.139	0.0164283
860.217	0.0164304
860.295	0.0161788
860.373	0.0163364
860.451	0.0163910
860.530	0.0163711
860.608	0.0163136
860.686	0.0163142
860.764	0.0164125
860.842	0.0164108
860.920	0.0164087
860.998	0.0164822
861.076	0.0162630
861.155	0.0164290
861.233	0.0163962
861.311	0.0165511
861.389	0.0164089
861.467	0.0161938
861.545	0.0163606
861.623	0.0163763
861.701	0.0162336
861.780	0.0163451
861.858	0.0164669
861.936	0.0163354
862.014	0.0164520
862.092	0.0164297
862.170	0.0163790
862.248	0.0163889
862.326	0.0165281
862.405	0.0165450
862.483	0.0167481
862.561	0.0165987
862.639	0.0165293
862.717	0.0166423
862.795	0.0166600
862.873	0.0166051
862.951	0.0166994
863.030	0.0166431
863.108	0.0167063
863.186	0.0166132
863.264	0.0167055
863.342	0.0166097
863.420	0.0164119
863.498	0.0164565
863.576	0.0165461
863.655	0.0164688
863.733	0.0163680
863.811	0.0162969
863.889	0.0162910
863.967	0.0163867
864.045	0.0162767
864.123	0.0162209
864.201	0.0162726
864.280	0.0162804
864.358	0.0162440
864.436	0.0162332
864.514	0.0161572
864.592	0.0163116
864.670	0.0161612
864.748	0.0162283
864.826	0.0162550
864.905	0.0162768
864.983	0.0162928
865.061	0.0162417
865.139	0.0163078
865.217	0.0163046
865.295	0.0162852
865.373	0.0164380
865.451	0.0163836
865.530	0.0164039
865.608	0.0163161
865.686	0.0165461
865.764	0.0165476
865.842	0.0164514
865.920	0.0164688
865.998	0.0163906
866.076	0.0166146
866.155	0.0165323
866.233	0.0164100
866.311	0.0163201
866.389	0.0163738
866.467	0.0164806
866.545	0.0164607
866.623	0.0163300
866.701	0.0165544
866.780	0.0165274
866.858	0.0163900
866.936	0.0164794
867.014	0.0164292
867.092	0.0164851
867.170	0.0165681
867.248	0.0165466
867.326	0.0165949
867.405	0.0165386
867.483	0.0164676
867.561	0.0165643
867.639	0.0166098
867.717	0.0165686
867.795	0.0164080
867.873	0.0162873
867.951	0.0165936
868.030	0.0166775
868.108	0.0164414
868.186	0.0164466
868.264	0.0165067
868.342	0.0164379
868.420	0.0164368
868.498	0.0165913
868.576	0.0165969
868.655	0.0165606
868.733	0.0166209
868.811	0.0165722
868.889	0.0163513
868.967	0.0163286
869.045	0.0164969
869.123	0.0165076
869.201	0.0164283
869.280	0.0165037
869.358	0.0165328
869.436	0.0165326
869.514	0.0165034
869.592	0.0166048
869.670	0.0166241
869.748	0.0165140
869.826	0.0164470
869.905	0.0165946
869.983	0.0166881
870.061	0.0165273
870.139	0.0163766
870.217	0.0163729
870.295	0.0164966
870.373	0.0165840
870.451	0.0165535
870.530	0.0165379
870.608	0.0165519
870.686	0.0164297
870.764	0.0164861
870.842	0.0165530
870.920	0.0165153
870.998	0.0165553
871.076	0.0164826
871.155	0.0166292
871.233	0.0165750
871.311	0.0165770
871.389	0.0167629
871.467	0.0166055
871.545	0.0165816
871.623	0.0165748
871.701	0.0165855
871.780	0.0166361
871.858	0.0165185
871.936	0.0165572
872.014	0.0164557
872.092	0.0165046
872.170	0.0166030
872.248	0.0165538
872.326	0.0163785
872.405	0.0163467
872.483	0.0162925
872.561	0.0163718
872.639	0.0163367
872.717	0.0163610
872.795	0.0163866
872.873	0.0163171
872.951	0.0163189
873.030	0.0162945
873.108	0.0163697
873.186	0.0163297
873.264	0.0163239
873.342	0.0163641
873.420	0.0163886
873.498	0.0165215
873.576	0.0163339
873.655	0.0164964
873.733	0.0164367
873.811	0.0163245
873.889	0.0164818
873.967	0.0165002
874.045	0.0166717
874.123	0.0165367
874.201	0.0165709
874.280	0.0165503
874.358	0.0165715
874.436	0.0166720
874.514	0.0164971
874.592	0.0165018
874.670	0.0166716
874.748	0.0166569
874.826	0.0166039
874.905	0.0166152
874.983	0.0165714
875.061	0.0165549
875.139	0.0164213
875.217	0.0163268
875.295	0.0164343
875.373	0.0163830
875.451	0.0163242
875.530	0.0163795
875.608	0.0163677
875.686	0.0163261
875.764	0.0163571
875.842	0.0164352
875.920	0.0163210
875.998	0.0162438
876.076	0.0163750
876.155	0.0163461
876.233	0.0163784
876.311	0.0163597
876.389	0.0163396
876.467	0.0163125
876.545	0.0163354
876.623	0.0163581
876.701	0.0163558
876.780	0.0163868
876.858	0.0164182
876.936	0.0164066
877.014	0.0166085
877.092	0.0165149
877.170	0.0165187
877.248	0.0163859
877.326	0.0165148
877.405	0.0164078
877.483	0.0165686
877.561	0.0165427
877.639	0.0164944
877.717	0.0165554
877.795	0.0165157
877.873	0.0165635
877.951	0.0165969
878.030	0.0166790
878.108	0.0166124
878.186	0.0166041
878.264	0.0167186
878.342	0.0166529
878.420	0.0165945
878.498	0.0165906
878.576	0.0165099
878.655	0.0167038
878.733	0.0166454
878.811	0.0166366
878.889	0.0166315
878.967	0.0165376
879.045	0.0166962
879.123	0.0166724
879.201	0.0166360
879.280	0.0164948
879.358	0.0165899
879.436	0.0166998
879.514	0.0166017
879.592	0.0166582
879.670	0.0166245
879.748	0.0167323
879.826	0.0165694
879.905	0.0164532
879.983	0.0165611
880.061	0.0164130
880.139	0.0164993
880.217	0.0164414
880.295	0.0165601
880.373	0.0164531
880.451	0.0164995
880.530	0.0165291
880.608	0.0165002
880.686	0.0165428
880.764	0.0164162
880.842	0.0164971
880.920	0.0164500
880.998	0.0164433
881.076	0.0165498
881.155	0.0165045
881.233	0.0164937
881.311	0.0164903
881.389	0.0164190
881.467	0.0166206
881.545	0.0165597
881.623	0.0166008
881.701	0.0165531
881.780	0.0165369
881.858	0.0165170
881.936	0.0165218
882.014	0.0166666
882.092	0.0166770
882.170	0.0166634
882.248	0.0166598
882.326	0.0166827
882.405	0.0166276
882.483	0.0166368
882.561	0.0166128
882.639	0.0166917
882.717	0.0166195
882.795	0.0165273
882.873	0.0163570
882.951	0.0165552
883.030	0.0164980
883.108	0.0164014
883.186	0.0164091
883.264	0.0163335
883.342	0.0164577
883.420	0.0164600
883.498	0.0163145
883.576	0.0164664
883.655	0.0163893
883.733	0.0165118
883.811	0.0164675
883.889	0.0163342
883.967	0.0162188
884.045	0.0161404
884.123	0.0163177
884.201	0.0163023
884.280	0.0162498
884.358	0.0162241
884.436	0.0162076
884.514	0.0161150
884.592	0.0163018
884.670	0.0163610
884.748	0.0163868
884.826	0.0164521
884.905	0.0164524
884.983	0.0164710
885.061	0.0163393
885.139	0.0163815
885.217	0.0163902
885.295	0.0163152
885.373	0.0164182
885.451	0.0163876
885.530	0.0165057
885.608	0.0163998
885.686	0.0162907
885.764	0.0163601
885.842	0.0165440
885.920	0.0165123
885.998	0.0161947
886.076	0.0163551
886.155	0.0164183
886.233	0.0163998
886.311	0.0162862
886.389	0.0163136
886.467	0.0163156
886.545	0.0163515
886.623	0.0163232
886.701	0.0162838
886.780	0.0163278
886.858	0.0164289
886.936	0.0163301
887.014	0.0164417
887.092	0.0163274
887.170	0.0164870
887.248	0.0162991
887.326	0.0163234
887.405	0.0163806
887.483	0.0163158
887.561	0.0162830
887.639	0.0163116
887.717	0.0164111
887.795	0.0163551
887.873	0.0163823
887.951	0.0163188
888.030	0.0164747
888.108	0.0163297
888.186	0.0163372
888.264	0.0162498
888.342	0.0164523
888.420	0.0162696
888.498	0.0163523
888.576	0.0165085
888.655	0.0162859
888.733	0.0162714
888.811	0.0164392
888.889	0.0163609
888.967	0.0162553
889.045	0.0162854
889.123	0.0163722
889.201	0.0164507
889.280	0.0162756
889.358	0.0163103
889.436	0.0163834
889.514	0.0164616
889.592	0.0164812
889.670	0.0164362
889.748	0.0161933
889.826	0.0165482
889.905	0.0164675
889.983	0.0164634
890.061	0.0164816
890.139	0.0165856
890.217	0.0165417
890.295	0.0165488
890.373	0.0165629
890.451	0.0164556
890.530	0.0166033
890.608	0.0165878
890.686	0.0166219
890.764	0.0165100
890.842	0.0165391
890.920	0.0166698
890.998	0.0165747
891.076	0.0164754
891.155	0.0165763
891.233	0.0165266
891.311	0.0165604
891.389	0.0165464
891.467	0.0165111
891.545	0.0163435
891.623	0.0164319
891.701	0.0165569
891.780	0.0164359
891.858	0.0164433
891.936	0.0164002
892.014	0.0164439
892.092	0.0164702
892.170	0.0165359
892.248	0.0164983
892.326	0.0164895
892.405	0.0162639
892.483	0.0162945
892.561	0.0165076
892.639	0.0163385
892.717	0.0163197
892.795	0.0164099
892.873	0.0163440
892.951	0.0163004
893.030	0.0163906
893.108	0.0163316
893.186	0.0162041
893.264	0.0162423
893.342	0.0162724
893.420	0.0162456
893.498	0.0162673
893.576	0.0162974
893.655	0.0160838
893.733	0.0161518
893.811	0.0161686
893.889	0.0161206
893.967	0.0163235
894.045	0.0162991
894.123	0.0161691
894.201	0.0161337
894.280	0.0161196
894.358	0.0163048
894.436	0.0162206
894.514	0.0162255
894.592	0.0162306
894.670	0.0161856
894.748	0.0161433
894.826	0.0163441
894.905	0.0161256
894.983	0.0162437
895.061	0.0162231
895.139	0.0161549
895.217	0.0162353
895.295	0.0162205
895.373	0.0163796
895.451	0.0162177
895.530	0.0161456
895.608	0.0160993
895.686	0.0162418
895.764	0.0161789
895.842	0.0161086
895.920	0.0161816
895.998	0.0161801
896.076	0.0162054
896.155	0.0160518
896.233	0.0162748
896.311	0.0162636
896.389	0.0163039
896.467	0.0161367
896.545	0.0162029
896.623	0.0161904
896.701	0.0161013
896.780	0.0163428
896.858	0.0163139
896.936	0.0163367
897.014	0.0162988
897.092	0.0162214
897.170	0.0163116
897.248	0.0164012
897.326	0.0164760
897.405	0.0164217
897.483	0.0165098
897.561	0.0165424
897.639	0.0164736
897.717	0.0165664
897.795	0.0166467
897.873	0.0165500
897.951	0.0166096
898.030	0.0167313
898.108	0.0167197
898.186	0.0165914
898.264	0.0164700
898.342	0.0166383
898.420	0.0166579
898.498	0.0167147
898.576	0.0166774
898.655	0.0166875
898.733	0.0166818
898.811	0.0166748
898.889	0.0165636
898.967	0.0165685
899.045	0.0165294
899.123	0.0165926
899.201	0.0165440
899.280	0.0165142
899.358	0.0165919
899.436	0.0165949
899.514	0.0164831
899.592	0.0165202
899.670	0.0167003
899.748	0.0165162
899.826	0.0165981
899.905	0.0166253
899.983	0.0165588
900.061	0.0166168
900.139	0.0164815
900.217	0.0166836
900.295	0.0167054
900.373	0.0167525
900.451	0.0165841
900.530	0.0166363
900.608	0.0165276
900.686	0.0165810
900.764	0.0165047
900.842	0.0163574
900.920	0.0165284
900.998	0.0165140
901.076	0.0165477
901.155	0.0164946
901.233	0.0165440
901.311	0.0164717
901.389	0.0164645
901.467	0.0163605
901.545	0.0163560
901.623	0.0165127
901.701	0.0166169
901.780	0.0164931
901.858	0.0164465
901.936	0.0163379
902.014	0.0165846
902.092	0.0165604
902.170	0.0165752
902.248	0.0166290
902.326	0.0165420
902.405	0.0165004
902.483	0.0166761
902.561	0.0165752
902.639	0.0166206
902.717	0.0165554
902.795	0.0164775
902.873	0.0165412
902.951	0.0166149
903.030	0.0164935
903.108	0.0165720
903.186	0.0165635
903.264	0.0166336
903.342	0.0165780
903.420	0.0166016
903.498	0.0165004
903.576	0.0165807
903.655	0.0164700
903.733	0.0164487
903.811	0.0163956
903.889	0.0166869
903.967	0.0165147
904.045	0.0164917
904.123	0.0164265
904.201	0.0164884
904.280	0.0164146
904.358	0.0162578
904.436	0.0164291
904.514	0.0164404
904.592	0.0163963
904.670	0.0164494
904.748	0.0165244
904.826	0.0164851
904.905	0.0162476
904.983	0.0163470
905.061	0.0163695
905.139	0.0164379
905.217	0.0167731
905.295	0.0165633
905.373	0.0165263
905.451	0.0164404
905.530	0.0165214
905.608	0.0163613
905.686	0.0166182
905.764	0.0165120
905.842	0.0164935
905.920	0.0164568
905.998	0.0165898
906.076	0.0165102
906.155	0.0164920
906.233	0.0166100
906.311	0.0164698
906.389	0.0164420
906.467	0.0164749
906.545	0.0164437
906.623	0.0165414
906.701	0.0163873
906.780	0.0163988
906.858	0.0162577
906.936	0.0164548
907.014	0.0164678
907.092	0.0163302
907.170	0.0161995
907.248	0.0163242
907.326	0.0163259
907.405	0.0163833
907.483	0.0163023
907.561	0.0162571
907.639	0.0162327
907.717	0.0163089
907.795	0.0163308
907.873	0.0161839
907.951	0.0163144
908.030	0.0162874
908.108	0.0163740
908.186	0.0162461
908.264	0.0164311
908.342	0.0163158
908.420	0.0162904
908.498	0.0162994
908.576	0.0164338
908.655	0.0164053
908.733	0.0163653
908.811	0.0162994
908.889	0.0163584
908.967	0.0163389
909.045	0.0164111
909.123	0.0164156
909.201	0.0164281
909.280	0.0163224
909.358	0.0165072
909.436	0.0165181
909.514	0.0163172
909.592	0.0164054
909.670	0.0164823
909.748	0.0164352
909.826	0.0165002
909.905	0.0164327
909.983	0.0164542
910.061	0.0165850
910.139	0.0164716
910.217	0.0163332
910.295	0.0165577
910.373	0.0163956
910.451	0.0164449
910.530	0.0163568
910.608	0.0164841
910.686	0.0164693
910.764	0.0164279
910.842	0.0163932
910.920	0.0164787
910.998	0.0165379
911.076	0.0164270
911.155	0.0164442
911.233	0.0165919
911.311	0.0165195
911.389	0.0163742
911.467	0.0165009
911.545	0.0164257
911.623	0.0165063
911.701	0.0165930
911.780	0.0164503
911.858	0.0165859
911.936	0.0163857
912.014	0.0163720
912.092	0.0164630
912.170	0.0162945
912.248	0.0162626
912.326	0.0164790
912.405	0.0163437
912.483	0.0163964
912.561	0.0162872
912.639	0.0161304
912.717	0.0163840
912.795	0.0162889
912.873	0.0163316
912.951	0.0161570
913.030	0.0162454
913.108	0.0163361
913.186	0.0162331
913.264	0.0162843
913.342	0.0164333
913.420	0.0161309
913.498	0.0162446
913.576	0.0163069
913.655	0.0163132
913.733	0.0163550
913.811	0.0164188
913.889	0.0163576
913.967	0.0163229
914.045	0.0162913
914.123	0.0162692
914.201	0.0163839
914.280	0.0163585
914.358	0.0163516
914.436	0.0163648
914.514	0.0163814
914.592	0.0164310
914.670	0.0163927
914.748	0.0163851
914.826	0.0164274
914.905	0.0164043
914.983	0.0165042
915.061	0.0165508
915.139	0.0165639
915.217	0.0164419
915.295	0.0165621
915.373	0.0165689
915.451	0.0165551
915.530	0.0167404
915.608	0.0167500
915.686	0.0166691
915.764	0.0165994
915.842	0.0167055
915.920	0.0164651
915.998	0.0163969
916.076	0.0166528
916.155	0.0166007
916.233	0.0165774
916.311	0.0165620
916.389	0.0165666
916.467	0.0164015
916.545	0.0166223
916.623	0.0166051
916.701	0.0166546
916.780	0.0166328
916.858	0.0166111
916.936	0.0164018
917.014	0.0163892
917.092	0.0164769
917.170	0.0164859
917.248	0.0163599
917.326	0.0162934
917.405	0.0163638
917.483	0.0164305
917.561	0.0164153
917.639	0.0162876
917.717	0.0163358
917.795	0.0162978
917.873	0.0161070
917.951	0.0162518
918.030	0.0163617
918.108	0.0163211
918.186	0.0161785
918.264	0.0162347
918.342	0.0163535
918.420	0.0163647
918.498	0.0162652
918.576	0.0163105
918.655	0.0162921
918.733	0.0162699
918.811	0.0162064
918.889	0.0162569
918.967	0.0163651
919.045	0.0162320
919.123	0.0164120
919.201	0.0163960
919.280	0.0163606
919.358	0.0163488
919.436	0.0163432
919.514	0.0163794
919.592	0.0163482
919.670	0.0162763
919.748	0.0163136
919.826	0.0165426
919.905	0.0165034
919.983	0.0166065
920.061	0.0165264
920.139	0.0164632
920.217	0.0164622
920.295	0.0162865
920.373	0.0163113
920.451	0.0163528
920.530	0.0163139
920.608	0.0163133
920.686	0.0163173
920.764	0.0162019
920.842	0.0163407
920.920	0.0161980
920.998	0.0163070
921.076	0.0165444
921.155	0.0162596
921.233	0.0162378
921.311	0.0162631
921.389	0.0162960
921.467	0.0163554
921.545	0.0164169
921.623	0.0163074
921.701	0.0164345
921.780	0.0163415
921.858	0.0164163
921.936	0.0163326
922.014	0.0163560
922.092	0.0163334
922.170	0.0163354
922.248	0.0166030
922.326	0.0164741
922.405	0.0165024
922.483	0.0165142
922.561	0.0163820
922.639	0.0165816
922.717	0.0165443
922.795	0.0163717
922.873	0.0165607
922.951	0.0164688
923.030	0.0165190
923.108	0.0164500
923.186	0.0164739
923.264	0.0164677
923.342	0.0164274
923.420	0.0164185
923.498	0.0165231
923.576	0.0165587
923.655	0.0165624
923.733	0.0164539
923.811	0.0166737
923.889	0.0165919
923.967	0.0166266
924.045	0.0165955
924.123	0.0166576
924.201	0.0167070
924.280	0.0165093
924.358	0.0167047
924.436	0.0166547
924.514	0.0165388
924.592	0.0165017
924.670	0.0165788
924.748	0.0166146
924.826	0.0165300
924.905	0.0167168
924.983	0.0165077
925.061	0.0164106
925.139	0.0164627
925.217	0.0166112
925.295	0.0165800
925.373	0.0164626
925.451	0.0164301
925.530	0.0164843
925.608	0.0163853
925.686	0.0163947
925.764	0.0163837
925.842	0.0163860
925.920	0.0165022
925.998	0.0163934
926.076	0.0162960
926.155	0.0163361
926.233	0.0163340
926.311	0.0164169
926.389	0.0164417
926.467	0.0163921
926.545	0.0164104
926.623	0.0165402
926.701	0.0165038
926.780	0.0164918
926.858	0.0164843
926.936	0.0164832
927.014	0.0165157
927.092	0.0164105
927.170	0.0166128
927.248	0.0165840
927.326	0.0166375
927.405	0.0166415
927.483	0.0166066
927.561	0.0166296
927.639	0.0166155
927.717	0.0165618
927.795	0.0165740
927.873	0.0166597
927.951	0.0166201
928.030	0.0165222
928.108	0.0166078
928.186	0.0166568
928.264	0.0167332
928.342	0.0167139
928.420	0.0166161
928.498	0.0166349
928.576	0.0167956
928.655	0.0167201
928.733	0.0166206
928.811	0.0165267
928.889	0.0165899
928.967	0.0164806
929.045	0.0165279
929.123	0.0166533
929.201	0.0165960
929.280	0.0165814
929.358	0.0165930
929.436	0.0165192
929.514	0.0165065
929.592	0.0165869
929.670	0.0165504
929.748	0.0163818
929.826	0.0165173
929.905	0.0165453
929.983	0.0165927
930.061	0.0166002
930.139	0.0165038
930.217	0.0165298
930.295	0.0164717
930.373	0.0165545
930.451	0.0166419
930.530	0.0164721
930.608	0.0166192
930.686	0.0165684
930.764	0.0165459
930.842	0.0165101
930.920	0.0164941
930.998	0.0166280
931.076	0.0165273
931.155	0.0165043
931.233	0.0164891
931.311	0.0164861
931.389	0.0163931
931.467	0.0163844
931.545	0.0163715
931.623	0.0163756
931.701	0.0163700
931.780	0.0164098
931.858	0.0163980
931.936	0.0163366
932.014	0.0162709
932.092	0.0163840
932.170	0.0163242
932.248	0.0162690
932.326	0.0162749
932.405	0.0163439
932.483	0.0163946
932.561	0.0163873
932.639	0.0163629
932.717	0.0163027
932.795	0.0165177
932.873	0.0165038
932.951	0.0163906
933.030	0.0162550
933.108	0.0163316
933.186	0.0164442
933.264	0.0162893
933.342	0.0162260
933.420	0.0163993
933.498	0.0166241
933.576	0.0163412
933.655	0.0162771
933.733	0.0163893
933.811	0.0164520
933.889	0.0164291
933.967	0.0163259
934.045	0.0162926
934.123	0.0163021
934.201	0.0162953
934.280	0.0163984
934.358	0.0163217
934.436	0.0163297
934.514	0.0162169
934.592	0.0162446
934.670	0.0163387
934.748	0.0164462
934.826	0.0164552
934.905	0.0162835
934.983	0.0162957
935.061	0.0162515
935.139	0.0164044
935.217	0.0162318
935.295	0.0162865
935.373	0.0162579
935.451	0.0162437
935.530	0.0164184
935.608	0.0163300
935.686	0.0163155
935.764	0.0164015
935.842	0.0165013
935.920	0.0162370
935.998	0.0163124
936.076	0.0161638
936.155	0.0162914
936.233	0.0163290
936.311	0.0162451
936.389	0.0161669
936.467	0.0163189
936.545	0.0161848
936.623	0.0161391
936.701	0.0162263
936.780	0.0162262
936.858	0.0163599
936.936	0.0160979
937.014	0.0162396
937.092	0.0162911
937.170	0.0164064
937.248	0.0164281
937.326	0.0165099
937.405	0.0165321
937.483	0.0164831
937.561	0.0166422
937.639	0.0164882
937.717	0.0165510
937.795	0.0165868
937.873	0.0166033
937.951	0.0166440
938.030	0.0167314
938.108	0.0164944
938.186	0.0165440
938.264	0.0165568
938.342	0.0165749
938.420	0.0164381
938.498	0.0165466
938.576	0.0165192
938.655	0.0164113
938.733	0.0164194
938.811	0.0165778
938.889	0.0165165
938.967	0.0164689
939.045	0.0164330
939.123	0.0163912
939.201	0.0164222
939.280	0.0163734
939.358	0.0164926
939.436	0.0165518
939.514	0.0164175
939.592	0.0164344
939.670	0.0163255
939.748	0.0164935
939.826	0.0164793
939.905	0.0164943
939.983	0.0165995
940.061	0.0165576
940.139	0.0164725
940.217	0.0165685
940.295	0.0164860
940.373	0.0165391
940.451	0.0165760
940.530	0.0164628
940.608	0.0166599
940.686	0.0166341
940.764	0.0165168
940.842	0.0166713
940.920	0.0166700
940.998	0.0165004
941.076	0.0167323
941.155	0.0165753
941.233	0.0166547
941.311	0.0166361
941.389	0.0166504
941.467	0.0166388
941.545	0.0165667
941.623	0.0166221
941.701	0.0165939
941.780	0.0165866
941.858	0.0166226
941.936	0.0165881
942.014	0.0167033
942.092	0.0166517
942.170	0.0166086
942.248	0.0165605
942.326	0.0165922
942.405	0.0165393
942.483	0.0164820
942.561	0.0164938
942.639	0.0166070
942.717	0.0165344
942.795	0.0164910
942.873	0.0164556
942.951	0.0164187
943.030	0.0164596
943.108	0.0165168
943.186	0.0165388
943.264	0.0163394
943.342	0.0164915
943.420	0.0165975
943.498	0.0164481
943.576	0.0165383
943.655	0.0165884
943.733	0.0164249
943.811	0.0164896
943.889	0.0165456
943.967	0.0165699
944.045	0.0165506
944.123	0.0165765
944.201	0.0165578
944.280	0.0165314
944.358	0.0164699
944.436	0.0165482
944.514	0.0167255
944.592	0.0166071
944.670	0.0165004
944.748	0.0165958
944.826	0.0166425
944.905	0.0167390
944.983	0.0166064
945.061	0.0164135
945.139	0.0166100
945.217	0.0165727
945.295	0.0166111
945.373	0.0165454
945.451	0.0165129
945.530	0.0166900
945.608	0.0166272
945.686	0.0166699
945.764	0.0166219
945.842	0.0164931
945.920	0.0165617
945.998	0.0166978
946.076	0.0166445
946.155	0.0164448
946.233	0.0165723
946.311	0.0165372
946.389	0.0163923
946.467	0.0165929
946.545	0.0163759
946.623	0.0163889
946.701	0.0162772
946.780	0.0165300
946.858	0.0165645
946.936	0.0164714
947.014	0.0165748
947.092	0.0165096
947.170	0.0164348
947.248	0.0164130
947.326	0.0164678
947.405	0.0164610
947.483	0.0164619
947.561	0.0165357
947.639	0.0165012
947.717	0.0164169
947.795	0.0163557
947.873	0.0164420
947.951	0.0164404
948.030	0.0164344
948.108	0.0164634
948.186	0.0164993
948.264	0.0164384
948.342	0.0165334
948.420	0.0165202
948.498	0.0164590
948.576	0.0165642
948.655	0.0165751
948.733	0.0165773
948.811	0.0165962
948.889	0.0165493
948.967	0.0165540
949.045	0.0166206
949.123	0.0166309
949.201	0.0166866
949.280	0.0166175
949.358	0.0166671
949.436	0.0165692
949.514	0.0166476
949.592	0.0165673
949.670	0.0166596
949.748	0.0165279
949.826	0.0165417
949.905	0.0166940
949.983	0.0165024
950.061	0.0166709
950.139	0.0166709
950.217	0.0165917
950.295	0.0165347
950.373	0.0166157
950.451	0.0166947
950.530	0.0165645
950.608	0.0165282
950.686	0.0165685
950.764	0.0165353
950.842	0.0165318
950.920	0.0165663
950.998	0.0167107
951.076	0.0166067
951.155	0.0166022
951.233	0.0166035
951.311	0.0166459
951.389	0.0166104
951.467	0.0166431
951.545	0.0166099
951.623	0.0166473
951.701	0.0166090
951.780	0.0167037
951.858	0.0166209
951.936	0.0167243
952.014	0.0166518
952.092	0.0166469
952.170	0.0166396
952.248	0.0167494
952.326	0.0166473
952.405	0.0166106
952.483	0.0166879
952.561	0.0166747
952.639	0.0167883
952.717	0.0167455
952.795	0.0167551
952.873	0.0167561
952.951	0.0166378
953.030	0.0166696
953.108	0.0167038
953.186	0.0167638
953.264	0.0166642
953.342	0.0166014
953.420	0.0166652
953.498	0.0165599
953.576	0.0166880
953.655	0.0167878
953.733	0.0166955
953.811	0.0166169
953.889	0.0166596
953.967	0.0166922
954.045	0.0164965
954.123	0.0165802
954.201	0.0166258
954.280	0.0164969
954.358	0.0165575
954.436	0.0166039
954.514	0.0165145
954.592	0.0164700
954.670	0.0164417
954.748	0.0163443
954.826	0.0164561
954.905	0.0164979
954.983	0.0165026
955.061	0.0164298
955.139	0.0163492
955.217	0.0163159
955.295	0.0164219
955.373	0.0163753
955.451	0.0164930
955.530	0.0163446
955.608	0.0164204
955.686	0.0164181
955.764	0.0164198
955.842	0.0164166
955.920	0.0164439
955.998	0.0163941
956.076	0.0163558
956.155	0.0162415
956.233	0.0163078
956.311	0.0162864
956.389	0.0163455
956.467	0.0163204
956.545	0.0163118
956.623	0.0164141
956.701	0.0162227
956.780	0.0163405
956.858	0.0164019
956.936	0.0162173
957.014	0.0162518
957.092	0.0163846
957.170	0.0163828
957.248	0.0164172
957.326	0.0163690
957.405	0.0162445
957.483	0.0163802
957.561	0.0162648
957.639	0.0163774
957.717	0.0162973
957.795	0.0162934
957.873	0.0163022
957.951	0.0163187
958.030	0.0163124
958.108	0.0161839
958.186	0.0161076
958.264	0.0161712
958.342	0.0163001
958.420	0.0162167
958.498	0.0163100
958.576	0.0162542
958.655	0.0160642
958.733	0.0162215
958.811	0.0163213
958.889	0.0163106
958.967	0.0163805
959.045	0.0164066
959.123	0.0164973
959.201	0.0162505
959.280	0.0163671
959.358	0.0164328
959.436	0.0164904
959.514	0.0165141
959.592	0.0166098
959.670	0.0165060
959.748	0.0165580
959.826	0.0164526
959.905	0.0165520
