05/26/2022	21:10:36	Ver.	4.1	UNKNOWN
Optical Delay	400.036748	Delta X		0.078125	Sweeps	1	Scan Rate	0/0
Coordinates	Axis 1	NaN	Axis 2	NaN	Axis 3	NaN	Axis 4	NaN	Axis 5	NaN	Axis 6	0.000000
TX Power	0.000000	RX Power	0.000000

400.037	0.0158194
400.115	0.0157716
400.193	0.0159050
400.271	0.0157144
400.349	0.0157368
400.427	0.0156910
400.505	0.0156245
400.584	0.0157110
400.662	0.0157798
400.740	0.0159199
400.818	0.0157761
400.896	0.0157616
400.974	0.0158775
401.052	0.0157775
401.130	0.0157391
401.209	0.0158364
401.287	0.0158598
401.365	0.0157717
401.443	0.0157212
401.521	0.0157699
401.599	0.0157607
401.677	0.0158138
401.755	0.0157710
401.834	0.0157972
401.912	0.0158207
401.990	0.0157924
402.068	0.0158012
402.146	0.0156561
402.224	0.0157487
402.302	0.0156433
402.380	0.0157898
402.459	0.0158691
402.537	0.0157509
402.615	0.0156218
402.693	0.0158161
402.771	0.0157254
402.849	0.0156912
402.927	0.0158305
403.005	0.0157739
403.084	0.0156705
403.162	0.0157430
403.240	0.0157472
403.318	0.0156926
403.396	0.0156555
403.474	0.0157991
403.552	0.0157936
403.630	0.0158194
403.709	0.0158098
403.787	0.0156769
403.865	0.0157886
403.943	0.0157774
404.021	0.0157393
404.099	0.0158147
404.177	0.0157202
404.255	0.0156677
404.334	0.0158601
404.412	0.0157403
404.490	0.0158054
404.568	0.0157486
404.646	0.0158189
404.724	0.0158041
404.802	0.0158587
404.880	0.0157249
404.959	0.0158396
405.037	0.0157685
405.115	0.0158827
405.193	0.0157514
405.271	0.0157716
405.349	0.0158457
405.427	0.0157763
405.505	0.0159039
405.584	0.0159547
405.662	0.0156538
405.740	0.0156343
405.818	0.0157704
405.896	0.0156171
405.974	0.0158437
406.052	0.0157810
406.130	0.0157502
406.209	0.0158494
406.287	0.0157976
406.365	0.0158977
406.443	0.0159409
406.521	0.0156813
406.599	0.0158865
406.677	0.0157779
406.755	0.0157256
406.834	0.0157364
406.912	0.0157020
406.990	0.0157491
407.068	0.0157209
407.146	0.0156651
407.224	0.0158478
407.302	0.0157212
407.380	0.0156848
407.459	0.0158273
407.537	0.0155942
407.615	0.0157764
407.693	0.0157189
407.771	0.0157058
407.849	0.0156725
407.927	0.0157324
408.005	0.0158315
408.084	0.0156268
408.162	0.0158189
408.240	0.0158972
408.318	0.0159280
408.396	0.0156654
408.474	0.0157846
408.552	0.0158239
408.630	0.0157637
408.709	0.0157027
408.787	0.0158728
408.865	0.0159335
408.943	0.0157524
409.021	0.0157910
409.099	0.0157292
409.177	0.0156567
409.255	0.0156872
409.334	0.0157342
409.412	0.0157124
409.490	0.0156680
409.568	0.0155675
409.646	0.0158625
409.724	0.0158047
409.802	0.0157976
409.880	0.0157423
409.959	0.0157407
410.037	0.0156936
410.115	0.0157700
410.193	0.0158103
410.271	0.0158922
410.349	0.0158285
410.427	0.0156812
410.505	0.0158273
410.584	0.0158291
410.662	0.0158387
410.740	0.0158058
410.818	0.0159145
410.896	0.0158905
410.974	0.0157923
411.052	0.0157590
411.130	0.0159171
411.209	0.0157961
411.287	0.0156451
411.365	0.0157059
411.443	0.0156959
411.521	0.0158004
411.599	0.0159391
411.677	0.0158234
411.755	0.0157669
411.834	0.0157641
411.912	0.0158850
411.990	0.0158581
412.068	0.0159255
412.146	0.0159547
412.224	0.0157857
412.302	0.0159283
412.380	0.0159091
412.459	0.0158564
412.537	0.0159215
412.615	0.0158707
412.693	0.0159028
412.771	0.0158163
412.849	0.0158931
412.927	0.0158767
413.005	0.0159254
413.084	0.0158428
413.162	0.0158508
413.240	0.0158741
413.318	0.0157317
413.396	0.0158004
413.474	0.0158112
413.552	0.0158466
413.630	0.0159173
413.709	0.0158925
413.787	0.0158535
413.865	0.0158010
413.943	0.0157471
414.021	0.0157412
414.099	0.0158952
414.177	0.0157917
414.255	0.0157826
414.334	0.0158627
414.412	0.0158126
414.490	0.0157332
414.568	0.0157036
414.646	0.0157856
414.724	0.0157502
414.802	0.0157109
414.880	0.0156770
414.959	0.0157205
415.037	0.0157870
415.115	0.0158113
415.193	0.0157313
415.271	0.0156698
415.349	0.0157840
415.427	0.0158445
415.505	0.0157458
415.584	0.0157137
415.662	0.0157426
415.740	0.0157951
415.818	0.0157281
415.896	0.0157234
415.974	0.0159029
416.052	0.0158185
416.130	0.0157842
416.209	0.0156975
416.287	0.0158155
416.365	0.0157611
416.443	0.0159088
416.521	0.0159084
416.599	0.0156670
416.677	0.0158194
416.755	0.0156911
416.834	0.0158098
416.912	0.0158700
416.990	0.0158879
417.068	0.0158324
417.146	0.0158545
417.224	0.0157220
417.302	0.0158326
417.380	0.0158258
417.459	0.0157590
417.537	0.0157343
417.615	0.0157877
417.693	0.0159428
417.771	0.0157587
417.849	0.0157161
417.927	0.0157883
418.005	0.0158789
418.084	0.0156705
418.162	0.0157839
418.240	0.0157572
418.318	0.0158582
418.396	0.0157516
418.474	0.0157346
418.552	0.0157288
418.630	0.0157846
418.709	0.0157479
418.787	0.0157590
418.865	0.0158627
418.943	0.0158927
419.021	0.0157848
419.099	0.0158649
419.177	0.0156937
419.255	0.0157257
419.334	0.0157353
419.412	0.0157561
419.490	0.0157462
419.568	0.0157378
419.646	0.0159473
419.724	0.0156912
419.802	0.0157761
419.880	0.0158994
419.959	0.0157617
420.037	0.0156646
420.115	0.0158923
420.193	0.0157915
420.271	0.0157227
420.349	0.0158070
420.427	0.0157616
420.505	0.0157784
420.584	0.0156728
420.662	0.0158344
420.740	0.0157977
420.818	0.0158209
420.896	0.0157235
420.974	0.0156237
421.052	0.0157028
421.130	0.0158551
421.209	0.0158157
421.287	0.0159322
421.365	0.0157718
421.443	0.0158038
421.521	0.0157923
421.599	0.0157166
421.677	0.0157806
421.755	0.0157515
421.834	0.0157958
421.912	0.0157709
421.990	0.0158706
422.068	0.0157529
422.146	0.0158258
422.224	0.0155991
422.302	0.0157460
422.380	0.0157749
422.459	0.0157837
422.537	0.0157625
422.615	0.0156711
422.693	0.0158285
422.771	0.0156780
422.849	0.0156921
422.927	0.0156734
423.005	0.0156678
423.084	0.0156638
423.162	0.0157615
423.240	0.0158438
423.318	0.0156945
423.396	0.0158904
423.474	0.0157198
423.552	0.0155967
423.630	0.0157475
423.709	0.0157658
423.787	0.0158327
423.865	0.0157074
423.943	0.0158192
424.021	0.0158712
424.099	0.0157011
424.177	0.0158440
424.255	0.0156972
424.334	0.0157330
424.412	0.0157485
424.490	0.0158340
424.568	0.0156644
424.646	0.0158411
424.724	0.0158031
424.802	0.0157777
424.880	0.0157674
424.959	0.0158003
425.037	0.0158727
425.115	0.0158194
425.193	0.0157926
425.271	0.0158099
425.349	0.0158442
425.427	0.0157236
425.505	0.0157344
425.584	0.0157480
425.662	0.0157309
425.740	0.0158231
425.818	0.0159595
425.896	0.0158393
425.974	0.0157417
426.052	0.0158887
426.130	0.0158123
426.209	0.0157779
426.287	0.0157475
426.365	0.0157198
426.443	0.0157248
426.521	0.0157548
426.599	0.0157550
426.677	0.0158097
426.755	0.0157629
426.834	0.0157260
426.912	0.0158312
426.990	0.0158239
427.068	0.0157532
427.146	0.0158200
427.224	0.0158494
427.302	0.0157815
427.380	0.0156907
427.459	0.0157678
427.537	0.0157100
427.615	0.0158134
427.693	0.0157860
427.771	0.0158109
427.849	0.0157915
427.927	0.0157105
428.005	0.0157992
428.084	0.0158098
428.162	0.0159261
428.240	0.0158394
428.318	0.0157472
428.396	0.0157956
428.474	0.0157111
428.552	0.0158552
428.630	0.0158273
428.709	0.0159153
428.787	0.0157080
428.865	0.0157689
428.943	0.0159001
429.021	0.0158118
429.099	0.0157667
429.177	0.0159279
429.255	0.0158364
429.334	0.0158177
429.412	0.0158438
429.490	0.0158317
429.568	0.0158827
429.646	0.0159442
429.724	0.0157933
429.802	0.0156951
429.880	0.0157547
429.959	0.0159784
430.037	0.0158426
430.115	0.0158346
430.193	0.0157574
430.271	0.0158186
430.349	0.0157577
430.427	0.0158223
430.505	0.0159560
430.584	0.0158018
430.662	0.0158632
430.740	0.0158461
430.818	0.0158143
430.896	0.0157476
430.974	0.0157490
431.052	0.0158073
431.130	0.0157430
431.209	0.0157845
431.287	0.0158275
431.365	0.0157584
431.443	0.0156970
431.521	0.0157395
431.599	0.0157092
431.677	0.0157465
431.755	0.0158666
431.834	0.0157613
431.912	0.0156220
431.990	0.0158645
432.068	0.0158824
432.146	0.0157632
432.224	0.0158372
432.302	0.0158731
432.380	0.0158228
432.459	0.0157810
432.537	0.0157169
432.615	0.0158564
432.693	0.0157933
432.771	0.0158720
432.849	0.0158234
432.927	0.0158686
433.005	0.0157961
433.084	0.0157403
433.162	0.0159019
433.240	0.0159889
433.318	0.0158673
433.396	0.0157841
433.474	0.0157953
433.552	0.0157511
433.630	0.0157632
433.709	0.0157863
433.787	0.0157970
433.865	0.0157306
433.943	0.0156794
434.021	0.0159346
434.099	0.0158774
434.177	0.0157244
434.255	0.0158562
434.334	0.0159222
434.412	0.0159034
434.490	0.0158562
434.568	0.0157103
434.646	0.0157000
434.724	0.0159598
434.802	0.0159003
434.880	0.0159805
434.959	0.0157600
435.037	0.0158246
435.115	0.0157676
435.193	0.0159473
435.271	0.0158778
435.349	0.0159264
435.427	0.0158486
435.505	0.0157803
435.584	0.0158330
435.662	0.0158376
435.740	0.0158480
435.818	0.0158933
435.896	0.0158315
435.974	0.0157717
436.052	0.0157687
436.130	0.0158556
436.209	0.0157292
436.287	0.0157561
436.365	0.0157303
436.443	0.0158411
436.521	0.0159024
436.599	0.0157065
436.677	0.0158915
436.755	0.0157490
436.834	0.0157322
436.912	0.0158167
436.990	0.0157853
437.068	0.0158356
437.146	0.0158942
437.224	0.0157758
437.302	0.0158401
437.380	0.0156468
437.459	0.0159306
437.537	0.0158435
437.615	0.0157571
437.693	0.0156900
437.771	0.0157671
437.849	0.0157977
437.927	0.0158247
438.005	0.0158556
438.084	0.0158121
438.162	0.0158406
438.240	0.0157237
438.318	0.0158506
438.396	0.0157272
438.474	0.0158282
438.552	0.0157610
438.630	0.0155553
438.709	0.0157565
438.787	0.0158884
438.865	0.0158287
438.943	0.0157270
439.021	0.0158823
439.099	0.0158698
439.177	0.0157652
439.255	0.0157803
439.334	0.0158106
439.412	0.0159187
439.490	0.0157584
439.568	0.0157882
439.646	0.0158112
439.724	0.0157858
439.802	0.0158886
439.880	0.0157994
439.959	0.0157349
440.037	0.0158566
440.115	0.0157598
440.193	0.0157392
440.271	0.0157819
440.349	0.0157575
440.427	0.0157365
440.505	0.0155920
440.584	0.0158448
440.662	0.0157049
440.740	0.0157784
440.818	0.0157354
440.896	0.0158799
440.974	0.0158030
441.052	0.0157233
441.130	0.0156924
441.209	0.0156839
441.287	0.0158549
441.365	0.0156791
441.443	0.0156888
441.521	0.0156639
441.599	0.0157469
441.677	0.0156612
441.755	0.0158109
441.834	0.0158159
441.912	0.0157659
441.990	0.0156154
442.068	0.0158479
442.146	0.0158536
442.224	0.0158585
442.302	0.0157742
442.380	0.0158276
442.459	0.0158258
442.537	0.0156904
442.615	0.0157145
442.693	0.0159322
442.771	0.0158880
442.849	0.0158546
442.927	0.0157812
443.005	0.0157450
443.084	0.0158910
443.162	0.0157002
443.240	0.0157648
443.318	0.0157497
443.396	0.0157401
443.474	0.0158758
443.552	0.0159158
443.630	0.0157912
443.709	0.0157096
443.787	0.0158661
443.865	0.0157192
443.943	0.0157686
444.021	0.0158469
444.099	0.0156940
444.177	0.0158834
444.255	0.0157890
444.334	0.0158529
444.412	0.0158244
444.490	0.0157987
444.568	0.0157014
444.646	0.0157765
444.724	0.0158701
444.802	0.0156966
444.880	0.0158631
444.959	0.0158012
445.037	0.0157266
445.115	0.0157873
445.193	0.0157652
445.271	0.0157578
445.349	0.0157801
445.427	0.0157090
445.505	0.0157539
445.584	0.0158720
445.662	0.0158468
445.740	0.0157597
445.818	0.0158708
445.896	0.0157835
445.974	0.0157175
446.052	0.0155743
446.130	0.0157664
446.209	0.0159312
446.287	0.0157994
446.365	0.0158096
446.443	0.0157869
446.521	0.0157725
446.599	0.0157556
446.677	0.0158754
446.755	0.0157761
446.834	0.0158058
446.912	0.0157147
446.990	0.0157764
447.068	0.0157873
447.146	0.0158762
447.224	0.0158012
447.302	0.0158472
447.380	0.0157140
447.459	0.0159013
447.537	0.0158717
447.615	0.0158255
447.693	0.0158186
447.771	0.0157637
447.849	0.0158575
447.927	0.0156923
448.005	0.0159334
448.084	0.0157858
448.162	0.0157180
448.240	0.0157609
448.318	0.0158434
448.396	0.0159306
448.474	0.0157830
448.552	0.0158104
448.630	0.0158123
448.709	0.0157482
448.787	0.0157983
448.865	0.0157006
448.943	0.0159032
449.021	0.0159896
449.099	0.0157925
449.177	0.0156190
449.255	0.0158768
449.334	0.0157443
449.412	0.0156488
449.490	0.0159684
449.568	0.0159042
449.646	0.0158014
449.724	0.0157285
449.802	0.0159519
449.880	0.0158335
449.959	0.0157828
450.037	0.0158439
450.115	0.0157345
450.193	0.0157668
450.271	0.0157974
450.349	0.0158202
450.427	0.0158156
450.505	0.0158831
450.584	0.0158810
450.662	0.0156873
450.740	0.0157045
450.818	0.0158209
450.896	0.0157552
450.974	0.0157484
451.052	0.0157146
451.130	0.0157319
451.209	0.0157706
451.287	0.0158050
451.365	0.0158790
451.443	0.0158120
451.521	0.0157974
451.599	0.0156932
451.677	0.0158623
451.755	0.0158237
451.834	0.0157042
451.912	0.0156052
451.990	0.0157257
452.068	0.0157169
452.146	0.0158807
452.224	0.0158100
452.302	0.0156487
452.380	0.0157600
452.459	0.0159286
452.537	0.0158494
452.615	0.0158469
452.693	0.0156683
452.771	0.0157619
452.849	0.0158023
452.927	0.0158801
453.005	0.0158350
453.084	0.0158097
453.162	0.0157139
453.240	0.0158180
453.318	0.0157307
453.396	0.0157452
453.474	0.0157536
453.552	0.0157826
453.630	0.0158806
453.709	0.0157624
453.787	0.0158325
453.865	0.0157502
453.943	0.0157477
454.021	0.0158585
454.099	0.0157225
454.177	0.0157246
454.255	0.0156722
454.334	0.0157570
454.412	0.0159248
454.490	0.0158625
454.568	0.0157915
454.646	0.0157614
454.724	0.0158725
454.802	0.0157909
454.880	0.0158224
454.959	0.0159140
455.037	0.0157614
455.115	0.0158125
455.193	0.0158524
455.271	0.0157332
455.349	0.0157075
455.427	0.0156178
455.505	0.0157068
455.584	0.0157903
455.662	0.0158532
455.740	0.0158607
455.818	0.0157591
455.896	0.0159003
455.974	0.0158886
456.052	0.0158514
456.130	0.0158224
456.209	0.0157439
456.287	0.0159404
456.365	0.0158802
456.443	0.0156363
456.521	0.0158288
456.599	0.0158437
456.677	0.0158467
456.755	0.0158514
456.834	0.0158018
456.912	0.0158239
456.990	0.0157270
457.068	0.0158173
457.146	0.0158324
457.224	0.0157209
457.302	0.0156915
457.380	0.0157195
457.459	0.0157355
457.537	0.0157247
457.615	0.0158377
457.693	0.0157287
457.771	0.0157335
457.849	0.0158416
457.927	0.0159146
458.005	0.0158997
458.084	0.0157421
458.162	0.0156878
458.240	0.0158450
458.318	0.0158041
458.396	0.0158113
458.474	0.0156963
458.552	0.0158341
458.630	0.0157877
458.709	0.0159106
458.787	0.0158035
458.865	0.0158099
458.943	0.0157955
459.021	0.0159296
459.099	0.0158070
459.177	0.0159032
459.255	0.0158157
459.334	0.0158754
459.412	0.0158224
459.490	0.0158933
459.568	0.0159204
459.646	0.0157661
459.724	0.0156921
459.802	0.0158397
459.880	0.0158829
459.959	0.0157478
460.037	0.0158831
460.115	0.0157391
460.193	0.0158241
460.271	0.0156810
460.349	0.0158069
460.427	0.0158810
460.505	0.0159497
460.584	0.0158310
460.662	0.0159186
460.740	0.0158226
460.818	0.0158435
460.896	0.0158636
460.974	0.0158047
461.052	0.0157878
461.130	0.0158524
461.209	0.0158024
461.287	0.0156689
461.365	0.0159328
461.443	0.0158807
461.521	0.0158140
461.599	0.0158231
461.677	0.0157648
461.755	0.0157697
461.834	0.0157836
461.912	0.0156702
461.990	0.0158543
462.068	0.0157806
462.146	0.0157427
462.224	0.0158825
462.302	0.0159055
462.380	0.0157436
462.459	0.0158989
462.537	0.0157770
462.615	0.0156849
462.693	0.0156702
462.771	0.0157797
462.849	0.0157855
462.927	0.0156869
463.005	0.0158493
463.084	0.0157317
463.162	0.0158478
463.240	0.0157887
463.318	0.0157739
463.396	0.0157798
463.474	0.0158330
463.552	0.0158944
463.630	0.0157654
463.709	0.0157574
463.787	0.0158530
463.865	0.0156881
463.943	0.0158102
464.021	0.0159600
464.099	0.0156279
464.177	0.0157483
464.255	0.0158041
464.334	0.0157951
464.412	0.0156686
464.490	0.0157236
464.568	0.0157935
464.646	0.0157791
464.724	0.0157848
464.802	0.0158936
464.880	0.0156784
464.959	0.0157232
465.037	0.0156949
465.115	0.0158259
465.193	0.0158685
465.271	0.0157014
465.349	0.0158611
465.427	0.0157011
465.505	0.0157141
465.584	0.0158507
465.662	0.0157230
465.740	0.0157163
465.818	0.0157909
465.896	0.0158291
465.974	0.0156934
466.052	0.0155751
466.130	0.0157732
466.209	0.0156402
466.287	0.0157440
466.365	0.0156963
466.443	0.0156732
466.521	0.0157175
466.599	0.0156694
466.677	0.0157926
466.755	0.0158338
466.834	0.0156541
466.912	0.0156687
466.990	0.0157352
467.068	0.0158744
467.146	0.0156651
467.224	0.0156530
467.302	0.0158062
467.380	0.0156113
467.459	0.0158007
467.537	0.0158475
467.615	0.0157439
467.693	0.0157545
467.771	0.0158182
467.849	0.0158064
467.927	0.0156436
468.005	0.0158749
468.084	0.0157250
468.162	0.0158314
468.240	0.0156476
468.318	0.0157960
468.396	0.0158065
468.474	0.0157701
468.552	0.0157499
468.630	0.0156696
468.709	0.0158060
468.787	0.0158578
468.865	0.0156352
468.943	0.0158678
469.021	0.0156873
469.099	0.0158163
469.177	0.0157426
469.255	0.0158126
469.334	0.0158283
469.412	0.0159031
469.490	0.0157918
469.568	0.0156820
469.646	0.0157943
469.724	0.0156503
469.802	0.0157428
469.880	0.0157402
469.959	0.0158665
470.037	0.0158865
470.115	0.0157823
470.193	0.0158598
470.271	0.0158584
470.349	0.0158314
470.427	0.0157482
470.505	0.0158173
470.584	0.0158848
470.662	0.0157706
470.740	0.0157468
470.818	0.0158194
470.896	0.0158541
470.974	0.0157730
471.052	0.0157073
471.130	0.0157155
471.209	0.0157283
471.287	0.0158499
471.365	0.0158208
471.443	0.0158240
471.521	0.0156993
471.599	0.0156780
471.677	0.0156361
471.755	0.0157819
471.834	0.0156820
471.912	0.0159193
471.990	0.0157422
472.068	0.0156660
472.146	0.0157529
472.224	0.0158681
472.302	0.0156680
472.380	0.0157589
472.459	0.0157555
472.537	0.0157970
472.615	0.0157267
472.693	0.0157114
472.771	0.0156306
472.849	0.0157456
472.927	0.0158336
473.005	0.0157116
473.084	0.0157018
473.162	0.0156911
473.240	0.0157361
473.318	0.0157747
473.396	0.0157775
473.474	0.0157983
473.552	0.0157604
473.630	0.0156767
473.709	0.0156211
473.787	0.0157851
473.865	0.0158395
473.943	0.0157281
474.021	0.0156757
474.099	0.0159937
474.177	0.0159615
474.255	0.0158845
474.334	0.0158359
474.412	0.0157431
474.490	0.0156511
474.568	0.0158210
474.646	0.0157855
474.724	0.0156589
474.802	0.0156682
474.880	0.0157684
474.959	0.0156782
475.037	0.0157708
475.115	0.0158450
475.193	0.0156123
475.271	0.0158318
475.349	0.0157237
475.427	0.0156981
475.505	0.0158463
475.584	0.0158163
475.662	0.0158069
475.740	0.0156561
475.818	0.0157655
475.896	0.0157729
475.974	0.0158431
476.052	0.0157840
476.130	0.0157927
476.209	0.0157801
476.287	0.0156915
476.365	0.0157543
476.443	0.0158024
476.521	0.0158937
476.599	0.0158595
476.677	0.0157867
476.755	0.0157944
476.834	0.0158321
476.912	0.0158300
476.990	0.0157247
477.068	0.0157803
477.146	0.0157430
477.224	0.0157330
477.302	0.0158775
477.380	0.0157586
477.459	0.0158682
477.537	0.0157472
477.615	0.0156821
477.693	0.0158254
477.771	0.0157403
477.849	0.0156210
477.927	0.0158060
478.005	0.0157296
478.084	0.0156567
478.162	0.0157930
478.240	0.0156725
478.318	0.0156840
478.396	0.0156904
478.474	0.0156596
478.552	0.0156468
478.630	0.0157548
478.709	0.0157854
478.787	0.0157539
478.865	0.0157855
478.943	0.0157213
479.021	0.0158094
479.099	0.0158686
479.177	0.0157787
479.255	0.0157319
479.334	0.0157568
479.412	0.0157549
479.490	0.0157336
479.568	0.0157241
479.646	0.0157500
479.724	0.0158235
479.802	0.0157860
479.880	0.0158076
479.959	0.0158480
480.037	0.0157869
480.115	0.0156950
480.193	0.0158466
480.271	0.0158133
480.349	0.0157246
480.427	0.0157349
480.505	0.0157642
480.584	0.0157187
480.662	0.0158078
480.740	0.0157796
480.818	0.0158600
480.896	0.0157908
480.974	0.0158285
481.052	0.0158379
481.130	0.0156898
481.209	0.0155772
481.287	0.0158081
481.365	0.0159785
481.443	0.0157504
481.521	0.0157035
481.599	0.0157696
481.677	0.0157726
481.755	0.0156641
481.834	0.0157681
481.912	0.0158287
481.990	0.0158594
482.068	0.0157630
482.146	0.0157192
482.224	0.0159029
482.302	0.0158384
482.380	0.0158250
482.459	0.0156497
482.537	0.0156706
482.615	0.0157517
482.693	0.0156657
482.771	0.0157526
482.849	0.0158091
482.927	0.0157069
483.005	0.0157491
483.084	0.0157128
483.162	0.0158250
483.240	0.0156344
483.318	0.0156860
483.396	0.0158462
483.474	0.0158102
483.552	0.0158067
483.630	0.0158200
483.709	0.0157644
483.787	0.0157914
483.865	0.0156905
483.943	0.0158380
484.021	0.0157574
484.099	0.0156734
484.177	0.0157807
484.255	0.0158501
484.334	0.0157671
484.412	0.0158118
484.490	0.0158144
484.568	0.0157603
484.646	0.0158463
484.724	0.0158982
484.802	0.0159549
484.880	0.0157330
484.959	0.0157343
485.037	0.0158027
485.115	0.0157615
485.193	0.0158974
485.271	0.0157756
485.349	0.0156958
485.427	0.0157993
485.505	0.0156362
485.584	0.0157508
485.662	0.0159605
485.740	0.0158126
485.818	0.0158040
485.896	0.0158509
485.974	0.0157976
486.052	0.0158467
486.130	0.0157441
486.209	0.0158633
486.287	0.0159266
486.365	0.0157722
486.443	0.0158241
486.521	0.0157891
486.599	0.0158087
486.677	0.0158527
486.755	0.0157872
486.834	0.0157222
486.912	0.0157526
486.990	0.0157539
487.068	0.0159175
487.146	0.0157967
487.224	0.0157812
487.302	0.0159600
487.380	0.0158795
487.459	0.0156370
487.537	0.0157383
487.615	0.0157076
487.693	0.0157263
487.771	0.0158213
487.849	0.0158026
487.927	0.0157592
488.005	0.0157798
488.084	0.0157230
488.162	0.0157063
488.240	0.0157211
488.318	0.0157814
488.396	0.0156701
488.474	0.0157247
488.552	0.0157317
488.630	0.0157175
488.709	0.0156649
488.787	0.0155865
488.865	0.0157193
488.943	0.0157886
489.021	0.0157252
489.099	0.0156841
489.177	0.0158291
489.255	0.0156259
489.334	0.0157625
489.412	0.0156310
489.490	0.0156143
489.568	0.0158308
489.646	0.0156883
489.724	0.0158244
489.802	0.0157387
489.880	0.0157452
489.959	0.0158331
490.037	0.0157771
490.115	0.0157152
490.193	0.0157224
490.271	0.0157368
490.349	0.0157816
490.427	0.0157599
490.505	0.0157986
490.584	0.0157686
490.662	0.0158590
490.740	0.0156768
490.818	0.0157870
490.896	0.0157899
490.974	0.0157236
491.052	0.0157969
491.130	0.0156913
491.209	0.0156876
491.287	0.0158904
491.365	0.0156223
491.443	0.0156429
491.521	0.0158549
491.599	0.0158624
491.677	0.0158389
491.755	0.0158401
491.834	0.0158273
491.912	0.0157085
491.990	0.0158178
492.068	0.0157356
492.146	0.0157617
492.224	0.0156728
492.302	0.0158489
492.380	0.0158432
492.459	0.0157880
492.537	0.0157571
492.615	0.0158389
492.693	0.0158918
492.771	0.0156206
492.849	0.0157424
492.927	0.0158410
493.005	0.0157460
493.084	0.0158098
493.162	0.0158089
493.240	0.0159339
493.318	0.0157789
493.396	0.0158836
493.474	0.0158467
493.552	0.0158177
493.630	0.0159391
493.709	0.0158179
493.787	0.0156786
493.865	0.0156933
493.943	0.0158025
494.021	0.0156609
494.099	0.0158149
494.177	0.0156980
494.255	0.0158657
494.334	0.0159029
494.412	0.0157512
494.490	0.0159023
494.568	0.0157619
494.646	0.0156833
494.724	0.0157459
494.802	0.0158238
494.880	0.0157473
494.959	0.0156762
495.037	0.0156705
495.115	0.0157697
495.193	0.0156927
495.271	0.0158553
495.349	0.0156928
495.427	0.0158337
495.505	0.0157594
495.584	0.0157179
495.662	0.0156932
495.740	0.0157640
495.818	0.0156682
495.896	0.0158038
495.974	0.0158261
496.052	0.0157083
496.130	0.0157417
496.209	0.0157990
496.287	0.0157411
496.365	0.0156660
496.443	0.0156491
496.521	0.0156188
496.599	0.0157016
496.677	0.0157204
496.755	0.0157114
496.834	0.0156842
496.912	0.0156416
496.990	0.0157995
497.068	0.0157427
497.146	0.0157964
497.224	0.0157321
497.302	0.0157288
497.380	0.0157207
497.459	0.0156573
497.537	0.0156025
497.615	0.0157694
497.693	0.0156963
497.771	0.0157381
497.849	0.0156180
497.927	0.0157645
498.005	0.0157540
498.084	0.0157466
498.162	0.0156762
498.240	0.0157278
498.318	0.0156626
498.396	0.0158432
498.474	0.0158636
498.552	0.0156348
498.630	0.0156088
498.709	0.0157485
498.787	0.0158373
498.865	0.0156979
498.943	0.0156755
499.021	0.0157326
499.099	0.0156709
499.177	0.0157462
499.255	0.0157437
499.334	0.0158311
499.412	0.0155135
499.490	0.0157879
499.568	0.0158240
499.646	0.0156239
499.724	0.0158710
499.802	0.0156721
499.880	0.0158331
499.959	0.0157352
500.037	0.0157504
500.115	0.0156949
500.193	0.0157676
500.271	0.0156577
500.349	0.0156714
500.427	0.0159009
500.505	0.0158688
500.584	0.0157314
500.662	0.0158691
500.740	0.0158533
500.818	0.0158076
500.896	0.0157942
500.974	0.0157436
501.052	0.0157211
501.130	0.0157856
501.209	0.0158938
501.287	0.0159393
501.365	0.0157841
501.443	0.0158925
501.521	0.0158158
501.599	0.0160175
501.677	0.0159000
501.755	0.0158208
501.834	0.0157903
501.912	0.0158854
501.990	0.0159393
502.068	0.0158741
502.146	0.0158792
502.224	0.0158591
502.302	0.0158281
502.380	0.0158222
502.459	0.0158170
502.537	0.0158998
502.615	0.0159106
502.693	0.0158601
502.771	0.0158469
502.849	0.0158093
502.927	0.0158459
503.005	0.0158205
503.084	0.0158144
503.162	0.0158295
503.240	0.0157864
503.318	0.0157087
503.396	0.0158523
503.474	0.0158350
503.552	0.0158945
503.630	0.0158315
503.709	0.0157700
503.787	0.0157990
503.865	0.0157671
503.943	0.0158414
504.021	0.0158248
504.099	0.0156597
504.177	0.0157875
504.255	0.0157452
504.334	0.0158787
504.412	0.0158142
504.490	0.0158324
504.568	0.0157111
504.646	0.0156563
504.724	0.0157456
504.802	0.0156544
504.880	0.0157552
504.959	0.0157481
505.037	0.0159044
505.115	0.0157389
505.193	0.0158169
505.271	0.0157761
505.349	0.0158093
505.427	0.0158303
505.505	0.0158469
505.584	0.0158476
505.662	0.0158658
505.740	0.0157909
505.818	0.0156982
505.896	0.0159521
505.974	0.0157558
506.052	0.0158670
506.130	0.0158768
506.209	0.0158143
506.287	0.0157278
506.365	0.0158144
506.443	0.0157585
506.521	0.0157661
506.599	0.0157415
506.677	0.0159106
506.755	0.0158303
506.834	0.0158964
506.912	0.0157668
506.990	0.0157416
507.068	0.0157709
507.146	0.0157610
507.224	0.0157110
507.302	0.0157509
507.380	0.0157967
507.459	0.0157667
507.537	0.0158070
507.615	0.0158758
507.693	0.0159023
507.771	0.0156397
507.849	0.0157619
507.927	0.0157000
508.005	0.0157410
508.084	0.0157932
508.162	0.0158121
508.240	0.0157242
508.318	0.0158047
508.396	0.0158321
508.474	0.0157543
508.552	0.0157076
508.630	0.0158517
508.709	0.0158629
508.787	0.0157162
508.865	0.0156945
508.943	0.0157125
509.021	0.0156463
509.099	0.0157635
509.177	0.0156952
509.255	0.0156408
509.334	0.0157804
509.412	0.0157279
509.490	0.0156871
509.568	0.0157671
509.646	0.0156174
509.724	0.0157303
509.802	0.0158615
509.880	0.0156490
509.959	0.0156280
510.037	0.0156508
510.115	0.0157287
510.193	0.0156382
510.271	0.0156625
510.349	0.0157677
510.427	0.0157629
510.505	0.0156861
510.584	0.0157833
510.662	0.0156963
510.740	0.0156847
510.818	0.0158141
510.896	0.0157294
510.974	0.0156409
511.052	0.0156113
511.130	0.0157735
511.209	0.0157182
511.287	0.0155480
511.365	0.0156657
511.443	0.0157206
511.521	0.0156110
511.599	0.0156232
511.677	0.0158347
511.755	0.0158743
511.834	0.0157085
511.912	0.0156799
511.990	0.0156236
512.068	0.0157967
512.146	0.0157080
512.224	0.0157001
512.302	0.0156939
512.380	0.0157325
512.459	0.0158047
512.537	0.0157510
512.615	0.0158304
512.693	0.0158219
512.771	0.0158540
512.849	0.0157910
512.927	0.0158509
513.005	0.0156732
513.084	0.0158595
513.162	0.0156575
513.240	0.0158124
513.318	0.0157863
513.396	0.0156454
513.474	0.0156882
513.552	0.0156746
513.630	0.0158032
513.709	0.0158797
513.787	0.0156675
513.865	0.0157697
513.943	0.0158093
514.021	0.0158409
514.099	0.0158077
514.177	0.0157960
514.255	0.0156567
514.334	0.0156934
514.412	0.0157751
514.490	0.0158089
514.568	0.0156419
514.646	0.0158768
514.724	0.0156734
514.802	0.0157862
514.880	0.0157475
514.959	0.0156596
515.037	0.0157292
515.115	0.0158861
515.193	0.0156799
515.271	0.0158804
515.349	0.0158813
515.427	0.0157333
515.505	0.0157569
515.584	0.0158088
515.662	0.0157683
515.740	0.0159659
515.818	0.0157774
515.896	0.0157453
515.974	0.0157780
516.052	0.0157510
516.130	0.0156739
516.209	0.0158018
516.287	0.0158280
516.365	0.0158052
516.443	0.0157213
516.521	0.0158105
516.599	0.0157383
516.677	0.0158749
516.755	0.0156773
516.834	0.0156004
516.912	0.0157234
516.990	0.0158375
517.068	0.0156941
517.146	0.0157079
517.224	0.0157804
517.302	0.0158469
517.380	0.0156510
517.459	0.0156373
517.537	0.0157238
517.615	0.0157920
517.693	0.0157717
517.771	0.0157627
517.849	0.0157231
517.927	0.0157459
518.005	0.0156960
518.084	0.0157661
518.162	0.0157603
518.240	0.0158656
518.318	0.0157417
518.396	0.0156603
518.474	0.0157362
518.552	0.0157166
518.630	0.0157041
518.709	0.0156742
518.787	0.0156979
518.865	0.0156160
518.943	0.0157149
519.021	0.0156375
519.099	0.0157099
519.177	0.0158530
519.255	0.0157408
519.334	0.0157733
519.412	0.0157195
519.490	0.0157253
519.568	0.0157289
519.646	0.0155293
519.724	0.0158229
519.802	0.0158720
519.880	0.0156845
519.959	0.0156535
520.037	0.0156988
520.115	0.0157056
520.193	0.0156511
520.271	0.0156330
520.349	0.0156492
520.427	0.0157059
520.505	0.0157653
520.584	0.0156529
520.662	0.0155354
520.740	0.0157790
520.818	0.0158032
520.896	0.0156538
520.974	0.0157063
521.052	0.0157094
521.130	0.0157796
521.209	0.0157287
521.287	0.0157573
521.365	0.0156727
521.443	0.0157467
521.521	0.0158405
521.599	0.0157520
521.677	0.0156514
521.755	0.0156478
521.834	0.0157056
521.912	0.0157613
521.990	0.0157668
522.068	0.0157294
522.146	0.0157410
522.224	0.0156293
522.302	0.0157368
522.380	0.0157475
522.459	0.0157647
522.537	0.0157247
522.615	0.0157691
522.693	0.0156953
522.771	0.0157101
522.849	0.0158549
522.927	0.0158672
523.005	0.0158910
523.084	0.0157021
523.162	0.0156364
523.240	0.0158365
523.318	0.0157872
523.396	0.0156445
523.474	0.0158876
523.552	0.0158784
523.630	0.0157732
523.709	0.0157478
523.787	0.0157681
523.865	0.0158186
523.943	0.0158278
524.021	0.0157505
524.099	0.0156525
524.177	0.0157140
524.255	0.0159560
524.334	0.0157310
524.412	0.0157175
524.490	0.0158055
524.568	0.0157153
524.646	0.0158512
524.724	0.0157795
524.802	0.0157578
524.880	0.0157931
524.959	0.0158630
525.037	0.0158021
525.115	0.0157417
525.193	0.0157430
525.271	0.0157813
525.349	0.0157272
525.427	0.0157770
525.505	0.0157745
525.584	0.0157305
525.662	0.0157307
525.740	0.0156369
525.818	0.0158855
525.896	0.0157531
525.974	0.0156207
526.052	0.0157327
526.130	0.0158117
526.209	0.0158592
526.287	0.0157668
526.365	0.0158219
526.443	0.0157066
526.521	0.0157122
526.599	0.0158365
526.677	0.0159175
526.755	0.0157596
526.834	0.0157156
526.912	0.0158208
526.990	0.0157588
527.068	0.0156971
527.146	0.0156613
527.224	0.0155776
527.302	0.0156581
527.380	0.0158547
527.459	0.0158310
527.537	0.0156609
527.615	0.0157770
527.693	0.0156822
527.771	0.0158059
527.849	0.0157813
527.927	0.0157342
528.005	0.0157009
528.084	0.0157800
528.162	0.0158823
528.240	0.0157988
528.318	0.0157247
528.396	0.0157289
528.474	0.0156738
528.552	0.0156599
528.630	0.0157661
528.709	0.0157532
528.787	0.0157961
528.865	0.0157293
528.943	0.0159022
529.021	0.0158229
529.099	0.0157660
529.177	0.0158343
529.255	0.0158519
529.334	0.0155885
529.412	0.0157558
529.490	0.0157980
529.568	0.0157239
529.646	0.0158640
529.724	0.0157133
529.802	0.0156892
529.880	0.0158357
529.959	0.0158083
530.037	0.0158784
530.115	0.0157949
530.193	0.0157758
530.271	0.0156625
530.349	0.0157713
530.427	0.0159812
530.505	0.0158428
530.584	0.0158284
530.662	0.0156708
530.740	0.0157011
530.818	0.0157894
530.896	0.0158313
530.974	0.0156827
531.052	0.0158123
531.130	0.0158858
531.209	0.0157569
531.287	0.0157145
531.365	0.0158514
531.443	0.0158274
531.521	0.0157648
531.599	0.0158563
531.677	0.0158317
531.755	0.0158559
531.834	0.0158421
531.912	0.0157650
531.990	0.0156612
532.068	0.0156435
532.146	0.0159328
532.224	0.0160088
532.302	0.0157832
532.380	0.0157701
532.459	0.0157859
532.537	0.0158545
532.615	0.0158484
532.693	0.0158553
532.771	0.0158088
532.849	0.0156933
532.927	0.0156499
533.005	0.0157358
533.084	0.0156519
533.162	0.0156364
533.240	0.0156512
533.318	0.0158660
533.396	0.0158454
533.474	0.0159103
533.552	0.0157709
533.630	0.0157402
533.709	0.0156891
533.787	0.0157424
533.865	0.0157079
533.943	0.0158254
534.021	0.0157555
534.099	0.0156219
534.177	0.0156986
534.255	0.0157274
534.334	0.0157986
534.412	0.0156976
534.490	0.0157374
534.568	0.0157517
534.646	0.0158115
534.724	0.0157484
534.802	0.0157661
534.880	0.0158588
534.959	0.0158753
535.037	0.0156929
535.115	0.0156777
535.193	0.0156844
535.271	0.0156648
535.349	0.0157568
535.427	0.0157012
535.505	0.0158456
535.584	0.0155949
535.662	0.0155734
535.740	0.0157423
535.818	0.0156728
535.896	0.0158639
535.974	0.0157076
536.052	0.0157142
536.130	0.0156769
536.209	0.0157374
536.287	0.0157647
536.365	0.0157198
536.443	0.0157948
536.521	0.0157505
536.599	0.0158057
536.677	0.0158240
536.755	0.0157716
536.834	0.0157732
536.912	0.0156754
536.990	0.0158916
537.068	0.0158612
537.146	0.0157262
537.224	0.0157152
537.302	0.0157664
537.380	0.0158202
537.459	0.0157565
537.537	0.0157058
537.615	0.0158360
537.693	0.0157570
537.771	0.0157809
537.849	0.0156857
537.927	0.0157164
538.005	0.0157924
538.084	0.0156289
538.162	0.0156987
538.240	0.0157156
538.318	0.0156544
538.396	0.0158607
538.474	0.0157350
538.552	0.0156436
538.630	0.0157302
538.709	0.0156793
538.787	0.0157292
538.865	0.0158569
538.943	0.0157537
539.021	0.0156179
539.099	0.0156853
539.177	0.0157277
539.255	0.0157429
539.334	0.0157441
539.412	0.0155897
539.490	0.0155178
539.568	0.0157613
539.646	0.0157923
539.724	0.0157339
539.802	0.0158254
539.880	0.0157619
539.959	0.0157522
540.037	0.0156657
540.115	0.0158134
540.193	0.0158228
540.271	0.0158604
540.349	0.0156704
540.427	0.0156635
540.505	0.0158965
540.584	0.0157491
540.662	0.0157777
540.740	0.0158355
540.818	0.0158125
540.896	0.0157057
540.974	0.0158540
541.052	0.0157073
541.130	0.0157573
541.209	0.0158594
541.287	0.0156973
541.365	0.0158604
541.443	0.0157583
541.521	0.0159290
541.599	0.0158999
541.677	0.0159106
541.755	0.0158413
541.834	0.0157178
541.912	0.0156657
541.990	0.0157677
542.068	0.0157854
542.146	0.0160238
542.224	0.0159213
542.302	0.0158006
542.380	0.0158267
542.459	0.0158512
542.537	0.0157816
542.615	0.0157881
542.693	0.0158018
542.771	0.0157764
542.849	0.0158643
542.927	0.0158640
543.005	0.0159803
543.084	0.0159162
543.162	0.0159107
543.240	0.0158851
543.318	0.0157916
543.396	0.0158565
543.474	0.0159583
543.552	0.0158317
543.630	0.0158664
543.709	0.0158294
543.787	0.0158756
543.865	0.0157280
543.943	0.0157804
544.021	0.0157413
544.099	0.0157415
544.177	0.0158040
544.255	0.0156879
544.334	0.0157779
544.412	0.0159493
544.490	0.0157580
544.568	0.0157590
544.646	0.0159053
544.724	0.0157029
544.802	0.0157968
544.880	0.0157526
544.959	0.0158129
545.037	0.0157441
545.115	0.0156623
545.193	0.0158535
545.271	0.0158978
545.349	0.0157607
545.427	0.0157231
545.505	0.0157876
545.584	0.0157512
545.662	0.0157552
545.740	0.0158239
545.818	0.0158875
545.896	0.0157808
545.974	0.0156333
546.052	0.0156711
546.130	0.0157304
546.209	0.0158019
546.287	0.0157788
546.365	0.0157386
546.443	0.0156969
546.521	0.0157049
546.599	0.0157980
546.677	0.0157500
546.755	0.0157378
546.834	0.0157494
546.912	0.0156744
546.990	0.0157583
547.068	0.0157503
547.146	0.0159013
547.224	0.0156822
547.302	0.0155787
547.380	0.0156049
547.459	0.0157514
547.537	0.0157465
547.615	0.0157109
547.693	0.0158380
547.771	0.0158766
547.849	0.0157960
547.927	0.0156071
548.005	0.0156504
548.084	0.0156606
548.162	0.0156977
548.240	0.0156322
548.318	0.0155762
548.396	0.0158140
548.474	0.0158466
548.552	0.0157224
548.630	0.0158830
548.709	0.0158259
548.787	0.0157511
548.865	0.0157484
548.943	0.0158008
549.021	0.0157745
549.099	0.0159020
549.177	0.0157401
549.255	0.0157637
549.334	0.0157569
549.412	0.0158154
549.490	0.0157735
549.568	0.0158881
549.646	0.0158208
549.724	0.0158692
549.802	0.0158366
549.880	0.0157955
549.959	0.0158978
550.037	0.0158858
550.115	0.0158773
550.193	0.0158118
550.271	0.0156863
550.349	0.0158330
550.427	0.0160128
550.505	0.0158678
550.584	0.0158916
550.662	0.0159518
550.740	0.0158057
550.818	0.0158188
550.896	0.0157275
550.974	0.0158141
551.052	0.0159901
551.130	0.0158966
551.209	0.0158788
551.287	0.0158264
551.365	0.0158604
551.443	0.0157478
551.521	0.0158304
551.599	0.0158048
551.677	0.0157930
551.755	0.0156981
551.834	0.0158895
551.912	0.0159472
551.990	0.0157790
552.068	0.0158410
552.146	0.0156665
552.224	0.0158308
552.302	0.0158884
552.380	0.0157591
552.459	0.0156786
552.537	0.0158308
552.615	0.0157716
552.693	0.0157596
552.771	0.0158094
552.849	0.0157846
552.927	0.0157273
553.005	0.0158106
553.084	0.0157588
553.162	0.0158685
553.240	0.0158247
553.318	0.0155997
553.396	0.0157325
553.474	0.0158827
553.552	0.0158412
553.630	0.0157936
553.709	0.0158524
553.787	0.0156863
553.865	0.0159423
553.943	0.0158862
554.021	0.0157429
554.099	0.0159706
554.177	0.0158076
554.255	0.0157223
554.334	0.0158011
554.412	0.0157669
554.490	0.0156560
554.568	0.0157973
554.646	0.0157841
554.724	0.0157243
554.802	0.0157939
554.880	0.0157195
554.959	0.0157380
555.037	0.0157639
555.115	0.0158035
555.193	0.0157560
555.271	0.0157452
555.349	0.0157500
555.427	0.0156493
555.505	0.0157677
555.584	0.0158385
555.662	0.0159541
555.740	0.0156694
555.818	0.0158756
555.896	0.0158486
555.974	0.0158159
556.052	0.0157276
556.130	0.0158837
556.209	0.0157074
556.287	0.0157735
556.365	0.0157715
556.443	0.0156718
556.521	0.0159000
556.599	0.0158645
556.677	0.0157750
556.755	0.0159085
556.834	0.0159309
556.912	0.0157662
556.990	0.0157240
557.068	0.0159299
557.146	0.0158557
557.224	0.0158862
557.302	0.0158891
557.380	0.0158885
557.459	0.0158679
557.537	0.0157645
557.615	0.0159347
557.693	0.0160179
557.771	0.0158270
557.849	0.0157354
557.927	0.0158847
558.005	0.0157877
558.084	0.0157121
558.162	0.0157980
558.240	0.0158736
558.318	0.0158216
558.396	0.0158059
558.474	0.0158370
558.552	0.0158576
558.630	0.0157922
558.709	0.0157634
558.787	0.0157600
558.865	0.0158820
558.943	0.0158862
559.021	0.0156494
559.099	0.0157689
559.177	0.0159414
559.255	0.0157509
559.334	0.0157584
559.412	0.0156734
559.490	0.0157378
559.568	0.0157583
559.646	0.0156863
559.724	0.0157506
559.802	0.0157625
559.880	0.0158320
559.959	0.0157507
560.037	0.0157835
560.115	0.0157858
560.193	0.0156224
560.271	0.0157610
560.349	0.0156998
560.427	0.0158664
560.505	0.0157554
560.584	0.0157639
560.662	0.0157713
560.740	0.0158246
560.818	0.0156933
560.896	0.0156957
560.974	0.0157722
561.052	0.0157897
561.130	0.0156841
561.209	0.0157934
561.287	0.0157957
561.365	0.0157440
561.443	0.0156694
561.521	0.0157100
561.599	0.0156618
561.677	0.0157204
561.755	0.0157449
561.834	0.0156902
561.912	0.0157374
561.990	0.0158609
562.068	0.0158765
562.146	0.0157822
562.224	0.0157095
562.302	0.0158382
562.380	0.0157904
562.459	0.0157970
562.537	0.0157072
562.615	0.0156701
562.693	0.0158488
562.771	0.0158190
562.849	0.0157934
562.927	0.0156272
563.005	0.0158585
563.084	0.0157404
563.162	0.0157348
563.240	0.0158501
563.318	0.0156792
563.396	0.0156567
563.474	0.0157468
563.552	0.0156850
563.630	0.0157325
563.709	0.0156486
563.787	0.0157564
563.865	0.0158131
563.943	0.0158316
564.021	0.0157553
564.099	0.0157617
564.177	0.0158150
564.255	0.0158204
564.334	0.0156734
564.412	0.0159026
564.490	0.0157856
564.568	0.0157748
564.646	0.0157722
564.724	0.0157542
564.802	0.0158391
564.880	0.0157100
564.959	0.0157638
565.037	0.0157079
565.115	0.0157135
565.193	0.0157762
565.271	0.0156657
565.349	0.0155862
565.427	0.0158749
565.505	0.0156760
565.584	0.0156335
565.662	0.0157150
565.740	0.0159102
565.818	0.0156478
565.896	0.0156317
565.974	0.0157289
566.052	0.0157423
566.130	0.0156316
566.209	0.0157277
566.287	0.0158897
566.365	0.0157871
566.443	0.0155744
566.521	0.0157169
566.599	0.0155880
566.677	0.0156927
566.755	0.0156927
566.834	0.0156512
566.912	0.0158242
566.990	0.0156609
567.068	0.0157584
567.146	0.0158039
567.224	0.0157664
567.302	0.0157001
567.380	0.0157425
567.459	0.0157519
567.537	0.0157845
567.615	0.0156747
567.693	0.0156334
567.771	0.0158378
567.849	0.0157617
567.927	0.0157229
568.005	0.0158026
568.084	0.0158727
568.162	0.0156852
568.240	0.0157800
568.318	0.0156780
568.396	0.0156008
568.474	0.0158687
568.552	0.0158048
568.630	0.0158173
568.709	0.0157646
568.787	0.0156361
568.865	0.0157209
568.943	0.0159351
569.021	0.0158028
569.099	0.0156924
569.177	0.0156556
569.255	0.0158675
569.334	0.0158907
569.412	0.0157867
569.490	0.0157728
569.568	0.0158084
569.646	0.0157190
569.724	0.0156588
569.802	0.0158466
569.880	0.0158278
569.959	0.0158369
570.037	0.0157340
570.115	0.0156759
570.193	0.0158305
570.271	0.0157599
570.349	0.0157288
570.427	0.0158038
570.505	0.0158628
570.584	0.0158067
570.662	0.0156023
570.740	0.0157374
570.818	0.0158772
570.896	0.0157520
570.974	0.0159100
571.052	0.0157539
571.130	0.0159063
571.209	0.0158089
571.287	0.0158352
571.365	0.0157834
571.443	0.0156901
571.521	0.0157595
571.599	0.0160350
571.677	0.0158620
571.755	0.0158219
571.834	0.0159468
571.912	0.0157413
571.990	0.0156873
572.068	0.0158379
572.146	0.0158015
572.224	0.0158697
572.302	0.0157339
572.380	0.0157373
572.459	0.0159023
572.537	0.0157816
572.615	0.0157945
572.693	0.0157592
572.771	0.0158288
572.849	0.0157722
572.927	0.0156829
573.005	0.0157228
573.084	0.0160467
573.162	0.0158707
573.240	0.0157370
573.318	0.0157720
573.396	0.0157964
573.474	0.0158004
573.552	0.0158195
573.630	0.0158658
573.709	0.0158186
573.787	0.0157654
573.865	0.0157837
573.943	0.0158121
574.021	0.0157098
574.099	0.0157745
574.177	0.0157276
574.255	0.0158249
574.334	0.0158282
574.412	0.0157561
574.490	0.0158513
574.568	0.0158285
574.646	0.0158958
574.724	0.0157059
574.802	0.0157992
574.880	0.0158132
574.959	0.0159082
575.037	0.0157942
575.115	0.0158059
575.193	0.0158021
575.271	0.0157182
575.349	0.0157813
575.427	0.0155676
575.505	0.0158337
575.584	0.0159002
575.662	0.0159004
575.740	0.0157636
575.818	0.0156841
575.896	0.0157427
575.974	0.0157726
576.052	0.0156308
576.130	0.0157230
576.209	0.0157611
576.287	0.0157900
576.365	0.0157401
576.443	0.0157166
576.521	0.0157851
576.599	0.0157704
576.677	0.0157896
576.755	0.0158514
576.834	0.0156898
576.912	0.0156472
576.990	0.0156889
577.068	0.0158279
577.146	0.0157778
577.224	0.0158582
577.302	0.0158541
577.380	0.0158212
577.459	0.0158576
577.537	0.0155506
577.615	0.0156844
577.693	0.0158086
577.771	0.0159140
577.849	0.0159116
577.927	0.0157944
578.005	0.0157372
578.084	0.0157858
578.162	0.0158080
578.240	0.0157748
578.318	0.0157184
578.396	0.0157386
578.474	0.0157800
578.552	0.0158823
578.630	0.0158029
578.709	0.0156200
578.787	0.0157483
578.865	0.0157176
578.943	0.0156886
579.021	0.0158217
579.099	0.0157897
579.177	0.0158708
579.255	0.0157531
579.334	0.0159337
579.412	0.0157818
579.490	0.0157093
579.568	0.0157699
579.646	0.0158359
579.724	0.0158038
579.802	0.0157497
579.880	0.0157667
579.959	0.0158501
580.037	0.0158125
580.115	0.0156722
580.193	0.0159325
580.271	0.0158080
580.349	0.0157918
580.427	0.0157351
580.505	0.0157389
580.584	0.0157635
580.662	0.0157484
580.740	0.0157810
580.818	0.0158002
580.896	0.0158015
580.974	0.0158354
581.052	0.0157172
581.130	0.0157985
581.209	0.0159036
581.287	0.0158248
581.365	0.0157380
581.443	0.0156274
581.521	0.0157006
581.599	0.0157462
581.677	0.0157422
581.755	0.0157727
581.834	0.0157335
581.912	0.0157324
581.990	0.0157230
582.068	0.0158620
582.146	0.0157018
582.224	0.0156287
582.302	0.0157244
582.380	0.0156425
582.459	0.0157436
582.537	0.0155930
582.615	0.0155936
582.693	0.0156709
582.771	0.0157298
582.849	0.0156941
582.927	0.0156729
583.005	0.0156713
583.084	0.0156380
583.162	0.0157769
583.240	0.0156637
583.318	0.0156618
583.396	0.0157220
583.474	0.0156324
583.552	0.0156190
583.630	0.0157512
583.709	0.0156139
583.787	0.0157075
583.865	0.0158294
583.943	0.0156072
584.021	0.0156743
584.099	0.0157682
584.177	0.0156644
584.255	0.0157690
584.334	0.0158075
584.412	0.0156200
584.490	0.0158522
584.568	0.0157598
584.646	0.0157875
584.724	0.0157198
584.802	0.0156625
584.880	0.0158425
584.959	0.0157561
585.037	0.0157037
585.115	0.0158741
585.193	0.0158119
585.271	0.0157241
585.349	0.0158025
585.427	0.0157675
585.505	0.0157867
585.584	0.0156483
585.662	0.0158221
585.740	0.0157432
585.818	0.0156438
585.896	0.0158873
585.974	0.0158286
586.052	0.0157760
586.130	0.0157678
586.209	0.0156795
586.287	0.0157767
586.365	0.0157867
586.443	0.0156882
586.521	0.0158469
586.599	0.0158492
586.677	0.0158423
586.755	0.0157700
586.834	0.0157098
586.912	0.0157366
586.990	0.0158067
587.068	0.0156532
587.146	0.0157573
587.224	0.0157293
587.302	0.0158310
587.380	0.0158069
587.459	0.0158612
587.537	0.0157250
587.615	0.0157756
587.693	0.0159250
587.771	0.0157648
587.849	0.0157653
587.927	0.0158418
588.005	0.0157935
588.084	0.0158379
588.162	0.0158552
588.240	0.0157540
588.318	0.0158129
588.396	0.0157457
588.474	0.0159129
588.552	0.0158562
588.630	0.0156924
588.709	0.0159800
588.787	0.0157970
588.865	0.0158363
588.943	0.0157224
589.021	0.0158108
589.099	0.0159396
589.177	0.0157064
589.255	0.0158173
589.334	0.0157205
589.412	0.0158622
589.490	0.0159519
589.568	0.0158778
589.646	0.0157172
589.724	0.0158532
589.802	0.0158936
589.880	0.0157584
589.959	0.0158792
590.037	0.0157849
590.115	0.0157494
590.193	0.0158566
590.271	0.0157729
590.349	0.0157760
590.427	0.0158382
590.505	0.0158205
590.584	0.0157246
590.662	0.0158003
590.740	0.0158927
590.818	0.0156577
590.896	0.0158328
590.974	0.0158008
591.052	0.0157413
591.130	0.0158491
591.209	0.0158748
591.287	0.0156954
591.365	0.0157752
591.443	0.0156489
591.521	0.0158043
591.599	0.0157586
591.677	0.0157288
591.755	0.0157335
591.834	0.0156886
591.912	0.0157671
591.990	0.0156861
592.068	0.0158312
592.146	0.0156917
592.224	0.0156712
592.302	0.0156498
592.380	0.0158606
592.459	0.0156676
592.537	0.0157076
592.615	0.0157227
592.693	0.0156895
592.771	0.0157365
592.849	0.0157383
592.927	0.0157181
593.005	0.0156297
593.084	0.0157370
593.162	0.0157590
593.240	0.0157645
593.318	0.0157508
593.396	0.0157667
593.474	0.0157147
593.552	0.0158501
593.630	0.0157256
593.709	0.0157833
593.787	0.0157262
593.865	0.0156877
593.943	0.0157914
594.021	0.0157298
594.099	0.0156542
594.177	0.0157317
594.255	0.0158362
594.334	0.0158073
594.412	0.0157576
594.490	0.0157211
594.568	0.0157199
594.646	0.0158010
594.724	0.0156840
594.802	0.0156910
594.880	0.0157477
594.959	0.0157368
595.037	0.0156690
595.115	0.0158751
595.193	0.0157166
595.271	0.0158634
595.349	0.0158172
595.427	0.0158426
595.505	0.0158798
595.584	0.0158884
595.662	0.0157601
595.740	0.0156990
595.818	0.0157911
595.896	0.0158861
595.974	0.0157278
596.052	0.0158389
596.130	0.0157851
596.209	0.0156575
596.287	0.0157646
596.365	0.0157566
596.443	0.0158060
596.521	0.0157520
596.599	0.0157867
596.677	0.0158611
596.755	0.0157719
596.834	0.0157142
596.912	0.0157162
596.990	0.0157689
597.068	0.0158906
597.146	0.0157424
597.224	0.0156728
597.302	0.0157658
597.380	0.0158489
597.459	0.0157262
597.537	0.0156751
597.615	0.0159126
597.693	0.0157190
597.771	0.0156741
597.849	0.0156488
597.927	0.0157590
598.005	0.0159199
598.084	0.0157803
598.162	0.0156869
598.240	0.0159312
598.318	0.0158549
598.396	0.0157825
598.474	0.0157879
598.552	0.0160122
598.630	0.0158392
598.709	0.0157609
598.787	0.0159414
598.865	0.0157625
598.943	0.0158145
599.021	0.0158061
599.099	0.0158182
599.177	0.0159355
599.255	0.0158231
599.334	0.0158059
599.412	0.0156712
599.490	0.0158716
599.568	0.0159077
599.646	0.0157876
599.724	0.0158023
599.802	0.0158665
599.880	0.0159713
599.959	0.0157947
600.037	0.0157658
600.115	0.0158616
600.193	0.0156286
600.271	0.0158460
600.349	0.0157932
600.427	0.0158214
600.505	0.0158673
600.584	0.0158377
600.662	0.0157225
600.740	0.0159062
600.818	0.0158928
600.896	0.0158920
600.974	0.0157420
601.052	0.0158224
601.130	0.0159106
601.209	0.0158565
601.287	0.0157653
601.365	0.0158281
601.443	0.0158456
601.521	0.0157452
601.599	0.0159076
601.677	0.0159085
601.755	0.0157724
601.834	0.0157964
601.912	0.0157200
601.990	0.0158285
602.068	0.0158328
602.146	0.0158353
602.224	0.0157390
602.302	0.0158061
602.380	0.0159024
602.459	0.0158611
602.537	0.0157639
602.615	0.0157851
602.693	0.0157251
602.771	0.0157504
602.849	0.0158929
602.927	0.0158611
603.005	0.0157837
603.084	0.0157995
603.162	0.0158192
603.240	0.0156844
603.318	0.0158249
603.396	0.0158089
603.474	0.0159171
603.552	0.0158731
603.630	0.0157720
603.709	0.0157774
603.787	0.0157539
603.865	0.0157536
603.943	0.0157259
604.021	0.0158767
604.099	0.0158170
604.177	0.0158333
604.255	0.0156638
604.334	0.0157346
604.412	0.0156010
604.490	0.0158592
604.568	0.0159139
604.646	0.0157861
604.724	0.0157964
604.802	0.0157761
604.880	0.0158643
604.959	0.0157928
605.037	0.0156882
605.115	0.0158459
605.193	0.0158102
605.271	0.0157898
605.349	0.0157744
605.427	0.0158775
605.505	0.0156979
605.584	0.0158349
605.662	0.0157952
605.740	0.0157167
605.818	0.0157580
605.896	0.0158057
605.974	0.0156909
606.052	0.0157289
606.130	0.0158109
606.209	0.0157384
606.287	0.0157790
606.365	0.0156645
606.443	0.0157854
606.521	0.0157133
606.599	0.0157544
606.677	0.0157173
606.755	0.0155820
606.834	0.0156593
606.912	0.0157051
606.990	0.0158025
607.068	0.0156697
607.146	0.0156153
607.224	0.0157669
607.302	0.0157491
607.380	0.0156999
607.459	0.0157115
607.537	0.0156879
607.615	0.0156815
607.693	0.0155773
607.771	0.0155734
607.849	0.0155334
607.927	0.0155445
608.005	0.0155695
608.084	0.0157040
608.162	0.0156635
608.240	0.0154988
608.318	0.0153903
608.396	0.0155302
608.474	0.0154871
608.552	0.0156555
608.630	0.0154822
608.709	0.0156411
608.787	0.0157154
608.865	0.0156142
608.943	0.0156558
609.021	0.0158461
609.099	0.0160211
609.177	0.0161574
609.255	0.0162014
609.334	0.0161777
609.412	0.0164214
609.490	0.0165053
609.568	0.0166386
609.646	0.0165376
609.724	0.0168374
609.802	0.0168978
609.880	0.0167664
609.959	0.0167727
610.037	0.0168103
610.115	0.0168365
610.193	0.0166820
610.271	0.0166274
610.349	0.0165407
610.427	0.0166062
610.505	0.0163788
610.584	0.0163563
610.662	0.0162345
610.740	0.0160499
610.818	0.0159084
610.896	0.0159900
610.974	0.0156134
611.052	0.0157427
611.130	0.0156912
611.209	0.0154104
611.287	0.0153007
611.365	0.0152116
611.443	0.0152485
611.521	0.0151247
611.599	0.0151120
611.677	0.0150394
611.755	0.0151780
611.834	0.0151762
611.912	0.0152177
611.990	0.0152229
612.068	0.0153004
612.146	0.0153756
612.224	0.0153732
612.302	0.0154623
612.380	0.0153220
612.459	0.0155792
612.537	0.0156007
612.615	0.0154711
612.693	0.0154153
612.771	0.0155564
612.849	0.0155128
612.927	0.0155739
613.005	0.0154962
613.084	0.0155022
613.162	0.0156040
613.240	0.0156604
613.318	0.0155624
613.396	0.0155983
613.474	0.0155501
613.552	0.0155270
613.630	0.0156223
613.709	0.0156303
613.787	0.0155771
613.865	0.0156116
613.943	0.0155517
614.021	0.0155724
614.099	0.0156452
614.177	0.0157269
614.255	0.0157018
614.334	0.0155912
614.412	0.0156428
614.490	0.0158129
614.568	0.0157446
614.646	0.0156863
614.724	0.0156815
614.802	0.0156962
614.880	0.0157412
614.959	0.0157862
615.037	0.0157766
615.115	0.0157410
615.193	0.0157289
615.271	0.0158702
615.349	0.0157642
615.427	0.0157272
615.505	0.0156570
615.584	0.0155701
615.662	0.0157259
615.740	0.0157994
615.818	0.0157785
615.896	0.0157520
615.974	0.0157363
616.052	0.0158117
616.130	0.0157090
616.209	0.0157810
616.287	0.0158039
616.365	0.0156262
616.443	0.0157259
616.521	0.0157572
616.599	0.0156529
616.677	0.0159566
616.755	0.0158214
616.834	0.0158896
616.912	0.0157784
616.990	0.0156506
617.068	0.0158312
617.146	0.0158110
617.224	0.0157659
617.302	0.0158395
617.380	0.0158725
617.459	0.0159139
617.537	0.0158602
617.615	0.0159129
617.693	0.0157692
617.771	0.0157675
617.849	0.0160134
617.927	0.0159832
618.005	0.0158733
618.084	0.0157540
618.162	0.0159527
618.240	0.0158344
618.318	0.0157793
618.396	0.0159080
618.474	0.0158797
618.552	0.0158918
618.630	0.0159912
618.709	0.0158882
618.787	0.0159776
618.865	0.0159274
618.943	0.0157475
619.021	0.0159029
619.099	0.0159956
619.177	0.0160071
619.255	0.0159953
619.334	0.0159226
619.412	0.0158692
619.490	0.0158744
619.568	0.0158535
619.646	0.0159139
619.724	0.0160210
619.802	0.0159155
619.880	0.0160415
619.959	0.0159146
620.037	0.0159188
620.115	0.0160551
620.193	0.0159026
620.271	0.0157896
620.349	0.0159820
620.427	0.0157784
620.505	0.0158754
620.584	0.0158315
620.662	0.0158710
620.740	0.0158891
620.818	0.0159357
620.896	0.0158280
620.974	0.0157569
621.052	0.0157929
621.130	0.0158438
621.209	0.0157204
621.287	0.0157629
621.365	0.0157719
621.443	0.0156659
621.521	0.0157564
621.599	0.0157716
621.677	0.0156986
621.755	0.0158000
621.834	0.0159180
621.912	0.0156945
621.990	0.0157367
622.068	0.0157883
622.146	0.0157449
622.224	0.0157731
622.302	0.0158084
622.380	0.0156038
622.459	0.0158907
622.537	0.0159177
622.615	0.0157658
622.693	0.0157468
622.771	0.0158353
622.849	0.0157214
622.927	0.0157848
623.005	0.0157637
623.084	0.0158804
623.162	0.0159137
623.240	0.0157689
623.318	0.0159196
623.396	0.0157574
623.474	0.0156483
623.552	0.0158517
623.630	0.0158566
623.709	0.0158856
623.787	0.0157747
623.865	0.0159029
623.943	0.0157987
624.021	0.0157522
624.099	0.0157894
624.177	0.0157326
624.255	0.0157034
624.334	0.0157874
624.412	0.0158229
624.490	0.0157706
624.568	0.0157759
624.646	0.0158669
624.724	0.0158793
624.802	0.0158967
624.880	0.0158635
624.959	0.0156795
625.037	0.0157659
625.115	0.0158524
625.193	0.0158257
625.271	0.0157460
625.349	0.0158646
625.427	0.0157552
625.505	0.0157603
625.584	0.0157231
625.662	0.0158778
625.740	0.0158159
625.818	0.0157791
625.896	0.0157257
625.974	0.0157327
626.052	0.0157304
626.130	0.0158059
626.209	0.0158574
626.287	0.0157899
626.365	0.0157685
626.443	0.0158788
626.521	0.0158224
626.599	0.0158094
626.677	0.0158482
626.755	0.0158428
626.834	0.0159174
626.912	0.0158178
626.990	0.0158182
627.068	0.0158694
627.146	0.0157626
627.224	0.0159460
627.302	0.0156757
627.380	0.0158551
627.459	0.0157439
627.537	0.0157542
627.615	0.0158076
627.693	0.0158137
627.771	0.0157432
627.849	0.0157481
627.927	0.0159594
628.005	0.0157806
628.084	0.0157471
628.162	0.0157446
628.240	0.0158562
628.318	0.0158414
628.396	0.0157555
628.474	0.0157985
628.552	0.0159081
628.630	0.0159131
628.709	0.0157804
628.787	0.0156893
628.865	0.0159648
628.943	0.0158351
629.021	0.0157214
629.099	0.0157008
629.177	0.0158023
629.255	0.0157641
629.334	0.0157883
629.412	0.0158971
629.490	0.0157719
629.568	0.0158825
629.646	0.0157951
629.724	0.0156808
629.802	0.0157598
629.880	0.0157607
629.959	0.0156609
630.037	0.0157671
630.115	0.0157868
630.193	0.0157054
630.271	0.0157365
630.349	0.0157637
630.427	0.0158996
630.505	0.0157083
630.584	0.0156358
630.662	0.0158856
630.740	0.0157596
630.818	0.0157555
630.896	0.0158659
630.974	0.0157357
631.052	0.0158367
631.130	0.0157367
631.209	0.0158369
631.287	0.0157825
631.365	0.0157903
631.443	0.0157941
631.521	0.0156313
631.599	0.0158738
631.677	0.0157792
631.755	0.0157680
631.834	0.0158276
631.912	0.0157401
631.990	0.0158361
632.068	0.0157407
632.146	0.0157735
632.224	0.0158485
632.302	0.0159005
632.380	0.0156795
632.459	0.0157767
632.537	0.0157259
632.615	0.0157791
632.693	0.0158566
632.771	0.0159657
632.849	0.0158369
632.927	0.0156994
633.005	0.0156963
633.084	0.0157791
633.162	0.0157816
633.240	0.0158210
633.318	0.0157783
633.396	0.0158697
633.474	0.0157887
633.552	0.0157992
633.630	0.0158872
633.709	0.0158899
633.787	0.0158224
633.865	0.0158112
633.943	0.0157551
634.021	0.0157336
634.099	0.0158077
634.177	0.0156972
634.255	0.0156908
634.334	0.0157484
634.412	0.0158019
634.490	0.0157544
634.568	0.0156179
634.646	0.0157639
634.724	0.0158083
634.802	0.0157735
634.880	0.0155410
634.959	0.0156531
635.037	0.0158655
635.115	0.0158537
635.193	0.0155543
635.271	0.0156223
635.349	0.0156531
635.427	0.0157296
635.505	0.0156963
635.584	0.0156170
635.662	0.0157088
635.740	0.0156680
635.818	0.0157008
635.896	0.0157540
635.974	0.0157011
636.052	0.0156577
636.130	0.0156168
636.209	0.0157955
636.287	0.0157978
636.365	0.0158011
636.443	0.0157884
636.521	0.0156955
636.599	0.0157163
636.677	0.0156831
636.755	0.0158193
636.834	0.0158278
636.912	0.0158217
636.990	0.0158171
637.068	0.0157026
637.146	0.0157249
637.224	0.0158815
637.302	0.0158844
637.380	0.0157520
637.459	0.0158588
637.537	0.0157383
637.615	0.0158617
637.693	0.0158920
637.771	0.0157677
637.849	0.0159335
637.927	0.0159174
638.005	0.0157867
638.084	0.0158083
638.162	0.0157441
638.240	0.0157681
638.318	0.0158555
638.396	0.0159280
638.474	0.0157259
638.552	0.0158195
638.630	0.0157377
638.709	0.0158309
638.787	0.0158771
638.865	0.0156839
638.943	0.0158372
639.021	0.0159547
639.099	0.0158064
639.177	0.0158081
639.255	0.0157645
639.334	0.0158873
639.412	0.0158064
639.490	0.0157442
639.568	0.0156720
639.646	0.0157995
639.724	0.0157847
639.802	0.0158973
639.880	0.0157623
639.959	0.0157946
640.037	0.0158444
640.115	0.0158694
640.193	0.0159952
640.271	0.0159270
640.349	0.0157296
640.427	0.0158000
640.505	0.0158640
640.584	0.0159138
640.662	0.0158876
640.740	0.0157064
640.818	0.0158633
640.896	0.0158018
640.974	0.0157771
641.052	0.0157404
641.130	0.0156534
641.209	0.0156357
641.287	0.0157726
641.365	0.0157268
641.443	0.0158569
641.521	0.0157559
641.599	0.0156011
641.677	0.0157237
641.755	0.0157384
641.834	0.0157330
641.912	0.0156842
641.990	0.0155684
642.068	0.0156990
642.146	0.0156868
642.224	0.0158761
642.302	0.0157702
642.380	0.0156659
642.459	0.0157460
642.537	0.0156912
642.615	0.0156856
642.693	0.0156783
642.771	0.0157178
642.849	0.0155885
642.927	0.0157307
643.005	0.0155846
643.084	0.0156607
643.162	0.0156552
643.240	0.0156699
643.318	0.0157030
643.396	0.0156717
643.474	0.0156731
643.552	0.0155810
643.630	0.0155737
643.709	0.0158189
643.787	0.0156745
643.865	0.0156515
643.943	0.0156278
644.021	0.0157693
644.099	0.0157332
644.177	0.0156930
644.255	0.0156318
644.334	0.0157781
644.412	0.0157241
644.490	0.0156392
644.568	0.0156441
644.646	0.0157856
644.724	0.0157748
644.802	0.0158250
644.880	0.0156701
644.959	0.0156930
645.037	0.0158651
645.115	0.0157697
645.193	0.0156318
645.271	0.0156952
645.349	0.0156944
645.427	0.0158047
645.505	0.0157198
645.584	0.0158288
645.662	0.0157810
645.740	0.0157837
645.818	0.0156360
645.896	0.0158583
645.974	0.0157485
646.052	0.0158194
646.130	0.0158001
646.209	0.0157861
646.287	0.0157475
646.365	0.0158450
646.443	0.0158626
646.521	0.0156749
646.599	0.0157200
646.677	0.0158865
646.755	0.0159201
646.834	0.0157204
646.912	0.0157446
646.990	0.0157165
647.068	0.0158241
647.146	0.0158417
647.224	0.0157166
647.302	0.0158822
647.380	0.0159201
647.459	0.0159164
647.537	0.0158306
647.615	0.0159332
647.693	0.0158654
647.771	0.0157457
647.849	0.0158183
647.927	0.0158806
648.005	0.0157531
648.084	0.0158365
648.162	0.0158636
648.240	0.0158371
648.318	0.0158421
648.396	0.0158415
648.474	0.0158416
648.552	0.0158363
648.630	0.0157184
648.709	0.0158887
648.787	0.0157476
648.865	0.0158666
648.943	0.0157633
649.021	0.0158490
649.099	0.0158810
649.177	0.0158366
649.255	0.0158311
649.334	0.0158029
649.412	0.0158178
649.490	0.0158972
649.568	0.0158224
649.646	0.0159654
649.724	0.0158238
649.802	0.0157729
649.880	0.0157189
649.959	0.0158922
650.037	0.0158235
650.115	0.0158051
650.193	0.0157227
650.271	0.0158392
650.349	0.0158235
650.427	0.0158450
650.505	0.0157262
650.584	0.0156244
650.662	0.0157390
650.740	0.0156975
650.818	0.0157484
650.896	0.0157827
650.974	0.0157654
651.052	0.0157010
651.130	0.0157520
651.209	0.0156841
651.287	0.0158022
651.365	0.0158217
651.443	0.0155946
651.521	0.0156888
651.599	0.0157146
651.677	0.0156101
651.755	0.0158221
651.834	0.0157882
651.912	0.0156094
651.990	0.0157468
652.068	0.0157410
652.146	0.0156487
652.224	0.0157345
652.302	0.0158328
652.380	0.0158562
652.459	0.0157359
652.537	0.0157707
652.615	0.0156400
652.693	0.0157036
652.771	0.0157613
652.849	0.0159321
652.927	0.0158557
653.005	0.0157861
653.084	0.0158658
653.162	0.0157784
653.240	0.0157970
653.318	0.0158859
653.396	0.0157737
653.474	0.0159569
653.552	0.0156770
653.630	0.0158122
653.709	0.0157940
653.787	0.0157719
653.865	0.0157445
653.943	0.0158920
654.021	0.0158196
654.099	0.0158522
654.177	0.0159151
654.255	0.0158877
654.334	0.0157307
654.412	0.0157231
654.490	0.0157510
654.568	0.0158897
654.646	0.0159263
654.724	0.0157791
654.802	0.0157986
654.880	0.0157173
654.959	0.0157228
655.037	0.0159031
655.115	0.0157789
655.193	0.0157316
655.271	0.0157924
655.349	0.0157478
655.427	0.0158198
655.505	0.0157868
655.584	0.0157218
655.662	0.0157832
655.740	0.0157977
655.818	0.0158497
655.896	0.0157839
655.974	0.0158344
656.052	0.0157259
656.130	0.0157889
656.209	0.0157864
656.287	0.0156181
656.365	0.0157511
656.443	0.0157325
656.521	0.0158494
656.599	0.0158054
656.677	0.0158169
656.755	0.0157748
656.834	0.0157343
656.912	0.0157330
656.990	0.0158716
657.068	0.0157699
657.146	0.0158046
657.224	0.0158842
657.302	0.0157841
657.380	0.0158575
657.459	0.0158192
657.537	0.0157604
657.615	0.0158438
657.693	0.0158054
657.771	0.0156975
657.849	0.0158385
657.927	0.0159105
658.005	0.0157057
658.084	0.0159296
658.162	0.0159347
658.240	0.0159231
658.318	0.0159306
658.396	0.0159502
658.474	0.0158348
658.552	0.0159684
658.630	0.0159554
658.709	0.0159333
658.787	0.0159108
658.865	0.0158425
658.943	0.0159486
659.021	0.0157287
659.099	0.0159357
659.177	0.0159940
659.255	0.0159180
659.334	0.0160365
659.412	0.0159564
659.490	0.0159648
659.568	0.0159962
659.646	0.0159899
659.724	0.0160358
659.802	0.0159831
659.880	0.0159737
659.959	0.0159306
660.037	0.0159624
660.115	0.0160320
660.193	0.0160076
660.271	0.0159357
660.349	0.0161234
660.427	0.0159030
660.505	0.0159421
660.584	0.0160141
660.662	0.0158202
660.740	0.0160169
660.818	0.0157829
660.896	0.0159795
660.974	0.0160199
661.052	0.0158141
661.130	0.0158487
661.209	0.0158457
661.287	0.0159223
661.365	0.0159511
661.443	0.0157339
661.521	0.0157101
661.599	0.0156745
661.677	0.0156736
661.755	0.0157885
661.834	0.0157369
661.912	0.0157715
661.990	0.0157290
662.068	0.0156767
662.146	0.0156944
662.224	0.0156287
662.302	0.0156570
662.380	0.0156152
662.459	0.0156519
662.537	0.0156924
662.615	0.0156092
662.693	0.0157255
662.771	0.0156394
662.849	0.0155994
662.927	0.0157051
663.005	0.0156060
663.084	0.0154817
663.162	0.0156151
663.240	0.0157489
663.318	0.0156146
663.396	0.0156215
663.474	0.0157065
663.552	0.0154800
663.630	0.0156313
663.709	0.0157017
663.787	0.0155823
663.865	0.0156213
663.943	0.0155286
664.021	0.0155564
664.099	0.0155556
664.177	0.0155069
664.255	0.0155771
664.334	0.0155854
664.412	0.0154619
664.490	0.0156013
664.568	0.0155917
664.646	0.0155486
664.724	0.0154561
664.802	0.0155747
664.880	0.0156244
664.959	0.0155415
665.037	0.0155750
665.115	0.0155523
665.193	0.0156150
665.271	0.0156506
665.349	0.0156726
665.427	0.0156683
665.505	0.0157377
665.584	0.0154903
665.662	0.0156040
665.740	0.0156816
665.818	0.0156430
665.896	0.0158624
665.974	0.0157404
666.052	0.0156889
666.130	0.0157174
666.209	0.0156817
666.287	0.0156807
666.365	0.0157796
666.443	0.0157817
666.521	0.0156400
666.599	0.0157077
666.677	0.0156960
666.755	0.0157465
666.834	0.0157628
666.912	0.0158371
666.990	0.0156583
667.068	0.0157471
667.146	0.0158130
667.224	0.0156462
667.302	0.0157916
667.380	0.0158987
667.459	0.0159235
667.537	0.0156989
667.615	0.0156741
667.693	0.0158105
667.771	0.0157785
667.849	0.0156863
667.927	0.0156510
668.005	0.0158759
668.084	0.0158392
668.162	0.0159691
668.240	0.0156604
668.318	0.0158112
668.396	0.0158795
668.474	0.0159609
668.552	0.0159058
668.630	0.0158643
668.709	0.0159007
668.787	0.0159502
668.865	0.0159177
668.943	0.0160577
669.021	0.0160094
669.099	0.0159236
669.177	0.0161177
669.255	0.0159539
669.334	0.0159850
669.412	0.0159613
669.490	0.0159154
669.568	0.0159839
669.646	0.0160165
669.724	0.0160931
669.802	0.0160683
669.880	0.0160518
669.959	0.0161377
670.037	0.0161127
670.115	0.0159987
670.193	0.0161014
670.271	0.0160935
670.349	0.0160573
670.427	0.0161526
670.505	0.0159564
670.584	0.0161661
670.662	0.0160379
670.740	0.0160294
670.818	0.0160036
670.896	0.0160675
670.974	0.0159882
671.052	0.0160374
671.130	0.0161920
671.209	0.0159658
671.287	0.0160934
671.365	0.0159541
671.443	0.0159969
671.521	0.0160777
671.599	0.0159725
671.677	0.0159232
671.755	0.0160796
671.834	0.0158884
671.912	0.0159816
671.990	0.0160442
672.068	0.0160162
672.146	0.0159514
672.224	0.0160444
672.302	0.0160831
672.380	0.0159668
672.459	0.0160989
672.537	0.0159686
672.615	0.0161420
672.693	0.0161065
672.771	0.0160370
672.849	0.0160640
672.927	0.0161229
673.005	0.0161012
673.084	0.0160612
673.162	0.0159541
673.240	0.0161489
673.318	0.0159590
673.396	0.0160595
673.474	0.0160735
673.552	0.0159563
673.630	0.0160439
673.709	0.0160810
673.787	0.0158371
673.865	0.0158331
673.943	0.0161763
674.021	0.0159053
674.099	0.0159167
674.177	0.0158273
674.255	0.0159142
674.334	0.0157338
674.412	0.0158121
674.490	0.0157994
674.568	0.0158999
674.646	0.0156165
674.724	0.0157874
674.802	0.0157156
674.880	0.0156784
674.959	0.0156467
675.037	0.0155509
675.115	0.0155706
675.193	0.0156714
675.271	0.0155168
675.349	0.0154701
675.427	0.0155215
675.505	0.0153586
675.584	0.0155495
675.662	0.0154425
675.740	0.0152814
675.818	0.0153851
675.896	0.0152470
675.974	0.0152805
676.052	0.0151505
676.130	0.0152145
676.209	0.0151998
676.287	0.0152600
676.365	0.0151517
676.443	0.0151897
676.521	0.0152670
676.599	0.0153954
676.677	0.0153276
676.755	0.0152493
676.834	0.0153088
676.912	0.0154868
676.990	0.0155386
677.068	0.0154242
677.146	0.0156521
677.224	0.0157894
677.302	0.0157195
677.380	0.0158299
677.459	0.0156395
677.537	0.0157009
677.615	0.0157109
677.693	0.0158283
677.771	0.0157489
677.849	0.0158186
677.927	0.0156637
678.005	0.0157592
678.084	0.0155226
678.162	0.0155820
678.240	0.0156695
678.318	0.0154775
678.396	0.0153396
678.474	0.0154193
678.552	0.0152975
678.630	0.0152364
678.709	0.0152724
678.787	0.0150706
678.865	0.0150454
678.943	0.0149300
679.021	0.0150140
679.099	0.0149860
679.177	0.0149465
679.255	0.0149340
679.334	0.0149676
679.412	0.0148943
679.490	0.0148608
679.568	0.0148845
679.646	0.0149096
679.724	0.0148704
679.802	0.0149382
679.880	0.0149043
679.959	0.0149185
680.037	0.0149046
680.115	0.0148882
680.193	0.0150354
680.271	0.0150352
680.349	0.0149615
680.427	0.0148960
680.505	0.0148896
680.584	0.0148616
680.662	0.0148934
680.740	0.0149500
680.818	0.0147413
680.896	0.0145416
680.974	0.0146426
681.052	0.0146703
681.130	0.0144377
681.209	0.0144312
681.287	0.0143628
681.365	0.0142294
681.443	0.0142050
681.521	0.0141655
681.599	0.0140231
681.677	0.0140366
681.755	0.0139333
681.834	0.0139389
681.912	0.0136759
681.990	0.0135618
682.068	0.0134335
682.146	0.0134180
682.224	0.0134431
682.302	0.0133175
682.380	0.0133635
682.459	0.0133378
682.537	0.0132302
682.615	0.0132483
682.693	0.0132589
682.771	0.0131693
682.849	0.0132605
682.927	0.0132642
683.005	0.0131992
683.084	0.0131387
683.162	0.0131792
683.240	0.0130418
683.318	0.0131021
683.396	0.0130807
683.474	0.0129862
683.552	0.0127840
683.630	0.0128714
683.709	0.0129461
683.787	0.0127675
683.865	0.0125819
683.943	0.0126888
684.021	0.0126749
684.099	0.0124080
684.177	0.0122954
684.255	0.0121459
684.334	0.0119119
684.412	0.0118172
684.490	0.0116467
684.568	0.0113501
684.646	0.0111339
684.724	0.0109516
684.802	0.0106155
684.880	0.0101494
684.959	0.0100446
685.037	0.00964928
685.115	0.00930321
685.193	0.00887207
685.271	0.00839859
685.349	0.00801476
685.427	0.00754219
685.505	0.00706566
685.584	0.00651649
685.662	0.00589066
685.740	0.00541031
685.818	0.00485710
685.896	0.00418915
685.974	0.00335472
686.052	0.00252831
686.130	0.00170570
686.209	0.000931168
686.287	0.000160980
686.365	-0.000959702
686.443	-0.00200699
686.521	-0.00306252
686.599	-0.00400726
686.677	-0.00518288
686.755	-0.00625603
686.834	-0.00749176
686.912	-0.00858200
686.990	-0.00973679
687.068	-0.0108958
687.146	-0.0119278
687.224	-0.0132264
687.302	-0.0146568
687.380	-0.0159302
687.459	-0.0174709
687.537	-0.0186115
687.615	-0.0195864
687.693	-0.0201580
687.771	-0.0202703
687.849	-0.0193987
687.927	-0.0166373
688.005	-0.0116826
688.084	-0.00426857
688.162	0.00649933
688.240	0.0203930
688.318	0.0374516
688.396	0.0575362
688.474	0.0798408
688.552	0.103573
688.630	0.128251
688.709	0.152318
688.787	0.175134
688.865	0.195574
688.943	0.213150
689.021	0.227323
689.099	0.237338
689.177	0.243374
689.255	0.244987
689.334	0.242140
689.412	0.235393
689.490	0.225137
689.568	0.211303
689.646	0.194938
689.724	0.175999
689.802	0.155310
689.880	0.132726
689.959	0.108608
690.037	0.0833444
690.115	0.0574394
690.193	0.0312592
690.271	0.00524902
690.349	-0.0202487
690.427	-0.0441322
690.505	-0.0660483
690.584	-0.0855052
690.662	-0.102110
690.740	-0.115218
690.818	-0.124781
690.896	-0.131132
690.974	-0.133827
691.052	-0.133516
691.130	-0.130245
691.209	-0.124729
691.287	-0.117343
691.365	-0.108568
691.443	-0.0989186
691.521	-0.0889743
691.599	-0.0790181
691.677	-0.0696339
691.755	-0.0607693
691.834	-0.0528835
691.912	-0.0458800
691.990	-0.0395623
692.068	-0.0342924
692.146	-0.0296288
692.224	-0.0256016
692.302	-0.0225630
692.380	-0.0198819
692.459	-0.0179847
692.537	-0.0165489
692.615	-0.0154071
692.693	-0.0146652
692.771	-0.0138852
692.849	-0.0130934
692.927	-0.0127593
693.005	-0.0121226
693.084	-0.0117059
693.162	-0.0111562
693.240	-0.0107863
693.318	-0.0102451
693.396	-0.00942986
693.474	-0.00851051
693.552	-0.00725639
693.630	-0.00566200
693.709	-0.00355377
693.787	-0.00151215
693.865	0.000423584
693.943	0.00245773
694.021	0.00422119
694.099	0.00558403
694.177	0.00690041
694.255	0.00793594
694.334	0.00863525
694.412	0.00924065
694.490	0.00948662
694.568	0.00968994
694.646	0.00964546
694.724	0.00938988
694.802	0.00890366
694.880	0.00874535
694.959	0.00839539
695.037	0.00797234
695.115	0.00753120
695.193	0.00744812
695.271	0.00720444
695.349	0.00714729
695.427	0.00720474
695.505	0.00732590
695.584	0.00757469
695.662	0.00806122
695.740	0.00855194
695.818	0.00936081
695.896	0.0102415
695.974	0.0113484
696.052	0.0128281
696.130	0.0139617
696.209	0.0152727
696.287	0.0168165
696.365	0.0182746
696.443	0.0195849
696.521	0.0212579
696.599	0.0228915
696.677	0.0243912
696.755	0.0261276
696.834	0.0277301
696.912	0.0295677
696.990	0.0312145
697.068	0.0328208
697.146	0.0341872
697.224	0.0354163
697.302	0.0364115
697.380	0.0370842
697.459	0.0375184
697.537	0.0379230
697.615	0.0376379
697.693	0.0370721
697.771	0.0364362
697.849	0.0357072
697.927	0.0346404
698.005	0.0333087
698.084	0.0320573
698.162	0.0310271
698.240	0.0299574
698.318	0.0289769
698.396	0.0282265
698.474	0.0275605
698.552	0.0272555
698.630	0.0270938
698.709	0.0272691
698.787	0.0276823
698.865	0.0281280
698.943	0.0290305
699.021	0.0296673
699.099	0.0304793
699.177	0.0314270
699.255	0.0323277
699.334	0.0332122
699.412	0.0339985
699.490	0.0345660
699.568	0.0350727
699.646	0.0355343
699.724	0.0356843
699.802	0.0356618
699.880	0.0356119
699.959	0.0351213
700.037	0.0345074
700.115	0.0336024
700.193	0.0325395
700.271	0.0313264
700.349	0.0298114
700.427	0.0282101
700.505	0.0265320
700.584	0.0246873
700.662	0.0229233
700.740	0.0213708
700.818	0.0194413
700.896	0.0177608
700.974	0.0161986
701.052	0.0144524
701.130	0.0131272
701.209	0.0119769
701.287	0.0108597
701.365	0.0100402
701.443	0.00945045
701.521	0.00897247
701.599	0.00889572
701.677	0.00883026
701.755	0.00895760
701.834	0.00912964
701.912	0.00960747
701.990	0.00996742
702.068	0.0104066
702.146	0.0107991
702.224	0.0113325
702.302	0.0118855
702.380	0.0125142
702.459	0.0130832
702.537	0.0132635
702.615	0.0138135
702.693	0.0140084
702.771	0.0140951
702.849	0.0140893
702.927	0.0139854
703.005	0.0137851
703.084	0.0135011
703.162	0.0131679
703.240	0.0127145
703.318	0.0125254
703.396	0.0121768
703.474	0.0119814
703.552	0.0118830
703.630	0.0116949
703.709	0.0116355
703.787	0.0116280
703.865	0.0117165
703.943	0.0116878
704.021	0.0118404
704.099	0.0120182
704.177	0.0120876
704.255	0.0123759
704.334	0.0127581
704.412	0.0128983
704.490	0.0130050
704.568	0.0130916
704.646	0.0130973
704.724	0.0127821
704.802	0.0128507
704.880	0.0128331
704.959	0.0125938
705.037	0.0127145
705.115	0.0128576
705.193	0.0130424
705.271	0.0133041
705.349	0.0135027
705.427	0.0137648
705.505	0.0141326
705.584	0.0143528
705.662	0.0145341
705.740	0.0148997
705.818	0.0151705
705.896	0.0156916
705.974	0.0160564
706.052	0.0163441
706.130	0.0168417
706.209	0.0170941
706.287	0.0173273
706.365	0.0174901
706.443	0.0178030
706.521	0.0177470
706.599	0.0176598
706.677	0.0177017
706.755	0.0176035
706.834	0.0173873
706.912	0.0173652
706.990	0.0172764
707.068	0.0170998
707.146	0.0170757
707.224	0.0167590
707.302	0.0167001
707.380	0.0166285
707.459	0.0166132
707.537	0.0166313
707.615	0.0168678
707.693	0.0169720
707.771	0.0172437
707.849	0.0173833
707.927	0.0175331
708.005	0.0175654
708.084	0.0177342
708.162	0.0173660
708.240	0.0170110
708.318	0.0164072
708.396	0.0160042
708.474	0.0153973
708.552	0.0148434
708.630	0.0143234
708.709	0.0139509
708.787	0.0136736
708.865	0.0133826
708.943	0.0132098
709.021	0.0132132
709.099	0.0133007
709.177	0.0136349
709.255	0.0140456
709.334	0.0145283
709.412	0.0149405
709.490	0.0154189
709.568	0.0160151
709.646	0.0164769
709.724	0.0168927
709.802	0.0173708
709.880	0.0175273
709.959	0.0179523
710.037	0.0181773
710.115	0.0184409
710.193	0.0186920
710.271	0.0191508
710.349	0.0195074
710.427	0.0198425
710.505	0.0202277
710.584	0.0207220
710.662	0.0208379
710.740	0.0211380
710.818	0.0214319
710.896	0.0215111
710.974	0.0215088
711.052	0.0216806
711.130	0.0215849
711.209	0.0215263
711.287	0.0216982
711.365	0.0215924
711.443	0.0216402
711.521	0.0217626
711.599	0.0217796
711.677	0.0218399
711.755	0.0220071
711.834	0.0220290
711.912	0.0221860
711.990	0.0219923
712.068	0.0220229
712.146	0.0221651
712.224	0.0221454
712.302	0.0219856
712.380	0.0219200
712.459	0.0216113
712.537	0.0217388
712.615	0.0215381
712.693	0.0212534
712.771	0.0210903
712.849	0.0209682
712.927	0.0206892
713.005	0.0204722
713.084	0.0201617
713.162	0.0197942
713.240	0.0196677
713.318	0.0191326
713.396	0.0184938
713.474	0.0178896
713.552	0.0171886
713.630	0.0162162
713.709	0.0151566
713.787	0.0142971
713.865	0.0132663
713.943	0.0124012
714.021	0.0114509
714.099	0.0106127
714.177	0.00971466
714.255	0.00920776
714.334	0.00877098
714.412	0.00845512
714.490	0.00831306
714.568	0.00810188
714.646	0.00801865
714.724	0.00805153
714.802	0.00815987
714.880	0.00815498
714.959	0.00808380
715.037	0.00825615
715.115	0.00839378
715.193	0.00848511
715.271	0.00846504
715.349	0.00865395
715.427	0.00880936
715.505	0.00881645
715.584	0.00918694
715.662	0.00938461
715.740	0.00981422
715.818	0.00995659
715.896	0.0103534
715.974	0.0106184
716.052	0.0109597
716.130	0.0112556
716.209	0.0115751
716.287	0.0118123
716.365	0.0122289
716.443	0.0122010
716.521	0.0127767
716.599	0.0126861
716.677	0.0128915
716.755	0.0131193
716.834	0.0132077
716.912	0.0131205
716.990	0.0132577
717.068	0.0132290
717.146	0.0132784
717.224	0.0132764
717.302	0.0131864
717.380	0.0131267
717.459	0.0130776
717.537	0.0131560
717.615	0.0131421
717.693	0.0131806
717.771	0.0132166
717.849	0.0136173
717.927	0.0137185
718.005	0.0139010
718.084	0.0140161
718.162	0.0142870
718.240	0.0147198
718.318	0.0149516
718.396	0.0152509
718.474	0.0154232
718.552	0.0157897
718.630	0.0160327
718.709	0.0162068
718.787	0.0162130
718.865	0.0162540
718.943	0.0166347
719.021	0.0167191
719.099	0.0165124
719.177	0.0165577
719.255	0.0166647
719.334	0.0165282
719.412	0.0163382
719.490	0.0163548
719.568	0.0162743
719.646	0.0164677
719.724	0.0164381
719.802	0.0164497
719.880	0.0164059
719.959	0.0165800
