05/26/2022	21:11:06	Ver.	4.1	UNKNOWN
Optical Delay	400.043419	Delta X		0.078125	Sweeps	1	Scan Rate	0/0
Coordinates	Axis 1	NaN	Axis 2	NaN	Axis 3	NaN	Axis 4	NaN	Axis 5	NaN	Axis 6	0.000000
TX Power	0.000000	RX Power	0.000000

400.043	0.0152447
400.122	0.0153915
400.200	0.0151647
400.278	0.0151666
400.356	0.0151913
400.434	0.0151729
400.512	0.0152089
400.590	0.0151511
400.668	0.0152795
400.747	0.0151665
400.825	0.0152419
400.903	0.0152438
400.981	0.0152234
401.059	0.0151513
401.137	0.0152415
401.215	0.0152343
401.293	0.0152514
401.372	0.0151519
401.450	0.0151677
401.528	0.0151097
401.606	0.0152642
401.684	0.0153196
401.762	0.0151878
401.840	0.0152255
401.918	0.0151959
401.997	0.0151659
402.075	0.0151096
402.153	0.0152174
402.231	0.0151297
402.309	0.0152016
402.387	0.0153272
402.465	0.0151134
402.543	0.0151884
402.622	0.0151562
402.700	0.0151969
402.778	0.0151371
402.856	0.0152956
402.934	0.0151980
403.012	0.0151677
403.090	0.0152279
403.168	0.0150370
403.247	0.0151353
403.325	0.0152719
403.403	0.0151282
403.481	0.0151605
403.559	0.0151018
403.637	0.0150026
403.715	0.0151231
403.793	0.0151517
403.872	0.0153300
403.950	0.0152245
404.028	0.0151685
404.106	0.0151896
404.184	0.0151499
404.262	0.0150901
404.340	0.0153613
404.418	0.0152266
404.497	0.0151868
404.575	0.0151283
404.653	0.0151522
404.731	0.0152594
404.809	0.0151946
404.887	0.0151764
404.965	0.0151990
405.043	0.0152412
405.122	0.0151617
405.200	0.0151579
405.278	0.0151592
405.356	0.0152486
405.434	0.0151674
405.512	0.0152037
405.590	0.0153273
405.668	0.0152888
405.747	0.0150939
405.825	0.0151418
405.903	0.0151131
405.981	0.0152315
406.059	0.0152744
406.137	0.0152957
406.215	0.0151785
406.293	0.0152041
406.372	0.0152264
406.450	0.0152189
406.528	0.0153260
406.606	0.0151050
406.684	0.0151616
406.762	0.0152463
406.840	0.0150972
406.918	0.0150442
406.997	0.0152638
407.075	0.0151916
407.153	0.0150654
407.231	0.0151027
407.309	0.0152041
407.387	0.0152307
407.465	0.0150777
407.543	0.0150973
407.622	0.0151458
407.700	0.0151556
407.778	0.0151579
407.856	0.0151063
407.934	0.0152031
408.012	0.0152694
408.090	0.0152503
408.168	0.0151587
408.247	0.0152031
408.325	0.0150619
408.403	0.0152009
408.481	0.0152451
408.559	0.0151245
408.637	0.0151579
408.715	0.0151952
408.793	0.0150993
408.872	0.0151057
408.950	0.0151114
409.028	0.0153497
409.106	0.0151057
409.184	0.0151276
409.262	0.0151271
409.340	0.0152030
409.418	0.0152949
409.497	0.0152572
409.575	0.0150497
409.653	0.0151613
409.731	0.0151413
409.809	0.0151797
409.887	0.0151311
409.965	0.0152268
410.043	0.0151796
410.122	0.0150421
410.200	0.0152072
410.278	0.0152621
410.356	0.0151238
410.434	0.0151822
410.512	0.0152549
410.590	0.0151978
410.668	0.0151098
410.747	0.0151699
410.825	0.0152911
410.903	0.0151744
410.981	0.0151888
411.059	0.0152676
411.137	0.0152549
411.215	0.0152766
411.293	0.0151324
411.372	0.0152568
411.450	0.0151582
411.528	0.0150193
411.606	0.0152258
411.684	0.0153332
411.762	0.0151066
411.840	0.0150903
411.918	0.0152452
411.997	0.0151955
412.075	0.0152223
412.153	0.0152795
412.231	0.0153098
412.309	0.0152573
412.387	0.0151580
412.465	0.0152238
412.543	0.0152573
412.622	0.0152348
412.700	0.0151699
412.778	0.0152065
412.856	0.0152406
412.934	0.0151891
413.012	0.0152284
413.090	0.0152769
413.168	0.0151421
413.247	0.0151810
413.325	0.0151708
413.403	0.0153313
413.481	0.0152892
413.559	0.0152795
413.637	0.0153249
413.715	0.0151597
413.793	0.0152775
413.872	0.0151574
413.950	0.0152386
414.028	0.0152417
414.106	0.0153108
414.184	0.0150217
414.262	0.0153110
414.340	0.0152708
414.418	0.0151570
414.497	0.0151849
414.575	0.0152848
414.653	0.0151048
414.731	0.0151999
414.809	0.0152663
414.887	0.0150602
414.965	0.0151878
415.043	0.0151620
415.122	0.0152340
415.200	0.0151463
415.278	0.0152551
415.356	0.0150243
415.434	0.0151435
415.512	0.0151814
415.590	0.0152398
415.668	0.0151207
415.747	0.0151735
415.825	0.0152602
415.903	0.0151469
415.981	0.0152351
416.059	0.0151815
416.137	0.0153062
416.215	0.0152297
416.293	0.0151433
416.372	0.0152162
416.450	0.0150915
416.528	0.0151474
416.606	0.0153738
416.684	0.0152100
416.762	0.0151357
416.840	0.0152097
416.918	0.0151410
416.997	0.0150498
417.075	0.0151958
417.153	0.0151976
417.231	0.0151810
417.309	0.0151789
417.387	0.0152611
417.465	0.0152055
417.543	0.0151663
417.622	0.0152016
417.700	0.0151814
417.778	0.0151712
417.856	0.0151273
417.934	0.0152001
418.012	0.0152764
418.090	0.0152668
418.168	0.0150446
418.247	0.0151392
418.325	0.0152357
418.403	0.0153535
418.481	0.0151318
418.559	0.0152369
418.637	0.0151791
418.715	0.0152923
418.793	0.0151321
418.872	0.0152141
418.950	0.0151572
419.028	0.0152161
419.106	0.0152180
419.184	0.0151900
419.262	0.0152921
419.340	0.0151326
419.418	0.0152211
419.497	0.0152161
419.575	0.0152576
419.653	0.0152003
419.731	0.0152633
419.809	0.0152082
419.887	0.0152674
419.965	0.0153156
420.043	0.0152116
420.122	0.0153090
420.200	0.0152180
420.278	0.0152261
420.356	0.0152288
420.434	0.0153021
420.512	0.0152641
420.590	0.0152787
420.668	0.0151742
420.747	0.0151926
420.825	0.0151671
420.903	0.0152402
420.981	0.0152194
421.059	0.0152669
421.137	0.0152550
421.215	0.0151937
421.293	0.0150602
421.372	0.0153134
421.450	0.0152747
421.528	0.0151702
421.606	0.0152030
421.684	0.0151073
421.762	0.0151775
421.840	0.0151289
421.918	0.0151647
421.997	0.0151651
422.075	0.0151468
422.153	0.0151374
422.231	0.0151125
422.309	0.0152374
422.387	0.0152439
422.465	0.0151265
422.543	0.0152513
422.622	0.0150436
422.700	0.0151014
422.778	0.0151589
422.856	0.0152412
422.934	0.0152908
423.012	0.0152763
423.090	0.0151086
423.168	0.0151407
423.247	0.0151846
423.325	0.0152262
423.403	0.0152734
423.481	0.0150757
423.559	0.0151404
423.637	0.0152810
423.715	0.0151434
423.793	0.0151453
423.872	0.0151201
423.950	0.0151267
424.028	0.0150563
424.106	0.0151823
424.184	0.0151860
424.262	0.0150899
424.340	0.0150793
424.418	0.0150497
424.497	0.0152329
424.575	0.0151900
424.653	0.0151659
424.731	0.0151955
424.809	0.0151643
424.887	0.0151349
424.965	0.0151788
425.043	0.0151808
425.122	0.0151347
425.200	0.0151025
425.278	0.0150940
425.356	0.0150347
425.434	0.0152738
425.512	0.0153477
425.590	0.0151598
425.668	0.0152203
425.747	0.0153310
425.825	0.0152450
425.903	0.0153093
425.981	0.0152428
426.059	0.0150795
426.137	0.0151757
426.215	0.0152835
426.293	0.0152356
426.372	0.0151836
426.450	0.0152294
426.528	0.0151694
426.606	0.0152924
426.684	0.0151158
426.762	0.0152375
426.840	0.0151857
426.918	0.0152170
426.997	0.0151705
427.075	0.0152834
427.153	0.0152655
427.231	0.0150428
427.309	0.0152515
427.387	0.0152857
427.465	0.0152944
427.543	0.0151736
427.622	0.0151791
427.700	0.0153430
427.778	0.0153475
427.856	0.0150196
427.934	0.0152526
428.012	0.0152316
428.090	0.0150603
428.168	0.0151968
428.247	0.0151479
428.325	0.0151631
428.403	0.0154237
428.481	0.0152274
428.559	0.0150848
428.637	0.0151370
428.715	0.0152322
428.793	0.0152100
428.872	0.0150821
428.950	0.0151819
429.028	0.0151878
429.106	0.0151366
429.184	0.0152370
429.262	0.0151383
429.340	0.0151556
429.418	0.0150942
429.497	0.0151810
429.575	0.0151374
429.653	0.0151922
429.731	0.0152010
429.809	0.0151042
429.887	0.0151847
429.965	0.0152901
430.043	0.0151355
430.122	0.0153114
430.200	0.0152420
430.278	0.0151048
430.356	0.0151543
430.434	0.0152274
430.512	0.0151044
430.590	0.0152091
430.668	0.0151649
430.747	0.0151866
430.825	0.0152068
430.903	0.0152531
430.981	0.0151495
431.059	0.0151649
431.137	0.0151698
431.215	0.0152546
431.293	0.0152152
431.372	0.0151433
431.450	0.0151877
431.528	0.0152336
431.606	0.0150966
431.684	0.0151737
431.762	0.0152121
431.840	0.0153593
431.918	0.0152343
431.997	0.0151962
432.075	0.0152154
432.153	0.0150861
432.231	0.0152818
432.309	0.0151083
432.387	0.0151513
432.465	0.0150687
432.543	0.0151657
432.622	0.0152676
432.700	0.0151494
432.778	0.0151725
432.856	0.0153619
432.934	0.0152155
433.012	0.0151405
433.090	0.0152048
433.168	0.0152510
433.247	0.0152882
433.325	0.0151569
433.403	0.0151941
433.481	0.0153203
433.559	0.0152585
433.637	0.0153156
433.715	0.0151768
433.793	0.0152102
433.872	0.0154505
433.950	0.0152897
434.028	0.0151713
434.106	0.0151326
434.184	0.0153296
434.262	0.0151976
434.340	0.0151752
434.418	0.0152640
434.497	0.0151624
434.575	0.0151347
434.653	0.0152539
434.731	0.0152258
434.809	0.0150953
434.887	0.0151345
434.965	0.0153632
435.043	0.0152682
435.122	0.0153383
435.200	0.0151476
435.278	0.0151441
435.356	0.0151542
435.434	0.0151107
435.512	0.0151881
435.590	0.0152611
435.668	0.0151653
435.747	0.0152456
435.825	0.0152048
435.903	0.0151965
435.981	0.0152797
436.059	0.0151616
436.137	0.0152371
436.215	0.0152424
436.293	0.0152071
436.372	0.0151926
436.450	0.0151751
436.528	0.0152293
436.606	0.0153286
436.684	0.0152385
436.762	0.0152103
436.840	0.0153073
436.918	0.0152051
436.997	0.0152020
437.075	0.0152086
437.153	0.0153290
437.231	0.0151582
437.309	0.0152054
437.387	0.0151810
437.465	0.0152872
437.543	0.0153351
437.622	0.0152125
437.700	0.0151414
437.778	0.0153304
437.856	0.0151434
437.934	0.0152354
438.012	0.0151742
438.090	0.0153377
438.168	0.0152268
438.247	0.0151664
438.325	0.0151041
438.403	0.0152106
438.481	0.0152369
438.559	0.0151601
438.637	0.0151507
438.715	0.0153513
438.793	0.0151875
438.872	0.0151570
438.950	0.0151571
439.028	0.0149904
439.106	0.0151563
439.184	0.0151376
439.262	0.0151116
439.340	0.0150614
439.418	0.0151846
439.497	0.0152190
439.575	0.0151562
439.653	0.0153479
439.731	0.0152394
439.809	0.0152363
439.887	0.0152497
439.965	0.0151234
440.043	0.0151773
440.122	0.0151092
440.200	0.0149798
440.278	0.0151468
440.356	0.0151704
440.434	0.0151071
440.512	0.0150406
440.590	0.0151384
440.668	0.0152369
440.747	0.0152992
440.825	0.0152648
440.903	0.0152190
440.981	0.0151387
441.059	0.0152485
441.137	0.0150909
441.215	0.0151179
441.293	0.0153228
441.372	0.0153049
441.450	0.0152229
441.528	0.0151719
441.606	0.0151678
441.684	0.0151935
441.762	0.0153408
441.840	0.0151565
441.918	0.0151989
441.997	0.0152086
442.075	0.0152758
442.153	0.0153352
442.231	0.0152573
442.309	0.0150963
442.387	0.0152459
442.465	0.0152554
442.543	0.0152589
442.622	0.0152210
442.700	0.0152230
442.778	0.0152359
442.856	0.0151606
442.934	0.0151202
443.012	0.0151402
443.090	0.0152435
443.168	0.0152483
443.247	0.0153493
443.325	0.0151903
443.403	0.0152683
443.481	0.0152269
443.559	0.0151829
443.637	0.0153699
443.715	0.0151405
443.793	0.0151488
443.872	0.0150921
443.950	0.0151373
444.028	0.0153583
444.106	0.0153556
444.184	0.0151358
444.262	0.0152367
444.340	0.0152179
444.418	0.0151315
444.497	0.0153001
444.575	0.0151836
444.653	0.0152866
444.731	0.0153869
444.809	0.0151109
444.887	0.0152556
444.965	0.0151379
445.043	0.0152670
445.122	0.0151560
445.200	0.0153357
445.278	0.0151749
445.356	0.0152564
445.434	0.0150597
445.512	0.0152411
445.590	0.0153202
445.668	0.0152246
445.747	0.0152514
445.825	0.0151905
445.903	0.0152625
445.981	0.0153169
446.059	0.0151744
446.137	0.0151823
446.215	0.0151368
446.293	0.0152396
446.372	0.0153111
446.450	0.0152944
446.528	0.0150913
446.606	0.0152671
446.684	0.0152387
446.762	0.0151282
446.840	0.0151831
446.918	0.0152224
446.997	0.0152039
447.075	0.0151710
447.153	0.0152291
447.231	0.0152319
447.309	0.0152665
447.387	0.0151288
447.465	0.0152114
447.543	0.0152081
447.622	0.0151401
447.700	0.0152669
447.778	0.0150863
447.856	0.0151826
447.934	0.0151749
448.012	0.0150771
448.090	0.0153908
448.168	0.0151398
448.247	0.0152206
448.325	0.0152588
448.403	0.0152238
448.481	0.0151288
448.559	0.0152116
448.637	0.0150814
448.715	0.0151366
448.793	0.0151629
448.872	0.0151907
448.950	0.0152779
449.028	0.0152077
449.106	0.0152372
449.184	0.0151287
449.262	0.0151648
449.340	0.0152551
449.418	0.0152868
449.497	0.0151910
449.575	0.0152080
449.653	0.0151807
449.731	0.0152521
449.809	0.0150674
449.887	0.0151924
449.965	0.0152316
450.043	0.0151575
450.122	0.0151447
450.200	0.0151464
450.278	0.0151579
450.356	0.0152534
450.434	0.0152801
450.512	0.0152551
450.590	0.0150722
450.668	0.0153615
450.747	0.0151927
450.825	0.0151611
450.903	0.0152693
450.981	0.0152442
451.059	0.0152385
451.137	0.0151859
451.215	0.0151295
451.293	0.0150990
451.372	0.0151594
451.450	0.0152206
451.528	0.0152590
451.606	0.0152203
451.684	0.0151692
451.762	0.0151660
451.840	0.0151778
451.918	0.0151070
451.997	0.0151781
452.075	0.0151348
452.153	0.0151827
452.231	0.0153191
452.309	0.0150494
452.387	0.0151441
452.465	0.0150796
452.543	0.0152668
452.622	0.0152483
452.700	0.0152098
452.778	0.0151305
452.856	0.0152612
452.934	0.0152084
453.012	0.0150887
453.090	0.0151173
453.168	0.0152719
453.247	0.0152872
453.325	0.0151862
453.403	0.0152375
453.481	0.0152374
453.559	0.0151807
453.637	0.0151010
453.715	0.0152090
453.793	0.0152503
453.872	0.0151647
453.950	0.0153577
454.028	0.0150967
454.106	0.0150890
454.184	0.0152142
454.262	0.0152313
454.340	0.0151904
454.418	0.0152193
454.497	0.0152357
454.575	0.0151443
454.653	0.0150626
454.731	0.0152287
454.809	0.0153148
454.887	0.0152610
454.965	0.0151466
455.043	0.0151411
455.122	0.0151414
455.200	0.0151579
455.278	0.0152724
455.356	0.0150834
455.434	0.0151375
455.512	0.0151020
455.590	0.0152383
455.668	0.0150268
455.747	0.0152424
455.825	0.0153312
455.903	0.0153471
455.981	0.0151933
456.059	0.0152232
456.137	0.0151009
456.215	0.0151168
456.293	0.0151941
456.372	0.0151308
456.450	0.0151759
456.528	0.0151535
456.606	0.0151553
456.684	0.0151512
456.762	0.0153094
456.840	0.0152103
456.918	0.0152757
456.997	0.0151508
457.075	0.0151776
457.153	0.0151752
457.231	0.0153027
457.309	0.0150783
457.387	0.0150896
457.465	0.0151140
457.543	0.0152573
457.622	0.0150782
457.700	0.0152428
457.778	0.0150887
457.856	0.0151126
457.934	0.0151569
458.012	0.0153341
458.090	0.0152097
458.168	0.0150301
458.247	0.0151038
458.325	0.0151060
458.403	0.0152345
458.481	0.0151830
458.559	0.0152319
458.637	0.0151362
458.715	0.0150605
458.793	0.0152156
458.872	0.0153220
458.950	0.0152633
459.028	0.0153495
459.106	0.0152340
459.184	0.0151338
459.262	0.0152384
459.340	0.0153092
459.418	0.0153460
459.497	0.0153806
459.575	0.0152531
459.653	0.0151339
459.731	0.0152015
459.809	0.0152166
459.887	0.0152771
459.965	0.0152583
460.043	0.0152594
460.122	0.0152136
460.200	0.0152809
460.278	0.0152456
460.356	0.0151373
460.434	0.0152584
460.512	0.0152569
460.590	0.0152229
460.668	0.0152615
460.747	0.0151949
460.825	0.0153368
460.903	0.0152850
460.981	0.0152916
461.059	0.0152848
461.137	0.0152296
461.215	0.0152194
461.293	0.0153073
461.372	0.0151902
461.450	0.0153223
461.528	0.0152392
461.606	0.0153223
461.684	0.0151929
461.762	0.0153499
461.840	0.0152545
461.918	0.0151616
461.997	0.0152367
462.075	0.0152613
462.153	0.0150591
462.231	0.0152342
462.309	0.0152849
462.387	0.0152011
462.465	0.0150896
462.543	0.0151310
462.622	0.0152457
462.700	0.0153023
462.778	0.0151600
462.856	0.0151723
462.934	0.0151315
463.012	0.0151078
463.090	0.0151456
463.168	0.0151181
463.247	0.0152029
463.325	0.0152917
463.403	0.0151545
463.481	0.0151639
463.559	0.0152534
463.637	0.0152786
463.715	0.0152592
463.793	0.0152425
463.872	0.0151852
463.950	0.0150805
464.028	0.0152477
464.106	0.0153061
464.184	0.0151446
464.262	0.0151368
464.340	0.0152712
464.418	0.0152689
464.497	0.0150820
464.575	0.0151678
464.653	0.0152579
464.731	0.0151567
464.809	0.0149713
464.887	0.0152701
464.965	0.0151615
465.043	0.0150559
465.122	0.0151286
465.200	0.0151217
465.278	0.0150723
465.356	0.0150369
465.434	0.0151540
465.512	0.0151410
465.590	0.0150969
465.668	0.0151203
465.747	0.0151904
465.825	0.0152724
465.903	0.0150864
465.981	0.0150338
466.059	0.0150008
466.137	0.0150509
466.215	0.0150802
466.293	0.0150966
466.372	0.0150896
466.450	0.0151260
466.528	0.0152721
466.606	0.0151894
466.684	0.0150861
466.762	0.0150415
466.840	0.0151108
466.918	0.0152181
466.997	0.0151243
467.075	0.0151641
467.153	0.0150867
467.231	0.0152128
467.309	0.0151873
467.387	0.0152315
467.465	0.0151857
467.543	0.0152703
467.622	0.0152339
467.700	0.0150282
467.778	0.0152838
467.856	0.0151437
467.934	0.0152305
468.012	0.0150856
468.090	0.0152042
468.168	0.0152145
468.247	0.0152223
468.325	0.0151331
468.403	0.0153896
468.481	0.0151557
468.559	0.0151431
468.637	0.0151971
468.715	0.0151875
468.793	0.0151236
468.872	0.0151881
468.950	0.0151276
469.028	0.0152503
469.106	0.0152946
469.184	0.0152755
469.262	0.0150938
469.340	0.0152526
469.418	0.0153275
469.497	0.0152039
469.575	0.0153473
469.653	0.0152688
469.731	0.0151367
469.809	0.0152197
469.887	0.0152995
469.965	0.0152953
470.043	0.0151392
470.122	0.0151532
470.200	0.0153570
470.278	0.0152689
470.356	0.0151529
470.434	0.0151236
470.512	0.0151443
470.590	0.0151180
470.668	0.0152717
470.747	0.0152799
470.825	0.0150702
470.903	0.0152790
470.981	0.0153323
471.059	0.0152116
471.137	0.0151472
471.215	0.0151493
471.293	0.0151807
471.372	0.0151353
471.450	0.0150447
471.528	0.0152054
471.606	0.0151765
471.684	0.0152273
471.762	0.0151723
471.840	0.0151976
471.918	0.0150778
471.997	0.0150869
472.075	0.0151718
472.153	0.0153763
472.231	0.0152644
472.309	0.0151910
472.387	0.0151873
472.465	0.0151143
472.543	0.0151675
472.622	0.0151907
472.700	0.0152544
472.778	0.0152174
472.856	0.0151477
472.934	0.0152429
473.012	0.0152552
473.090	0.0151453
473.168	0.0152385
473.247	0.0151542
473.325	0.0151311
473.403	0.0151376
473.481	0.0149965
473.559	0.0151728
473.637	0.0150175
473.715	0.0152040
473.793	0.0151482
473.872	0.0151984
473.950	0.0151627
474.028	0.0151795
474.106	0.0151598
474.184	0.0151734
474.262	0.0151218
474.340	0.0150320
474.418	0.0152295
474.497	0.0152368
474.575	0.0152419
474.653	0.0151637
474.731	0.0151582
474.809	0.0152122
474.887	0.0151263
474.965	0.0152788
475.043	0.0151268
475.122	0.0150975
475.200	0.0152541
475.278	0.0152386
475.356	0.0151222
475.434	0.0152106
475.512	0.0152242
475.590	0.0152264
475.668	0.0152272
475.747	0.0153328
475.825	0.0153576
475.903	0.0152437
475.981	0.0152245
476.059	0.0153484
476.137	0.0152261
476.215	0.0152579
476.293	0.0153304
476.372	0.0153307
476.450	0.0151929
476.528	0.0152710
476.606	0.0152709
476.684	0.0152125
476.762	0.0153611
476.840	0.0152824
476.918	0.0153142
476.997	0.0151933
477.075	0.0152100
477.153	0.0151707
477.231	0.0152582
477.309	0.0151357
477.387	0.0151513
477.465	0.0150926
477.543	0.0153159
477.622	0.0151253
477.700	0.0150816
477.778	0.0151948
477.856	0.0153088
477.934	0.0152229
478.012	0.0151192
478.090	0.0150562
478.168	0.0151673
478.247	0.0152099
478.325	0.0150861
478.403	0.0151792
478.481	0.0151890
478.559	0.0152228
478.637	0.0152996
478.715	0.0154330
478.793	0.0152956
478.872	0.0151225
478.950	0.0151886
479.028	0.0151450
479.106	0.0152657
479.184	0.0151511
479.262	0.0151049
479.340	0.0151565
479.418	0.0152016
479.497	0.0153091
479.575	0.0152158
479.653	0.0150871
479.731	0.0151925
479.809	0.0154000
479.887	0.0151717
479.965	0.0151123
480.043	0.0152995
480.122	0.0152248
480.200	0.0151839
480.278	0.0151533
480.356	0.0153124
480.434	0.0152083
480.512	0.0152511
480.590	0.0153036
480.668	0.0151842
480.747	0.0152893
480.825	0.0152226
480.903	0.0152735
480.981	0.0151302
481.059	0.0152048
481.137	0.0152586
481.215	0.0151894
481.293	0.0151527
481.372	0.0152049
481.450	0.0152625
481.528	0.0151404
481.606	0.0152608
481.684	0.0151611
481.762	0.0151804
481.840	0.0150521
481.918	0.0152399
481.997	0.0152543
482.075	0.0152158
482.153	0.0152315
482.231	0.0152219
482.309	0.0151501
482.387	0.0152304
482.465	0.0151931
482.543	0.0151225
482.622	0.0151154
482.700	0.0151272
482.778	0.0151943
482.856	0.0152136
482.934	0.0151594
483.012	0.0151492
483.090	0.0152840
483.168	0.0151405
483.247	0.0152412
483.325	0.0153140
483.403	0.0151585
483.481	0.0153215
483.559	0.0151131
483.637	0.0153366
483.715	0.0151945
483.793	0.0151337
483.872	0.0152239
483.950	0.0151840
484.028	0.0152650
484.106	0.0151358
484.184	0.0151205
484.262	0.0152496
484.340	0.0150760
484.418	0.0152138
484.497	0.0152560
484.575	0.0151722
484.653	0.0153098
484.731	0.0153040
484.809	0.0153017
484.887	0.0151868
484.965	0.0150909
485.043	0.0153613
485.122	0.0152814
485.200	0.0152596
485.278	0.0152259
485.356	0.0152951
485.434	0.0152163
485.512	0.0153441
485.590	0.0152953
485.668	0.0152512
485.747	0.0152074
485.825	0.0152451
485.903	0.0152719
485.981	0.0151669
486.059	0.0153931
486.137	0.0152708
486.215	0.0152168
486.293	0.0153048
486.372	0.0153377
486.450	0.0152781
486.528	0.0152299
486.606	0.0152316
486.684	0.0152668
486.762	0.0152428
486.840	0.0154315
486.918	0.0153414
486.997	0.0152428
487.075	0.0150668
487.153	0.0152056
487.231	0.0152983
487.309	0.0152407
487.387	0.0151609
487.465	0.0152114
487.543	0.0152625
487.622	0.0152352
487.700	0.0151790
487.778	0.0152097
487.856	0.0151765
487.934	0.0151854
488.012	0.0151826
488.090	0.0152967
488.168	0.0151247
488.247	0.0151879
488.325	0.0151880
488.403	0.0150979
488.481	0.0151434
488.559	0.0152175
488.637	0.0151319
488.715	0.0150208
488.793	0.0150735
488.872	0.0150084
488.950	0.0150040
489.028	0.0150714
489.106	0.0151852
489.184	0.0150298
489.262	0.0151489
489.340	0.0151093
489.418	0.0150604
489.497	0.0151808
489.575	0.0151325
489.653	0.0152017
489.731	0.0152664
489.809	0.0151244
489.887	0.0151066
489.965	0.0152171
490.043	0.0151939
490.122	0.0152802
490.200	0.0152415
490.278	0.0151062
490.356	0.0151637
490.434	0.0151760
490.512	0.0152412
490.590	0.0153131
490.668	0.0152137
490.747	0.0152676
490.825	0.0152278
490.903	0.0152735
490.981	0.0152819
491.059	0.0153645
491.137	0.0152958
491.215	0.0151604
491.293	0.0152754
491.372	0.0152245
491.450	0.0151774
491.528	0.0152665
491.606	0.0152642
491.684	0.0152793
491.762	0.0152769
491.840	0.0151583
491.918	0.0152869
491.997	0.0152083
492.075	0.0152406
492.153	0.0153732
492.231	0.0152306
492.309	0.0153141
492.387	0.0152406
492.465	0.0152126
492.543	0.0153481
492.622	0.0153172
492.700	0.0152527
492.778	0.0152225
492.856	0.0152225
492.934	0.0153082
493.012	0.0151168
493.090	0.0152299
493.168	0.0152694
493.247	0.0153217
493.325	0.0152484
493.403	0.0152888
493.481	0.0151060
493.559	0.0150570
493.637	0.0151770
493.715	0.0151559
493.793	0.0152063
493.872	0.0152042
493.950	0.0151939
494.028	0.0152231
494.106	0.0150512
494.184	0.0153078
494.262	0.0152225
494.340	0.0151821
494.418	0.0152671
494.497	0.0151301
494.575	0.0151644
494.653	0.0153325
494.731	0.0152520
494.809	0.0151414
494.887	0.0151935
494.965	0.0152290
495.043	0.0152884
495.122	0.0152186
495.200	0.0150906
495.278	0.0150843
495.356	0.0152806
495.434	0.0152128
495.512	0.0150324
495.590	0.0152428
495.668	0.0152119
495.747	0.0151118
495.825	0.0151617
495.903	0.0151235
495.981	0.0151830
496.059	0.0152245
496.137	0.0151949
496.215	0.0151601
496.293	0.0151955
496.372	0.0151842
496.450	0.0150946
496.528	0.0151866
496.606	0.0151733
496.684	0.0151173
496.762	0.0152193
496.840	0.0150640
496.918	0.0151788
496.997	0.0151905
497.075	0.0150738
497.153	0.0152107
497.231	0.0151543
497.309	0.0152882
497.387	0.0150665
497.465	0.0152035
497.543	0.0151920
497.622	0.0152084
497.700	0.0152048
497.778	0.0152494
497.856	0.0150474
497.934	0.0150924
498.012	0.0152343
498.090	0.0151559
498.168	0.0151118
498.247	0.0153041
498.325	0.0152334
498.403	0.0152550
498.481	0.0151411
498.559	0.0152785
498.637	0.0150856
498.715	0.0151675
498.793	0.0152248
498.872	0.0152082
498.950	0.0152187
499.028	0.0152837
499.106	0.0153968
499.184	0.0150947
499.262	0.0150097
499.340	0.0151841
499.418	0.0153044
499.497	0.0153276
499.575	0.0152610
499.653	0.0151058
499.731	0.0151891
499.809	0.0151070
499.887	0.0152389
499.965	0.0153304
500.043	0.0152084
500.122	0.0152215
500.200	0.0153111
500.278	0.0151492
500.356	0.0152711
500.434	0.0153059
500.512	0.0153346
500.590	0.0152266
500.668	0.0152088
500.747	0.0153623
500.825	0.0153115
500.903	0.0151269
500.981	0.0152579
501.059	0.0152570
501.137	0.0152506
501.215	0.0151936
501.293	0.0152550
501.372	0.0152480
501.450	0.0152868
501.528	0.0152077
501.606	0.0152750
501.684	0.0154357
501.762	0.0152376
501.840	0.0151618
501.918	0.0152955
501.997	0.0154142
502.075	0.0152316
502.153	0.0151886
502.231	0.0152904
502.309	0.0153353
502.387	0.0151626
502.465	0.0153764
502.543	0.0153085
502.622	0.0152187
502.700	0.0151500
502.778	0.0153455
502.856	0.0152563
502.934	0.0153282
503.012	0.0153599
503.090	0.0152608
503.168	0.0151622
503.247	0.0151812
503.325	0.0152642
503.403	0.0153311
503.481	0.0152355
503.559	0.0152511
503.637	0.0152784
503.715	0.0152280
503.793	0.0150604
503.872	0.0152883
503.950	0.0151669
504.028	0.0152512
504.106	0.0153059
504.184	0.0151068
504.262	0.0151975
504.340	0.0152493
504.418	0.0153127
504.497	0.0151838
504.575	0.0150507
504.653	0.0151766
504.731	0.0151148
504.809	0.0152030
504.887	0.0151945
504.965	0.0151749
505.043	0.0153295
505.122	0.0151838
505.200	0.0151913
505.278	0.0152348
505.356	0.0151745
505.434	0.0152029
505.512	0.0153271
505.590	0.0152392
505.668	0.0151926
505.747	0.0151246
505.825	0.0152269
505.903	0.0152244
505.981	0.0152390
506.059	0.0152960
506.137	0.0152212
506.215	0.0152581
506.293	0.0153017
506.372	0.0153508
506.450	0.0153053
506.528	0.0152077
506.606	0.0153468
506.684	0.0151891
506.762	0.0152614
506.840	0.0152753
506.918	0.0152834
506.997	0.0151847
507.075	0.0153671
507.153	0.0152277
507.231	0.0150544
507.309	0.0152857
507.387	0.0154287
507.465	0.0154169
507.543	0.0151715
507.622	0.0151547
507.700	0.0153090
507.778	0.0151762
507.856	0.0151687
507.934	0.0152524
508.012	0.0151718
508.090	0.0152219
508.168	0.0154066
508.247	0.0153861
508.325	0.0152034
508.403	0.0152702
508.481	0.0152045
508.559	0.0151080
508.637	0.0151006
508.715	0.0152416
508.793	0.0151991
508.872	0.0152598
508.950	0.0151481
509.028	0.0151653
509.106	0.0150686
509.184	0.0152970
509.262	0.0153384
509.340	0.0151777
509.418	0.0150964
509.497	0.0151882
509.575	0.0152175
509.653	0.0151521
509.731	0.0151867
509.809	0.0151658
509.887	0.0152391
509.965	0.0151096
510.043	0.0151212
510.122	0.0151873
510.200	0.0152016
510.278	0.0152359
510.356	0.0151805
510.434	0.0152340
510.512	0.0153520
510.590	0.0151622
510.668	0.0150180
510.747	0.0151015
510.825	0.0152687
510.903	0.0151633
510.981	0.0151183
511.059	0.0150857
511.137	0.0152027
511.215	0.0153249
511.293	0.0152491
511.372	0.0152124
511.450	0.0153424
511.528	0.0151073
511.606	0.0151888
511.684	0.0152311
511.762	0.0152252
511.840	0.0150629
511.918	0.0152457
511.997	0.0152668
512.075	0.0153011
512.153	0.0151581
512.231	0.0151852
512.309	0.0151944
512.387	0.0151534
512.465	0.0151890
512.543	0.0153072
512.622	0.0151228
512.700	0.0151945
512.778	0.0152727
512.856	0.0151877
512.934	0.0151636
513.012	0.0154433
513.090	0.0153065
513.168	0.0151452
513.247	0.0151012
513.325	0.0152882
513.403	0.0151874
513.481	0.0152358
513.559	0.0152299
513.637	0.0152888
513.715	0.0152243
513.793	0.0151659
513.872	0.0150937
513.950	0.0152730
514.028	0.0152382
514.106	0.0152075
514.184	0.0151427
514.262	0.0152160
514.340	0.0153121
514.418	0.0153035
514.497	0.0151841
514.575	0.0151044
514.653	0.0151244
514.731	0.0152438
514.809	0.0152995
514.887	0.0152538
514.965	0.0151316
515.043	0.0152312
515.122	0.0152146
515.200	0.0152254
515.278	0.0153868
515.356	0.0151716
515.434	0.0152998
515.512	0.0152839
515.590	0.0153052
515.668	0.0153154
515.747	0.0152909
515.825	0.0152103
515.903	0.0151311
515.981	0.0153471
516.059	0.0152929
516.137	0.0152879
516.215	0.0151801
516.293	0.0151939
516.372	0.0151789
516.450	0.0151657
516.528	0.0153176
516.606	0.0152710
516.684	0.0152690
516.762	0.0151563
516.840	0.0152384
516.918	0.0152714
516.997	0.0152192
517.075	0.0152524
517.153	0.0153107
517.231	0.0150562
517.309	0.0151544
517.387	0.0151732
517.465	0.0151424
517.543	0.0152245
517.622	0.0152297
517.700	0.0152216
517.778	0.0151743
517.856	0.0151377
517.934	0.0150785
518.012	0.0152632
518.090	0.0152229
518.168	0.0152027
518.247	0.0151272
518.325	0.0152619
518.403	0.0152142
518.481	0.0151260
518.559	0.0151928
518.637	0.0151739
518.715	0.0152357
518.793	0.0151849
518.872	0.0152554
518.950	0.0151357
519.028	0.0151666
519.106	0.0152104
519.184	0.0152254
519.262	0.0151148
519.340	0.0150675
519.418	0.0150950
519.497	0.0151385
519.575	0.0152431
519.653	0.0152641
519.731	0.0152440
519.809	0.0151234
519.887	0.0152116
519.965	0.0150907
520.043	0.0151765
520.122	0.0152703
520.200	0.0152044
520.278	0.0153372
520.356	0.0151129
520.434	0.0151711
520.512	0.0151058
520.590	0.0152097
520.668	0.0152695
520.747	0.0151509
520.825	0.0150886
520.903	0.0152120
520.981	0.0151170
521.059	0.0151912
521.137	0.0151397
521.215	0.0152122
521.293	0.0152620
521.372	0.0151906
521.450	0.0151598
521.528	0.0152107
521.606	0.0153629
521.684	0.0151397
521.762	0.0151578
521.840	0.0151703
521.918	0.0153123
521.997	0.0152869
522.075	0.0151168
522.153	0.0151601
522.231	0.0152644
522.309	0.0152682
522.387	0.0152158
522.465	0.0152190
522.543	0.0152692
522.622	0.0152139
522.700	0.0152936
522.778	0.0152779
522.856	0.0152636
522.934	0.0151538
523.012	0.0150729
523.090	0.0153609
523.168	0.0153117
523.247	0.0153063
523.325	0.0152508
523.403	0.0153226
523.481	0.0152199
523.559	0.0152797
523.637	0.0153235
523.715	0.0152669
523.793	0.0152977
523.872	0.0152209
523.950	0.0153034
524.028	0.0152402
524.106	0.0152167
524.184	0.0152242
524.262	0.0151040
524.340	0.0153026
524.418	0.0151627
524.497	0.0152418
524.575	0.0152273
524.653	0.0152576
524.731	0.0152950
524.809	0.0151875
524.887	0.0151231
524.965	0.0152166
525.043	0.0153954
525.122	0.0152563
525.200	0.0152854
525.278	0.0151022
525.356	0.0151459
525.434	0.0152903
525.512	0.0153326
525.590	0.0152260
525.668	0.0152769
525.747	0.0152229
525.825	0.0152013
525.903	0.0152468
525.981	0.0153114
526.059	0.0152225
526.137	0.0151694
526.215	0.0152022
526.293	0.0152104
526.372	0.0151283
526.450	0.0151662
526.528	0.0152548
526.606	0.0152044
526.684	0.0151550
526.762	0.0153246
526.840	0.0152170
526.918	0.0151935
526.997	0.0151850
527.075	0.0152489
527.153	0.0152378
527.231	0.0152108
527.309	0.0151469
527.387	0.0150752
527.465	0.0152425
527.543	0.0151802
527.622	0.0151133
527.700	0.0151213
527.778	0.0152219
527.856	0.0153217
527.934	0.0151495
528.012	0.0150986
528.090	0.0152245
528.168	0.0152497
528.247	0.0151472
528.325	0.0151559
528.403	0.0152105
528.481	0.0151431
528.559	0.0152713
528.637	0.0152297
528.715	0.0151443
528.793	0.0151371
528.872	0.0153545
528.950	0.0151913
529.028	0.0152247
529.106	0.0151063
529.184	0.0152767
529.262	0.0151768
529.340	0.0152214
529.418	0.0152780
529.497	0.0151606
529.575	0.0151296
529.653	0.0151250
529.731	0.0151793
529.809	0.0152467
529.887	0.0151318
529.965	0.0151675
530.043	0.0152666
530.122	0.0153101
530.200	0.0152404
530.278	0.0152296
530.356	0.0153767
530.434	0.0151821
530.512	0.0152129
530.590	0.0153347
530.668	0.0153187
530.747	0.0151483
530.825	0.0151543
530.903	0.0152668
530.981	0.0152282
531.059	0.0150278
531.137	0.0151484
531.215	0.0152956
531.293	0.0152113
531.372	0.0151324
531.450	0.0151250
531.528	0.0151634
531.606	0.0152182
531.684	0.0151804
531.762	0.0152362
531.840	0.0152640
531.918	0.0152134
531.997	0.0151732
532.075	0.0152535
532.153	0.0153436
532.231	0.0151890
532.309	0.0151354
532.387	0.0152914
532.465	0.0152914
532.543	0.0152958
532.622	0.0152597
532.700	0.0151516
532.778	0.0152525
532.856	0.0152106
532.934	0.0153472
533.012	0.0153322
533.090	0.0152293
533.168	0.0153442
533.247	0.0152789
533.325	0.0151640
533.403	0.0151638
533.481	0.0152709
533.559	0.0152242
533.637	0.0152050
533.715	0.0151245
533.793	0.0152956
533.872	0.0152283
533.950	0.0150395
534.028	0.0151624
534.106	0.0151958
534.184	0.0152148
534.262	0.0153421
534.340	0.0152031
534.418	0.0152132
534.497	0.0151207
534.575	0.0151886
534.653	0.0152597
534.731	0.0151177
534.809	0.0150848
534.887	0.0151208
534.965	0.0151696
535.043	0.0152294
535.122	0.0151572
535.200	0.0151072
535.278	0.0150907
535.356	0.0152017
535.434	0.0151561
535.512	0.0151627
535.590	0.0151797
535.668	0.0151681
535.747	0.0152364
535.825	0.0150981
535.903	0.0150359
535.981	0.0152433
536.059	0.0152585
536.137	0.0151760
536.215	0.0151253
536.293	0.0150893
536.372	0.0153320
536.450	0.0153846
536.528	0.0152219
536.606	0.0152395
536.684	0.0152731
536.762	0.0153315
536.840	0.0152643
536.918	0.0152470
536.997	0.0152882
537.075	0.0152699
537.153	0.0152660
537.231	0.0151939
537.309	0.0152281
537.387	0.0153160
537.465	0.0150739
537.543	0.0150957
537.622	0.0150917
537.700	0.0151491
537.778	0.0151725
537.856	0.0151496
537.934	0.0151439
538.012	0.0150732
538.090	0.0151883
538.168	0.0151491
538.247	0.0152499
538.325	0.0151460
538.403	0.0151419
538.481	0.0151775
538.559	0.0151344
538.637	0.0151274
538.715	0.0151131
538.793	0.0150373
538.872	0.0151583
538.950	0.0152475
539.028	0.0151192
539.106	0.0151033
539.184	0.0151466
539.262	0.0151492
539.340	0.0151014
539.418	0.0150719
539.497	0.0151090
539.575	0.0152560
539.653	0.0151714
539.731	0.0151717
539.809	0.0151862
539.887	0.0152359
539.965	0.0153379
540.043	0.0150908
540.122	0.0152085
540.200	0.0152223
540.278	0.0153017
540.356	0.0152894
540.434	0.0152911
540.512	0.0151038
540.590	0.0151556
540.668	0.0152174
540.747	0.0153119
540.825	0.0153696
540.903	0.0151494
540.981	0.0153422
541.059	0.0152000
541.137	0.0152419
541.215	0.0151366
541.293	0.0151785
541.372	0.0152063
541.450	0.0152721
541.528	0.0152612
541.606	0.0152829
541.684	0.0153935
541.762	0.0150411
541.840	0.0152367
541.918	0.0151686
541.997	0.0152503
542.075	0.0154041
542.153	0.0151633
542.231	0.0151179
542.309	0.0151861
542.387	0.0151911
542.465	0.0152649
542.543	0.0151567
542.622	0.0150504
542.700	0.0151373
542.778	0.0151596
542.856	0.0152106
542.934	0.0152036
543.012	0.0152451
543.090	0.0152279
543.168	0.0152408
543.247	0.0153400
543.325	0.0152142
543.403	0.0151038
543.481	0.0151334
543.559	0.0151882
543.637	0.0152925
543.715	0.0151894
543.793	0.0152882
543.872	0.0154397
543.950	0.0152225
544.028	0.0152914
544.106	0.0153190
544.184	0.0154066
544.262	0.0154070
544.340	0.0152480
544.418	0.0152438
544.497	0.0152292
544.575	0.0153273
544.653	0.0151868
544.731	0.0151505
544.809	0.0151301
544.887	0.0152141
544.965	0.0152961
545.043	0.0153825
545.122	0.0151265
545.200	0.0152670
545.278	0.0152461
545.356	0.0151614
545.434	0.0151936
545.512	0.0152275
545.590	0.0152644
545.668	0.0151206
545.747	0.0152023
545.825	0.0151804
545.903	0.0152473
545.981	0.0151649
546.059	0.0152705
546.137	0.0151836
546.215	0.0153136
546.293	0.0151941
546.372	0.0152521
546.450	0.0151951
546.528	0.0151408
546.606	0.0152975
546.684	0.0151003
546.762	0.0151936
546.840	0.0150798
546.918	0.0152568
546.997	0.0150311
547.075	0.0150680
547.153	0.0150410
547.231	0.0151754
547.309	0.0152258
547.387	0.0150674
547.465	0.0152072
547.543	0.0150965
547.622	0.0152204
547.700	0.0152633
547.778	0.0151484
547.856	0.0151460
547.934	0.0152299
548.012	0.0151673
548.090	0.0151693
548.168	0.0151208
548.247	0.0152049
548.325	0.0152043
548.403	0.0150646
548.481	0.0151350
548.559	0.0153301
548.637	0.0151767
548.715	0.0151327
548.793	0.0152206
548.872	0.0151756
548.950	0.0151869
549.028	0.0151556
549.106	0.0151060
549.184	0.0153075
549.262	0.0153780
549.340	0.0150877
549.418	0.0150759
549.497	0.0152522
549.575	0.0153432
549.653	0.0152998
549.731	0.0153050
549.809	0.0152337
549.887	0.0152586
549.965	0.0152782
550.043	0.0153333
550.122	0.0151740
550.200	0.0152086
550.278	0.0152625
550.356	0.0153579
550.434	0.0151923
550.512	0.0153320
550.590	0.0154092
550.668	0.0152376
550.747	0.0153479
550.825	0.0153561
550.903	0.0152547
550.981	0.0153323
551.059	0.0153039
551.137	0.0152621
551.215	0.0152271
551.293	0.0151485
551.372	0.0152471
551.450	0.0152176
551.528	0.0152677
551.606	0.0153463
551.684	0.0152689
551.762	0.0152520
551.840	0.0152653
551.918	0.0152464
551.997	0.0151561
552.075	0.0152478
552.153	0.0151852
552.231	0.0151449
552.309	0.0152591
552.387	0.0153329
552.465	0.0152951
552.543	0.0151984
552.622	0.0152724
552.700	0.0152850
552.778	0.0152782
552.856	0.0151346
552.934	0.0152263
553.012	0.0152818
553.090	0.0150909
553.168	0.0153251
553.247	0.0153197
553.325	0.0151637
553.403	0.0152360
553.481	0.0151278
553.559	0.0152467
553.637	0.0153140
553.715	0.0151746
553.793	0.0152471
553.872	0.0152475
553.950	0.0152707
554.028	0.0152614
554.106	0.0152628
554.184	0.0151390
554.262	0.0153703
554.340	0.0152589
554.418	0.0152679
554.497	0.0152130
554.575	0.0152093
554.653	0.0153367
554.731	0.0152438
554.809	0.0151736
554.887	0.0152816
554.965	0.0152126
555.043	0.0152561
555.122	0.0151312
555.200	0.0151393
555.278	0.0153917
555.356	0.0153263
555.434	0.0153055
555.512	0.0151933
555.590	0.0152590
555.668	0.0152719
555.747	0.0152679
555.825	0.0152396
555.903	0.0153430
555.981	0.0153374
556.059	0.0152062
556.137	0.0152731
556.215	0.0153075
556.293	0.0151682
556.372	0.0152934
556.450	0.0152246
556.528	0.0152574
556.606	0.0151725
556.684	0.0152956
556.762	0.0152946
556.840	0.0153584
556.918	0.0152768
556.997	0.0151862
557.075	0.0154456
557.153	0.0153651
557.231	0.0152634
557.309	0.0153360
557.387	0.0152563
557.465	0.0153226
557.543	0.0152652
557.622	0.0153741
557.700	0.0152811
557.778	0.0153348
557.856	0.0153257
557.934	0.0155031
558.012	0.0152827
558.090	0.0153732
558.168	0.0153484
558.247	0.0153114
558.325	0.0151797
558.403	0.0152567
558.481	0.0153161
558.559	0.0153111
558.637	0.0152755
558.715	0.0151975
558.793	0.0153419
558.872	0.0153070
558.950	0.0152245
559.028	0.0151867
559.106	0.0151430
559.184	0.0152887
559.262	0.0151875
559.340	0.0152452
559.418	0.0152459
559.497	0.0152315
559.575	0.0152378
559.653	0.0151700
559.731	0.0151273
559.809	0.0153127
559.887	0.0151876
559.965	0.0151917
560.043	0.0151640
560.122	0.0153071
560.200	0.0152616
560.278	0.0151506
560.356	0.0150368
560.434	0.0152065
560.512	0.0152213
560.590	0.0152676
560.668	0.0151609
560.747	0.0150706
560.825	0.0151248
560.903	0.0152393
560.981	0.0151271
561.059	0.0152872
561.137	0.0151817
561.215	0.0150584
561.293	0.0151520
561.372	0.0152826
561.450	0.0152483
561.528	0.0152058
561.606	0.0151530
561.684	0.0152795
561.762	0.0151462
561.840	0.0151050
561.918	0.0152401
561.997	0.0151393
562.075	0.0152360
562.153	0.0151321
562.231	0.0151088
562.309	0.0150551
562.387	0.0151762
562.465	0.0152412
562.543	0.0150142
562.622	0.0151478
562.700	0.0151427
562.778	0.0151003
562.856	0.0153024
562.934	0.0152278
563.012	0.0151202
563.090	0.0151702
563.168	0.0151155
563.247	0.0152421
563.325	0.0153737
563.403	0.0150890
563.481	0.0150953
563.559	0.0150862
563.637	0.0152599
563.715	0.0152683
563.793	0.0152022
563.872	0.0152441
563.950	0.0153333
564.028	0.0151967
564.106	0.0152711
564.184	0.0152013
564.262	0.0152408
564.340	0.0152727
564.418	0.0153443
564.497	0.0152215
564.575	0.0152969
564.653	0.0153233
564.731	0.0151025
564.809	0.0152948
564.887	0.0151398
564.965	0.0152585
565.043	0.0152167
565.122	0.0152731
565.200	0.0152152
565.278	0.0151701
565.356	0.0152408
565.434	0.0152347
565.512	0.0151577
565.590	0.0151764
565.668	0.0150835
565.747	0.0152162
565.825	0.0151785
565.903	0.0152086
565.981	0.0151643
566.059	0.0151215
566.137	0.0151054
566.215	0.0151229
566.293	0.0151262
566.372	0.0152564
566.450	0.0152872
566.528	0.0151957
566.606	0.0151943
566.684	0.0151613
566.762	0.0151128
566.840	0.0151290
566.918	0.0151376
566.997	0.0152190
567.075	0.0151039
567.153	0.0151542
567.231	0.0153265
567.309	0.0152339
567.387	0.0150131
567.465	0.0152496
567.543	0.0152464
567.622	0.0152001
567.700	0.0151337
567.778	0.0151866
567.856	0.0151471
567.934	0.0152406
568.012	0.0150990
568.090	0.0152199
568.168	0.0152998
568.247	0.0151514
568.325	0.0152803
568.403	0.0152639
568.481	0.0152362
568.559	0.0152558
568.637	0.0152711
568.715	0.0152171
568.793	0.0151595
568.872	0.0150797
568.950	0.0151411
569.028	0.0152113
569.106	0.0153745
569.184	0.0151530
569.262	0.0151476
569.340	0.0151441
569.418	0.0151363
569.497	0.0151515
569.575	0.0152146
569.653	0.0151591
569.731	0.0151632
569.809	0.0151720
569.887	0.0150697
569.965	0.0151499
570.043	0.0151720
570.122	0.0153046
570.200	0.0152316
570.278	0.0152618
570.356	0.0152428
570.434	0.0152477
570.512	0.0152221
570.590	0.0152019
570.668	0.0152239
570.747	0.0151765
570.825	0.0151556
570.903	0.0152231
570.981	0.0152570
571.059	0.0151641
571.137	0.0152506
571.215	0.0152556
571.293	0.0152211
571.372	0.0153221
571.450	0.0152854
571.528	0.0153694
571.606	0.0152428
571.684	0.0152145
571.762	0.0152517
571.840	0.0152659
571.918	0.0152167
571.997	0.0151224
572.075	0.0152011
572.153	0.0152348
572.231	0.0153128
572.309	0.0152384
572.387	0.0151722
572.465	0.0153179
572.543	0.0152168
572.622	0.0152190
572.700	0.0152052
572.778	0.0152760
572.856	0.0151655
572.934	0.0152496
573.012	0.0152242
573.090	0.0152934
573.168	0.0151801
573.247	0.0152235
573.325	0.0151791
573.403	0.0153947
573.481	0.0151955
573.559	0.0151489
573.637	0.0153492
573.715	0.0153538
573.793	0.0153281
573.872	0.0152782
573.950	0.0151562
574.028	0.0151588
574.106	0.0152758
574.184	0.0152501
574.262	0.0152796
574.340	0.0153287
574.418	0.0152722
574.497	0.0153185
574.575	0.0152218
574.653	0.0151410
574.731	0.0152947
574.809	0.0152155
574.887	0.0152296
574.965	0.0151868
575.043	0.0152324
575.122	0.0153260
575.200	0.0152234
575.278	0.0150825
575.356	0.0151997
575.434	0.0152817
575.512	0.0153410
575.590	0.0150290
575.668	0.0152380
575.747	0.0152734
575.825	0.0151432
575.903	0.0152531
575.981	0.0151519
576.059	0.0152125
576.137	0.0152549
576.215	0.0152221
576.293	0.0151756
576.372	0.0151797
576.450	0.0151333
576.528	0.0152987
576.606	0.0151979
576.684	0.0152315
576.762	0.0150970
576.840	0.0152090
576.918	0.0152611
576.997	0.0152579
577.075	0.0151320
577.153	0.0152051
577.231	0.0151884
577.309	0.0151537
577.387	0.0152712
577.465	0.0152827
577.543	0.0152306
577.622	0.0152949
577.700	0.0151199
577.778	0.0152489
577.856	0.0151552
577.934	0.0151687
578.012	0.0151501
578.090	0.0152533
578.168	0.0152463
578.247	0.0151061
578.325	0.0151821
578.403	0.0151273
578.481	0.0152156
578.559	0.0152536
578.637	0.0152263
578.715	0.0152130
578.793	0.0152868
578.872	0.0151678
578.950	0.0152988
579.028	0.0151751
579.106	0.0150434
579.184	0.0151053
579.262	0.0153274
579.340	0.0151579
579.418	0.0153047
579.497	0.0153217
579.575	0.0151442
579.653	0.0153253
579.731	0.0153110
579.809	0.0152036
579.887	0.0153851
579.965	0.0153443
580.043	0.0151610
580.122	0.0151824
580.200	0.0152660
580.278	0.0153012
580.356	0.0154031
580.434	0.0152610
580.512	0.0153088
580.590	0.0152008
580.668	0.0152291
580.747	0.0152319
580.825	0.0152915
580.903	0.0152839
580.981	0.0153004
581.059	0.0153077
581.137	0.0151873
581.215	0.0152151
581.293	0.0151960
581.372	0.0151746
581.450	0.0151495
581.528	0.0151778
581.606	0.0150591
581.684	0.0151277
581.762	0.0151625
581.840	0.0151287
581.918	0.0153716
581.997	0.0152300
582.075	0.0152499
582.153	0.0151530
582.231	0.0150501
582.309	0.0150569
582.387	0.0151383
582.465	0.0152935
582.543	0.0152852
582.622	0.0151481
582.700	0.0151553
582.778	0.0152773
582.856	0.0152222
582.934	0.0151204
583.012	0.0150574
583.090	0.0150671
583.168	0.0151830
583.247	0.0151073
583.325	0.0151292
583.403	0.0151083
583.481	0.0152782
583.559	0.0151797
583.637	0.0152582
583.715	0.0152232
583.793	0.0152840
583.872	0.0151625
583.950	0.0152092
584.028	0.0152591
584.106	0.0151924
584.184	0.0151373
584.262	0.0152075
584.340	0.0152274
584.418	0.0151777
584.497	0.0151221
584.575	0.0151400
584.653	0.0151720
584.731	0.0151577
584.809	0.0152097
584.887	0.0153001
584.965	0.0152459
585.043	0.0151178
585.122	0.0152701
585.200	0.0151452
585.278	0.0153185
585.356	0.0151965
585.434	0.0152425
585.512	0.0152566
585.590	0.0152303
585.668	0.0151713
585.747	0.0151431
585.825	0.0152575
585.903	0.0151888
585.981	0.0151505
586.059	0.0153523
586.137	0.0152706
586.215	0.0152914
586.293	0.0152035
586.372	0.0151597
586.450	0.0151781
586.528	0.0152772
586.606	0.0152030
586.684	0.0152174
586.762	0.0152704
586.840	0.0152679
586.918	0.0152215
586.997	0.0152533
587.075	0.0152642
587.153	0.0152071
587.231	0.0151929
587.309	0.0152699
587.387	0.0153879
587.465	0.0152566
587.543	0.0152693
587.622	0.0152966
587.700	0.0152364
587.778	0.0152459
587.856	0.0152667
587.934	0.0152220
588.012	0.0153594
588.090	0.0151792
588.168	0.0151735
588.247	0.0150697
588.325	0.0151566
588.403	0.0152546
588.481	0.0153608
588.559	0.0152343
588.637	0.0152784
588.715	0.0153175
588.793	0.0152451
588.872	0.0152467
588.950	0.0154063
589.028	0.0151834
589.106	0.0152321
589.184	0.0152670
589.262	0.0152122
589.340	0.0152751
589.418	0.0153121
589.497	0.0152089
589.575	0.0152426
589.653	0.0150837
589.731	0.0150382
589.809	0.0152826
589.887	0.0151025
589.965	0.0151467
590.043	0.0151527
590.122	0.0151164
590.200	0.0153720
590.278	0.0152463
590.356	0.0152319
590.434	0.0151535
590.512	0.0151161
590.590	0.0151942
590.668	0.0151096
590.747	0.0152364
590.825	0.0150838
590.903	0.0151643
590.981	0.0152113
591.059	0.0150690
591.137	0.0151518
591.215	0.0152151
591.293	0.0151941
591.372	0.0153944
591.450	0.0152689
591.528	0.0151809
591.606	0.0152470
591.684	0.0150433
591.762	0.0151955
591.840	0.0151237
591.918	0.0153593
591.997	0.0152014
592.075	0.0150699
592.153	0.0152018
592.231	0.0153777
592.309	0.0152612
592.387	0.0152307
592.465	0.0151767
592.543	0.0152901
592.622	0.0150587
592.700	0.0150142
592.778	0.0151212
592.856	0.0151366
592.934	0.0152134
593.012	0.0152087
593.090	0.0150851
593.168	0.0152285
593.247	0.0152213
593.325	0.0152007
593.403	0.0151051
593.481	0.0150941
593.559	0.0152155
593.637	0.0152370
593.715	0.0151675
593.793	0.0152741
593.872	0.0151728
593.950	0.0152751
594.028	0.0152629
594.106	0.0152151
594.184	0.0151995
594.262	0.0151767
594.340	0.0152163
594.418	0.0151846
594.497	0.0151885
594.575	0.0152164
594.653	0.0151655
594.731	0.0151865
594.809	0.0151378
594.887	0.0152669
594.965	0.0151788
595.043	0.0151678
595.122	0.0151886
595.200	0.0150689
595.278	0.0152752
595.356	0.0152061
595.434	0.0152000
595.512	0.0152454
595.590	0.0151963
595.668	0.0151467
595.747	0.0152248
595.825	0.0151989
595.903	0.0153390
595.981	0.0151257
596.059	0.0151620
596.137	0.0152787
596.215	0.0153251
596.293	0.0152983
596.372	0.0151182
596.450	0.0153786
596.528	0.0151894
596.606	0.0150691
596.684	0.0151900
596.762	0.0152544
596.840	0.0152357
596.918	0.0152223
596.997	0.0153216
597.075	0.0151941
597.153	0.0152142
597.231	0.0152901
597.309	0.0151221
597.387	0.0150388
597.465	0.0152659
597.543	0.0152521
597.622	0.0151768
597.700	0.0151631
597.778	0.0152347
597.856	0.0151723
597.934	0.0152657
598.012	0.0152196
598.090	0.0153080
598.168	0.0152503
598.247	0.0154057
598.325	0.0151646
598.403	0.0152495
598.481	0.0152818
598.559	0.0151563
598.637	0.0153127
598.715	0.0153590
598.793	0.0152290
598.872	0.0152207
598.950	0.0152393
599.028	0.0152152
599.106	0.0152952
599.184	0.0153172
599.262	0.0151580
599.340	0.0151698
599.418	0.0152689
599.497	0.0152921
599.575	0.0152782
599.653	0.0153338
599.731	0.0152671
599.809	0.0152160
599.887	0.0152577
599.965	0.0152505
600.043	0.0152002
600.122	0.0154102
600.200	0.0153619
600.278	0.0152103
600.356	0.0153033
600.434	0.0152843
600.512	0.0151706
600.590	0.0151175
600.668	0.0154359
600.747	0.0153291
600.825	0.0151753
600.903	0.0151414
600.981	0.0153160
601.059	0.0153851
601.137	0.0151115
601.215	0.0152763
601.293	0.0153236
601.372	0.0151613
601.450	0.0151871
601.528	0.0152047
601.606	0.0150803
601.684	0.0152955
601.762	0.0151514
601.840	0.0153056
601.918	0.0152584
601.997	0.0151215
602.075	0.0151245
602.153	0.0152511
602.231	0.0152327
602.309	0.0152489
602.387	0.0151881
602.465	0.0152658
602.543	0.0150759
602.622	0.0151012
602.700	0.0151447
602.778	0.0153574
602.856	0.0152596
602.934	0.0150415
603.012	0.0151765
603.090	0.0151698
603.168	0.0151414
603.247	0.0151377
603.325	0.0151421
603.403	0.0151289
603.481	0.0152413
603.559	0.0151749
603.637	0.0151987
603.715	0.0151598
603.793	0.0151279
603.872	0.0152168
603.950	0.0152048
604.028	0.0150771
604.106	0.0152482
604.184	0.0152972
604.262	0.0151658
604.340	0.0152685
604.418	0.0152106
604.497	0.0151543
604.575	0.0151180
604.653	0.0151525
604.731	0.0151868
604.809	0.0152353
604.887	0.0152753
604.965	0.0150948
605.043	0.0152250
605.122	0.0152594
605.200	0.0152663
605.278	0.0153664
605.356	0.0152266
605.434	0.0151717
605.512	0.0152724
605.590	0.0152724
605.668	0.0150695
605.747	0.0151327
605.825	0.0151896
605.903	0.0150505
605.981	0.0151935
606.059	0.0152708
606.137	0.0151173
606.215	0.0151430
606.293	0.0152476
606.372	0.0151482
606.450	0.0152150
606.528	0.0150977
606.606	0.0150969
606.684	0.0151756
606.762	0.0152220
606.840	0.0151154
606.918	0.0150794
606.997	0.0151262
607.075	0.0151506
607.153	0.0151940
607.231	0.0151853
607.309	0.0151994
607.387	0.0150535
607.465	0.0150578
607.543	0.0148895
607.622	0.0151564
607.700	0.0151417
607.778	0.0150246
607.856	0.0150970
607.934	0.0150480
608.012	0.0151849
608.090	0.0150481
608.168	0.0150718
608.247	0.0151041
608.325	0.0149973
608.403	0.0150399
608.481	0.0150031
608.559	0.0148637
608.637	0.0150750
608.715	0.0151083
608.793	0.0149580
608.872	0.0150858
608.950	0.0153379
609.028	0.0151067
609.106	0.0153371
609.184	0.0154680
609.262	0.0156337
609.340	0.0156589
609.418	0.0157368
609.497	0.0158570
609.575	0.0159879
609.653	0.0162275
609.731	0.0161095
609.809	0.0162086
609.887	0.0160967
609.965	0.0163286
610.043	0.0161869
610.122	0.0161790
610.200	0.0160332
610.278	0.0160969
610.356	0.0160793
610.434	0.0159834
610.512	0.0158844
610.590	0.0156250
610.668	0.0156011
610.747	0.0155482
610.825	0.0154237
610.903	0.0152590
610.981	0.0150919
611.059	0.0150990
611.137	0.0150583
611.215	0.0147954
611.293	0.0147481
611.372	0.0146796
611.450	0.0145824
611.528	0.0146124
611.606	0.0145537
611.684	0.0145142
611.762	0.0145229
611.840	0.0146032
611.918	0.0146198
611.997	0.0146082
612.075	0.0146102
612.153	0.0147295
612.231	0.0147733
612.309	0.0147982
612.387	0.0148248
612.465	0.0149868
612.543	0.0148328
612.622	0.0149574
612.700	0.0150407
612.778	0.0148438
612.856	0.0148358
612.934	0.0150172
613.012	0.0149433
613.090	0.0150916
613.168	0.0150124
613.247	0.0150879
613.325	0.0150819
613.403	0.0150145
613.481	0.0150274
613.559	0.0150609
613.637	0.0150771
613.715	0.0149309
613.793	0.0148343
613.872	0.0148957
613.950	0.0150089
614.028	0.0149552
614.106	0.0150788
614.184	0.0151018
614.262	0.0149599
614.340	0.0151740
614.418	0.0151153
614.497	0.0149899
614.575	0.0150661
614.653	0.0152052
614.731	0.0151349
614.809	0.0149861
614.887	0.0151564
614.965	0.0151952
615.043	0.0152114
615.122	0.0152248
615.200	0.0151320
615.278	0.0151711
615.356	0.0151369
615.434	0.0152185
615.512	0.0151817
615.590	0.0152786
615.668	0.0151559
615.747	0.0152597
615.825	0.0150807
615.903	0.0150950
615.981	0.0152251
616.059	0.0152509
616.137	0.0152480
616.215	0.0152900
616.293	0.0151624
616.372	0.0152953
616.450	0.0152161
616.528	0.0151917
616.606	0.0152598
616.684	0.0151581
616.762	0.0151591
616.840	0.0152994
616.918	0.0153539
616.997	0.0150642
617.075	0.0152172
617.153	0.0152129
617.231	0.0153559
617.309	0.0153478
617.387	0.0152711
617.465	0.0151984
617.543	0.0153072
617.622	0.0152614
617.700	0.0151973
617.778	0.0152827
617.856	0.0153452
617.934	0.0153079
618.012	0.0153117
618.090	0.0153396
618.168	0.0152236
618.247	0.0152861
618.325	0.0152908
618.403	0.0153475
618.481	0.0152250
618.559	0.0152406
618.637	0.0152527
618.715	0.0152589
618.793	0.0152037
618.872	0.0153405
618.950	0.0153854
619.028	0.0151682
619.106	0.0152842
619.184	0.0152991
619.262	0.0151871
619.340	0.0152330
619.418	0.0153195
619.497	0.0152885
619.575	0.0152549
619.653	0.0153539
619.731	0.0152482
619.809	0.0152025
619.887	0.0152287
619.965	0.0153348
620.043	0.0152736
620.122	0.0152110
620.200	0.0152557
620.278	0.0151604
620.356	0.0152275
620.434	0.0151756
620.512	0.0152785
620.590	0.0153641
620.668	0.0152956
620.747	0.0153011
620.825	0.0151826
620.903	0.0151891
620.981	0.0152846
621.059	0.0151669
621.137	0.0152187
621.215	0.0152083
621.293	0.0152187
621.372	0.0150851
621.450	0.0152090
621.528	0.0151706
621.606	0.0151472
621.684	0.0151058
621.762	0.0152437
621.840	0.0151776
621.918	0.0151318
621.997	0.0151018
622.075	0.0150482
622.153	0.0150962
622.231	0.0151226
622.309	0.0150907
622.387	0.0150689
622.465	0.0151542
622.543	0.0153505
622.622	0.0150148
622.700	0.0151493
622.778	0.0151985
622.856	0.0151430
622.934	0.0152576
623.012	0.0153181
623.090	0.0151443
623.168	0.0150886
623.247	0.0151933
623.325	0.0152103
623.403	0.0151955
623.481	0.0150866
623.559	0.0152168
623.637	0.0152294
623.715	0.0151223
623.793	0.0151714
623.872	0.0151743
623.950	0.0152647
624.028	0.0151855
624.106	0.0152657
624.184	0.0152173
624.262	0.0150410
624.340	0.0152119
624.418	0.0152311
624.497	0.0152079
624.575	0.0150792
624.653	0.0152409
624.731	0.0152721
624.809	0.0151929
624.887	0.0151214
624.965	0.0151276
625.043	0.0151691
625.122	0.0151566
625.200	0.0152363
625.278	0.0151221
625.356	0.0152323
625.434	0.0152679
625.512	0.0151951
625.590	0.0151855
625.668	0.0151922
625.747	0.0152764
625.825	0.0151456
625.903	0.0152863
625.981	0.0153299
626.059	0.0152989
626.137	0.0150995
626.215	0.0151164
626.293	0.0152331
626.372	0.0151875
626.450	0.0150189
626.528	0.0151796
626.606	0.0152544
626.684	0.0152032
626.762	0.0151225
626.840	0.0151695
626.918	0.0151780
626.997	0.0151631
627.075	0.0151386
627.153	0.0151458
627.231	0.0152390
627.309	0.0151310
627.387	0.0151787
627.465	0.0152336
627.543	0.0152815
627.622	0.0150120
627.700	0.0152716
627.778	0.0150983
627.856	0.0152172
627.934	0.0152619
628.012	0.0152278
628.090	0.0151688
628.168	0.0151047
628.247	0.0151266
628.325	0.0151900
628.403	0.0151723
628.481	0.0151636
628.559	0.0151319
628.637	0.0152398
628.715	0.0151793
628.793	0.0151768
628.872	0.0151574
628.950	0.0151521
629.028	0.0152016
629.106	0.0152427
629.184	0.0150958
629.262	0.0151707
629.340	0.0151701
629.418	0.0150876
629.497	0.0152126
629.575	0.0152810
629.653	0.0150539
629.731	0.0151662
629.809	0.0151915
629.887	0.0151638
629.965	0.0150488
630.043	0.0151511
630.122	0.0151162
630.200	0.0150085
630.278	0.0151183
630.356	0.0152065
630.434	0.0152416
630.512	0.0152483
630.590	0.0151727
630.668	0.0151263
630.747	0.0153341
630.825	0.0152067
630.903	0.0151356
630.981	0.0150712
631.059	0.0152560
631.137	0.0150762
631.215	0.0152187
631.293	0.0152548
631.372	0.0152301
631.450	0.0151741
631.528	0.0152908
631.606	0.0152013
631.684	0.0151298
631.762	0.0152486
631.840	0.0152213
631.918	0.0150918
631.997	0.0151987
632.075	0.0151749
632.153	0.0150016
632.231	0.0151899
632.309	0.0152588
632.387	0.0152168
632.465	0.0153100
632.543	0.0153983
632.622	0.0151308
632.700	0.0150878
632.778	0.0152708
632.856	0.0151939
632.934	0.0150535
633.012	0.0151664
633.090	0.0151894
633.168	0.0152139
633.247	0.0151449
633.325	0.0152789
633.403	0.0152489
633.481	0.0150047
633.559	0.0151286
633.637	0.0151631
633.715	0.0151325
633.793	0.0151654
633.872	0.0151608
633.950	0.0152512
634.028	0.0151462
634.106	0.0151060
634.184	0.0151134
634.262	0.0151963
634.340	0.0151860
634.418	0.0150803
634.497	0.0150204
634.575	0.0151192
634.653	0.0150673
634.731	0.0150570
634.809	0.0151517
634.887	0.0151537
634.965	0.0150948
635.043	0.0151548
635.122	0.0151846
635.200	0.0151296
635.278	0.0150372
635.356	0.0151195
635.434	0.0150779
635.512	0.0151712
635.590	0.0151167
635.668	0.0150092
635.747	0.0151566
635.825	0.0151094
635.903	0.0151477
635.981	0.0152624
636.059	0.0151343
636.137	0.0151853
636.215	0.0152002
636.293	0.0151202
636.372	0.0151142
636.450	0.0151291
636.528	0.0151202
636.606	0.0152481
636.684	0.0150858
636.762	0.0151554
636.840	0.0152652
636.918	0.0150842
636.997	0.0150765
637.075	0.0150832
637.153	0.0151045
637.231	0.0151399
637.309	0.0151560
637.387	0.0151980
637.465	0.0153622
637.543	0.0153338
637.622	0.0153237
637.700	0.0152324
637.778	0.0150778
637.856	0.0152876
637.934	0.0152628
638.012	0.0152533
638.090	0.0150845
638.168	0.0152985
638.247	0.0153092
638.325	0.0152411
638.403	0.0152576
638.481	0.0152831
638.559	0.0151788
638.637	0.0151886
638.715	0.0152511
638.793	0.0152677
638.872	0.0152489
638.950	0.0153031
639.028	0.0151527
639.106	0.0150568
639.184	0.0151249
639.262	0.0152885
639.340	0.0152235
639.418	0.0152837
639.497	0.0153751
639.575	0.0152874
639.653	0.0151562
639.731	0.0151927
639.809	0.0152460
639.887	0.0153219
639.965	0.0151402
640.043	0.0152312
640.122	0.0152644
640.200	0.0152876
640.278	0.0151177
640.356	0.0152148
640.434	0.0153156
640.512	0.0153455
640.590	0.0151433
640.668	0.0151111
640.747	0.0151910
640.825	0.0152212
640.903	0.0152119
640.981	0.0152427
641.059	0.0153113
641.137	0.0151527
641.215	0.0151058
641.293	0.0152283
641.372	0.0152128
641.450	0.0152567
641.528	0.0153976
641.606	0.0151652
641.684	0.0151960
641.762	0.0151590
641.840	0.0152557
641.918	0.0151507
641.997	0.0152779
642.075	0.0151458
642.153	0.0151591
642.231	0.0152371
642.309	0.0153041
642.387	0.0150061
642.465	0.0151499
642.543	0.0152660
642.622	0.0150192
642.700	0.0151687
642.778	0.0151970
642.856	0.0151815
642.934	0.0149843
643.012	0.0150755
643.090	0.0151479
643.168	0.0149789
643.247	0.0151769
643.325	0.0151572
643.403	0.0149764
643.481	0.0152014
643.559	0.0153009
643.637	0.0151928
643.715	0.0151534
643.793	0.0151957
643.872	0.0151129
643.950	0.0151005
644.028	0.0151432
644.106	0.0152314
644.184	0.0150557
644.262	0.0150835
644.340	0.0152329
644.418	0.0151849
644.497	0.0151110
644.575	0.0152563
644.653	0.0151076
644.731	0.0150465
644.809	0.0151264
644.887	0.0151414
644.965	0.0152055
645.043	0.0151483
645.122	0.0150813
645.200	0.0151454
645.278	0.0151286
645.356	0.0150681
645.434	0.0152268
645.512	0.0153007
645.590	0.0151847
645.668	0.0150938
645.747	0.0153409
645.825	0.0151981
645.903	0.0152691
645.981	0.0152048
646.059	0.0153320
646.137	0.0152891
646.215	0.0152836
646.293	0.0153748
646.372	0.0151772
646.450	0.0152023
646.528	0.0153409
646.606	0.0151883
646.684	0.0151490
646.762	0.0152602
646.840	0.0153521
646.918	0.0152966
646.997	0.0153107
647.075	0.0153765
647.153	0.0153323
647.231	0.0151228
647.309	0.0152227
647.387	0.0153316
647.465	0.0152600
647.543	0.0153894
647.622	0.0152739
647.700	0.0152881
647.778	0.0150629
647.856	0.0152681
647.934	0.0153667
648.012	0.0152136
648.090	0.0153362
648.168	0.0152814
648.247	0.0151146
648.325	0.0152612
648.403	0.0151955
648.481	0.0151228
648.559	0.0151861
648.637	0.0153011
648.715	0.0152967
648.793	0.0151728
648.872	0.0152288
648.950	0.0152122
649.028	0.0151887
649.106	0.0151708
649.184	0.0152153
649.262	0.0152474
649.340	0.0152378
649.418	0.0151096
649.497	0.0153400
649.575	0.0151645
649.653	0.0151397
649.731	0.0152285
649.809	0.0151862
649.887	0.0152748
649.965	0.0153163
650.043	0.0152650
650.122	0.0151569
650.200	0.0151787
650.278	0.0152049
650.356	0.0150179
650.434	0.0152206
650.512	0.0151618
650.590	0.0151622
650.668	0.0151962
650.747	0.0150459
650.825	0.0152193
650.903	0.0152593
650.981	0.0151954
651.059	0.0149841
651.137	0.0150289
651.215	0.0150815
651.293	0.0152666
651.372	0.0151134
651.450	0.0149876
651.528	0.0151534
651.606	0.0151946
651.684	0.0151999
651.762	0.0149790
651.840	0.0151270
651.918	0.0149798
651.997	0.0150830
652.075	0.0152189
652.153	0.0150973
652.231	0.0151357
652.309	0.0151113
652.387	0.0150858
652.465	0.0151991
652.543	0.0151834
652.622	0.0150887
652.700	0.0151891
652.778	0.0152291
652.856	0.0152061
652.934	0.0152161
653.012	0.0151964
653.090	0.0151004
653.168	0.0152131
653.247	0.0151967
653.325	0.0150984
653.403	0.0151235
653.481	0.0151890
653.559	0.0152793
653.637	0.0151825
653.715	0.0152113
653.793	0.0152998
653.872	0.0151745
653.950	0.0152137
654.028	0.0151470
654.106	0.0150951
654.184	0.0151223
654.262	0.0152016
654.340	0.0153664
654.418	0.0152022
654.497	0.0151362
654.575	0.0152834
654.653	0.0151830
654.731	0.0152010
654.809	0.0153492
654.887	0.0152212
654.965	0.0152601
655.043	0.0151781
655.122	0.0150713
655.200	0.0151202
655.278	0.0152496
655.356	0.0152074
655.434	0.0150771
655.512	0.0152510
655.590	0.0151574
655.668	0.0152032
655.747	0.0151556
655.825	0.0151158
655.903	0.0151999
655.981	0.0152272
656.059	0.0152418
656.137	0.0152063
656.215	0.0151347
656.293	0.0152686
656.372	0.0150627
656.450	0.0151420
656.528	0.0152161
656.606	0.0150220
656.684	0.0152105
656.762	0.0152580
656.840	0.0151253
656.918	0.0152023
656.997	0.0153579
657.075	0.0151658
657.153	0.0151450
657.231	0.0152745
657.309	0.0151683
657.387	0.0151608
657.465	0.0153007
657.543	0.0151757
657.622	0.0152885
657.700	0.0151677
657.778	0.0151955
657.856	0.0152755
657.934	0.0151781
658.012	0.0151630
658.090	0.0152976
658.168	0.0152006
658.247	0.0152584
658.325	0.0152811
658.403	0.0152557
658.481	0.0152753
658.559	0.0153930
658.637	0.0152924
658.715	0.0152588
658.793	0.0153500
658.872	0.0154720
658.950	0.0154257
659.028	0.0153463
659.106	0.0154736
659.184	0.0154229
659.262	0.0152621
659.340	0.0154003
659.418	0.0153413
659.497	0.0152895
659.575	0.0155527
659.653	0.0154029
659.731	0.0154042
659.809	0.0154320
659.887	0.0153416
659.965	0.0153075
660.043	0.0154210
660.122	0.0154156
660.200	0.0154070
660.278	0.0153073
660.356	0.0154090
660.434	0.0154076
660.512	0.0153832
660.590	0.0152247
660.668	0.0153021
660.747	0.0152403
660.825	0.0154793
660.903	0.0152987
660.981	0.0152563
661.059	0.0152422
661.137	0.0154031
661.215	0.0154001
661.293	0.0151959
661.372	0.0152322
661.450	0.0152130
661.528	0.0152188
661.606	0.0151569
661.684	0.0151054
661.762	0.0151355
661.840	0.0151237
661.918	0.0150571
661.997	0.0150547
662.075	0.0152211
662.153	0.0151879
662.231	0.0151069
662.309	0.0150036
662.387	0.0150375
662.465	0.0150497
662.543	0.0152003
662.622	0.0152021
662.700	0.0150230
662.778	0.0150115
662.856	0.0151085
662.934	0.0150781
663.012	0.0150453
663.090	0.0149602
663.168	0.0150351
663.247	0.0149768
663.325	0.0150884
663.403	0.0150435
663.481	0.0150934
663.559	0.0149352
663.637	0.0149296
663.715	0.0150156
663.793	0.0150416
663.872	0.0149916
663.950	0.0149367
664.028	0.0149250
664.106	0.0149294
664.184	0.0150678
664.262	0.0150585
664.340	0.0150636
664.418	0.0150060
664.497	0.0148879
664.575	0.0149754
664.653	0.0150163
664.731	0.0148995
664.809	0.0148743
664.887	0.0149985
664.965	0.0150311
665.043	0.0149020
665.122	0.0150623
665.200	0.0150678
665.278	0.0149783
665.356	0.0149912
665.434	0.0149860
665.512	0.0149921
665.590	0.0150343
665.668	0.0149924
665.747	0.0149854
665.825	0.0150655
665.903	0.0150114
665.981	0.0149086
666.059	0.0150645
666.137	0.0151369
666.215	0.0151555
666.293	0.0149520
666.372	0.0149832
666.450	0.0151131
666.528	0.0151657
666.606	0.0151110
666.684	0.0151307
666.762	0.0152470
666.840	0.0151309
666.918	0.0150750
666.997	0.0150977
667.075	0.0151356
667.153	0.0149894
667.231	0.0150436
667.309	0.0151079
667.387	0.0151824
667.465	0.0150705
667.543	0.0151495
667.622	0.0150916
667.700	0.0150541
667.778	0.0151144
667.856	0.0151630
667.934	0.0151817
668.012	0.0150962
668.090	0.0151870
668.168	0.0151757
668.247	0.0152527
668.325	0.0152281
668.403	0.0152020
668.481	0.0152758
668.559	0.0151774
668.637	0.0152666
668.715	0.0151948
668.793	0.0152320
668.872	0.0153903
668.950	0.0154288
669.028	0.0152605
669.106	0.0152464
669.184	0.0153136
669.262	0.0154002
669.340	0.0152464
669.418	0.0154652
669.497	0.0154621
669.575	0.0154189
669.653	0.0154064
669.731	0.0154216
669.809	0.0156184
669.887	0.0153096
669.965	0.0154844
670.043	0.0155194
670.122	0.0155118
670.200	0.0155378
670.278	0.0154319
670.356	0.0155649
670.434	0.0153908
670.512	0.0154414
670.590	0.0154328
670.668	0.0155159
670.747	0.0155228
670.825	0.0155463
670.903	0.0153094
670.981	0.0155197
671.059	0.0154697
671.137	0.0155683
671.215	0.0154754
671.293	0.0154449
671.372	0.0153555
671.450	0.0154255
671.528	0.0155069
671.606	0.0155631
671.684	0.0153839
671.762	0.0154214
671.840	0.0155467
671.918	0.0154763
671.997	0.0152946
672.075	0.0153732
672.153	0.0155529
672.231	0.0153648
672.309	0.0154983
672.387	0.0154541
672.465	0.0155438
672.543	0.0154249
672.622	0.0155869
672.700	0.0155444
672.778	0.0155133
672.856	0.0152938
672.934	0.0153523
673.012	0.0155608
673.090	0.0154594
673.168	0.0155057
673.247	0.0155466
673.325	0.0154661
673.403	0.0155232
673.481	0.0154589
673.559	0.0153555
673.637	0.0154080
673.715	0.0153975
673.793	0.0155031
673.872	0.0153876
673.950	0.0154323
674.028	0.0154995
674.106	0.0154712
674.184	0.0152888
674.262	0.0152786
674.340	0.0153235
674.418	0.0152416
674.497	0.0152074
674.575	0.0151716
674.653	0.0151176
674.731	0.0151539
674.809	0.0152044
674.887	0.0150501
674.965	0.0151039
675.043	0.0150149
675.122	0.0151287
675.200	0.0150315
675.278	0.0150533
675.356	0.0149834
675.434	0.0149546
675.512	0.0150391
675.590	0.0149361
675.668	0.0148714
675.747	0.0148157
675.825	0.0148037
675.903	0.0147151
675.981	0.0147710
676.059	0.0146139
676.137	0.0146149
676.215	0.0145964
676.293	0.0144460
676.372	0.0146380
676.450	0.0148389
676.528	0.0146534
676.606	0.0147214
676.684	0.0146934
676.762	0.0148489
676.840	0.0148179
676.918	0.0149770
676.997	0.0148737
677.075	0.0150666
677.153	0.0151035
677.231	0.0150522
677.309	0.0152360
677.387	0.0152155
677.465	0.0152106
677.543	0.0150491
677.622	0.0151608
677.700	0.0152689
677.778	0.0151165
677.856	0.0151089
677.934	0.0151387
678.012	0.0151403
678.090	0.0150233
678.168	0.0150088
678.247	0.0148605
678.325	0.0148987
678.403	0.0147813
678.481	0.0147562
678.559	0.0147659
678.637	0.0147073
678.715	0.0146686
678.793	0.0145408
678.872	0.0145695
678.950	0.0145373
679.028	0.0144125
679.106	0.0143739
679.184	0.0144420
679.262	0.0143768
679.340	0.0143954
679.418	0.0144344
679.497	0.0141925
679.575	0.0142629
679.653	0.0143296
679.731	0.0144398
679.809	0.0143265
679.887	0.0143546
679.965	0.0144372
680.043	0.0143216
680.122	0.0143162
680.200	0.0142176
680.278	0.0144882
680.356	0.0143745
680.434	0.0144075
680.512	0.0143562
680.590	0.0141466
680.668	0.0142794
680.747	0.0142294
680.825	0.0142390
680.903	0.0141119
680.981	0.0141663
681.059	0.0139819
681.137	0.0140486
681.215	0.0138418
681.293	0.0138201
681.372	0.0136744
681.450	0.0137273
681.528	0.0135428
681.606	0.0134761
681.684	0.0134702
681.762	0.0135372
681.840	0.0133117
681.918	0.0130394
681.997	0.0129864
682.075	0.0130434
682.153	0.0128824
682.231	0.0128778
682.309	0.0129410
682.387	0.0127978
682.465	0.0128750
682.543	0.0126182
682.622	0.0126363
682.700	0.0126472
682.778	0.0124326
682.856	0.0125522
682.934	0.0126196
683.012	0.0126222
683.090	0.0126099
683.168	0.0125805
683.247	0.0124100
683.325	0.0124964
683.403	0.0124125
683.481	0.0124257
683.559	0.0122464
683.637	0.0122398
683.715	0.0122975
683.793	0.0122126
683.872	0.0122385
683.950	0.0121416
684.028	0.0119194
684.106	0.0118781
684.184	0.0117291
684.262	0.0115681
684.340	0.0114128
684.418	0.0113757
684.497	0.0111581
684.575	0.0110181
684.653	0.0107673
684.731	0.0103885
684.809	0.0101630
684.887	0.00981911
684.965	0.00955887
685.043	0.00897369
685.122	0.00878242
685.200	0.00849579
685.278	0.00800354
685.356	0.00758949
685.434	0.00710350
685.512	0.00661713
685.590	0.00610252
685.668	0.00558128
685.747	0.00520554
685.825	0.00435448
685.903	0.00367653
685.981	0.00300522
686.059	0.00221489
686.137	0.00161125
686.215	0.000649414
686.293	-0.000276794
686.372	-0.00121208
686.450	-0.00223061
686.528	-0.00309975
686.606	-0.00421860
686.684	-0.00552185
686.762	-0.00655518
686.840	-0.00760963
686.918	-0.00880470
686.997	-0.00987198
687.075	-0.0111520
687.153	-0.0120938
687.231	-0.0134811
687.309	-0.0147661
687.387	-0.0158983
687.465	-0.0173457
687.543	-0.0185724
687.622	-0.0195938
687.700	-0.0202415
687.778	-0.0203015
687.856	-0.0196173
687.934	-0.0171290
688.012	-0.0125117
688.090	-0.00558731
688.168	0.00418518
688.247	0.0171207
688.325	0.0332713
688.403	0.0521590
688.481	0.0733582
688.559	0.0961880
688.637	0.119559
688.715	0.143183
688.793	0.165750
688.872	0.186640
688.950	0.204624
689.028	0.219774
689.106	0.231283
689.184	0.238750
689.262	0.241875
689.340	0.240731
689.418	0.235504
689.497	0.226428
689.575	0.213847
689.653	0.198185
689.731	0.179940
689.809	0.159496
689.887	0.137335
689.965	0.113400
690.043	0.0882468
690.122	0.0624713
690.200	0.0364664
690.278	0.0105488
690.356	-0.0147150
690.434	-0.0385168
690.512	-0.0603224
690.590	-0.0797065
690.668	-0.0965307
690.747	-0.109930
690.825	-0.120309
690.903	-0.127305
690.981	-0.130884
691.059	-0.131512
691.137	-0.129290
691.215	-0.124535
691.293	-0.117828
691.372	-0.109645
691.450	-0.100452
691.528	-0.0905254
691.606	-0.0807969
691.684	-0.0711856
691.762	-0.0621619
691.840	-0.0541650
691.918	-0.0466849
691.997	-0.0402420
692.075	-0.0348896
692.153	-0.0301337
692.231	-0.0262157
692.309	-0.0232722
692.387	-0.0208255
692.465	-0.0190684
692.543	-0.0178242
692.622	-0.0169678
692.700	-0.0164097
692.778	-0.0159029
692.856	-0.0154779
692.934	-0.0150764
693.012	-0.0144141
693.090	-0.0139816
693.168	-0.0134528
693.247	-0.0128690
693.325	-0.0121549
693.403	-0.0112002
693.481	-0.0101116
693.559	-0.00861549
693.637	-0.00677299
693.715	-0.00482361
693.793	-0.00243675
693.872	-0.000208511
693.950	0.00168633
694.028	0.00368858
694.106	0.00516075
694.184	0.00640038
694.262	0.00738556
694.340	0.00818756
694.418	0.00885666
694.497	0.00923309
694.575	0.00941414
694.653	0.00919159
694.731	0.00896027
694.809	0.00864464
694.887	0.00813103
694.965	0.00751244
695.043	0.00701088
695.122	0.00676407
695.200	0.00648491
695.278	0.00645950
695.356	0.00634552
695.434	0.00634773
695.512	0.00654846
695.590	0.00688423
695.668	0.00722015
695.747	0.00775017
695.825	0.00852905
695.903	0.00961090
695.981	0.0107080
696.059	0.0119413
696.137	0.0132047
696.215	0.0143913
696.293	0.0159083
696.372	0.0172466
696.450	0.0188078
696.528	0.0202893
696.606	0.0217760
696.684	0.0233340
696.762	0.0249731
696.840	0.0266293
696.918	0.0283832
696.997	0.0297337
697.075	0.0312641
697.153	0.0327086
697.231	0.0341199
697.309	0.0350910
697.387	0.0358800
697.465	0.0364811
697.543	0.0367628
697.622	0.0368929
697.700	0.0366321
697.778	0.0363465
697.856	0.0354142
697.934	0.0344714
698.012	0.0333556
698.090	0.0322304
698.168	0.0310595
698.247	0.0298881
698.325	0.0289513
698.403	0.0279923
698.481	0.0272842
698.559	0.0268410
698.637	0.0265401
698.715	0.0265420
698.793	0.0266596
698.872	0.0272461
698.950	0.0280494
699.028	0.0288007
699.106	0.0296655
699.184	0.0304005
699.262	0.0315880
699.340	0.0324578
699.418	0.0331923
699.497	0.0337389
699.575	0.0345390
699.653	0.0347794
699.731	0.0351642
699.809	0.0352014
699.887	0.0350321
699.965	0.0347012
700.043	0.0339107
700.122	0.0332246
700.200	0.0321922
700.278	0.0309778
700.356	0.0294706
700.434	0.0280306
700.512	0.0264639
700.590	0.0245891
700.668	0.0227783
700.747	0.0209688
700.825	0.0192938
700.903	0.0175738
700.981	0.0158689
701.059	0.0143697
701.137	0.0128592
701.215	0.0116582
701.293	0.0105241
701.372	0.00957031
701.450	0.00895714
701.528	0.00845200
701.606	0.00830055
701.684	0.00831696
701.762	0.00845467
701.840	0.00856552
701.918	0.00894058
701.997	0.00930870
702.075	0.00956230
702.153	0.0100367
702.231	0.0104613
702.309	0.0110073
702.387	0.0117149
702.465	0.0122153
702.543	0.0124690
702.622	0.0128867
702.700	0.0131035
702.778	0.0133535
702.856	0.0132718
702.934	0.0131091
703.012	0.0129907
703.090	0.0127303
703.168	0.0123494
703.247	0.0119827
703.325	0.0117150
703.403	0.0115891
703.481	0.0114004
703.559	0.0110910
703.637	0.0109859
703.715	0.0111257
703.793	0.0111421
703.872	0.0110746
703.950	0.0111687
704.028	0.0112377
704.106	0.0116003
704.184	0.0116905
704.262	0.0119368
704.340	0.0120313
704.418	0.0123506
704.497	0.0124216
704.575	0.0125182
704.653	0.0125706
704.731	0.0125328
704.809	0.0122836
704.887	0.0122585
704.965	0.0122808
705.043	0.0125368
705.122	0.0124080
705.200	0.0125255
705.278	0.0127946
705.356	0.0130624
705.434	0.0133308
705.512	0.0136218
705.590	0.0138165
705.668	0.0141284
705.747	0.0143399
705.825	0.0146776
705.903	0.0150312
705.981	0.0155302
706.059	0.0159687
706.137	0.0162207
706.215	0.0165395
706.293	0.0168594
706.372	0.0170065
706.450	0.0170802
706.528	0.0171001
706.606	0.0171631
706.684	0.0170351
706.762	0.0171190
706.840	0.0169400
706.918	0.0168230
706.997	0.0165385
707.075	0.0164211
707.153	0.0163643
707.231	0.0163015
707.309	0.0161375
707.387	0.0159704
707.465	0.0159119
707.543	0.0161144
707.622	0.0161643
707.700	0.0162069
707.778	0.0166592
707.856	0.0168136
707.934	0.0166863
708.012	0.0168669
708.090	0.0168028
708.168	0.0167020
708.247	0.0164539
708.325	0.0160754
708.403	0.0154698
708.481	0.0150735
708.559	0.0146676
708.637	0.0140765
708.715	0.0138644
708.793	0.0134433
708.872	0.0131110
708.950	0.0128927
709.028	0.0128088
709.106	0.0130120
709.184	0.0130941
709.262	0.0133868
709.340	0.0138937
709.418	0.0145149
709.497	0.0148041
709.575	0.0153532
709.653	0.0159552
709.731	0.0162285
709.809	0.0167895
709.887	0.0171300
709.965	0.0173386
710.043	0.0177545
710.122	0.0180403
710.200	0.0182574
710.278	0.0186057
710.356	0.0190414
710.434	0.0191988
710.512	0.0195765
710.590	0.0199487
710.668	0.0201109
710.747	0.0204012
710.825	0.0207551
710.903	0.0208667
710.981	0.0207740
711.059	0.0208236
711.137	0.0209585
711.215	0.0210051
711.293	0.0209732
711.372	0.0209315
711.450	0.0210628
711.528	0.0212814
711.606	0.0212169
711.684	0.0212350
711.762	0.0212953
711.840	0.0214922
711.918	0.0213570
711.997	0.0213891
712.075	0.0213885
712.153	0.0216164
712.231	0.0214607
712.309	0.0212397
712.387	0.0212471
712.465	0.0210416
712.543	0.0210413
712.622	0.0208932
712.700	0.0204723
712.778	0.0203045
712.856	0.0202672
712.934	0.0200835
713.012	0.0198953
713.090	0.0196609
713.168	0.0192984
713.247	0.0188067
713.325	0.0184373
713.403	0.0180103
713.481	0.0172620
713.559	0.0165506
713.637	0.0155912
713.715	0.0147106
713.793	0.0138733
713.872	0.0129514
713.950	0.0120557
714.028	0.0111108
714.106	0.0101768
714.184	0.00939491
714.262	0.00885078
714.340	0.00850868
714.418	0.00799866
714.497	0.00774353
714.575	0.00765259
714.653	0.00765755
714.731	0.00750137
714.809	0.00762436
714.887	0.00757179
714.965	0.00762512
715.043	0.00780579
715.122	0.00784599
715.200	0.00785286
715.278	0.00809151
715.356	0.00816757
715.434	0.00834557
715.512	0.00850456
715.590	0.00869911
715.668	0.00893394
715.747	0.00922928
715.825	0.00945244
715.903	0.00970146
715.981	0.0101044
716.059	0.0103371
716.137	0.0106310
716.215	0.0108643
716.293	0.0111343
716.372	0.0115103
716.450	0.0117431
716.528	0.0121243
716.606	0.0120970
716.684	0.0123810
716.762	0.0124432
716.840	0.0126523
716.918	0.0125854
716.997	0.0125887
717.075	0.0126182
717.153	0.0125322
717.231	0.0126798
717.309	0.0126029
717.387	0.0125648
717.465	0.0124693
717.543	0.0125507
717.622	0.0123925
717.700	0.0125811
717.778	0.0126368
717.856	0.0127989
717.934	0.0131129
718.012	0.0131410
718.090	0.0133719
718.168	0.0136208
718.247	0.0138929
718.325	0.0141894
718.403	0.0144343
718.481	0.0147594
718.559	0.0150878
718.637	0.0153963
718.715	0.0153308
718.793	0.0156027
718.872	0.0158418
718.950	0.0158091
719.028	0.0158812
719.106	0.0158044
719.184	0.0157549
719.262	0.0156590
719.340	0.0157198
719.418	0.0155728
719.497	0.0156488
719.575	0.0156743
719.653	0.0155313
719.731	0.0156732
719.809	0.0157695
719.887	0.0157414
719.965	0.0157132
