06/10/2022	16:39:08	Ver.	4.1	UNKNOWN
Optical Delay	600.015094	Delta X		0.078125	Sweeps	1	Scan Rate	0/0
Coordinates	Axis 1	NaN	Axis 2	NaN	Axis 3	NaN	Axis 4	NaN	Axis 5	NaN	Axis 6	0.000000
TX Power	0.000000	RX Power	0.000000

600.015	0.0164968
600.093	0.0164684
600.171	0.0166296
600.249	0.0165231
600.328	0.0164915
600.406	0.0164796
600.484	0.0164010
600.562	0.0165154
600.640	0.0164883
600.718	0.0163433
600.796	0.0165620
600.874	0.0164243
600.953	0.0164215
601.031	0.0164455
601.109	0.0165143
601.187	0.0164806
601.265	0.0164517
601.343	0.0165918
601.421	0.0165240
601.499	0.0163905
601.578	0.0163845
601.656	0.0164807
601.734	0.0164973
601.812	0.0165414
601.890	0.0164432
601.968	0.0163638
602.046	0.0163262
602.124	0.0164750
602.203	0.0164050
602.281	0.0164259
602.359	0.0164714
602.437	0.0164768
602.515	0.0165000
602.593	0.0165649
602.671	0.0163902
602.749	0.0163140
602.828	0.0165144
602.906	0.0164618
602.984	0.0164922
603.062	0.0163884
603.140	0.0164796
603.218	0.0164257
603.296	0.0163888
603.374	0.0165293
603.453	0.0166057
603.531	0.0165623
603.609	0.0165796
603.687	0.0164156
603.765	0.0164783
603.843	0.0164514
603.921	0.0165833
603.999	0.0165157
604.078	0.0167214
604.156	0.0164938
604.234	0.0164979
604.312	0.0165891
604.390	0.0166091
604.468	0.0163896
604.546	0.0164455
604.624	0.0166735
604.703	0.0165298
604.781	0.0165104
604.859	0.0165984
604.937	0.0165874
605.015	0.0164742
605.093	0.0165837
605.171	0.0165615
605.249	0.0165039
605.328	0.0165421
605.406	0.0165320
605.484	0.0167015
605.562	0.0166339
605.640	0.0165993
605.718	0.0165353
605.796	0.0166705
605.874	0.0166874
605.953	0.0167148
606.031	0.0167068
606.109	0.0167820
606.187	0.0167621
606.265	0.0167869
606.343	0.0168035
606.421	0.0166579
606.499	0.0167648
606.578	0.0166717
606.656	0.0168848
606.734	0.0168520
606.812	0.0168144
606.890	0.0167910
606.968	0.0166957
607.046	0.0168437
607.124	0.0168360
607.203	0.0168858
607.281	0.0167184
607.359	0.0168810
607.437	0.0168739
607.515	0.0168599
607.593	0.0168460
607.671	0.0169619
607.749	0.0168717
607.828	0.0167595
607.906	0.0167143
607.984	0.0166770
608.062	0.0167713
608.140	0.0167660
608.218	0.0167282
608.296	0.0166653
608.374	0.0168777
608.453	0.0167828
608.531	0.0168053
608.609	0.0165771
608.687	0.0167182
608.765	0.0166908
608.843	0.0166476
608.921	0.0165534
608.999	0.0165627
609.078	0.0165648
609.156	0.0165588
609.234	0.0166906
609.312	0.0165522
609.390	0.0166167
609.468	0.0167785
609.546	0.0166090
609.624	0.0165668
609.703	0.0167818
609.781	0.0166880
609.859	0.0166311
609.937	0.0166587
610.015	0.0165742
610.093	0.0165916
610.171	0.0167747
610.249	0.0166772
610.328	0.0165752
610.406	0.0165115
610.484	0.0165656
610.562	0.0166821
610.640	0.0166137
610.718	0.0166889
610.796	0.0165958
610.874	0.0166119
610.953	0.0165398
611.031	0.0167564
611.109	0.0165253
611.187	0.0165701
611.265	0.0166071
611.343	0.0166230
611.421	0.0166772
611.499	0.0166511
611.578	0.0166193
611.656	0.0167376
611.734	0.0165897
611.812	0.0166171
611.890	0.0165738
611.968	0.0165397
612.046	0.0166785
612.124	0.0165834
612.203	0.0164919
612.281	0.0165444
612.359	0.0166540
612.437	0.0165270
612.515	0.0165678
612.593	0.0166196
612.671	0.0166514
612.749	0.0165053
612.828	0.0164484
612.906	0.0164683
612.984	0.0166846
613.062	0.0166750
613.140	0.0165468
613.218	0.0165971
613.296	0.0165461
613.374	0.0165533
613.453	0.0165385
613.531	0.0165720
613.609	0.0166894
613.687	0.0165456
613.765	0.0166080
613.843	0.0165759
613.921	0.0165281
613.999	0.0165079
614.078	0.0165952
614.156	0.0165309
614.234	0.0166809
614.312	0.0165195
614.390	0.0165086
614.468	0.0166088
614.546	0.0165977
614.624	0.0166881
614.703	0.0165364
614.781	0.0164874
614.859	0.0166182
614.937	0.0165985
615.015	0.0165641
615.093	0.0165572
615.171	0.0164903
615.249	0.0166390
615.328	0.0166910
615.406	0.0165463
615.484	0.0166550
615.562	0.0165997
615.640	0.0166788
615.718	0.0166126
615.796	0.0166151
615.874	0.0166312
615.953	0.0165410
616.031	0.0165968
616.109	0.0165877
616.187	0.0167246
616.265	0.0166690
616.343	0.0167706
616.421	0.0168272
616.499	0.0166771
616.578	0.0167067
616.656	0.0166700
616.734	0.0168372
616.812	0.0167226
616.890	0.0167378
616.968	0.0166596
617.046	0.0166173
617.124	0.0167905
617.203	0.0167265
617.281	0.0166771
617.359	0.0166101
617.437	0.0165294
617.515	0.0166652
617.593	0.0167514
617.671	0.0166728
617.749	0.0165327
617.828	0.0166373
617.906	0.0166336
617.984	0.0166689
618.062	0.0165109
618.140	0.0165202
618.218	0.0166447
618.296	0.0166008
618.374	0.0164929
618.453	0.0165388
618.531	0.0166647
618.609	0.0165205
618.687	0.0166388
618.765	0.0166283
618.843	0.0166212
618.921	0.0166133
618.999	0.0165636
619.078	0.0165606
619.156	0.0166823
619.234	0.0166158
619.312	0.0165146
619.390	0.0165001
619.468	0.0165466
619.546	0.0165581
619.624	0.0165837
619.703	0.0163590
619.781	0.0164269
619.859	0.0165728
619.937	0.0166340
620.015	0.0165234
620.093	0.0166139
620.171	0.0165629
620.249	0.0165733
620.328	0.0165591
620.406	0.0165849
620.484	0.0164294
620.562	0.0165415
620.640	0.0165041
620.718	0.0164708
620.796	0.0166981
620.874	0.0164909
620.953	0.0164583
621.031	0.0165633
621.109	0.0164668
621.187	0.0163961
621.265	0.0164561
621.343	0.0165015
621.421	0.0164180
621.499	0.0166103
621.578	0.0165495
621.656	0.0165001
621.734	0.0165516
621.812	0.0164485
621.890	0.0164226
621.968	0.0166129
622.046	0.0165007
622.124	0.0164469
622.203	0.0165323
622.281	0.0165728
622.359	0.0164343
622.437	0.0164576
622.515	0.0165045
622.593	0.0164483
622.671	0.0164303
622.749	0.0164567
622.828	0.0164163
622.906	0.0165108
622.984	0.0164979
623.062	0.0163287
623.140	0.0164970
623.218	0.0165314
623.296	0.0166246
623.374	0.0166151
623.453	0.0165006
623.531	0.0164630
623.609	0.0165734
623.687	0.0166084
623.765	0.0165951
623.843	0.0165016
623.921	0.0164510
623.999	0.0165823
624.078	0.0165523
624.156	0.0164987
624.234	0.0166153
624.312	0.0165894
624.390	0.0164394
624.468	0.0165173
624.546	0.0167271
624.624	0.0164980
624.703	0.0164922
624.781	0.0167175
624.859	0.0166246
624.937	0.0164912
625.015	0.0165940
625.093	0.0166891
625.171	0.0166466
625.249	0.0165573
625.328	0.0165752
625.406	0.0166654
625.484	0.0166288
625.562	0.0166048
625.640	0.0165536
625.718	0.0165988
625.796	0.0165765
625.874	0.0165936
625.953	0.0166202
626.031	0.0165696
626.109	0.0165527
626.187	0.0165365
626.265	0.0166614
626.343	0.0166196
626.421	0.0165045
626.499	0.0165945
626.578	0.0164799
626.656	0.0165555
626.734	0.0165756
626.812	0.0166873
626.890	0.0165732
626.968	0.0165072
627.046	0.0165688
627.124	0.0166245
627.203	0.0164764
627.281	0.0164465
627.359	0.0165195
627.437	0.0167191
627.515	0.0166917
627.593	0.0165618
627.671	0.0165941
627.749	0.0164456
627.828	0.0165376
627.906	0.0165630
627.984	0.0165776
628.062	0.0166107
628.140	0.0166515
628.218	0.0165200
628.296	0.0165805
628.374	0.0166946
628.453	0.0166026
628.531	0.0166036
628.609	0.0166849
628.687	0.0165665
628.765	0.0166749
628.843	0.0167586
628.921	0.0165560
628.999	0.0164394
629.078	0.0165862
629.156	0.0166641
629.234	0.0166721
629.312	0.0166474
629.390	0.0166187
629.468	0.0167629
629.546	0.0167168
629.624	0.0165817
629.703	0.0166429
629.781	0.0167811
629.859	0.0165244
629.937	0.0166172
630.015	0.0166161
630.093	0.0166180
630.171	0.0166565
630.249	0.0166038
630.328	0.0167687
630.406	0.0166773
630.484	0.0166930
630.562	0.0166685
630.640	0.0167135
630.718	0.0166435
630.796	0.0168038
630.874	0.0167102
630.953	0.0166138
631.031	0.0166713
631.109	0.0165954
631.187	0.0167422
631.265	0.0166819
631.343	0.0166530
631.421	0.0167069
631.499	0.0168005
631.578	0.0166109
631.656	0.0166901
631.734	0.0166162
631.812	0.0166183
631.890	0.0166633
631.968	0.0167492
632.046	0.0166455
632.124	0.0166331
632.203	0.0166447
632.281	0.0166762
632.359	0.0166246
632.437	0.0167259
632.515	0.0166953
632.593	0.0167722
632.671	0.0166871
632.749	0.0167934
632.828	0.0166257
632.906	0.0166219
632.984	0.0166183
633.062	0.0167279
633.140	0.0167213
633.218	0.0166023
633.296	0.0166351
633.374	0.0167434
633.453	0.0166583
633.531	0.0167175
633.609	0.0166681
633.687	0.0165503
633.765	0.0166385
633.843	0.0166451
633.921	0.0166966
633.999	0.0164933
634.078	0.0165643
634.156	0.0166430
634.234	0.0166671
634.312	0.0166588
634.390	0.0165775
634.468	0.0165811
634.546	0.0166364
634.624	0.0167119
634.703	0.0166504
634.781	0.0166840
634.859	0.0166425
634.937	0.0165900
635.015	0.0166082
635.093	0.0167138
635.171	0.0167047
635.249	0.0165920
635.328	0.0166190
635.406	0.0165889
635.484	0.0165470
635.562	0.0166373
635.640	0.0166849
635.718	0.0166196
635.796	0.0166965
635.874	0.0165044
635.953	0.0165287
636.031	0.0165115
636.109	0.0166398
636.187	0.0165749
636.265	0.0165351
636.343	0.0163760
636.421	0.0165176
636.499	0.0166344
636.578	0.0165775
636.656	0.0166236
636.734	0.0166766
636.812	0.0166132
636.890	0.0164207
636.968	0.0165974
637.046	0.0166280
637.124	0.0164098
637.203	0.0165977
637.281	0.0166286
637.359	0.0166438
637.437	0.0166151
637.515	0.0166049
637.593	0.0164822
637.671	0.0165310
637.749	0.0166117
637.828	0.0166470
637.906	0.0165355
637.984	0.0166073
638.062	0.0166991
638.140	0.0167172
638.218	0.0165456
638.296	0.0165263
638.374	0.0167995
638.453	0.0166564
638.531	0.0166046
638.609	0.0166579
638.687	0.0166470
638.765	0.0166467
638.843	0.0166218
638.921	0.0164332
638.999	0.0165952
639.078	0.0166287
639.156	0.0165398
639.234	0.0166077
639.312	0.0166055
639.390	0.0165294
639.468	0.0165928
639.546	0.0165873
639.624	0.0166881
639.703	0.0165321
639.781	0.0165450
639.859	0.0166422
639.937	0.0166100
640.015	0.0165737
640.093	0.0164584
640.171	0.0167183
640.249	0.0167094
640.328	0.0165862
640.406	0.0165769
640.484	0.0165188
640.562	0.0164965
640.640	0.0164995
640.718	0.0166094
640.796	0.0166383
640.874	0.0164680
640.953	0.0165126
641.031	0.0167309
641.109	0.0166843
641.187	0.0165693
641.265	0.0164717
641.343	0.0166158
641.421	0.0166350
641.499	0.0166852
641.578	0.0166481
641.656	0.0165948
641.734	0.0165543
641.812	0.0165843
641.890	0.0164472
641.968	0.0165339
642.046	0.0165482
642.124	0.0165097
642.203	0.0164664
642.281	0.0166215
642.359	0.0165726
642.437	0.0164622
642.515	0.0164724
642.593	0.0164398
642.671	0.0165723
642.749	0.0166891
642.828	0.0163977
642.906	0.0164346
642.984	0.0166145
643.062	0.0164749
643.140	0.0164480
643.218	0.0165014
643.296	0.0164610
643.374	0.0163967
643.453	0.0163982
643.531	0.0164478
643.609	0.0165218
643.687	0.0165483
643.765	0.0164029
643.843	0.0163766
643.921	0.0162791
643.999	0.0164525
644.078	0.0165691
644.156	0.0165131
644.234	0.0165422
644.312	0.0164585
644.390	0.0164579
644.468	0.0164437
644.546	0.0163966
644.624	0.0164569
644.703	0.0164751
644.781	0.0164687
644.859	0.0164816
644.937	0.0164578
645.015	0.0163646
645.093	0.0166640
645.171	0.0164713
645.249	0.0165149
645.328	0.0165047
645.406	0.0164844
645.484	0.0164416
645.562	0.0164462
645.640	0.0165112
645.718	0.0164697
645.796	0.0166032
645.874	0.0164371
645.953	0.0165085
646.031	0.0165047
646.109	0.0165433
646.187	0.0163943
646.265	0.0165258
646.343	0.0165533
646.421	0.0165176
646.499	0.0164066
646.578	0.0164761
646.656	0.0164963
646.734	0.0165222
646.812	0.0165333
646.890	0.0164533
646.968	0.0164912
647.046	0.0164422
647.124	0.0164783
647.203	0.0165594
647.281	0.0164802
647.359	0.0165414
647.437	0.0165683
647.515	0.0165421
647.593	0.0165540
647.671	0.0166815
647.749	0.0167260
647.828	0.0164748
647.906	0.0165649
647.984	0.0165955
648.062	0.0165433
648.140	0.0164836
648.218	0.0167502
648.296	0.0165601
648.374	0.0164254
648.453	0.0166590
648.531	0.0166708
648.609	0.0165765
648.687	0.0166634
648.765	0.0166566
648.843	0.0166093
648.921	0.0165307
648.999	0.0165849
649.078	0.0166283
649.156	0.0165896
649.234	0.0164518
649.312	0.0166145
649.390	0.0167808
649.468	0.0166414
649.546	0.0165704
649.624	0.0167159
649.703	0.0165970
649.781	0.0167396
649.859	0.0165715
649.937	0.0165240
650.015	0.0165585
650.093	0.0165726
650.171	0.0166444
650.249	0.0166302
650.328	0.0165852
650.406	0.0166181
650.484	0.0164982
650.562	0.0165353
650.640	0.0166213
650.718	0.0164707
650.796	0.0164937
650.874	0.0165514
650.953	0.0165836
651.031	0.0164694
651.109	0.0165697
651.187	0.0166786
651.265	0.0164248
651.343	0.0166003
651.421	0.0166354
651.499	0.0165706
651.578	0.0165164
651.656	0.0165129
651.734	0.0164211
651.812	0.0164240
651.890	0.0165435
651.968	0.0164674
652.046	0.0165102
652.124	0.0164844
652.203	0.0164516
652.281	0.0166175
652.359	0.0164665
652.437	0.0165881
652.515	0.0165386
652.593	0.0165783
652.671	0.0164889
652.749	0.0166208
652.828	0.0164116
652.906	0.0164611
652.984	0.0165747
653.062	0.0165784
653.140	0.0166717
653.218	0.0164956
653.296	0.0166664
653.374	0.0166162
653.453	0.0166302
653.531	0.0165772
653.609	0.0166058
653.687	0.0165328
653.765	0.0164750
653.843	0.0163459
653.921	0.0164600
653.999	0.0165155
654.078	0.0165204
654.156	0.0166145
654.234	0.0165366
654.312	0.0164043
654.390	0.0164861
654.468	0.0165781
654.546	0.0165563
654.624	0.0165253
654.703	0.0164707
654.781	0.0163902
654.859	0.0165883
654.937	0.0165828
655.015	0.0165620
655.093	0.0165965
655.171	0.0164405
655.249	0.0164358
655.328	0.0165323
655.406	0.0164861
655.484	0.0164417
655.562	0.0165880
655.640	0.0165315
655.718	0.0163327
655.796	0.0164513
655.874	0.0163329
655.953	0.0165128
656.031	0.0164952
656.109	0.0165748
656.187	0.0163842
656.265	0.0165182
656.343	0.0165894
656.421	0.0164398
656.499	0.0164718
656.578	0.0164816
656.656	0.0167047
656.734	0.0164181
656.812	0.0164199
656.890	0.0165710
656.968	0.0163909
657.046	0.0164725
657.124	0.0165694
657.203	0.0164687
657.281	0.0165379
657.359	0.0166210
657.437	0.0164994
657.515	0.0165054
657.593	0.0165200
657.671	0.0166206
657.749	0.0166640
657.828	0.0164310
657.906	0.0164603
657.984	0.0166329
658.062	0.0164920
658.140	0.0165893
658.218	0.0165672
658.296	0.0163766
658.374	0.0164520
658.453	0.0165132
658.531	0.0165077
658.609	0.0165488
658.687	0.0166706
658.765	0.0165807
658.843	0.0166122
658.921	0.0165992
658.999	0.0166138
659.078	0.0166672
659.156	0.0165114
659.234	0.0165754
659.312	0.0164723
659.390	0.0165457
659.468	0.0165222
659.546	0.0165527
659.624	0.0167281
659.703	0.0166115
659.781	0.0165791
659.859	0.0165794
659.937	0.0166116
660.015	0.0165365
660.093	0.0165794
660.171	0.0165571
660.249	0.0165742
660.328	0.0166109
660.406	0.0164764
660.484	0.0165515
660.562	0.0165997
660.640	0.0165401
660.718	0.0165804
660.796	0.0166762
660.874	0.0165972
660.953	0.0166537
661.031	0.0166897
661.109	0.0166414
661.187	0.0165833
661.265	0.0165913
661.343	0.0166945
661.421	0.0166489
661.499	0.0166515
661.578	0.0165659
661.656	0.0164923
661.734	0.0165570
661.812	0.0167129
661.890	0.0166005
661.968	0.0167223
662.046	0.0166034
662.124	0.0164606
662.203	0.0165961
662.281	0.0166142
662.359	0.0166384
662.437	0.0165626
662.515	0.0165135
662.593	0.0167171
662.671	0.0165311
662.749	0.0165879
662.828	0.0165656
662.906	0.0165681
662.984	0.0164555
663.062	0.0165985
663.140	0.0164954
663.218	0.0165297
663.296	0.0163372
663.374	0.0165926
663.453	0.0165519
663.531	0.0166090
663.609	0.0166320
663.687	0.0164716
663.765	0.0164600
663.843	0.0164986
663.921	0.0165029
663.999	0.0165662
664.078	0.0164204
664.156	0.0164927
664.234	0.0164735
664.312	0.0164469
664.390	0.0166626
664.468	0.0165668
664.546	0.0164268
664.624	0.0164614
664.703	0.0166345
664.781	0.0166058
664.859	0.0164777
664.937	0.0165459
665.015	0.0164811
665.093	0.0165160
665.171	0.0164518
665.249	0.0165074
665.328	0.0165881
665.406	0.0164544
665.484	0.0164190
665.562	0.0165251
665.640	0.0164555
665.718	0.0165645
665.796	0.0166170
665.874	0.0165897
665.953	0.0164272
666.031	0.0165057
666.109	0.0165205
666.187	0.0164857
666.265	0.0164690
666.343	0.0165651
666.421	0.0164895
666.499	0.0164420
666.578	0.0164153
666.656	0.0164158
666.734	0.0165176
666.812	0.0164988
666.890	0.0164306
666.968	0.0163814
667.046	0.0164969
667.124	0.0164879
667.203	0.0164988
667.281	0.0164737
667.359	0.0164882
667.437	0.0164849
667.515	0.0165862
667.593	0.0164577
667.671	0.0165728
667.749	0.0165090
667.828	0.0165810
667.906	0.0164925
667.984	0.0164520
668.062	0.0164458
668.140	0.0166089
668.218	0.0166167
668.296	0.0165373
668.374	0.0164915
668.453	0.0166058
668.531	0.0166649
668.609	0.0163831
668.687	0.0164725
668.765	0.0165117
668.843	0.0165100
668.921	0.0165462
668.999	0.0165694
669.078	0.0165795
669.156	0.0166921
669.234	0.0165978
669.312	0.0165374
669.390	0.0164697
669.468	0.0165591
669.546	0.0165890
669.624	0.0165525
669.703	0.0167316
669.781	0.0164565
669.859	0.0166525
669.937	0.0165411
670.015	0.0165922
670.093	0.0166975
670.171	0.0166448
670.249	0.0166530
670.328	0.0166287
670.406	0.0166028
670.484	0.0164958
670.562	0.0165719
670.640	0.0166388
670.718	0.0164661
670.796	0.0166228
670.874	0.0165965
670.953	0.0166395
671.031	0.0166133
671.109	0.0165575
671.187	0.0165854
671.265	0.0164880
671.343	0.0165324
671.421	0.0165063
671.499	0.0165800
671.578	0.0166676
671.656	0.0165492
671.734	0.0165583
671.812	0.0163975
671.890	0.0164642
671.968	0.0165900
672.046	0.0166222
672.124	0.0164454
672.203	0.0165081
672.281	0.0165098
672.359	0.0165282
672.437	0.0166266
672.515	0.0165170
672.593	0.0165480
672.671	0.0166329
672.749	0.0166001
672.828	0.0166171
672.906	0.0165999
672.984	0.0166508
673.062	0.0165737
673.140	0.0165060
673.218	0.0165098
673.296	0.0164643
673.374	0.0165071
673.453	0.0164585
673.531	0.0165874
673.609	0.0166136
673.687	0.0165361
673.765	0.0165498
673.843	0.0164766
673.921	0.0165494
673.999	0.0166196
674.078	0.0164632
674.156	0.0166176
674.234	0.0165623
674.312	0.0165738
674.390	0.0166335
674.468	0.0164627
674.546	0.0166621
674.624	0.0165762
674.703	0.0165957
674.781	0.0165416
674.859	0.0164436
674.937	0.0165673
675.015	0.0163486
675.093	0.0166039
675.171	0.0164874
675.249	0.0165460
675.328	0.0165519
675.406	0.0164615
675.484	0.0165199
675.562	0.0165191
675.640	0.0165426
675.718	0.0165097
675.796	0.0164822
675.874	0.0166055
675.953	0.0165291
676.031	0.0165857
676.109	0.0165295
676.187	0.0164929
676.265	0.0165816
676.343	0.0165720
676.421	0.0164368
676.499	0.0164504
676.578	0.0166097
676.656	0.0166283
676.734	0.0164592
676.812	0.0164754
676.890	0.0165620
676.968	0.0165377
677.046	0.0166203
677.124	0.0165064
677.203	0.0164995
677.281	0.0165079
677.359	0.0165903
677.437	0.0164608
677.515	0.0164438
677.593	0.0166444
677.671	0.0165999
677.749	0.0163568
677.828	0.0164524
677.906	0.0165671
677.984	0.0165481
678.062	0.0166064
678.140	0.0166020
678.218	0.0166293
678.296	0.0164870
678.374	0.0164942
678.453	0.0165433
678.531	0.0165378
678.609	0.0167046
678.687	0.0165567
678.765	0.0165809
678.843	0.0165342
678.921	0.0165319
678.999	0.0165440
679.078	0.0165634
679.156	0.0165309
679.234	0.0165668
679.312	0.0165990
679.390	0.0166551
679.468	0.0164971
679.546	0.0165703
679.624	0.0166061
679.703	0.0164562
679.781	0.0165967
679.859	0.0167126
679.937	0.0165962
680.015	0.0165820
680.093	0.0165502
680.171	0.0166640
680.249	0.0165431
680.328	0.0166699
680.406	0.0165531
680.484	0.0166000
680.562	0.0165443
680.640	0.0166723
680.718	0.0165618
680.796	0.0165881
680.874	0.0165611
680.953	0.0167505
681.031	0.0165216
681.109	0.0166502
681.187	0.0166679
681.265	0.0163844
681.343	0.0165224
681.421	0.0166680
681.499	0.0166267
681.578	0.0167088
681.656	0.0166440
681.734	0.0165903
681.812	0.0165171
681.890	0.0166296
681.968	0.0166323
682.046	0.0165860
682.124	0.0165231
682.203	0.0166121
682.281	0.0165998
682.359	0.0166035
682.437	0.0165796
682.515	0.0165498
682.593	0.0166207
682.671	0.0165704
682.749	0.0165579
682.828	0.0166858
682.906	0.0167273
682.984	0.0165562
683.062	0.0165216
683.140	0.0164567
683.218	0.0166821
683.296	0.0166283
683.374	0.0166460
683.453	0.0165775
683.531	0.0166353
683.609	0.0165739
683.687	0.0166394
683.765	0.0165993
683.843	0.0166281
683.921	0.0165070
683.999	0.0163804
684.078	0.0165945
684.156	0.0166263
684.234	0.0165788
684.312	0.0165389
684.390	0.0166264
684.468	0.0166841
684.546	0.0166002
684.624	0.0166315
684.703	0.0166322
684.781	0.0166541
684.859	0.0164541
684.937	0.0165678
685.015	0.0166118
685.093	0.0166326
685.171	0.0165437
685.249	0.0165425
685.328	0.0165820
685.406	0.0165918
685.484	0.0164700
685.562	0.0166580
685.640	0.0168024
685.718	0.0165883
685.796	0.0165932
685.874	0.0166634
685.953	0.0166234
686.031	0.0166536
686.109	0.0165221
686.187	0.0165359
686.265	0.0166534
686.343	0.0165324
686.421	0.0165424
686.499	0.0166309
686.578	0.0166238
686.656	0.0165668
686.734	0.0165768
686.812	0.0165119
686.890	0.0166542
686.968	0.0165670
687.046	0.0166355
687.124	0.0165810
687.203	0.0166582
687.281	0.0164948
687.359	0.0166492
687.437	0.0166592
687.515	0.0165337
687.593	0.0165498
687.671	0.0164849
687.749	0.0165156
687.828	0.0166360
687.906	0.0167020
687.984	0.0166180
688.062	0.0166502
688.140	0.0165678
688.218	0.0165700
688.296	0.0167198
688.374	0.0167449
688.453	0.0165092
688.531	0.0164429
688.609	0.0165459
688.687	0.0166592
688.765	0.0165801
688.843	0.0165356
688.921	0.0166187
688.999	0.0166708
689.078	0.0165701
689.156	0.0166718
689.234	0.0167478
689.312	0.0166460
689.390	0.0165078
689.468	0.0166541
689.546	0.0166515
689.624	0.0165149
689.703	0.0165952
689.781	0.0166683
689.859	0.0166799
689.937	0.0164980
690.015	0.0165339
690.093	0.0166951
690.171	0.0165295
690.249	0.0165263
690.328	0.0166843
690.406	0.0166019
690.484	0.0166753
690.562	0.0166319
690.640	0.0165273
690.718	0.0166490
690.796	0.0166476
690.874	0.0166062
690.953	0.0166291
691.031	0.0165867
691.109	0.0166352
691.187	0.0166168
691.265	0.0166991
691.343	0.0166131
691.421	0.0166012
691.499	0.0167362
691.578	0.0166750
691.656	0.0166384
691.734	0.0165224
691.812	0.0165765
691.890	0.0164420
691.968	0.0165952
692.046	0.0165820
692.124	0.0164778
692.203	0.0164190
692.281	0.0165278
692.359	0.0166345
692.437	0.0165829
692.515	0.0165868
692.593	0.0167227
692.671	0.0165970
692.749	0.0166502
692.828	0.0165447
692.906	0.0166093
692.984	0.0166280
693.062	0.0166026
693.140	0.0165645
693.218	0.0166414
693.296	0.0167732
693.374	0.0167487
693.453	0.0165796
693.531	0.0166413
693.609	0.0167477
693.687	0.0166541
693.765	0.0167733
693.843	0.0167113
693.921	0.0166502
693.999	0.0165136
694.078	0.0166677
694.156	0.0166406
694.234	0.0166296
694.312	0.0166383
694.390	0.0165740
694.468	0.0164658
694.546	0.0165795
694.624	0.0167041
694.703	0.0166840
694.781	0.0166411
694.859	0.0166689
694.937	0.0165060
695.015	0.0164075
695.093	0.0165083
695.171	0.0165623
695.249	0.0166588
695.328	0.0165507
695.406	0.0166595
695.484	0.0165153
695.562	0.0166099
695.640	0.0165278
695.718	0.0167747
695.796	0.0165824
695.874	0.0165338
695.953	0.0166654
696.031	0.0165233
696.109	0.0165503
696.187	0.0164336
696.265	0.0164133
696.343	0.0164183
696.421	0.0165409
696.499	0.0164412
696.578	0.0165173
696.656	0.0163676
696.734	0.0162710
696.812	0.0163802
696.890	0.0164608
696.968	0.0164619
697.046	0.0164540
697.124	0.0165739
697.203	0.0164612
697.281	0.0165520
697.359	0.0165492
697.437	0.0164339
697.515	0.0164130
697.593	0.0164825
697.671	0.0165112
697.749	0.0165549
697.828	0.0165108
697.906	0.0166614
697.984	0.0165831
698.062	0.0165200
698.140	0.0165263
698.218	0.0165459
698.296	0.0165440
698.374	0.0164464
698.453	0.0165606
698.531	0.0163766
698.609	0.0164696
698.687	0.0165173
698.765	0.0164981
698.843	0.0165274
698.921	0.0165243
698.999	0.0165092
699.078	0.0165237
699.156	0.0165018
699.234	0.0164876
699.312	0.0165383
699.390	0.0167133
699.468	0.0164314
699.546	0.0163753
699.624	0.0166007
699.703	0.0166053
699.781	0.0166457
699.859	0.0165108
699.937	0.0165263
700.015	0.0164986
700.093	0.0164835
700.171	0.0165972
700.249	0.0166512
700.328	0.0165972
700.406	0.0165705
700.484	0.0165984
700.562	0.0165303
700.640	0.0165523
700.718	0.0167000
700.796	0.0165380
700.874	0.0165456
700.953	0.0165440
701.031	0.0165356
701.109	0.0165910
701.187	0.0165446
701.265	0.0165762
701.343	0.0164648
701.421	0.0164793
701.499	0.0164811
701.578	0.0165686
701.656	0.0165981
701.734	0.0165282
701.812	0.0163690
701.890	0.0164797
701.968	0.0165298
702.046	0.0165102
702.124	0.0166024
702.203	0.0164986
702.281	0.0166248
702.359	0.0166129
702.437	0.0164955
702.515	0.0165922
702.593	0.0165444
702.671	0.0165075
702.749	0.0166068
702.828	0.0165556
702.906	0.0165482
702.984	0.0164793
703.062	0.0166201
703.140	0.0166912
703.218	0.0166995
703.296	0.0165465
703.374	0.0165565
703.453	0.0166213
703.531	0.0166145
703.609	0.0165830
703.687	0.0167236
703.765	0.0166219
703.843	0.0165112
703.921	0.0165341
703.999	0.0166303
704.078	0.0166521
704.156	0.0164982
704.234	0.0166553
704.312	0.0166727
704.390	0.0166328
704.468	0.0166647
704.546	0.0164822
704.624	0.0165460
704.703	0.0165775
704.781	0.0167841
704.859	0.0166061
704.937	0.0167020
705.015	0.0166731
705.093	0.0166701
705.171	0.0167623
705.249	0.0166529
705.328	0.0166999
705.406	0.0166871
705.484	0.0166937
705.562	0.0168243
705.640	0.0166859
705.718	0.0166878
705.796	0.0165285
705.874	0.0166663
705.953	0.0165427
706.031	0.0166490
706.109	0.0166264
706.187	0.0166142
706.265	0.0167049
706.343	0.0165340
706.421	0.0167432
706.499	0.0166028
706.578	0.0166862
706.656	0.0166923
706.734	0.0166835
706.812	0.0165951
706.890	0.0164836
706.968	0.0166578
707.046	0.0167467
707.124	0.0165896
707.203	0.0166969
707.281	0.0165182
707.359	0.0166246
707.437	0.0166006
707.515	0.0167467
707.593	0.0167293
707.671	0.0166501
707.749	0.0167609
707.828	0.0167010
707.906	0.0166172
707.984	0.0167999
708.062	0.0167572
708.140	0.0166515
708.218	0.0167535
708.296	0.0166160
708.374	0.0166544
708.453	0.0166888
708.531	0.0165322
708.609	0.0167453
708.687	0.0167834
708.765	0.0166344
708.843	0.0167458
708.921	0.0166368
708.999	0.0166460
709.078	0.0166495
709.156	0.0166765
709.234	0.0167085
709.312	0.0165876
709.390	0.0167372
709.468	0.0166711
709.546	0.0166691
709.624	0.0166913
709.703	0.0167585
709.781	0.0167563
709.859	0.0165888
709.937	0.0165522
710.015	0.0167364
710.093	0.0166463
710.171	0.0167248
710.249	0.0166730
710.328	0.0167549
710.406	0.0166742
710.484	0.0167281
710.562	0.0166568
710.640	0.0166505
710.718	0.0165906
710.796	0.0166673
710.874	0.0165643
710.953	0.0166722
711.031	0.0165913
711.109	0.0166058
711.187	0.0164483
711.265	0.0165385
711.343	0.0167052
711.421	0.0166515
711.499	0.0165586
711.578	0.0166374
711.656	0.0166580
711.734	0.0167406
711.812	0.0167216
711.890	0.0166230
711.968	0.0166370
712.046	0.0165992
712.124	0.0167097
712.203	0.0166998
712.281	0.0167507
712.359	0.0166192
712.437	0.0165520
712.515	0.0166438
712.593	0.0165351
712.671	0.0165795
712.749	0.0163872
712.828	0.0164681
712.906	0.0164710
712.984	0.0165099
713.062	0.0161966
713.140	0.0164848
713.218	0.0164325
713.296	0.0165544
713.374	0.0164170
713.453	0.0164316
713.531	0.0165675
713.609	0.0165620
713.687	0.0166729
713.765	0.0166923
713.843	0.0167657
713.921	0.0167226
713.999	0.0167603
714.078	0.0167370
714.156	0.0166232
714.234	0.0165639
714.312	0.0165396
714.390	0.0165883
714.468	0.0166476
714.546	0.0165562
714.624	0.0165309
714.703	0.0164523
714.781	0.0165482
714.859	0.0165519
714.937	0.0165731
715.015	0.0163223
715.093	0.0165782
715.171	0.0166219
715.249	0.0165078
715.328	0.0165301
715.406	0.0165611
715.484	0.0166354
715.562	0.0165838
715.640	0.0165710
715.718	0.0164837
715.796	0.0165096
715.874	0.0165533
715.953	0.0165551
716.031	0.0164787
716.109	0.0165240
716.187	0.0165967
716.265	0.0166309
716.343	0.0167085
716.421	0.0168458
716.499	0.0165559
716.578	0.0167119
716.656	0.0167144
716.734	0.0167093
716.812	0.0167466
716.890	0.0166965
716.968	0.0165187
717.046	0.0165700
717.124	0.0164482
717.203	0.0164828
717.281	0.0163545
717.359	0.0164394
717.437	0.0164410
717.515	0.0164088
717.593	0.0163184
717.671	0.0163829
717.749	0.0162881
717.828	0.0164240
717.906	0.0164745
717.984	0.0166122
718.062	0.0167116
718.140	0.0167365
718.218	0.0166931
718.296	0.0168611
718.374	0.0167126
718.453	0.0166360
718.531	0.0166166
718.609	0.0167615
718.687	0.0168050
718.765	0.0166216
718.843	0.0166449
718.921	0.0165173
718.999	0.0164753
719.078	0.0164397
719.156	0.0166951
719.234	0.0164430
719.312	0.0164128
719.390	0.0164314
719.468	0.0163294
719.546	0.0163992
719.624	0.0164757
719.703	0.0164906
719.781	0.0163263
719.859	0.0163705
719.937	0.0164841
720.015	0.0164855
720.093	0.0165049
720.171	0.0166324
720.249	0.0165074
720.328	0.0166400
720.406	0.0165740
720.484	0.0165275
720.562	0.0165742
720.640	0.0165224
720.718	0.0164153
720.796	0.0165025
720.874	0.0164803
720.953	0.0165115
721.031	0.0162586
721.109	0.0164979
721.187	0.0164370
721.265	0.0164186
721.343	0.0165337
721.421	0.0163920
721.499	0.0164345
721.578	0.0163428
721.656	0.0163924
721.734	0.0163258
721.812	0.0163176
721.890	0.0165096
721.968	0.0164636
722.046	0.0162434
722.124	0.0163248
722.203	0.0162981
722.281	0.0162027
722.359	0.0163834
722.437	0.0164774
722.515	0.0163572
722.593	0.0163832
722.671	0.0163908
722.749	0.0164307
722.828	0.0164523
722.906	0.0164931
722.984	0.0166901
723.062	0.0165442
723.140	0.0164581
723.218	0.0165443
723.296	0.0165110
723.374	0.0164698
723.453	0.0164068
723.531	0.0164982
723.609	0.0163917
723.687	0.0163482
723.765	0.0165257
723.843	0.0163969
723.921	0.0164957
723.999	0.0165258
724.078	0.0165857
724.156	0.0164544
724.234	0.0164395
724.312	0.0164823
724.390	0.0165784
724.468	0.0164365
724.546	0.0165054
724.624	0.0166193
724.703	0.0164525
724.781	0.0164027
724.859	0.0164696
724.937	0.0165198
725.015	0.0166134
725.093	0.0165253
725.171	0.0166108
725.249	0.0165956
725.328	0.0165194
725.406	0.0165734
725.484	0.0165154
725.562	0.0164759
725.640	0.0166340
725.718	0.0165987
725.796	0.0165150
725.874	0.0164677
725.953	0.0163655
726.031	0.0165499
726.109	0.0164759
726.187	0.0165088
726.265	0.0163861
726.343	0.0165006
726.421	0.0165589
726.499	0.0165601
726.578	0.0164530
726.656	0.0165550
726.734	0.0165670
726.812	0.0163707
726.890	0.0164722
726.968	0.0164871
727.046	0.0164709
727.124	0.0164641
727.203	0.0165094
727.281	0.0165261
727.359	0.0165985
727.437	0.0165124
727.515	0.0165516
727.593	0.0165533
727.671	0.0165398
727.749	0.0164386
727.828	0.0165767
727.906	0.0165036
727.984	0.0165777
728.062	0.0164729
728.140	0.0163757
728.218	0.0164989
728.296	0.0164330
728.374	0.0166166
728.453	0.0167146
728.531	0.0164768
728.609	0.0164113
728.687	0.0164375
728.765	0.0165101
728.843	0.0164212
728.921	0.0164066
728.999	0.0164953
729.078	0.0166846
729.156	0.0165508
729.234	0.0165320
729.312	0.0165588
729.390	0.0165012
729.468	0.0164896
729.546	0.0164840
729.624	0.0165335
729.703	0.0164867
729.781	0.0164475
729.859	0.0164639
729.937	0.0165857
730.015	0.0164297
730.093	0.0164883
730.171	0.0166617
730.249	0.0166263
730.328	0.0165250
730.406	0.0165500
730.484	0.0166470
730.562	0.0164817
730.640	0.0165021
730.718	0.0164274
730.796	0.0165787
730.874	0.0165732
730.953	0.0166457
731.031	0.0166623
731.109	0.0166371
731.187	0.0165585
731.265	0.0166769
731.343	0.0164915
731.421	0.0164893
731.499	0.0165070
731.578	0.0167172
731.656	0.0164230
731.734	0.0164812
731.812	0.0165110
731.890	0.0164223
731.968	0.0165364
732.046	0.0166147
732.124	0.0166262
732.203	0.0165041
732.281	0.0162737
732.359	0.0166010
732.437	0.0166566
732.515	0.0165741
732.593	0.0165444
732.671	0.0165720
732.749	0.0165234
732.828	0.0164572
732.906	0.0165132
732.984	0.0165828
733.062	0.0164931
733.140	0.0165224
733.218	0.0163438
733.296	0.0164960
733.374	0.0166368
733.453	0.0166476
733.531	0.0164992
733.609	0.0164400
733.687	0.0167102
733.765	0.0165405
733.843	0.0165294
733.921	0.0165234
733.999	0.0164859
734.078	0.0166261
734.156	0.0164285
734.234	0.0165400
734.312	0.0165651
734.390	0.0165176
734.468	0.0164921
734.546	0.0164915
734.624	0.0165310
734.703	0.0165521
734.781	0.0166109
734.859	0.0165533
734.937	0.0164917
735.015	0.0165179
735.093	0.0162708
735.171	0.0165584
735.249	0.0165068
735.328	0.0165089
735.406	0.0165112
735.484	0.0166327
735.562	0.0164503
735.640	0.0164709
735.718	0.0166585
735.796	0.0166314
735.874	0.0164781
735.953	0.0165258
736.031	0.0165243
736.109	0.0165173
736.187	0.0164919
736.265	0.0165874
736.343	0.0165413
736.421	0.0165096
736.499	0.0166790
736.578	0.0165728
736.656	0.0166157
736.734	0.0164531
736.812	0.0165486
736.890	0.0165117
736.968	0.0164584
737.046	0.0165765
737.124	0.0166878
737.203	0.0166198
737.281	0.0165767
737.359	0.0165758
737.437	0.0165183
737.515	0.0166593
737.593	0.0165650
737.671	0.0165619
737.749	0.0166441
737.828	0.0165765
737.906	0.0164423
737.984	0.0165759
738.062	0.0165137
738.140	0.0164731
738.218	0.0165635
738.296	0.0165868
738.374	0.0166172
738.453	0.0165618
738.531	0.0165176
738.609	0.0166895
738.687	0.0166181
738.765	0.0165878
738.843	0.0165675
738.921	0.0165695
738.999	0.0163866
739.078	0.0165348
739.156	0.0165868
739.234	0.0164752
739.312	0.0165152
739.390	0.0164397
739.468	0.0165768
739.546	0.0167329
739.624	0.0166074
739.703	0.0165748
739.781	0.0165722
739.859	0.0164456
739.937	0.0165735
740.015	0.0166374
740.093	0.0166557
740.171	0.0165097
740.249	0.0166286
740.328	0.0166696
740.406	0.0166366
740.484	0.0165345
740.562	0.0166212
740.640	0.0165601
740.718	0.0166360
740.796	0.0165388
740.874	0.0166824
740.953	0.0166315
741.031	0.0166103
741.109	0.0163861
741.187	0.0163905
741.265	0.0166351
741.343	0.0165490
741.421	0.0164787
741.499	0.0165200
741.578	0.0164963
741.656	0.0165347
741.734	0.0165535
741.812	0.0165155
741.890	0.0164642
741.968	0.0164371
742.046	0.0165147
742.124	0.0165247
742.203	0.0163654
742.281	0.0164581
742.359	0.0163853
742.437	0.0164101
742.515	0.0164403
742.593	0.0165656
742.671	0.0164068
742.749	0.0164058
742.828	0.0165573
742.906	0.0165068
742.984	0.0164521
743.062	0.0165274
743.140	0.0165195
743.218	0.0166032
743.296	0.0164755
743.374	0.0165218
743.453	0.0165211
743.531	0.0164222
743.609	0.0164064
743.687	0.0163673
743.765	0.0165267
743.843	0.0163126
743.921	0.0162601
743.999	0.0163193
744.078	0.0164656
744.156	0.0164883
744.234	0.0163181
744.312	0.0163784
744.390	0.0163888
744.468	0.0163043
744.546	0.0163547
744.624	0.0164586
744.703	0.0165267
744.781	0.0164384
744.859	0.0164007
744.937	0.0164648
745.015	0.0162971
745.093	0.0164317
745.171	0.0163849
745.249	0.0163418
745.328	0.0164271
745.406	0.0164528
745.484	0.0164055
745.562	0.0164587
745.640	0.0163937
745.718	0.0163522
745.796	0.0163880
745.874	0.0163671
745.953	0.0164337
746.031	0.0164200
746.109	0.0162969
746.187	0.0161935
746.265	0.0163316
746.343	0.0164011
746.421	0.0164424
746.499	0.0163939
746.578	0.0164107
746.656	0.0163147
746.734	0.0163750
746.812	0.0163756
746.890	0.0162852
746.968	0.0163654
747.046	0.0164526
747.124	0.0164326
747.203	0.0163541
747.281	0.0163359
747.359	0.0165261
747.437	0.0165240
747.515	0.0164073
747.593	0.0163657
747.671	0.0165555
747.749	0.0163348
747.828	0.0163891
747.906	0.0163826
747.984	0.0165365
748.062	0.0163763
748.140	0.0163735
748.218	0.0165296
748.296	0.0165175
748.374	0.0164599
748.453	0.0163721
748.531	0.0165269
748.609	0.0165111
748.687	0.0164449
748.765	0.0163779
748.843	0.0164427
748.921	0.0165261
748.999	0.0164186
749.078	0.0164486
749.156	0.0165219
749.234	0.0166077
749.312	0.0164611
749.390	0.0165541
749.468	0.0165795
749.546	0.0164062
749.624	0.0166053
749.703	0.0166553
749.781	0.0165297
749.859	0.0163846
749.937	0.0163711
750.015	0.0164501
750.093	0.0164891
750.171	0.0164137
750.249	0.0164685
750.328	0.0165518
750.406	0.0166110
750.484	0.0163947
750.562	0.0165443
750.640	0.0164844
750.718	0.0166198
750.796	0.0166133
750.874	0.0165766
750.953	0.0165269
751.031	0.0166586
751.109	0.0164276
751.187	0.0167177
751.265	0.0166663
751.343	0.0164845
751.421	0.0166077
751.499	0.0165749
751.578	0.0166376
751.656	0.0166080
751.734	0.0164915
751.812	0.0165208
751.890	0.0165176
751.968	0.0167369
752.046	0.0166341
752.124	0.0165687
752.203	0.0166095
752.281	0.0164565
752.359	0.0163924
752.437	0.0166123
752.515	0.0166447
752.593	0.0165177
752.671	0.0165813
752.749	0.0166154
752.828	0.0166827
752.906	0.0165412
752.984	0.0165791
753.062	0.0164752
753.140	0.0165903
753.218	0.0165014
753.296	0.0165362
753.374	0.0165968
753.453	0.0166463
753.531	0.0165272
753.609	0.0165575
753.687	0.0165188
753.765	0.0166377
753.843	0.0165868
753.921	0.0164529
753.999	0.0164864
754.078	0.0166079
754.156	0.0164783
754.234	0.0166222
754.312	0.0165539
754.390	0.0165118
754.468	0.0165680
754.546	0.0165388
754.624	0.0165535
754.703	0.0165386
754.781	0.0164641
754.859	0.0165207
754.937	0.0164271
755.015	0.0164481
755.093	0.0165687
755.171	0.0165537
755.249	0.0165398
755.328	0.0165417
755.406	0.0165392
755.484	0.0165360
755.562	0.0165073
755.640	0.0166289
755.718	0.0165757
755.796	0.0164376
755.874	0.0163569
755.953	0.0164416
756.031	0.0165055
756.109	0.0166029
756.187	0.0163596
756.265	0.0163959
756.343	0.0165266
756.421	0.0163810
756.499	0.0163895
756.578	0.0164424
756.656	0.0166384
756.734	0.0165172
756.812	0.0165623
756.890	0.0165987
756.968	0.0165043
757.046	0.0164261
757.124	0.0164899
757.203	0.0163966
757.281	0.0166728
757.359	0.0166028
757.437	0.0165317
757.515	0.0166830
757.593	0.0166260
757.671	0.0165469
757.749	0.0164845
757.828	0.0166567
757.906	0.0165769
757.984	0.0166073
758.062	0.0164866
758.140	0.0164482
758.218	0.0165338
758.296	0.0166313
758.374	0.0166396
758.453	0.0165830
758.531	0.0167188
758.609	0.0166817
758.687	0.0166103
758.765	0.0166714
758.843	0.0166685
758.921	0.0167206
758.999	0.0166071
759.078	0.0165971
759.156	0.0165759
759.234	0.0165331
759.312	0.0165244
759.390	0.0165251
759.468	0.0165541
759.546	0.0164706
759.624	0.0164592
759.703	0.0165565
759.781	0.0164184
759.859	0.0163960
759.937	0.0165237
760.015	0.0165024
760.093	0.0164894
760.171	0.0165162
760.249	0.0167815
760.328	0.0166987
760.406	0.0166280
760.484	0.0165728
760.562	0.0165671
760.640	0.0164735
760.718	0.0167882
760.796	0.0167975
760.874	0.0167775
760.953	0.0167317
761.031	0.0168237
761.109	0.0165701
761.187	0.0167547
761.265	0.0169396
761.343	0.0167487
761.421	0.0168541
761.499	0.0167361
761.578	0.0167371
761.656	0.0166888
761.734	0.0166376
761.812	0.0166624
761.890	0.0167955
761.968	0.0168139
762.046	0.0166651
762.124	0.0166187
762.203	0.0165610
762.281	0.0166058
762.359	0.0166840
762.437	0.0165378
762.515	0.0165783
762.593	0.0166450
762.671	0.0166090
762.749	0.0166631
762.828	0.0165822
762.906	0.0166064
762.984	0.0164373
763.062	0.0166508
763.140	0.0165138
763.218	0.0165089
763.296	0.0166663
763.374	0.0166755
763.453	0.0166147
763.531	0.0165667
763.609	0.0165899
763.687	0.0165635
763.765	0.0165863
763.843	0.0165192
763.921	0.0165954
763.999	0.0166853
764.078	0.0166642
764.156	0.0166953
764.234	0.0166476
764.312	0.0166888
764.390	0.0166862
764.468	0.0167484
764.546	0.0167576
764.624	0.0166733
764.703	0.0167451
764.781	0.0167377
764.859	0.0165930
764.937	0.0166356
765.015	0.0167422
765.093	0.0165833
765.171	0.0166570
765.249	0.0167181
765.328	0.0168439
765.406	0.0167780
765.484	0.0166977
765.562	0.0167651
765.640	0.0167253
765.718	0.0167226
765.796	0.0166466
765.874	0.0165623
765.953	0.0167292
766.031	0.0165881
766.109	0.0166259
766.187	0.0165031
766.265	0.0165708
766.343	0.0166962
766.421	0.0165214
766.499	0.0163537
766.578	0.0164952
766.656	0.0165079
766.734	0.0164525
766.812	0.0164559
766.890	0.0164384
766.968	0.0166141
767.046	0.0165008
767.124	0.0164973
767.203	0.0165572
767.281	0.0164419
767.359	0.0166204
767.437	0.0163969
767.515	0.0162767
767.593	0.0163477
767.671	0.0164546
767.749	0.0164713
767.828	0.0165074
767.906	0.0164101
767.984	0.0165088
768.062	0.0164353
768.140	0.0165533
768.218	0.0166552
768.296	0.0166646
768.374	0.0167360
768.453	0.0166769
768.531	0.0167432
768.609	0.0166917
768.687	0.0167089
768.765	0.0167122
768.843	0.0167943
768.921	0.0168912
768.999	0.0167286
769.078	0.0166904
769.156	0.0166823
769.234	0.0167359
769.312	0.0166647
769.390	0.0167010
769.468	0.0166174
769.546	0.0165741
769.624	0.0166521
769.703	0.0164069
769.781	0.0164296
769.859	0.0165556
769.937	0.0165772
770.015	0.0164673
770.093	0.0164872
770.171	0.0163650
770.249	0.0164980
770.328	0.0164019
770.406	0.0164355
770.484	0.0164517
770.562	0.0165049
770.640	0.0164730
770.718	0.0164706
770.796	0.0165906
770.874	0.0165222
770.953	0.0164767
771.031	0.0165712
771.109	0.0165109
771.187	0.0165194
771.265	0.0165597
771.343	0.0165044
771.421	0.0166399
771.499	0.0166129
771.578	0.0166473
771.656	0.0166244
771.734	0.0165646
771.812	0.0165756
771.890	0.0165865
771.968	0.0165722
772.046	0.0166663
772.124	0.0166557
772.203	0.0166164
772.281	0.0165865
772.359	0.0165015
772.437	0.0164040
772.515	0.0165564
772.593	0.0165446
772.671	0.0165267
772.749	0.0163948
772.828	0.0164935
772.906	0.0166637
772.984	0.0166405
773.062	0.0166590
773.140	0.0166788
773.218	0.0166497
773.296	0.0166379
773.374	0.0168743
773.453	0.0168822
773.531	0.0168871
773.609	0.0167252
773.687	0.0168771
773.765	0.0167984
773.843	0.0167994
773.921	0.0167776
773.999	0.0168146
774.078	0.0167300
774.156	0.0167605
774.234	0.0166217
774.312	0.0165421
774.390	0.0164247
774.468	0.0165978
774.546	0.0166660
774.624	0.0166300
774.703	0.0167303
774.781	0.0168044
774.859	0.0166114
774.937	0.0165717
775.015	0.0164479
775.093	0.0165804
775.171	0.0165104
775.249	0.0165009
775.328	0.0164541
775.406	0.0165824
775.484	0.0165790
775.562	0.0165492
775.640	0.0165328
775.718	0.0164455
775.796	0.0163178
775.874	0.0165168
775.953	0.0165433
776.031	0.0164177
776.109	0.0165433
776.187	0.0165427
776.265	0.0164249
776.343	0.0165908
776.421	0.0165636
776.499	0.0164848
776.578	0.0163811
776.656	0.0166018
776.734	0.0165675
776.812	0.0165965
776.890	0.0166382
776.968	0.0165674
777.046	0.0165962
777.124	0.0165218
777.203	0.0166367
777.281	0.0166266
777.359	0.0165748
777.437	0.0167184
777.515	0.0166209
777.593	0.0165721
777.671	0.0165358
777.749	0.0166254
777.828	0.0166971
777.906	0.0167951
777.984	0.0167461
778.062	0.0166400
778.140	0.0167537
778.218	0.0168347
778.296	0.0166704
778.374	0.0165983
778.453	0.0168066
778.531	0.0167078
778.609	0.0166849
778.687	0.0166266
778.765	0.0166678
778.843	0.0165790
778.921	0.0164877
778.999	0.0164844
779.078	0.0165424
779.156	0.0165605
779.234	0.0164270
779.312	0.0166143
779.390	0.0165237
779.468	0.0165814
779.546	0.0166656
779.624	0.0166894
779.703	0.0168271
779.781	0.0167075
779.859	0.0166817
779.937	0.0166959
780.015	0.0166415
780.093	0.0166386
780.171	0.0166993
780.249	0.0166523
780.328	0.0165163
780.406	0.0165791
780.484	0.0166498
780.562	0.0164918
780.640	0.0165647
780.718	0.0165881
780.796	0.0165031
780.874	0.0164641
780.953	0.0166185
781.031	0.0165455
781.109	0.0165827
781.187	0.0164247
781.265	0.0164693
781.343	0.0164698
781.421	0.0164381
781.499	0.0162081
781.578	0.0162560
781.656	0.0161830
781.734	0.0161293
781.812	0.0163248
781.890	0.0161900
781.968	0.0162463
782.046	0.0163459
782.124	0.0161321
782.203	0.0163982
782.281	0.0165024
782.359	0.0165082
782.437	0.0164783
782.515	0.0166194
782.593	0.0166772
782.671	0.0165562
782.749	0.0165804
782.828	0.0167263
782.906	0.0167665
782.984	0.0168586
783.062	0.0167528
783.140	0.0169403
783.218	0.0170473
783.296	0.0171765
783.374	0.0172880
783.453	0.0172936
783.531	0.0172460
783.609	0.0172011
783.687	0.0171903
783.765	0.0170729
783.843	0.0171475
783.921	0.0170915
783.999	0.0169224
784.078	0.0168260
784.156	0.0169130
784.234	0.0166230
784.312	0.0166013
784.390	0.0164278
784.468	0.0164320
784.546	0.0164362
784.624	0.0163232
784.703	0.0162167
784.781	0.0163323
784.859	0.0162096
784.937	0.0161837
785.015	0.0162179
785.093	0.0162544
785.171	0.0161463
785.249	0.0162692
785.328	0.0162516
785.406	0.0163542
785.484	0.0161242
785.562	0.0162863
785.640	0.0163775
785.718	0.0164339
785.796	0.0164635
785.874	0.0165261
785.953	0.0163931
786.031	0.0165752
786.109	0.0165900
786.187	0.0165974
786.265	0.0164700
786.343	0.0166223
786.421	0.0165772
786.499	0.0165591
786.578	0.0168106
786.656	0.0166392
786.734	0.0165373
786.812	0.0166326
786.890	0.0165916
786.968	0.0166136
787.046	0.0165238
787.124	0.0164997
787.203	0.0164574
787.281	0.0165576
787.359	0.0165705
787.437	0.0163850
787.515	0.0166652
787.593	0.0166062
787.671	0.0166151
787.749	0.0167500
787.828	0.0166581
787.906	0.0165604
787.984	0.0165554
788.062	0.0167182
788.140	0.0167123
788.218	0.0166302
788.296	0.0166541
788.374	0.0167063
788.453	0.0168299
788.531	0.0167346
788.609	0.0167891
788.687	0.0168022
788.765	0.0169312
788.843	0.0169250
788.921	0.0168147
788.999	0.0169785
789.078	0.0168980
789.156	0.0170046
789.234	0.0168628
789.312	0.0167072
789.390	0.0168690
789.468	0.0166951
789.546	0.0167260
789.624	0.0165669
789.703	0.0166010
789.781	0.0166341
789.859	0.0164214
789.937	0.0166110
790.015	0.0164020
790.093	0.0165085
790.171	0.0165166
790.249	0.0163891
790.328	0.0164414
790.406	0.0163579
790.484	0.0165259
790.562	0.0165247
790.640	0.0164341
790.718	0.0165260
790.796	0.0164609
790.874	0.0164745
790.953	0.0164659
791.031	0.0163844
791.109	0.0164444
791.187	0.0164398
791.265	0.0163094
791.343	0.0163715
791.421	0.0163473
791.499	0.0162766
791.578	0.0160960
791.656	0.0161994
791.734	0.0162334
791.812	0.0162119
791.890	0.0161634
791.968	0.0162945
792.046	0.0162070
792.124	0.0163216
792.203	0.0162218
792.281	0.0163551
792.359	0.0164513
792.437	0.0165086
792.515	0.0165031
792.593	0.0164405
792.671	0.0166699
792.749	0.0167636
792.828	0.0167796
792.906	0.0167654
792.984	0.0169016
793.062	0.0169552
793.140	0.0170448
793.218	0.0170285
793.296	0.0170370
793.374	0.0171854
793.453	0.0172730
793.531	0.0172134
793.609	0.0171407
793.687	0.0171884
793.765	0.0171112
793.843	0.0171638
793.921	0.0169401
793.999	0.0170341
794.078	0.0169547
794.156	0.0168533
794.234	0.0169450
794.312	0.0168355
794.390	0.0168536
794.468	0.0168851
794.546	0.0167489
794.624	0.0166193
794.703	0.0164478
794.781	0.0165347
794.859	0.0164599
794.937	0.0164719
795.015	0.0163075
795.093	0.0162617
795.171	0.0160397
795.249	0.0160023
795.328	0.0160473
795.406	0.0159377
795.484	0.0159948
795.562	0.0158943
795.640	0.0159063
795.718	0.0158690
795.796	0.0159787
795.874	0.0159864
795.953	0.0161987
796.031	0.0162681
796.109	0.0161567
796.187	0.0162939
796.265	0.0164619
796.343	0.0165028
796.421	0.0167155
796.499	0.0166427
796.578	0.0168008
796.656	0.0167618
796.734	0.0167954
796.812	0.0167936
796.890	0.0167939
796.968	0.0167441
797.046	0.0167061
797.124	0.0167230
797.203	0.0167812
797.281	0.0165956
797.359	0.0166460
797.437	0.0165810
797.515	0.0164100
797.593	0.0164018
797.671	0.0164073
797.749	0.0162818
797.828	0.0164322
797.906	0.0163940
797.984	0.0163224
798.062	0.0161895
798.140	0.0162521
798.218	0.0162641
798.296	0.0163476
798.374	0.0163161
798.453	0.0165191
798.531	0.0165649
798.609	0.0166053
798.687	0.0166403
798.765	0.0167648
798.843	0.0169562
798.921	0.0170715
798.999	0.0170319
799.078	0.0171527
799.156	0.0173434
799.234	0.0171951
799.312	0.0172515
799.390	0.0172984
799.468	0.0172633
799.546	0.0172841
799.624	0.0171570
799.703	0.0172808
799.781	0.0173386
799.859	0.0170755
799.937	0.0170872
800.015	0.0170583
800.093	0.0171375
800.171	0.0168876
800.249	0.0166991
800.328	0.0166314
800.406	0.0164276
800.484	0.0164125
800.562	0.0163726
800.640	0.0161344
800.718	0.0159243
800.796	0.0158916
800.874	0.0157179
800.953	0.0155361
801.031	0.0155890
801.109	0.0154221
801.187	0.0154306
801.265	0.0152428
801.343	0.0153358
801.421	0.0153589
801.499	0.0155975
801.578	0.0155161
801.656	0.0156207
801.734	0.0156289
801.812	0.0157764
801.890	0.0160062
801.968	0.0160616
802.046	0.0161726
802.124	0.0161803
802.203	0.0163339
802.281	0.0165598
802.359	0.0167651
802.437	0.0167105
802.515	0.0168252
802.593	0.0170391
802.671	0.0171693
802.749	0.0171502
802.828	0.0171327
802.906	0.0172021
802.984	0.0172872
803.062	0.0172808
803.140	0.0172867
803.218	0.0172863
803.296	0.0171318
803.374	0.0172210
803.453	0.0171939
803.531	0.0171982
803.609	0.0170976
803.687	0.0170232
803.765	0.0170775
803.843	0.0171355
803.921	0.0170428
803.999	0.0168884
804.078	0.0169749
804.156	0.0170007
804.234	0.0168641
804.312	0.0168246
804.390	0.0168691
804.468	0.0168732
804.546	0.0166718
804.624	0.0166340
804.703	0.0164970
804.781	0.0164120
804.859	0.0164220
804.937	0.0163614
805.015	0.0161980
805.093	0.0161897
805.171	0.0163062
805.249	0.0160437
805.328	0.0160994
805.406	0.0161474
805.484	0.0160555
805.562	0.0160694
805.640	0.0161438
805.718	0.0160715
805.796	0.0159966
805.874	0.0160870
805.953	0.0161594
806.031	0.0162135
806.109	0.0164597
806.187	0.0164539
806.265	0.0165417
806.343	0.0164197
806.421	0.0164772
806.499	0.0166552
806.578	0.0164560
806.656	0.0164422
806.734	0.0164773
806.812	0.0165253
806.890	0.0164381
806.968	0.0164743
807.046	0.0163453
807.124	0.0164574
807.203	0.0163550
807.281	0.0162988
807.359	0.0162926
807.437	0.0163660
807.515	0.0163747
807.593	0.0163610
807.671	0.0162034
807.749	0.0163958
807.828	0.0163644
807.906	0.0162879
807.984	0.0163950
808.062	0.0164582
808.140	0.0163593
808.218	0.0164546
808.296	0.0164592
808.374	0.0166266
808.453	0.0166808
808.531	0.0165591
808.609	0.0166702
808.687	0.0166528
808.765	0.0168367
808.843	0.0170782
808.921	0.0170697
808.999	0.0171341
809.078	0.0169955
809.156	0.0171541
809.234	0.0172240
809.312	0.0173193
809.390	0.0172607
809.468	0.0172915
809.546	0.0171571
809.624	0.0172795
809.703	0.0171761
809.781	0.0171473
809.859	0.0171360
809.937	0.0169331
810.015	0.0168320
810.093	0.0166919
810.171	0.0164897
810.249	0.0165230
810.328	0.0163589
810.406	0.0163770
810.484	0.0162287
810.562	0.0159649
810.640	0.0158833
810.718	0.0158993
810.796	0.0158099
810.874	0.0158315
810.953	0.0157468
811.031	0.0156915
811.109	0.0156837
811.187	0.0156400
811.265	0.0156445
811.343	0.0157177
811.421	0.0157204
811.499	0.0158080
811.578	0.0156828
811.656	0.0157676
811.734	0.0158368
811.812	0.0161510
811.890	0.0161615
811.968	0.0161968
812.046	0.0162995
812.124	0.0163652
812.203	0.0165347
812.281	0.0164922
812.359	0.0166383
812.437	0.0166968
812.515	0.0166456
812.593	0.0168168
812.671	0.0167623
812.749	0.0168626
812.828	0.0168278
812.906	0.0167700
812.984	0.0167212
813.062	0.0166823
813.140	0.0169010
813.218	0.0168786
813.296	0.0167660
813.374	0.0167724
813.453	0.0167514
813.531	0.0166598
813.609	0.0165549
813.687	0.0166389
813.765	0.0165332
813.843	0.0165350
813.921	0.0165298
813.999	0.0165800
814.078	0.0164848
814.156	0.0163540
814.234	0.0166460
814.312	0.0164497
814.390	0.0165351
814.468	0.0165385
814.546	0.0166051
814.624	0.0166472
814.703	0.0166163
814.781	0.0165248
814.859	0.0166281
814.937	0.0166692
815.015	0.0168548
815.093	0.0167435
815.171	0.0165748
815.249	0.0167635
815.328	0.0166743
815.406	0.0166211
815.484	0.0165540
815.562	0.0165472
815.640	0.0166131
815.718	0.0166125
815.796	0.0165929
815.874	0.0165370
815.953	0.0164467
816.031	0.0164266
816.109	0.0165192
816.187	0.0164595
816.265	0.0164510
816.343	0.0163286
816.421	0.0162452
816.499	0.0163412
816.578	0.0163735
816.656	0.0162967
816.734	0.0163832
816.812	0.0163151
816.890	0.0162653
816.968	0.0162658
817.046	0.0163078
817.124	0.0162936
817.203	0.0162074
817.281	0.0162638
817.359	0.0163509
817.437	0.0162744
817.515	0.0162244
817.593	0.0163315
817.671	0.0163347
817.749	0.0164407
817.828	0.0163268
817.906	0.0163018
817.984	0.0162340
818.062	0.0163834
818.140	0.0164272
818.218	0.0163960
818.296	0.0163457
818.374	0.0164687
818.453	0.0164552
818.531	0.0165529
818.609	0.0163829
818.687	0.0165625
818.765	0.0164909
818.843	0.0165949
818.921	0.0165691
818.999	0.0165211
819.078	0.0165993
819.156	0.0166869
819.234	0.0164357
819.312	0.0167372
819.390	0.0166169
819.468	0.0166819
819.546	0.0164974
819.624	0.0165553
819.703	0.0169102
819.781	0.0168511
819.859	0.0169058
819.937	0.0169948
820.015	0.0169399
820.093	0.0171074
820.171	0.0171225
820.249	0.0171994
820.328	0.0173193
820.406	0.0172054
820.484	0.0171722
820.562	0.0171174
820.640	0.0170830
820.718	0.0169878
820.796	0.0169998
820.874	0.0168483
820.953	0.0167493
821.031	0.0166650
821.109	0.0165974
821.187	0.0164001
821.265	0.0163345
821.343	0.0161790
821.421	0.0160712
821.499	0.0159507
821.578	0.0158393
821.656	0.0158079
821.734	0.0158092
821.812	0.0156044
821.890	0.0156589
821.968	0.0155683
822.046	0.0155824
822.124	0.0156239
822.203	0.0156125
822.281	0.0156258
822.359	0.0158183
822.437	0.0159103
822.515	0.0160720
822.593	0.0162093
822.671	0.0162589
822.749	0.0163667
822.828	0.0163986
822.906	0.0164668
822.984	0.0166423
823.062	0.0167044
823.140	0.0168024
823.218	0.0169709
823.296	0.0170008
823.374	0.0169939
823.453	0.0171372
823.531	0.0171443
823.609	0.0172034
823.687	0.0170641
823.765	0.0172334
823.843	0.0169147
823.921	0.0171444
823.999	0.0171577
824.078	0.0168723
824.156	0.0169276
824.234	0.0168951
824.312	0.0167981
824.390	0.0165905
824.468	0.0166163
824.546	0.0166735
824.624	0.0164597
824.703	0.0163292
824.781	0.0162178
824.859	0.0162873
824.937	0.0162946
825.015	0.0162400
825.093	0.0162573
825.171	0.0162076
825.249	0.0162070
825.328	0.0163265
825.406	0.0163042
825.484	0.0162673
825.562	0.0163464
825.640	0.0163857
825.718	0.0164379
825.796	0.0165469
825.874	0.0165318
825.953	0.0165144
826.031	0.0166422
826.109	0.0166794
826.187	0.0166122
826.265	0.0167165
826.343	0.0167388
826.421	0.0167239
826.499	0.0167918
826.578	0.0168221
826.656	0.0166860
826.734	0.0167152
826.812	0.0166980
826.890	0.0163874
826.968	0.0165950
827.046	0.0164086
827.124	0.0163091
827.203	0.0162856
827.281	0.0162410
827.359	0.0161744
827.437	0.0160787
827.515	0.0162111
827.593	0.0160471
827.671	0.0159730
827.749	0.0159600
827.828	0.0159265
827.906	0.0160619
827.984	0.0161580
828.062	0.0159499
828.140	0.0160499
828.218	0.0162169
828.296	0.0162050
828.374	0.0162291
828.453	0.0164330
828.531	0.0164473
828.609	0.0165992
828.687	0.0166736
828.765	0.0166745
828.843	0.0166772
828.921	0.0169080
828.999	0.0169498
829.078	0.0169269
829.156	0.0169380
829.234	0.0168881
829.312	0.0168857
829.390	0.0169839
829.468	0.0169633
829.546	0.0168198
829.624	0.0169263
829.703	0.0169656
829.781	0.0169228
829.859	0.0168018
829.937	0.0168317
830.015	0.0167850
830.093	0.0167957
830.171	0.0166463
830.249	0.0165854
830.328	0.0166189
830.406	0.0165884
830.484	0.0165707
830.562	0.0163731
830.640	0.0163779
830.718	0.0163111
830.796	0.0162589
830.874	0.0162507
830.953	0.0161434
831.031	0.0161469
831.109	0.0161715
831.187	0.0161485
831.265	0.0164693
831.343	0.0164774
831.421	0.0162917
831.499	0.0163244
831.578	0.0163412
831.656	0.0163316
831.734	0.0163010
831.812	0.0163583
831.890	0.0164783
831.968	0.0164169
832.046	0.0164078
832.124	0.0165657
832.203	0.0163342
832.281	0.0163578
832.359	0.0163115
832.437	0.0162988
832.515	0.0164446
832.593	0.0163902
832.671	0.0164143
832.749	0.0162105
832.828	0.0162160
832.906	0.0163208
832.984	0.0162743
833.062	0.0165125
833.140	0.0165572
833.218	0.0165716
833.296	0.0163789
833.374	0.0165817
833.453	0.0166903
833.531	0.0166183
833.609	0.0167245
833.687	0.0167764
833.765	0.0168119
833.843	0.0169373
833.921	0.0169838
833.999	0.0169269
834.078	0.0168472
834.156	0.0168790
834.234	0.0169733
834.312	0.0167759
834.390	0.0167469
834.468	0.0166885
834.546	0.0166908
834.624	0.0165024
834.703	0.0165579
834.781	0.0164345
834.859	0.0165150
834.937	0.0162766
835.015	0.0163224
835.093	0.0162994
835.171	0.0163983
835.249	0.0163624
835.328	0.0164088
835.406	0.0162868
835.484	0.0162956
835.562	0.0164357
835.640	0.0164234
835.718	0.0163867
835.796	0.0165280
835.874	0.0163641
835.953	0.0164600
836.031	0.0165176
836.109	0.0164266
836.187	0.0164228
836.265	0.0164267
836.343	0.0163858
836.421	0.0165270
836.499	0.0164793
836.578	0.0165176
836.656	0.0165930
836.734	0.0166222
836.812	0.0163743
836.890	0.0166530
836.968	0.0166837
837.046	0.0165553
837.124	0.0166044
837.203	0.0166269
837.281	0.0165685
837.359	0.0167020
837.437	0.0164677
837.515	0.0164963
837.593	0.0165740
837.671	0.0165959
837.749	0.0165709
837.828	0.0165958
837.906	0.0164095
837.984	0.0163676
838.062	0.0164827
838.140	0.0163573
838.218	0.0163883
838.296	0.0165077
838.374	0.0163254
838.453	0.0162815
838.531	0.0164379
838.609	0.0163768
838.687	0.0163491
838.765	0.0163998
838.843	0.0162813
838.921	0.0163525
838.999	0.0163593
839.078	0.0164141
839.156	0.0163985
839.234	0.0164705
839.312	0.0165855
839.390	0.0165749
839.468	0.0164816
839.546	0.0165527
839.624	0.0167030
839.703	0.0165884
839.781	0.0167027
839.859	0.0167449
839.937	0.0166946
840.015	0.0166386
840.093	0.0166659
840.171	0.0168842
840.249	0.0167166
840.328	0.0166259
840.406	0.0166186
840.484	0.0167196
840.562	0.0165681
840.640	0.0166891
840.718	0.0166125
840.796	0.0164324
840.874	0.0165002
840.953	0.0164547
841.031	0.0165302
841.109	0.0164725
841.187	0.0164537
841.265	0.0164284
841.343	0.0163760
841.421	0.0164553
841.499	0.0164500
841.578	0.0165596
841.656	0.0165060
841.734	0.0166147
841.812	0.0165553
841.890	0.0166040
841.968	0.0165597
842.046	0.0165718
842.124	0.0166549
842.203	0.0166733
842.281	0.0165584
842.359	0.0164784
842.437	0.0166557
842.515	0.0166635
842.593	0.0166112
842.671	0.0166736
842.749	0.0166021
842.828	0.0165049
842.906	0.0165050
842.984	0.0164761
843.062	0.0166491
843.140	0.0165702
843.218	0.0165167
843.296	0.0166113
843.374	0.0165789
843.453	0.0165749
843.531	0.0166263
843.609	0.0166235
843.687	0.0165791
843.765	0.0166365
843.843	0.0166794
843.921	0.0166242
843.999	0.0165739
844.078	0.0166142
844.156	0.0165685
844.234	0.0164791
844.312	0.0165844
844.390	0.0164569
844.468	0.0164293
844.546	0.0164439
844.624	0.0164633
844.703	0.0165157
844.781	0.0163496
844.859	0.0164670
844.937	0.0162490
845.015	0.0162562
845.093	0.0164658
845.171	0.0163152
845.249	0.0164423
845.328	0.0163490
845.406	0.0163559
845.484	0.0164531
845.562	0.0165523
845.640	0.0166671
845.718	0.0165991
845.796	0.0167435
845.874	0.0167484
845.953	0.0168269
846.031	0.0165518
846.109	0.0168109
846.187	0.0168971
846.265	0.0169141
846.343	0.0169525
846.421	0.0168823
846.499	0.0168736
846.578	0.0166795
846.656	0.0168228
846.734	0.0168250
846.812	0.0167716
846.890	0.0165697
846.968	0.0166204
847.046	0.0164616
847.124	0.0164465
847.203	0.0164645
847.281	0.0164357
847.359	0.0165352
847.437	0.0164345
847.515	0.0164381
847.593	0.0164520
847.671	0.0163892
847.749	0.0163766
847.828	0.0162539
847.906	0.0165149
847.984	0.0164737
848.062	0.0164270
848.140	0.0164174
848.218	0.0164734
848.296	0.0164920
848.374	0.0165378
848.453	0.0164775
848.531	0.0164304
848.609	0.0163675
848.687	0.0164440
848.765	0.0164911
848.843	0.0165908
848.921	0.0166635
848.999	0.0164167
849.078	0.0165595
849.156	0.0165351
849.234	0.0166529
849.312	0.0167220
849.390	0.0166473
849.468	0.0166692
849.546	0.0166839
849.624	0.0166869
849.703	0.0167847
849.781	0.0166092
849.859	0.0167666
849.937	0.0166653
850.015	0.0167580
850.093	0.0164491
850.171	0.0166045
850.249	0.0166888
850.328	0.0164835
850.406	0.0165235
850.484	0.0164754
850.562	0.0165829
850.640	0.0164894
850.718	0.0164866
850.796	0.0164536
850.874	0.0164101
850.953	0.0163676
851.031	0.0164471
851.109	0.0164721
851.187	0.0164561
851.265	0.0163372
851.343	0.0164117
851.421	0.0164996
851.499	0.0165559
851.578	0.0164271
851.656	0.0163691
851.734	0.0164315
851.812	0.0164899
851.890	0.0164537
851.968	0.0165620
852.046	0.0164209
852.124	0.0164091
852.203	0.0163102
852.281	0.0163162
852.359	0.0164301
852.437	0.0164172
852.515	0.0164230
852.593	0.0166054
852.671	0.0165126
852.749	0.0165324
852.828	0.0164748
852.906	0.0166167
852.984	0.0166390
853.062	0.0166590
853.140	0.0166278
853.218	0.0166916
853.296	0.0167210
853.374	0.0167570
853.453	0.0168285
853.531	0.0168217
853.609	0.0168349
853.687	0.0168292
853.765	0.0168201
853.843	0.0168552
853.921	0.0167582
853.999	0.0167788
854.078	0.0168111
854.156	0.0169713
854.234	0.0167256
854.312	0.0166357
854.390	0.0164885
854.468	0.0166705
854.546	0.0165696
854.624	0.0166103
854.703	0.0165656
854.781	0.0165095
854.859	0.0164460
854.937	0.0162825
855.015	0.0164095
855.093	0.0164013
855.171	0.0162374
855.249	0.0162378
855.328	0.0162886
855.406	0.0163584
855.484	0.0163135
855.562	0.0163544
855.640	0.0163992
855.718	0.0162331
855.796	0.0164929
855.874	0.0163177
855.953	0.0163657
856.031	0.0163773
856.109	0.0164624
856.187	0.0164726
856.265	0.0164589
856.343	0.0164331
856.421	0.0165462
856.499	0.0164633
856.578	0.0165260
856.656	0.0165801
856.734	0.0165446
856.812	0.0166624
856.890	0.0165907
856.968	0.0166750
857.046	0.0167346
857.124	0.0165929
857.203	0.0167147
857.281	0.0166199
857.359	0.0166267
857.437	0.0167302
857.515	0.0166622
857.593	0.0166884
857.671	0.0166719
857.749	0.0167742
857.828	0.0168335
857.906	0.0168165
857.984	0.0166882
858.062	0.0165832
858.140	0.0167577
858.218	0.0167248
858.296	0.0167336
858.374	0.0166016
858.453	0.0165031
858.531	0.0166480
858.609	0.0168458
858.687	0.0167268
858.765	0.0167373
858.843	0.0168385
858.921	0.0167474
858.999	0.0166988
859.078	0.0168174
859.156	0.0166321
859.234	0.0167210
859.312	0.0166725
859.390	0.0168018
859.468	0.0166825
859.546	0.0166273
859.624	0.0165569
859.703	0.0166323
859.781	0.0166047
859.859	0.0166692
859.937	0.0167026
860.015	0.0166256
860.093	0.0167010
860.171	0.0166167
860.249	0.0165643
860.328	0.0165807
860.406	0.0167551
860.484	0.0166277
860.562	0.0167052
860.640	0.0166851
860.718	0.0168154
860.796	0.0166722
860.874	0.0167332
860.953	0.0165905
861.031	0.0167879
861.109	0.0167066
861.187	0.0166373
861.265	0.0168335
861.343	0.0166463
861.421	0.0166489
861.499	0.0165293
861.578	0.0166747
861.656	0.0165146
861.734	0.0165768
861.812	0.0165161
861.890	0.0164091
861.968	0.0165141
862.046	0.0165134
862.124	0.0164369
862.203	0.0163876
862.281	0.0163615
862.359	0.0164019
862.437	0.0163197
862.515	0.0164115
862.593	0.0163695
862.671	0.0165388
862.749	0.0164856
862.828	0.0165466
862.906	0.0165373
862.984	0.0166009
863.062	0.0165423
863.140	0.0166767
863.218	0.0168329
863.296	0.0168701
863.374	0.0166933
863.453	0.0167348
863.531	0.0167815
863.609	0.0167683
863.687	0.0166834
863.765	0.0167966
863.843	0.0167104
863.921	0.0167517
863.999	0.0166999
864.078	0.0165074
864.156	0.0168565
864.234	0.0167159
864.312	0.0166199
864.390	0.0166691
864.468	0.0166498
864.546	0.0166216
864.624	0.0166749
864.703	0.0165063
864.781	0.0166512
864.859	0.0166954
864.937	0.0166794
865.015	0.0166270
865.093	0.0167500
865.171	0.0167931
865.249	0.0167555
865.328	0.0166934
865.406	0.0168284
865.484	0.0168518
865.562	0.0166830
865.640	0.0166636
865.718	0.0166832
865.796	0.0166570
865.874	0.0165379
865.953	0.0165379
866.031	0.0166361
866.109	0.0164729
866.187	0.0165748
866.265	0.0165539
866.343	0.0163013
866.421	0.0164618
866.499	0.0165466
866.578	0.0166455
866.656	0.0165292
866.734	0.0165678
866.812	0.0166039
866.890	0.0164568
866.968	0.0164762
867.046	0.0165305
867.124	0.0165108
867.203	0.0165319
867.281	0.0165737
867.359	0.0164610
867.437	0.0165177
867.515	0.0166801
867.593	0.0165375
867.671	0.0166621
867.749	0.0165134
867.828	0.0166116
867.906	0.0167025
867.984	0.0164320
868.062	0.0166125
868.140	0.0166088
868.218	0.0166051
868.296	0.0165041
868.374	0.0167116
868.453	0.0165720
868.531	0.0165388
868.609	0.0165385
868.687	0.0166548
868.765	0.0164820
868.843	0.0166446
868.921	0.0165038
868.999	0.0164402
869.078	0.0165942
869.156	0.0165623
869.234	0.0166216
869.312	0.0165585
869.390	0.0164063
869.468	0.0164685
869.546	0.0165900
869.624	0.0164494
869.703	0.0165060
869.781	0.0164968
869.859	0.0166169
869.937	0.0165627
870.015	0.0167258
870.093	0.0168279
870.171	0.0166432
870.249	0.0166923
870.328	0.0167311
870.406	0.0165981
870.484	0.0165819
870.562	0.0167319
870.640	0.0168903
870.718	0.0166579
870.796	0.0166050
870.874	0.0166494
870.953	0.0166106
871.031	0.0165803
871.109	0.0167635
871.187	0.0167171
871.265	0.0165446
871.343	0.0165044
871.421	0.0165647
871.499	0.0166284
871.578	0.0164373
871.656	0.0165232
871.734	0.0164886
871.812	0.0165936
871.890	0.0166472
871.968	0.0164965
872.046	0.0165319
872.124	0.0165780
872.203	0.0164709
872.281	0.0163936
872.359	0.0165180
872.437	0.0164523
872.515	0.0165361
872.593	0.0164758
872.671	0.0165159
872.749	0.0165689
872.828	0.0164942
872.906	0.0165712
872.984	0.0164709
873.062	0.0164819
873.140	0.0167184
873.218	0.0165739
873.296	0.0165437
873.374	0.0166418
873.453	0.0164117
873.531	0.0165720
873.609	0.0167161
873.687	0.0166313
873.765	0.0164942
873.843	0.0164582
873.921	0.0165668
873.999	0.0164780
874.078	0.0165317
874.156	0.0165421
874.234	0.0164468
874.312	0.0162647
874.390	0.0164104
874.468	0.0164012
874.546	0.0164124
874.624	0.0164314
874.703	0.0162685
874.781	0.0163036
874.859	0.0162998
874.937	0.0163377
875.015	0.0164330
875.093	0.0164604
875.171	0.0164369
875.249	0.0165953
875.328	0.0165620
875.406	0.0166251
875.484	0.0166151
875.562	0.0165381
875.640	0.0168116
875.718	0.0167146
875.796	0.0166908
875.874	0.0167133
875.953	0.0169758
876.031	0.0168478
876.109	0.0168848
876.187	0.0168175
876.265	0.0167903
876.343	0.0169113
876.421	0.0167308
876.499	0.0167273
876.578	0.0168280
876.656	0.0168299
876.734	0.0166061
876.812	0.0166736
876.890	0.0167383
876.968	0.0165649
877.046	0.0164861
877.124	0.0165053
877.203	0.0166119
877.281	0.0166347
877.359	0.0164732
877.437	0.0164475
877.515	0.0165005
877.593	0.0164867
877.671	0.0164951
877.749	0.0164039
877.828	0.0165073
877.906	0.0165628
877.984	0.0164127
878.062	0.0163651
878.140	0.0164246
878.218	0.0164539
878.296	0.0164902
878.374	0.0165493
878.453	0.0164932
878.531	0.0164950
878.609	0.0165775
878.687	0.0164402
878.765	0.0164923
878.843	0.0166859
878.921	0.0167957
878.999	0.0165656
879.078	0.0166170
879.156	0.0166243
879.234	0.0166216
879.312	0.0167715
879.390	0.0165281
879.468	0.0167884
879.546	0.0167258
879.624	0.0166451
879.703	0.0166544
879.781	0.0166811
879.859	0.0165934
879.937	0.0165708
880.015	0.0165411
880.093	0.0164483
880.171	0.0165144
880.249	0.0165845
880.328	0.0164083
880.406	0.0164073
880.484	0.0165771
880.562	0.0165421
880.640	0.0164473
880.718	0.0164007
880.796	0.0163547
880.874	0.0164278
880.953	0.0165942
881.031	0.0166402
881.109	0.0167252
881.187	0.0166891
881.265	0.0167855
881.343	0.0168059
881.421	0.0166331
881.499	0.0167120
881.578	0.0168085
881.656	0.0168068
881.734	0.0168938
881.812	0.0167609
881.890	0.0167156
881.968	0.0166426
882.046	0.0167439
882.124	0.0166000
882.203	0.0168809
882.281	0.0167416
882.359	0.0165558
882.437	0.0166962
882.515	0.0165656
882.593	0.0165038
882.671	0.0164751
882.749	0.0164561
882.828	0.0165035
882.906	0.0164624
882.984	0.0165669
883.062	0.0165587
883.140	0.0164120
883.218	0.0164046
883.296	0.0165288
883.374	0.0166418
883.453	0.0164352
883.531	0.0166099
883.609	0.0166330
883.687	0.0165141
883.765	0.0165425
883.843	0.0165292
883.921	0.0167036
883.999	0.0166606
884.078	0.0164437
884.156	0.0166160
884.234	0.0165148
884.312	0.0165606
884.390	0.0167395
884.468	0.0166640
884.546	0.0166181
884.624	0.0164734
884.703	0.0166059
884.781	0.0166924
884.859	0.0166635
884.937	0.0165881
885.015	0.0165314
885.093	0.0165076
885.171	0.0166548
885.249	0.0166683
885.328	0.0165925
885.406	0.0165704
885.484	0.0166344
885.562	0.0166094
885.640	0.0165663
885.718	0.0165362
885.796	0.0166516
885.874	0.0165795
885.953	0.0164662
886.031	0.0166740
886.109	0.0164899
886.187	0.0164919
886.265	0.0164294
886.343	0.0163991
886.421	0.0164111
886.499	0.0166290
886.578	0.0164067
886.656	0.0164796
886.734	0.0166153
886.812	0.0164953
886.890	0.0164930
886.968	0.0165092
887.046	0.0164217
887.124	0.0166006
887.203	0.0167485
887.281	0.0166987
887.359	0.0165131
887.437	0.0165338
887.515	0.0164850
887.593	0.0164912
887.671	0.0165733
887.749	0.0166563
887.828	0.0165633
887.906	0.0164223
887.984	0.0164528
888.062	0.0163830
888.140	0.0164279
888.218	0.0163998
888.296	0.0164914
888.374	0.0165738
888.453	0.0166171
888.531	0.0166187
888.609	0.0165218
888.687	0.0165894
888.765	0.0165404
888.843	0.0165740
888.921	0.0165079
888.999	0.0167280
889.078	0.0166635
889.156	0.0165419
889.234	0.0164930
889.312	0.0166602
889.390	0.0167471
889.468	0.0166283
889.546	0.0165572
889.624	0.0165871
889.703	0.0165633
889.781	0.0165953
889.859	0.0165994
889.937	0.0165769
890.015	0.0164536
890.093	0.0164993
890.171	0.0165824
890.249	0.0164855
890.328	0.0166228
890.406	0.0166337
890.484	0.0164723
890.562	0.0164910
890.640	0.0165698
890.718	0.0165060
890.796	0.0165695
890.874	0.0165475
890.953	0.0165175
891.031	0.0165900
891.109	0.0165237
891.187	0.0165176
891.265	0.0165830
891.343	0.0166318
891.421	0.0166730
891.499	0.0165565
891.578	0.0164381
891.656	0.0164771
891.734	0.0165687
891.812	0.0163657
891.890	0.0166268
891.968	0.0166290
892.046	0.0165501
892.124	0.0164899
892.203	0.0166113
892.281	0.0163378
892.359	0.0163454
892.437	0.0165041
892.515	0.0164845
892.593	0.0164578
892.671	0.0165256
892.749	0.0165071
892.828	0.0162849
892.906	0.0163205
892.984	0.0164362
893.062	0.0163164
893.140	0.0162420
893.218	0.0164196
893.296	0.0164029
893.374	0.0164065
893.453	0.0163288
893.531	0.0163649
893.609	0.0164230
893.687	0.0163994
893.765	0.0163841
893.843	0.0165473
893.921	0.0164734
893.999	0.0165752
894.078	0.0164347
894.156	0.0164455
894.234	0.0165598
894.312	0.0164972
894.390	0.0163842
894.468	0.0165328
894.546	0.0165010
894.624	0.0163874
894.703	0.0164552
894.781	0.0165133
894.859	0.0162788
894.937	0.0164345
895.015	0.0164240
895.093	0.0164694
895.171	0.0163974
895.249	0.0164174
895.328	0.0163207
895.406	0.0165117
895.484	0.0162722
895.562	0.0164574
895.640	0.0164242
895.718	0.0164203
895.796	0.0163567
895.874	0.0164828
895.953	0.0164420
896.031	0.0163147
896.109	0.0165040
896.187	0.0165144
896.265	0.0166427
896.343	0.0164307
896.421	0.0165683
896.499	0.0164697
896.578	0.0164951
896.656	0.0166173
896.734	0.0166174
896.812	0.0166271
896.890	0.0164425
896.968	0.0165524
897.046	0.0166395
897.124	0.0165845
897.203	0.0164879
897.281	0.0165680
897.359	0.0165437
897.437	0.0164449
897.515	0.0164661
897.593	0.0165520
897.671	0.0165514
897.749	0.0164980
897.828	0.0165272
897.906	0.0164721
897.984	0.0165633
898.062	0.0164330
898.140	0.0165347
898.218	0.0163872
898.296	0.0164619
898.374	0.0164700
898.453	0.0163461
898.531	0.0165921
898.609	0.0165993
898.687	0.0164801
898.765	0.0165162
898.843	0.0163676
898.921	0.0165842
898.999	0.0165118
899.078	0.0166224
899.156	0.0165462
899.234	0.0166735
899.312	0.0166816
899.390	0.0165871
899.468	0.0165195
899.546	0.0166453
899.624	0.0167227
899.703	0.0167693
899.781	0.0166231
899.859	0.0167718
899.937	0.0167409
900.015	0.0167296
900.093	0.0167232
900.171	0.0166803
900.249	0.0166245
900.328	0.0166183
900.406	0.0167062
900.484	0.0167159
900.562	0.0164677
900.640	0.0165096
900.718	0.0166143
900.796	0.0164911
900.874	0.0164510
900.953	0.0164831
901.031	0.0163017
901.109	0.0163510
901.187	0.0164274
901.265	0.0164675
901.343	0.0162971
901.421	0.0164304
901.499	0.0164525
901.578	0.0164753
901.656	0.0165193
901.734	0.0164755
901.812	0.0166457
901.890	0.0164942
901.968	0.0165303
902.046	0.0166454
902.124	0.0165758
902.203	0.0165649
902.281	0.0166261
902.359	0.0166226
902.437	0.0166573
902.515	0.0165004
902.593	0.0165443
902.671	0.0167928
902.749	0.0165812
902.828	0.0165241
902.906	0.0166448
902.984	0.0166756
903.062	0.0167724
903.140	0.0167967
903.218	0.0167073
903.296	0.0167101
903.374	0.0168509
903.453	0.0167428
903.531	0.0166077
903.609	0.0166793
903.687	0.0167348
903.765	0.0167942
903.843	0.0168025
903.921	0.0166965
903.999	0.0166661
904.078	0.0165775
904.156	0.0166684
904.234	0.0166855
904.312	0.0165844
904.390	0.0164732
904.468	0.0166276
904.546	0.0166657
904.624	0.0166698
904.703	0.0166432
904.781	0.0166026
904.859	0.0166322
904.937	0.0166199
905.015	0.0166321
905.093	0.0167173
905.171	0.0166312
905.249	0.0167250
905.328	0.0167445
905.406	0.0166306
905.484	0.0165891
905.562	0.0164585
905.640	0.0165169
905.718	0.0166117
905.796	0.0165611
905.874	0.0165550
905.953	0.0165671
906.031	0.0164931
906.109	0.0165590
906.187	0.0166418
906.265	0.0166490
906.343	0.0166161
906.421	0.0164573
906.499	0.0164564
906.578	0.0162499
906.656	0.0164392
906.734	0.0162704
906.812	0.0164237
906.890	0.0163012
906.968	0.0163435
907.046	0.0163549
907.124	0.0162601
907.203	0.0161757
907.281	0.0161785
907.359	0.0162543
907.437	0.0163976
907.515	0.0162432
907.593	0.0161105
907.671	0.0163958
907.749	0.0164116
907.828	0.0162743
907.906	0.0163290
907.984	0.0162690
908.062	0.0163456
908.140	0.0164592
908.218	0.0164555
908.296	0.0164677
908.374	0.0164538
908.453	0.0164761
908.531	0.0164489
908.609	0.0166013
908.687	0.0165405
908.765	0.0164832
908.843	0.0164444
908.921	0.0166351
908.999	0.0167107
909.078	0.0166691
909.156	0.0165990
909.234	0.0165853
909.312	0.0167073
909.390	0.0166937
909.468	0.0166642
909.546	0.0167702
909.624	0.0166705
909.703	0.0167119
909.781	0.0166873
909.859	0.0166894
909.937	0.0167172
910.015	0.0167523
910.093	0.0166404
910.171	0.0165413
910.249	0.0166360
910.328	0.0166079
910.406	0.0167019
910.484	0.0166962
910.562	0.0167558
910.640	0.0165508
910.718	0.0165412
910.796	0.0166029
910.874	0.0167300
910.953	0.0166668
911.031	0.0165504
911.109	0.0166179
911.187	0.0164597
911.265	0.0165025
911.343	0.0165722
911.421	0.0164790
911.499	0.0163914
911.578	0.0164257
911.656	0.0163438
911.734	0.0162645
911.812	0.0162973
911.890	0.0161867
911.968	0.0162724
912.046	0.0163635
912.124	0.0162279
912.203	0.0161462
912.281	0.0163743
912.359	0.0163638
912.437	0.0163536
912.515	0.0163182
912.593	0.0162801
912.671	0.0163905
912.749	0.0165114
912.828	0.0164159
912.906	0.0163763
912.984	0.0164101
913.062	0.0161992
913.140	0.0161522
913.218	0.0164287
913.296	0.0163020
913.374	0.0163211
913.453	0.0162385
913.531	0.0162947
913.609	0.0162988
913.687	0.0162290
913.765	0.0163015
913.843	0.0163421
913.921	0.0163479
913.999	0.0162916
914.078	0.0164463
914.156	0.0164278
914.234	0.0163724
914.312	0.0164961
914.390	0.0165795
914.468	0.0164750
914.546	0.0165028
914.624	0.0165328
914.703	0.0164358
914.781	0.0166278
914.859	0.0166781
914.937	0.0165926
915.015	0.0166853
915.093	0.0167290
915.171	0.0166227
915.249	0.0166082
915.328	0.0166356
915.406	0.0166260
915.484	0.0165120
915.562	0.0165335
915.640	0.0166412
915.718	0.0165618
915.796	0.0165817
915.874	0.0165224
915.953	0.0166546
916.031	0.0165804
916.109	0.0166211
916.187	0.0165562
916.265	0.0165446
916.343	0.0167567
916.421	0.0166106
916.499	0.0167535
916.578	0.0166104
916.656	0.0166568
916.734	0.0165883
916.812	0.0165212
916.890	0.0165480
916.968	0.0164670
917.046	0.0165722
917.124	0.0167158
917.203	0.0164756
917.281	0.0164806
917.359	0.0164642
917.437	0.0164165
917.515	0.0163538
917.593	0.0164362
917.671	0.0164099
917.749	0.0163528
917.828	0.0162652
917.906	0.0162656
917.984	0.0162047
918.062	0.0162658
918.140	0.0162756
918.218	0.0161933
918.296	0.0162031
918.374	0.0161650
918.453	0.0160875
918.531	0.0162185
918.609	0.0162460
918.687	0.0162752
918.765	0.0162810
918.843	0.0162788
918.921	0.0162753
918.999	0.0163300
919.078	0.0163000
919.156	0.0162612
919.234	0.0165025
919.312	0.0163053
919.390	0.0162232
919.468	0.0163301
919.546	0.0163378
919.624	0.0164307
919.703	0.0164254
919.781	0.0163767
919.859	0.0164538
919.937	0.0163177
