06/10/2022	16:39:48	Ver.	4.1	UNKNOWN
Optical Delay	600.015094	Delta X		0.078125	Sweeps	1	Scan Rate	0/0
Coordinates	Axis 1	NaN	Axis 2	NaN	Axis 3	NaN	Axis 4	NaN	Axis 5	NaN	Axis 6	0.000000
TX Power	0.000000	RX Power	0.000000

600.015	0.0163471
600.093	0.0163570
600.171	0.0164439
600.249	0.0164802
600.328	0.0162872
600.406	0.0163526
600.484	0.0163821
600.562	0.0163962
600.640	0.0163322
600.718	0.0164130
600.796	0.0164451
600.874	0.0163843
600.953	0.0164183
601.031	0.0165566
601.109	0.0164612
601.187	0.0164104
601.265	0.0165094
601.343	0.0165003
601.421	0.0165231
601.499	0.0165157
601.578	0.0165719
601.656	0.0165536
601.734	0.0165810
601.812	0.0164828
601.890	0.0165813
601.968	0.0165642
602.046	0.0166762
602.124	0.0166354
602.203	0.0165675
602.281	0.0165514
602.359	0.0165771
602.437	0.0166037
602.515	0.0167351
602.593	0.0166376
602.671	0.0165911
602.749	0.0167392
602.828	0.0166793
602.906	0.0166253
602.984	0.0166102
603.062	0.0166278
603.140	0.0165596
603.218	0.0165269
603.296	0.0165425
603.374	0.0167006
603.453	0.0166061
603.531	0.0164953
603.609	0.0166660
603.687	0.0166269
603.765	0.0164972
603.843	0.0164384
603.921	0.0165939
603.999	0.0166475
604.078	0.0164742
604.156	0.0164293
604.234	0.0163480
604.312	0.0163432
604.390	0.0164255
604.468	0.0164014
604.546	0.0163735
604.624	0.0164650
604.703	0.0163684
604.781	0.0163670
604.859	0.0165352
604.937	0.0164087
605.015	0.0164619
605.093	0.0164597
605.171	0.0165540
605.249	0.0164911
605.328	0.0165504
605.406	0.0163925
605.484	0.0165097
605.562	0.0164677
605.640	0.0164217
605.718	0.0164192
605.796	0.0164159
605.874	0.0165265
605.953	0.0164469
606.031	0.0163753
606.109	0.0163972
606.187	0.0163731
606.265	0.0164382
606.343	0.0164490
606.421	0.0164861
606.499	0.0164257
606.578	0.0164206
606.656	0.0164247
606.734	0.0164474
606.812	0.0163855
606.890	0.0163715
606.968	0.0164690
607.046	0.0164562
607.124	0.0164896
607.203	0.0163515
607.281	0.0164860
607.359	0.0164395
607.437	0.0164546
607.515	0.0163927
607.593	0.0164185
607.671	0.0163811
607.749	0.0164119
607.828	0.0162270
607.906	0.0164349
607.984	0.0164813
608.062	0.0164453
608.140	0.0164774
608.218	0.0164747
608.296	0.0164816
608.374	0.0164516
608.453	0.0164063
608.531	0.0164650
608.609	0.0163847
608.687	0.0161990
608.765	0.0164359
608.843	0.0164433
608.921	0.0164114
608.999	0.0163444
609.078	0.0163770
609.156	0.0164830
609.234	0.0163953
609.312	0.0164382
609.390	0.0164345
609.468	0.0163248
609.546	0.0164085
609.624	0.0164489
609.703	0.0164225
609.781	0.0164748
609.859	0.0164682
609.937	0.0164377
610.015	0.0164599
610.093	0.0164445
610.171	0.0163346
610.249	0.0163236
610.328	0.0163354
610.406	0.0163737
610.484	0.0165238
610.562	0.0164028
610.640	0.0163977
610.718	0.0164645
610.796	0.0165762
610.874	0.0164460
610.953	0.0163974
611.031	0.0164338
611.109	0.0164730
611.187	0.0163804
611.265	0.0164140
611.343	0.0165257
611.421	0.0164523
611.499	0.0164183
611.578	0.0165476
611.656	0.0166000
611.734	0.0165936
611.812	0.0165132
611.890	0.0164495
611.968	0.0166347
612.046	0.0165542
612.124	0.0165070
612.203	0.0164299
612.281	0.0165213
612.359	0.0165839
612.437	0.0165411
612.515	0.0165157
612.593	0.0165376
612.671	0.0165913
612.749	0.0164481
612.828	0.0165250
612.906	0.0164886
612.984	0.0165531
613.062	0.0164970
613.140	0.0164101
613.218	0.0166586
613.296	0.0165782
613.374	0.0165471
613.453	0.0163597
613.531	0.0164214
613.609	0.0164499
613.687	0.0165353
613.765	0.0163439
613.843	0.0164468
613.921	0.0164660
613.999	0.0164518
614.078	0.0163784
614.156	0.0164369
614.234	0.0163524
614.312	0.0163157
614.390	0.0164167
614.468	0.0163679
614.546	0.0164270
614.624	0.0164116
614.703	0.0162901
614.781	0.0162675
614.859	0.0163201
614.937	0.0163230
615.015	0.0162195
615.093	0.0163344
615.171	0.0162881
615.249	0.0162358
615.328	0.0162316
615.406	0.0163466
615.484	0.0163621
615.562	0.0162903
615.640	0.0162886
615.718	0.0162850
615.796	0.0161123
615.874	0.0163683
615.953	0.0163159
616.031	0.0163544
616.109	0.0163337
616.187	0.0162514
616.265	0.0163373
616.343	0.0163231
616.421	0.0164169
616.499	0.0163953
616.578	0.0162515
616.656	0.0163236
616.734	0.0162581
616.812	0.0163580
616.890	0.0163888
616.968	0.0162455
617.046	0.0163857
617.124	0.0164866
617.203	0.0163027
617.281	0.0163390
617.359	0.0163484
617.437	0.0162302
617.515	0.0163369
617.593	0.0163682
617.671	0.0164206
617.749	0.0163726
617.828	0.0163187
617.906	0.0163459
617.984	0.0163013
618.062	0.0163796
618.140	0.0162843
618.218	0.0163228
618.296	0.0163622
618.374	0.0164614
618.453	0.0163431
618.531	0.0163480
618.609	0.0164553
618.687	0.0163747
618.765	0.0162022
618.843	0.0162370
618.921	0.0165317
618.999	0.0164670
619.078	0.0163548
619.156	0.0162801
619.234	0.0163947
619.312	0.0163547
619.390	0.0163827
619.468	0.0164236
619.546	0.0164188
619.624	0.0163782
619.703	0.0163176
619.781	0.0165012
619.859	0.0164490
619.937	0.0164034
620.015	0.0164170
620.093	0.0165430
620.171	0.0164750
620.249	0.0163399
620.328	0.0164051
620.406	0.0164754
620.484	0.0164426
620.562	0.0163953
620.640	0.0163251
620.718	0.0164359
620.796	0.0163966
620.874	0.0164594
620.953	0.0163926
621.031	0.0165569
621.109	0.0164692
621.187	0.0165482
621.265	0.0164663
621.343	0.0164693
621.421	0.0164968
621.499	0.0165810
621.578	0.0165362
621.656	0.0164606
621.734	0.0163893
621.812	0.0165327
621.890	0.0165382
621.968	0.0163660
622.046	0.0164729
622.124	0.0164488
622.203	0.0163957
622.281	0.0164617
622.359	0.0164779
622.437	0.0163840
622.515	0.0164540
622.593	0.0165138
622.671	0.0165042
622.749	0.0164872
622.828	0.0163827
622.906	0.0164615
622.984	0.0165050
623.062	0.0165272
623.140	0.0163458
623.218	0.0164587
623.296	0.0167225
623.374	0.0164526
623.453	0.0165650
623.531	0.0164629
623.609	0.0165776
623.687	0.0165170
623.765	0.0164006
623.843	0.0164381
623.921	0.0164920
623.999	0.0163965
624.078	0.0163975
624.156	0.0164845
624.234	0.0164838
624.312	0.0165640
624.390	0.0165069
624.468	0.0164223
624.546	0.0163680
624.624	0.0165334
624.703	0.0165510
624.781	0.0165925
624.859	0.0163609
624.937	0.0164254
625.015	0.0165354
625.093	0.0164342
625.171	0.0164258
625.249	0.0164512
625.328	0.0165661
625.406	0.0165366
625.484	0.0163732
625.562	0.0164718
625.640	0.0163780
625.718	0.0164916
625.796	0.0165686
625.874	0.0164376
625.953	0.0163642
626.031	0.0163909
626.109	0.0163674
626.187	0.0163528
626.265	0.0165862
626.343	0.0165464
626.421	0.0164281
626.499	0.0164754
626.578	0.0163584
626.656	0.0165063
626.734	0.0165852
626.812	0.0164945
626.890	0.0163654
626.968	0.0164469
627.046	0.0164574
627.124	0.0165450
627.203	0.0163549
627.281	0.0164886
627.359	0.0165056
627.437	0.0164400
627.515	0.0164213
627.593	0.0163986
627.671	0.0165769
627.749	0.0164318
627.828	0.0164863
627.906	0.0164927
627.984	0.0164852
628.062	0.0163071
628.140	0.0164355
628.218	0.0165021
628.296	0.0164470
628.374	0.0165443
628.453	0.0165250
628.531	0.0163806
628.609	0.0164428
628.687	0.0163691
628.765	0.0164756
628.843	0.0165015
628.921	0.0163662
628.999	0.0162678
629.078	0.0163676
629.156	0.0164566
629.234	0.0164847
629.312	0.0164524
629.390	0.0164440
629.468	0.0163786
629.546	0.0163944
629.624	0.0164680
629.703	0.0164063
629.781	0.0164523
629.859	0.0164494
629.937	0.0163326
630.015	0.0163531
630.093	0.0165126
630.171	0.0164941
630.249	0.0164410
630.328	0.0164939
630.406	0.0164859
630.484	0.0163077
630.562	0.0163577
630.640	0.0165659
630.718	0.0165654
630.796	0.0164749
630.874	0.0164838
630.953	0.0164127
631.031	0.0164014
631.109	0.0165511
631.187	0.0163809
631.265	0.0164642
631.343	0.0163550
631.421	0.0164497
631.499	0.0164320
631.578	0.0163886
631.656	0.0163117
631.734	0.0163857
631.812	0.0164665
631.890	0.0164037
631.968	0.0163440
632.046	0.0163939
632.124	0.0164953
632.203	0.0162966
632.281	0.0163819
632.359	0.0164037
632.437	0.0164610
632.515	0.0164597
632.593	0.0164262
632.671	0.0163671
632.749	0.0164682
632.828	0.0163618
632.906	0.0165337
632.984	0.0164565
633.062	0.0164697
633.140	0.0164418
633.218	0.0164418
633.296	0.0165582
633.374	0.0165214
633.453	0.0164487
633.531	0.0164201
633.609	0.0164716
633.687	0.0165267
633.765	0.0165437
633.843	0.0164800
633.921	0.0165599
633.999	0.0165788
634.078	0.0165620
634.156	0.0166118
634.234	0.0164745
634.312	0.0165470
634.390	0.0165710
634.468	0.0163846
634.546	0.0164279
634.624	0.0165165
634.703	0.0164425
634.781	0.0164594
634.859	0.0165090
634.937	0.0164922
635.015	0.0164257
635.093	0.0164341
635.171	0.0163329
635.249	0.0163401
635.328	0.0164590
635.406	0.0164120
635.484	0.0163820
635.562	0.0164977
635.640	0.0164548
635.718	0.0163368
635.796	0.0165259
635.874	0.0163590
635.953	0.0162344
636.031	0.0164354
636.109	0.0163277
636.187	0.0164275
636.265	0.0163104
636.343	0.0162518
636.421	0.0163502
636.499	0.0164921
636.578	0.0164408
636.656	0.0162859
636.734	0.0162260
636.812	0.0162718
636.890	0.0164536
636.968	0.0164342
637.046	0.0163453
637.124	0.0163476
637.203	0.0162852
637.281	0.0163580
637.359	0.0162985
637.437	0.0162872
637.515	0.0164505
637.593	0.0164275
637.671	0.0164821
637.749	0.0164038
637.828	0.0165897
637.906	0.0163758
637.984	0.0163754
638.062	0.0164621
638.140	0.0164079
638.218	0.0165179
638.296	0.0163554
638.374	0.0163205
638.453	0.0165477
638.531	0.0164121
638.609	0.0163683
638.687	0.0163177
638.765	0.0163800
638.843	0.0163883
638.921	0.0164359
638.999	0.0163342
639.078	0.0164417
639.156	0.0164206
639.234	0.0166172
639.312	0.0163813
639.390	0.0163878
639.468	0.0165499
639.546	0.0163518
639.624	0.0164265
639.703	0.0163864
639.781	0.0163382
639.859	0.0164206
639.937	0.0164723
640.015	0.0163607
640.093	0.0164448
640.171	0.0164868
640.249	0.0164018
640.328	0.0164691
640.406	0.0164722
640.484	0.0165576
640.562	0.0164119
640.640	0.0163911
640.718	0.0164543
640.796	0.0162846
640.874	0.0164544
640.953	0.0163526
641.031	0.0163908
641.109	0.0164220
641.187	0.0164686
641.265	0.0163951
641.343	0.0164214
641.421	0.0163667
641.499	0.0164904
641.578	0.0163363
641.656	0.0163876
641.734	0.0164994
641.812	0.0164165
641.890	0.0163908
641.968	0.0163843
642.046	0.0164454
642.124	0.0164050
642.203	0.0163793
642.281	0.0163263
642.359	0.0163370
642.437	0.0164726
642.515	0.0164585
642.593	0.0164718
642.671	0.0163832
642.749	0.0162683
642.828	0.0163376
642.906	0.0164320
642.984	0.0164249
643.062	0.0163876
643.140	0.0163241
643.218	0.0163176
643.296	0.0162763
643.374	0.0163439
643.453	0.0163963
643.531	0.0164111
643.609	0.0164034
643.687	0.0163196
643.765	0.0163019
643.843	0.0162440
643.921	0.0163988
643.999	0.0163853
644.078	0.0164368
644.156	0.0163827
644.234	0.0162395
644.312	0.0163203
644.390	0.0164796
644.468	0.0164276
644.546	0.0163390
644.624	0.0163140
644.703	0.0163099
644.781	0.0163005
644.859	0.0163950
644.937	0.0162920
645.015	0.0163240
645.093	0.0164142
645.171	0.0164481
645.249	0.0162651
645.328	0.0163679
645.406	0.0162743
645.484	0.0163850
645.562	0.0164955
645.640	0.0164397
645.718	0.0161885
645.796	0.0162555
645.874	0.0163495
645.953	0.0162878
646.031	0.0162820
646.109	0.0162112
646.187	0.0162901
646.265	0.0162510
646.343	0.0163522
646.421	0.0162506
646.499	0.0163377
646.578	0.0162871
646.656	0.0162049
646.734	0.0163208
646.812	0.0163039
646.890	0.0161747
646.968	0.0162478
647.046	0.0161635
647.124	0.0161900
647.203	0.0162279
647.281	0.0164146
647.359	0.0163662
647.437	0.0161974
647.515	0.0161408
647.593	0.0162708
647.671	0.0162509
647.749	0.0163280
647.828	0.0162780
647.906	0.0162651
647.984	0.0162123
648.062	0.0161906
648.140	0.0162770
648.218	0.0162566
648.296	0.0161205
648.374	0.0163634
648.453	0.0163139
648.531	0.0162645
648.609	0.0163272
648.687	0.0162470
648.765	0.0164121
648.843	0.0163237
648.921	0.0162019
648.999	0.0162795
649.078	0.0162502
649.156	0.0162426
649.234	0.0162165
649.312	0.0163036
649.390	0.0163326
649.468	0.0162356
649.546	0.0162860
649.624	0.0162677
649.703	0.0163665
649.781	0.0162586
649.859	0.0161562
649.937	0.0162474
650.015	0.0163445
650.093	0.0161991
650.171	0.0163428
650.249	0.0162721
650.328	0.0164056
650.406	0.0163235
650.484	0.0162197
650.562	0.0163402
650.640	0.0162907
650.718	0.0161827
650.796	0.0163973
650.874	0.0163390
650.953	0.0162765
651.031	0.0163724
651.109	0.0164037
651.187	0.0162038
651.265	0.0164332
651.343	0.0162446
651.421	0.0162430
651.499	0.0164255
651.578	0.0163095
651.656	0.0164159
651.734	0.0164310
651.812	0.0163255
651.890	0.0162981
651.968	0.0164415
652.046	0.0164497
652.124	0.0163990
652.203	0.0163200
652.281	0.0163815
652.359	0.0165163
652.437	0.0164753
652.515	0.0164455
652.593	0.0163362
652.671	0.0163374
652.749	0.0164249
652.828	0.0163691
652.906	0.0166123
652.984	0.0163726
653.062	0.0164136
653.140	0.0164392
653.218	0.0164513
653.296	0.0164573
653.374	0.0164100
653.453	0.0164668
653.531	0.0163924
653.609	0.0165083
653.687	0.0164486
653.765	0.0163497
653.843	0.0163244
653.921	0.0165517
653.999	0.0163524
654.078	0.0163475
654.156	0.0163500
654.234	0.0164507
654.312	0.0165201
654.390	0.0164607
654.468	0.0164611
654.546	0.0164877
654.624	0.0165070
654.703	0.0163305
654.781	0.0164503
654.859	0.0162366
654.937	0.0163666
655.015	0.0164524
655.093	0.0163877
655.171	0.0164022
655.249	0.0164124
655.328	0.0163616
655.406	0.0164347
655.484	0.0163010
655.562	0.0162943
655.640	0.0163271
655.718	0.0164127
655.796	0.0164491
655.874	0.0161829
655.953	0.0164813
656.031	0.0163840
656.109	0.0163664
656.187	0.0163794
656.265	0.0163006
656.343	0.0163279
656.421	0.0163701
656.499	0.0165483
656.578	0.0163795
656.656	0.0164478
656.734	0.0163917
656.812	0.0164355
656.890	0.0164887
656.968	0.0164814
657.046	0.0163634
657.124	0.0162550
657.203	0.0163559
657.281	0.0164082
657.359	0.0163793
657.437	0.0164269
657.515	0.0163641
657.593	0.0163882
657.671	0.0164493
657.749	0.0163536
657.828	0.0163363
657.906	0.0163457
657.984	0.0164077
658.062	0.0164861
658.140	0.0162969
658.218	0.0164788
658.296	0.0163998
658.374	0.0164006
658.453	0.0163381
658.531	0.0164825
658.609	0.0164069
658.687	0.0162035
658.765	0.0163401
658.843	0.0164412
658.921	0.0162904
658.999	0.0163335
659.078	0.0163445
659.156	0.0163526
659.234	0.0164271
659.312	0.0163823
659.390	0.0163247
659.468	0.0163330
659.546	0.0162975
659.624	0.0163937
659.703	0.0165050
659.781	0.0165012
659.859	0.0163805
659.937	0.0162946
660.015	0.0164630
660.093	0.0163760
660.171	0.0163255
660.249	0.0163345
660.328	0.0163894
660.406	0.0163136
660.484	0.0164201
660.562	0.0164431
660.640	0.0163425
660.718	0.0164166
660.796	0.0163582
660.874	0.0164505
660.953	0.0164111
661.031	0.0164132
661.109	0.0163684
661.187	0.0164342
661.265	0.0163940
661.343	0.0164037
661.421	0.0164584
661.499	0.0163851
661.578	0.0164299
661.656	0.0164388
661.734	0.0163781
661.812	0.0162964
661.890	0.0163392
661.968	0.0164435
662.046	0.0164611
662.124	0.0163418
662.203	0.0164320
662.281	0.0163003
662.359	0.0164200
662.437	0.0164492
662.515	0.0163372
662.593	0.0164430
662.671	0.0163965
662.749	0.0164270
662.828	0.0164875
662.906	0.0164291
662.984	0.0163752
663.062	0.0164922
663.140	0.0164817
663.218	0.0163954
663.296	0.0164606
663.374	0.0163957
663.453	0.0164503
663.531	0.0163911
663.609	0.0164224
663.687	0.0164506
663.765	0.0164616
663.843	0.0163570
663.921	0.0163126
663.999	0.0163438
664.078	0.0164420
664.156	0.0164580
664.234	0.0164671
664.312	0.0163206
664.390	0.0163799
664.468	0.0164021
664.546	0.0163725
664.624	0.0164602
664.703	0.0163676
664.781	0.0162917
664.859	0.0164214
664.937	0.0163640
665.015	0.0163796
665.093	0.0164098
665.171	0.0164577
665.249	0.0164391
665.328	0.0163858
665.406	0.0164267
665.484	0.0164453
665.562	0.0163692
665.640	0.0163828
665.718	0.0163958
665.796	0.0164249
665.874	0.0164674
665.953	0.0163696
666.031	0.0164365
666.109	0.0162795
666.187	0.0162453
666.265	0.0163033
666.343	0.0165092
666.421	0.0164172
666.499	0.0164269
666.578	0.0163316
666.656	0.0163725
666.734	0.0162941
666.812	0.0163242
666.890	0.0164992
666.968	0.0162382
667.046	0.0163541
667.124	0.0164527
667.203	0.0163387
667.281	0.0163403
667.359	0.0164317
667.437	0.0163718
667.515	0.0163564
667.593	0.0164085
667.671	0.0163525
667.749	0.0163754
667.828	0.0161758
667.906	0.0162701
667.984	0.0164632
668.062	0.0163553
668.140	0.0163124
668.218	0.0163206
668.296	0.0163923
668.374	0.0163821
668.453	0.0162711
668.531	0.0162760
668.609	0.0162926
668.687	0.0164262
668.765	0.0163365
668.843	0.0163321
668.921	0.0162014
668.999	0.0162973
669.078	0.0163540
669.156	0.0162641
669.234	0.0163185
669.312	0.0164088
669.390	0.0163131
669.468	0.0163567
669.546	0.0164117
669.624	0.0163742
669.703	0.0161558
669.781	0.0163524
669.859	0.0163633
669.937	0.0163849
670.015	0.0163277
670.093	0.0162988
670.171	0.0164552
670.249	0.0163655
670.328	0.0164079
670.406	0.0162088
670.484	0.0164400
670.562	0.0164754
670.640	0.0163038
670.718	0.0163223
670.796	0.0162350
670.874	0.0162933
670.953	0.0164153
671.031	0.0164563
671.109	0.0163205
671.187	0.0163453
671.265	0.0162888
671.343	0.0163047
671.421	0.0162782
671.499	0.0163824
671.578	0.0163132
671.656	0.0163705
671.734	0.0163305
671.812	0.0164535
671.890	0.0164137
671.968	0.0162315
672.046	0.0164096
672.124	0.0164883
672.203	0.0164512
672.281	0.0164249
672.359	0.0164582
672.437	0.0162251
672.515	0.0163276
672.593	0.0164250
672.671	0.0162045
672.749	0.0163787
672.828	0.0163194
672.906	0.0163550
672.984	0.0163097
673.062	0.0163229
673.140	0.0164922
673.218	0.0164079
673.296	0.0164555
673.374	0.0163200
673.453	0.0163849
673.531	0.0163023
673.609	0.0162514
673.687	0.0165041
673.765	0.0163210
673.843	0.0163766
673.921	0.0164004
673.999	0.0163410
674.078	0.0163788
674.156	0.0164020
674.234	0.0164176
674.312	0.0162991
674.390	0.0163983
674.468	0.0164246
674.546	0.0164367
674.624	0.0164725
674.703	0.0163371
674.781	0.0164384
674.859	0.0165196
674.937	0.0165672
675.015	0.0163416
675.093	0.0162648
675.171	0.0164559
675.249	0.0164307
675.328	0.0163283
675.406	0.0162497
675.484	0.0163761
675.562	0.0163598
675.640	0.0165207
675.718	0.0162729
675.796	0.0164451
675.874	0.0163396
675.953	0.0163754
676.031	0.0163706
676.109	0.0165784
676.187	0.0163488
676.265	0.0164751
676.343	0.0164420
676.421	0.0164719
676.499	0.0164036
676.578	0.0163586
676.656	0.0163874
676.734	0.0163389
676.812	0.0163414
676.890	0.0165662
676.968	0.0165446
677.046	0.0163941
677.124	0.0165200
677.203	0.0165058
677.281	0.0164569
677.359	0.0164272
677.437	0.0165450
677.515	0.0164988
677.593	0.0165182
677.671	0.0166470
677.749	0.0165697
677.828	0.0165215
677.906	0.0164983
677.984	0.0165034
678.062	0.0164954
678.140	0.0165198
678.218	0.0164707
678.296	0.0164025
678.374	0.0166173
678.453	0.0165440
678.531	0.0164299
678.609	0.0165502
678.687	0.0166570
678.765	0.0164998
678.843	0.0165376
678.921	0.0164137
678.999	0.0165652
679.078	0.0165578
679.156	0.0163981
679.234	0.0164304
679.312	0.0164964
679.390	0.0165041
679.468	0.0164518
679.546	0.0163367
679.624	0.0165621
679.703	0.0166155
679.781	0.0163898
679.859	0.0165019
679.937	0.0164877
680.015	0.0164584
680.093	0.0164548
680.171	0.0163857
680.249	0.0165072
680.328	0.0164191
680.406	0.0164042
680.484	0.0163599
680.562	0.0164274
680.640	0.0164038
680.718	0.0166071
680.796	0.0162902
680.874	0.0164957
680.953	0.0166201
681.031	0.0165190
681.109	0.0164761
681.187	0.0165527
681.265	0.0163129
681.343	0.0164764
681.421	0.0165198
681.499	0.0163066
681.578	0.0165234
681.656	0.0164607
681.734	0.0164532
681.812	0.0165482
681.890	0.0165273
681.968	0.0164108
682.046	0.0165808
682.124	0.0165616
682.203	0.0165048
682.281	0.0165000
682.359	0.0164731
682.437	0.0165119
682.515	0.0164639
682.593	0.0164970
682.671	0.0163506
682.749	0.0163734
682.828	0.0166348
682.906	0.0165673
682.984	0.0165082
683.062	0.0164250
683.140	0.0163773
683.218	0.0165586
683.296	0.0163950
683.374	0.0163255
683.453	0.0165414
683.531	0.0164823
683.609	0.0165227
683.687	0.0166466
683.765	0.0164101
683.843	0.0164487
683.921	0.0164098
683.999	0.0163820
684.078	0.0165409
684.156	0.0165963
684.234	0.0164645
684.312	0.0164491
684.390	0.0164468
684.468	0.0164249
684.546	0.0164249
684.624	0.0165923
684.703	0.0164362
684.781	0.0164664
684.859	0.0165002
684.937	0.0164483
685.015	0.0165599
685.093	0.0164886
685.171	0.0162992
685.249	0.0165166
685.328	0.0165299
685.406	0.0164500
685.484	0.0166106
685.562	0.0164910
685.640	0.0166559
685.718	0.0164984
685.796	0.0165282
685.874	0.0164687
685.953	0.0165771
686.031	0.0164634
686.109	0.0164917
686.187	0.0166148
686.265	0.0164433
686.343	0.0165169
686.421	0.0165502
686.499	0.0165445
686.578	0.0165032
686.656	0.0164938
686.734	0.0164503
686.812	0.0164950
686.890	0.0165176
686.968	0.0163639
687.046	0.0163712
687.124	0.0164308
687.203	0.0163869
687.281	0.0165176
687.359	0.0165285
687.437	0.0162994
687.515	0.0164111
687.593	0.0164443
687.671	0.0164375
687.749	0.0163301
687.828	0.0164780
687.906	0.0163805
687.984	0.0163105
688.062	0.0164976
688.140	0.0164733
688.218	0.0164638
688.296	0.0164530
688.374	0.0163919
688.453	0.0164504
688.531	0.0164183
688.609	0.0164799
688.687	0.0164006
688.765	0.0163938
688.843	0.0164745
688.921	0.0164639
688.999	0.0164109
689.078	0.0164987
689.156	0.0164397
689.234	0.0162128
689.312	0.0164232
689.390	0.0165059
689.468	0.0164940
689.546	0.0164739
689.624	0.0163723
689.703	0.0164538
689.781	0.0163558
689.859	0.0162789
689.937	0.0163640
690.015	0.0164087
690.093	0.0164256
690.171	0.0164505
690.249	0.0163123
690.328	0.0163048
690.406	0.0163740
690.484	0.0164850
690.562	0.0164577
690.640	0.0164688
690.718	0.0163524
690.796	0.0163225
690.874	0.0164843
690.953	0.0163983
691.031	0.0163731
691.109	0.0164326
691.187	0.0163604
691.265	0.0163095
691.343	0.0165008
691.421	0.0163831
691.499	0.0162743
691.578	0.0163613
691.656	0.0164255
691.734	0.0163480
691.812	0.0165530
691.890	0.0163871
691.968	0.0164069
692.046	0.0163879
692.124	0.0163805
692.203	0.0164211
692.281	0.0164433
692.359	0.0163309
692.437	0.0164228
692.515	0.0163941
692.593	0.0163025
692.671	0.0164127
692.749	0.0163947
692.828	0.0164436
692.906	0.0164754
692.984	0.0163924
693.062	0.0163658
693.140	0.0163542
693.218	0.0163947
693.296	0.0163444
693.374	0.0163763
693.453	0.0164693
693.531	0.0163911
693.609	0.0163698
693.687	0.0162971
693.765	0.0163043
693.843	0.0163657
693.921	0.0164272
693.999	0.0163660
694.078	0.0163168
694.156	0.0163711
694.234	0.0164103
694.312	0.0164344
694.390	0.0163245
694.468	0.0163863
694.546	0.0163454
694.624	0.0164378
694.703	0.0163355
694.781	0.0162475
694.859	0.0163930
694.937	0.0164021
695.015	0.0164143
695.093	0.0162495
695.171	0.0163924
695.249	0.0162716
695.328	0.0164470
695.406	0.0164461
695.484	0.0162586
695.562	0.0162708
695.640	0.0164841
695.718	0.0164294
695.796	0.0164336
695.874	0.0164296
695.953	0.0164330
696.031	0.0163290
696.109	0.0164359
696.187	0.0165799
696.265	0.0164423
696.343	0.0162931
696.421	0.0163184
696.499	0.0162626
696.578	0.0164265
696.656	0.0164627
696.734	0.0163728
696.812	0.0164180
696.890	0.0164275
696.968	0.0163953
697.046	0.0163975
697.124	0.0164285
697.203	0.0165015
697.281	0.0165083
697.359	0.0165343
697.437	0.0164649
697.515	0.0163558
697.593	0.0163543
697.671	0.0163868
697.749	0.0165334
697.828	0.0164664
697.906	0.0164052
697.984	0.0163989
698.062	0.0165125
698.140	0.0165240
698.218	0.0164143
698.296	0.0164043
698.374	0.0163810
698.453	0.0164972
698.531	0.0165591
698.609	0.0165762
698.687	0.0165575
698.765	0.0163419
698.843	0.0164156
698.921	0.0163712
698.999	0.0164056
699.078	0.0164947
699.156	0.0164348
699.234	0.0165416
699.312	0.0164772
699.390	0.0164370
699.468	0.0164990
699.546	0.0164414
699.624	0.0164394
699.703	0.0164824
699.781	0.0164873
699.859	0.0164684
699.937	0.0164453
700.015	0.0162891
700.093	0.0165070
700.171	0.0164822
700.249	0.0164358
700.328	0.0164011
700.406	0.0165884
700.484	0.0164905
700.562	0.0164945
700.640	0.0164738
700.718	0.0164137
700.796	0.0164906
700.874	0.0163918
700.953	0.0165336
701.031	0.0163259
701.109	0.0165273
701.187	0.0163837
701.265	0.0164200
701.343	0.0166120
701.421	0.0165334
701.499	0.0164484
701.578	0.0164710
701.656	0.0165532
701.734	0.0164820
701.812	0.0164593
701.890	0.0165362
701.968	0.0164297
702.046	0.0165269
702.124	0.0165345
702.203	0.0165203
702.281	0.0163094
702.359	0.0164594
702.437	0.0164073
702.515	0.0163383
702.593	0.0163670
702.671	0.0164329
702.749	0.0165005
702.828	0.0165684
702.906	0.0164084
702.984	0.0165160
703.062	0.0164549
703.140	0.0164509
703.218	0.0165974
703.296	0.0163908
703.374	0.0163334
703.453	0.0163877
703.531	0.0162953
703.609	0.0165221
703.687	0.0166102
703.765	0.0163900
703.843	0.0163295
703.921	0.0164112
703.999	0.0164546
704.078	0.0162521
704.156	0.0164657
704.234	0.0164686
704.312	0.0164196
704.390	0.0164914
704.468	0.0164458
704.546	0.0164547
704.624	0.0164472
704.703	0.0164050
704.781	0.0164596
704.859	0.0164011
704.937	0.0164323
705.015	0.0164613
705.093	0.0164316
705.171	0.0165388
705.249	0.0165617
705.328	0.0164539
705.406	0.0164650
705.484	0.0163434
705.562	0.0165025
705.640	0.0165386
705.718	0.0165026
705.796	0.0165058
705.874	0.0165239
705.953	0.0164721
706.031	0.0163747
706.109	0.0165145
706.187	0.0164499
706.265	0.0165340
706.343	0.0165714
706.421	0.0164549
706.499	0.0163880
706.578	0.0163036
706.656	0.0165497
706.734	0.0165598
706.812	0.0164547
706.890	0.0166590
706.968	0.0166550
707.046	0.0165424
707.124	0.0165459
707.203	0.0165088
707.281	0.0163374
707.359	0.0166135
707.437	0.0166290
707.515	0.0164144
707.593	0.0165358
707.671	0.0165585
707.749	0.0163688
707.828	0.0164797
707.906	0.0163786
707.984	0.0164536
708.062	0.0164001
708.140	0.0163970
708.218	0.0165171
708.296	0.0165020
708.374	0.0165006
708.453	0.0163496
708.531	0.0165627
708.609	0.0164189
708.687	0.0163246
708.765	0.0164758
708.843	0.0164634
708.921	0.0164240
708.999	0.0164687
709.078	0.0165012
709.156	0.0164725
709.234	0.0164150
709.312	0.0164635
709.390	0.0163474
709.468	0.0163155
709.546	0.0164903
709.624	0.0163373
709.703	0.0164267
709.781	0.0165579
709.859	0.0164448
709.937	0.0165785
710.015	0.0166149
710.093	0.0165783
710.171	0.0163963
710.249	0.0163128
710.328	0.0165228
710.406	0.0165611
710.484	0.0165079
710.562	0.0163909
710.640	0.0164442
710.718	0.0162863
710.796	0.0164609
710.874	0.0165561
710.953	0.0163647
711.031	0.0163291
711.109	0.0161206
711.187	0.0162524
711.265	0.0162558
711.343	0.0163937
711.421	0.0162965
711.499	0.0163239
711.578	0.0163505
711.656	0.0164520
711.734	0.0164481
711.812	0.0166380
711.890	0.0164606
711.968	0.0165271
712.046	0.0164767
712.124	0.0163531
712.203	0.0164023
712.281	0.0164191
712.359	0.0163515
712.437	0.0164324
712.515	0.0164015
712.593	0.0163165
712.671	0.0162222
712.749	0.0164156
712.828	0.0163503
712.906	0.0164411
712.984	0.0163585
713.062	0.0163290
713.140	0.0163014
713.218	0.0163534
713.296	0.0161929
713.374	0.0164284
713.453	0.0164447
713.531	0.0164824
713.609	0.0163418
713.687	0.0163101
713.765	0.0163689
713.843	0.0163819
713.921	0.0164162
713.999	0.0163703
714.078	0.0162868
714.156	0.0164384
714.234	0.0165005
714.312	0.0164441
714.390	0.0163677
714.468	0.0164732
714.546	0.0164859
714.624	0.0165206
714.703	0.0166151
714.781	0.0164144
714.859	0.0164196
714.937	0.0163927
715.015	0.0164211
715.093	0.0163248
715.171	0.0163020
715.249	0.0163878
715.328	0.0162874
715.406	0.0163082
715.484	0.0162572
715.562	0.0162374
715.640	0.0161115
715.718	0.0160527
715.796	0.0162491
715.874	0.0162798
715.953	0.0163985
716.031	0.0162309
716.109	0.0164335
716.187	0.0163729
716.265	0.0163036
716.343	0.0163647
716.421	0.0164442
716.499	0.0165283
716.578	0.0164652
716.656	0.0165572
716.734	0.0165483
716.812	0.0165184
716.890	0.0162965
716.968	0.0163956
717.046	0.0163200
717.124	0.0162772
717.203	0.0162759
717.281	0.0162342
717.359	0.0161274
717.437	0.0161234
717.515	0.0161759
717.593	0.0160906
717.671	0.0161664
717.749	0.0162531
717.828	0.0163680
717.906	0.0162531
717.984	0.0162641
718.062	0.0163380
718.140	0.0163058
718.218	0.0163149
718.296	0.0164645
718.374	0.0163711
718.453	0.0163163
718.531	0.0164272
718.609	0.0163300
718.687	0.0163169
718.765	0.0163661
718.843	0.0164343
718.921	0.0163072
718.999	0.0164687
719.078	0.0163065
719.156	0.0164309
719.234	0.0164043
719.312	0.0163878
719.390	0.0164622
719.468	0.0163907
719.546	0.0163026
719.624	0.0164124
719.703	0.0163549
719.781	0.0163154
719.859	0.0163313
719.937	0.0163760
720.015	0.0163317
720.093	0.0163297
720.171	0.0163291
720.249	0.0162243
720.328	0.0162566
720.406	0.0162060
720.484	0.0161535
720.562	0.0160193
720.640	0.0162369
720.718	0.0162163
720.796	0.0162318
720.874	0.0162090
720.953	0.0162655
721.031	0.0163363
721.109	0.0163059
721.187	0.0163895
721.265	0.0164156
721.343	0.0161858
721.421	0.0163831
721.499	0.0164140
721.578	0.0162292
721.656	0.0162111
721.734	0.0162597
721.812	0.0163784
721.890	0.0162862
721.968	0.0162347
722.046	0.0162637
722.124	0.0161828
722.203	0.0162425
722.281	0.0162488
722.359	0.0161961
722.437	0.0163224
722.515	0.0162335
722.593	0.0162360
722.671	0.0162086
722.749	0.0162740
722.828	0.0161742
722.906	0.0162327
722.984	0.0163654
723.062	0.0163351
723.140	0.0163475
723.218	0.0162881
723.296	0.0162150
723.374	0.0162062
723.453	0.0163101
723.531	0.0163567
723.609	0.0162992
723.687	0.0162187
723.765	0.0162737
723.843	0.0162457
723.921	0.0161707
723.999	0.0162615
724.078	0.0162719
724.156	0.0163403
724.234	0.0164196
724.312	0.0163312
724.390	0.0161440
724.468	0.0163358
724.546	0.0163611
724.624	0.0163931
724.703	0.0163863
724.781	0.0163941
724.859	0.0162624
724.937	0.0163438
725.015	0.0162702
725.093	0.0162283
725.171	0.0162673
725.249	0.0162458
725.328	0.0163445
725.406	0.0162776
725.484	0.0162451
725.562	0.0162837
725.640	0.0162638
725.718	0.0162872
725.796	0.0163429
725.874	0.0163586
725.953	0.0163970
726.031	0.0165216
726.109	0.0163866
726.187	0.0163342
726.265	0.0163716
726.343	0.0163415
726.421	0.0164652
726.499	0.0164498
726.578	0.0161844
726.656	0.0163909
726.734	0.0164085
726.812	0.0163551
726.890	0.0164689
726.968	0.0163891
727.046	0.0164196
727.124	0.0163715
727.203	0.0163232
727.281	0.0164839
727.359	0.0164861
727.437	0.0164454
727.515	0.0164304
727.593	0.0164804
727.671	0.0164016
727.749	0.0163446
727.828	0.0165652
727.906	0.0164964
727.984	0.0164132
728.062	0.0163374
728.140	0.0164829
728.218	0.0163671
728.296	0.0163327
728.374	0.0164671
728.453	0.0164644
728.531	0.0165385
728.609	0.0163731
728.687	0.0163956
728.765	0.0164452
728.843	0.0165195
728.921	0.0164069
728.999	0.0164568
729.078	0.0164708
729.156	0.0164301
729.234	0.0164931
729.312	0.0165202
729.390	0.0164185
729.468	0.0164953
729.546	0.0164494
729.624	0.0164555
729.703	0.0165460
729.781	0.0163937
729.859	0.0166363
729.937	0.0164643
730.015	0.0164428
730.093	0.0164613
730.171	0.0164291
730.249	0.0163387
730.328	0.0163880
730.406	0.0164397
730.484	0.0163928
730.562	0.0164032
730.640	0.0163495
730.718	0.0162639
730.796	0.0163784
730.874	0.0163226
730.953	0.0164173
731.031	0.0164670
731.109	0.0164150
731.187	0.0162930
731.265	0.0164390
731.343	0.0163701
731.421	0.0165036
731.499	0.0163188
731.578	0.0165242
731.656	0.0164539
731.734	0.0164751
731.812	0.0164781
731.890	0.0164588
731.968	0.0164796
732.046	0.0164500
732.124	0.0163741
732.203	0.0165023
732.281	0.0164661
732.359	0.0164198
732.437	0.0163565
732.515	0.0162811
732.593	0.0164197
732.671	0.0163155
732.749	0.0162605
732.828	0.0163411
732.906	0.0163965
732.984	0.0164294
733.062	0.0163094
733.140	0.0162933
733.218	0.0164751
733.296	0.0165508
733.374	0.0162932
733.453	0.0164165
733.531	0.0164194
733.609	0.0164524
733.687	0.0164637
733.765	0.0164854
733.843	0.0164730
733.921	0.0163158
733.999	0.0162965
734.078	0.0163952
734.156	0.0163542
734.234	0.0163948
734.312	0.0163569
734.390	0.0162572
734.468	0.0163648
734.546	0.0165221
734.624	0.0164856
734.703	0.0163516
734.781	0.0164134
734.859	0.0165158
734.937	0.0164739
735.015	0.0163983
735.093	0.0164086
735.171	0.0164229
735.249	0.0163902
735.328	0.0164724
735.406	0.0163412
735.484	0.0164562
735.562	0.0164006
735.640	0.0163432
735.718	0.0163282
735.796	0.0164749
735.874	0.0165257
735.953	0.0164522
736.031	0.0163844
736.109	0.0163716
736.187	0.0163869
736.265	0.0164534
736.343	0.0164064
736.421	0.0163635
736.499	0.0164251
736.578	0.0164836
736.656	0.0164643
736.734	0.0164227
736.812	0.0164364
736.890	0.0164153
736.968	0.0164419
737.046	0.0163548
737.124	0.0163322
737.203	0.0163688
737.281	0.0164391
737.359	0.0163602
737.437	0.0164232
737.515	0.0163307
737.593	0.0164373
737.671	0.0163722
737.749	0.0162518
737.828	0.0164791
737.906	0.0164461
737.984	0.0163520
738.062	0.0162692
738.140	0.0163821
738.218	0.0164030
738.296	0.0165141
738.374	0.0163543
738.453	0.0162377
738.531	0.0162987
738.609	0.0162352
738.687	0.0163113
738.765	0.0164677
738.843	0.0163737
738.921	0.0163610
738.999	0.0162917
739.078	0.0164600
739.156	0.0165006
739.234	0.0164520
739.312	0.0164334
739.390	0.0161426
739.468	0.0163385
739.546	0.0163149
739.624	0.0163715
739.703	0.0163425
739.781	0.0162258
739.859	0.0162766
739.937	0.0162832
740.015	0.0164124
740.093	0.0162598
740.171	0.0162794
740.249	0.0162227
740.328	0.0162769
740.406	0.0163293
740.484	0.0163544
740.562	0.0162502
740.640	0.0161295
740.718	0.0162390
740.796	0.0161834
740.874	0.0162174
740.953	0.0162772
741.031	0.0162311
741.109	0.0161827
741.187	0.0163792
741.265	0.0162106
741.343	0.0161614
741.421	0.0162332
741.499	0.0163615
741.578	0.0162908
741.656	0.0162730
741.734	0.0162767
741.812	0.0161641
741.890	0.0163548
741.968	0.0163757
742.046	0.0161338
742.124	0.0163610
742.203	0.0163711
742.281	0.0162613
742.359	0.0161671
742.437	0.0162623
742.515	0.0162359
742.593	0.0162047
742.671	0.0163893
742.749	0.0161668
742.828	0.0162972
742.906	0.0163516
742.984	0.0163891
743.062	0.0164671
743.140	0.0164026
743.218	0.0163002
743.296	0.0163814
743.374	0.0163836
743.453	0.0163111
743.531	0.0163487
743.609	0.0162341
743.687	0.0164173
743.765	0.0162184
743.843	0.0162379
743.921	0.0162579
743.999	0.0161956
744.078	0.0163290
744.156	0.0164092
744.234	0.0164316
744.312	0.0163598
744.390	0.0162952
744.468	0.0164487
744.546	0.0163933
744.624	0.0163146
744.703	0.0163258
744.781	0.0163125
744.859	0.0163017
744.937	0.0163101
745.015	0.0163107
745.093	0.0162563
745.171	0.0163835
745.249	0.0163411
745.328	0.0161515
745.406	0.0164587
745.484	0.0163678
745.562	0.0165035
745.640	0.0165000
745.718	0.0162836
745.796	0.0163598
745.874	0.0164542
745.953	0.0163480
746.031	0.0164679
746.109	0.0163972
746.187	0.0162619
746.265	0.0163152
746.343	0.0163875
746.421	0.0163500
746.499	0.0164322
746.578	0.0163969
746.656	0.0164107
746.734	0.0162360
746.812	0.0162344
746.890	0.0162415
746.968	0.0163853
747.046	0.0164430
747.124	0.0163016
747.203	0.0163101
747.281	0.0162701
747.359	0.0163413
747.437	0.0163845
747.515	0.0164711
747.593	0.0164682
747.671	0.0164010
747.749	0.0163743
747.828	0.0162744
747.906	0.0164326
747.984	0.0162975
748.062	0.0164069
748.140	0.0163452
748.218	0.0163132
748.296	0.0163081
748.374	0.0163509
748.453	0.0163790
748.531	0.0163184
748.609	0.0162337
748.687	0.0162161
748.765	0.0162923
748.843	0.0163145
748.921	0.0164022
748.999	0.0161816
749.078	0.0163536
749.156	0.0162837
749.234	0.0163065
749.312	0.0163319
749.390	0.0163503
749.468	0.0163328
749.546	0.0162724
749.624	0.0164147
749.703	0.0163013
749.781	0.0164759
749.859	0.0164406
749.937	0.0163739
750.015	0.0163954
750.093	0.0163717
750.171	0.0163332
750.249	0.0162276
750.328	0.0164014
750.406	0.0164155
750.484	0.0164264
750.562	0.0164323
750.640	0.0163252
750.718	0.0163059
750.796	0.0163604
750.874	0.0163647
750.953	0.0165369
751.031	0.0163886
751.109	0.0162894
751.187	0.0163860
751.265	0.0165126
751.343	0.0163898
751.421	0.0164265
751.499	0.0161687
751.578	0.0161930
751.656	0.0164351
751.734	0.0163919
751.812	0.0163456
751.890	0.0162792
751.968	0.0163662
752.046	0.0162718
752.124	0.0164008
752.203	0.0162679
752.281	0.0163729
752.359	0.0164414
752.437	0.0164165
752.515	0.0163510
752.593	0.0164806
752.671	0.0163961
752.749	0.0164174
752.828	0.0164951
752.906	0.0164426
752.984	0.0165534
753.062	0.0164339
753.140	0.0164520
753.218	0.0165414
753.296	0.0164886
753.374	0.0165381
753.453	0.0165154
753.531	0.0163967
753.609	0.0164310
753.687	0.0164638
753.765	0.0164589
753.843	0.0164758
753.921	0.0165142
753.999	0.0163589
754.078	0.0164467
754.156	0.0165960
754.234	0.0165537
754.312	0.0164477
754.390	0.0163747
754.468	0.0163811
754.546	0.0165473
754.624	0.0164268
754.703	0.0164594
754.781	0.0165643
754.859	0.0164363
754.937	0.0164831
755.015	0.0165802
755.093	0.0165469
755.171	0.0165673
755.249	0.0164526
755.328	0.0166283
755.406	0.0164523
755.484	0.0165424
755.562	0.0164510
755.640	0.0165833
755.718	0.0164710
755.796	0.0164292
755.874	0.0164759
755.953	0.0164890
756.031	0.0163975
756.109	0.0165327
756.187	0.0165977
756.265	0.0165595
756.343	0.0164645
756.421	0.0164184
756.499	0.0163816
756.578	0.0164889
756.656	0.0165419
756.734	0.0164201
756.812	0.0163174
756.890	0.0165745
756.968	0.0163653
757.046	0.0164587
757.124	0.0163829
757.203	0.0164877
757.281	0.0164725
757.359	0.0164785
757.437	0.0163750
757.515	0.0164744
757.593	0.0165766
757.671	0.0164807
757.749	0.0165646
757.828	0.0165860
757.906	0.0165145
757.984	0.0164785
758.062	0.0165958
758.140	0.0165444
758.218	0.0165167
758.296	0.0165549
758.374	0.0165084
758.453	0.0165375
758.531	0.0164975
758.609	0.0166248
758.687	0.0166204
758.765	0.0165223
758.843	0.0164969
758.921	0.0164349
758.999	0.0164146
759.078	0.0164860
759.156	0.0163960
759.234	0.0164180
759.312	0.0162809
759.390	0.0164374
759.468	0.0165000
759.546	0.0163383
759.624	0.0164188
759.703	0.0163998
759.781	0.0164143
759.859	0.0164515
759.937	0.0164116
760.015	0.0164133
760.093	0.0165632
760.171	0.0165777
760.249	0.0165052
760.328	0.0165998
760.406	0.0166248
760.484	0.0165801
760.562	0.0166570
760.640	0.0166354
760.718	0.0165057
760.796	0.0165457
760.874	0.0166051
760.953	0.0167806
761.031	0.0166218
761.109	0.0166112
761.187	0.0165702
761.265	0.0166125
761.343	0.0165646
761.421	0.0164919
761.499	0.0165320
761.578	0.0165768
761.656	0.0165485
761.734	0.0165286
761.812	0.0164133
761.890	0.0165252
761.968	0.0165099
762.046	0.0164955
762.124	0.0164315
762.203	0.0164762
762.281	0.0164674
762.359	0.0165254
762.437	0.0164731
762.515	0.0164784
762.593	0.0165178
762.671	0.0165506
762.749	0.0164233
762.828	0.0163242
762.906	0.0165157
762.984	0.0163954
763.062	0.0163813
763.140	0.0163683
763.218	0.0163987
763.296	0.0165374
763.374	0.0165096
763.453	0.0164001
763.531	0.0165735
763.609	0.0164778
763.687	0.0165274
763.765	0.0166339
763.843	0.0166323
763.921	0.0165674
763.999	0.0164662
764.078	0.0165980
764.156	0.0165864
764.234	0.0165381
764.312	0.0164994
764.390	0.0164759
764.468	0.0164037
764.546	0.0163498
764.624	0.0164524
764.703	0.0164101
764.781	0.0164751
764.859	0.0165188
764.937	0.0165631
765.015	0.0164597
765.093	0.0164893
765.171	0.0165012
765.249	0.0164507
765.328	0.0164401
765.406	0.0165702
765.484	0.0166375
765.562	0.0164883
765.640	0.0165813
765.718	0.0166908
765.796	0.0166011
765.874	0.0164641
765.953	0.0164159
766.031	0.0165367
766.109	0.0165581
766.187	0.0164147
766.265	0.0165289
766.343	0.0164779
766.421	0.0164112
766.499	0.0164693
766.578	0.0164634
766.656	0.0164429
766.734	0.0163133
766.812	0.0163554
766.890	0.0163274
766.968	0.0162692
767.046	0.0163145
767.124	0.0163273
767.203	0.0162867
767.281	0.0163584
767.359	0.0163429
767.437	0.0162234
767.515	0.0163346
767.593	0.0163409
767.671	0.0162276
767.749	0.0164709
767.828	0.0163744
767.906	0.0163789
767.984	0.0163853
768.062	0.0164960
768.140	0.0164026
768.218	0.0165427
768.296	0.0166273
768.374	0.0165443
768.453	0.0166833
768.531	0.0166807
768.609	0.0167400
768.687	0.0166028
768.765	0.0167075
768.843	0.0166037
768.921	0.0164250
768.999	0.0164379
769.078	0.0164933
769.156	0.0163285
769.234	0.0162981
769.312	0.0162456
769.390	0.0163116
769.468	0.0162154
769.546	0.0164628
769.624	0.0163146
769.703	0.0162115
769.781	0.0162779
769.859	0.0162533
769.937	0.0163187
770.015	0.0163316
770.093	0.0163824
770.171	0.0163594
770.249	0.0163581
770.328	0.0162996
770.406	0.0162801
770.484	0.0162756
770.562	0.0162640
770.640	0.0161974
770.718	0.0162562
770.796	0.0162985
770.874	0.0163937
770.953	0.0164101
771.031	0.0163251
771.109	0.0165784
771.187	0.0163409
771.265	0.0163650
771.343	0.0164072
771.421	0.0166183
771.499	0.0165161
771.578	0.0163932
771.656	0.0164072
771.734	0.0166190
771.812	0.0164362
771.890	0.0164587
771.968	0.0164166
772.046	0.0164404
772.124	0.0164549
772.203	0.0163155
772.281	0.0163888
772.359	0.0163378
772.437	0.0163919
772.515	0.0165128
772.593	0.0164249
772.671	0.0164440
772.749	0.0165068
772.828	0.0164382
772.906	0.0164335
772.984	0.0166619
773.062	0.0166770
773.140	0.0165585
773.218	0.0165005
773.296	0.0166164
773.374	0.0166306
773.453	0.0165038
773.531	0.0165559
773.609	0.0163959
773.687	0.0164719
773.765	0.0164704
773.843	0.0165276
773.921	0.0164536
773.999	0.0162472
774.078	0.0164974
774.156	0.0163713
774.234	0.0164658
774.312	0.0165203
774.390	0.0164259
774.468	0.0164642
774.546	0.0163798
774.624	0.0163412
774.703	0.0163880
774.781	0.0163322
774.859	0.0163522
774.937	0.0163696
775.015	0.0164138
775.093	0.0164677
775.171	0.0164279
775.249	0.0163055
775.328	0.0162991
775.406	0.0163318
775.484	0.0163290
775.562	0.0163498
775.640	0.0164944
775.718	0.0164663
775.796	0.0163955
775.874	0.0162999
775.953	0.0164343
776.031	0.0165292
776.109	0.0165582
776.187	0.0165097
776.265	0.0162762
776.343	0.0164129
776.421	0.0164718
776.499	0.0165649
776.578	0.0165922
776.656	0.0164525
776.734	0.0165468
776.812	0.0164172
776.890	0.0166339
776.968	0.0166641
777.046	0.0165547
777.124	0.0165788
777.203	0.0165900
777.281	0.0165515
777.359	0.0165639
777.437	0.0168031
777.515	0.0166586
777.593	0.0165307
777.671	0.0166294
777.749	0.0166478
777.828	0.0166322
777.906	0.0165795
777.984	0.0166521
778.062	0.0165395
778.140	0.0164918
778.218	0.0165862
778.296	0.0165488
778.374	0.0165499
778.453	0.0164538
778.531	0.0162553
778.609	0.0163893
778.687	0.0161932
778.765	0.0163641
778.843	0.0163313
778.921	0.0162037
778.999	0.0163177
779.078	0.0162737
779.156	0.0163321
779.234	0.0163178
779.312	0.0163989
779.390	0.0163505
779.468	0.0163622
779.546	0.0164489
779.624	0.0164098
779.703	0.0164025
779.781	0.0165240
779.859	0.0166418
779.937	0.0164190
780.015	0.0164816
780.093	0.0165891
780.171	0.0166254
780.249	0.0164420
780.328	0.0164751
780.406	0.0164933
780.484	0.0165498
780.562	0.0165351
780.640	0.0165414
780.718	0.0165578
780.796	0.0165456
780.874	0.0164881
780.953	0.0165181
781.031	0.0164082
781.109	0.0164692
781.187	0.0164129
781.265	0.0163304
781.343	0.0160876
781.421	0.0163159
781.499	0.0161015
781.578	0.0160594
781.656	0.0161499
781.734	0.0162464
781.812	0.0161922
781.890	0.0160965
781.968	0.0161443
782.046	0.0161298
782.124	0.0162523
782.203	0.0163751
782.281	0.0162933
782.359	0.0163972
782.437	0.0164511
782.515	0.0163829
782.593	0.0163686
782.671	0.0165678
782.749	0.0168082
782.828	0.0167418
782.906	0.0166105
782.984	0.0167374
783.062	0.0168090
783.140	0.0170114
783.218	0.0169657
783.296	0.0168936
783.374	0.0170406
783.453	0.0170905
783.531	0.0170086
783.609	0.0169257
783.687	0.0169352
783.765	0.0168816
783.843	0.0167241
783.921	0.0167212
783.999	0.0166838
784.078	0.0166180
784.156	0.0165354
784.234	0.0163258
784.312	0.0163765
784.390	0.0163646
784.468	0.0163104
784.546	0.0161544
784.624	0.0161929
784.703	0.0161700
784.781	0.0160836
784.859	0.0160781
784.937	0.0160754
785.015	0.0161850
785.093	0.0160476
785.171	0.0159759
785.249	0.0162822
785.328	0.0161463
785.406	0.0160336
785.484	0.0162934
785.562	0.0163315
785.640	0.0162352
785.718	0.0163523
785.796	0.0162638
785.874	0.0163223
785.953	0.0163790
786.031	0.0163721
786.109	0.0163618
786.187	0.0163468
786.265	0.0165136
786.343	0.0164160
786.421	0.0164388
786.499	0.0166167
786.578	0.0165678
786.656	0.0164902
786.734	0.0165379
786.812	0.0165254
786.890	0.0165382
786.968	0.0164449
787.046	0.0163424
787.124	0.0164955
787.203	0.0165466
787.281	0.0165160
787.359	0.0165851
787.437	0.0166022
787.515	0.0165285
787.593	0.0165347
787.671	0.0166345
787.749	0.0166700
787.828	0.0166996
787.906	0.0167590
787.984	0.0165340
788.062	0.0166897
788.140	0.0164793
788.218	0.0166682
788.296	0.0167077
788.374	0.0164960
788.453	0.0165974
788.531	0.0166489
788.609	0.0166788
788.687	0.0166161
788.765	0.0165443
788.843	0.0164858
788.921	0.0165008
788.999	0.0163692
789.078	0.0164382
789.156	0.0164724
789.234	0.0163981
789.312	0.0162431
789.390	0.0162517
789.468	0.0161347
789.546	0.0160754
789.624	0.0162608
789.703	0.0161482
789.781	0.0163167
789.859	0.0161538
789.937	0.0161608
790.015	0.0162415
790.093	0.0161649
790.171	0.0161761
790.249	0.0162501
790.328	0.0163499
790.406	0.0163062
790.484	0.0162553
790.562	0.0162633
790.640	0.0162545
790.718	0.0163194
790.796	0.0163705
790.874	0.0163859
790.953	0.0163996
791.031	0.0164349
791.109	0.0164783
791.187	0.0162918
791.265	0.0165579
791.343	0.0163811
791.421	0.0163622
791.499	0.0164400
791.578	0.0162531
791.656	0.0162590
791.734	0.0163254
791.812	0.0162753
791.890	0.0162685
791.968	0.0162803
792.046	0.0162634
792.124	0.0162135
792.203	0.0163976
792.281	0.0162819
792.359	0.0163182
792.437	0.0162428
792.515	0.0164381
792.593	0.0163250
792.671	0.0163054
792.749	0.0163712
792.828	0.0164780
792.906	0.0165250
792.984	0.0164566
793.062	0.0164922
793.140	0.0164480
793.218	0.0165723
793.296	0.0167152
793.374	0.0166361
793.453	0.0165553
793.531	0.0165849
793.609	0.0167235
793.687	0.0169245
793.765	0.0168539
793.843	0.0165604
793.921	0.0166856
793.999	0.0168140
794.078	0.0168719
794.156	0.0167327
794.234	0.0166992
794.312	0.0165907
794.390	0.0166158
794.468	0.0165674
794.546	0.0163675
794.624	0.0164870
794.703	0.0163988
794.781	0.0162541
794.859	0.0163181
794.937	0.0162673
795.015	0.0160686
795.093	0.0161605
795.171	0.0160358
795.249	0.0158135
795.328	0.0158447
795.406	0.0158521
795.484	0.0158662
795.562	0.0157929
795.640	0.0159692
795.718	0.0157702
795.796	0.0159576
795.874	0.0158035
795.953	0.0159148
796.031	0.0160270
796.109	0.0159917
796.187	0.0160668
796.265	0.0161073
796.343	0.0162061
796.421	0.0162576
796.499	0.0162870
796.578	0.0163934
796.656	0.0164761
796.734	0.0164036
796.812	0.0164417
796.890	0.0164732
796.968	0.0166192
797.046	0.0167412
797.124	0.0165511
797.203	0.0165865
797.281	0.0166697
797.359	0.0164526
797.437	0.0165067
797.515	0.0166142
797.593	0.0163654
797.671	0.0165345
797.749	0.0165682
797.828	0.0164617
797.906	0.0165178
797.984	0.0164513
798.062	0.0165032
798.140	0.0164970
798.218	0.0162586
798.296	0.0163605
798.374	0.0164282
798.453	0.0165170
798.531	0.0163596
798.609	0.0162412
798.687	0.0164964
798.765	0.0163869
798.843	0.0163271
798.921	0.0161990
798.999	0.0163707
799.078	0.0163866
799.156	0.0162894
799.234	0.0164568
799.312	0.0165881
799.390	0.0164485
799.468	0.0166434
799.546	0.0166666
799.624	0.0166277
799.703	0.0167284
799.781	0.0168328
799.859	0.0168150
799.937	0.0168250
800.015	0.0168347
800.093	0.0167526
800.171	0.0166826
800.249	0.0165610
800.328	0.0165124
800.406	0.0164368
800.484	0.0163612
800.562	0.0163145
800.640	0.0160408
800.718	0.0158598
800.796	0.0158496
800.874	0.0159181
800.953	0.0157455
801.031	0.0156896
801.109	0.0155699
801.187	0.0157156
801.265	0.0155357
801.343	0.0156342
801.421	0.0156870
801.499	0.0156732
801.578	0.0157314
801.656	0.0157959
801.734	0.0157079
801.812	0.0158710
801.890	0.0157426
801.968	0.0157733
802.046	0.0159460
802.124	0.0160822
802.203	0.0160103
802.281	0.0161950
802.359	0.0162570
802.437	0.0164105
802.515	0.0163326
802.593	0.0166234
802.671	0.0166415
802.749	0.0166164
802.828	0.0166465
802.906	0.0168214
802.984	0.0169798
803.062	0.0168630
803.140	0.0170782
803.218	0.0169870
803.296	0.0170168
803.374	0.0171097
803.453	0.0170540
803.531	0.0170147
803.609	0.0170239
803.687	0.0169748
803.765	0.0170242
803.843	0.0169224
803.921	0.0169347
803.999	0.0168916
804.078	0.0167311
804.156	0.0167059
804.234	0.0165767
804.312	0.0165050
804.390	0.0165672
804.468	0.0164762
804.546	0.0164056
804.624	0.0163823
804.703	0.0163638
804.781	0.0162952
804.859	0.0163305
804.937	0.0161489
805.015	0.0159784
805.093	0.0160486
805.171	0.0160583
805.249	0.0158298
805.328	0.0156350
805.406	0.0157153
805.484	0.0158889
805.562	0.0158645
805.640	0.0157294
805.718	0.0158562
805.796	0.0157676
805.874	0.0157134
805.953	0.0157027
806.031	0.0159045
806.109	0.0160947
806.187	0.0160165
806.265	0.0160864
806.343	0.0160306
806.421	0.0160326
806.499	0.0160942
806.578	0.0162231
806.656	0.0161638
806.734	0.0162284
806.812	0.0162418
806.890	0.0163110
806.968	0.0164087
807.046	0.0164285
807.124	0.0164046
807.203	0.0165704
807.281	0.0164142
807.359	0.0163375
807.437	0.0165666
807.515	0.0165691
807.593	0.0164964
807.671	0.0164326
807.749	0.0163979
807.828	0.0164370
807.906	0.0164068
807.984	0.0162664
808.062	0.0162759
808.140	0.0162845
808.218	0.0161509
808.296	0.0162503
808.374	0.0162640
808.453	0.0162923
808.531	0.0163349
808.609	0.0164465
808.687	0.0163454
808.765	0.0163171
808.843	0.0164837
808.921	0.0164861
808.999	0.0165466
809.078	0.0164421
809.156	0.0167050
809.234	0.0166795
809.312	0.0168679
809.390	0.0168469
809.468	0.0168607
809.546	0.0169128
809.624	0.0168223
809.703	0.0169096
809.781	0.0169913
809.859	0.0168725
809.937	0.0169633
810.015	0.0167941
810.093	0.0168203
810.171	0.0167306
810.249	0.0168194
810.328	0.0167242
810.406	0.0164452
810.484	0.0164815
810.562	0.0164688
810.640	0.0163470
810.718	0.0161794
810.796	0.0162060
810.874	0.0160901
810.953	0.0160906
811.031	0.0158910
811.109	0.0158005
811.187	0.0157704
811.265	0.0155349
811.343	0.0157075
811.421	0.0155727
811.499	0.0154961
811.578	0.0154594
811.656	0.0155101
811.734	0.0155193
811.812	0.0156621
811.890	0.0156126
811.968	0.0157560
812.046	0.0158234
812.124	0.0157661
812.203	0.0158484
812.281	0.0161592
812.359	0.0161285
812.437	0.0162730
812.515	0.0163026
812.593	0.0163728
812.671	0.0165488
812.749	0.0166319
812.828	0.0167564
812.906	0.0168507
812.984	0.0169366
813.062	0.0169729
813.140	0.0168586
813.218	0.0168801
813.296	0.0169601
813.374	0.0169599
813.453	0.0168121
813.531	0.0168302
813.609	0.0168990
813.687	0.0168521
813.765	0.0169358
813.843	0.0167004
813.921	0.0164814
813.999	0.0167694
814.078	0.0167319
814.156	0.0166000
814.234	0.0166753
814.312	0.0165128
814.390	0.0164609
814.468	0.0166003
814.546	0.0165099
814.624	0.0164462
814.703	0.0165357
814.781	0.0164237
814.859	0.0164062
814.937	0.0164929
815.015	0.0164613
815.093	0.0163562
815.171	0.0162348
815.249	0.0162595
815.328	0.0162416
815.406	0.0162141
815.484	0.0161626
815.562	0.0161514
815.640	0.0161784
815.718	0.0160548
815.796	0.0160786
815.874	0.0161435
815.953	0.0162487
816.031	0.0161610
816.109	0.0161824
816.187	0.0162572
816.265	0.0162321
816.343	0.0162125
816.421	0.0162086
816.499	0.0162265
816.578	0.0162420
816.656	0.0162910
816.734	0.0162141
816.812	0.0162616
816.890	0.0161385
816.968	0.0163953
817.046	0.0163127
817.124	0.0160283
817.203	0.0162154
817.281	0.0160575
817.359	0.0161050
817.437	0.0162626
817.515	0.0160004
817.593	0.0161426
817.671	0.0160971
817.749	0.0158546
817.828	0.0160037
817.906	0.0159744
817.984	0.0159652
818.062	0.0160819
818.140	0.0160695
818.218	0.0162984
818.296	0.0161735
818.374	0.0162650
818.453	0.0164389
818.531	0.0164350
818.609	0.0165109
818.687	0.0165654
818.765	0.0164967
818.843	0.0165273
818.921	0.0165251
818.999	0.0165089
819.078	0.0165777
819.156	0.0165081
819.234	0.0165806
819.312	0.0164869
819.390	0.0163464
819.468	0.0163582
819.546	0.0163754
819.624	0.0163850
819.703	0.0162462
819.781	0.0161161
819.859	0.0162959
819.937	0.0163628
820.015	0.0162653
820.093	0.0162136
820.171	0.0162942
820.249	0.0162584
820.328	0.0163921
820.406	0.0163771
820.484	0.0163741
820.562	0.0164449
820.640	0.0164922
820.718	0.0163574
820.796	0.0164719
820.874	0.0166056
820.953	0.0165208
821.031	0.0164736
821.109	0.0165755
821.187	0.0165657
821.265	0.0164788
821.343	0.0165242
821.421	0.0166020
821.499	0.0164663
821.578	0.0164592
821.656	0.0163851
821.734	0.0163182
821.812	0.0163930
821.890	0.0164449
821.968	0.0163163
822.046	0.0162800
822.124	0.0161089
822.203	0.0162058
822.281	0.0160948
822.359	0.0160547
822.437	0.0159587
822.515	0.0159087
822.593	0.0158054
822.671	0.0158547
822.749	0.0159235
822.828	0.0156981
822.906	0.0156975
822.984	0.0158192
823.062	0.0156358
823.140	0.0154461
823.218	0.0155461
823.296	0.0156229
823.374	0.0157740
823.453	0.0159260
823.531	0.0157848
823.609	0.0159239
823.687	0.0159966
823.765	0.0162598
823.843	0.0163322
823.921	0.0163398
823.999	0.0166026
824.078	0.0165762
824.156	0.0166900
824.234	0.0166441
824.312	0.0168780
824.390	0.0169653
824.468	0.0170612
824.546	0.0169659
824.624	0.0170370
824.703	0.0168741
824.781	0.0169955
824.859	0.0168779
824.937	0.0170693
825.015	0.0168693
825.093	0.0168142
825.171	0.0166628
825.249	0.0168320
825.328	0.0167603
825.406	0.0164108
825.484	0.0163265
825.562	0.0164681
825.640	0.0163799
825.718	0.0163085
825.796	0.0160403
825.874	0.0159837
825.953	0.0160056
826.031	0.0158777
826.109	0.0160001
826.187	0.0159834
826.265	0.0158279
826.343	0.0158310
826.421	0.0159599
826.499	0.0160102
826.578	0.0161996
826.656	0.0160882
826.734	0.0162270
826.812	0.0161083
826.890	0.0161975
826.968	0.0163416
827.046	0.0164104
827.124	0.0164248
827.203	0.0163889
827.281	0.0165997
827.359	0.0164397
827.437	0.0163660
827.515	0.0161740
827.593	0.0161782
827.671	0.0161961
827.749	0.0161852
827.828	0.0160766
827.906	0.0160181
827.984	0.0161350
828.062	0.0160796
828.140	0.0159254
828.218	0.0160426
828.296	0.0158881
828.374	0.0160111
828.453	0.0160821
828.531	0.0160429
828.609	0.0160503
828.687	0.0161645
828.765	0.0161543
828.843	0.0162261
828.921	0.0163399
828.999	0.0163557
829.078	0.0163128
829.156	0.0164343
829.234	0.0166188
829.312	0.0166165
829.390	0.0168205
829.468	0.0168994
829.546	0.0168191
829.624	0.0167950
829.703	0.0169718
829.781	0.0170032
829.859	0.0170330
829.937	0.0169331
830.015	0.0169938
830.093	0.0169661
830.171	0.0169068
830.249	0.0168933
830.328	0.0168919
830.406	0.0168062
830.484	0.0166447
830.562	0.0167867
830.640	0.0167079
830.718	0.0165230
830.796	0.0164521
830.874	0.0163944
830.953	0.0163967
831.031	0.0163026
831.109	0.0160815
831.187	0.0160591
831.265	0.0162119
831.343	0.0159622
831.421	0.0159431
831.499	0.0159739
831.578	0.0159505
831.656	0.0159657
831.734	0.0159196
831.812	0.0160601
831.890	0.0161296
831.968	0.0160062
832.046	0.0161585
832.124	0.0162915
832.203	0.0162162
832.281	0.0163264
832.359	0.0164064
832.437	0.0165193
832.515	0.0164195
832.593	0.0164764
832.671	0.0166064
832.749	0.0165305
832.828	0.0165986
832.906	0.0165033
832.984	0.0164289
833.062	0.0166336
833.140	0.0165668
833.218	0.0165662
833.296	0.0164143
833.374	0.0164085
833.453	0.0164238
833.531	0.0162928
833.609	0.0163636
833.687	0.0163256
833.765	0.0163177
833.843	0.0165308
833.921	0.0164036
833.999	0.0163963
834.078	0.0164082
834.156	0.0164627
834.234	0.0164751
834.312	0.0165769
834.390	0.0167358
834.468	0.0167297
834.546	0.0167606
834.624	0.0167625
834.703	0.0168222
834.781	0.0169260
834.859	0.0167064
834.937	0.0168248
835.015	0.0167571
835.093	0.0167475
835.171	0.0168987
835.249	0.0167651
835.328	0.0167162
835.406	0.0165126
835.484	0.0165137
835.562	0.0163747
835.640	0.0165643
835.718	0.0164975
835.796	0.0162695
835.874	0.0162215
835.953	0.0160656
836.031	0.0161535
836.109	0.0162145
836.187	0.0162099
836.265	0.0159595
836.343	0.0161578
836.421	0.0160930
836.499	0.0161685
836.578	0.0161033
836.656	0.0160607
836.734	0.0162244
836.812	0.0159989
836.890	0.0160822
836.968	0.0160504
837.046	0.0162733
837.124	0.0161237
837.203	0.0162240
837.281	0.0161674
837.359	0.0162862
837.437	0.0164928
837.515	0.0164941
837.593	0.0166875
837.671	0.0165869
837.749	0.0167207
837.828	0.0166474
837.906	0.0166811
837.984	0.0167307
838.062	0.0166502
838.140	0.0167635
838.218	0.0167175
838.296	0.0167615
838.374	0.0169085
838.453	0.0166470
838.531	0.0165828
838.609	0.0165052
838.687	0.0165354
838.765	0.0164767
838.843	0.0163744
838.921	0.0163297
838.999	0.0163277
839.078	0.0162849
839.156	0.0162399
839.234	0.0161871
839.312	0.0161310
839.390	0.0161585
839.468	0.0162263
839.546	0.0161181
839.624	0.0161324
839.703	0.0162206
839.781	0.0162652
839.859	0.0161730
839.937	0.0164711
840.015	0.0163728
840.093	0.0163571
840.171	0.0164215
840.249	0.0164581
840.328	0.0162891
840.406	0.0165503
840.484	0.0164278
840.562	0.0164709
840.640	0.0166666
840.718	0.0167260
840.796	0.0165376
840.874	0.0165805
840.953	0.0166512
841.031	0.0166067
841.109	0.0167145
841.187	0.0166926
841.265	0.0166537
841.343	0.0165345
841.421	0.0166004
841.499	0.0165119
841.578	0.0164828
841.656	0.0163261
841.734	0.0165174
841.812	0.0163052
841.890	0.0162923
841.968	0.0163901
842.046	0.0163258
842.124	0.0163425
842.203	0.0163416
842.281	0.0162889
842.359	0.0163132
842.437	0.0162732
842.515	0.0163737
842.593	0.0162708
842.671	0.0162508
842.749	0.0164458
842.828	0.0163687
842.906	0.0162656
842.984	0.0163588
843.062	0.0163052
843.140	0.0163707
843.218	0.0163630
843.296	0.0163937
843.374	0.0163779
843.453	0.0164758
843.531	0.0164120
843.609	0.0164249
843.687	0.0164214
843.765	0.0164662
843.843	0.0166080
843.921	0.0166186
843.999	0.0164828
844.078	0.0165334
844.156	0.0166695
844.234	0.0165865
844.312	0.0164194
844.390	0.0165652
844.468	0.0163969
844.546	0.0165583
844.624	0.0164059
844.703	0.0164128
844.781	0.0164657
844.859	0.0165295
844.937	0.0164970
845.015	0.0163329
845.093	0.0163280
845.171	0.0164590
845.249	0.0162341
845.328	0.0163307
845.406	0.0164224
845.484	0.0163246
845.562	0.0164047
845.640	0.0163445
845.718	0.0161900
845.796	0.0163288
845.874	0.0164307
845.953	0.0163367
846.031	0.0163064
846.109	0.0164454
846.187	0.0163696
846.265	0.0163971
846.343	0.0164041
846.421	0.0162727
846.499	0.0163752
846.578	0.0163412
846.656	0.0164189
846.734	0.0163406
846.812	0.0164327
846.890	0.0163951
846.968	0.0164169
847.046	0.0163983
847.124	0.0165050
847.203	0.0163868
847.281	0.0165086
847.359	0.0163170
847.437	0.0166975
847.515	0.0166679
847.593	0.0166299
847.671	0.0165990
847.749	0.0165205
847.828	0.0164916
847.906	0.0167556
847.984	0.0165515
848.062	0.0166032
848.140	0.0165231
848.218	0.0165941
848.296	0.0164626
848.374	0.0165022
848.453	0.0162930
848.531	0.0163917
848.609	0.0163387
848.687	0.0163812
848.765	0.0162651
848.843	0.0163142
848.921	0.0161926
848.999	0.0161005
849.078	0.0162382
849.156	0.0161745
849.234	0.0163007
849.312	0.0161238
849.390	0.0161144
849.468	0.0162727
849.546	0.0161448
849.624	0.0163007
849.703	0.0162006
849.781	0.0163064
849.859	0.0164708
849.937	0.0163109
850.015	0.0163235
850.093	0.0165084
850.171	0.0165137
850.249	0.0166571
850.328	0.0166594
850.406	0.0165380
850.484	0.0165486
850.562	0.0166801
850.640	0.0167646
850.718	0.0164849
850.796	0.0165774
850.874	0.0165961
850.953	0.0165277
851.031	0.0165451
851.109	0.0164832
851.187	0.0165121
851.265	0.0163927
851.343	0.0163412
851.421	0.0162566
851.499	0.0164318
851.578	0.0163908
851.656	0.0164431
851.734	0.0164414
851.812	0.0164606
851.890	0.0164523
851.968	0.0166370
852.046	0.0164166
852.124	0.0163830
852.203	0.0166114
852.281	0.0164822
852.359	0.0166245
852.437	0.0165656
852.515	0.0166585
852.593	0.0164941
852.671	0.0167298
852.749	0.0165097
852.828	0.0166553
852.906	0.0165003
852.984	0.0164649
853.062	0.0163261
853.140	0.0164667
853.218	0.0163832
853.296	0.0163351
853.374	0.0163110
853.453	0.0163587
853.531	0.0162919
853.609	0.0163368
853.687	0.0163660
853.765	0.0163201
853.843	0.0162321
853.921	0.0163497
853.999	0.0164688
854.078	0.0164216
854.156	0.0163611
854.234	0.0163935
854.312	0.0164233
854.390	0.0165688
854.468	0.0165352
854.546	0.0165528
854.624	0.0166088
854.703	0.0166528
854.781	0.0166948
854.859	0.0168844
854.937	0.0166343
855.015	0.0165904
855.093	0.0166638
855.171	0.0166439
855.249	0.0167876
855.328	0.0167474
855.406	0.0165145
855.484	0.0165680
855.562	0.0164198
855.640	0.0164932
855.718	0.0163766
855.796	0.0164494
855.874	0.0163617
855.953	0.0163280
856.031	0.0163242
856.109	0.0160803
856.187	0.0161810
856.265	0.0162042
856.343	0.0160266
856.421	0.0161330
856.499	0.0162086
856.578	0.0162492
856.656	0.0161060
856.734	0.0160865
856.812	0.0161161
856.890	0.0162292
856.968	0.0162727
857.046	0.0161189
857.124	0.0163017
857.203	0.0164263
857.281	0.0163011
857.359	0.0163519
857.437	0.0165763
857.515	0.0164073
857.593	0.0164664
857.671	0.0165170
857.749	0.0165854
857.828	0.0165399
857.906	0.0167347
857.984	0.0166434
858.062	0.0166292
858.140	0.0167281
858.218	0.0166582
858.296	0.0167296
858.374	0.0167632
858.453	0.0166944
858.531	0.0167017
858.609	0.0167674
858.687	0.0166476
858.765	0.0165785
858.843	0.0164659
858.921	0.0164680
858.999	0.0165566
859.078	0.0165459
859.156	0.0164501
859.234	0.0163082
859.312	0.0163813
859.390	0.0163276
859.468	0.0162430
859.546	0.0164584
859.624	0.0162762
859.703	0.0161726
859.781	0.0163581
859.859	0.0163668
859.937	0.0163746
860.015	0.0163634
860.093	0.0163058
860.171	0.0162746
860.249	0.0163800
860.328	0.0163844
860.406	0.0163845
860.484	0.0164839
860.562	0.0166475
860.640	0.0164038
860.718	0.0163569
860.796	0.0166565
860.874	0.0165118
860.953	0.0162955
861.031	0.0164413
861.109	0.0164059
861.187	0.0163936
861.265	0.0163904
861.343	0.0164835
861.421	0.0163654
861.499	0.0164939
861.578	0.0164742
861.656	0.0165067
861.734	0.0165684
861.812	0.0164700
861.890	0.0164528
861.968	0.0165382
862.046	0.0165904
862.124	0.0165046
862.203	0.0163660
862.281	0.0163766
862.359	0.0164744
862.437	0.0163425
862.515	0.0163113
862.593	0.0162514
862.671	0.0163451
862.749	0.0162402
862.828	0.0162282
862.906	0.0161304
862.984	0.0163108
863.062	0.0162444
863.140	0.0161391
863.218	0.0161725
863.296	0.0163518
863.374	0.0163897
863.453	0.0162544
863.531	0.0162451
863.609	0.0163988
863.687	0.0163754
863.765	0.0164214
863.843	0.0163493
863.921	0.0164253
863.999	0.0164558
864.078	0.0165314
864.156	0.0164584
864.234	0.0165425
864.312	0.0165641
864.390	0.0165446
864.468	0.0164998
864.546	0.0165339
864.624	0.0166369
864.703	0.0166472
864.781	0.0165366
864.859	0.0166226
864.937	0.0165686
865.015	0.0165160
865.093	0.0165364
865.171	0.0165157
865.249	0.0165443
865.328	0.0165055
865.406	0.0165274
865.484	0.0165501
865.562	0.0164918
865.640	0.0164468
865.718	0.0165108
865.796	0.0164497
865.874	0.0165603
865.953	0.0165237
866.031	0.0166064
866.109	0.0164950
866.187	0.0164633
866.265	0.0164832
866.343	0.0164308
866.421	0.0164757
866.499	0.0163699
866.578	0.0164356
866.656	0.0164124
866.734	0.0164730
866.812	0.0164782
866.890	0.0163152
866.968	0.0164186
867.046	0.0164649
867.124	0.0163110
867.203	0.0162803
867.281	0.0163593
867.359	0.0164971
867.437	0.0164691
867.515	0.0162924
867.593	0.0164079
867.671	0.0163997
867.749	0.0164005
867.828	0.0164076
867.906	0.0164756
867.984	0.0163773
868.062	0.0161977
868.140	0.0163879
868.218	0.0162955
868.296	0.0163304
868.374	0.0163643
868.453	0.0163281
868.531	0.0163608
868.609	0.0163840
868.687	0.0162943
868.765	0.0163459
868.843	0.0164040
868.921	0.0164165
868.999	0.0163914
869.078	0.0164801
869.156	0.0164832
869.234	0.0165151
869.312	0.0166354
869.390	0.0166045
869.468	0.0165521
869.546	0.0166403
869.624	0.0165830
869.703	0.0166078
869.781	0.0166572
869.859	0.0165221
869.937	0.0166330
870.015	0.0165886
870.093	0.0164648
870.171	0.0164183
870.249	0.0164484
870.328	0.0163608
870.406	0.0163765
870.484	0.0163914
870.562	0.0163267
870.640	0.0162743
870.718	0.0164957
870.796	0.0164312
870.874	0.0163005
870.953	0.0163257
871.031	0.0164264
871.109	0.0165848
871.187	0.0166070
871.265	0.0164561
871.343	0.0165235
871.421	0.0166426
871.499	0.0166832
871.578	0.0167132
871.656	0.0165013
871.734	0.0166511
871.812	0.0166491
871.890	0.0166681
871.968	0.0168851
872.046	0.0167691
872.124	0.0165079
872.203	0.0166705
872.281	0.0165485
872.359	0.0165150
872.437	0.0165555
872.515	0.0165010
872.593	0.0165060
872.671	0.0165187
872.749	0.0165021
872.828	0.0165312
872.906	0.0163805
872.984	0.0163880
873.062	0.0164231
873.140	0.0164001
873.218	0.0164233
873.296	0.0163647
873.374	0.0161792
873.453	0.0164228
873.531	0.0163582
873.609	0.0163264
873.687	0.0164311
873.765	0.0162286
873.843	0.0165253
873.921	0.0164484
873.999	0.0163979
874.078	0.0163741
874.156	0.0164400
874.234	0.0164206
874.312	0.0164768
874.390	0.0165121
874.468	0.0164516
874.546	0.0163844
874.624	0.0164200
874.703	0.0162905
874.781	0.0163925
874.859	0.0164389
874.937	0.0162043
875.015	0.0162752
875.093	0.0163555
875.171	0.0163960
875.249	0.0164360
875.328	0.0163224
875.406	0.0163169
875.484	0.0162698
875.562	0.0164718
875.640	0.0163374
875.718	0.0163896
875.796	0.0162805
875.874	0.0164994
875.953	0.0164588
876.031	0.0163653
876.109	0.0164961
876.187	0.0164469
876.265	0.0164764
876.343	0.0165306
876.421	0.0165523
876.499	0.0164485
876.578	0.0164645
876.656	0.0164308
876.734	0.0164703
876.812	0.0165007
876.890	0.0164411
876.968	0.0165491
877.046	0.0166586
877.124	0.0166773
877.203	0.0164213
877.281	0.0165591
877.359	0.0164791
877.437	0.0164614
877.515	0.0165900
877.593	0.0166525
877.671	0.0165472
877.749	0.0164611
877.828	0.0164693
877.906	0.0162488
877.984	0.0162837
878.062	0.0163171
878.140	0.0161488
878.218	0.0162200
878.296	0.0162077
878.374	0.0161926
878.453	0.0160748
878.531	0.0160497
878.609	0.0160836
878.687	0.0161340
878.765	0.0162840
878.843	0.0162178
878.921	0.0160472
878.999	0.0161156
879.078	0.0163168
879.156	0.0163294
879.234	0.0162360
879.312	0.0163163
879.390	0.0162768
879.468	0.0164857
879.546	0.0163735
879.624	0.0165958
879.703	0.0164795
879.781	0.0165138
879.859	0.0164938
879.937	0.0165918
880.015	0.0165454
880.093	0.0167422
880.171	0.0165739
880.249	0.0164615
880.328	0.0163892
880.406	0.0164836
880.484	0.0163903
880.562	0.0163766
880.640	0.0163073
880.718	0.0162582
880.796	0.0162801
880.874	0.0162981
880.953	0.0163470
881.031	0.0162311
881.109	0.0160793
881.187	0.0162579
881.265	0.0162183
881.343	0.0162304
881.421	0.0162308
881.499	0.0162085
881.578	0.0162214
881.656	0.0162032
881.734	0.0161665
881.812	0.0162351
881.890	0.0163180
881.968	0.0163342
882.046	0.0163007
882.124	0.0163497
882.203	0.0163854
882.281	0.0165135
882.359	0.0164359
882.437	0.0165903
882.515	0.0165498
882.593	0.0165451
882.671	0.0164708
882.749	0.0164239
882.828	0.0164443
882.906	0.0165947
882.984	0.0164827
883.062	0.0163533
883.140	0.0163799
883.218	0.0164591
883.296	0.0164420
883.374	0.0164134
883.453	0.0162979
883.531	0.0161958
883.609	0.0164061
883.687	0.0162763
883.765	0.0162802
883.843	0.0163676
883.921	0.0163542
883.999	0.0164170
884.078	0.0161505
884.156	0.0162397
884.234	0.0164812
884.312	0.0163144
884.390	0.0164199
884.468	0.0161654
884.546	0.0162583
884.624	0.0162894
884.703	0.0162446
884.781	0.0163482
884.859	0.0164008
884.937	0.0163168
885.015	0.0162822
885.093	0.0162803
885.171	0.0164038
885.249	0.0163299
885.328	0.0162614
885.406	0.0162205
885.484	0.0162756
885.562	0.0164547
885.640	0.0165565
885.718	0.0164424
885.796	0.0163563
885.874	0.0164871
885.953	0.0164514
886.031	0.0164216
886.109	0.0163611
886.187	0.0164349
886.265	0.0165079
886.343	0.0163449
886.421	0.0163273
886.499	0.0164485
886.578	0.0164622
886.656	0.0164239
886.734	0.0164170
886.812	0.0163445
886.890	0.0164001
886.968	0.0164827
887.046	0.0163937
887.124	0.0164455
887.203	0.0162791
887.281	0.0162968
887.359	0.0164987
887.437	0.0163084
887.515	0.0164455
887.593	0.0163654
887.671	0.0162398
887.749	0.0164837
887.828	0.0163670
887.906	0.0163847
887.984	0.0164488
888.062	0.0163757
888.140	0.0164182
888.218	0.0163007
888.296	0.0163065
888.374	0.0164481
888.453	0.0164739
888.531	0.0164534
888.609	0.0164316
888.687	0.0163253
888.765	0.0165190
888.843	0.0163674
888.921	0.0163076
888.999	0.0164027
889.078	0.0164188
889.156	0.0163546
889.234	0.0163013
889.312	0.0164181
889.390	0.0164308
889.468	0.0164778
889.546	0.0163357
889.624	0.0164480
889.703	0.0164624
889.781	0.0164773
889.859	0.0164128
889.937	0.0164458
890.015	0.0164616
890.093	0.0164749
890.171	0.0164626
890.249	0.0164297
890.328	0.0165160
890.406	0.0164089
890.484	0.0163847
890.562	0.0163339
890.640	0.0164416
890.718	0.0165327
890.796	0.0163850
890.874	0.0163754
890.953	0.0163587
891.031	0.0163312
891.109	0.0165207
891.187	0.0162329
891.265	0.0161949
891.343	0.0164169
891.421	0.0162354
891.499	0.0162664
891.578	0.0162755
891.656	0.0164701
891.734	0.0163319
891.812	0.0163370
891.890	0.0163948
891.968	0.0165025
892.046	0.0164947
892.124	0.0164854
892.203	0.0164365
892.281	0.0163850
892.359	0.0165558
892.437	0.0164682
892.515	0.0162730
892.593	0.0164661
892.671	0.0165466
892.749	0.0164456
892.828	0.0164223
892.906	0.0163157
892.984	0.0163205
893.062	0.0163762
893.140	0.0163466
893.218	0.0162939
893.296	0.0164449
893.374	0.0163496
893.453	0.0163372
893.531	0.0162598
893.609	0.0163284
893.687	0.0163948
893.765	0.0163107
893.843	0.0163412
893.921	0.0163781
893.999	0.0164532
894.078	0.0163457
894.156	0.0163177
894.234	0.0163808
894.312	0.0164143
894.390	0.0164052
894.468	0.0164156
894.546	0.0164852
894.624	0.0164960
894.703	0.0164619
894.781	0.0164471
894.859	0.0165519
894.937	0.0165125
895.015	0.0165178
895.093	0.0166633
895.171	0.0164000
895.249	0.0164681
895.328	0.0165643
895.406	0.0165501
895.484	0.0165329
895.562	0.0164935
895.640	0.0163799
895.718	0.0162923
895.796	0.0164395
895.874	0.0163993
895.953	0.0164671
896.031	0.0164973
896.109	0.0163564
896.187	0.0163837
896.265	0.0164225
896.343	0.0162070
896.421	0.0162983
896.499	0.0163322
896.578	0.0161880
896.656	0.0162607
896.734	0.0163722
896.812	0.0164630
896.890	0.0163802
896.968	0.0164159
897.046	0.0164979
897.124	0.0163370
897.203	0.0165388
897.281	0.0164825
897.359	0.0163796
897.437	0.0165970
897.515	0.0164902
897.593	0.0164130
897.671	0.0165377
897.749	0.0164749
897.828	0.0165276
897.906	0.0164017
897.984	0.0164303
898.062	0.0164499
898.140	0.0166132
898.218	0.0164181
898.296	0.0164006
898.374	0.0163747
898.453	0.0163779
898.531	0.0164518
898.609	0.0163917
898.687	0.0163931
898.765	0.0164339
898.843	0.0165193
898.921	0.0163815
898.999	0.0163995
899.078	0.0165592
899.156	0.0162550
899.234	0.0162300
899.312	0.0163083
899.390	0.0163373
899.468	0.0165801
899.546	0.0163769
899.624	0.0163407
899.703	0.0163888
899.781	0.0163950
899.859	0.0163507
899.937	0.0165094
900.015	0.0164011
900.093	0.0163820
900.171	0.0164800
900.249	0.0164886
900.328	0.0164834
900.406	0.0164890
900.484	0.0164260
900.562	0.0163157
900.640	0.0164358
900.718	0.0164033
900.796	0.0165774
900.874	0.0164874
900.953	0.0163303
901.031	0.0163632
901.109	0.0163471
901.187	0.0162413
901.265	0.0162671
901.343	0.0163592
901.421	0.0162827
901.499	0.0162902
901.578	0.0161565
901.656	0.0161215
901.734	0.0162249
901.812	0.0160310
901.890	0.0160485
901.968	0.0160399
902.046	0.0159783
902.124	0.0159955
902.203	0.0160655
902.281	0.0157551
902.359	0.0159668
902.437	0.0159837
902.515	0.0160760
902.593	0.0160484
902.671	0.0161842
902.749	0.0162779
902.828	0.0162416
902.906	0.0161879
902.984	0.0163046
903.062	0.0164334
903.140	0.0162795
903.218	0.0164862
903.296	0.0164539
903.374	0.0164375
903.453	0.0165353
903.531	0.0165633
903.609	0.0165335
903.687	0.0165347
903.765	0.0165348
903.843	0.0165150
903.921	0.0166429
903.999	0.0163939
904.078	0.0162582
904.156	0.0164704
904.234	0.0165308
904.312	0.0166057
904.390	0.0164340
904.468	0.0163555
904.546	0.0164375
904.624	0.0164752
904.703	0.0164312
904.781	0.0165031
904.859	0.0165421
904.937	0.0163338
905.015	0.0165176
905.093	0.0164014
905.171	0.0165767
905.249	0.0165282
905.328	0.0165128
905.406	0.0164845
905.484	0.0165156
905.562	0.0164109
905.640	0.0163277
905.718	0.0163414
905.796	0.0164409
905.874	0.0163862
905.953	0.0163914
906.031	0.0162386
906.109	0.0162034
906.187	0.0163868
906.265	0.0162896
906.343	0.0163191
906.421	0.0163499
906.499	0.0162116
906.578	0.0161537
906.656	0.0162798
906.734	0.0162837
906.812	0.0164074
906.890	0.0163096
906.968	0.0161794
907.046	0.0163202
907.124	0.0165018
907.203	0.0163882
907.281	0.0164391
907.359	0.0164322
907.437	0.0164129
907.515	0.0163840
907.593	0.0162817
907.671	0.0163687
907.749	0.0162907
907.828	0.0161873
907.906	0.0162696
907.984	0.0162735
908.062	0.0162109
908.140	0.0161641
908.218	0.0160513
908.296	0.0160479
908.374	0.0160781
908.453	0.0161392
908.531	0.0161791
908.609	0.0160979
908.687	0.0161470
908.765	0.0161115
908.843	0.0162538
908.921	0.0162474
908.999	0.0161711
909.078	0.0163316
909.156	0.0163757
909.234	0.0164647
909.312	0.0164144
909.390	0.0163822
909.468	0.0165646
909.546	0.0165953
909.624	0.0165025
909.703	0.0165769
909.781	0.0166415
909.859	0.0165129
909.937	0.0166668
910.015	0.0166057
910.093	0.0164676
910.171	0.0164834
910.249	0.0165253
910.328	0.0165424
910.406	0.0165754
910.484	0.0165554
910.562	0.0163712
910.640	0.0165403
910.718	0.0165058
910.796	0.0165920
910.874	0.0165894
910.953	0.0164773
911.031	0.0165493
911.109	0.0164439
911.187	0.0165167
911.265	0.0165572
911.343	0.0164243
911.421	0.0165051
911.499	0.0164780
911.578	0.0164309
911.656	0.0163989
911.734	0.0164645
911.812	0.0164381
911.890	0.0162523
911.968	0.0164488
912.046	0.0163534
912.124	0.0163184
912.203	0.0164332
912.281	0.0162135
912.359	0.0162248
912.437	0.0162151
912.515	0.0162187
912.593	0.0162366
912.671	0.0162143
912.749	0.0161890
912.828	0.0161049
912.906	0.0162213
912.984	0.0161877
913.062	0.0161017
913.140	0.0162142
913.218	0.0161681
913.296	0.0161661
913.374	0.0163102
913.453	0.0162453
913.531	0.0161740
913.609	0.0161286
913.687	0.0161520
913.765	0.0162221
913.843	0.0162137
913.921	0.0161317
913.999	0.0161703
914.078	0.0161614
914.156	0.0161550
914.234	0.0162312
914.312	0.0161084
914.390	0.0161864
914.468	0.0162527
914.546	0.0163050
914.624	0.0162251
914.703	0.0163560
914.781	0.0162363
914.859	0.0162738
914.937	0.0164133
915.015	0.0164641
915.093	0.0165333
915.171	0.0164040
915.249	0.0165275
915.328	0.0165411
915.406	0.0166570
915.484	0.0165694
915.562	0.0166237
915.640	0.0165403
915.718	0.0166964
915.796	0.0167084
915.874	0.0165657
915.953	0.0166840
916.031	0.0167928
916.109	0.0166656
916.187	0.0165697
916.265	0.0168195
916.343	0.0167081
916.421	0.0166695
916.499	0.0166679
916.578	0.0166566
916.656	0.0167016
916.734	0.0167300
916.812	0.0164954
916.890	0.0164671
916.968	0.0165963
917.046	0.0164845
917.124	0.0165766
917.203	0.0165935
917.281	0.0166264
917.359	0.0165769
917.437	0.0166007
917.515	0.0165277
917.593	0.0163961
917.671	0.0166686
917.749	0.0166127
917.828	0.0164740
917.906	0.0163755
917.984	0.0163515
918.062	0.0165108
918.140	0.0163635
918.218	0.0163672
918.296	0.0162230
918.374	0.0163596
918.453	0.0163428
918.531	0.0162867
918.609	0.0163110
918.687	0.0163780
918.765	0.0163058
918.843	0.0162456
918.921	0.0162667
918.999	0.0163383
919.078	0.0161775
919.156	0.0161601
919.234	0.0161994
919.312	0.0160802
919.390	0.0161118
919.468	0.0160007
919.546	0.0162345
919.624	0.0162029
919.703	0.0161729
919.781	0.0160995
919.859	0.0161282
919.937	0.0163681
