06/10/2022	16:40:08	Ver.	4.1	UNKNOWN
Optical Delay	600.015094	Delta X		0.078125	Sweeps	1	Scan Rate	0/0
Coordinates	Axis 1	NaN	Axis 2	NaN	Axis 3	NaN	Axis 4	NaN	Axis 5	NaN	Axis 6	0.000000
TX Power	0.000000	RX Power	0.000000

600.015	0.0165871
600.093	0.0166744
600.171	0.0167618
600.249	0.0167858
600.328	0.0166972
600.406	0.0165987
600.484	0.0166467
600.562	0.0167552
600.640	0.0167625
600.718	0.0166329
600.796	0.0166296
600.874	0.0165880
600.953	0.0166883
601.031	0.0166792
601.109	0.0166981
601.187	0.0165136
601.265	0.0165628
601.343	0.0166805
601.421	0.0165607
601.499	0.0164968
601.578	0.0166693
601.656	0.0165082
601.734	0.0165041
601.812	0.0164769
601.890	0.0164712
601.968	0.0165785
602.046	0.0164967
602.124	0.0165482
602.203	0.0164799
602.281	0.0165342
602.359	0.0167186
602.437	0.0168417
602.515	0.0164880
602.593	0.0164194
602.671	0.0165494
602.749	0.0166712
602.828	0.0165112
602.906	0.0164658
602.984	0.0166718
603.062	0.0165792
603.140	0.0166087
603.218	0.0167551
603.296	0.0165620
603.374	0.0165253
603.453	0.0164048
603.531	0.0165067
603.609	0.0165425
603.687	0.0165071
603.765	0.0166323
603.843	0.0166000
603.921	0.0163803
603.999	0.0164462
604.078	0.0165564
604.156	0.0165815
604.234	0.0165244
604.312	0.0165527
604.390	0.0164651
604.468	0.0165791
604.546	0.0165594
604.624	0.0164670
604.703	0.0165118
604.781	0.0164464
604.859	0.0163728
604.937	0.0165038
605.015	0.0164927
605.093	0.0165675
605.171	0.0165435
605.249	0.0164091
605.328	0.0164371
605.406	0.0164371
605.484	0.0165353
605.562	0.0165235
605.640	0.0165466
605.718	0.0163798
605.796	0.0164344
605.874	0.0165004
605.953	0.0164720
606.031	0.0165683
606.109	0.0164843
606.187	0.0164146
606.265	0.0165749
606.343	0.0164657
606.421	0.0164995
606.499	0.0165353
606.578	0.0166042
606.656	0.0165550
606.734	0.0164822
606.812	0.0164476
606.890	0.0165578
606.968	0.0165194
607.046	0.0164237
607.124	0.0165368
607.203	0.0164401
607.281	0.0165444
607.359	0.0163998
607.437	0.0165560
607.515	0.0164922
607.593	0.0165118
607.671	0.0164043
607.749	0.0166005
607.828	0.0166002
607.906	0.0164851
607.984	0.0166058
608.062	0.0165636
608.140	0.0164583
608.218	0.0164605
608.296	0.0165975
608.374	0.0167291
608.453	0.0167059
608.531	0.0166181
608.609	0.0165771
608.687	0.0166072
608.765	0.0166371
608.843	0.0166496
608.921	0.0166411
608.999	0.0166035
609.078	0.0164419
609.156	0.0166711
609.234	0.0165875
609.312	0.0167484
609.390	0.0165749
609.468	0.0165921
609.546	0.0168258
609.624	0.0166675
609.703	0.0166763
609.781	0.0166026
609.859	0.0165795
609.937	0.0165633
610.015	0.0166845
610.093	0.0165641
610.171	0.0166158
610.249	0.0166557
610.328	0.0165279
610.406	0.0165622
610.484	0.0167401
610.562	0.0166978
610.640	0.0165916
610.718	0.0165938
610.796	0.0165817
610.874	0.0165284
610.953	0.0164476
611.031	0.0165250
611.109	0.0165498
611.187	0.0164907
611.265	0.0165562
611.343	0.0164545
611.421	0.0164742
611.499	0.0165982
611.578	0.0165660
611.656	0.0165659
611.734	0.0164599
611.812	0.0165064
611.890	0.0165601
611.968	0.0165630
612.046	0.0165114
612.124	0.0165883
612.203	0.0164243
612.281	0.0165814
612.359	0.0164011
612.437	0.0165411
612.515	0.0165327
612.593	0.0164289
612.671	0.0163307
612.749	0.0165567
612.828	0.0163647
612.906	0.0164039
612.984	0.0164145
613.062	0.0164683
613.140	0.0164645
613.218	0.0164365
613.296	0.0164565
613.374	0.0164268
613.453	0.0165238
613.531	0.0164143
613.609	0.0163689
613.687	0.0165115
613.765	0.0163902
613.843	0.0163815
613.921	0.0165604
613.999	0.0163907
614.078	0.0164280
614.156	0.0163921
614.234	0.0164111
614.312	0.0165444
614.390	0.0164999
614.468	0.0164783
614.546	0.0164993
614.624	0.0164722
614.703	0.0164227
614.781	0.0165321
614.859	0.0165231
614.937	0.0164571
615.015	0.0165496
615.093	0.0166563
615.171	0.0164969
615.249	0.0165659
615.328	0.0164844
615.406	0.0164510
615.484	0.0164536
615.562	0.0165349
615.640	0.0164301
615.718	0.0164814
615.796	0.0163966
615.874	0.0163535
615.953	0.0163977
616.031	0.0163397
616.109	0.0165150
616.187	0.0164430
616.265	0.0164765
616.343	0.0163864
616.421	0.0165380
616.499	0.0165805
616.578	0.0164198
616.656	0.0164205
616.734	0.0164400
616.812	0.0166560
616.890	0.0166340
616.968	0.0163931
617.046	0.0165280
617.124	0.0164720
617.203	0.0164678
617.281	0.0167079
617.359	0.0164831
617.437	0.0164491
617.515	0.0164790
617.593	0.0164676
617.671	0.0166146
617.749	0.0165314
617.828	0.0166922
617.906	0.0164242
617.984	0.0165460
618.062	0.0165279
618.140	0.0164915
618.218	0.0165130
618.296	0.0165011
618.374	0.0164378
618.453	0.0165475
618.531	0.0165430
618.609	0.0163961
618.687	0.0166333
618.765	0.0167248
618.843	0.0164368
618.921	0.0165377
618.999	0.0166694
619.078	0.0167622
619.156	0.0164479
619.234	0.0166392
619.312	0.0166634
619.390	0.0167114
619.468	0.0165926
619.546	0.0165692
619.624	0.0166440
619.703	0.0165566
619.781	0.0164331
619.859	0.0167165
619.937	0.0166376
620.015	0.0165351
620.093	0.0165376
620.171	0.0166032
620.249	0.0165398
620.328	0.0166228
620.406	0.0166073
620.484	0.0166466
620.562	0.0164736
620.640	0.0166930
620.718	0.0165253
620.796	0.0165399
620.874	0.0165697
620.953	0.0164981
621.031	0.0164639
621.109	0.0166022
621.187	0.0165232
621.265	0.0166196
621.343	0.0165336
621.421	0.0165222
621.499	0.0166374
621.578	0.0165895
621.656	0.0166499
621.734	0.0166275
621.812	0.0165569
621.890	0.0166891
621.968	0.0165799
622.046	0.0165701
622.124	0.0166908
622.203	0.0166861
622.281	0.0165308
622.359	0.0165915
622.437	0.0166335
622.515	0.0166113
622.593	0.0164854
622.671	0.0163189
622.749	0.0165302
622.828	0.0165517
622.906	0.0165492
622.984	0.0165971
623.062	0.0166307
623.140	0.0167047
623.218	0.0165356
623.296	0.0165631
623.374	0.0166101
623.453	0.0166525
623.531	0.0165202
623.609	0.0165452
623.687	0.0165012
623.765	0.0166308
623.843	0.0166738
623.921	0.0166129
623.999	0.0165379
624.078	0.0166941
624.156	0.0165701
624.234	0.0164339
624.312	0.0166296
624.390	0.0165154
624.468	0.0165472
624.546	0.0165477
624.624	0.0166460
624.703	0.0164401
624.781	0.0165362
624.859	0.0166286
624.937	0.0165087
625.015	0.0165173
625.093	0.0165593
625.171	0.0165337
625.249	0.0166579
625.328	0.0164562
625.406	0.0165897
625.484	0.0165994
625.562	0.0163268
625.640	0.0164613
625.718	0.0165505
625.796	0.0167145
625.874	0.0165929
625.953	0.0165491
626.031	0.0166235
626.109	0.0165260
626.187	0.0166094
626.265	0.0164461
626.343	0.0164333
626.421	0.0165268
626.499	0.0165317
626.578	0.0164407
626.656	0.0166460
626.734	0.0165115
626.812	0.0165205
626.890	0.0165639
626.968	0.0164758
627.046	0.0165096
627.124	0.0164577
627.203	0.0165716
627.281	0.0166717
627.359	0.0165657
627.437	0.0163685
627.515	0.0164732
627.593	0.0167041
627.671	0.0165810
627.749	0.0163898
627.828	0.0165337
627.906	0.0164411
627.984	0.0165297
628.062	0.0165401
628.140	0.0164697
628.218	0.0164859
628.296	0.0165416
628.374	0.0165125
628.453	0.0165878
628.531	0.0166816
628.609	0.0165420
628.687	0.0164729
628.765	0.0165395
628.843	0.0166135
628.921	0.0164450
628.999	0.0164410
629.078	0.0164906
629.156	0.0167136
629.234	0.0165015
629.312	0.0164407
629.390	0.0165192
629.468	0.0164287
629.546	0.0164749
629.624	0.0165530
629.703	0.0166646
629.781	0.0164953
629.859	0.0165578
629.937	0.0165655
630.015	0.0165671
630.093	0.0165602
630.171	0.0165849
630.249	0.0165239
630.328	0.0164349
630.406	0.0164716
630.484	0.0164942
630.562	0.0164854
630.640	0.0166142
630.718	0.0166219
630.796	0.0165977
630.874	0.0165282
630.953	0.0166781
631.031	0.0166206
631.109	0.0165696
631.187	0.0166046
631.265	0.0166352
631.343	0.0166245
631.421	0.0165206
631.499	0.0165118
631.578	0.0165635
631.656	0.0166163
631.734	0.0166048
631.812	0.0165278
631.890	0.0165203
631.968	0.0166289
632.046	0.0165866
632.124	0.0164545
632.203	0.0164954
632.281	0.0164658
632.359	0.0166717
632.437	0.0165903
632.515	0.0165392
632.593	0.0165028
632.671	0.0165261
632.749	0.0164398
632.828	0.0164418
632.906	0.0164417
632.984	0.0165839
633.062	0.0165571
633.140	0.0165127
633.218	0.0164487
633.296	0.0165997
633.374	0.0167346
633.453	0.0165028
633.531	0.0164615
633.609	0.0165220
633.687	0.0166889
633.765	0.0164934
633.843	0.0166160
633.921	0.0167048
633.999	0.0166720
634.078	0.0165234
634.156	0.0165449
634.234	0.0166496
634.312	0.0164790
634.390	0.0165302
634.468	0.0166348
634.546	0.0165383
634.624	0.0165755
634.703	0.0167171
634.781	0.0166295
634.859	0.0166320
634.937	0.0165876
635.015	0.0165408
635.093	0.0166043
635.171	0.0166794
635.249	0.0165684
635.328	0.0165630
635.406	0.0165420
635.484	0.0167348
635.562	0.0164675
635.640	0.0164892
635.718	0.0165678
635.796	0.0164856
635.874	0.0166560
635.953	0.0164079
636.031	0.0165399
636.109	0.0166102
636.187	0.0165506
636.265	0.0165347
636.343	0.0166173
636.421	0.0166051
636.499	0.0166405
636.578	0.0165900
636.656	0.0164809
636.734	0.0164425
636.812	0.0165437
636.890	0.0166473
636.968	0.0165803
637.046	0.0166888
637.124	0.0167231
637.203	0.0164811
637.281	0.0165299
637.359	0.0165149
637.437	0.0164842
637.515	0.0165293
637.593	0.0165637
637.671	0.0164434
637.749	0.0164065
637.828	0.0164869
637.906	0.0166704
637.984	0.0165305
638.062	0.0165515
638.140	0.0165814
638.218	0.0165565
638.296	0.0164697
638.374	0.0164513
638.453	0.0164926
638.531	0.0165688
638.609	0.0165173
638.687	0.0164568
638.765	0.0165957
638.843	0.0164664
638.921	0.0163343
638.999	0.0165315
639.078	0.0164622
639.156	0.0165791
639.234	0.0165567
639.312	0.0164497
639.390	0.0164744
639.468	0.0165308
639.546	0.0165352
639.624	0.0164853
639.703	0.0164452
639.781	0.0165701
639.859	0.0164668
639.937	0.0164490
640.015	0.0165290
640.093	0.0165121
640.171	0.0164229
640.249	0.0164823
640.328	0.0163933
640.406	0.0166029
640.484	0.0165431
640.562	0.0164777
640.640	0.0164977
640.718	0.0165022
640.796	0.0164481
640.874	0.0163752
640.953	0.0164595
641.031	0.0163768
641.109	0.0162977
641.187	0.0164050
641.265	0.0164039
641.343	0.0164436
641.421	0.0163864
641.499	0.0165139
641.578	0.0163874
641.656	0.0163873
641.734	0.0163950
641.812	0.0163646
641.890	0.0163708
641.968	0.0164984
642.046	0.0164727
642.124	0.0163939
642.203	0.0165704
642.281	0.0163870
642.359	0.0163968
642.437	0.0164469
642.515	0.0163457
642.593	0.0162748
642.671	0.0163985
642.749	0.0164902
642.828	0.0163946
642.906	0.0164552
642.984	0.0164824
643.062	0.0163281
643.140	0.0163647
643.218	0.0163307
643.296	0.0163461
643.374	0.0162909
643.453	0.0164354
643.531	0.0163845
643.609	0.0162324
643.687	0.0163947
643.765	0.0163754
643.843	0.0163536
643.921	0.0163834
643.999	0.0163532
644.078	0.0162688
644.156	0.0165022
644.234	0.0162906
644.312	0.0163582
644.390	0.0162174
644.468	0.0163927
644.546	0.0164896
644.624	0.0164229
644.703	0.0162642
644.781	0.0162686
644.859	0.0162570
644.937	0.0164008
645.015	0.0162794
645.093	0.0164664
645.171	0.0163798
645.249	0.0164029
645.328	0.0162904
645.406	0.0163648
645.484	0.0165539
645.562	0.0164269
645.640	0.0163638
645.718	0.0163540
645.796	0.0164288
645.874	0.0164521
645.953	0.0164196
646.031	0.0164390
646.109	0.0164822
646.187	0.0164438
646.265	0.0163797
646.343	0.0164675
646.421	0.0165364
646.499	0.0164790
646.578	0.0165119
646.656	0.0164957
646.734	0.0163872
646.812	0.0165365
646.890	0.0164199
646.968	0.0163861
647.046	0.0165325
647.124	0.0165851
647.203	0.0164915
647.281	0.0164820
647.359	0.0163860
647.437	0.0164204
647.515	0.0164906
647.593	0.0164944
647.671	0.0164770
647.749	0.0166323
647.828	0.0167190
647.906	0.0165754
647.984	0.0164655
648.062	0.0164771
648.140	0.0167089
648.218	0.0166707
648.296	0.0163543
648.374	0.0164707
648.453	0.0164668
648.531	0.0164756
648.609	0.0166533
648.687	0.0165919
648.765	0.0165151
648.843	0.0163924
648.921	0.0165192
648.999	0.0164676
649.078	0.0165214
649.156	0.0165921
649.234	0.0165583
649.312	0.0165693
649.390	0.0165830
649.468	0.0166270
649.546	0.0164619
649.624	0.0164752
649.703	0.0165511
649.781	0.0164097
649.859	0.0164904
649.937	0.0165424
650.015	0.0165634
650.093	0.0166291
650.171	0.0165318
650.249	0.0166025
650.328	0.0165667
650.406	0.0164934
650.484	0.0165985
650.562	0.0164962
650.640	0.0166765
650.718	0.0165937
650.796	0.0164471
650.874	0.0166746
650.953	0.0165779
651.031	0.0164005
651.109	0.0164391
651.187	0.0165665
651.265	0.0165841
651.343	0.0166037
651.421	0.0165480
651.499	0.0165354
651.578	0.0165079
651.656	0.0165168
651.734	0.0164115
651.812	0.0166683
651.890	0.0166071
651.968	0.0165742
652.046	0.0165240
652.124	0.0164486
652.203	0.0165481
652.281	0.0164873
652.359	0.0165362
652.437	0.0164183
652.515	0.0167149
652.593	0.0165244
652.671	0.0164294
652.749	0.0166125
652.828	0.0164983
652.906	0.0164162
652.984	0.0164582
653.062	0.0165401
653.140	0.0165550
653.218	0.0165356
653.296	0.0164787
653.374	0.0165638
653.453	0.0166306
653.531	0.0165911
653.609	0.0164922
653.687	0.0165077
653.765	0.0164648
653.843	0.0165838
653.921	0.0166532
653.999	0.0165105
654.078	0.0164450
654.156	0.0164796
654.234	0.0164344
654.312	0.0164895
654.390	0.0164796
654.468	0.0165241
654.546	0.0166264
654.624	0.0164067
654.703	0.0164165
654.781	0.0166431
654.859	0.0166215
654.937	0.0164874
655.015	0.0164970
655.093	0.0164359
655.171	0.0164969
655.249	0.0164874
655.328	0.0164841
655.406	0.0164704
655.484	0.0164542
655.562	0.0163134
655.640	0.0166397
655.718	0.0165918
655.796	0.0165514
655.874	0.0165844
655.953	0.0165845
656.031	0.0163988
656.109	0.0164959
656.187	0.0165336
656.265	0.0165871
656.343	0.0166174
656.421	0.0165768
656.499	0.0164064
656.578	0.0165958
656.656	0.0166273
656.734	0.0165353
656.812	0.0165585
656.890	0.0165634
656.968	0.0167848
657.046	0.0166071
657.124	0.0165009
657.203	0.0165657
657.281	0.0165950
657.359	0.0165351
657.437	0.0164959
657.515	0.0164834
657.593	0.0166048
657.671	0.0166338
657.749	0.0165187
657.828	0.0165817
657.906	0.0165855
657.984	0.0166451
658.062	0.0165689
658.140	0.0165727
658.218	0.0164923
658.296	0.0165465
658.374	0.0166544
658.453	0.0165977
658.531	0.0166874
658.609	0.0166063
658.687	0.0166124
658.765	0.0167246
658.843	0.0167875
658.921	0.0165942
658.999	0.0165330
659.078	0.0165005
659.156	0.0164996
659.234	0.0166975
659.312	0.0165871
659.390	0.0164923
659.468	0.0165852
659.546	0.0166153
659.624	0.0165910
659.703	0.0165916
659.781	0.0165591
659.859	0.0166885
659.937	0.0165989
660.015	0.0165582
660.093	0.0166380
660.171	0.0165483
660.249	0.0166933
660.328	0.0165790
660.406	0.0165910
660.484	0.0165615
660.562	0.0165987
660.640	0.0166105
660.718	0.0165799
660.796	0.0164436
660.874	0.0166512
660.953	0.0165326
661.031	0.0166692
661.109	0.0164706
661.187	0.0164727
661.265	0.0164635
661.343	0.0165835
661.421	0.0166046
661.499	0.0165863
661.578	0.0165238
661.656	0.0166293
661.734	0.0164529
661.812	0.0165670
661.890	0.0164787
661.968	0.0163801
662.046	0.0165868
662.124	0.0164262
662.203	0.0164279
662.281	0.0164294
662.359	0.0165315
662.437	0.0165068
662.515	0.0164241
662.593	0.0165732
662.671	0.0163906
662.749	0.0165110
662.828	0.0164663
662.906	0.0164915
662.984	0.0165233
663.062	0.0164433
663.140	0.0165524
663.218	0.0164417
663.296	0.0164803
663.374	0.0165285
663.453	0.0164231
663.531	0.0165246
663.609	0.0164542
663.687	0.0163565
663.765	0.0163992
663.843	0.0163813
663.921	0.0165659
663.999	0.0165201
664.078	0.0163474
664.156	0.0164297
664.234	0.0164268
664.312	0.0164190
664.390	0.0163829
664.468	0.0164179
664.546	0.0165027
664.624	0.0164709
664.703	0.0163935
664.781	0.0165159
664.859	0.0164191
664.937	0.0164647
665.015	0.0164233
665.093	0.0164432
665.171	0.0163629
665.249	0.0164802
665.328	0.0165570
665.406	0.0163895
665.484	0.0164622
665.562	0.0163406
665.640	0.0163960
665.718	0.0164530
665.796	0.0162549
665.874	0.0163884
665.953	0.0164146
666.031	0.0164959
666.109	0.0164021
666.187	0.0164478
666.265	0.0165257
666.343	0.0164611
666.421	0.0164982
666.499	0.0163349
666.578	0.0162767
666.656	0.0164806
666.734	0.0164753
666.812	0.0165138
666.890	0.0165154
666.968	0.0164742
667.046	0.0162454
667.124	0.0164759
667.203	0.0164109
667.281	0.0165972
667.359	0.0165968
667.437	0.0163615
667.515	0.0164641
667.593	0.0164610
667.671	0.0163596
667.749	0.0163457
667.828	0.0164346
667.906	0.0166068
667.984	0.0165128
668.062	0.0165034
668.140	0.0165597
668.218	0.0164573
668.296	0.0165247
668.374	0.0165334
668.453	0.0163545
668.531	0.0164199
668.609	0.0164352
668.687	0.0164484
668.765	0.0164591
668.843	0.0163981
668.921	0.0165179
668.999	0.0165711
669.078	0.0164138
669.156	0.0164426
669.234	0.0164355
669.312	0.0164254
669.390	0.0164109
669.468	0.0164888
669.546	0.0164613
669.624	0.0165883
669.703	0.0164178
669.781	0.0165397
669.859	0.0165229
669.937	0.0165900
670.015	0.0164326
670.093	0.0164928
670.171	0.0165708
670.249	0.0165450
670.328	0.0165202
670.406	0.0165652
670.484	0.0165502
670.562	0.0165404
670.640	0.0165244
670.718	0.0164909
670.796	0.0165714
670.874	0.0164982
670.953	0.0165221
671.031	0.0165987
671.109	0.0165916
671.187	0.0164819
671.265	0.0164182
671.343	0.0162975
671.421	0.0165426
671.499	0.0167003
671.578	0.0165162
671.656	0.0164629
671.734	0.0166270
671.812	0.0165524
671.890	0.0163962
671.968	0.0166923
672.046	0.0167037
672.124	0.0166183
672.203	0.0165376
672.281	0.0163468
672.359	0.0165769
672.437	0.0164621
672.515	0.0165114
672.593	0.0165061
672.671	0.0165450
672.749	0.0166058
672.828	0.0164851
672.906	0.0165263
672.984	0.0165749
673.062	0.0165546
673.140	0.0165685
673.218	0.0165152
673.296	0.0166142
673.374	0.0166508
673.453	0.0165278
673.531	0.0165889
673.609	0.0165477
673.687	0.0166705
673.765	0.0165707
673.843	0.0165302
673.921	0.0165338
673.999	0.0165990
674.078	0.0166237
674.156	0.0166504
674.234	0.0164818
674.312	0.0166733
674.390	0.0165687
674.468	0.0166064
674.546	0.0165189
674.624	0.0167319
674.703	0.0167276
674.781	0.0166832
674.859	0.0166378
674.937	0.0166061
675.015	0.0166682
675.093	0.0167486
675.171	0.0167553
675.249	0.0165677
675.328	0.0164915
675.406	0.0165755
675.484	0.0166068
675.562	0.0166662
675.640	0.0166090
675.718	0.0164710
675.796	0.0164194
675.874	0.0166032
675.953	0.0166183
676.031	0.0165719
676.109	0.0165610
676.187	0.0165909
676.265	0.0166879
676.343	0.0165662
676.421	0.0164112
676.499	0.0166357
676.578	0.0166412
676.656	0.0165540
676.734	0.0164798
676.812	0.0165160
676.890	0.0165611
676.968	0.0166135
677.046	0.0167472
677.124	0.0164750
677.203	0.0163345
677.281	0.0165823
677.359	0.0165650
677.437	0.0165807
677.515	0.0165557
677.593	0.0165517
677.671	0.0164515
677.749	0.0164978
677.828	0.0164970
677.906	0.0165260
677.984	0.0164101
678.062	0.0165317
678.140	0.0164322
678.218	0.0164957
678.296	0.0165162
678.374	0.0165501
678.453	0.0165017
678.531	0.0165994
678.609	0.0165726
678.687	0.0164755
678.765	0.0166351
678.843	0.0165553
678.921	0.0165559
678.999	0.0165208
679.078	0.0166442
679.156	0.0166908
679.234	0.0165386
679.312	0.0166243
679.390	0.0167786
679.468	0.0166648
679.546	0.0166582
679.624	0.0165535
679.703	0.0164968
679.781	0.0166918
679.859	0.0166237
679.937	0.0166136
680.015	0.0165092
680.093	0.0165624
680.171	0.0165830
680.249	0.0166049
680.328	0.0166019
680.406	0.0166334
680.484	0.0166635
680.562	0.0165952
680.640	0.0166216
680.718	0.0166020
680.796	0.0165851
680.874	0.0165810
680.953	0.0165643
681.031	0.0164704
681.109	0.0166038
681.187	0.0166116
681.265	0.0165788
681.343	0.0165208
681.421	0.0167390
681.499	0.0166543
681.578	0.0165952
681.656	0.0165079
681.734	0.0163872
681.812	0.0166994
681.890	0.0166615
681.968	0.0166411
682.046	0.0164831
682.124	0.0165726
682.203	0.0167393
682.281	0.0166360
682.359	0.0166290
682.437	0.0165965
682.515	0.0167244
682.593	0.0166901
682.671	0.0165565
682.749	0.0166853
682.828	0.0166839
682.906	0.0166259
682.984	0.0166638
683.062	0.0165587
683.140	0.0166125
683.218	0.0167374
683.296	0.0165971
683.374	0.0165961
683.453	0.0166805
683.531	0.0167097
683.609	0.0167158
683.687	0.0166553
683.765	0.0165839
683.843	0.0167059
683.921	0.0165955
683.999	0.0165289
684.078	0.0165893
684.156	0.0165366
684.234	0.0167322
684.312	0.0166429
684.390	0.0165365
684.468	0.0165566
684.546	0.0165012
684.624	0.0166966
684.703	0.0165532
684.781	0.0166858
684.859	0.0165112
684.937	0.0165302
685.015	0.0165261
685.093	0.0166017
685.171	0.0165809
685.249	0.0165847
685.328	0.0165656
685.406	0.0164556
685.484	0.0166828
685.562	0.0165197
685.640	0.0166004
685.718	0.0166144
685.796	0.0164606
685.874	0.0164823
685.953	0.0165758
686.031	0.0166373
686.109	0.0166513
686.187	0.0163815
686.265	0.0165397
686.343	0.0166680
686.421	0.0165897
686.499	0.0167396
686.578	0.0165643
686.656	0.0165582
686.734	0.0166413
686.812	0.0164516
686.890	0.0165428
686.968	0.0164759
687.046	0.0165010
687.124	0.0164894
687.203	0.0165454
687.281	0.0165725
687.359	0.0164951
687.437	0.0164228
687.515	0.0165251
687.593	0.0166138
687.671	0.0164453
687.749	0.0164390
687.828	0.0164838
687.906	0.0164201
687.984	0.0166396
688.062	0.0165157
688.140	0.0164757
688.218	0.0163881
688.296	0.0164906
688.374	0.0165473
688.453	0.0164399
688.531	0.0163625
688.609	0.0164918
688.687	0.0164986
688.765	0.0165703
688.843	0.0164250
688.921	0.0164771
688.999	0.0165463
689.078	0.0164456
689.156	0.0165655
689.234	0.0163774
689.312	0.0163190
689.390	0.0164574
689.468	0.0164993
689.546	0.0162073
689.624	0.0162740
689.703	0.0164544
689.781	0.0165578
689.859	0.0164093
689.937	0.0163176
690.015	0.0165427
690.093	0.0164595
690.171	0.0163795
690.249	0.0165078
690.328	0.0164181
690.406	0.0165534
690.484	0.0164866
690.562	0.0162450
690.640	0.0163920
690.718	0.0164755
690.796	0.0164464
690.874	0.0164543
690.953	0.0164792
691.031	0.0164249
691.109	0.0164963
691.187	0.0165562
691.265	0.0162720
691.343	0.0164353
691.421	0.0165217
691.499	0.0164854
691.578	0.0164577
691.656	0.0165385
691.734	0.0166103
691.812	0.0163860
691.890	0.0163928
691.968	0.0164423
692.046	0.0164830
692.124	0.0164392
692.203	0.0164427
692.281	0.0164044
692.359	0.0165941
692.437	0.0165176
692.515	0.0164214
692.593	0.0165185
692.671	0.0166903
692.749	0.0165522
692.828	0.0164804
692.906	0.0164782
692.984	0.0164992
693.062	0.0165437
693.140	0.0164703
693.218	0.0164236
693.296	0.0164089
693.374	0.0165092
693.453	0.0165009
693.531	0.0164646
693.609	0.0164434
693.687	0.0164913
693.765	0.0164288
693.843	0.0164924
693.921	0.0165239
693.999	0.0163996
694.078	0.0165105
694.156	0.0165839
694.234	0.0164530
694.312	0.0165533
694.390	0.0165365
694.468	0.0165007
694.546	0.0165969
694.624	0.0165205
694.703	0.0165872
694.781	0.0166623
694.859	0.0165829
694.937	0.0166313
695.015	0.0165385
695.093	0.0164989
695.171	0.0166576
695.249	0.0166091
695.328	0.0165518
695.406	0.0166939
695.484	0.0165092
695.562	0.0164908
695.640	0.0164798
695.718	0.0166057
695.796	0.0166653
695.874	0.0166319
695.953	0.0165175
696.031	0.0166499
696.109	0.0165228
696.187	0.0166142
696.265	0.0164342
696.343	0.0165004
696.421	0.0165158
696.499	0.0165576
696.578	0.0165891
696.656	0.0164734
696.734	0.0166678
696.812	0.0165916
696.890	0.0164470
696.968	0.0164923
697.046	0.0164323
697.124	0.0165681
697.203	0.0164632
697.281	0.0165415
697.359	0.0165564
697.437	0.0164976
697.515	0.0163911
697.593	0.0165587
697.671	0.0164760
697.749	0.0164453
697.828	0.0165173
697.906	0.0164459
697.984	0.0165173
698.062	0.0165626
698.140	0.0165533
698.218	0.0165466
698.296	0.0165313
698.374	0.0165513
698.453	0.0166088
698.531	0.0166354
698.609	0.0165233
698.687	0.0165643
698.765	0.0166864
698.843	0.0165707
698.921	0.0164120
698.999	0.0166336
699.078	0.0165627
699.156	0.0165976
699.234	0.0165263
699.312	0.0166169
699.390	0.0167320
699.468	0.0165853
699.546	0.0165108
699.624	0.0166618
699.703	0.0166241
699.781	0.0165598
699.859	0.0166515
699.937	0.0166424
700.015	0.0166743
700.093	0.0164901
700.171	0.0165685
700.249	0.0166679
700.328	0.0166468
700.406	0.0165323
700.484	0.0165090
700.562	0.0166302
700.640	0.0165156
700.718	0.0166138
700.796	0.0165482
700.874	0.0166877
700.953	0.0165868
701.031	0.0166543
701.109	0.0165112
701.187	0.0166361
701.265	0.0165525
701.343	0.0165108
701.421	0.0165744
701.499	0.0166209
701.578	0.0166862
701.656	0.0165647
701.734	0.0165552
701.812	0.0167032
701.890	0.0167180
701.968	0.0166735
702.046	0.0166724
702.124	0.0166865
702.203	0.0166681
702.281	0.0165871
702.359	0.0166376
702.437	0.0166337
702.515	0.0165889
702.593	0.0166425
702.671	0.0165977
702.749	0.0167255
702.828	0.0166621
702.906	0.0167287
702.984	0.0166097
703.062	0.0166632
703.140	0.0167403
703.218	0.0164788
703.296	0.0165842
703.374	0.0166361
703.453	0.0165961
703.531	0.0166473
703.609	0.0165993
703.687	0.0165754
703.765	0.0166489
703.843	0.0165087
703.921	0.0166325
703.999	0.0166451
704.078	0.0166046
704.156	0.0164986
704.234	0.0164689
704.312	0.0165331
704.390	0.0166850
704.468	0.0166905
704.546	0.0166559
704.624	0.0165279
704.703	0.0166187
704.781	0.0165751
704.859	0.0167720
704.937	0.0167413
705.015	0.0166948
705.093	0.0166383
705.171	0.0166182
705.249	0.0165547
705.328	0.0165553
705.406	0.0165435
705.484	0.0166311
705.562	0.0166068
705.640	0.0165134
705.718	0.0165578
705.796	0.0165845
705.874	0.0163599
705.953	0.0165504
706.031	0.0166161
706.109	0.0165179
706.187	0.0165895
706.265	0.0164582
706.343	0.0164927
706.421	0.0165839
706.499	0.0164316
706.578	0.0165285
706.656	0.0165096
706.734	0.0165335
706.812	0.0165807
706.890	0.0165553
706.968	0.0165051
707.046	0.0165759
707.124	0.0165057
707.203	0.0166110
707.281	0.0165526
707.359	0.0164821
707.437	0.0166460
707.515	0.0165297
707.593	0.0165912
707.671	0.0164595
707.749	0.0164960
707.828	0.0164806
707.906	0.0164803
707.984	0.0164706
708.062	0.0164510
708.140	0.0164778
708.218	0.0165593
708.296	0.0164078
708.374	0.0165543
708.453	0.0164995
708.531	0.0165791
708.609	0.0166273
708.687	0.0164709
708.765	0.0165492
708.843	0.0167493
708.921	0.0165839
708.999	0.0166177
709.078	0.0166213
709.156	0.0166315
709.234	0.0166190
709.312	0.0166672
709.390	0.0166034
709.468	0.0166181
709.546	0.0165609
709.624	0.0164010
709.703	0.0164320
709.781	0.0165751
709.859	0.0164136
709.937	0.0163564
710.015	0.0164272
710.093	0.0164577
710.171	0.0165726
710.249	0.0164130
710.328	0.0165405
710.406	0.0165902
710.484	0.0164858
710.562	0.0165903
710.640	0.0166136
710.718	0.0165516
710.796	0.0164507
710.874	0.0164619
710.953	0.0165884
711.031	0.0164624
711.109	0.0166988
711.187	0.0165729
711.265	0.0166618
711.343	0.0165070
711.421	0.0164127
711.499	0.0164159
711.578	0.0164954
711.656	0.0164832
711.734	0.0163553
711.812	0.0165208
711.890	0.0165333
711.968	0.0165650
712.046	0.0165433
712.124	0.0165749
712.203	0.0164975
712.281	0.0163652
712.359	0.0164973
712.437	0.0165790
712.515	0.0164709
712.593	0.0163815
712.671	0.0164515
712.749	0.0163770
712.828	0.0164721
712.906	0.0165174
712.984	0.0165726
713.062	0.0164747
713.140	0.0165036
713.218	0.0164102
713.296	0.0165121
713.374	0.0166618
713.453	0.0165681
713.531	0.0165543
713.609	0.0165517
713.687	0.0164433
713.765	0.0164427
713.843	0.0164304
713.921	0.0163910
713.999	0.0163914
714.078	0.0162570
714.156	0.0160967
714.234	0.0162262
714.312	0.0162882
714.390	0.0162534
714.468	0.0163008
714.546	0.0162136
714.624	0.0161818
714.703	0.0162007
714.781	0.0163598
714.859	0.0163958
714.937	0.0164498
715.015	0.0162347
715.093	0.0164539
715.171	0.0164896
715.249	0.0166238
715.328	0.0165592
715.406	0.0165443
715.484	0.0166054
715.562	0.0164867
715.640	0.0165399
715.718	0.0165814
715.796	0.0164807
715.874	0.0164262
715.953	0.0165156
716.031	0.0163604
716.109	0.0164115
716.187	0.0164375
716.265	0.0163264
716.343	0.0163300
716.421	0.0163280
716.499	0.0163460
716.578	0.0163183
716.656	0.0163406
716.734	0.0162933
716.812	0.0164822
716.890	0.0164831
716.968	0.0164768
717.046	0.0164076
717.124	0.0165130
717.203	0.0164779
717.281	0.0164053
717.359	0.0164067
717.437	0.0165551
717.515	0.0165064
717.593	0.0164163
717.671	0.0163698
717.749	0.0163423
717.828	0.0164622
717.906	0.0163927
717.984	0.0165008
718.062	0.0163661
718.140	0.0163013
718.218	0.0164617
718.296	0.0163508
718.374	0.0164098
718.453	0.0163232
718.531	0.0164318
718.609	0.0164600
718.687	0.0163445
718.765	0.0163351
718.843	0.0162943
718.921	0.0164455
718.999	0.0163689
719.078	0.0164074
719.156	0.0163336
719.234	0.0163364
719.312	0.0162830
719.390	0.0164578
719.468	0.0163949
719.546	0.0163136
719.624	0.0163585
719.703	0.0162951
719.781	0.0163902
719.859	0.0164085
719.937	0.0165096
720.015	0.0165427
720.093	0.0164835
720.171	0.0164904
720.249	0.0164764
720.328	0.0164094
720.406	0.0164878
720.484	0.0164088
720.562	0.0164343
720.640	0.0164381
720.718	0.0164650
720.796	0.0163244
720.874	0.0164293
720.953	0.0164227
721.031	0.0165110
721.109	0.0164955
721.187	0.0165478
721.265	0.0165506
721.343	0.0163796
721.421	0.0164134
721.499	0.0165071
721.578	0.0165101
721.656	0.0163380
721.734	0.0164628
721.812	0.0164537
721.890	0.0165681
721.968	0.0165914
722.046	0.0165064
722.124	0.0165500
722.203	0.0164185
722.281	0.0163589
722.359	0.0163241
722.437	0.0165031
722.515	0.0165339
722.593	0.0165027
722.671	0.0164282
722.749	0.0165810
722.828	0.0166634
722.906	0.0165274
722.984	0.0165019
723.062	0.0164548
723.140	0.0166018
723.218	0.0165465
723.296	0.0165563
723.374	0.0164246
723.453	0.0164552
723.531	0.0164747
723.609	0.0164899
723.687	0.0166732
723.765	0.0166640
723.843	0.0164912
723.921	0.0165043
723.999	0.0164978
724.078	0.0164784
724.156	0.0165127
724.234	0.0165273
724.312	0.0165083
724.390	0.0164887
724.468	0.0164246
724.546	0.0164842
724.624	0.0165334
724.703	0.0165115
724.781	0.0164963
724.859	0.0166608
724.937	0.0165527
725.015	0.0165519
725.093	0.0164730
725.171	0.0165191
725.249	0.0163992
725.328	0.0164233
725.406	0.0165253
725.484	0.0165874
725.562	0.0166122
725.640	0.0165885
725.718	0.0166446
725.796	0.0165531
725.874	0.0164957
725.953	0.0166486
726.031	0.0166253
726.109	0.0164450
726.187	0.0165472
726.265	0.0164426
726.343	0.0166508
726.421	0.0166516
726.499	0.0164171
726.578	0.0165417
726.656	0.0164729
726.734	0.0163914
726.812	0.0164094
726.890	0.0165239
726.968	0.0165585
727.046	0.0165199
727.124	0.0165189
727.203	0.0166347
727.281	0.0165747
727.359	0.0166581
727.437	0.0165697
727.515	0.0166567
727.593	0.0165178
727.671	0.0166546
727.749	0.0167133
727.828	0.0165297
727.906	0.0166684
727.984	0.0165926
728.062	0.0166370
728.140	0.0164886
728.218	0.0165279
728.296	0.0166265
728.374	0.0165689
728.453	0.0166712
728.531	0.0166396
728.609	0.0164933
728.687	0.0166640
728.765	0.0164920
728.843	0.0167010
728.921	0.0165442
728.999	0.0165198
729.078	0.0165875
729.156	0.0165488
729.234	0.0166614
729.312	0.0164909
729.390	0.0165323
729.468	0.0164701
729.546	0.0165922
729.624	0.0163732
729.703	0.0164323
729.781	0.0164709
729.859	0.0165650
729.937	0.0164735
730.015	0.0165221
730.093	0.0164046
730.171	0.0165988
730.249	0.0165063
730.328	0.0163509
730.406	0.0163951
730.484	0.0163874
730.562	0.0165305
730.640	0.0164423
730.718	0.0165730
730.796	0.0165338
730.874	0.0166519
730.953	0.0166062
731.031	0.0165751
731.109	0.0165069
731.187	0.0164800
731.265	0.0166062
731.343	0.0165060
731.421	0.0165364
731.499	0.0165098
731.578	0.0164433
731.656	0.0164952
731.734	0.0164958
731.812	0.0164410
731.890	0.0164577
731.968	0.0164438
732.046	0.0166560
732.124	0.0165354
732.203	0.0163190
732.281	0.0164287
732.359	0.0165633
732.437	0.0166566
732.515	0.0164465
732.593	0.0165147
732.671	0.0165211
732.749	0.0164548
732.828	0.0165633
732.906	0.0163628
732.984	0.0165315
733.062	0.0165354
733.140	0.0166341
733.218	0.0166384
733.296	0.0164830
733.374	0.0166349
733.453	0.0165448
733.531	0.0164668
733.609	0.0164322
733.687	0.0163867
733.765	0.0164057
733.843	0.0165840
733.921	0.0165691
733.999	0.0164592
734.078	0.0164574
734.156	0.0165591
734.234	0.0163850
734.312	0.0163899
734.390	0.0165233
734.468	0.0164640
734.546	0.0163036
734.624	0.0164004
734.703	0.0165153
734.781	0.0163870
734.859	0.0163897
734.937	0.0163577
735.015	0.0165511
735.093	0.0165099
735.171	0.0164905
735.249	0.0164780
735.328	0.0164077
735.406	0.0164937
735.484	0.0165422
735.562	0.0164246
735.640	0.0164487
735.718	0.0164413
735.796	0.0165324
735.874	0.0164017
735.953	0.0164586
736.031	0.0164825
736.109	0.0165142
736.187	0.0164820
736.265	0.0162794
736.343	0.0164465
736.421	0.0166190
736.499	0.0164324
736.578	0.0163682
736.656	0.0165443
736.734	0.0164775
736.812	0.0165399
736.890	0.0164748
736.968	0.0164750
737.046	0.0165829
737.124	0.0165079
737.203	0.0165283
737.281	0.0164092
737.359	0.0163609
737.437	0.0165120
737.515	0.0166618
737.593	0.0164383
737.671	0.0164868
737.749	0.0165285
737.828	0.0164519
737.906	0.0164970
737.984	0.0164706
738.062	0.0164252
738.140	0.0164204
738.218	0.0163716
738.296	0.0165569
738.374	0.0165247
738.453	0.0164783
738.531	0.0163687
738.609	0.0165805
738.687	0.0163687
738.765	0.0165092
738.843	0.0164979
738.921	0.0164150
738.999	0.0165086
739.078	0.0165676
739.156	0.0163570
739.234	0.0164362
739.312	0.0165173
739.390	0.0165394
739.468	0.0164100
739.546	0.0163991
739.624	0.0164589
739.703	0.0164926
739.781	0.0166007
739.859	0.0162814
739.937	0.0164837
740.015	0.0165949
740.093	0.0165143
740.171	0.0164492
740.249	0.0164470
740.328	0.0165053
740.406	0.0164332
740.484	0.0163001
740.562	0.0164274
740.640	0.0164309
740.718	0.0164909
740.796	0.0164686
740.874	0.0163666
740.953	0.0164438
741.031	0.0163591
741.109	0.0164607
741.187	0.0164831
741.265	0.0164909
741.343	0.0163644
741.421	0.0163491
741.499	0.0163668
741.578	0.0163153
741.656	0.0163941
741.734	0.0162894
741.812	0.0163751
741.890	0.0163162
741.968	0.0162199
742.046	0.0163741
742.124	0.0165406
742.203	0.0164347
742.281	0.0163024
742.359	0.0162888
742.437	0.0163960
742.515	0.0163734
742.593	0.0163231
742.671	0.0162891
742.749	0.0162188
742.828	0.0164272
742.906	0.0163942
742.984	0.0163911
743.062	0.0163374
743.140	0.0164172
743.218	0.0163534
743.296	0.0163857
743.374	0.0163132
743.453	0.0163465
743.531	0.0164252
743.609	0.0164091
743.687	0.0163496
743.765	0.0164924
743.843	0.0164131
743.921	0.0164211
743.999	0.0163167
744.078	0.0163882
744.156	0.0165066
744.234	0.0164153
744.312	0.0164342
744.390	0.0164642
744.468	0.0164141
744.546	0.0164487
744.624	0.0165366
744.703	0.0163839
744.781	0.0163988
744.859	0.0163979
744.937	0.0165588
745.015	0.0164346
745.093	0.0163120
745.171	0.0163831
745.249	0.0164173
745.328	0.0165350
745.406	0.0164033
745.484	0.0163615
745.562	0.0165037
745.640	0.0163759
745.718	0.0164138
745.796	0.0163267
745.874	0.0165492
745.953	0.0163906
746.031	0.0163787
746.109	0.0165570
746.187	0.0165159
746.265	0.0162856
746.343	0.0163577
746.421	0.0164908
746.499	0.0164619
746.578	0.0165604
746.656	0.0164013
746.734	0.0164216
746.812	0.0164148
746.890	0.0164036
746.968	0.0164069
747.046	0.0165041
747.124	0.0163760
747.203	0.0164766
747.281	0.0164220
747.359	0.0165221
747.437	0.0166843
747.515	0.0165241
747.593	0.0163734
747.671	0.0164429
747.749	0.0165539
747.828	0.0165791
747.906	0.0164915
747.984	0.0166352
748.062	0.0166060
748.140	0.0165646
748.218	0.0164854
748.296	0.0164806
748.374	0.0166665
748.453	0.0165517
748.531	0.0165659
748.609	0.0165738
748.687	0.0165659
748.765	0.0165862
748.843	0.0165269
748.921	0.0166172
748.999	0.0164607
749.078	0.0166004
749.156	0.0167300
749.234	0.0166371
749.312	0.0165587
749.390	0.0165176
749.468	0.0166156
749.546	0.0164460
749.624	0.0164845
749.703	0.0165400
749.781	0.0165203
749.859	0.0166843
749.937	0.0166549
750.015	0.0166106
750.093	0.0165863
750.171	0.0164482
750.249	0.0165747
750.328	0.0166634
750.406	0.0166004
750.484	0.0165255
750.562	0.0165353
750.640	0.0165820
750.718	0.0165273
750.796	0.0166181
750.874	0.0165568
750.953	0.0165680
751.031	0.0166139
751.109	0.0164264
751.187	0.0165977
751.265	0.0165568
751.343	0.0165692
751.421	0.0166989
751.499	0.0167990
751.578	0.0165763
751.656	0.0164774
751.734	0.0165176
751.812	0.0165897
751.890	0.0165829
751.968	0.0166171
752.046	0.0166589
752.124	0.0165900
752.203	0.0166178
752.281	0.0166736
752.359	0.0166292
752.437	0.0166487
752.515	0.0166185
752.593	0.0167093
752.671	0.0166418
752.749	0.0167577
752.828	0.0166047
752.906	0.0165542
752.984	0.0165778
753.062	0.0166489
753.140	0.0167285
753.218	0.0166570
753.296	0.0164075
753.374	0.0165221
753.453	0.0166305
753.531	0.0166923
753.609	0.0164953
753.687	0.0165085
753.765	0.0164686
753.843	0.0166487
753.921	0.0165292
753.999	0.0164925
754.078	0.0166275
754.156	0.0165492
754.234	0.0166370
754.312	0.0166972
754.390	0.0167111
754.468	0.0166747
754.546	0.0166477
754.624	0.0166015
754.703	0.0166364
754.781	0.0166203
754.859	0.0166434
754.937	0.0166128
755.015	0.0168192
755.093	0.0166219
755.171	0.0166791
755.249	0.0166978
755.328	0.0166938
755.406	0.0167513
755.484	0.0166512
755.562	0.0166302
755.640	0.0167652
755.718	0.0165502
755.796	0.0165249
755.874	0.0166467
755.953	0.0166621
756.031	0.0167113
756.109	0.0167034
756.187	0.0165435
756.265	0.0164973
756.343	0.0167917
756.421	0.0167615
756.499	0.0166908
756.578	0.0165980
756.656	0.0167124
756.734	0.0167395
756.812	0.0166936
756.890	0.0168919
756.968	0.0165862
757.046	0.0167178
757.124	0.0167411
757.203	0.0165389
757.281	0.0167171
757.359	0.0166783
757.437	0.0167486
757.515	0.0167075
757.593	0.0166110
757.671	0.0166732
757.749	0.0167844
757.828	0.0166645
757.906	0.0167938
757.984	0.0168324
758.062	0.0167120
758.140	0.0166718
758.218	0.0165770
758.296	0.0166528
758.374	0.0166693
758.453	0.0166793
758.531	0.0165657
758.609	0.0165310
758.687	0.0164492
758.765	0.0165021
758.843	0.0166143
758.921	0.0165390
758.999	0.0166811
759.078	0.0166603
759.156	0.0166441
759.234	0.0165981
759.312	0.0165455
759.390	0.0165444
759.468	0.0164922
759.546	0.0166698
759.624	0.0165441
759.703	0.0167052
759.781	0.0166236
759.859	0.0165769
759.937	0.0165488
760.015	0.0166238
760.093	0.0167387
760.171	0.0166546
760.249	0.0166301
760.328	0.0165461
760.406	0.0166873
760.484	0.0166376
760.562	0.0166245
760.640	0.0166829
760.718	0.0167535
760.796	0.0167146
760.874	0.0166679
760.953	0.0168678
761.031	0.0165984
761.109	0.0165134
761.187	0.0164530
761.265	0.0165707
761.343	0.0165705
761.421	0.0165313
761.499	0.0165237
761.578	0.0163896
761.656	0.0164659
761.734	0.0164110
761.812	0.0163152
761.890	0.0165214
761.968	0.0164961
762.046	0.0165170
762.124	0.0164608
762.203	0.0163624
762.281	0.0166040
762.359	0.0165952
762.437	0.0164845
762.515	0.0165251
762.593	0.0164496
762.671	0.0162963
762.749	0.0164600
762.828	0.0165678
762.906	0.0166101
762.984	0.0164819
763.062	0.0165467
763.140	0.0165270
763.218	0.0165057
763.296	0.0165717
763.374	0.0164227
763.453	0.0165372
763.531	0.0165774
763.609	0.0166068
763.687	0.0165403
763.765	0.0166103
763.843	0.0164821
763.921	0.0164349
763.999	0.0166264
764.078	0.0166184
764.156	0.0165567
764.234	0.0165450
764.312	0.0163670
764.390	0.0165063
764.468	0.0165520
764.546	0.0165501
764.624	0.0166326
764.703	0.0164549
764.781	0.0165070
764.859	0.0163535
764.937	0.0164943
765.015	0.0165366
765.093	0.0164301
765.171	0.0167110
765.249	0.0165673
765.328	0.0164832
765.406	0.0165902
765.484	0.0165449
765.562	0.0165450
765.640	0.0166933
765.718	0.0164749
765.796	0.0165102
765.874	0.0164484
765.953	0.0166343
766.031	0.0165438
766.109	0.0165401
766.187	0.0163241
766.265	0.0162984
766.343	0.0165600
766.421	0.0165977
766.499	0.0164600
766.578	0.0165287
766.656	0.0164423
766.734	0.0163439
766.812	0.0165821
766.890	0.0165522
766.968	0.0164976
767.046	0.0164691
767.124	0.0164907
767.203	0.0166550
767.281	0.0166520
767.359	0.0164194
767.437	0.0165499
767.515	0.0166090
767.593	0.0165393
767.671	0.0165671
767.749	0.0166507
767.828	0.0166114
767.906	0.0167587
767.984	0.0167241
768.062	0.0166993
768.140	0.0167245
768.218	0.0168557
768.296	0.0166918
768.374	0.0168339
768.453	0.0167256
768.531	0.0167131
768.609	0.0167458
768.687	0.0166438
768.765	0.0166990
768.843	0.0166226
768.921	0.0165459
768.999	0.0166646
769.078	0.0165203
769.156	0.0164283
769.234	0.0163815
769.312	0.0163032
769.390	0.0164674
769.468	0.0165636
769.546	0.0165453
769.624	0.0164680
769.703	0.0165925
769.781	0.0164882
769.859	0.0164449
769.937	0.0164861
770.015	0.0164639
770.093	0.0165520
770.171	0.0164497
770.249	0.0163986
770.328	0.0164215
770.406	0.0164118
770.484	0.0163457
770.562	0.0164102
770.640	0.0164159
770.718	0.0164444
770.796	0.0164294
770.874	0.0164746
770.953	0.0164518
771.031	0.0165063
771.109	0.0165886
771.187	0.0166013
771.265	0.0166287
771.343	0.0166475
771.421	0.0167122
771.499	0.0165862
771.578	0.0164860
771.656	0.0165272
771.734	0.0166531
771.812	0.0166292
771.890	0.0165743
771.968	0.0165577
772.046	0.0164807
772.124	0.0164828
772.203	0.0165319
772.281	0.0165806
772.359	0.0165602
772.437	0.0167898
772.515	0.0166088
772.593	0.0166418
772.671	0.0165753
772.749	0.0168098
772.828	0.0168034
772.906	0.0165891
772.984	0.0167644
773.062	0.0166653
773.140	0.0166252
773.218	0.0167151
773.296	0.0165907
773.374	0.0165411
773.453	0.0165639
773.531	0.0165348
773.609	0.0165543
773.687	0.0165522
773.765	0.0164162
773.843	0.0164530
773.921	0.0163873
773.999	0.0164455
774.078	0.0164976
774.156	0.0164893
774.234	0.0166082
774.312	0.0164294
774.390	0.0164700
774.468	0.0164680
774.546	0.0163597
774.624	0.0164549
774.703	0.0165242
774.781	0.0164678
774.859	0.0164072
774.937	0.0165238
775.015	0.0164230
775.093	0.0163751
775.171	0.0163628
775.249	0.0165282
775.328	0.0165578
775.406	0.0164645
775.484	0.0166628
775.562	0.0166254
775.640	0.0166497
775.718	0.0165885
775.796	0.0166388
775.874	0.0165794
775.953	0.0165119
776.031	0.0166556
776.109	0.0165868
776.187	0.0166611
776.265	0.0166611
776.343	0.0166727
776.421	0.0165758
776.499	0.0166968
776.578	0.0166175
776.656	0.0166521
776.734	0.0168514
776.812	0.0166776
776.890	0.0167290
776.968	0.0168286
777.046	0.0168658
777.124	0.0168642
777.203	0.0168293
777.281	0.0166047
777.359	0.0167580
777.437	0.0168315
777.515	0.0168443
777.593	0.0167484
777.671	0.0168264
777.749	0.0169733
777.828	0.0166444
777.906	0.0165248
777.984	0.0167188
778.062	0.0166949
778.140	0.0165321
778.218	0.0167340
778.296	0.0166994
778.374	0.0166070
778.453	0.0164373
778.531	0.0165829
778.609	0.0165025
778.687	0.0166058
778.765	0.0164861
778.843	0.0165536
778.921	0.0166719
778.999	0.0166370
779.078	0.0166315
779.156	0.0166270
779.234	0.0168063
779.312	0.0166529
779.390	0.0165993
779.468	0.0165320
779.546	0.0166283
779.624	0.0165331
779.703	0.0166669
779.781	0.0168591
779.859	0.0166841
779.937	0.0167707
780.015	0.0165511
780.093	0.0165237
780.171	0.0167770
780.249	0.0168148
780.328	0.0167783
780.406	0.0168527
780.484	0.0167155
780.562	0.0168581
780.640	0.0166724
780.718	0.0167628
780.796	0.0166483
780.874	0.0166615
780.953	0.0166062
781.031	0.0165094
781.109	0.0164143
781.187	0.0164539
781.265	0.0164426
781.343	0.0163784
781.421	0.0164397
781.499	0.0163422
781.578	0.0163276
781.656	0.0164828
781.734	0.0163938
781.812	0.0163342
781.890	0.0163307
781.968	0.0164362
782.046	0.0164050
782.124	0.0164881
782.203	0.0167331
782.281	0.0166120
782.359	0.0165195
782.437	0.0166534
782.515	0.0166521
782.593	0.0166422
782.671	0.0165916
782.749	0.0168236
782.828	0.0168645
782.906	0.0168149
782.984	0.0169468
783.062	0.0169748
783.140	0.0169677
783.218	0.0169630
783.296	0.0169074
783.374	0.0168449
783.453	0.0170379
783.531	0.0169432
783.609	0.0169357
783.687	0.0168843
783.765	0.0168150
783.843	0.0167498
783.921	0.0166888
783.999	0.0166253
784.078	0.0166319
784.156	0.0166631
784.234	0.0163747
784.312	0.0163680
784.390	0.0164082
784.468	0.0162704
784.546	0.0163586
784.624	0.0163297
784.703	0.0162632
784.781	0.0161499
784.859	0.0162080
784.937	0.0161469
785.015	0.0162724
785.093	0.0162469
785.171	0.0163095
785.249	0.0162760
785.328	0.0163180
785.406	0.0163335
785.484	0.0162923
785.562	0.0163213
785.640	0.0163759
785.718	0.0164297
785.796	0.0164935
785.874	0.0164075
785.953	0.0164581
786.031	0.0164828
786.109	0.0164952
786.187	0.0165078
786.265	0.0164782
786.343	0.0166906
786.421	0.0166056
786.499	0.0166244
786.578	0.0166038
786.656	0.0167057
786.734	0.0165601
786.812	0.0165514
786.890	0.0165849
786.968	0.0166750
787.046	0.0167698
787.124	0.0166346
787.203	0.0167066
787.281	0.0166791
787.359	0.0166800
787.437	0.0167162
787.515	0.0166894
787.593	0.0167074
787.671	0.0167123
787.749	0.0167973
787.828	0.0167296
787.906	0.0166840
787.984	0.0167352
788.062	0.0167985
788.140	0.0166621
788.218	0.0166563
788.296	0.0166579
788.374	0.0167023
788.453	0.0166305
788.531	0.0165610
788.609	0.0163482
788.687	0.0165112
788.765	0.0165646
788.843	0.0164824
788.921	0.0164313
788.999	0.0163443
789.078	0.0162689
789.156	0.0162256
789.234	0.0163147
789.312	0.0162294
789.390	0.0162473
789.468	0.0163405
789.546	0.0162231
789.624	0.0163342
789.703	0.0163988
789.781	0.0164177
789.859	0.0163235
789.937	0.0163218
790.015	0.0163710
790.093	0.0164331
790.171	0.0164699
790.249	0.0162990
790.328	0.0164195
790.406	0.0165077
790.484	0.0165017
790.562	0.0163027
790.640	0.0164408
790.718	0.0166250
790.796	0.0164986
790.874	0.0166258
790.953	0.0165433
791.031	0.0166029
791.109	0.0164845
791.187	0.0165062
791.265	0.0164831
791.343	0.0163987
791.421	0.0164427
791.499	0.0162950
791.578	0.0165886
791.656	0.0164297
791.734	0.0164143
791.812	0.0164137
791.890	0.0164900
791.968	0.0163987
792.046	0.0165006
792.124	0.0164990
792.203	0.0164127
792.281	0.0164080
792.359	0.0164074
792.437	0.0164531
792.515	0.0163532
792.593	0.0164790
792.671	0.0165333
792.749	0.0164230
792.828	0.0164238
792.906	0.0164629
792.984	0.0163775
793.062	0.0165642
793.140	0.0164692
793.218	0.0165650
793.296	0.0166403
793.374	0.0166283
793.453	0.0167235
793.531	0.0166582
793.609	0.0167399
793.687	0.0166568
793.765	0.0167198
793.843	0.0166883
793.921	0.0167832
793.999	0.0167176
794.078	0.0167063
794.156	0.0167633
794.234	0.0166358
794.312	0.0165893
794.390	0.0166811
794.468	0.0164996
794.546	0.0164969
794.624	0.0163358
794.703	0.0163176
794.781	0.0162428
794.859	0.0163296
794.937	0.0162801
795.015	0.0161901
795.093	0.0163044
795.171	0.0161824
795.249	0.0160390
795.328	0.0162181
795.406	0.0162307
795.484	0.0161174
795.562	0.0161848
795.640	0.0160114
795.718	0.0160863
795.796	0.0159994
795.874	0.0160551
795.953	0.0160442
796.031	0.0160870
796.109	0.0160136
796.187	0.0161626
796.265	0.0162061
796.343	0.0161676
796.421	0.0161574
796.499	0.0164525
796.578	0.0162895
796.656	0.0164144
796.734	0.0164710
796.812	0.0165875
796.890	0.0163514
796.968	0.0164872
797.046	0.0164624
797.124	0.0165187
797.203	0.0166818
797.281	0.0166673
797.359	0.0166669
797.437	0.0167498
797.515	0.0167582
797.593	0.0165677
797.671	0.0168362
797.749	0.0167814
797.828	0.0166562
797.906	0.0167783
797.984	0.0167709
798.062	0.0167752
798.140	0.0167131
798.218	0.0164928
798.296	0.0164284
798.374	0.0166451
798.453	0.0167693
798.531	0.0165814
798.609	0.0165053
798.687	0.0163544
798.765	0.0163490
798.843	0.0166200
798.921	0.0165258
798.999	0.0164761
799.078	0.0164355
799.156	0.0165188
799.234	0.0165929
799.312	0.0166369
799.390	0.0165492
799.468	0.0166842
799.546	0.0167667
799.624	0.0167387
799.703	0.0166882
799.781	0.0167383
799.859	0.0167265
799.937	0.0168024
800.015	0.0166897
800.093	0.0165874
800.171	0.0166363
800.249	0.0165218
800.328	0.0163412
800.406	0.0165023
800.484	0.0163000
800.562	0.0162123
800.640	0.0162806
800.718	0.0160913
800.796	0.0161246
800.874	0.0160404
800.953	0.0160528
801.031	0.0158691
801.109	0.0159837
801.187	0.0159869
801.265	0.0160181
801.343	0.0158693
801.421	0.0161020
801.499	0.0161065
801.578	0.0159645
801.656	0.0161541
801.734	0.0160784
801.812	0.0161657
801.890	0.0162637
801.968	0.0162793
802.046	0.0161102
802.124	0.0161655
802.203	0.0164005
802.281	0.0163901
802.359	0.0164207
802.437	0.0164893
802.515	0.0164082
802.593	0.0165819
802.671	0.0167876
802.749	0.0167329
802.828	0.0165688
802.906	0.0168021
802.984	0.0169292
803.062	0.0169004
803.140	0.0169534
803.218	0.0170849
803.296	0.0170433
803.374	0.0170763
803.453	0.0170567
803.531	0.0170601
803.609	0.0170638
803.687	0.0172591
803.765	0.0170611
803.843	0.0169112
803.921	0.0169650
803.999	0.0169820
804.078	0.0168378
804.156	0.0167657
804.234	0.0167093
804.312	0.0167381
804.390	0.0167725
804.468	0.0166433
804.546	0.0165585
804.624	0.0166313
804.703	0.0164156
804.781	0.0163735
804.859	0.0162713
804.937	0.0163715
805.015	0.0162151
805.093	0.0161101
805.171	0.0161681
805.249	0.0159959
805.328	0.0159049
805.406	0.0159515
805.484	0.0158522
805.562	0.0159649
805.640	0.0158820
805.718	0.0159058
805.796	0.0159306
805.874	0.0159909
805.953	0.0158000
806.031	0.0160165
806.109	0.0161028
806.187	0.0159700
806.265	0.0161431
806.343	0.0160107
806.421	0.0160655
806.499	0.0161864
806.578	0.0162263
806.656	0.0162428
806.734	0.0162286
806.812	0.0164085
806.890	0.0164644
806.968	0.0164650
807.046	0.0164979
807.124	0.0166180
807.203	0.0167152
807.281	0.0166445
807.359	0.0166032
807.437	0.0166344
807.515	0.0166300
807.593	0.0167670
807.671	0.0167274
807.749	0.0166881
807.828	0.0166176
807.906	0.0165490
807.984	0.0166604
808.062	0.0166557
808.140	0.0164951
808.218	0.0165063
808.296	0.0164465
808.374	0.0164677
808.453	0.0164634
808.531	0.0164414
808.609	0.0166499
808.687	0.0165239
808.765	0.0164854
808.843	0.0166158
808.921	0.0166537
808.999	0.0166761
809.078	0.0167499
809.156	0.0168593
809.234	0.0168372
809.312	0.0167988
809.390	0.0168772
809.468	0.0168252
809.546	0.0169423
809.624	0.0167491
809.703	0.0170454
809.781	0.0170061
809.859	0.0168507
809.937	0.0168539
810.015	0.0170010
810.093	0.0169123
810.171	0.0167069
810.249	0.0167009
810.328	0.0167099
810.406	0.0166751
810.484	0.0164811
810.562	0.0165462
810.640	0.0164784
810.718	0.0164763
810.796	0.0163602
810.874	0.0163138
810.953	0.0161558
811.031	0.0162913
811.109	0.0162250
811.187	0.0161694
811.265	0.0158791
811.343	0.0160025
811.421	0.0159162
811.499	0.0159126
811.578	0.0158734
811.656	0.0158278
811.734	0.0158270
811.812	0.0158681
811.890	0.0159024
811.968	0.0156876
812.046	0.0157399
812.124	0.0157733
812.203	0.0158315
812.281	0.0160022
812.359	0.0159834
812.437	0.0160223
812.515	0.0161496
812.593	0.0162173
812.671	0.0164278
812.749	0.0165589
812.828	0.0166357
812.906	0.0167596
812.984	0.0168414
813.062	0.0169680
813.140	0.0170654
813.218	0.0168907
813.296	0.0169369
813.374	0.0171223
813.453	0.0171045
813.531	0.0171835
813.609	0.0172005
813.687	0.0170902
813.765	0.0170267
813.843	0.0170693
813.921	0.0169958
813.999	0.0169597
814.078	0.0169929
814.156	0.0168393
814.234	0.0168214
814.312	0.0167036
814.390	0.0168060
814.468	0.0167565
814.546	0.0166589
814.624	0.0165911
814.703	0.0166573
814.781	0.0165147
814.859	0.0164951
814.937	0.0163496
815.015	0.0161985
815.093	0.0163925
815.171	0.0163095
815.249	0.0161904
815.328	0.0161230
815.406	0.0161340
815.484	0.0160398
815.562	0.0161129
815.640	0.0161192
815.718	0.0160607
815.796	0.0159442
815.874	0.0160748
815.953	0.0161389
816.031	0.0160316
816.109	0.0161292
816.187	0.0161689
816.265	0.0162320
816.343	0.0162323
816.421	0.0163228
816.499	0.0162808
816.578	0.0163323
816.656	0.0165136
816.734	0.0165348
816.812	0.0163181
816.890	0.0162733
816.968	0.0162959
817.046	0.0165304
817.124	0.0164207
817.203	0.0163077
817.281	0.0164100
817.359	0.0164271
817.437	0.0163473
817.515	0.0162453
817.593	0.0163733
817.671	0.0163047
817.749	0.0162711
817.828	0.0163852
817.906	0.0162732
817.984	0.0163753
818.062	0.0163988
818.140	0.0162500
818.218	0.0162095
818.296	0.0165188
818.374	0.0164788
818.453	0.0162222
818.531	0.0162571
818.609	0.0164261
818.687	0.0164179
818.765	0.0165567
818.843	0.0165453
818.921	0.0166014
818.999	0.0166932
819.078	0.0166129
819.156	0.0167100
819.234	0.0167192
819.312	0.0166656
819.390	0.0166972
819.468	0.0166827
819.546	0.0167706
819.624	0.0165716
819.703	0.0165890
819.781	0.0167248
819.859	0.0165861
819.937	0.0166399
820.015	0.0165564
820.093	0.0164800
820.171	0.0161879
820.249	0.0163914
820.328	0.0164063
820.406	0.0164539
820.484	0.0163921
820.562	0.0163728
820.640	0.0164254
820.718	0.0164248
820.796	0.0162099
820.874	0.0162614
820.953	0.0164318
821.031	0.0164034
821.109	0.0163028
821.187	0.0163644
821.265	0.0163882
821.343	0.0165852
821.421	0.0164478
821.499	0.0163499
821.578	0.0164446
821.656	0.0164787
821.734	0.0165556
821.812	0.0166438
821.890	0.0166094
821.968	0.0166246
822.046	0.0165715
822.124	0.0166694
822.203	0.0166675
822.281	0.0166842
822.359	0.0164754
822.437	0.0165845
822.515	0.0166424
822.593	0.0166021
822.671	0.0164919
822.749	0.0163342
822.828	0.0162217
822.906	0.0161958
822.984	0.0162472
823.062	0.0161481
823.140	0.0159984
823.218	0.0160416
823.296	0.0159209
823.374	0.0158463
823.453	0.0157524
823.531	0.0156303
823.609	0.0157399
823.687	0.0158183
823.765	0.0157040
823.843	0.0159859
823.921	0.0159565
823.999	0.0159156
824.078	0.0161678
824.156	0.0162317
824.234	0.0163596
824.312	0.0165045
824.390	0.0166434
824.468	0.0166003
824.546	0.0168376
824.624	0.0169786
824.703	0.0170653
824.781	0.0172365
824.859	0.0171954
824.937	0.0170894
825.015	0.0172118
825.093	0.0172280
825.171	0.0172066
825.249	0.0171363
825.328	0.0172050
825.406	0.0171955
825.484	0.0170928
825.562	0.0170528
825.640	0.0170924
825.718	0.0169801
825.796	0.0169907
825.874	0.0167046
825.953	0.0166994
826.031	0.0167870
826.109	0.0167238
826.187	0.0165699
826.265	0.0166198
826.343	0.0164680
826.421	0.0163052
826.499	0.0163925
826.578	0.0162791
826.656	0.0162578
826.734	0.0163448
826.812	0.0163558
826.890	0.0160889
826.968	0.0162214
827.046	0.0162191
827.124	0.0162885
827.203	0.0162029
827.281	0.0162632
827.359	0.0162785
827.437	0.0163323
827.515	0.0164935
827.593	0.0163010
827.671	0.0164275
827.749	0.0164915
827.828	0.0162880
827.906	0.0164649
827.984	0.0164696
828.062	0.0163066
828.140	0.0164359
828.218	0.0163723
828.296	0.0163847
828.374	0.0163477
828.453	0.0164223
828.531	0.0163264
828.609	0.0163331
828.687	0.0164690
828.765	0.0164344
828.843	0.0163645
828.921	0.0164793
828.999	0.0165073
829.078	0.0166016
829.156	0.0167088
829.234	0.0167263
829.312	0.0166677
829.390	0.0168694
829.468	0.0168850
829.546	0.0169479
829.624	0.0167878
829.703	0.0169590
829.781	0.0170785
829.859	0.0170840
829.937	0.0172501
830.015	0.0171397
830.093	0.0172161
830.171	0.0171570
830.249	0.0172108
830.328	0.0171787
830.406	0.0171104
830.484	0.0171004
830.562	0.0170911
830.640	0.0171112
830.718	0.0168234
830.796	0.0168976
830.874	0.0169364
830.953	0.0166115
831.031	0.0165256
831.109	0.0164949
831.187	0.0164487
831.265	0.0161954
831.343	0.0162956
831.421	0.0160969
831.499	0.0160870
831.578	0.0160496
831.656	0.0159457
831.734	0.0159511
831.812	0.0160419
831.890	0.0159268
831.968	0.0159898
832.046	0.0160056
832.124	0.0159767
832.203	0.0160291
832.281	0.0161604
832.359	0.0161896
832.437	0.0162065
832.515	0.0163343
832.593	0.0164246
832.671	0.0163269
832.749	0.0165463
832.828	0.0165364
832.906	0.0165291
832.984	0.0165865
833.062	0.0166392
833.140	0.0165319
833.218	0.0166875
833.296	0.0166950
833.374	0.0166434
833.453	0.0167154
833.531	0.0166147
833.609	0.0167075
833.687	0.0167692
833.765	0.0167149
833.843	0.0166572
833.921	0.0165642
833.999	0.0165501
834.078	0.0165767
834.156	0.0167142
834.234	0.0164803
834.312	0.0164764
834.390	0.0165024
834.468	0.0166838
834.546	0.0166637
834.624	0.0167737
834.703	0.0169258
834.781	0.0167651
834.859	0.0167740
834.937	0.0168690
835.015	0.0168252
835.093	0.0167652
835.171	0.0168243
835.249	0.0167919
835.328	0.0168781
835.406	0.0167605
835.484	0.0166100
835.562	0.0166505
835.640	0.0166744
835.718	0.0166457
835.796	0.0165420
835.874	0.0165252
835.953	0.0163290
836.031	0.0164226
836.109	0.0163575
836.187	0.0163119
836.265	0.0162956
836.343	0.0163116
836.421	0.0162605
836.499	0.0162921
836.578	0.0163818
836.656	0.0162183
836.734	0.0162901
836.812	0.0162946
836.890	0.0163478
836.968	0.0164300
837.046	0.0164041
837.124	0.0163818
837.203	0.0164775
837.281	0.0164452
837.359	0.0165324
837.437	0.0164992
837.515	0.0164052
837.593	0.0165418
837.671	0.0166193
837.749	0.0166824
837.828	0.0167050
837.906	0.0166638
837.984	0.0167001
838.062	0.0166262
838.140	0.0167747
838.218	0.0167844
838.296	0.0167776
838.374	0.0167098
838.453	0.0168726
838.531	0.0168532
838.609	0.0167767
838.687	0.0169263
838.765	0.0166549
838.843	0.0166965
838.921	0.0168186
838.999	0.0165979
839.078	0.0165908
839.156	0.0165341
839.234	0.0165559
839.312	0.0165234
839.390	0.0165401
839.468	0.0164458
839.546	0.0164055
839.624	0.0163314
839.703	0.0163718
839.781	0.0163622
839.859	0.0163837
839.937	0.0164095
840.015	0.0162568
840.093	0.0164332
840.171	0.0164397
840.249	0.0162717
840.328	0.0165003
840.406	0.0163811
840.484	0.0163472
840.562	0.0164891
840.640	0.0164950
840.718	0.0165227
840.796	0.0166039
840.874	0.0166273
840.953	0.0166348
841.031	0.0165759
841.109	0.0167428
841.187	0.0166525
841.265	0.0167698
841.343	0.0166465
841.421	0.0166377
841.499	0.0165849
841.578	0.0166393
841.656	0.0167025
841.734	0.0166446
841.812	0.0165601
841.890	0.0167115
841.968	0.0165705
842.046	0.0165757
842.124	0.0165655
842.203	0.0163664
842.281	0.0164290
842.359	0.0164646
842.437	0.0164295
842.515	0.0164397
842.593	0.0163241
842.671	0.0164146
842.749	0.0164354
842.828	0.0162933
842.906	0.0163520
842.984	0.0164310
843.062	0.0164335
843.140	0.0164959
843.218	0.0163979
843.296	0.0164293
843.374	0.0164452
843.453	0.0166130
843.531	0.0164626
843.609	0.0163952
843.687	0.0165459
843.765	0.0165622
843.843	0.0165592
843.921	0.0164793
843.999	0.0165831
844.078	0.0165457
844.156	0.0164616
844.234	0.0165356
844.312	0.0165823
844.390	0.0166087
844.468	0.0165865
844.546	0.0165013
844.624	0.0165820
844.703	0.0164719
844.781	0.0165061
844.859	0.0165675
844.937	0.0164462
845.015	0.0164579
845.093	0.0165898
845.171	0.0163860
845.249	0.0163924
845.328	0.0164742
845.406	0.0164247
845.484	0.0164528
845.562	0.0165331
845.640	0.0166205
845.718	0.0165954
845.796	0.0164377
845.874	0.0164722
845.953	0.0164941
846.031	0.0165353
846.109	0.0163651
846.187	0.0164191
846.265	0.0166228
846.343	0.0164711
846.421	0.0164929
846.499	0.0166299
846.578	0.0165591
846.656	0.0165170
846.734	0.0165225
846.812	0.0164542
846.890	0.0165555
846.968	0.0165273
847.046	0.0164048
847.124	0.0165163
847.203	0.0165974
847.281	0.0166022
847.359	0.0164510
847.437	0.0165426
847.515	0.0165875
847.593	0.0166331
847.671	0.0166938
847.749	0.0166862
847.828	0.0167480
847.906	0.0167463
847.984	0.0167850
848.062	0.0169677
848.140	0.0168690
848.218	0.0169176
848.296	0.0168469
848.374	0.0168211
848.453	0.0167462
848.531	0.0167118
848.609	0.0165884
848.687	0.0167680
848.765	0.0166836
848.843	0.0166145
848.921	0.0166521
848.999	0.0164481
849.078	0.0163876
849.156	0.0165385
849.234	0.0164515
849.312	0.0163680
849.390	0.0162681
849.468	0.0162731
849.546	0.0163876
849.624	0.0164342
849.703	0.0163903
849.781	0.0163531
849.859	0.0163148
849.937	0.0164152
850.015	0.0163658
850.093	0.0165587
850.171	0.0165840
850.249	0.0165485
850.328	0.0164957
850.406	0.0166232
850.484	0.0165352
850.562	0.0167001
850.640	0.0166554
850.718	0.0166359
850.796	0.0165363
850.874	0.0166405
850.953	0.0166978
851.031	0.0167034
851.109	0.0166257
851.187	0.0166842
851.265	0.0166227
851.343	0.0168072
851.421	0.0165926
851.499	0.0166844
851.578	0.0166285
851.656	0.0166121
851.734	0.0166101
851.812	0.0166681
851.890	0.0165780
851.968	0.0166785
852.046	0.0165041
852.124	0.0166113
852.203	0.0166582
852.281	0.0165427
852.359	0.0165597
852.437	0.0166540
852.515	0.0166560
852.593	0.0165673
852.671	0.0166076
852.749	0.0166649
852.828	0.0167125
852.906	0.0166279
852.984	0.0165730
853.062	0.0165984
853.140	0.0166573
853.218	0.0165381
853.296	0.0167583
853.374	0.0166743
853.453	0.0166447
853.531	0.0165721
853.609	0.0163808
853.687	0.0163860
853.765	0.0163981
853.843	0.0165314
853.921	0.0164945
853.999	0.0164995
854.078	0.0164075
854.156	0.0163020
854.234	0.0164812
854.312	0.0163845
854.390	0.0163886
854.468	0.0162913
854.546	0.0164570
854.624	0.0163738
854.703	0.0164342
854.781	0.0164449
854.859	0.0165424
854.937	0.0165793
855.015	0.0164344
855.093	0.0166155
855.171	0.0166460
855.249	0.0167380
855.328	0.0167175
855.406	0.0166186
855.484	0.0166788
855.562	0.0166847
855.640	0.0165861
855.718	0.0167136
855.796	0.0168713
855.874	0.0167102
855.953	0.0166369
856.031	0.0165074
856.109	0.0166972
856.187	0.0166412
856.265	0.0165690
856.343	0.0166498
856.421	0.0165285
856.499	0.0163644
856.578	0.0164036
856.656	0.0163039
856.734	0.0163834
856.812	0.0163993
856.890	0.0163155
856.968	0.0163227
857.046	0.0162828
857.124	0.0162775
857.203	0.0162819
857.281	0.0163629
857.359	0.0162961
857.437	0.0163778
857.515	0.0163779
857.593	0.0164743
857.671	0.0165324
857.749	0.0165327
857.828	0.0164846
857.906	0.0165391
857.984	0.0165247
858.062	0.0165934
858.140	0.0167634
858.218	0.0166119
858.296	0.0167196
858.374	0.0165495
858.453	0.0167895
858.531	0.0169753
858.609	0.0168458
858.687	0.0166901
858.765	0.0167507
858.843	0.0168541
858.921	0.0169212
858.999	0.0168768
859.078	0.0167049
859.156	0.0166818
859.234	0.0167722
859.312	0.0166590
859.390	0.0166138
859.468	0.0165934
859.546	0.0165712
859.624	0.0165054
859.703	0.0163523
859.781	0.0165671
859.859	0.0164369
859.937	0.0165004
860.015	0.0163969
860.093	0.0164767
860.171	0.0165726
860.249	0.0164587
860.328	0.0162542
860.406	0.0164288
860.484	0.0164468
860.562	0.0165075
860.640	0.0166380
860.718	0.0165869
860.796	0.0166522
860.874	0.0166562
860.953	0.0168517
861.031	0.0167402
861.109	0.0168251
861.187	0.0168319
861.265	0.0166706
861.343	0.0168545
861.421	0.0167631
861.499	0.0166190
861.578	0.0166876
861.656	0.0165406
861.734	0.0166335
861.812	0.0165562
861.890	0.0164881
861.968	0.0164729
862.046	0.0165826
862.124	0.0164975
862.203	0.0165270
862.281	0.0166061
862.359	0.0164733
862.437	0.0165968
862.515	0.0165705
862.593	0.0165020
862.671	0.0165723
862.749	0.0166192
862.828	0.0165115
862.906	0.0167050
862.984	0.0165645
863.062	0.0165322
863.140	0.0166499
863.218	0.0163760
863.296	0.0165321
863.374	0.0166944
863.453	0.0164756
863.531	0.0165916
863.609	0.0166704
863.687	0.0165976
863.765	0.0165114
863.843	0.0165024
863.921	0.0164695
863.999	0.0167443
864.078	0.0166734
864.156	0.0164503
864.234	0.0166291
864.312	0.0167432
864.390	0.0166835
864.468	0.0167622
864.546	0.0166349
864.624	0.0165807
864.703	0.0166724
864.781	0.0166548
864.859	0.0165665
864.937	0.0167678
865.015	0.0168153
865.093	0.0167241
865.171	0.0165914
865.249	0.0166721
865.328	0.0167014
865.406	0.0166636
865.484	0.0166785
865.562	0.0165622
865.640	0.0165755
865.718	0.0166640
865.796	0.0167300
865.874	0.0166144
865.953	0.0166209
866.031	0.0167326
866.109	0.0166011
866.187	0.0166379
866.265	0.0167052
866.343	0.0166560
866.421	0.0165880
866.499	0.0166432
866.578	0.0167391
866.656	0.0166798
866.734	0.0166927
866.812	0.0165722
866.890	0.0166613
866.968	0.0167396
867.046	0.0166709
867.124	0.0166009
867.203	0.0167601
867.281	0.0166566
867.359	0.0167099
867.437	0.0164474
867.515	0.0164935
867.593	0.0165441
867.671	0.0164974
867.749	0.0165779
867.828	0.0165301
867.906	0.0163135
867.984	0.0164947
868.062	0.0165847
868.140	0.0163606
868.218	0.0163814
868.296	0.0164445
868.374	0.0162583
868.453	0.0163727
868.531	0.0165131
868.609	0.0164346
868.687	0.0163447
868.765	0.0165132
868.843	0.0165218
868.921	0.0163499
868.999	0.0164381
869.078	0.0166130
869.156	0.0165391
869.234	0.0165843
869.312	0.0165926
869.390	0.0167099
869.468	0.0167575
869.546	0.0168299
869.624	0.0167585
869.703	0.0167928
869.781	0.0167538
869.859	0.0167310
869.937	0.0168012
870.015	0.0167762
870.093	0.0166171
870.171	0.0167469
870.249	0.0167191
870.328	0.0166839
870.406	0.0165874
870.484	0.0165038
870.562	0.0164800
870.640	0.0165281
870.718	0.0165005
870.796	0.0165322
870.874	0.0164290
870.953	0.0164738
871.031	0.0164851
871.109	0.0163718
871.187	0.0163809
871.265	0.0164609
871.343	0.0164480
871.421	0.0163539
871.499	0.0164180
871.578	0.0166351
871.656	0.0165027
871.734	0.0164120
871.812	0.0165591
871.890	0.0165400
871.968	0.0164565
872.046	0.0165311
872.124	0.0165604
872.203	0.0166269
872.281	0.0166836
872.359	0.0167273
872.437	0.0166720
872.515	0.0166153
872.593	0.0166017
872.671	0.0166582
872.749	0.0166358
872.828	0.0166370
872.906	0.0166352
872.984	0.0165968
873.062	0.0165861
873.140	0.0164777
873.218	0.0164756
873.296	0.0164709
873.374	0.0164599
873.453	0.0163524
873.531	0.0163394
873.609	0.0162608
873.687	0.0162703
873.765	0.0163947
873.843	0.0163271
873.921	0.0162878
873.999	0.0162572
874.078	0.0164214
874.156	0.0163842
874.234	0.0163335
874.312	0.0162926
874.390	0.0163131
874.468	0.0162852
874.546	0.0164665
874.624	0.0163215
874.703	0.0162632
874.781	0.0164108
874.859	0.0166065
874.937	0.0164937
875.015	0.0163212
875.093	0.0163920
875.171	0.0164930
875.249	0.0163525
875.328	0.0163449
875.406	0.0163478
875.484	0.0163725
875.562	0.0165224
875.640	0.0165443
875.718	0.0163934
875.796	0.0164671
875.874	0.0165239
875.953	0.0164795
876.031	0.0164178
876.109	0.0164986
876.187	0.0163847
876.265	0.0163761
876.343	0.0165320
876.421	0.0165128
876.499	0.0163633
876.578	0.0163610
876.656	0.0163705
876.734	0.0164692
876.812	0.0165072
876.890	0.0165504
876.968	0.0162938
877.046	0.0164613
877.124	0.0164906
877.203	0.0165871
877.281	0.0166520
877.359	0.0165376
877.437	0.0165422
877.515	0.0165369
877.593	0.0165264
877.671	0.0166938
877.749	0.0165002
877.828	0.0165169
877.906	0.0165862
877.984	0.0164230
878.062	0.0164622
878.140	0.0164377
878.218	0.0163469
878.296	0.0164953
878.374	0.0164098
878.453	0.0165425
878.531	0.0163828
878.609	0.0163960
878.687	0.0163105
878.765	0.0164774
878.843	0.0163225
878.921	0.0163810
878.999	0.0163415
879.078	0.0162710
879.156	0.0163284
879.234	0.0162247
879.312	0.0161641
879.390	0.0162927
879.468	0.0162020
879.546	0.0163736
879.624	0.0164120
879.703	0.0164423
879.781	0.0163630
879.859	0.0164113
879.937	0.0163014
880.015	0.0164812
880.093	0.0164626
880.171	0.0165143
880.249	0.0166400
880.328	0.0165559
880.406	0.0165637
880.484	0.0165511
880.562	0.0165907
880.640	0.0166059
880.718	0.0166573
880.796	0.0165515
880.874	0.0165942
880.953	0.0165541
881.031	0.0164757
881.109	0.0163340
881.187	0.0164104
881.265	0.0165684
881.343	0.0163171
881.421	0.0162696
881.499	0.0163391
881.578	0.0163403
881.656	0.0163766
881.734	0.0164104
881.812	0.0163644
881.890	0.0163452
881.968	0.0164161
882.046	0.0165329
882.124	0.0165228
882.203	0.0163436
882.281	0.0164965
882.359	0.0164063
882.437	0.0164594
882.515	0.0166002
882.593	0.0167211
882.671	0.0165874
882.749	0.0166599
882.828	0.0166703
882.906	0.0165596
882.984	0.0165853
883.062	0.0165141
883.140	0.0167625
883.218	0.0167977
883.296	0.0166735
883.374	0.0166194
883.453	0.0167870
883.531	0.0166991
883.609	0.0166186
883.687	0.0166064
883.765	0.0166396
883.843	0.0167410
883.921	0.0165878
883.999	0.0165915
884.078	0.0167152
884.156	0.0165845
884.234	0.0166109
884.312	0.0165355
884.390	0.0165691
884.468	0.0166899
884.546	0.0167327
884.624	0.0165063
884.703	0.0165923
884.781	0.0165213
884.859	0.0165430
884.937	0.0164600
885.015	0.0166083
885.093	0.0164860
885.171	0.0164447
885.249	0.0165969
885.328	0.0164725
885.406	0.0165456
885.484	0.0162965
885.562	0.0163517
885.640	0.0164523
885.718	0.0162992
885.796	0.0164246
885.874	0.0163126
885.953	0.0163101
886.031	0.0163358
886.109	0.0164554
886.187	0.0163503
886.265	0.0164138
886.343	0.0163080
886.421	0.0164575
886.499	0.0161504
886.578	0.0163892
886.656	0.0164082
886.734	0.0165498
886.812	0.0164903
886.890	0.0163142
886.968	0.0164358
887.046	0.0164146
887.124	0.0163293
887.203	0.0164294
887.281	0.0164543
887.359	0.0166143
887.437	0.0164422
887.515	0.0164769
887.593	0.0164162
887.671	0.0165244
887.749	0.0166110
887.828	0.0165958
887.906	0.0164332
887.984	0.0164892
888.062	0.0164561
888.140	0.0165173
888.218	0.0164639
888.296	0.0166452
888.374	0.0166026
888.453	0.0164980
888.531	0.0164523
888.609	0.0165562
888.687	0.0165442
888.765	0.0165936
888.843	0.0165694
888.921	0.0164788
888.999	0.0164977
889.078	0.0166519
889.156	0.0165331
889.234	0.0165579
889.312	0.0167120
889.390	0.0165205
889.468	0.0164414
889.546	0.0166582
889.624	0.0167304
889.703	0.0165389
889.781	0.0164400
889.859	0.0164167
889.937	0.0165457
890.015	0.0166785
890.093	0.0166337
890.171	0.0164462
890.249	0.0165031
890.328	0.0167335
890.406	0.0167056
890.484	0.0165589
890.562	0.0165500
890.640	0.0166036
890.718	0.0166518
890.796	0.0165047
890.874	0.0165006
890.953	0.0164902
891.031	0.0164899
891.109	0.0164910
891.187	0.0164770
891.265	0.0165684
891.343	0.0164964
891.421	0.0165485
891.499	0.0163884
891.578	0.0163070
891.656	0.0164084
891.734	0.0164288
891.812	0.0165244
891.890	0.0164681
891.968	0.0164081
892.046	0.0164983
892.124	0.0164742
892.203	0.0164091
892.281	0.0165147
892.359	0.0165355
892.437	0.0166679
892.515	0.0165475
892.593	0.0165739
892.671	0.0165725
892.749	0.0165635
892.828	0.0165577
892.906	0.0166234
892.984	0.0164761
893.062	0.0166827
893.140	0.0166187
893.218	0.0165820
893.296	0.0165665
893.374	0.0165717
893.453	0.0165637
893.531	0.0164375
893.609	0.0164375
893.687	0.0165114
893.765	0.0164911
893.843	0.0164433
893.921	0.0164687
893.999	0.0164520
894.078	0.0162966
894.156	0.0163901
894.234	0.0164868
894.312	0.0163713
894.390	0.0165852
894.468	0.0164241
894.546	0.0164463
894.624	0.0164761
894.703	0.0164870
894.781	0.0165287
894.859	0.0164053
894.937	0.0163009
895.015	0.0163905
895.093	0.0164611
895.171	0.0164897
895.249	0.0167215
895.328	0.0165481
895.406	0.0164500
895.484	0.0164901
895.562	0.0165279
895.640	0.0166157
895.718	0.0165477
895.796	0.0165690
895.874	0.0166425
895.953	0.0164671
896.031	0.0164218
896.109	0.0164232
896.187	0.0163939
896.265	0.0165659
896.343	0.0165025
896.421	0.0163509
896.499	0.0163503
896.578	0.0164217
896.656	0.0163528
896.734	0.0163706
896.812	0.0163161
896.890	0.0164754
896.968	0.0164142
897.046	0.0163461
897.124	0.0165815
897.203	0.0165130
897.281	0.0162642
897.359	0.0163769
897.437	0.0165047
897.515	0.0162756
897.593	0.0164862
897.671	0.0163934
897.749	0.0164794
897.828	0.0164288
897.906	0.0164803
897.984	0.0164102
898.062	0.0164312
898.140	0.0166182
898.218	0.0164869
898.296	0.0164984
898.374	0.0165930
898.453	0.0164047
898.531	0.0164917
898.609	0.0164463
898.687	0.0163976
898.765	0.0165444
898.843	0.0165544
898.921	0.0164974
898.999	0.0165668
899.078	0.0165759
899.156	0.0164786
899.234	0.0164514
899.312	0.0165914
899.390	0.0165681
899.468	0.0165356
899.546	0.0164194
899.624	0.0165699
899.703	0.0165713
899.781	0.0164982
899.859	0.0165076
899.937	0.0165807
900.015	0.0164885
900.093	0.0164776
900.171	0.0165075
900.249	0.0165279
900.328	0.0165133
900.406	0.0164040
900.484	0.0165266
900.562	0.0164648
900.640	0.0164021
900.718	0.0164555
900.796	0.0164909
900.874	0.0165552
900.953	0.0165166
901.031	0.0163673
901.109	0.0164410
901.187	0.0162621
901.265	0.0163879
901.343	0.0164077
901.421	0.0163335
901.499	0.0164294
901.578	0.0163876
901.656	0.0165066
901.734	0.0163900
901.812	0.0163341
901.890	0.0163770
901.968	0.0162879
902.046	0.0163544
902.124	0.0163143
902.203	0.0162244
902.281	0.0163522
902.359	0.0161910
902.437	0.0161720
902.515	0.0161543
902.593	0.0161430
902.671	0.0162476
902.749	0.0160548
902.828	0.0162016
902.906	0.0162387
902.984	0.0161251
903.062	0.0163712
903.140	0.0163892
903.218	0.0163689
903.296	0.0163354
903.374	0.0163605
903.453	0.0164754
903.531	0.0163850
903.609	0.0164160
903.687	0.0165627
903.765	0.0165765
903.843	0.0165025
903.921	0.0166335
903.999	0.0166328
904.078	0.0165142
904.156	0.0167094
904.234	0.0167437
904.312	0.0166331
904.390	0.0166325
904.468	0.0166865
904.546	0.0167049
904.624	0.0167173
904.703	0.0167913
904.781	0.0166888
904.859	0.0166961
904.937	0.0165639
905.015	0.0166801
905.093	0.0167236
905.171	0.0165585
905.249	0.0165575
905.328	0.0166450
905.406	0.0165255
905.484	0.0163411
905.562	0.0165221
905.640	0.0165948
905.718	0.0165685
905.796	0.0164274
905.874	0.0164329
905.953	0.0165775
906.031	0.0164875
906.109	0.0164033
906.187	0.0162900
906.265	0.0164973
906.343	0.0164199
906.421	0.0163107
906.499	0.0164778
906.578	0.0164445
906.656	0.0163410
906.734	0.0164362
906.812	0.0162959
906.890	0.0164452
906.968	0.0164273
907.046	0.0164214
907.124	0.0164694
907.203	0.0163565
907.281	0.0163374
907.359	0.0163545
907.437	0.0163184
907.515	0.0164306
907.593	0.0164410
907.671	0.0164077
907.749	0.0164037
907.828	0.0164320
907.906	0.0164373
907.984	0.0164535
908.062	0.0164769
908.140	0.0164328
908.218	0.0164550
908.296	0.0163757
908.374	0.0163190
908.453	0.0162662
908.531	0.0163719
908.609	0.0164118
908.687	0.0163313
908.765	0.0162877
908.843	0.0162663
908.921	0.0162279
908.999	0.0164234
909.078	0.0163706
909.156	0.0163588
909.234	0.0163833
909.312	0.0163689
909.390	0.0163985
909.468	0.0163833
909.546	0.0165685
909.624	0.0165450
909.703	0.0166911
909.781	0.0166241
909.859	0.0164645
909.937	0.0166535
910.015	0.0167371
910.093	0.0167068
910.171	0.0166508
910.249	0.0166785
910.328	0.0166739
910.406	0.0166592
910.484	0.0167651
910.562	0.0167223
910.640	0.0167081
910.718	0.0167368
910.796	0.0165708
910.874	0.0165233
910.953	0.0166145
911.031	0.0166335
911.109	0.0166490
911.187	0.0166033
911.265	0.0165249
911.343	0.0165788
911.421	0.0165347
911.499	0.0165922
911.578	0.0164987
911.656	0.0166425
911.734	0.0167644
911.812	0.0166195
911.890	0.0166279
911.968	0.0165765
912.046	0.0165220
912.124	0.0166074
912.203	0.0166204
912.281	0.0165317
912.359	0.0166222
912.437	0.0166434
912.515	0.0165601
912.593	0.0163978
912.671	0.0165054
912.749	0.0163086
912.828	0.0163361
912.906	0.0165092
912.984	0.0163129
913.062	0.0164519
913.140	0.0163924
913.218	0.0162747
913.296	0.0162801
913.374	0.0163628
913.453	0.0162688
913.531	0.0161342
913.609	0.0163062
913.687	0.0162478
913.765	0.0163460
913.843	0.0163406
913.921	0.0163012
913.999	0.0163356
914.078	0.0163174
914.156	0.0164191
914.234	0.0165076
914.312	0.0164002
914.390	0.0162132
914.468	0.0162904
914.546	0.0164118
914.624	0.0163852
914.703	0.0165018
914.781	0.0163098
914.859	0.0163970
914.937	0.0165318
915.015	0.0164855
915.093	0.0165742
915.171	0.0163935
915.249	0.0164500
915.328	0.0164438
915.406	0.0165736
915.484	0.0165721
915.562	0.0165182
915.640	0.0165517
915.718	0.0166235
915.796	0.0166023
915.874	0.0167277
915.953	0.0168175
916.031	0.0166904
916.109	0.0166743
916.187	0.0167886
916.265	0.0167753
916.343	0.0166867
916.421	0.0168077
916.499	0.0166989
916.578	0.0166357
916.656	0.0168021
916.734	0.0166540
916.812	0.0166611
916.890	0.0165826
916.968	0.0165643
917.046	0.0166560
917.124	0.0167349
917.203	0.0166103
917.281	0.0166168
917.359	0.0166490
917.437	0.0164915
917.515	0.0165864
917.593	0.0166322
917.671	0.0165265
917.749	0.0165845
917.828	0.0166087
917.906	0.0165406
917.984	0.0166064
918.062	0.0165387
918.140	0.0166006
918.218	0.0166592
918.296	0.0166368
918.374	0.0165450
918.453	0.0165753
918.531	0.0164497
918.609	0.0164100
918.687	0.0163796
918.765	0.0164590
918.843	0.0163622
918.921	0.0162854
918.999	0.0163257
919.078	0.0162160
919.156	0.0162686
919.234	0.0163824
919.312	0.0163036
919.390	0.0162600
919.468	0.0163120
919.546	0.0162196
919.624	0.0163316
919.703	0.0162863
919.781	0.0164112
919.859	0.0163858
919.937	0.0162319
