06/10/2022	16:40:58	Ver.	4.1	UNKNOWN
Optical Delay	600.015094	Delta X		0.078125	Sweeps	1	Scan Rate	0/0
Coordinates	Axis 1	NaN	Axis 2	NaN	Axis 3	NaN	Axis 4	NaN	Axis 5	NaN	Axis 6	0.000000
TX Power	0.000000	RX Power	0.000000

600.015	0.0158997
600.093	0.0158769
600.171	0.0158458
600.249	0.0161323
600.328	0.0161452
600.406	0.0157856
600.484	0.0159404
600.562	0.0159471
600.640	0.0160452
600.718	0.0159428
600.796	0.0159325
600.874	0.0160859
600.953	0.0160235
601.031	0.0160227
601.109	0.0160619
601.187	0.0160255
601.265	0.0161140
601.343	0.0159486
601.421	0.0159901
601.499	0.0161627
601.578	0.0160950
601.656	0.0159863
601.734	0.0159779
601.812	0.0158015
601.890	0.0159669
601.968	0.0159347
602.046	0.0159042
602.124	0.0160979
602.203	0.0159978
602.281	0.0160220
602.359	0.0160948
602.437	0.0159657
602.515	0.0160560
602.593	0.0159003
602.671	0.0158453
602.749	0.0161317
602.828	0.0160224
602.906	0.0159048
602.984	0.0160596
603.062	0.0159486
603.140	0.0159154
603.218	0.0160768
603.296	0.0161479
603.374	0.0159595
603.453	0.0159402
603.531	0.0158775
603.609	0.0159664
603.687	0.0158994
603.765	0.0159635
603.843	0.0158166
603.921	0.0159373
603.999	0.0159150
604.078	0.0158926
604.156	0.0159779
604.234	0.0159003
604.312	0.0157465
604.390	0.0157635
604.468	0.0157983
604.546	0.0160617
604.624	0.0158476
604.703	0.0158649
604.781	0.0158390
604.859	0.0158466
604.937	0.0157813
605.015	0.0157820
605.093	0.0158865
605.171	0.0158223
605.249	0.0159426
605.328	0.0157951
605.406	0.0158132
605.484	0.0158978
605.562	0.0159532
605.640	0.0158268
605.718	0.0157503
605.796	0.0158436
605.874	0.0158253
605.953	0.0158118
606.031	0.0157561
606.109	0.0157560
606.187	0.0159396
606.265	0.0157883
606.343	0.0158413
606.421	0.0158288
606.499	0.0159018
606.578	0.0160155
606.656	0.0157798
606.734	0.0157642
606.812	0.0158117
606.890	0.0158437
606.968	0.0158266
607.046	0.0159110
607.124	0.0158566
607.203	0.0158267
607.281	0.0158203
607.359	0.0160232
607.437	0.0159049
607.515	0.0157274
607.593	0.0158724
607.671	0.0159090
607.749	0.0158301
607.828	0.0157553
607.906	0.0157813
607.984	0.0156886
608.062	0.0158678
608.140	0.0158391
608.218	0.0158289
608.296	0.0159096
608.374	0.0157760
608.453	0.0159449
608.531	0.0158599
608.609	0.0159013
608.687	0.0158414
608.765	0.0159163
608.843	0.0158313
608.921	0.0159127
608.999	0.0158594
609.078	0.0158965
609.156	0.0158704
609.234	0.0159174
609.312	0.0158820
609.390	0.0159937
609.468	0.0159077
609.546	0.0157270
609.624	0.0158743
609.703	0.0157975
609.781	0.0158495
609.859	0.0158990
609.937	0.0159302
610.015	0.0159648
610.093	0.0159495
610.171	0.0158899
610.249	0.0159473
610.328	0.0159216
610.406	0.0160120
610.484	0.0159370
610.562	0.0159139
610.640	0.0158577
610.718	0.0158957
610.796	0.0159529
610.874	0.0159253
610.953	0.0159441
611.031	0.0158236
611.109	0.0159946
611.187	0.0159953
611.265	0.0158858
611.343	0.0160548
611.421	0.0159398
611.499	0.0158422
611.578	0.0160035
611.656	0.0161266
611.734	0.0159921
611.812	0.0158919
611.890	0.0158647
611.968	0.0160477
612.046	0.0159752
612.124	0.0157977
612.203	0.0160060
612.281	0.0159718
612.359	0.0158543
612.437	0.0159681
612.515	0.0158017
612.593	0.0158960
612.671	0.0158695
612.749	0.0159512
612.828	0.0159470
612.906	0.0158425
612.984	0.0159261
613.062	0.0159415
613.140	0.0158860
613.218	0.0159492
613.296	0.0161034
613.374	0.0160279
613.453	0.0159711
613.531	0.0160058
613.609	0.0158488
613.687	0.0158759
613.765	0.0159023
613.843	0.0159869
613.921	0.0158117
613.999	0.0158749
614.078	0.0158995
614.156	0.0157953
614.234	0.0159038
614.312	0.0158043
614.390	0.0157935
614.468	0.0158898
614.546	0.0159694
614.624	0.0158942
614.703	0.0159648
614.781	0.0158965
614.859	0.0159519
614.937	0.0159125
615.015	0.0159562
615.093	0.0160252
615.171	0.0160066
615.249	0.0159794
615.328	0.0158167
615.406	0.0158523
615.484	0.0160384
615.562	0.0160419
615.640	0.0158941
615.718	0.0159846
615.796	0.0158622
615.874	0.0158634
615.953	0.0160367
616.031	0.0159710
616.109	0.0159518
616.187	0.0159268
616.265	0.0158945
616.343	0.0160152
616.421	0.0159193
616.499	0.0158379
616.578	0.0158910
616.656	0.0160427
616.734	0.0159747
616.812	0.0159231
616.890	0.0159655
616.968	0.0160015
617.046	0.0158878
617.124	0.0158688
617.203	0.0158955
617.281	0.0160345
617.359	0.0158437
617.437	0.0158729
617.515	0.0161158
617.593	0.0158527
617.671	0.0159759
617.749	0.0159369
617.828	0.0159921
617.906	0.0159569
617.984	0.0159143
618.062	0.0159122
618.140	0.0159342
618.218	0.0160092
618.296	0.0160110
618.374	0.0158960
618.453	0.0158570
618.531	0.0158766
618.609	0.0159045
618.687	0.0158741
618.765	0.0160532
618.843	0.0159164
618.921	0.0159284
618.999	0.0158879
619.078	0.0158974
619.156	0.0159248
619.234	0.0159176
619.312	0.0158733
619.390	0.0158753
619.468	0.0158423
619.546	0.0158906
619.624	0.0160517
619.703	0.0158870
619.781	0.0158456
619.859	0.0159117
619.937	0.0158972
620.015	0.0159203
620.093	0.0158569
620.171	0.0158353
620.249	0.0160600
620.328	0.0159441
620.406	0.0158335
620.484	0.0158805
620.562	0.0159678
620.640	0.0159306
620.718	0.0159489
620.796	0.0159969
620.874	0.0159353
620.953	0.0158223
621.031	0.0159077
621.109	0.0161595
621.187	0.0159041
621.265	0.0159864
621.343	0.0160687
621.421	0.0160329
621.499	0.0161090
621.578	0.0158839
621.656	0.0159753
621.734	0.0159789
621.812	0.0161153
621.890	0.0159669
621.968	0.0159694
622.046	0.0160009
622.124	0.0160101
622.203	0.0161008
622.281	0.0160525
622.359	0.0159348
622.437	0.0161408
622.515	0.0161044
622.593	0.0160668
622.671	0.0160932
622.749	0.0160447
622.828	0.0161227
622.906	0.0161231
622.984	0.0161662
623.062	0.0161903
623.140	0.0161359
623.218	0.0160676
623.296	0.0160158
623.374	0.0159880
623.453	0.0161999
623.531	0.0161115
623.609	0.0160101
623.687	0.0160384
623.765	0.0162891
623.843	0.0161345
623.921	0.0160762
623.999	0.0160825
624.078	0.0159460
624.156	0.0161818
624.234	0.0161496
624.312	0.0160587
624.390	0.0161176
624.468	0.0161234
624.546	0.0160677
624.624	0.0161238
624.703	0.0159760
624.781	0.0161327
624.859	0.0161655
624.937	0.0161665
625.015	0.0160925
625.093	0.0160564
625.171	0.0159850
625.249	0.0159625
625.328	0.0158631
625.406	0.0160817
625.484	0.0159645
625.562	0.0159322
625.640	0.0159648
625.718	0.0160126
625.796	0.0160438
625.874	0.0159412
625.953	0.0158999
626.031	0.0159566
626.109	0.0159367
626.187	0.0160012
626.265	0.0158690
626.343	0.0160971
626.421	0.0159558
626.499	0.0160607
626.578	0.0160149
626.656	0.0158331
626.734	0.0158842
626.812	0.0158535
626.890	0.0160049
626.968	0.0160136
627.046	0.0159667
627.124	0.0158540
627.203	0.0159593
627.281	0.0160054
627.359	0.0158178
627.437	0.0158794
627.515	0.0158947
627.593	0.0157701
627.671	0.0158669
627.749	0.0158130
627.828	0.0157997
627.906	0.0159393
627.984	0.0158282
628.062	0.0159013
628.140	0.0157708
628.218	0.0158529
628.296	0.0157410
628.374	0.0157349
628.453	0.0158466
628.531	0.0158845
628.609	0.0157713
628.687	0.0156775
628.765	0.0158562
628.843	0.0159032
628.921	0.0159753
628.999	0.0157871
629.078	0.0157609
629.156	0.0156667
629.234	0.0158164
629.312	0.0159046
629.390	0.0157785
629.468	0.0159444
629.546	0.0158632
629.624	0.0159074
629.703	0.0158838
629.781	0.0157410
629.859	0.0158102
629.937	0.0157078
630.015	0.0158608
630.093	0.0158659
630.171	0.0156776
630.249	0.0157282
630.328	0.0158338
630.406	0.0158813
630.484	0.0157593
630.562	0.0157874
630.640	0.0157479
630.718	0.0157777
630.796	0.0157103
630.874	0.0157587
630.953	0.0156550
631.031	0.0157126
631.109	0.0157032
631.187	0.0158421
631.265	0.0157831
631.343	0.0157653
631.421	0.0158186
631.499	0.0155888
631.578	0.0156657
631.656	0.0157130
631.734	0.0157817
631.812	0.0156833
631.890	0.0155894
631.968	0.0156995
632.046	0.0158249
632.124	0.0158237
632.203	0.0156608
632.281	0.0157822
632.359	0.0157838
632.437	0.0157715
632.515	0.0156996
632.593	0.0156417
632.671	0.0158421
632.749	0.0158198
632.828	0.0157148
632.906	0.0157587
632.984	0.0157158
633.062	0.0157684
633.140	0.0158466
633.218	0.0158777
633.296	0.0158196
633.374	0.0158048
633.453	0.0157912
633.531	0.0158394
633.609	0.0156567
633.687	0.0158755
633.765	0.0158121
633.843	0.0158092
633.921	0.0159178
633.999	0.0157057
634.078	0.0158150
634.156	0.0158952
634.234	0.0157241
634.312	0.0158525
634.390	0.0158235
634.468	0.0157223
634.546	0.0158574
634.624	0.0160117
634.703	0.0158578
634.781	0.0159516
634.859	0.0158426
634.937	0.0159198
635.015	0.0158714
635.093	0.0159030
635.171	0.0158341
635.249	0.0159354
635.328	0.0157779
635.406	0.0158764
635.484	0.0159539
635.562	0.0159598
635.640	0.0158907
635.718	0.0158851
635.796	0.0158115
635.874	0.0158542
635.953	0.0158122
636.031	0.0158472
636.109	0.0160210
636.187	0.0159342
636.265	0.0158995
636.343	0.0159432
636.421	0.0159930
636.499	0.0160176
636.578	0.0157905
636.656	0.0159818
636.734	0.0159240
636.812	0.0158782
636.890	0.0159007
636.968	0.0160073
637.046	0.0158409
637.124	0.0158514
637.203	0.0160357
637.281	0.0159522
637.359	0.0158416
637.437	0.0160461
637.515	0.0158833
637.593	0.0159628
637.671	0.0159479
637.749	0.0159406
637.828	0.0158908
637.906	0.0158859
637.984	0.0157173
638.062	0.0159992
638.140	0.0159023
638.218	0.0159642
638.296	0.0159831
638.374	0.0158829
638.453	0.0159509
638.531	0.0158874
638.609	0.0158403
638.687	0.0160100
638.765	0.0159068
638.843	0.0159707
638.921	0.0159648
638.999	0.0158650
639.078	0.0158317
639.156	0.0159921
639.234	0.0158511
639.312	0.0158958
639.390	0.0158640
639.468	0.0158205
639.546	0.0159630
639.624	0.0158340
639.703	0.0158193
639.781	0.0157734
639.859	0.0158105
639.937	0.0159945
640.015	0.0160211
640.093	0.0160852
640.171	0.0159576
640.249	0.0159721
640.328	0.0160417
640.406	0.0159271
640.484	0.0159256
640.562	0.0158561
640.640	0.0158949
640.718	0.0159401
640.796	0.0158575
640.874	0.0158291
640.953	0.0160105
641.031	0.0159242
641.109	0.0159743
641.187	0.0159505
641.265	0.0158921
641.343	0.0159479
641.421	0.0160542
641.499	0.0159196
641.578	0.0159772
641.656	0.0160001
641.734	0.0159261
641.812	0.0159558
641.890	0.0160600
641.968	0.0159822
642.046	0.0158950
642.124	0.0159271
642.203	0.0160321
642.281	0.0159895
642.359	0.0159556
642.437	0.0159314
642.515	0.0159095
642.593	0.0158817
642.671	0.0160019
642.749	0.0159119
642.828	0.0159045
642.906	0.0159399
642.984	0.0159595
643.062	0.0159666
643.140	0.0159250
643.218	0.0158992
643.296	0.0159015
643.374	0.0160800
643.453	0.0159914
643.531	0.0160658
643.609	0.0158727
643.687	0.0159007
643.765	0.0159632
643.843	0.0159932
643.921	0.0160777
643.999	0.0160305
644.078	0.0159783
644.156	0.0160098
644.234	0.0161386
644.312	0.0158694
644.390	0.0158247
644.468	0.0159641
644.546	0.0159332
644.624	0.0159616
644.703	0.0159827
644.781	0.0161040
644.859	0.0161449
644.937	0.0159393
645.015	0.0159178
645.093	0.0159348
645.171	0.0160717
645.249	0.0161506
645.328	0.0159103
645.406	0.0158698
645.484	0.0159563
645.562	0.0160335
645.640	0.0159603
645.718	0.0158604
645.796	0.0159621
645.874	0.0160062
645.953	0.0158327
646.031	0.0159911
646.109	0.0159565
646.187	0.0159346
646.265	0.0158682
646.343	0.0158986
646.421	0.0159340
646.499	0.0159954
646.578	0.0159572
646.656	0.0160809
646.734	0.0159862
646.812	0.0159795
646.890	0.0159462
646.968	0.0158768
647.046	0.0159457
647.124	0.0158766
647.203	0.0160220
647.281	0.0159224
647.359	0.0159949
647.437	0.0160477
647.515	0.0159106
647.593	0.0159692
647.671	0.0159673
647.749	0.0159750
647.828	0.0159209
647.906	0.0159129
647.984	0.0160857
648.062	0.0160394
648.140	0.0160019
648.218	0.0159235
648.296	0.0159459
648.374	0.0160345
648.453	0.0160284
648.531	0.0162197
648.609	0.0160139
648.687	0.0159705
648.765	0.0160048
648.843	0.0160622
648.921	0.0160407
648.999	0.0158949
649.078	0.0160828
649.156	0.0160325
649.234	0.0158453
649.312	0.0160395
649.390	0.0158566
649.468	0.0160095
649.546	0.0157916
649.624	0.0160313
649.703	0.0159587
649.781	0.0158951
649.859	0.0159473
649.937	0.0160262
650.015	0.0159740
650.093	0.0159575
650.171	0.0160500
650.249	0.0159473
650.328	0.0159678
650.406	0.0160934
650.484	0.0159731
650.562	0.0159335
650.640	0.0158779
650.718	0.0159904
650.796	0.0159501
650.874	0.0159133
650.953	0.0159256
651.031	0.0160390
651.109	0.0158559
651.187	0.0158768
651.265	0.0159120
651.343	0.0159027
651.421	0.0158169
651.499	0.0159201
651.578	0.0157500
651.656	0.0158523
651.734	0.0159255
651.812	0.0158758
651.890	0.0157471
651.968	0.0159538
652.046	0.0159503
652.124	0.0158296
652.203	0.0158851
652.281	0.0158657
652.359	0.0159875
652.437	0.0159911
652.515	0.0158374
652.593	0.0160152
652.671	0.0158990
652.749	0.0159131
652.828	0.0160324
652.906	0.0158425
652.984	0.0159863
653.062	0.0157040
653.140	0.0159962
653.218	0.0160223
653.296	0.0158807
653.374	0.0159153
653.453	0.0158572
653.531	0.0159700
653.609	0.0158666
653.687	0.0158842
653.765	0.0158603
653.843	0.0157887
653.921	0.0158996
653.999	0.0157494
654.078	0.0157766
654.156	0.0159855
654.234	0.0159051
654.312	0.0158379
654.390	0.0158764
654.468	0.0157039
654.546	0.0158485
654.624	0.0159904
654.703	0.0157346
654.781	0.0158588
654.859	0.0158262
654.937	0.0159180
655.015	0.0159637
655.093	0.0158292
655.171	0.0157835
655.249	0.0158180
655.328	0.0160234
655.406	0.0158724
655.484	0.0159517
655.562	0.0157642
655.640	0.0158016
655.718	0.0158961
655.796	0.0158675
655.874	0.0158575
655.953	0.0159364
656.031	0.0158749
656.109	0.0159221
656.187	0.0158911
656.265	0.0158111
656.343	0.0159354
656.421	0.0159689
656.499	0.0158810
656.578	0.0159769
656.656	0.0158492
656.734	0.0159888
656.812	0.0159088
656.890	0.0159315
656.968	0.0158156
657.046	0.0158335
657.124	0.0159579
657.203	0.0159686
657.281	0.0158517
657.359	0.0157788
657.437	0.0157957
657.515	0.0159491
657.593	0.0158494
657.671	0.0158286
657.749	0.0158804
657.828	0.0159468
657.906	0.0159131
657.984	0.0158073
658.062	0.0158382
658.140	0.0159114
658.218	0.0159100
658.296	0.0158910
658.374	0.0157928
658.453	0.0160119
658.531	0.0160233
658.609	0.0158357
658.687	0.0157774
658.765	0.0159113
658.843	0.0158881
658.921	0.0157693
658.999	0.0159384
659.078	0.0159251
659.156	0.0158488
659.234	0.0158165
659.312	0.0158180
659.390	0.0159837
659.468	0.0158286
659.546	0.0157697
659.624	0.0158949
659.703	0.0159251
659.781	0.0159909
659.859	0.0160336
659.937	0.0158655
660.015	0.0158389
660.093	0.0159491
660.171	0.0157701
660.249	0.0159235
660.328	0.0160547
660.406	0.0157877
660.484	0.0158951
660.562	0.0158836
660.640	0.0158841
660.718	0.0157872
660.796	0.0158340
660.874	0.0158878
660.953	0.0157774
661.031	0.0159117
661.109	0.0159707
661.187	0.0159019
661.265	0.0158985
661.343	0.0159043
661.421	0.0159243
661.499	0.0159405
661.578	0.0158715
661.656	0.0158606
661.734	0.0159145
661.812	0.0159282
661.890	0.0159413
661.968	0.0158898
662.046	0.0160051
662.124	0.0159830
662.203	0.0160594
662.281	0.0160996
662.359	0.0159282
662.437	0.0159515
662.515	0.0159438
662.593	0.0158891
662.671	0.0160369
662.749	0.0159307
662.828	0.0158884
662.906	0.0157734
662.984	0.0158932
663.062	0.0160145
663.140	0.0159226
663.218	0.0159704
663.296	0.0159959
663.374	0.0159974
663.453	0.0158583
663.531	0.0159036
663.609	0.0160485
663.687	0.0158632
663.765	0.0158875
663.843	0.0158936
663.921	0.0159460
663.999	0.0158661
664.078	0.0158817
664.156	0.0158431
664.234	0.0158211
664.312	0.0159727
664.390	0.0159637
664.468	0.0158489
664.546	0.0159287
664.624	0.0160549
664.703	0.0159570
664.781	0.0159632
664.859	0.0159222
664.937	0.0159273
665.015	0.0159720
665.093	0.0159759
665.171	0.0160755
665.249	0.0159238
665.328	0.0158915
665.406	0.0159412
665.484	0.0159431
665.562	0.0159214
665.640	0.0159933
665.718	0.0158554
665.796	0.0159920
665.874	0.0159768
665.953	0.0159756
666.031	0.0159995
666.109	0.0159841
666.187	0.0160211
666.265	0.0160400
666.343	0.0158865
666.421	0.0159430
666.499	0.0160243
666.578	0.0159990
666.656	0.0160067
666.734	0.0159946
666.812	0.0159940
666.890	0.0160435
666.968	0.0159621
667.046	0.0159683
667.124	0.0161160
667.203	0.0160999
667.281	0.0158955
667.359	0.0160548
667.437	0.0159985
667.515	0.0159166
667.593	0.0161016
667.671	0.0161127
667.749	0.0160942
667.828	0.0159724
667.906	0.0160528
667.984	0.0160588
668.062	0.0161926
668.140	0.0162379
668.218	0.0160300
668.296	0.0160464
668.374	0.0161470
668.453	0.0159828
668.531	0.0160376
668.609	0.0159383
668.687	0.0160900
668.765	0.0160777
668.843	0.0161320
668.921	0.0160970
668.999	0.0159596
669.078	0.0160361
669.156	0.0160255
669.234	0.0159335
669.312	0.0159996
669.390	0.0160622
669.468	0.0159476
669.546	0.0159915
669.624	0.0161137
669.703	0.0159106
669.781	0.0159727
669.859	0.0161592
669.937	0.0161215
670.015	0.0160927
670.093	0.0160528
670.171	0.0160125
670.249	0.0161137
670.328	0.0160195
670.406	0.0160985
670.484	0.0160523
670.562	0.0160114
670.640	0.0159340
670.718	0.0161781
670.796	0.0160540
670.874	0.0160939
670.953	0.0160075
671.031	0.0161304
671.109	0.0160503
671.187	0.0160081
671.265	0.0160830
671.343	0.0160747
671.421	0.0160563
671.499	0.0160893
671.578	0.0160976
671.656	0.0160046
671.734	0.0160921
671.812	0.0160005
671.890	0.0160461
671.968	0.0160607
672.046	0.0160859
672.124	0.0160795
672.203	0.0160529
672.281	0.0158833
672.359	0.0160635
672.437	0.0160037
672.515	0.0160138
672.593	0.0160945
672.671	0.0161494
672.749	0.0158897
672.828	0.0160181
672.906	0.0160449
672.984	0.0159930
673.062	0.0158627
673.140	0.0160173
673.218	0.0160719
673.296	0.0159746
673.374	0.0159469
673.453	0.0159800
673.531	0.0159080
673.609	0.0160574
673.687	0.0160968
673.765	0.0159940
673.843	0.0159557
673.921	0.0160690
673.999	0.0160529
674.078	0.0161667
674.156	0.0159348
674.234	0.0159254
674.312	0.0159758
674.390	0.0160490
674.468	0.0158958
674.546	0.0159409
674.624	0.0159341
674.703	0.0160129
674.781	0.0159453
674.859	0.0159383
674.937	0.0159138
675.015	0.0160082
675.093	0.0158351
675.171	0.0160285
675.249	0.0159902
675.328	0.0161246
675.406	0.0159857
675.484	0.0160725
675.562	0.0160364
675.640	0.0160717
675.718	0.0160263
675.796	0.0159274
675.874	0.0159558
675.953	0.0159363
676.031	0.0160769
676.109	0.0159705
676.187	0.0160605
676.265	0.0160442
676.343	0.0159928
676.421	0.0159692
676.499	0.0159145
676.578	0.0159583
676.656	0.0159995
676.734	0.0160731
676.812	0.0159023
676.890	0.0159404
676.968	0.0159550
677.046	0.0159585
677.124	0.0158464
677.203	0.0159682
677.281	0.0158999
677.359	0.0158994
677.437	0.0160390
677.515	0.0159267
677.593	0.0159148
677.671	0.0160070
677.749	0.0159209
677.828	0.0158860
677.906	0.0158732
677.984	0.0158366
678.062	0.0159840
678.140	0.0160515
678.218	0.0160518
678.296	0.0161240
678.374	0.0159325
678.453	0.0157939
678.531	0.0158649
678.609	0.0160045
678.687	0.0159546
678.765	0.0160548
678.843	0.0159913
678.921	0.0160356
678.999	0.0159250
679.078	0.0158559
679.156	0.0159251
679.234	0.0159355
679.312	0.0159299
679.390	0.0159287
679.468	0.0159190
679.546	0.0160943
679.624	0.0159612
679.703	0.0160132
679.781	0.0160011
679.859	0.0160115
679.937	0.0158760
680.015	0.0158968
680.093	0.0158528
680.171	0.0159431
680.249	0.0160993
680.328	0.0159744
680.406	0.0159582
680.484	0.0158989
680.562	0.0159203
680.640	0.0160309
680.718	0.0159562
680.796	0.0158410
680.874	0.0159409
680.953	0.0160076
681.031	0.0160275
681.109	0.0159369
681.187	0.0157973
681.265	0.0158566
681.343	0.0158715
681.421	0.0159766
681.499	0.0159215
681.578	0.0159676
681.656	0.0158854
681.734	0.0158214
681.812	0.0158735
681.890	0.0159271
681.968	0.0159158
682.046	0.0158622
682.124	0.0157742
682.203	0.0158142
682.281	0.0159962
682.359	0.0158314
682.437	0.0158326
682.515	0.0158136
682.593	0.0158885
682.671	0.0158489
682.749	0.0159727
682.828	0.0159772
682.906	0.0159251
682.984	0.0158894
683.062	0.0158777
683.140	0.0157893
683.218	0.0158298
683.296	0.0158401
683.374	0.0158962
683.453	0.0158949
683.531	0.0159732
683.609	0.0159760
683.687	0.0158202
683.765	0.0157735
683.843	0.0159033
683.921	0.0158366
683.999	0.0158430
684.078	0.0158654
684.156	0.0159287
684.234	0.0158468
684.312	0.0159229
684.390	0.0157498
684.468	0.0157913
684.546	0.0158369
684.624	0.0158627
684.703	0.0159351
684.781	0.0158429
684.859	0.0157955
684.937	0.0158685
685.015	0.0159713
685.093	0.0159277
685.171	0.0159867
685.249	0.0159283
685.328	0.0158449
685.406	0.0157695
685.484	0.0159314
685.562	0.0159359
685.640	0.0157793
685.718	0.0158484
685.796	0.0159534
685.874	0.0157115
685.953	0.0159068
686.031	0.0158908
686.109	0.0159078
686.187	0.0159095
686.265	0.0158398
686.343	0.0158971
686.421	0.0159875
686.499	0.0160057
686.578	0.0158312
686.656	0.0160207
686.734	0.0158795
686.812	0.0158624
686.890	0.0158308
686.968	0.0160838
687.046	0.0158608
687.124	0.0159474
687.203	0.0159787
687.281	0.0160014
687.359	0.0157886
687.437	0.0158909
687.515	0.0158353
687.593	0.0159313
687.671	0.0159350
687.749	0.0160287
687.828	0.0159163
687.906	0.0159576
687.984	0.0159396
688.062	0.0160271
688.140	0.0159008
688.218	0.0160764
688.296	0.0160806
688.374	0.0159323
688.453	0.0158190
688.531	0.0160516
688.609	0.0159121
688.687	0.0158945
688.765	0.0158754
688.843	0.0159002
688.921	0.0160307
688.999	0.0159539
689.078	0.0159849
689.156	0.0160216
689.234	0.0160203
689.312	0.0159438
689.390	0.0158556
689.468	0.0159892
689.546	0.0161401
689.624	0.0159861
689.703	0.0160191
689.781	0.0160188
689.859	0.0159861
689.937	0.0159966
690.015	0.0159404
690.093	0.0160364
690.171	0.0159982
690.249	0.0158724
690.328	0.0158774
690.406	0.0159684
690.484	0.0160151
690.562	0.0160229
690.640	0.0159824
690.718	0.0159222
690.796	0.0159377
690.874	0.0159283
690.953	0.0159289
691.031	0.0160883
691.109	0.0159305
691.187	0.0159234
691.265	0.0159335
691.343	0.0159267
691.421	0.0158914
691.499	0.0160340
691.578	0.0159797
691.656	0.0161417
691.734	0.0161047
691.812	0.0160837
691.890	0.0160791
691.968	0.0160159
692.046	0.0159750
692.124	0.0160535
692.203	0.0158871
692.281	0.0159357
692.359	0.0159056
692.437	0.0160530
692.515	0.0161129
692.593	0.0159304
692.671	0.0159685
692.749	0.0160255
692.828	0.0161333
692.906	0.0160168
692.984	0.0160184
693.062	0.0160535
693.140	0.0160213
693.218	0.0160044
693.296	0.0159989
693.374	0.0159830
693.453	0.0159298
693.531	0.0160182
693.609	0.0161282
693.687	0.0160774
693.765	0.0160252
693.843	0.0159256
693.921	0.0161004
693.999	0.0162988
694.078	0.0159981
694.156	0.0160515
694.234	0.0161361
694.312	0.0159791
694.390	0.0159305
694.468	0.0160210
694.546	0.0160520
694.624	0.0160040
694.703	0.0158942
694.781	0.0161186
694.859	0.0159282
694.937	0.0160420
695.015	0.0160177
695.093	0.0159721
695.171	0.0160500
695.249	0.0160060
695.328	0.0159134
695.406	0.0159561
695.484	0.0161095
695.562	0.0160811
695.640	0.0161046
695.718	0.0160605
695.796	0.0159111
695.874	0.0159824
695.953	0.0161395
696.031	0.0160089
696.109	0.0160785
696.187	0.0161040
696.265	0.0159380
696.343	0.0160886
696.421	0.0159672
696.499	0.0159048
696.578	0.0159994
696.656	0.0160176
696.734	0.0160581
696.812	0.0159665
696.890	0.0159933
696.968	0.0160607
697.046	0.0160067
697.124	0.0160079
697.203	0.0159571
697.281	0.0159720
697.359	0.0159566
697.437	0.0159024
697.515	0.0159674
697.593	0.0160819
697.671	0.0160417
697.749	0.0159665
697.828	0.0160918
697.906	0.0158616
697.984	0.0158804
698.062	0.0159562
698.140	0.0160065
698.218	0.0160013
698.296	0.0157757
698.374	0.0160851
698.453	0.0159369
698.531	0.0159669
698.609	0.0157756
698.687	0.0160235
698.765	0.0159001
698.843	0.0158383
698.921	0.0161410
698.999	0.0159590
699.078	0.0159300
699.156	0.0159834
699.234	0.0158768
699.312	0.0160696
699.390	0.0160446
699.468	0.0160197
699.546	0.0159727
699.624	0.0159361
699.703	0.0159241
699.781	0.0159370
699.859	0.0159537
699.937	0.0160048
700.015	0.0159805
700.093	0.0159262
700.171	0.0159439
700.249	0.0159961
700.328	0.0160981
700.406	0.0159109
700.484	0.0159444
700.562	0.0160025
700.640	0.0160400
700.718	0.0160423
700.796	0.0159013
700.874	0.0159934
700.953	0.0160399
701.031	0.0159607
701.109	0.0159216
701.187	0.0159459
701.265	0.0160175
701.343	0.0159086
701.421	0.0158205
701.499	0.0161221
701.578	0.0158202
701.656	0.0159634
701.734	0.0160654
701.812	0.0159812
701.890	0.0160038
701.968	0.0159286
702.046	0.0159067
702.124	0.0158342
702.203	0.0159115
702.281	0.0159600
702.359	0.0160337
702.437	0.0159019
702.515	0.0159808
702.593	0.0158801
702.671	0.0158670
702.749	0.0159254
702.828	0.0159760
702.906	0.0158882
702.984	0.0159456
703.062	0.0159379
703.140	0.0158965
703.218	0.0159490
703.296	0.0159507
703.374	0.0160563
703.453	0.0158883
703.531	0.0157958
703.609	0.0158897
703.687	0.0158160
703.765	0.0158804
703.843	0.0158663
703.921	0.0159406
703.999	0.0158019
704.078	0.0158759
704.156	0.0158283
704.234	0.0159087
704.312	0.0159137
704.390	0.0158463
704.468	0.0158808
704.546	0.0159592
704.624	0.0157652
704.703	0.0158335
704.781	0.0158604
704.859	0.0159184
704.937	0.0158620
705.015	0.0158760
705.093	0.0157851
705.171	0.0156709
705.249	0.0159346
705.328	0.0157875
705.406	0.0158643
705.484	0.0159308
705.562	0.0157983
705.640	0.0158826
705.718	0.0158479
705.796	0.0157993
705.874	0.0158827
705.953	0.0159156
706.031	0.0159226
706.109	0.0157920
706.187	0.0158518
706.265	0.0157757
706.343	0.0156680
706.421	0.0156965
706.499	0.0156451
706.578	0.0156216
706.656	0.0156963
706.734	0.0157095
706.812	0.0156905
706.890	0.0156626
706.968	0.0157309
707.046	0.0156976
707.124	0.0156403
707.203	0.0157867
707.281	0.0158417
707.359	0.0157625
707.437	0.0158550
707.515	0.0158817
707.593	0.0159624
707.671	0.0158518
707.749	0.0157350
707.828	0.0159108
707.906	0.0158136
707.984	0.0157579
708.062	0.0158398
708.140	0.0158192
708.218	0.0157695
708.296	0.0158802
708.374	0.0157914
708.453	0.0157646
708.531	0.0158719
708.609	0.0158376
708.687	0.0157678
708.765	0.0158535
708.843	0.0158582
708.921	0.0158560
708.999	0.0157674
709.078	0.0158419
709.156	0.0157391
709.234	0.0157015
709.312	0.0158702
709.390	0.0157887
709.468	0.0158218
709.546	0.0159594
709.624	0.0158383
709.703	0.0158045
709.781	0.0157678
709.859	0.0157952
709.937	0.0157811
710.015	0.0159393
710.093	0.0159212
710.171	0.0158664
710.249	0.0158510
710.328	0.0159352
710.406	0.0158282
710.484	0.0158720
710.562	0.0159837
710.640	0.0159896
710.718	0.0158324
710.796	0.0157502
710.874	0.0157755
710.953	0.0157344
711.031	0.0157355
711.109	0.0156235
711.187	0.0156186
711.265	0.0156541
711.343	0.0157144
711.421	0.0158483
711.499	0.0158776
711.578	0.0157349
711.656	0.0158983
711.734	0.0158580
711.812	0.0158292
711.890	0.0160118
711.968	0.0158699
712.046	0.0158495
712.124	0.0157547
712.203	0.0160080
712.281	0.0158725
712.359	0.0158918
712.437	0.0158667
712.515	0.0158775
712.593	0.0157747
712.671	0.0156643
712.749	0.0158598
712.828	0.0157153
712.906	0.0156981
712.984	0.0158326
713.062	0.0157949
713.140	0.0157159
713.218	0.0156908
713.296	0.0157951
713.374	0.0158064
713.453	0.0156876
713.531	0.0158012
713.609	0.0158915
713.687	0.0157372
713.765	0.0158209
713.843	0.0158611
713.921	0.0159048
713.999	0.0158981
714.078	0.0157988
714.156	0.0158669
714.234	0.0159696
714.312	0.0159850
714.390	0.0158970
714.468	0.0160075
714.546	0.0158440
714.624	0.0158066
714.703	0.0158014
714.781	0.0159072
714.859	0.0159050
714.937	0.0158753
715.015	0.0159454
715.093	0.0159664
715.171	0.0159161
715.249	0.0159581
715.328	0.0158701
715.406	0.0158466
715.484	0.0159314
715.562	0.0158432
715.640	0.0159592
715.718	0.0158685
715.796	0.0157530
715.874	0.0159051
715.953	0.0159072
716.031	0.0157848
716.109	0.0158409
716.187	0.0159753
716.265	0.0159631
716.343	0.0158647
716.421	0.0158527
716.499	0.0158353
716.578	0.0161379
716.656	0.0159142
716.734	0.0158324
716.812	0.0160047
716.890	0.0158876
716.968	0.0159131
717.046	0.0158687
717.124	0.0158644
717.203	0.0160159
717.281	0.0160558
717.359	0.0159557
717.437	0.0157600
717.515	0.0158095
717.593	0.0159412
717.671	0.0160219
717.749	0.0160332
717.828	0.0160106
717.906	0.0160036
717.984	0.0159311
718.062	0.0158420
718.140	0.0159029
718.218	0.0159280
718.296	0.0159216
718.374	0.0158987
718.453	0.0160417
718.531	0.0159400
718.609	0.0159560
718.687	0.0159834
718.765	0.0159236
718.843	0.0160197
718.921	0.0159389
718.999	0.0160891
719.078	0.0159563
719.156	0.0160415
719.234	0.0160638
719.312	0.0160303
719.390	0.0159827
719.468	0.0159294
719.546	0.0159119
719.624	0.0159058
719.703	0.0160145
719.781	0.0159053
719.859	0.0159482
719.937	0.0160059
720.015	0.0159808
720.093	0.0159743
720.171	0.0159386
720.249	0.0160073
720.328	0.0160400
720.406	0.0159203
720.484	0.0159736
720.562	0.0159665
720.640	0.0158822
720.718	0.0160365
720.796	0.0158986
720.874	0.0160010
720.953	0.0161234
721.031	0.0159520
721.109	0.0157021
721.187	0.0160889
721.265	0.0158810
721.343	0.0159838
721.421	0.0157993
721.499	0.0158476
721.578	0.0159230
721.656	0.0159148
721.734	0.0159943
721.812	0.0159103
721.890	0.0159253
721.968	0.0158673
722.046	0.0159802
722.124	0.0159270
722.203	0.0159195
722.281	0.0158466
722.359	0.0159399
722.437	0.0158566
722.515	0.0159116
722.593	0.0159217
722.671	0.0159348
722.749	0.0159476
722.828	0.0161547
722.906	0.0159093
722.984	0.0158836
723.062	0.0159358
723.140	0.0157807
723.218	0.0157903
723.296	0.0159720
723.374	0.0159652
723.453	0.0159054
723.531	0.0158547
723.609	0.0158937
723.687	0.0158613
723.765	0.0159930
723.843	0.0159357
723.921	0.0160200
723.999	0.0159882
724.078	0.0159377
724.156	0.0159048
724.234	0.0161275
724.312	0.0159625
724.390	0.0159092
724.468	0.0159509
724.546	0.0160323
724.624	0.0159538
724.703	0.0160206
724.781	0.0159926
724.859	0.0160208
724.937	0.0159808
725.015	0.0158436
725.093	0.0159766
725.171	0.0159131
725.249	0.0159828
725.328	0.0159584
725.406	0.0158857
725.484	0.0159221
725.562	0.0159532
725.640	0.0159827
725.718	0.0158906
725.796	0.0159267
725.874	0.0158801
725.953	0.0159927
726.031	0.0160204
726.109	0.0159212
726.187	0.0159978
726.265	0.0159597
726.343	0.0159194
726.421	0.0158784
726.499	0.0159025
726.578	0.0158133
726.656	0.0158294
726.734	0.0159209
726.812	0.0160180
726.890	0.0159137
726.968	0.0158564
727.046	0.0159476
727.124	0.0159937
727.203	0.0159740
727.281	0.0159586
727.359	0.0158178
727.437	0.0159331
727.515	0.0159093
727.593	0.0158450
727.671	0.0158798
727.749	0.0159075
727.828	0.0160920
727.906	0.0159860
727.984	0.0160691
728.062	0.0157588
728.140	0.0158115
728.218	0.0159787
728.296	0.0159418
728.374	0.0159401
728.453	0.0158929
728.531	0.0158440
728.609	0.0158327
728.687	0.0158998
728.765	0.0158810
728.843	0.0158881
728.921	0.0158960
728.999	0.0159795
729.078	0.0158997
729.156	0.0156898
729.234	0.0159187
729.312	0.0158676
729.390	0.0157187
729.468	0.0158308
729.546	0.0159257
729.624	0.0159502
729.703	0.0157864
729.781	0.0158378
729.859	0.0157370
729.937	0.0158060
730.015	0.0157591
730.093	0.0158512
730.171	0.0157332
730.249	0.0158292
730.328	0.0156974
730.406	0.0157498
730.484	0.0159046
730.562	0.0157494
730.640	0.0157378
730.718	0.0157030
730.796	0.0157787
730.874	0.0157612
730.953	0.0157546
731.031	0.0157388
731.109	0.0156623
731.187	0.0157430
731.265	0.0157100
731.343	0.0156705
731.421	0.0156897
731.499	0.0157047
731.578	0.0157979
731.656	0.0157970
731.734	0.0157976
731.812	0.0157145
731.890	0.0157285
731.968	0.0158661
732.046	0.0157398
732.124	0.0156844
732.203	0.0158219
732.281	0.0157417
732.359	0.0157975
732.437	0.0157224
732.515	0.0157997
732.593	0.0157689
732.671	0.0158151
732.749	0.0158150
732.828	0.0158174
732.906	0.0159332
732.984	0.0158204
733.062	0.0159690
733.140	0.0156944
733.218	0.0158054
733.296	0.0158688
733.374	0.0156183
733.453	0.0157899
733.531	0.0158311
733.609	0.0157755
733.687	0.0157321
733.765	0.0159220
733.843	0.0158130
733.921	0.0157143
733.999	0.0158779
734.078	0.0158940
734.156	0.0158530
734.234	0.0158624
734.312	0.0159535
734.390	0.0159067
734.468	0.0158066
734.546	0.0158661
734.624	0.0158544
734.703	0.0158860
734.781	0.0157917
734.859	0.0159472
734.937	0.0157766
735.015	0.0159283
735.093	0.0159341
735.171	0.0158601
735.249	0.0157483
735.328	0.0159538
735.406	0.0159855
735.484	0.0158211
735.562	0.0159386
735.640	0.0159895
735.718	0.0159182
735.796	0.0158993
735.874	0.0158585
735.953	0.0159604
736.031	0.0158380
736.109	0.0160397
736.187	0.0160324
736.265	0.0158337
736.343	0.0159312
736.421	0.0159650
736.499	0.0160118
736.578	0.0159299
736.656	0.0159554
736.734	0.0159044
736.812	0.0159618
736.890	0.0160589
736.968	0.0160145
737.046	0.0160778
737.124	0.0159909
737.203	0.0159481
737.281	0.0159351
737.359	0.0159525
737.437	0.0159752
737.515	0.0160723
737.593	0.0160006
737.671	0.0159828
737.749	0.0158376
737.828	0.0159795
737.906	0.0160712
737.984	0.0160207
738.062	0.0158597
738.140	0.0160013
738.218	0.0160928
738.296	0.0158805
738.374	0.0159778
738.453	0.0159280
738.531	0.0159438
738.609	0.0159882
738.687	0.0158272
738.765	0.0160934
738.843	0.0160761
738.921	0.0160112
738.999	0.0158517
739.078	0.0160528
739.156	0.0159900
739.234	0.0159070
739.312	0.0158020
739.390	0.0158399
739.468	0.0160848
739.546	0.0161186
739.624	0.0160297
739.703	0.0160789
739.781	0.0159247
739.859	0.0159281
739.937	0.0159212
740.015	0.0159134
740.093	0.0159617
740.171	0.0159713
740.249	0.0160561
740.328	0.0159053
740.406	0.0159844
740.484	0.0159460
740.562	0.0159597
740.640	0.0159818
740.718	0.0159688
740.796	0.0159575
740.874	0.0158870
740.953	0.0159215
741.031	0.0160072
741.109	0.0159589
741.187	0.0158926
741.265	0.0159084
741.343	0.0159814
741.421	0.0160038
741.499	0.0158289
741.578	0.0160789
741.656	0.0160124
741.734	0.0159630
741.812	0.0159322
741.890	0.0158868
741.968	0.0159712
742.046	0.0159328
742.124	0.0159851
742.203	0.0158327
742.281	0.0160220
742.359	0.0159390
742.437	0.0159752
742.515	0.0159604
742.593	0.0158212
742.671	0.0158925
742.749	0.0158913
742.828	0.0160816
742.906	0.0159761
742.984	0.0159286
743.062	0.0159371
743.140	0.0157649
743.218	0.0159711
743.296	0.0161131
743.374	0.0159244
743.453	0.0159825
743.531	0.0159548
743.609	0.0158730
743.687	0.0160649
743.765	0.0160113
743.843	0.0159692
743.921	0.0159875
743.999	0.0160905
744.078	0.0159616
744.156	0.0160524
744.234	0.0160802
744.312	0.0160903
744.390	0.0160575
744.468	0.0158929
744.546	0.0160780
744.624	0.0160237
744.703	0.0159486
744.781	0.0159763
744.859	0.0160266
744.937	0.0158844
745.015	0.0160767
745.093	0.0160475
745.171	0.0160051
745.249	0.0160154
745.328	0.0161244
745.406	0.0161224
745.484	0.0161143
745.562	0.0160472
745.640	0.0160923
745.718	0.0161103
745.796	0.0159005
745.874	0.0159985
745.953	0.0159370
746.031	0.0158656
746.109	0.0159293
746.187	0.0160377
746.265	0.0159985
746.343	0.0160289
746.421	0.0160172
746.499	0.0161273
746.578	0.0160305
746.656	0.0159643
746.734	0.0159719
746.812	0.0160371
746.890	0.0159449
746.968	0.0160873
747.046	0.0158897
747.124	0.0159823
747.203	0.0160661
747.281	0.0159890
747.359	0.0158347
747.437	0.0160337
747.515	0.0161328
747.593	0.0160167
747.671	0.0159402
747.749	0.0160591
747.828	0.0159785
747.906	0.0160942
747.984	0.0160466
748.062	0.0159556
748.140	0.0158895
748.218	0.0160600
748.296	0.0158791
748.374	0.0161132
748.453	0.0159494
748.531	0.0159763
748.609	0.0161762
748.687	0.0159958
748.765	0.0160750
748.843	0.0161082
748.921	0.0159392
748.999	0.0161020
749.078	0.0159910
749.156	0.0159217
749.234	0.0161425
749.312	0.0160172
749.390	0.0159158
749.468	0.0159525
749.546	0.0160094
749.624	0.0160415
749.703	0.0159402
749.781	0.0160352
749.859	0.0160219
749.937	0.0159928
750.015	0.0158781
750.093	0.0158099
750.171	0.0159843
750.249	0.0160381
750.328	0.0159470
750.406	0.0159401
750.484	0.0158945
750.562	0.0160393
750.640	0.0158934
750.718	0.0158537
750.796	0.0160677
750.874	0.0159109
750.953	0.0159782
751.031	0.0159643
751.109	0.0159187
751.187	0.0158366
751.265	0.0158798
751.343	0.0159594
751.421	0.0159358
751.499	0.0157687
751.578	0.0159104
751.656	0.0159772
751.734	0.0159525
751.812	0.0158333
751.890	0.0160709
751.968	0.0159871
752.046	0.0159313
752.124	0.0158701
752.203	0.0159290
752.281	0.0159807
752.359	0.0158761
752.437	0.0158511
752.515	0.0159979
752.593	0.0159351
752.671	0.0157930
752.749	0.0158096
752.828	0.0159848
752.906	0.0157753
752.984	0.0158073
753.062	0.0159134
753.140	0.0158680
753.218	0.0158745
753.296	0.0157689
753.374	0.0159187
753.453	0.0159256
753.531	0.0160640
753.609	0.0158912
753.687	0.0158857
753.765	0.0158526
753.843	0.0158212
753.921	0.0160049
753.999	0.0159010
754.078	0.0159673
754.156	0.0158233
754.234	0.0159155
754.312	0.0159724
754.390	0.0159393
754.468	0.0159598
754.546	0.0157462
754.624	0.0157156
754.703	0.0158630
754.781	0.0158103
754.859	0.0158597
754.937	0.0159653
755.015	0.0158297
755.093	0.0157865
755.171	0.0158344
755.249	0.0158520
755.328	0.0156617
755.406	0.0157604
755.484	0.0157104
755.562	0.0158491
755.640	0.0157411
755.718	0.0157690
755.796	0.0158704
755.874	0.0157754
755.953	0.0158497
756.031	0.0157479
756.109	0.0158765
756.187	0.0159058
756.265	0.0157875
756.343	0.0158629
756.421	0.0159886
756.499	0.0159093
756.578	0.0158673
756.656	0.0159198
756.734	0.0159361
756.812	0.0159229
756.890	0.0160876
756.968	0.0159924
757.046	0.0159083
757.124	0.0159329
757.203	0.0159431
757.281	0.0158862
757.359	0.0158949
757.437	0.0159854
757.515	0.0158125
757.593	0.0158858
757.671	0.0159177
757.749	0.0159389
757.828	0.0158284
757.906	0.0159663
757.984	0.0157211
758.062	0.0157669
758.140	0.0159886
758.218	0.0157781
758.296	0.0158234
758.374	0.0158578
758.453	0.0157198
758.531	0.0158456
758.609	0.0160080
758.687	0.0159492
758.765	0.0159210
758.843	0.0160121
758.921	0.0158952
758.999	0.0158877
759.078	0.0157965
759.156	0.0159442
759.234	0.0161198
759.312	0.0159947
759.390	0.0160804
759.468	0.0159433
759.546	0.0159406
759.624	0.0161993
759.703	0.0160857
759.781	0.0158849
759.859	0.0159109
759.937	0.0160537
760.015	0.0160278
760.093	0.0159830
760.171	0.0159567
760.249	0.0159178
760.328	0.0159566
760.406	0.0159673
760.484	0.0158959
760.562	0.0158273
760.640	0.0158978
760.718	0.0158636
760.796	0.0157963
760.874	0.0158245
760.953	0.0156780
761.031	0.0157853
761.109	0.0158389
761.187	0.0159076
761.265	0.0159167
761.343	0.0157722
761.421	0.0157099
761.499	0.0158982
761.578	0.0159702
761.656	0.0159702
761.734	0.0160001
761.812	0.0158713
761.890	0.0158645
761.968	0.0158057
762.046	0.0160126
762.124	0.0159211
762.203	0.0158077
762.281	0.0160434
762.359	0.0159522
762.437	0.0159275
762.515	0.0159318
762.593	0.0159706
762.671	0.0160085
762.749	0.0160548
762.828	0.0159540
762.906	0.0158762
762.984	0.0159057
763.062	0.0159517
763.140	0.0158426
763.218	0.0158777
763.296	0.0158179
763.374	0.0159225
763.453	0.0160251
763.531	0.0160858
763.609	0.0159445
763.687	0.0160275
763.765	0.0159453
763.843	0.0158846
763.921	0.0159239
763.999	0.0158452
764.078	0.0159233
764.156	0.0158700
764.234	0.0160188
764.312	0.0158016
764.390	0.0159382
764.468	0.0160883
764.546	0.0158835
764.624	0.0159438
764.703	0.0160542
764.781	0.0160230
764.859	0.0161085
764.937	0.0161655
765.015	0.0160271
765.093	0.0160504
765.171	0.0159158
765.249	0.0159924
765.328	0.0158138
765.406	0.0157400
765.484	0.0159296
765.562	0.0159954
765.640	0.0159277
765.718	0.0158734
765.796	0.0158061
765.874	0.0159280
765.953	0.0158775
766.031	0.0158817
766.109	0.0158414
766.187	0.0159603
766.265	0.0159191
766.343	0.0159036
766.421	0.0159999
766.499	0.0159186
766.578	0.0159568
766.656	0.0159435
766.734	0.0160461
766.812	0.0159663
766.890	0.0159454
766.968	0.0160072
767.046	0.0160331
767.124	0.0160509
767.203	0.0161349
767.281	0.0162714
767.359	0.0162033
767.437	0.0161264
767.515	0.0161208
767.593	0.0162691
767.671	0.0161900
767.749	0.0162431
767.828	0.0161906
767.906	0.0161272
767.984	0.0160645
768.062	0.0161540
768.140	0.0159336
768.218	0.0159013
768.296	0.0159727
768.374	0.0158440
768.453	0.0159486
768.531	0.0159393
768.609	0.0157371
768.687	0.0159449
768.765	0.0159367
768.843	0.0158541
768.921	0.0158601
768.999	0.0158731
769.078	0.0157172
769.156	0.0157905
769.234	0.0158166
769.312	0.0158793
769.390	0.0158979
769.468	0.0159721
769.546	0.0159169
769.624	0.0158519
769.703	0.0157968
769.781	0.0158302
769.859	0.0159361
769.937	0.0159468
770.015	0.0158405
770.093	0.0159286
770.171	0.0159216
770.249	0.0158604
770.328	0.0158788
770.406	0.0159013
770.484	0.0160651
770.562	0.0159306
770.640	0.0160645
770.718	0.0160818
770.796	0.0159344
770.874	0.0161815
770.953	0.0162361
771.031	0.0161037
771.109	0.0161301
771.187	0.0160846
771.265	0.0160942
771.343	0.0161517
771.421	0.0160003
771.499	0.0160047
771.578	0.0159012
771.656	0.0159652
771.734	0.0161243
771.812	0.0161510
771.890	0.0160291
771.968	0.0159637
772.046	0.0161649
772.124	0.0160563
772.203	0.0161028
772.281	0.0161733
772.359	0.0162346
772.437	0.0159779
772.515	0.0161005
772.593	0.0160010
772.671	0.0160536
772.749	0.0158834
772.828	0.0158865
772.906	0.0158850
772.984	0.0158184
773.062	0.0158744
773.140	0.0158544
773.218	0.0159042
773.296	0.0158942
773.374	0.0158555
773.453	0.0158725
773.531	0.0159328
773.609	0.0159428
773.687	0.0157797
773.765	0.0157864
773.843	0.0158849
773.921	0.0158949
773.999	0.0157285
774.078	0.0158858
774.156	0.0157972
774.234	0.0156384
774.312	0.0157738
774.390	0.0157286
774.468	0.0156355
774.546	0.0156556
774.624	0.0159592
774.703	0.0156826
774.781	0.0158192
774.859	0.0159338
774.937	0.0158159
775.015	0.0158546
775.093	0.0158322
775.171	0.0158662
775.249	0.0159242
775.328	0.0158910
775.406	0.0159048
775.484	0.0159490
775.562	0.0159941
775.640	0.0158180
775.718	0.0158506
775.796	0.0160704
775.874	0.0159962
775.953	0.0159908
776.031	0.0160545
776.109	0.0160151
776.187	0.0160428
776.265	0.0162490
776.343	0.0160710
776.421	0.0160507
776.499	0.0160037
776.578	0.0159770
776.656	0.0160040
776.734	0.0159467
776.812	0.0160307
776.890	0.0158812
776.968	0.0159380
777.046	0.0161345
777.124	0.0159689
777.203	0.0157748
777.281	0.0160371
777.359	0.0159312
777.437	0.0158145
777.515	0.0157718
777.593	0.0158316
777.671	0.0157074
777.749	0.0156607
777.828	0.0156738
777.906	0.0157639
777.984	0.0156881
778.062	0.0156969
778.140	0.0157581
778.218	0.0157803
778.296	0.0157270
778.374	0.0157394
778.453	0.0158704
778.531	0.0159256
778.609	0.0158838
778.687	0.0158947
778.765	0.0157811
778.843	0.0158398
778.921	0.0158311
778.999	0.0158932
779.078	0.0158196
779.156	0.0159258
779.234	0.0158597
779.312	0.0157736
779.390	0.0159104
779.468	0.0158055
779.546	0.0158829
779.624	0.0158859
779.703	0.0159731
779.781	0.0160031
779.859	0.0159271
779.937	0.0159650
780.015	0.0159937
780.093	0.0159087
780.171	0.0159064
780.249	0.0159913
780.328	0.0158944
780.406	0.0159158
780.484	0.0158307
780.562	0.0158046
780.640	0.0158223
780.718	0.0159311
780.796	0.0158521
780.874	0.0157202
780.953	0.0157720
781.031	0.0157715
781.109	0.0158058
781.187	0.0158984
781.265	0.0158291
781.343	0.0157094
781.421	0.0158321
781.499	0.0158205
781.578	0.0157951
781.656	0.0158614
781.734	0.0157084
781.812	0.0158445
781.890	0.0157693
781.968	0.0157513
782.046	0.0157638
782.124	0.0157522
782.203	0.0157738
782.281	0.0158356
782.359	0.0158398
782.437	0.0158466
782.515	0.0159272
782.593	0.0157971
782.671	0.0159074
782.749	0.0158123
782.828	0.0159474
782.906	0.0161297
782.984	0.0159518
783.062	0.0159454
783.140	0.0160181
783.218	0.0160858
783.296	0.0160751
783.374	0.0160564
783.453	0.0160468
783.531	0.0160271
783.609	0.0160796
783.687	0.0161036
783.765	0.0160019
783.843	0.0159482
783.921	0.0158534
783.999	0.0158553
784.078	0.0158581
784.156	0.0156815
784.234	0.0157962
784.312	0.0157763
784.390	0.0156798
784.468	0.0157147
784.546	0.0155676
784.624	0.0155431
784.703	0.0157459
784.781	0.0155621
784.859	0.0156576
784.937	0.0154388
785.015	0.0155634
785.093	0.0154990
785.171	0.0155237
785.249	0.0155641
785.328	0.0156805
785.406	0.0155534
785.484	0.0155824
785.562	0.0157219
785.640	0.0157172
785.718	0.0157390
785.796	0.0159182
785.874	0.0157945
785.953	0.0160477
786.031	0.0159170
786.109	0.0158586
786.187	0.0158827
786.265	0.0159212
786.343	0.0160272
786.421	0.0161319
786.499	0.0161423
786.578	0.0161267
786.656	0.0161492
786.734	0.0161568
786.812	0.0163042
786.890	0.0160514
786.968	0.0162236
787.046	0.0162990
787.124	0.0162560
787.203	0.0163034
787.281	0.0161628
787.359	0.0160542
787.437	0.0161722
787.515	0.0161774
787.593	0.0161002
787.671	0.0160489
787.749	0.0159268
787.828	0.0158072
787.906	0.0157880
787.984	0.0158648
788.062	0.0158459
788.140	0.0157436
788.218	0.0156630
788.296	0.0156722
788.374	0.0156876
788.453	0.0156005
788.531	0.0156376
788.609	0.0155869
788.687	0.0155742
788.765	0.0155899
788.843	0.0155304
788.921	0.0155446
788.999	0.0156943
789.078	0.0156379
789.156	0.0156280
789.234	0.0157030
789.312	0.0156334
789.390	0.0155610
789.468	0.0156524
789.546	0.0155775
789.624	0.0157399
789.703	0.0157764
789.781	0.0156870
789.859	0.0158330
789.937	0.0157797
790.015	0.0157535
790.093	0.0157316
790.171	0.0157021
790.249	0.0157822
790.328	0.0157880
790.406	0.0159689
790.484	0.0158966
790.562	0.0158900
790.640	0.0158688
790.718	0.0160123
790.796	0.0158756
790.874	0.0158315
790.953	0.0158660
791.031	0.0159212
791.109	0.0160976
791.187	0.0160684
791.265	0.0160456
791.343	0.0161368
791.421	0.0161741
791.499	0.0161298
791.578	0.0161194
791.656	0.0162393
791.734	0.0163030
791.812	0.0160671
791.890	0.0161189
791.968	0.0161459
792.046	0.0161625
792.124	0.0161652
792.203	0.0161014
792.281	0.0161189
792.359	0.0161924
792.437	0.0159306
792.515	0.0160782
792.593	0.0160725
792.671	0.0159156
792.749	0.0159315
792.828	0.0158425
792.906	0.0158651
792.984	0.0157548
793.062	0.0158774
793.140	0.0157006
793.218	0.0158426
793.296	0.0158076
793.374	0.0157681
793.453	0.0156513
793.531	0.0155872
793.609	0.0155868
793.687	0.0156201
793.765	0.0154801
793.843	0.0155383
793.921	0.0156391
793.999	0.0157634
794.078	0.0157995
794.156	0.0156911
794.234	0.0156905
794.312	0.0158225
794.390	0.0157069
794.468	0.0157948
794.546	0.0159423
794.624	0.0159854
794.703	0.0160630
794.781	0.0159091
794.859	0.0160822
794.937	0.0161528
795.015	0.0161006
795.093	0.0162737
795.171	0.0160451
795.249	0.0160381
795.328	0.0159794
795.406	0.0158855
795.484	0.0159761
795.562	0.0159721
795.640	0.0157026
795.718	0.0157331
795.796	0.0157657
795.874	0.0156778
795.953	0.0155582
796.031	0.0156282
796.109	0.0155442
796.187	0.0156484
796.265	0.0154978
796.343	0.0155825
796.421	0.0157095
796.499	0.0156769
796.578	0.0157945
796.656	0.0157073
796.734	0.0157608
796.812	0.0158742
796.890	0.0158533
796.968	0.0157508
797.046	0.0158810
797.124	0.0159666
797.203	0.0160215
797.281	0.0159726
797.359	0.0160941
797.437	0.0161014
797.515	0.0162907
797.593	0.0162437
797.671	0.0161304
797.749	0.0161292
797.828	0.0163436
797.906	0.0162366
797.984	0.0162402
798.062	0.0160567
798.140	0.0160880
798.218	0.0162341
798.296	0.0161423
798.374	0.0161736
798.453	0.0161354
798.531	0.0160803
798.609	0.0160891
798.687	0.0159751
798.765	0.0161628
798.843	0.0160596
798.921	0.0157991
798.999	0.0160300
799.078	0.0158539
799.156	0.0157990
799.234	0.0158026
799.312	0.0157960
799.390	0.0157504
799.468	0.0158535
799.546	0.0155994
799.624	0.0155504
799.703	0.0154893
799.781	0.0156131
799.859	0.0156166
799.937	0.0155276
800.015	0.0154427
800.093	0.0155333
800.171	0.0154767
800.249	0.0155105
800.328	0.0154614
800.406	0.0155664
800.484	0.0155025
800.562	0.0155099
800.640	0.0156924
800.718	0.0155254
800.796	0.0156944
800.874	0.0158264
800.953	0.0156729
801.031	0.0158270
801.109	0.0160428
801.187	0.0157893
801.265	0.0157353
801.343	0.0157777
801.421	0.0160363
801.499	0.0158858
801.578	0.0158038
801.656	0.0158665
801.734	0.0158882
801.812	0.0157923
801.890	0.0158782
801.968	0.0158469
802.046	0.0159425
802.124	0.0157682
802.203	0.0157865
802.281	0.0159175
802.359	0.0159762
802.437	0.0159458
802.515	0.0159293
802.593	0.0159840
802.671	0.0160177
802.749	0.0160557
802.828	0.0161527
802.906	0.0160474
802.984	0.0159705
803.062	0.0160770
803.140	0.0161674
803.218	0.0161099
803.296	0.0160680
803.374	0.0161685
803.453	0.0160068
803.531	0.0160380
803.609	0.0160587
803.687	0.0160625
803.765	0.0160278
803.843	0.0160828
803.921	0.0162407
803.999	0.0161186
804.078	0.0160782
804.156	0.0161261
804.234	0.0159809
804.312	0.0160274
804.390	0.0159969
804.468	0.0158709
804.546	0.0158498
804.624	0.0159343
804.703	0.0158813
804.781	0.0157925
804.859	0.0158070
804.937	0.0156407
805.015	0.0155666
805.093	0.0154917
805.171	0.0155325
805.249	0.0156525
805.328	0.0154784
805.406	0.0154274
805.484	0.0154552
805.562	0.0153845
805.640	0.0153951
805.718	0.0155545
805.796	0.0156167
805.874	0.0154424
805.953	0.0154396
806.031	0.0154920
806.109	0.0154917
806.187	0.0154732
806.265	0.0155460
806.343	0.0157629
806.421	0.0157963
806.499	0.0157716
806.578	0.0158157
806.656	0.0159019
806.734	0.0158949
806.812	0.0159050
806.890	0.0160269
806.968	0.0160451
807.046	0.0160841
807.124	0.0160139
807.203	0.0160878
807.281	0.0161382
807.359	0.0158935
807.437	0.0160289
807.515	0.0160394
807.593	0.0160132
807.671	0.0161422
807.749	0.0159117
807.828	0.0160330
807.906	0.0160114
807.984	0.0160028
808.062	0.0159029
808.140	0.0158199
808.218	0.0159579
808.296	0.0158030
808.374	0.0158087
808.453	0.0158456
808.531	0.0159281
808.609	0.0159818
808.687	0.0160360
808.765	0.0159827
808.843	0.0159303
808.921	0.0160521
808.999	0.0159454
809.078	0.0159360
809.156	0.0161862
809.234	0.0161919
809.312	0.0161736
809.390	0.0161299
809.468	0.0162077
809.546	0.0162929
809.624	0.0161208
809.703	0.0160868
809.781	0.0161983
809.859	0.0162073
809.937	0.0159881
810.015	0.0159206
810.093	0.0160848
810.171	0.0158549
810.249	0.0159128
810.328	0.0158836
810.406	0.0159029
810.484	0.0157851
810.562	0.0157980
810.640	0.0156818
810.718	0.0157027
810.796	0.0157289
810.874	0.0156615
810.953	0.0155808
811.031	0.0156269
811.109	0.0155804
811.187	0.0156546
811.265	0.0155672
811.343	0.0157260
811.421	0.0158030
811.499	0.0156871
811.578	0.0158113
811.656	0.0157883
811.734	0.0157784
811.812	0.0157842
811.890	0.0158483
811.968	0.0157999
812.046	0.0157621
812.124	0.0158366
812.203	0.0158060
812.281	0.0158374
812.359	0.0157967
812.437	0.0155762
812.515	0.0158023
812.593	0.0158276
812.671	0.0156960
812.749	0.0158508
812.828	0.0159068
812.906	0.0158273
812.984	0.0158566
813.062	0.0156614
813.140	0.0158067
813.218	0.0158973
813.296	0.0159569
813.374	0.0160287
813.453	0.0159162
813.531	0.0158183
813.609	0.0158934
813.687	0.0159087
813.765	0.0161239
813.843	0.0160903
813.921	0.0159842
813.999	0.0162206
814.078	0.0162125
814.156	0.0163086
814.234	0.0164154
814.312	0.0163590
814.390	0.0164671
814.468	0.0164398
814.546	0.0166078
814.624	0.0165076
814.703	0.0164574
814.781	0.0164695
814.859	0.0163985
814.937	0.0163184
815.015	0.0163068
815.093	0.0161927
815.171	0.0161160
815.249	0.0159742
815.328	0.0159047
815.406	0.0155849
815.484	0.0156470
815.562	0.0155866
815.640	0.0153857
815.718	0.0152974
815.796	0.0152531
815.874	0.0153414
815.953	0.0151283
816.031	0.0152039
816.109	0.0151789
816.187	0.0151353
816.265	0.0152729
816.343	0.0151871
816.421	0.0152213
816.499	0.0152315
816.578	0.0153189
816.656	0.0153737
816.734	0.0153437
816.812	0.0153898
816.890	0.0156069
816.968	0.0155719
817.046	0.0155859
817.124	0.0158357
817.203	0.0159380
817.281	0.0159293
817.359	0.0159788
817.437	0.0158730
817.515	0.0161449
817.593	0.0161140
817.671	0.0160967
817.749	0.0164022
817.828	0.0163039
817.906	0.0162663
817.984	0.0163109
818.062	0.0163763
818.140	0.0163555
818.218	0.0163024
818.296	0.0164359
818.374	0.0162613
818.453	0.0162025
818.531	0.0161496
818.609	0.0162138
818.687	0.0159466
818.765	0.0160040
818.843	0.0159743
818.921	0.0158687
818.999	0.0158957
819.078	0.0157731
819.156	0.0158177
819.234	0.0157370
819.312	0.0157786
819.390	0.0157043
819.468	0.0159336
819.546	0.0158463
819.624	0.0159467
819.703	0.0160015
819.781	0.0160199
819.859	0.0160980
819.937	0.0163666
820.015	0.0162894
820.093	0.0161265
820.171	0.0161325
820.249	0.0163304
820.328	0.0162491
820.406	0.0162066
820.484	0.0162936
820.562	0.0162552
820.640	0.0162308
820.718	0.0161018
820.796	0.0161788
820.874	0.0161663
820.953	0.0160223
821.031	0.0160480
821.109	0.0159783
821.187	0.0159980
821.265	0.0158846
821.343	0.0157850
821.421	0.0158002
821.499	0.0156439
821.578	0.0156683
821.656	0.0157329
821.734	0.0155987
821.812	0.0155094
821.890	0.0155309
821.968	0.0156880
822.046	0.0156437
822.124	0.0156384
822.203	0.0156242
822.281	0.0155807
822.359	0.0157091
822.437	0.0158100
822.515	0.0158365
822.593	0.0158926
822.671	0.0158495
822.749	0.0158012
822.828	0.0158957
822.906	0.0159563
822.984	0.0161081
823.062	0.0161373
823.140	0.0160368
823.218	0.0162244
823.296	0.0161163
823.374	0.0162437
823.453	0.0161331
823.531	0.0161100
823.609	0.0162541
823.687	0.0163550
823.765	0.0161570
823.843	0.0162598
823.921	0.0162689
823.999	0.0161646
824.078	0.0162291
824.156	0.0161137
824.234	0.0161749
824.312	0.0161056
824.390	0.0162184
824.468	0.0160094
824.546	0.0159243
824.624	0.0158365
824.703	0.0159109
824.781	0.0158648
824.859	0.0157086
824.937	0.0156459
825.015	0.0157123
825.093	0.0156398
825.171	0.0155964
825.249	0.0156187
825.328	0.0156223
825.406	0.0156960
825.484	0.0155488
825.562	0.0157131
825.640	0.0157201
825.718	0.0158507
825.796	0.0158086
825.874	0.0160077
825.953	0.0161289
826.031	0.0161112
826.109	0.0161917
826.187	0.0163959
826.265	0.0164015
826.343	0.0163412
826.421	0.0163847
826.499	0.0165023
826.578	0.0165435
826.656	0.0166441
826.734	0.0165598
826.812	0.0166380
826.890	0.0166872
826.968	0.0164664
827.046	0.0164294
827.124	0.0163884
827.203	0.0163052
827.281	0.0162929
827.359	0.0161981
827.437	0.0161142
827.515	0.0161577
827.593	0.0160313
827.671	0.0158626
827.749	0.0158727
827.828	0.0157409
827.906	0.0157145
827.984	0.0157252
828.062	0.0156924
828.140	0.0155202
828.218	0.0154156
828.296	0.0154179
828.374	0.0152477
828.453	0.0152363
828.531	0.0152251
828.609	0.0152291
828.687	0.0152148
828.765	0.0152645
828.843	0.0153661
828.921	0.0153004
828.999	0.0154067
829.078	0.0155668
829.156	0.0155915
829.234	0.0156187
829.312	0.0157488
829.390	0.0158955
829.468	0.0158868
829.546	0.0160527
829.624	0.0161530
829.703	0.0161815
829.781	0.0163350
829.859	0.0165267
829.937	0.0163011
830.015	0.0166147
830.093	0.0166488
830.171	0.0166028
830.249	0.0166608
830.328	0.0167090
830.406	0.0166503
830.484	0.0166286
830.562	0.0166555
830.640	0.0165946
830.718	0.0166222
830.796	0.0165368
830.874	0.0164976
830.953	0.0163473
831.031	0.0164198
831.109	0.0162977
831.187	0.0162130
831.265	0.0161105
831.343	0.0160399
831.421	0.0160875
831.499	0.0160570
831.578	0.0159789
831.656	0.0158572
831.734	0.0159053
831.812	0.0159411
831.890	0.0158108
831.968	0.0159376
832.046	0.0157909
832.124	0.0159264
832.203	0.0159576
832.281	0.0159979
832.359	0.0159232
832.437	0.0158302
832.515	0.0159280
832.593	0.0158649
832.671	0.0159077
832.749	0.0157664
832.828	0.0157027
832.906	0.0156171
832.984	0.0155968
833.062	0.0155791
833.140	0.0155533
833.218	0.0156731
833.296	0.0155529
833.374	0.0155077
833.453	0.0155141
833.531	0.0155779
833.609	0.0154878
833.687	0.0154781
833.765	0.0155653
833.843	0.0155500
833.921	0.0157788
833.999	0.0157848
834.078	0.0157598
834.156	0.0157365
834.234	0.0158722
834.312	0.0160699
834.390	0.0158403
834.468	0.0159720
834.546	0.0161765
834.624	0.0162348
834.703	0.0162366
834.781	0.0162200
834.859	0.0162553
834.937	0.0164485
835.015	0.0163679
835.093	0.0162193
835.171	0.0164151
835.249	0.0163052
835.328	0.0164279
835.406	0.0164603
835.484	0.0163988
835.562	0.0163979
835.640	0.0163619
835.718	0.0163593
835.796	0.0163271
835.874	0.0163428
835.953	0.0164796
836.031	0.0163369
836.109	0.0163293
836.187	0.0163327
836.265	0.0161977
836.343	0.0160606
836.421	0.0159427
836.499	0.0159002
836.578	0.0159041
836.656	0.0156748
836.734	0.0156546
836.812	0.0156973
836.890	0.0155659
836.968	0.0154870
837.046	0.0153993
837.124	0.0154193
837.203	0.0154104
837.281	0.0155788
837.359	0.0153531
837.437	0.0154494
837.515	0.0155473
837.593	0.0153941
837.671	0.0155937
837.749	0.0154919
837.828	0.0156555
837.906	0.0157762
837.984	0.0158202
838.062	0.0159586
838.140	0.0160510
838.218	0.0160278
838.296	0.0159863
838.374	0.0161583
838.453	0.0162445
838.531	0.0161523
838.609	0.0162096
838.687	0.0163306
838.765	0.0162184
838.843	0.0161895
838.921	0.0162000
838.999	0.0161388
839.078	0.0160259
839.156	0.0161152
839.234	0.0159085
839.312	0.0160246
839.390	0.0159849
839.468	0.0159292
839.546	0.0158968
839.624	0.0160109
839.703	0.0158437
839.781	0.0159608
839.859	0.0159204
839.937	0.0158405
840.015	0.0158713
840.093	0.0158793
840.171	0.0158221
840.249	0.0160317
840.328	0.0161167
840.406	0.0160390
840.484	0.0160204
840.562	0.0160877
840.640	0.0161469
840.718	0.0161650
840.796	0.0162470
840.874	0.0161521
840.953	0.0161590
841.031	0.0162208
841.109	0.0161547
841.187	0.0159982
841.265	0.0160694
841.343	0.0159595
841.421	0.0159315
841.499	0.0158663
841.578	0.0158155
841.656	0.0160027
841.734	0.0158513
841.812	0.0157339
841.890	0.0158354
841.968	0.0157250
842.046	0.0157253
842.124	0.0157693
842.203	0.0157604
842.281	0.0157294
842.359	0.0156771
842.437	0.0156957
842.515	0.0158598
842.593	0.0156211
842.671	0.0156871
842.749	0.0159333
842.828	0.0157894
842.906	0.0158960
842.984	0.0159563
843.062	0.0159740
843.140	0.0159898
843.218	0.0160636
843.296	0.0160361
843.374	0.0160848
843.453	0.0162012
843.531	0.0161767
843.609	0.0162852
843.687	0.0161629
843.765	0.0163321
843.843	0.0162926
843.921	0.0163220
843.999	0.0163934
844.078	0.0162456
844.156	0.0163411
844.234	0.0162105
844.312	0.0163297
844.390	0.0162861
844.468	0.0162016
844.546	0.0161305
844.624	0.0160067
844.703	0.0158758
844.781	0.0159857
844.859	0.0159495
844.937	0.0157768
845.015	0.0155679
845.093	0.0157153
845.171	0.0156101
845.249	0.0157150
845.328	0.0156095
845.406	0.0156868
845.484	0.0157179
845.562	0.0156227
845.640	0.0156669
845.718	0.0157293
845.796	0.0157654
845.874	0.0158810
845.953	0.0158788
846.031	0.0159789
846.109	0.0161230
846.187	0.0160997
846.265	0.0161499
846.343	0.0162253
846.421	0.0164094
846.499	0.0162975
846.578	0.0161900
846.656	0.0163859
846.734	0.0163971
846.812	0.0163421
846.890	0.0161967
846.968	0.0161375
847.046	0.0162781
847.124	0.0161774
847.203	0.0160766
847.281	0.0160361
847.359	0.0161063
847.437	0.0159792
847.515	0.0159719
847.593	0.0159126
847.671	0.0157883
847.749	0.0158298
847.828	0.0158941
847.906	0.0158878
847.984	0.0157571
848.062	0.0157725
848.140	0.0157611
848.218	0.0158270
848.296	0.0159337
848.374	0.0159827
848.453	0.0159679
848.531	0.0158058
848.609	0.0158441
848.687	0.0159254
848.765	0.0159610
848.843	0.0159560
848.921	0.0159737
848.999	0.0161495
849.078	0.0160159
849.156	0.0160947
849.234	0.0162591
849.312	0.0162091
849.390	0.0161768
849.468	0.0161794
849.546	0.0160455
849.624	0.0161635
849.703	0.0161290
849.781	0.0161461
849.859	0.0161793
849.937	0.0160258
850.015	0.0159453
850.093	0.0161410
850.171	0.0160531
850.249	0.0158412
850.328	0.0158650
850.406	0.0159060
850.484	0.0160220
850.562	0.0157754
850.640	0.0158031
850.718	0.0158574
850.796	0.0158849
850.874	0.0158001
850.953	0.0157937
851.031	0.0159058
851.109	0.0159917
851.187	0.0158122
851.265	0.0160998
851.343	0.0160173
851.421	0.0160394
851.499	0.0159451
851.578	0.0159473
851.656	0.0160494
851.734	0.0159455
851.812	0.0159596
851.890	0.0160225
851.968	0.0160117
852.046	0.0160090
852.124	0.0160078
852.203	0.0160419
852.281	0.0162290
852.359	0.0160376
852.437	0.0160058
852.515	0.0161887
852.593	0.0161589
852.671	0.0160731
852.749	0.0162205
852.828	0.0161262
852.906	0.0162274
852.984	0.0161246
853.062	0.0160866
853.140	0.0160275
853.218	0.0160821
853.296	0.0160009
853.374	0.0160746
853.453	0.0160146
853.531	0.0159056
853.609	0.0160782
853.687	0.0158080
853.765	0.0158141
853.843	0.0159016
853.921	0.0158928
853.999	0.0159397
854.078	0.0159035
854.156	0.0159622
854.234	0.0160330
854.312	0.0158585
854.390	0.0160198
854.468	0.0161304
854.546	0.0159812
854.624	0.0161897
854.703	0.0160739
854.781	0.0160511
854.859	0.0158875
854.937	0.0160635
855.015	0.0160448
855.093	0.0160002
855.171	0.0160651
855.249	0.0159797
855.328	0.0157536
855.406	0.0157858
855.484	0.0158404
855.562	0.0157354
855.640	0.0157304
855.718	0.0157309
855.796	0.0156553
855.874	0.0157793
855.953	0.0157050
856.031	0.0158795
856.109	0.0158217
856.187	0.0159772
856.265	0.0157584
856.343	0.0157588
856.421	0.0159050
856.499	0.0159501
856.578	0.0160574
856.656	0.0160712
856.734	0.0159539
856.812	0.0159425
856.890	0.0159609
856.968	0.0160662
857.046	0.0161633
857.124	0.0159589
857.203	0.0160259
857.281	0.0161465
857.359	0.0159956
857.437	0.0160262
857.515	0.0161552
857.593	0.0161031
857.671	0.0160206
857.749	0.0158830
857.828	0.0159613
857.906	0.0159930
857.984	0.0159872
858.062	0.0159202
858.140	0.0157473
858.218	0.0160376
858.296	0.0158585
858.374	0.0157904
858.453	0.0159027
858.531	0.0158942
858.609	0.0158010
858.687	0.0157729
858.765	0.0158154
858.843	0.0158719
858.921	0.0158920
858.999	0.0159950
859.078	0.0158910
859.156	0.0159122
859.234	0.0158989
859.312	0.0157943
859.390	0.0159181
859.468	0.0158301
859.546	0.0159710
859.624	0.0157841
859.703	0.0159272
859.781	0.0159142
859.859	0.0159422
859.937	0.0159380
860.015	0.0158212
860.093	0.0159227
860.171	0.0158864
860.249	0.0159004
860.328	0.0160160
860.406	0.0159119
860.484	0.0159286
860.562	0.0159163
860.640	0.0158199
860.718	0.0158602
860.796	0.0156517
860.874	0.0159193
860.953	0.0158530
861.031	0.0158177
861.109	0.0157919
861.187	0.0157056
861.265	0.0157397
861.343	0.0158479
861.421	0.0158390
861.499	0.0158062
861.578	0.0158881
861.656	0.0157684
861.734	0.0158940
861.812	0.0158506
861.890	0.0160787
861.968	0.0159014
862.046	0.0160084
862.124	0.0160178
862.203	0.0161764
862.281	0.0160117
862.359	0.0159612
862.437	0.0161078
862.515	0.0160475
862.593	0.0160719
862.671	0.0160120
862.749	0.0159829
862.828	0.0160397
862.906	0.0161246
862.984	0.0159662
863.062	0.0159508
863.140	0.0160194
863.218	0.0159374
863.296	0.0158907
863.374	0.0158830
863.453	0.0157564
863.531	0.0157261
863.609	0.0157068
863.687	0.0158189
863.765	0.0158279
863.843	0.0156821
863.921	0.0158978
863.999	0.0158237
864.078	0.0157647
864.156	0.0156972
864.234	0.0158547
864.312	0.0157997
864.390	0.0159226
864.468	0.0159146
864.546	0.0158556
864.624	0.0158961
864.703	0.0159879
864.781	0.0160538
864.859	0.0159856
864.937	0.0160509
865.015	0.0161269
865.093	0.0161038
865.171	0.0159977
865.249	0.0159194
865.328	0.0160553
865.406	0.0160780
865.484	0.0160313
865.562	0.0160847
865.640	0.0161107
865.718	0.0160487
865.796	0.0158598
865.874	0.0159603
865.953	0.0157810
866.031	0.0158800
866.109	0.0158418
866.187	0.0158514
866.265	0.0158459
866.343	0.0159497
866.421	0.0159394
866.499	0.0157133
866.578	0.0157081
866.656	0.0157302
866.734	0.0158205
866.812	0.0157355
866.890	0.0158284
866.968	0.0157899
867.046	0.0158109
867.124	0.0159177
867.203	0.0159511
867.281	0.0156947
867.359	0.0157843
867.437	0.0157679
867.515	0.0158643
867.593	0.0158897
867.671	0.0158734
867.749	0.0158145
867.828	0.0160225
867.906	0.0159174
867.984	0.0158580
868.062	0.0159890
868.140	0.0160641
868.218	0.0158514
868.296	0.0158568
868.374	0.0160046
868.453	0.0158182
868.531	0.0158878
868.609	0.0158593
868.687	0.0159380
868.765	0.0159779
868.843	0.0158778
868.921	0.0158412
868.999	0.0156530
869.078	0.0158521
869.156	0.0156993
869.234	0.0158665
869.312	0.0158059
869.390	0.0157604
869.468	0.0157884
869.546	0.0157756
869.624	0.0158867
869.703	0.0159200
869.781	0.0157214
869.859	0.0158431
869.937	0.0159590
870.015	0.0157961
870.093	0.0160362
870.171	0.0159828
870.249	0.0158908
870.328	0.0160358
870.406	0.0159602
870.484	0.0159805
870.562	0.0160152
870.640	0.0160593
870.718	0.0159739
870.796	0.0159769
870.874	0.0159502
870.953	0.0160719
871.031	0.0160054
871.109	0.0160580
871.187	0.0159745
871.265	0.0158235
871.343	0.0159680
871.421	0.0159102
871.499	0.0158947
871.578	0.0158426
871.656	0.0160112
871.734	0.0158031
871.812	0.0158169
871.890	0.0158401
871.968	0.0157179
872.046	0.0157723
872.124	0.0159185
872.203	0.0159113
872.281	0.0157404
872.359	0.0157312
872.437	0.0159284
872.515	0.0158361
872.593	0.0158826
872.671	0.0158430
872.749	0.0159360
872.828	0.0158650
872.906	0.0159282
872.984	0.0159637
873.062	0.0160499
873.140	0.0159402
873.218	0.0160087
873.296	0.0159448
873.374	0.0160254
873.453	0.0161082
873.531	0.0160519
873.609	0.0159802
873.687	0.0160269
873.765	0.0161080
873.843	0.0159258
873.921	0.0158504
873.999	0.0157996
874.078	0.0159926
874.156	0.0159077
874.234	0.0159047
874.312	0.0159763
874.390	0.0158099
874.468	0.0158718
874.546	0.0158236
874.624	0.0158179
874.703	0.0157384
874.781	0.0158360
874.859	0.0157117
874.937	0.0158602
875.015	0.0158396
875.093	0.0157605
875.171	0.0157477
875.249	0.0159032
875.328	0.0157228
875.406	0.0156761
875.484	0.0157968
875.562	0.0158953
875.640	0.0158061
875.718	0.0158631
875.796	0.0158557
875.874	0.0157990
875.953	0.0158347
876.031	0.0158092
876.109	0.0158080
876.187	0.0157911
876.265	0.0158654
876.343	0.0158488
876.421	0.0157565
876.499	0.0157429
876.578	0.0156597
876.656	0.0158542
876.734	0.0158761
876.812	0.0157710
876.890	0.0158078
876.968	0.0159406
877.046	0.0158582
877.124	0.0158582
877.203	0.0158764
877.281	0.0159648
877.359	0.0160007
877.437	0.0158290
877.515	0.0158707
877.593	0.0161042
877.671	0.0159855
877.749	0.0158203
877.828	0.0160255
877.906	0.0158662
877.984	0.0159874
878.062	0.0161350
878.140	0.0160272
878.218	0.0159736
878.296	0.0160288
878.374	0.0159067
878.453	0.0158601
878.531	0.0159997
878.609	0.0159645
878.687	0.0157864
878.765	0.0157259
878.843	0.0158082
878.921	0.0160217
878.999	0.0158258
879.078	0.0161071
879.156	0.0160042
879.234	0.0158906
879.312	0.0158589
879.390	0.0158954
879.468	0.0159960
879.546	0.0159641
879.624	0.0159931
879.703	0.0158147
879.781	0.0158495
879.859	0.0159827
879.937	0.0158189
880.015	0.0158173
880.093	0.0158387
880.171	0.0157801
880.249	0.0158985
880.328	0.0156294
880.406	0.0157014
880.484	0.0157968
880.562	0.0156615
880.640	0.0156961
880.718	0.0155832
880.796	0.0157166
880.874	0.0156813
880.953	0.0156793
881.031	0.0157764
881.109	0.0158212
881.187	0.0158544
881.265	0.0157201
881.343	0.0157254
881.421	0.0158409
881.499	0.0158373
881.578	0.0158061
881.656	0.0158381
881.734	0.0158867
881.812	0.0158668
881.890	0.0158152
881.968	0.0157849
882.046	0.0157492
882.124	0.0158421
882.203	0.0157814
882.281	0.0157495
882.359	0.0157983
882.437	0.0158299
882.515	0.0157890
882.593	0.0157958
882.671	0.0157376
882.749	0.0158525
882.828	0.0158418
882.906	0.0157863
882.984	0.0157069
883.062	0.0156773
883.140	0.0158195
883.218	0.0158073
883.296	0.0158523
883.374	0.0157825
883.453	0.0158012
883.531	0.0159246
883.609	0.0158293
883.687	0.0158607
883.765	0.0158984
883.843	0.0158499
883.921	0.0158488
883.999	0.0158557
884.078	0.0157688
884.156	0.0158987
884.234	0.0158475
884.312	0.0158406
884.390	0.0158997
884.468	0.0158665
884.546	0.0157859
884.624	0.0158509
884.703	0.0159309
884.781	0.0159606
884.859	0.0158200
884.937	0.0157776
885.015	0.0159515
885.093	0.0157821
885.171	0.0159814
885.249	0.0160919
885.328	0.0159834
885.406	0.0159047
885.484	0.0159420
885.562	0.0159510
885.640	0.0159135
885.718	0.0160386
885.796	0.0158370
885.874	0.0158684
885.953	0.0158596
886.031	0.0158498
886.109	0.0158646
886.187	0.0157857
886.265	0.0157957
886.343	0.0159119
886.421	0.0157451
886.499	0.0158372
886.578	0.0157543
886.656	0.0158524
886.734	0.0158125
886.812	0.0158958
886.890	0.0156454
886.968	0.0157041
887.046	0.0157401
887.124	0.0157775
887.203	0.0157311
887.281	0.0156379
887.359	0.0157427
887.437	0.0158123
887.515	0.0158295
887.593	0.0159158
887.671	0.0157079
887.749	0.0157351
887.828	0.0159293
887.906	0.0157677
887.984	0.0158304
888.062	0.0159364
888.140	0.0159499
888.218	0.0161231
888.296	0.0161134
888.374	0.0160081
888.453	0.0160369
888.531	0.0160072
888.609	0.0161650
888.687	0.0160963
888.765	0.0161681
888.843	0.0161482
888.921	0.0159235
888.999	0.0161584
889.078	0.0162083
889.156	0.0160300
889.234	0.0160135
889.312	0.0159499
889.390	0.0160582
889.468	0.0160592
889.546	0.0160179
889.624	0.0161486
889.703	0.0160903
889.781	0.0160155
889.859	0.0159305
889.937	0.0161233
890.015	0.0158405
890.093	0.0158658
890.171	0.0159769
890.249	0.0157163
890.328	0.0158775
890.406	0.0158557
890.484	0.0158054
890.562	0.0158491
890.640	0.0158363
890.718	0.0157446
890.796	0.0159044
890.874	0.0159933
890.953	0.0158760
891.031	0.0159235
891.109	0.0158573
891.187	0.0158447
891.265	0.0160329
891.343	0.0160731
891.421	0.0161411
891.499	0.0160780
891.578	0.0161327
891.656	0.0159499
891.734	0.0159814
891.812	0.0160405
891.890	0.0161499
891.968	0.0159951
892.046	0.0160035
892.124	0.0159000
892.203	0.0159909
892.281	0.0157676
892.359	0.0160052
892.437	0.0160403
892.515	0.0158408
892.593	0.0157981
892.671	0.0157225
892.749	0.0159272
892.828	0.0158151
892.906	0.0157585
892.984	0.0158320
893.062	0.0157878
893.140	0.0157210
893.218	0.0158224
893.296	0.0159039
893.374	0.0157612
893.453	0.0158050
893.531	0.0158463
893.609	0.0158838
893.687	0.0159346
893.765	0.0160351
893.843	0.0160867
893.921	0.0159018
893.999	0.0159016
894.078	0.0159223
894.156	0.0159241
894.234	0.0160038
894.312	0.0159005
894.390	0.0158239
894.468	0.0159081
894.546	0.0158279
894.624	0.0158043
894.703	0.0158818
894.781	0.0158917
894.859	0.0159171
894.937	0.0159499
895.015	0.0159198
895.093	0.0159151
895.171	0.0159177
895.249	0.0158009
895.328	0.0158390
895.406	0.0158313
895.484	0.0159457
895.562	0.0158484
895.640	0.0157649
895.718	0.0157627
895.796	0.0158098
895.874	0.0159608
895.953	0.0158138
896.031	0.0158051
896.109	0.0158395
896.187	0.0157718
896.265	0.0158238
896.343	0.0157411
896.421	0.0158065
896.499	0.0159723
896.578	0.0159855
896.656	0.0160699
896.734	0.0158923
896.812	0.0157726
896.890	0.0159705
896.968	0.0161835
897.046	0.0158699
897.124	0.0158514
897.203	0.0160304
897.281	0.0159956
897.359	0.0157486
897.437	0.0158153
897.515	0.0158546
897.593	0.0158990
897.671	0.0159496
897.749	0.0158067
897.828	0.0157150
897.906	0.0156555
897.984	0.0158116
898.062	0.0158393
898.140	0.0155824
898.218	0.0157145
898.296	0.0156536
898.374	0.0156003
898.453	0.0156528
898.531	0.0155622
898.609	0.0156728
898.687	0.0156477
898.765	0.0156465
898.843	0.0156960
898.921	0.0157915
898.999	0.0157694
899.078	0.0156928
899.156	0.0157654
899.234	0.0157341
899.312	0.0157617
899.390	0.0157999
899.468	0.0157976
899.546	0.0157143
899.624	0.0158009
899.703	0.0159245
899.781	0.0158588
899.859	0.0158170
899.937	0.0157319
900.015	0.0158862
900.093	0.0160428
900.171	0.0159146
900.249	0.0158232
900.328	0.0159057
900.406	0.0158123
900.484	0.0158459
900.562	0.0160317
900.640	0.0158267
900.718	0.0159456
900.796	0.0159341
900.874	0.0158904
900.953	0.0158440
901.031	0.0158276
901.109	0.0158198
901.187	0.0158873
901.265	0.0158353
901.343	0.0158921
901.421	0.0159049
901.499	0.0158343
901.578	0.0158787
901.656	0.0158086
901.734	0.0159111
901.812	0.0158276
901.890	0.0158586
901.968	0.0158575
902.046	0.0157464
902.124	0.0158533
902.203	0.0157689
902.281	0.0157574
902.359	0.0157677
902.437	0.0158111
902.515	0.0156614
902.593	0.0157730
902.671	0.0156675
902.749	0.0158264
902.828	0.0157719
902.906	0.0157526
902.984	0.0159505
903.062	0.0158878
903.140	0.0158180
903.218	0.0159721
903.296	0.0159464
903.374	0.0159357
903.453	0.0158364
903.531	0.0158023
903.609	0.0159736
903.687	0.0159592
903.765	0.0159255
903.843	0.0159330
903.921	0.0159322
903.999	0.0158364
904.078	0.0158339
904.156	0.0157924
904.234	0.0158488
904.312	0.0157898
904.390	0.0158083
904.468	0.0158172
904.546	0.0158736
904.624	0.0158178
904.703	0.0158097
904.781	0.0158570
904.859	0.0159861
904.937	0.0158537
905.015	0.0158427
905.093	0.0160096
905.171	0.0160310
905.249	0.0160279
905.328	0.0159049
905.406	0.0158835
905.484	0.0159570
905.562	0.0159283
905.640	0.0159995
905.718	0.0159794
905.796	0.0160660
905.874	0.0160230
905.953	0.0159397
906.031	0.0160207
906.109	0.0159348
906.187	0.0159303
906.265	0.0159924
906.343	0.0159035
906.421	0.0160329
906.499	0.0159838
906.578	0.0160006
906.656	0.0159431
906.734	0.0158952
906.812	0.0160129
906.890	0.0159499
906.968	0.0159457
907.046	0.0159078
907.124	0.0159645
907.203	0.0158874
907.281	0.0158246
907.359	0.0159253
907.437	0.0158618
907.515	0.0157991
907.593	0.0158966
907.671	0.0157745
907.749	0.0159170
907.828	0.0157699
907.906	0.0158954
907.984	0.0158760
908.062	0.0158379
908.140	0.0159636
908.218	0.0157444
908.296	0.0157741
908.374	0.0159802
908.453	0.0158772
908.531	0.0159630
908.609	0.0159930
908.687	0.0159384
908.765	0.0158567
908.843	0.0157773
908.921	0.0160793
908.999	0.0159425
909.078	0.0158539
909.156	0.0159523
909.234	0.0159478
909.312	0.0159138
909.390	0.0158775
909.468	0.0160211
909.546	0.0160463
909.624	0.0159305
909.703	0.0158385
909.781	0.0158327
909.859	0.0159764
909.937	0.0158865
910.015	0.0160098
910.093	0.0158354
910.171	0.0158419
910.249	0.0159451
910.328	0.0157604
910.406	0.0158238
910.484	0.0157791
910.562	0.0158398
910.640	0.0158808
910.718	0.0159603
910.796	0.0159868
910.874	0.0158685
910.953	0.0159563
911.031	0.0160589
911.109	0.0161786
911.187	0.0160632
911.265	0.0158760
911.343	0.0159581
911.421	0.0160507
911.499	0.0162057
911.578	0.0159788
911.656	0.0161156
911.734	0.0160892
911.812	0.0161982
911.890	0.0161124
911.968	0.0160802
912.046	0.0161255
912.124	0.0160615
912.203	0.0161704
912.281	0.0159440
912.359	0.0160671
912.437	0.0159373
912.515	0.0160133
912.593	0.0159573
912.671	0.0159744
912.749	0.0159201
912.828	0.0159177
912.906	0.0159859
912.984	0.0159122
913.062	0.0157763
913.140	0.0157626
913.218	0.0158453
913.296	0.0159739
913.374	0.0159143
913.453	0.0158541
913.531	0.0157695
913.609	0.0157504
913.687	0.0158866
913.765	0.0158456
913.843	0.0158911
913.921	0.0157685
913.999	0.0158665
914.078	0.0158022
914.156	0.0158929
914.234	0.0157590
914.312	0.0158158
914.390	0.0157091
914.468	0.0156697
914.546	0.0157975
914.624	0.0158434
914.703	0.0158855
914.781	0.0156983
914.859	0.0157465
914.937	0.0157442
915.015	0.0158672
915.093	0.0158755
915.171	0.0158693
915.249	0.0158591
915.328	0.0158482
915.406	0.0158733
915.484	0.0159097
915.562	0.0158237
915.640	0.0158730
915.718	0.0157111
915.796	0.0157233
915.874	0.0157805
915.953	0.0159104
916.031	0.0157898
916.109	0.0157977
916.187	0.0158214
916.265	0.0157627
916.343	0.0158537
916.421	0.0158709
916.499	0.0158201
916.578	0.0158915
916.656	0.0158566
916.734	0.0158817
916.812	0.0158550
916.890	0.0158586
916.968	0.0160130
917.046	0.0159473
917.124	0.0158578
917.203	0.0159477
917.281	0.0159264
917.359	0.0158949
917.437	0.0158759
917.515	0.0159915
917.593	0.0160589
917.671	0.0159909
917.749	0.0159460
917.828	0.0160136
917.906	0.0159593
917.984	0.0159418
918.062	0.0158228
918.140	0.0157909
918.218	0.0158218
918.296	0.0159908
918.374	0.0158379
918.453	0.0157948
918.531	0.0157187
918.609	0.0159332
918.687	0.0158397
918.765	0.0158978
918.843	0.0158470
918.921	0.0159032
918.999	0.0158454
919.078	0.0157958
919.156	0.0158856
919.234	0.0160650
919.312	0.0160731
919.390	0.0159713
919.468	0.0160796
919.546	0.0159208
919.624	0.0160650
919.703	0.0159706
919.781	0.0161086
919.859	0.0161080
919.937	0.0160523
