06/10/2022	16:41:53	Ver.	4.1	UNKNOWN
Optical Delay	600.015094	Delta X		0.078125	Sweeps	1	Scan Rate	0/0
Coordinates	Axis 1	NaN	Axis 2	NaN	Axis 3	NaN	Axis 4	NaN	Axis 5	NaN	Axis 6	0.000000
TX Power	0.000000	RX Power	0.000000

600.015	0.0160796
600.093	0.0159541
600.171	0.0161967
600.249	0.0161478
600.328	0.0160137
600.406	0.0160890
600.484	0.0159233
600.562	0.0161338
600.640	0.0160547
600.718	0.0160785
600.796	0.0160304
600.874	0.0159869
600.953	0.0160474
601.031	0.0160522
601.109	0.0161195
601.187	0.0160464
601.265	0.0160348
601.343	0.0160382
601.421	0.0160145
601.499	0.0161351
601.578	0.0160942
601.656	0.0159875
601.734	0.0160249
601.812	0.0159400
601.890	0.0160290
601.968	0.0158942
602.046	0.0160425
602.124	0.0160683
602.203	0.0160460
602.281	0.0161056
602.359	0.0160482
602.437	0.0161148
602.515	0.0160693
602.593	0.0160838
602.671	0.0161225
602.749	0.0161383
602.828	0.0160282
602.906	0.0159858
602.984	0.0160773
603.062	0.0161729
603.140	0.0160567
603.218	0.0161525
603.296	0.0161617
603.374	0.0160628
603.453	0.0160986
603.531	0.0161457
603.609	0.0160307
603.687	0.0161000
603.765	0.0161124
603.843	0.0161662
603.921	0.0161429
603.999	0.0161732
604.078	0.0161456
604.156	0.0162006
604.234	0.0161996
604.312	0.0160988
604.390	0.0160594
604.468	0.0160533
604.546	0.0160563
604.624	0.0161565
604.703	0.0160179
604.781	0.0161771
604.859	0.0159614
604.937	0.0160848
605.015	0.0159753
605.093	0.0161628
605.171	0.0161998
605.249	0.0161842
605.328	0.0160325
605.406	0.0161116
605.484	0.0161227
605.562	0.0161495
605.640	0.0161349
605.718	0.0160711
605.796	0.0160858
605.874	0.0160895
605.953	0.0161243
606.031	0.0160204
606.109	0.0160760
606.187	0.0160686
606.265	0.0160332
606.343	0.0160295
606.421	0.0160439
606.499	0.0159853
606.578	0.0161813
606.656	0.0160738
606.734	0.0160739
606.812	0.0160953
606.890	0.0160890
606.968	0.0161029
607.046	0.0161285
607.124	0.0160782
607.203	0.0160590
607.281	0.0162000
607.359	0.0161433
607.437	0.0160366
607.515	0.0160130
607.593	0.0159875
607.671	0.0161093
607.749	0.0160339
607.828	0.0160972
607.906	0.0162370
607.984	0.0162128
608.062	0.0162574
608.140	0.0160088
608.218	0.0161625
608.296	0.0161347
608.374	0.0160796
608.453	0.0161037
608.531	0.0162523
608.609	0.0162106
608.687	0.0160734
608.765	0.0161553
608.843	0.0162852
608.921	0.0161331
608.999	0.0162794
609.078	0.0160513
609.156	0.0161334
609.234	0.0162638
609.312	0.0161897
609.390	0.0162764
609.468	0.0161813
609.546	0.0162518
609.624	0.0161433
609.703	0.0162825
609.781	0.0163085
609.859	0.0162247
609.937	0.0163265
610.015	0.0161748
610.093	0.0162962
610.171	0.0161062
610.249	0.0161909
610.328	0.0163470
610.406	0.0162409
610.484	0.0162708
610.562	0.0162862
610.640	0.0161617
610.718	0.0163128
610.796	0.0160735
610.874	0.0162739
610.953	0.0162017
611.031	0.0162405
611.109	0.0162670
611.187	0.0160035
611.265	0.0161337
611.343	0.0161608
611.421	0.0161887
611.499	0.0162608
611.578	0.0162603
611.656	0.0161882
611.734	0.0162348
611.812	0.0162034
611.890	0.0160317
611.968	0.0162402
612.046	0.0161467
612.124	0.0162197
612.203	0.0161457
612.281	0.0162312
612.359	0.0162433
612.437	0.0163210
612.515	0.0161835
612.593	0.0161575
612.671	0.0161877
612.749	0.0161988
612.828	0.0162770
612.906	0.0161774
612.984	0.0162187
613.062	0.0162632
613.140	0.0161136
613.218	0.0162327
613.296	0.0163350
613.374	0.0161570
613.453	0.0161601
613.531	0.0163756
613.609	0.0162444
613.687	0.0160435
613.765	0.0161790
613.843	0.0161514
613.921	0.0161185
613.999	0.0162480
614.078	0.0161759
614.156	0.0161221
614.234	0.0161820
614.312	0.0163082
614.390	0.0161564
614.468	0.0161394
614.546	0.0161432
614.624	0.0161817
614.703	0.0161891
614.781	0.0161906
614.859	0.0161928
614.937	0.0160654
615.015	0.0161459
615.093	0.0163086
615.171	0.0161808
615.249	0.0161075
615.328	0.0161747
615.406	0.0161999
615.484	0.0162341
615.562	0.0163039
615.640	0.0161572
615.718	0.0162362
615.796	0.0161804
615.874	0.0161367
615.953	0.0162420
616.031	0.0161514
616.109	0.0159472
616.187	0.0161867
616.265	0.0161740
616.343	0.0161942
616.421	0.0161366
616.499	0.0161823
616.578	0.0163039
616.656	0.0160577
616.734	0.0161186
616.812	0.0161234
616.890	0.0161615
616.968	0.0163287
617.046	0.0162437
617.124	0.0161227
617.203	0.0161698
617.281	0.0161460
617.359	0.0162206
617.437	0.0161605
617.515	0.0161606
617.593	0.0161737
617.671	0.0160576
617.749	0.0161628
617.828	0.0161336
617.906	0.0159601
617.984	0.0159444
618.062	0.0161039
618.140	0.0160889
618.218	0.0161230
618.296	0.0161002
618.374	0.0162479
618.453	0.0161174
618.531	0.0161646
618.609	0.0160703
618.687	0.0160824
618.765	0.0160382
618.843	0.0160390
618.921	0.0161798
618.999	0.0160035
619.078	0.0158775
619.156	0.0159525
619.234	0.0159418
619.312	0.0159905
619.390	0.0160243
619.468	0.0158933
619.546	0.0160020
619.624	0.0161040
619.703	0.0159240
619.781	0.0160389
619.859	0.0160111
619.937	0.0160211
620.015	0.0158852
620.093	0.0159465
620.171	0.0160159
620.249	0.0159452
620.328	0.0159723
620.406	0.0158415
620.484	0.0160603
620.562	0.0160615
620.640	0.0159863
620.718	0.0160266
620.796	0.0160131
620.874	0.0159576
620.953	0.0160902
621.031	0.0161727
621.109	0.0159162
621.187	0.0161169
621.265	0.0160750
621.343	0.0160783
621.421	0.0159865
621.499	0.0160547
621.578	0.0160747
621.656	0.0161620
621.734	0.0161150
621.812	0.0160201
621.890	0.0159541
621.968	0.0159405
622.046	0.0161102
622.124	0.0161053
622.203	0.0160477
622.281	0.0160086
622.359	0.0160126
622.437	0.0162765
622.515	0.0161327
622.593	0.0158899
622.671	0.0160313
622.749	0.0159124
622.828	0.0159859
622.906	0.0161716
622.984	0.0158987
623.062	0.0160152
623.140	0.0162121
623.218	0.0161268
623.296	0.0160341
623.374	0.0158967
623.453	0.0160539
623.531	0.0160271
623.609	0.0160310
623.687	0.0160791
623.765	0.0160561
623.843	0.0160843
623.921	0.0162205
623.999	0.0160846
624.078	0.0160827
624.156	0.0160088
624.234	0.0161253
624.312	0.0161357
624.390	0.0161106
624.468	0.0160046
624.546	0.0159522
624.624	0.0161176
624.703	0.0160890
624.781	0.0160601
624.859	0.0158456
624.937	0.0160013
625.015	0.0161296
625.093	0.0159487
625.171	0.0162363
625.249	0.0160393
625.328	0.0159747
625.406	0.0160413
625.484	0.0160173
625.562	0.0160805
625.640	0.0159721
625.718	0.0161288
625.796	0.0160639
625.874	0.0159882
625.953	0.0159883
626.031	0.0159821
626.109	0.0160645
626.187	0.0159879
626.265	0.0160166
626.343	0.0160458
626.421	0.0159221
626.499	0.0160087
626.578	0.0160180
626.656	0.0160982
626.734	0.0160825
626.812	0.0161356
626.890	0.0159212
626.968	0.0160041
627.046	0.0160564
627.124	0.0159931
627.203	0.0161205
627.281	0.0160110
627.359	0.0159184
627.437	0.0160072
627.515	0.0160731
627.593	0.0160783
627.671	0.0159665
627.749	0.0160750
627.828	0.0160403
627.906	0.0161707
627.984	0.0160780
628.062	0.0160172
628.140	0.0160318
628.218	0.0161089
628.296	0.0160460
628.374	0.0160190
628.453	0.0158781
628.531	0.0160294
628.609	0.0161012
628.687	0.0161125
628.765	0.0159055
628.843	0.0159557
628.921	0.0160736
628.999	0.0160817
629.078	0.0160622
629.156	0.0160119
629.234	0.0160188
629.312	0.0160752
629.390	0.0160522
629.468	0.0160515
629.546	0.0160842
629.624	0.0160543
629.703	0.0161138
629.781	0.0161343
629.859	0.0160558
629.937	0.0160755
630.015	0.0158577
630.093	0.0160966
630.171	0.0160734
630.249	0.0159977
630.328	0.0160847
630.406	0.0161082
630.484	0.0160149
630.562	0.0159878
630.640	0.0160329
630.718	0.0161901
630.796	0.0161283
630.874	0.0161830
630.953	0.0160533
631.031	0.0161160
631.109	0.0161008
631.187	0.0160850
631.265	0.0160780
631.343	0.0161266
631.421	0.0161539
631.499	0.0161265
631.578	0.0160062
631.656	0.0161534
631.734	0.0161425
631.812	0.0160992
631.890	0.0162133
631.968	0.0163658
632.046	0.0160484
632.124	0.0161292
632.203	0.0161060
632.281	0.0161902
632.359	0.0161941
632.437	0.0161689
632.515	0.0161728
632.593	0.0161726
632.671	0.0161747
632.749	0.0162314
632.828	0.0160668
632.906	0.0160168
632.984	0.0162199
633.062	0.0162069
633.140	0.0161673
633.218	0.0162230
633.296	0.0161430
633.374	0.0161655
633.453	0.0162100
633.531	0.0163031
633.609	0.0161787
633.687	0.0162356
633.765	0.0162177
633.843	0.0161886
633.921	0.0162156
633.999	0.0161118
634.078	0.0162331
634.156	0.0162321
634.234	0.0161816
634.312	0.0161766
634.390	0.0161446
634.468	0.0162907
634.546	0.0162120
634.624	0.0161377
634.703	0.0162453
634.781	0.0162230
634.859	0.0162209
634.937	0.0161403
635.015	0.0161120
635.093	0.0161848
635.171	0.0162737
635.249	0.0163190
635.328	0.0161486
635.406	0.0161411
635.484	0.0161072
635.562	0.0161514
635.640	0.0162968
635.718	0.0161726
635.796	0.0162030
635.874	0.0161806
635.953	0.0161266
636.031	0.0161303
636.109	0.0160123
636.187	0.0161702
636.265	0.0162469
636.343	0.0160291
636.421	0.0161101
636.499	0.0161140
636.578	0.0160765
636.656	0.0163419
636.734	0.0162556
636.812	0.0159981
636.890	0.0161125
636.968	0.0161234
637.046	0.0162215
637.124	0.0163555
637.203	0.0161828
637.281	0.0161175
637.359	0.0161873
637.437	0.0160489
637.515	0.0162177
637.593	0.0162023
637.671	0.0160900
637.749	0.0162861
637.828	0.0160809
637.906	0.0161314
637.984	0.0160373
638.062	0.0160941
638.140	0.0161858
638.218	0.0161640
638.296	0.0161319
638.374	0.0160960
638.453	0.0160594
638.531	0.0161196
638.609	0.0160205
638.687	0.0162641
638.765	0.0162398
638.843	0.0160839
638.921	0.0161885
638.999	0.0162171
639.078	0.0161537
639.156	0.0161225
639.234	0.0161761
639.312	0.0160696
639.390	0.0161217
639.468	0.0161380
639.546	0.0161678
639.624	0.0160795
639.703	0.0161706
639.781	0.0162055
639.859	0.0160876
639.937	0.0162313
640.015	0.0162424
640.093	0.0161205
640.171	0.0161281
640.249	0.0161459
640.328	0.0162587
640.406	0.0161197
640.484	0.0161703
640.562	0.0160456
640.640	0.0162161
640.718	0.0161638
640.796	0.0161873
640.874	0.0162058
640.953	0.0161005
641.031	0.0160201
641.109	0.0162062
641.187	0.0161542
641.265	0.0162206
641.343	0.0161753
641.421	0.0162920
641.499	0.0160792
641.578	0.0161684
641.656	0.0162045
641.734	0.0160911
641.812	0.0160143
641.890	0.0161784
641.968	0.0161883
642.046	0.0162371
642.124	0.0161082
642.203	0.0161456
642.281	0.0161222
642.359	0.0161256
642.437	0.0160953
642.515	0.0159474
642.593	0.0161518
642.671	0.0159821
642.749	0.0161254
642.828	0.0161311
642.906	0.0159716
642.984	0.0161017
643.062	0.0161709
643.140	0.0160687
643.218	0.0160936
643.296	0.0161766
643.374	0.0161441
643.453	0.0161683
643.531	0.0159570
643.609	0.0159842
643.687	0.0160349
643.765	0.0160658
643.843	0.0160529
643.921	0.0159631
643.999	0.0160634
644.078	0.0160540
644.156	0.0161848
644.234	0.0160159
644.312	0.0160201
644.390	0.0159925
644.468	0.0160361
644.546	0.0161489
644.624	0.0161568
644.703	0.0160479
644.781	0.0161321
644.859	0.0161167
644.937	0.0161176
645.015	0.0159786
645.093	0.0161140
645.171	0.0160939
645.249	0.0160204
645.328	0.0160545
645.406	0.0161466
645.484	0.0161029
645.562	0.0160364
645.640	0.0159852
645.718	0.0160283
645.796	0.0161890
645.874	0.0160670
645.953	0.0161198
646.031	0.0159840
646.109	0.0161179
646.187	0.0160791
646.265	0.0161201
646.343	0.0159772
646.421	0.0159335
646.499	0.0161740
646.578	0.0161107
646.656	0.0161691
646.734	0.0160982
646.812	0.0162341
646.890	0.0161457
646.968	0.0160944
647.046	0.0161213
647.124	0.0161141
647.203	0.0161179
647.281	0.0160004
647.359	0.0161314
647.437	0.0160078
647.515	0.0159629
647.593	0.0160646
647.671	0.0161208
647.749	0.0161354
647.828	0.0161030
647.906	0.0159636
647.984	0.0159705
648.062	0.0161143
648.140	0.0160563
648.218	0.0160059
648.296	0.0160463
648.374	0.0161984
648.453	0.0161201
648.531	0.0161341
648.609	0.0160983
648.687	0.0161659
648.765	0.0162308
648.843	0.0159969
648.921	0.0160561
648.999	0.0163062
649.078	0.0160738
649.156	0.0161205
649.234	0.0160314
649.312	0.0160597
649.390	0.0160421
649.468	0.0160313
649.546	0.0160171
649.624	0.0160281
649.703	0.0159537
649.781	0.0160849
649.859	0.0160554
649.937	0.0160775
650.015	0.0158817
650.093	0.0161160
650.171	0.0161865
650.249	0.0161976
650.328	0.0160927
650.406	0.0160375
650.484	0.0160763
650.562	0.0159812
650.640	0.0160859
650.718	0.0160682
650.796	0.0160524
650.874	0.0161418
650.953	0.0161324
651.031	0.0161292
651.109	0.0161130
651.187	0.0162500
651.265	0.0161283
651.343	0.0160456
651.421	0.0161045
651.499	0.0161305
651.578	0.0160389
651.656	0.0159943
651.734	0.0162150
651.812	0.0161477
651.890	0.0160315
651.968	0.0160109
652.046	0.0161449
652.124	0.0161551
652.203	0.0161189
652.281	0.0161541
652.359	0.0161048
652.437	0.0160575
652.515	0.0160757
652.593	0.0160961
652.671	0.0160001
652.749	0.0161343
652.828	0.0162717
652.906	0.0161667
652.984	0.0162080
653.062	0.0161656
653.140	0.0161079
653.218	0.0160465
653.296	0.0161190
653.374	0.0160498
653.453	0.0160560
653.531	0.0160660
653.609	0.0160586
653.687	0.0161960
653.765	0.0161494
653.843	0.0160308
653.921	0.0160222
653.999	0.0160425
654.078	0.0161194
654.156	0.0161795
654.234	0.0160533
654.312	0.0161207
654.390	0.0160699
654.468	0.0160220
654.546	0.0160744
654.624	0.0160097
654.703	0.0160747
654.781	0.0159854
654.859	0.0162378
654.937	0.0161953
655.015	0.0160674
655.093	0.0159657
655.171	0.0162720
655.249	0.0162251
655.328	0.0160915
655.406	0.0162305
655.484	0.0161329
655.562	0.0161926
655.640	0.0161423
655.718	0.0161904
655.796	0.0161983
655.874	0.0161598
655.953	0.0162039
656.031	0.0161391
656.109	0.0159717
656.187	0.0160072
656.265	0.0162066
656.343	0.0161628
656.421	0.0161331
656.499	0.0160364
656.578	0.0160924
656.656	0.0161418
656.734	0.0162489
656.812	0.0162022
656.890	0.0162092
656.968	0.0160642
657.046	0.0161097
657.124	0.0162030
657.203	0.0160921
657.281	0.0161857
657.359	0.0161645
657.437	0.0162209
657.515	0.0161647
657.593	0.0161517
657.671	0.0161794
657.749	0.0162853
657.828	0.0161099
657.906	0.0160993
657.984	0.0162575
658.062	0.0162669
658.140	0.0162691
658.218	0.0162819
658.296	0.0162198
658.374	0.0161197
658.453	0.0162640
658.531	0.0161207
658.609	0.0161276
658.687	0.0162716
658.765	0.0161762
658.843	0.0162188
658.921	0.0160772
658.999	0.0162321
659.078	0.0162368
659.156	0.0160086
659.234	0.0161525
659.312	0.0162173
659.390	0.0161755
659.468	0.0161921
659.546	0.0160957
659.624	0.0162791
659.703	0.0161938
659.781	0.0162300
659.859	0.0161652
659.937	0.0160320
660.015	0.0161674
660.093	0.0162251
660.171	0.0163692
660.249	0.0162086
660.328	0.0162270
660.406	0.0160728
660.484	0.0161644
660.562	0.0161346
660.640	0.0162495
660.718	0.0161251
660.796	0.0161880
660.874	0.0162762
660.953	0.0161566
661.031	0.0160736
661.109	0.0161188
661.187	0.0162804
661.265	0.0162350
661.343	0.0161996
661.421	0.0162113
661.499	0.0162641
661.578	0.0161362
661.656	0.0162129
661.734	0.0161607
661.812	0.0161060
661.890	0.0160213
661.968	0.0163037
662.046	0.0162263
662.124	0.0160363
662.203	0.0161401
662.281	0.0161713
662.359	0.0161889
662.437	0.0162161
662.515	0.0161546
662.593	0.0162930
662.671	0.0161501
662.749	0.0161858
662.828	0.0162011
662.906	0.0160956
662.984	0.0161578
663.062	0.0161706
663.140	0.0161871
663.218	0.0161560
663.296	0.0161887
663.374	0.0160970
663.453	0.0161881
663.531	0.0162093
663.609	0.0161606
663.687	0.0161011
663.765	0.0161711
663.843	0.0162893
663.921	0.0160866
663.999	0.0161446
664.078	0.0161819
664.156	0.0162675
664.234	0.0162392
664.312	0.0161715
664.390	0.0159440
664.468	0.0160797
664.546	0.0160715
664.624	0.0162828
664.703	0.0161240
664.781	0.0160645
664.859	0.0159978
664.937	0.0161301
665.015	0.0162614
665.093	0.0160914
665.171	0.0160717
665.249	0.0160878
665.328	0.0161498
665.406	0.0160682
665.484	0.0160975
665.562	0.0162468
665.640	0.0161422
665.718	0.0161085
665.796	0.0160635
665.874	0.0161493
665.953	0.0162305
666.031	0.0161502
666.109	0.0161431
666.187	0.0161727
666.265	0.0160717
666.343	0.0161162
666.421	0.0160852
666.499	0.0161815
666.578	0.0162369
666.656	0.0161773
666.734	0.0161320
666.812	0.0161902
666.890	0.0161302
666.968	0.0161370
667.046	0.0161783
667.124	0.0162428
667.203	0.0160883
667.281	0.0160911
667.359	0.0160938
667.437	0.0162925
667.515	0.0161599
667.593	0.0160439
667.671	0.0161151
667.749	0.0162376
667.828	0.0162913
667.906	0.0161627
667.984	0.0162839
668.062	0.0160861
668.140	0.0161558
668.218	0.0162336
668.296	0.0161525
668.374	0.0160783
668.453	0.0161734
668.531	0.0161770
668.609	0.0161584
668.687	0.0160772
668.765	0.0161595
668.843	0.0161410
668.921	0.0161010
668.999	0.0160278
669.078	0.0162634
669.156	0.0161752
669.234	0.0162030
669.312	0.0162882
669.390	0.0161113
669.468	0.0161703
669.546	0.0159673
669.624	0.0161309
669.703	0.0162109
669.781	0.0161961
669.859	0.0160947
669.937	0.0161638
670.015	0.0162097
670.093	0.0160886
670.171	0.0160647
670.249	0.0161230
670.328	0.0161643
670.406	0.0161590
670.484	0.0162072
670.562	0.0161718
670.640	0.0162791
670.718	0.0160876
670.796	0.0160985
670.874	0.0161938
670.953	0.0161300
671.031	0.0161224
671.109	0.0161374
671.187	0.0160163
671.265	0.0161383
671.343	0.0161912
671.421	0.0161235
671.499	0.0161391
671.578	0.0161333
671.656	0.0161229
671.734	0.0161661
671.812	0.0161756
671.890	0.0161666
671.968	0.0162198
672.046	0.0162721
672.124	0.0160110
672.203	0.0161546
672.281	0.0161571
672.359	0.0161923
672.437	0.0160719
672.515	0.0160920
672.593	0.0162033
672.671	0.0161798
672.749	0.0161637
672.828	0.0161765
672.906	0.0161816
672.984	0.0161914
673.062	0.0161497
673.140	0.0161047
673.218	0.0161921
673.296	0.0161728
673.374	0.0160357
673.453	0.0160681
673.531	0.0161933
673.609	0.0162315
673.687	0.0159763
673.765	0.0161008
673.843	0.0161588
673.921	0.0159994
673.999	0.0160411
674.078	0.0160902
674.156	0.0160342
674.234	0.0160460
674.312	0.0161240
674.390	0.0160943
674.468	0.0160702
674.546	0.0159568
674.624	0.0159866
674.703	0.0159410
674.781	0.0161430
674.859	0.0160841
674.937	0.0161382
675.015	0.0161227
675.093	0.0160406
675.171	0.0160200
675.249	0.0161291
675.328	0.0162252
675.406	0.0161156
675.484	0.0161547
675.562	0.0160845
675.640	0.0161215
675.718	0.0159976
675.796	0.0161178
675.874	0.0161591
675.953	0.0160803
676.031	0.0161450
676.109	0.0160133
676.187	0.0159747
676.265	0.0162107
676.343	0.0160592
676.421	0.0158827
676.499	0.0160372
676.578	0.0160220
676.656	0.0160870
676.734	0.0161488
676.812	0.0161369
676.890	0.0159428
676.968	0.0160376
677.046	0.0159675
677.124	0.0160587
677.203	0.0161398
677.281	0.0159807
677.359	0.0160508
677.437	0.0161505
677.515	0.0161375
677.593	0.0160775
677.671	0.0160320
677.749	0.0161107
677.828	0.0161908
677.906	0.0159525
677.984	0.0160239
678.062	0.0160384
678.140	0.0160706
678.218	0.0161448
678.296	0.0161002
678.374	0.0160657
678.453	0.0160763
678.531	0.0161137
678.609	0.0160849
678.687	0.0160503
678.765	0.0161205
678.843	0.0160892
678.921	0.0161310
678.999	0.0161348
679.078	0.0161449
679.156	0.0160484
679.234	0.0160647
679.312	0.0160561
679.390	0.0161553
679.468	0.0161553
679.546	0.0162273
679.624	0.0161613
679.703	0.0161719
679.781	0.0160903
679.859	0.0160596
679.937	0.0160451
680.015	0.0162207
680.093	0.0160770
680.171	0.0161022
680.249	0.0162521
680.328	0.0162354
680.406	0.0160037
680.484	0.0160645
680.562	0.0160567
680.640	0.0161695
680.718	0.0161313
680.796	0.0162252
680.874	0.0161536
680.953	0.0161518
681.031	0.0160399
681.109	0.0161034
681.187	0.0161388
681.265	0.0161238
681.343	0.0161693
681.421	0.0162199
681.499	0.0161996
681.578	0.0161208
681.656	0.0162109
681.734	0.0162947
681.812	0.0161818
681.890	0.0160814
681.968	0.0160967
682.046	0.0160975
682.124	0.0163139
682.203	0.0162831
682.281	0.0161056
682.359	0.0161376
682.437	0.0161022
682.515	0.0161592
682.593	0.0160281
682.671	0.0161837
682.749	0.0161661
682.828	0.0162015
682.906	0.0163329
682.984	0.0161349
683.062	0.0161945
683.140	0.0161131
683.218	0.0161040
683.296	0.0160970
683.374	0.0160351
683.453	0.0162641
683.531	0.0161896
683.609	0.0159641
683.687	0.0161853
683.765	0.0160847
683.843	0.0161772
683.921	0.0161826
683.999	0.0161830
684.078	0.0163080
684.156	0.0162770
684.234	0.0163018
684.312	0.0162126
684.390	0.0161880
684.468	0.0161844
684.546	0.0161836
684.624	0.0162432
684.703	0.0163107
684.781	0.0161703
684.859	0.0161810
684.937	0.0161095
685.015	0.0161642
685.093	0.0161916
685.171	0.0161088
685.249	0.0160805
685.328	0.0160618
685.406	0.0161375
685.484	0.0161329
685.562	0.0161024
685.640	0.0161568
685.718	0.0161533
685.796	0.0162354
685.874	0.0161919
685.953	0.0160974
686.031	0.0161248
686.109	0.0161377
686.187	0.0161570
686.265	0.0161589
686.343	0.0160600
686.421	0.0162582
686.499	0.0162336
686.578	0.0161230
686.656	0.0162021
686.734	0.0160999
686.812	0.0162339
686.890	0.0162141
686.968	0.0162959
687.046	0.0161179
687.124	0.0161015
687.203	0.0160775
687.281	0.0161333
687.359	0.0161145
687.437	0.0161123
687.515	0.0161858
687.593	0.0162706
687.671	0.0160281
687.749	0.0160307
687.828	0.0158529
687.906	0.0160851
687.984	0.0160864
688.062	0.0161084
688.140	0.0160401
688.218	0.0161721
688.296	0.0161388
688.374	0.0162170
688.453	0.0160132
688.531	0.0160578
688.609	0.0161579
688.687	0.0161219
688.765	0.0161469
688.843	0.0162413
688.921	0.0160693
688.999	0.0162427
689.078	0.0160731
689.156	0.0162313
689.234	0.0162416
689.312	0.0161430
689.390	0.0161245
689.468	0.0161039
689.546	0.0161010
689.624	0.0162520
689.703	0.0161021
689.781	0.0162617
689.859	0.0162629
689.937	0.0160258
690.015	0.0160230
690.093	0.0161297
690.171	0.0162506
690.249	0.0162059
690.328	0.0160022
690.406	0.0161118
690.484	0.0161828
690.562	0.0162982
690.640	0.0161802
690.718	0.0162110
690.796	0.0161317
690.874	0.0162271
690.953	0.0161897
691.031	0.0161729
691.109	0.0161447
691.187	0.0162215
691.265	0.0161847
691.343	0.0162949
691.421	0.0160481
691.499	0.0160600
691.578	0.0162199
691.656	0.0161554
691.734	0.0161674
691.812	0.0160970
691.890	0.0161762
691.968	0.0161604
692.046	0.0161040
692.124	0.0160728
692.203	0.0160619
692.281	0.0161910
692.359	0.0161782
692.437	0.0161684
692.515	0.0161594
692.593	0.0162236
692.671	0.0162035
692.749	0.0160288
692.828	0.0161371
692.906	0.0162439
692.984	0.0162691
693.062	0.0161269
693.140	0.0162565
693.218	0.0160572
693.296	0.0162550
693.374	0.0162806
693.453	0.0161723
693.531	0.0162231
693.609	0.0161430
693.687	0.0161427
693.765	0.0162140
693.843	0.0162144
693.921	0.0162380
693.999	0.0162504
694.078	0.0162573
694.156	0.0161190
694.234	0.0160969
694.312	0.0161660
694.390	0.0162634
694.468	0.0162794
694.546	0.0161639
694.624	0.0160899
694.703	0.0161069
694.781	0.0160885
694.859	0.0161127
694.937	0.0161389
695.015	0.0160901
695.093	0.0161221
695.171	0.0161340
695.249	0.0161286
695.328	0.0163078
695.406	0.0162193
695.484	0.0161562
695.562	0.0161489
695.640	0.0161143
695.718	0.0160194
695.796	0.0161962
695.874	0.0161516
695.953	0.0160657
696.031	0.0160756
696.109	0.0159993
696.187	0.0160175
696.265	0.0161752
696.343	0.0162034
696.421	0.0162057
696.499	0.0161591
696.578	0.0161833
696.656	0.0161990
696.734	0.0159715
696.812	0.0159875
696.890	0.0162385
696.968	0.0160944
697.046	0.0160147
697.124	0.0160596
697.203	0.0160326
697.281	0.0160538
697.359	0.0163224
697.437	0.0160704
697.515	0.0159843
697.593	0.0160297
697.671	0.0160947
697.749	0.0161369
697.828	0.0159803
697.906	0.0160582
697.984	0.0160026
698.062	0.0161863
698.140	0.0160966
698.218	0.0159662
698.296	0.0159698
698.374	0.0161542
698.453	0.0161147
698.531	0.0161269
698.609	0.0159249
698.687	0.0162831
698.765	0.0161422
698.843	0.0160368
698.921	0.0161021
698.999	0.0160287
699.078	0.0160230
699.156	0.0160591
699.234	0.0159686
699.312	0.0160735
699.390	0.0160415
699.468	0.0159309
699.546	0.0161063
699.624	0.0161243
699.703	0.0161403
699.781	0.0159272
699.859	0.0160506
699.937	0.0160397
700.015	0.0160284
700.093	0.0159306
700.171	0.0161498
700.249	0.0159554
700.328	0.0161530
700.406	0.0161459
700.484	0.0160458
700.562	0.0160639
700.640	0.0162141
700.718	0.0160459
700.796	0.0160492
700.874	0.0160716
700.953	0.0160349
701.031	0.0161347
701.109	0.0161475
701.187	0.0160966
701.265	0.0161015
701.343	0.0159991
701.421	0.0160762
701.499	0.0160136
701.578	0.0160609
701.656	0.0159048
701.734	0.0160662
701.812	0.0160332
701.890	0.0159699
701.968	0.0159501
702.046	0.0158543
702.124	0.0160558
702.203	0.0160794
702.281	0.0158650
702.359	0.0159574
702.437	0.0161588
702.515	0.0160350
702.593	0.0159548
702.671	0.0162782
702.749	0.0160805
702.828	0.0158717
702.906	0.0159686
702.984	0.0160484
703.062	0.0160874
703.140	0.0160847
703.218	0.0159555
703.296	0.0158824
703.374	0.0158936
703.453	0.0159126
703.531	0.0158318
703.609	0.0159967
703.687	0.0159199
703.765	0.0158778
703.843	0.0159521
703.921	0.0158768
703.999	0.0160524
704.078	0.0159805
704.156	0.0159297
704.234	0.0160764
704.312	0.0159121
704.390	0.0159758
704.468	0.0160210
704.546	0.0159716
704.624	0.0161839
704.703	0.0160030
704.781	0.0159599
704.859	0.0160155
704.937	0.0160660
705.015	0.0159930
705.093	0.0161437
705.171	0.0159150
705.249	0.0160279
705.328	0.0159641
705.406	0.0159037
705.484	0.0159680
705.562	0.0159846
705.640	0.0159712
705.718	0.0159864
705.796	0.0160693
705.874	0.0159554
705.953	0.0159764
706.031	0.0159985
706.109	0.0159346
706.187	0.0159802
706.265	0.0160754
706.343	0.0160585
706.421	0.0160616
706.499	0.0159237
706.578	0.0160056
706.656	0.0160969
706.734	0.0160786
706.812	0.0161712
706.890	0.0160567
706.968	0.0161656
707.046	0.0161021
707.124	0.0161394
707.203	0.0162072
707.281	0.0161404
707.359	0.0161552
707.437	0.0161282
707.515	0.0160948
707.593	0.0160957
707.671	0.0162289
707.749	0.0161626
707.828	0.0160721
707.906	0.0160052
707.984	0.0160831
708.062	0.0161246
708.140	0.0161461
708.218	0.0159666
708.296	0.0159868
708.374	0.0160023
708.453	0.0159952
708.531	0.0159316
708.609	0.0161061
708.687	0.0161422
708.765	0.0161474
708.843	0.0161712
708.921	0.0161768
708.999	0.0161385
709.078	0.0161597
709.156	0.0160660
709.234	0.0162964
709.312	0.0163324
709.390	0.0162280
709.468	0.0161335
709.546	0.0162222
709.624	0.0163190
709.703	0.0161050
709.781	0.0160741
709.859	0.0160490
709.937	0.0161533
710.015	0.0160656
710.093	0.0162451
710.171	0.0161377
710.249	0.0160217
710.328	0.0161611
710.406	0.0161937
710.484	0.0160417
710.562	0.0160811
710.640	0.0161752
710.718	0.0161623
710.796	0.0162091
710.874	0.0161076
710.953	0.0161327
711.031	0.0162822
711.109	0.0162090
711.187	0.0160542
711.265	0.0160713
711.343	0.0161980
711.421	0.0162867
711.499	0.0161306
711.578	0.0163303
711.656	0.0162072
711.734	0.0162404
711.812	0.0163002
711.890	0.0161901
711.968	0.0161651
712.046	0.0161874
712.124	0.0162727
712.203	0.0162378
712.281	0.0163761
712.359	0.0161610
712.437	0.0161902
712.515	0.0162275
712.593	0.0162072
712.671	0.0161691
712.749	0.0161739
712.828	0.0161672
712.906	0.0162367
712.984	0.0162517
713.062	0.0161457
713.140	0.0163288
713.218	0.0161646
713.296	0.0160470
713.374	0.0161765
713.453	0.0161283
713.531	0.0163592
713.609	0.0161559
713.687	0.0161418
713.765	0.0161738
713.843	0.0161954
713.921	0.0161452
713.999	0.0162090
714.078	0.0161724
714.156	0.0160666
714.234	0.0161216
714.312	0.0162474
714.390	0.0161745
714.468	0.0161428
714.546	0.0161921
714.624	0.0160411
714.703	0.0161063
714.781	0.0161652
714.859	0.0162100
714.937	0.0160693
715.015	0.0160812
715.093	0.0161546
715.171	0.0161184
715.249	0.0161578
715.328	0.0161489
715.406	0.0160612
715.484	0.0161503
715.562	0.0162399
715.640	0.0161569
715.718	0.0161834
715.796	0.0161271
715.874	0.0160861
715.953	0.0161866
716.031	0.0160854
716.109	0.0160960
716.187	0.0160509
716.265	0.0161406
716.343	0.0160829
716.421	0.0161169
716.499	0.0161826
716.578	0.0162775
716.656	0.0161932
716.734	0.0161309
716.812	0.0162195
716.890	0.0162179
716.968	0.0161134
717.046	0.0161181
717.124	0.0162045
717.203	0.0162213
717.281	0.0161757
717.359	0.0161100
717.437	0.0161805
717.515	0.0162056
717.593	0.0161121
717.671	0.0161626
717.749	0.0160715
717.828	0.0160020
717.906	0.0161264
717.984	0.0160187
718.062	0.0161387
718.140	0.0159937
718.218	0.0160964
718.296	0.0160487
718.374	0.0160813
718.453	0.0161102
718.531	0.0160728
718.609	0.0161281
718.687	0.0161346
718.765	0.0161641
718.843	0.0163120
718.921	0.0162773
718.999	0.0161668
719.078	0.0160802
719.156	0.0161654
719.234	0.0162405
719.312	0.0161291
719.390	0.0160650
719.468	0.0160530
719.546	0.0160919
719.624	0.0160527
719.703	0.0161980
719.781	0.0160842
719.859	0.0160746
719.937	0.0163066
720.015	0.0162387
720.093	0.0161301
720.171	0.0161047
720.249	0.0161311
720.328	0.0162379
720.406	0.0160477
720.484	0.0160998
720.562	0.0161996
720.640	0.0160968
720.718	0.0162004
720.796	0.0161104
720.874	0.0160133
720.953	0.0162169
721.031	0.0161609
721.109	0.0160754
721.187	0.0162263
721.265	0.0161853
721.343	0.0161281
721.421	0.0161201
721.499	0.0161100
721.578	0.0162508
721.656	0.0160674
721.734	0.0159206
721.812	0.0161260
721.890	0.0161829
721.968	0.0161065
722.046	0.0160011
722.124	0.0160590
722.203	0.0161264
722.281	0.0162211
722.359	0.0160255
722.437	0.0161621
722.515	0.0160982
722.593	0.0161572
722.671	0.0161407
722.749	0.0160332
722.828	0.0158788
722.906	0.0161422
722.984	0.0162359
723.062	0.0162598
723.140	0.0159725
723.218	0.0161617
723.296	0.0162603
723.374	0.0161185
723.453	0.0159966
723.531	0.0159983
723.609	0.0161747
723.687	0.0161479
723.765	0.0159913
723.843	0.0160413
723.921	0.0160384
723.999	0.0160488
724.078	0.0161086
724.156	0.0161127
724.234	0.0160475
724.312	0.0160703
724.390	0.0161073
724.468	0.0159946
724.546	0.0159373
724.624	0.0160503
724.703	0.0160967
724.781	0.0159728
724.859	0.0160030
724.937	0.0160402
725.015	0.0159180
725.093	0.0159781
725.171	0.0160368
725.249	0.0159811
725.328	0.0160258
725.406	0.0159512
725.484	0.0159600
725.562	0.0160469
725.640	0.0160204
725.718	0.0161680
725.796	0.0159270
725.874	0.0159496
725.953	0.0159837
726.031	0.0160468
726.109	0.0160207
726.187	0.0158724
726.265	0.0159383
726.343	0.0159468
726.421	0.0160887
726.499	0.0161185
726.578	0.0160896
726.656	0.0161025
726.734	0.0159504
726.812	0.0161230
726.890	0.0159628
726.968	0.0160857
727.046	0.0161857
727.124	0.0160305
727.203	0.0160555
727.281	0.0161799
727.359	0.0161063
727.437	0.0160142
727.515	0.0159943
727.593	0.0160963
727.671	0.0159313
727.749	0.0160568
727.828	0.0161301
727.906	0.0161388
727.984	0.0159916
728.062	0.0160983
728.140	0.0160023
728.218	0.0159940
728.296	0.0159927
728.374	0.0161266
728.453	0.0161710
728.531	0.0160941
728.609	0.0161067
728.687	0.0160668
728.765	0.0160824
728.843	0.0161234
728.921	0.0160836
728.999	0.0160230
729.078	0.0160484
729.156	0.0160667
729.234	0.0161467
729.312	0.0162141
729.390	0.0160558
729.468	0.0158116
729.546	0.0158672
729.624	0.0161027
729.703	0.0162262
729.781	0.0161103
729.859	0.0160520
729.937	0.0160892
730.015	0.0161246
730.093	0.0160721
730.171	0.0160201
730.249	0.0160176
730.328	0.0161641
730.406	0.0161490
730.484	0.0161164
730.562	0.0161559
730.640	0.0161736
730.718	0.0161810
730.796	0.0161142
730.874	0.0161134
730.953	0.0161967
731.031	0.0159721
731.109	0.0160490
731.187	0.0162127
731.265	0.0161942
731.343	0.0161840
731.421	0.0161865
731.499	0.0161234
731.578	0.0161501
731.656	0.0161243
731.734	0.0161563
731.812	0.0161302
731.890	0.0163021
731.968	0.0162425
732.046	0.0161683
732.124	0.0161632
732.203	0.0161977
732.281	0.0161214
732.359	0.0161795
732.437	0.0161330
732.515	0.0162592
732.593	0.0162798
732.671	0.0161774
732.749	0.0161338
732.828	0.0161104
732.906	0.0160956
732.984	0.0160781
733.062	0.0162145
733.140	0.0161211
733.218	0.0160963
733.296	0.0162482
733.374	0.0161540
733.453	0.0159655
733.531	0.0161446
733.609	0.0161228
733.687	0.0160663
733.765	0.0160688
733.843	0.0160380
733.921	0.0161276
733.999	0.0162125
734.078	0.0161886
734.156	0.0161569
734.234	0.0160431
734.312	0.0161581
734.390	0.0161674
734.468	0.0162070
734.546	0.0162097
734.624	0.0161748
734.703	0.0162611
734.781	0.0161816
734.859	0.0160254
734.937	0.0160461
735.015	0.0161323
735.093	0.0162012
735.171	0.0160966
735.249	0.0160553
735.328	0.0161464
735.406	0.0161597
735.484	0.0160690
735.562	0.0161429
735.640	0.0161432
735.718	0.0161349
735.796	0.0160496
735.874	0.0160326
735.953	0.0161186
736.031	0.0161622
736.109	0.0162072
736.187	0.0162002
736.265	0.0162386
736.343	0.0161363
736.421	0.0161560
736.499	0.0160822
736.578	0.0161050
736.656	0.0160963
736.734	0.0162556
736.812	0.0160411
736.890	0.0162222
736.968	0.0162163
737.046	0.0161905
737.124	0.0161685
737.203	0.0162005
737.281	0.0161890
737.359	0.0161980
737.437	0.0162066
737.515	0.0161675
737.593	0.0161702
737.671	0.0161104
737.749	0.0161541
737.828	0.0162751
737.906	0.0161106
737.984	0.0162420
738.062	0.0161704
738.140	0.0161875
738.218	0.0162645
738.296	0.0163058
738.374	0.0162095
738.453	0.0161371
738.531	0.0162329
738.609	0.0160545
738.687	0.0163248
738.765	0.0162727
738.843	0.0161690
738.921	0.0162103
738.999	0.0164272
739.078	0.0162902
739.156	0.0161628
739.234	0.0161169
739.312	0.0161898
739.390	0.0162141
739.468	0.0162206
739.546	0.0161523
739.624	0.0163258
739.703	0.0161943
739.781	0.0162359
739.859	0.0161525
739.937	0.0163179
740.015	0.0160859
740.093	0.0160757
740.171	0.0161971
740.249	0.0162434
740.328	0.0161990
740.406	0.0162698
740.484	0.0161868
740.562	0.0161511
740.640	0.0162296
740.718	0.0162589
740.796	0.0163478
740.874	0.0163103
740.953	0.0163776
741.031	0.0161655
741.109	0.0161569
741.187	0.0161694
741.265	0.0162057
741.343	0.0162778
741.421	0.0163063
741.499	0.0161299
741.578	0.0161840
741.656	0.0162994
741.734	0.0161495
741.812	0.0160293
741.890	0.0161353
741.968	0.0161727
742.046	0.0161102
742.124	0.0162025
742.203	0.0161549
742.281	0.0162251
742.359	0.0161487
742.437	0.0160860
742.515	0.0162899
742.593	0.0163222
742.671	0.0162690
742.749	0.0162462
742.828	0.0161424
742.906	0.0162140
742.984	0.0160304
743.062	0.0161033
743.140	0.0162033
743.218	0.0163187
743.296	0.0162128
743.374	0.0161285
743.453	0.0161145
743.531	0.0161998
743.609	0.0161295
743.687	0.0161658
743.765	0.0161909
743.843	0.0161942
743.921	0.0163619
743.999	0.0161431
744.078	0.0161026
744.156	0.0161832
744.234	0.0162276
744.312	0.0162273
744.390	0.0161455
744.468	0.0161457
744.546	0.0161407
744.624	0.0161717
744.703	0.0162890
744.781	0.0161888
744.859	0.0161692
744.937	0.0162587
745.015	0.0161162
745.093	0.0161253
745.171	0.0161755
745.249	0.0162052
745.328	0.0161258
745.406	0.0161727
745.484	0.0162061
745.562	0.0161668
745.640	0.0161266
745.718	0.0161243
745.796	0.0161442
745.874	0.0162851
745.953	0.0162077
746.031	0.0160671
746.109	0.0161611
746.187	0.0161535
746.265	0.0161237
746.343	0.0161660
746.421	0.0161214
746.499	0.0161644
746.578	0.0160213
746.656	0.0161073
746.734	0.0162434
746.812	0.0161376
746.890	0.0160634
746.968	0.0160928
747.046	0.0160386
747.124	0.0161501
747.203	0.0161874
747.281	0.0160030
747.359	0.0160717
747.437	0.0160453
747.515	0.0159361
747.593	0.0160160
747.671	0.0160979
747.749	0.0160956
747.828	0.0162195
747.906	0.0162106
747.984	0.0161260
748.062	0.0161356
748.140	0.0160781
748.218	0.0160717
748.296	0.0162094
748.374	0.0160769
748.453	0.0160760
748.531	0.0161790
748.609	0.0162199
748.687	0.0162434
748.765	0.0160748
748.843	0.0160070
748.921	0.0161797
748.999	0.0161411
749.078	0.0161816
749.156	0.0162623
749.234	0.0159840
749.312	0.0160107
749.390	0.0160235
749.468	0.0160934
749.546	0.0161079
749.624	0.0158727
749.703	0.0160548
749.781	0.0159998
749.859	0.0160918
749.937	0.0161718
750.015	0.0160938
750.093	0.0161046
750.171	0.0160656
750.249	0.0160192
750.328	0.0162263
750.406	0.0160872
750.484	0.0161720
750.562	0.0162103
750.640	0.0161131
750.718	0.0161676
750.796	0.0160922
750.874	0.0160842
750.953	0.0160820
751.031	0.0161504
751.109	0.0160835
751.187	0.0161369
751.265	0.0161568
751.343	0.0161880
751.421	0.0160431
751.499	0.0162163
751.578	0.0161165
751.656	0.0161385
751.734	0.0161248
751.812	0.0161152
751.890	0.0162909
751.968	0.0162589
752.046	0.0161837
752.124	0.0160582
752.203	0.0162504
752.281	0.0161533
752.359	0.0162003
752.437	0.0161720
752.515	0.0161623
752.593	0.0159840
752.671	0.0160059
752.749	0.0162771
752.828	0.0161836
752.906	0.0161478
752.984	0.0161334
753.062	0.0160949
753.140	0.0160249
753.218	0.0161436
753.296	0.0161441
753.374	0.0161589
753.453	0.0162940
753.531	0.0160123
753.609	0.0160725
753.687	0.0159657
753.765	0.0160859
753.843	0.0161274
753.921	0.0160800
753.999	0.0161412
754.078	0.0160301
754.156	0.0161292
754.234	0.0161574
754.312	0.0160932
754.390	0.0160678
754.468	0.0160317
754.546	0.0162479
754.624	0.0161889
754.703	0.0160084
754.781	0.0161630
754.859	0.0160818
754.937	0.0160448
755.015	0.0160941
755.093	0.0161026
755.171	0.0161713
755.249	0.0161199
755.328	0.0160873
755.406	0.0162022
755.484	0.0163358
755.562	0.0161755
755.640	0.0161030
755.718	0.0162048
755.796	0.0160403
755.874	0.0160951
755.953	0.0162670
756.031	0.0160900
756.109	0.0162072
756.187	0.0162407
756.265	0.0162138
756.343	0.0160638
756.421	0.0161413
756.499	0.0162148
756.578	0.0161847
756.656	0.0161026
756.734	0.0160748
756.812	0.0161896
756.890	0.0161734
756.968	0.0162290
757.046	0.0159774
757.124	0.0161206
757.203	0.0159161
757.281	0.0160335
757.359	0.0160286
757.437	0.0160617
757.515	0.0161846
757.593	0.0160812
757.671	0.0162930
757.749	0.0162766
757.828	0.0161246
757.906	0.0161146
757.984	0.0163082
758.062	0.0161647
758.140	0.0161658
758.218	0.0161521
758.296	0.0161290
758.374	0.0162309
758.453	0.0162996
758.531	0.0163150
758.609	0.0161784
758.687	0.0161301
758.765	0.0163043
758.843	0.0162582
758.921	0.0161756
758.999	0.0162554
759.078	0.0163020
759.156	0.0161837
759.234	0.0162991
759.312	0.0162630
759.390	0.0162788
759.468	0.0161175
759.546	0.0161274
759.624	0.0161382
759.703	0.0161285
759.781	0.0161421
759.859	0.0161549
759.937	0.0161568
760.015	0.0160973
760.093	0.0161445
760.171	0.0160869
760.249	0.0161088
760.328	0.0160941
760.406	0.0160940
760.484	0.0162105
760.562	0.0161434
760.640	0.0161821
760.718	0.0161385
760.796	0.0161182
760.874	0.0161383
760.953	0.0162239
761.031	0.0161700
761.109	0.0162131
761.187	0.0162646
761.265	0.0162575
761.343	0.0162778
761.421	0.0162652
761.499	0.0161738
761.578	0.0163153
761.656	0.0161840
761.734	0.0161832
761.812	0.0162844
761.890	0.0163099
761.968	0.0163348
762.046	0.0161723
762.124	0.0162363
762.203	0.0162689
762.281	0.0162027
762.359	0.0161277
762.437	0.0161810
762.515	0.0160916
762.593	0.0161702
762.671	0.0161772
762.749	0.0160706
762.828	0.0161964
762.906	0.0161222
762.984	0.0161714
763.062	0.0161893
763.140	0.0161238
763.218	0.0159692
763.296	0.0160680
763.374	0.0162202
763.453	0.0161280
763.531	0.0160213
763.609	0.0161147
763.687	0.0160487
763.765	0.0161880
763.843	0.0162365
763.921	0.0161961
763.999	0.0162211
764.078	0.0162829
764.156	0.0163198
764.234	0.0162129
764.312	0.0162325
764.390	0.0162369
764.468	0.0160788
764.546	0.0162299
764.624	0.0160375
764.703	0.0160238
764.781	0.0158882
764.859	0.0160352
764.937	0.0159644
765.015	0.0159553
765.093	0.0160596
765.171	0.0160177
765.249	0.0159920
765.328	0.0159930
765.406	0.0159946
765.484	0.0158879
765.562	0.0159695
765.640	0.0161140
765.718	0.0160976
765.796	0.0161233
765.874	0.0160781
765.953	0.0160889
766.031	0.0161983
766.109	0.0160967
766.187	0.0159988
766.265	0.0160909
766.343	0.0160251
766.421	0.0161642
766.499	0.0160532
766.578	0.0162692
766.656	0.0162830
766.734	0.0162497
766.812	0.0164245
766.890	0.0163835
766.968	0.0164085
767.046	0.0162508
767.124	0.0164114
767.203	0.0162824
767.281	0.0161866
767.359	0.0161881
767.437	0.0162772
767.515	0.0161555
767.593	0.0160629
767.671	0.0160873
767.749	0.0162173
767.828	0.0162666
767.906	0.0161121
767.984	0.0160423
768.062	0.0159714
768.140	0.0160680
768.218	0.0161421
768.296	0.0161762
768.374	0.0160112
768.453	0.0160290
768.531	0.0158542
768.609	0.0158649
768.687	0.0158025
768.765	0.0159074
768.843	0.0158612
768.921	0.0159198
768.999	0.0159099
769.078	0.0159211
769.156	0.0159058
769.234	0.0160927
769.312	0.0160974
769.390	0.0161346
769.468	0.0161201
769.546	0.0159612
769.624	0.0159825
769.703	0.0160559
769.781	0.0160164
769.859	0.0161121
769.937	0.0162080
770.015	0.0162474
770.093	0.0162070
770.171	0.0161803
770.249	0.0161990
770.328	0.0163341
770.406	0.0163830
770.484	0.0163024
770.562	0.0162579
770.640	0.0162210
770.718	0.0162035
770.796	0.0162699
770.874	0.0162505
770.953	0.0160477
771.031	0.0160944
771.109	0.0160474
771.187	0.0162270
771.265	0.0162238
771.343	0.0162083
771.421	0.0161135
771.499	0.0160254
771.578	0.0162199
771.656	0.0160504
771.734	0.0161356
771.812	0.0160467
771.890	0.0159062
771.968	0.0160970
772.046	0.0159680
772.124	0.0158954
772.203	0.0161732
772.281	0.0159750
772.359	0.0160769
772.437	0.0159722
772.515	0.0158740
772.593	0.0159396
772.671	0.0159455
772.749	0.0160731
772.828	0.0159651
772.906	0.0160183
772.984	0.0160080
773.062	0.0159001
773.140	0.0159900
773.218	0.0159813
773.296	0.0159827
773.374	0.0159210
773.453	0.0158849
773.531	0.0159430
773.609	0.0159489
773.687	0.0158363
773.765	0.0158967
773.843	0.0157686
773.921	0.0159171
773.999	0.0158895
774.078	0.0159161
774.156	0.0159696
774.234	0.0158654
774.312	0.0159507
774.390	0.0159792
774.468	0.0161082
774.546	0.0159540
774.624	0.0160229
774.703	0.0159370
774.781	0.0159338
774.859	0.0160601
774.937	0.0160484
775.015	0.0162346
775.093	0.0160700
775.171	0.0163215
775.249	0.0162321
775.328	0.0164178
775.406	0.0162672
775.484	0.0163905
775.562	0.0164339
775.640	0.0164013
775.718	0.0163004
775.796	0.0163300
775.874	0.0161771
775.953	0.0162612
776.031	0.0162258
776.109	0.0160931
776.187	0.0160957
776.265	0.0162016
776.343	0.0160200
776.421	0.0159869
776.499	0.0159184
776.578	0.0157665
776.656	0.0158822
776.734	0.0159773
776.812	0.0159931
776.890	0.0160030
776.968	0.0157256
777.046	0.0158306
777.124	0.0158266
777.203	0.0157869
777.281	0.0158095
777.359	0.0157710
777.437	0.0157277
777.515	0.0158957
777.593	0.0159351
777.671	0.0158222
777.749	0.0159637
777.828	0.0160435
777.906	0.0160412
777.984	0.0160683
778.062	0.0160383
778.140	0.0161172
778.218	0.0160667
778.296	0.0161370
778.374	0.0160599
778.453	0.0161297
778.531	0.0162761
778.609	0.0161995
778.687	0.0162222
778.765	0.0161626
778.843	0.0160990
778.921	0.0162590
778.999	0.0161375
779.078	0.0162316
779.156	0.0160404
779.234	0.0161665
779.312	0.0161046
779.390	0.0160332
779.468	0.0159766
779.546	0.0159721
779.624	0.0160506
779.703	0.0160060
779.781	0.0158646
779.859	0.0158576
779.937	0.0160613
780.015	0.0160565
780.093	0.0160247
780.171	0.0160629
780.249	0.0160879
780.328	0.0160063
780.406	0.0161294
780.484	0.0162133
780.562	0.0161420
780.640	0.0161620
780.718	0.0161682
780.796	0.0162859
780.874	0.0162099
780.953	0.0162093
781.031	0.0161279
781.109	0.0160860
781.187	0.0159379
781.265	0.0159851
781.343	0.0160060
781.421	0.0160450
781.499	0.0158919
781.578	0.0158961
781.656	0.0158719
781.734	0.0158047
781.812	0.0159136
781.890	0.0157598
781.968	0.0158647
782.046	0.0158288
782.124	0.0157875
782.203	0.0158974
782.281	0.0158630
782.359	0.0158949
782.437	0.0159212
782.515	0.0160302
782.593	0.0160710
782.671	0.0162035
782.749	0.0162211
782.828	0.0161339
782.906	0.0163287
782.984	0.0163187
783.062	0.0162616
783.140	0.0164040
783.218	0.0162809
783.296	0.0163657
783.374	0.0163060
783.453	0.0162283
783.531	0.0162841
783.609	0.0162553
783.687	0.0162189
783.765	0.0162073
783.843	0.0162926
783.921	0.0162199
783.999	0.0162709
784.078	0.0160230
784.156	0.0159462
784.234	0.0161608
784.312	0.0159933
784.390	0.0159340
784.468	0.0160384
784.546	0.0159922
784.624	0.0156953
784.703	0.0157285
784.781	0.0158492
784.859	0.0158231
784.937	0.0156295
785.015	0.0158218
785.093	0.0157938
785.171	0.0159148
785.249	0.0159875
785.328	0.0159230
785.406	0.0158899
785.484	0.0161004
785.562	0.0159771
785.640	0.0159574
785.718	0.0161296
785.796	0.0162389
785.874	0.0163101
785.953	0.0162264
786.031	0.0163132
786.109	0.0163499
786.187	0.0163980
786.265	0.0163016
786.343	0.0163373
786.421	0.0163670
786.499	0.0164406
786.578	0.0163515
786.656	0.0163333
786.734	0.0163337
786.812	0.0163538
786.890	0.0163925
786.968	0.0164246
787.046	0.0162959
787.124	0.0163004
787.203	0.0162206
787.281	0.0163168
787.359	0.0161721
787.437	0.0161996
787.515	0.0162399
787.593	0.0158942
787.671	0.0158902
787.749	0.0159465
787.828	0.0159895
787.906	0.0159006
787.984	0.0159657
788.062	0.0158395
788.140	0.0159335
788.218	0.0159247
788.296	0.0159876
788.374	0.0159370
788.453	0.0160241
788.531	0.0159531
788.609	0.0159296
788.687	0.0159698
788.765	0.0160422
788.843	0.0159003
788.921	0.0158689
788.999	0.0159774
789.078	0.0161491
789.156	0.0159940
789.234	0.0160357
789.312	0.0160670
789.390	0.0160111
789.468	0.0159170
789.546	0.0159298
789.624	0.0159254
789.703	0.0158842
789.781	0.0160249
789.859	0.0160093
789.937	0.0159898
790.015	0.0160601
790.093	0.0158990
790.171	0.0158932
790.249	0.0160902
790.328	0.0159938
790.406	0.0160816
790.484	0.0160712
790.562	0.0161202
790.640	0.0162863
790.718	0.0162532
790.796	0.0163257
790.874	0.0162831
790.953	0.0162514
791.031	0.0162815
791.109	0.0162555
791.187	0.0163419
791.265	0.0164028
791.343	0.0163779
791.421	0.0163557
791.499	0.0164482
791.578	0.0165247
791.656	0.0165054
791.734	0.0163251
791.812	0.0164234
791.890	0.0164753
791.968	0.0164406
792.046	0.0162686
792.124	0.0161830
792.203	0.0162955
792.281	0.0163447
792.359	0.0162316
792.437	0.0162874
792.515	0.0162160
792.593	0.0162269
792.671	0.0160535
792.749	0.0160086
792.828	0.0160965
792.906	0.0160551
792.984	0.0158782
793.062	0.0158609
793.140	0.0158148
793.218	0.0157417
793.296	0.0158220
793.374	0.0157012
793.453	0.0156898
793.531	0.0156639
793.609	0.0157837
793.687	0.0158904
793.765	0.0156756
793.843	0.0156830
793.921	0.0157639
793.999	0.0157635
794.078	0.0158762
794.156	0.0159019
794.234	0.0158618
794.312	0.0160620
794.390	0.0161643
794.468	0.0160722
794.546	0.0163134
794.624	0.0161604
794.703	0.0163444
794.781	0.0165947
794.859	0.0165004
794.937	0.0164016
795.015	0.0164700
795.093	0.0165133
795.171	0.0165395
795.249	0.0165670
795.328	0.0164041
795.406	0.0165196
795.484	0.0164696
795.562	0.0163169
795.640	0.0162227
795.718	0.0163528
795.796	0.0161895
795.874	0.0162984
795.953	0.0160822
796.031	0.0160964
796.109	0.0161103
796.187	0.0161030
796.265	0.0160112
796.343	0.0158971
796.421	0.0159650
796.499	0.0158777
796.578	0.0159176
796.656	0.0160729
796.734	0.0158678
796.812	0.0158807
796.890	0.0157903
796.968	0.0158437
797.046	0.0158435
797.124	0.0158405
797.203	0.0160075
797.281	0.0160195
797.359	0.0160358
797.437	0.0160597
797.515	0.0162132
797.593	0.0163413
797.671	0.0162025
797.749	0.0162455
797.828	0.0163303
797.906	0.0162983
797.984	0.0163473
798.062	0.0163509
798.140	0.0163630
798.218	0.0164436
798.296	0.0163052
798.374	0.0161846
798.453	0.0163273
798.531	0.0162808
798.609	0.0162504
798.687	0.0161909
798.765	0.0162228
798.843	0.0161037
798.921	0.0160845
798.999	0.0160999
799.078	0.0161330
799.156	0.0161701
799.234	0.0160370
799.312	0.0158912
799.390	0.0159158
799.468	0.0159229
799.546	0.0159238
799.624	0.0159583
799.703	0.0159428
799.781	0.0159177
799.859	0.0157921
799.937	0.0157700
800.015	0.0157816
800.093	0.0157738
800.171	0.0157774
800.249	0.0158031
800.328	0.0156226
800.406	0.0158179
800.484	0.0157426
800.562	0.0157999
800.640	0.0157159
800.718	0.0157405
800.796	0.0159010
800.874	0.0159454
800.953	0.0159810
801.031	0.0158007
801.109	0.0158942
801.187	0.0158519
801.265	0.0160448
801.343	0.0161408
801.421	0.0161575
801.499	0.0160676
801.578	0.0160584
801.656	0.0162083
801.734	0.0162659
801.812	0.0164077
801.890	0.0163566
801.968	0.0163226
802.046	0.0164172
802.124	0.0164229
802.203	0.0163750
802.281	0.0164822
802.359	0.0163537
802.437	0.0162174
802.515	0.0163509
802.593	0.0164380
802.671	0.0163886
802.749	0.0164613
802.828	0.0161618
802.906	0.0163239
802.984	0.0164572
803.062	0.0162093
803.140	0.0159727
803.218	0.0161123
803.296	0.0161330
803.374	0.0159641
803.453	0.0160393
803.531	0.0161146
803.609	0.0160184
803.687	0.0160294
803.765	0.0160413
803.843	0.0160284
803.921	0.0160354
803.999	0.0159766
804.078	0.0160398
804.156	0.0160809
804.234	0.0160780
804.312	0.0160489
804.390	0.0160697
804.468	0.0161155
804.546	0.0161273
804.624	0.0161137
804.703	0.0160565
804.781	0.0160530
804.859	0.0160425
804.937	0.0158266
805.015	0.0158511
805.093	0.0160139
805.171	0.0158615
805.249	0.0158349
805.328	0.0157726
805.406	0.0158588
805.484	0.0157442
805.562	0.0157060
805.640	0.0157611
805.718	0.0158279
805.796	0.0159023
805.874	0.0158627
805.953	0.0158421
806.031	0.0158641
806.109	0.0158913
806.187	0.0158253
806.265	0.0161362
806.343	0.0161398
806.421	0.0162161
806.499	0.0162302
806.578	0.0161489
806.656	0.0160627
806.734	0.0162237
806.812	0.0163305
806.890	0.0162975
806.968	0.0162829
807.046	0.0163736
807.124	0.0162720
807.203	0.0163342
807.281	0.0163416
807.359	0.0163201
807.437	0.0162724
807.515	0.0161797
807.593	0.0162899
807.671	0.0162630
807.749	0.0162774
807.828	0.0161157
807.906	0.0160616
807.984	0.0161020
808.062	0.0160439
808.140	0.0161005
808.218	0.0161169
808.296	0.0162189
808.374	0.0160871
808.453	0.0160453
808.531	0.0158321
808.609	0.0158787
808.687	0.0159430
808.765	0.0159658
808.843	0.0159563
808.921	0.0160403
808.999	0.0159012
809.078	0.0160328
809.156	0.0161032
809.234	0.0160280
809.312	0.0159806
809.390	0.0159096
809.468	0.0160802
809.546	0.0161343
809.624	0.0161231
809.703	0.0162976
809.781	0.0163145
809.859	0.0160722
809.937	0.0161832
810.015	0.0161921
810.093	0.0162852
810.171	0.0163203
810.249	0.0164017
810.328	0.0161749
810.406	0.0163088
810.484	0.0162379
810.562	0.0160529
810.640	0.0159116
810.718	0.0159950
810.796	0.0159126
810.874	0.0159412
810.953	0.0158616
811.031	0.0158493
811.109	0.0158492
811.187	0.0158863
811.265	0.0157720
811.343	0.0158371
811.421	0.0158929
811.499	0.0160971
811.578	0.0160217
811.656	0.0159883
811.734	0.0160370
811.812	0.0160491
811.890	0.0161099
811.968	0.0162125
812.046	0.0162027
812.124	0.0163522
812.203	0.0163405
812.281	0.0164339
812.359	0.0165076
812.437	0.0162279
812.515	0.0163376
812.593	0.0165568
812.671	0.0163559
812.749	0.0163902
812.828	0.0163182
812.906	0.0162238
812.984	0.0163367
813.062	0.0163764
813.140	0.0162375
813.218	0.0163454
813.296	0.0162005
813.374	0.0160191
813.453	0.0164412
813.531	0.0161881
813.609	0.0161907
813.687	0.0161622
813.765	0.0163191
813.843	0.0162421
813.921	0.0162506
813.999	0.0163796
814.078	0.0164567
814.156	0.0162476
814.234	0.0162601
814.312	0.0162409
814.390	0.0164148
814.468	0.0164106
814.546	0.0164853
814.624	0.0163865
814.703	0.0162964
814.781	0.0164790
814.859	0.0164236
814.937	0.0163001
815.015	0.0163315
815.093	0.0162614
815.171	0.0162321
815.249	0.0163718
815.328	0.0163085
815.406	0.0162479
815.484	0.0163329
815.562	0.0161733
815.640	0.0161607
815.718	0.0162766
815.796	0.0160574
815.874	0.0160459
815.953	0.0160237
816.031	0.0160404
816.109	0.0160477
816.187	0.0157156
816.265	0.0158297
816.343	0.0158517
816.421	0.0156908
816.499	0.0157414
816.578	0.0157764
816.656	0.0155724
816.734	0.0157324
816.812	0.0156998
816.890	0.0157233
816.968	0.0156577
817.046	0.0157941
817.124	0.0159383
817.203	0.0158459
817.281	0.0158211
817.359	0.0158898
817.437	0.0160419
817.515	0.0159756
817.593	0.0161010
817.671	0.0161806
817.749	0.0161298
817.828	0.0162991
817.906	0.0163683
817.984	0.0163499
818.062	0.0163158
818.140	0.0163988
818.218	0.0165652
818.296	0.0165516
818.374	0.0165758
818.453	0.0166375
818.531	0.0166134
818.609	0.0165555
818.687	0.0165250
818.765	0.0165420
818.843	0.0164436
818.921	0.0164883
818.999	0.0165787
819.078	0.0164388
819.156	0.0164510
819.234	0.0163266
819.312	0.0163334
819.390	0.0163829
819.468	0.0163174
819.546	0.0162361
819.624	0.0161378
819.703	0.0160933
819.781	0.0161437
819.859	0.0161537
819.937	0.0160852
820.015	0.0161234
820.093	0.0159182
820.171	0.0161763
820.249	0.0159444
820.328	0.0158498
820.406	0.0160428
820.484	0.0159741
820.562	0.0159801
820.640	0.0160169
820.718	0.0160504
820.796	0.0159413
820.874	0.0160200
820.953	0.0160950
821.031	0.0159949
821.109	0.0161498
821.187	0.0161938
821.265	0.0162821
821.343	0.0162411
821.421	0.0163959
821.499	0.0162411
821.578	0.0162049
821.656	0.0162269
821.734	0.0162021
821.812	0.0162664
821.890	0.0163604
821.968	0.0162463
822.046	0.0161959
822.124	0.0161569
822.203	0.0162772
822.281	0.0161475
822.359	0.0160329
822.437	0.0159953
822.515	0.0161773
822.593	0.0160873
822.671	0.0159969
822.749	0.0159412
822.828	0.0159396
822.906	0.0160367
822.984	0.0158765
823.062	0.0160116
823.140	0.0160484
823.218	0.0159462
823.296	0.0162791
823.374	0.0161516
823.453	0.0160006
823.531	0.0160487
823.609	0.0163091
823.687	0.0160731
823.765	0.0160667
823.843	0.0161317
823.921	0.0162463
823.999	0.0161168
824.078	0.0162585
824.156	0.0162238
824.234	0.0162678
824.312	0.0162833
824.390	0.0162408
824.468	0.0163181
824.546	0.0165309
824.624	0.0164609
824.703	0.0164226
824.781	0.0166541
824.859	0.0165063
824.937	0.0165580
825.015	0.0165780
825.093	0.0166342
825.171	0.0166054
825.249	0.0166215
825.328	0.0165442
825.406	0.0163747
825.484	0.0163584
825.562	0.0163247
825.640	0.0163277
825.718	0.0162617
825.796	0.0161536
825.874	0.0161310
825.953	0.0161298
826.031	0.0160219
826.109	0.0158026
826.187	0.0158469
826.265	0.0158962
826.343	0.0157451
826.421	0.0157217
826.499	0.0157281
826.578	0.0157039
826.656	0.0156080
826.734	0.0156642
826.812	0.0156061
826.890	0.0157670
826.968	0.0157545
827.046	0.0157572
827.124	0.0157739
827.203	0.0159527
827.281	0.0159222
827.359	0.0161269
827.437	0.0160332
827.515	0.0162216
827.593	0.0163657
827.671	0.0164331
827.749	0.0164952
827.828	0.0163513
827.906	0.0165533
827.984	0.0165121
828.062	0.0165141
828.140	0.0165254
828.218	0.0165466
828.296	0.0166409
828.374	0.0165041
828.453	0.0163474
828.531	0.0164454
828.609	0.0165670
828.687	0.0162897
828.765	0.0163660
828.843	0.0162697
828.921	0.0162920
828.999	0.0160908
829.078	0.0160326
829.156	0.0160116
829.234	0.0159777
829.312	0.0160300
829.390	0.0158131
829.468	0.0158164
829.546	0.0155712
829.624	0.0157549
829.703	0.0155443
829.781	0.0155578
829.859	0.0156982
829.937	0.0154617
830.015	0.0155933
830.093	0.0154475
830.171	0.0156232
830.249	0.0155650
830.328	0.0157867
830.406	0.0157793
830.484	0.0159032
830.562	0.0161243
830.640	0.0161082
830.718	0.0162125
830.796	0.0164060
830.874	0.0164663
830.953	0.0163804
831.031	0.0165211
831.109	0.0165975
831.187	0.0165739
831.265	0.0165668
831.343	0.0165862
831.421	0.0166301
831.499	0.0167159
831.578	0.0166438
831.656	0.0167385
831.734	0.0168009
831.812	0.0166898
831.890	0.0165937
831.968	0.0166097
832.046	0.0165420
832.124	0.0164557
832.203	0.0164278
832.281	0.0163191
832.359	0.0164105
832.437	0.0163959
832.515	0.0162672
832.593	0.0160329
832.671	0.0159544
832.749	0.0160526
832.828	0.0159860
832.906	0.0158987
832.984	0.0158894
833.062	0.0158702
833.140	0.0157783
833.218	0.0158767
833.296	0.0160323
833.374	0.0159919
833.453	0.0158131
833.531	0.0159257
833.609	0.0159102
833.687	0.0159814
833.765	0.0159438
833.843	0.0158488
833.921	0.0157253
833.999	0.0158437
834.078	0.0160954
834.156	0.0159546
834.234	0.0159824
834.312	0.0159010
834.390	0.0158884
834.468	0.0158317
834.546	0.0158891
834.624	0.0157980
834.703	0.0158368
834.781	0.0158108
834.859	0.0159806
834.937	0.0158489
835.015	0.0158042
835.093	0.0160665
835.171	0.0159192
835.249	0.0159064
835.328	0.0161667
835.406	0.0162478
835.484	0.0162537
835.562	0.0161857
835.640	0.0162936
835.718	0.0164491
835.796	0.0165112
835.874	0.0165247
835.953	0.0164859
836.031	0.0165778
836.109	0.0167265
836.187	0.0166064
836.265	0.0166825
836.343	0.0167043
836.421	0.0166353
836.499	0.0167036
836.578	0.0167611
836.656	0.0167931
836.734	0.0166750
836.812	0.0169167
836.890	0.0167535
836.968	0.0166079
837.046	0.0166579
837.124	0.0165371
837.203	0.0165687
837.281	0.0164397
837.359	0.0162907
837.437	0.0162894
837.515	0.0162511
837.593	0.0163199
837.671	0.0161834
837.749	0.0161028
837.828	0.0158617
837.906	0.0158405
837.984	0.0158342
838.062	0.0157867
838.140	0.0157409
838.218	0.0157437
838.296	0.0156957
838.374	0.0156255
838.453	0.0155689
838.531	0.0157472
838.609	0.0156796
838.687	0.0155641
838.765	0.0155691
838.843	0.0155084
838.921	0.0156696
838.999	0.0158484
839.078	0.0157008
839.156	0.0157430
839.234	0.0159733
839.312	0.0158961
839.390	0.0159753
839.468	0.0160862
839.546	0.0160559
839.624	0.0161488
839.703	0.0163154
839.781	0.0163055
839.859	0.0162408
839.937	0.0163921
840.015	0.0165467
840.093	0.0164742
840.171	0.0166392
840.249	0.0165078
840.328	0.0165678
840.406	0.0165432
840.484	0.0165867
840.562	0.0165282
840.640	0.0166438
840.718	0.0166718
840.796	0.0164807
840.874	0.0164661
840.953	0.0166155
841.031	0.0165598
841.109	0.0163924
841.187	0.0165162
841.265	0.0164201
841.343	0.0165367
841.421	0.0164581
841.499	0.0163815
841.578	0.0164727
841.656	0.0162759
841.734	0.0162439
841.812	0.0163796
841.890	0.0162788
841.968	0.0162986
842.046	0.0162890
842.124	0.0162379
842.203	0.0160297
842.281	0.0160727
842.359	0.0159740
842.437	0.0160099
842.515	0.0159930
842.593	0.0158704
842.671	0.0157639
842.749	0.0156868
842.828	0.0157359
842.906	0.0157559
842.984	0.0156387
843.062	0.0157883
843.140	0.0156168
843.218	0.0157220
843.296	0.0156838
843.374	0.0158445
843.453	0.0159638
843.531	0.0158270
843.609	0.0159102
843.687	0.0161881
843.765	0.0161890
843.843	0.0162177
843.921	0.0162238
843.999	0.0164916
844.078	0.0163931
844.156	0.0164352
844.234	0.0164993
844.312	0.0164836
844.390	0.0164686
844.468	0.0167393
844.546	0.0165882
844.624	0.0165653
844.703	0.0164835
844.781	0.0165129
844.859	0.0165517
844.937	0.0165315
845.015	0.0164817
845.093	0.0164111
845.171	0.0163326
845.249	0.0162980
845.328	0.0161342
845.406	0.0162010
845.484	0.0161678
845.562	0.0160815
845.640	0.0160033
845.718	0.0160333
845.796	0.0159170
845.874	0.0157630
845.953	0.0158670
846.031	0.0158501
846.109	0.0158363
846.187	0.0158833
846.265	0.0158738
846.343	0.0159499
846.421	0.0157762
846.499	0.0158562
846.578	0.0158755
846.656	0.0159217
846.734	0.0159879
846.812	0.0159348
846.890	0.0160854
846.968	0.0159187
847.046	0.0159857
847.124	0.0161910
847.203	0.0161277
847.281	0.0162232
847.359	0.0163693
847.437	0.0162145
847.515	0.0162820
847.593	0.0164272
847.671	0.0164840
847.749	0.0164835
847.828	0.0164613
847.906	0.0164092
847.984	0.0165451
848.062	0.0164988
848.140	0.0163621
848.218	0.0162804
848.296	0.0162679
848.374	0.0162125
848.453	0.0163168
848.531	0.0161596
848.609	0.0161305
848.687	0.0161146
848.765	0.0160702
848.843	0.0159372
848.921	0.0160124
848.999	0.0159417
849.078	0.0159204
849.156	0.0160001
849.234	0.0159813
849.312	0.0159947
849.390	0.0160006
849.468	0.0159999
849.546	0.0160521
849.624	0.0160873
849.703	0.0161237
849.781	0.0161073
849.859	0.0160048
849.937	0.0160060
850.015	0.0161260
850.093	0.0162138
850.171	0.0160674
850.249	0.0160841
850.328	0.0160309
850.406	0.0160847
850.484	0.0161931
850.562	0.0160641
850.640	0.0160939
850.718	0.0161029
850.796	0.0160748
850.874	0.0159878
850.953	0.0160525
851.031	0.0160303
851.109	0.0160115
851.187	0.0159705
851.265	0.0159335
851.343	0.0157998
851.421	0.0159581
851.499	0.0158741
851.578	0.0159226
851.656	0.0159249
851.734	0.0160042
851.812	0.0158587
851.890	0.0159875
851.968	0.0161500
852.046	0.0160423
852.124	0.0160763
852.203	0.0161121
852.281	0.0162151
852.359	0.0161694
852.437	0.0161014
852.515	0.0162753
852.593	0.0162652
852.671	0.0162412
852.749	0.0162436
852.828	0.0164134
852.906	0.0161961
852.984	0.0161508
853.062	0.0163020
853.140	0.0161654
853.218	0.0162767
853.296	0.0162337
853.374	0.0162933
853.453	0.0161185
853.531	0.0161197
853.609	0.0160523
853.687	0.0160357
853.765	0.0159762
853.843	0.0159460
853.921	0.0160011
853.999	0.0160180
854.078	0.0159007
854.156	0.0160040
854.234	0.0159496
854.312	0.0159137
854.390	0.0160275
854.468	0.0159549
854.546	0.0159913
854.624	0.0158931
854.703	0.0159824
854.781	0.0160091
854.859	0.0160251
854.937	0.0160962
855.015	0.0162498
855.093	0.0159955
855.171	0.0160949
855.249	0.0161710
855.328	0.0161053
855.406	0.0162841
855.484	0.0162248
855.562	0.0162425
855.640	0.0162251
855.718	0.0164257
855.796	0.0164549
855.874	0.0164013
855.953	0.0162915
856.031	0.0163963
856.109	0.0163649
856.187	0.0163242
856.265	0.0163186
856.343	0.0162168
856.421	0.0162164
856.499	0.0159316
856.578	0.0161797
856.656	0.0160930
856.734	0.0160204
856.812	0.0161466
856.890	0.0160259
856.968	0.0160113
857.046	0.0159912
857.124	0.0160487
857.203	0.0159776
857.281	0.0160599
857.359	0.0160210
857.437	0.0160149
857.515	0.0160075
857.593	0.0159898
857.671	0.0159648
857.749	0.0160342
857.828	0.0159156
857.906	0.0159502
857.984	0.0160025
858.062	0.0160684
858.140	0.0161931
858.218	0.0158817
858.296	0.0161218
858.374	0.0162276
858.453	0.0161662
858.531	0.0163056
858.609	0.0161324
858.687	0.0162314
858.765	0.0163285
858.843	0.0163214
858.921	0.0163066
858.999	0.0163200
859.078	0.0162203
859.156	0.0162929
859.234	0.0162669
859.312	0.0160627
859.390	0.0161870
859.468	0.0160638
859.546	0.0161453
859.624	0.0161765
859.703	0.0161337
859.781	0.0160490
859.859	0.0160925
859.937	0.0159779
860.015	0.0160079
860.093	0.0160770
860.171	0.0159790
860.249	0.0161402
860.328	0.0159882
860.406	0.0160600
860.484	0.0161228
860.562	0.0160705
860.640	0.0158455
860.718	0.0159943
860.796	0.0161481
860.874	0.0161552
860.953	0.0160933
861.031	0.0160396
861.109	0.0161162
861.187	0.0160594
861.265	0.0161718
861.343	0.0159837
861.421	0.0160238
861.499	0.0160462
861.578	0.0159300
861.656	0.0158691
861.734	0.0158858
861.812	0.0159203
861.890	0.0159718
861.968	0.0158807
862.046	0.0158816
862.124	0.0158826
862.203	0.0159320
862.281	0.0158536
862.359	0.0158766
862.437	0.0159875
862.515	0.0160374
862.593	0.0159557
862.671	0.0158749
862.749	0.0158768
862.828	0.0159281
862.906	0.0159932
862.984	0.0161231
863.062	0.0161461
863.140	0.0162359
863.218	0.0162034
863.296	0.0162157
863.374	0.0162331
863.453	0.0162235
863.531	0.0162885
863.609	0.0162444
863.687	0.0161649
863.765	0.0162198
863.843	0.0163895
863.921	0.0162502
863.999	0.0161626
864.078	0.0161504
864.156	0.0161974
864.234	0.0159729
864.312	0.0160824
864.390	0.0161282
864.468	0.0161094
864.546	0.0159584
864.624	0.0158280
864.703	0.0159348
864.781	0.0161395
864.859	0.0160789
864.937	0.0159900
865.015	0.0160593
865.093	0.0160233
865.171	0.0159941
865.249	0.0159999
865.328	0.0160256
865.406	0.0160014
865.484	0.0160854
865.562	0.0159635
865.640	0.0160906
865.718	0.0160596
865.796	0.0159396
865.874	0.0160993
865.953	0.0160276
866.031	0.0159766
866.109	0.0161446
866.187	0.0161880
866.265	0.0160895
866.343	0.0160403
866.421	0.0160761
866.499	0.0161469
866.578	0.0161471
866.656	0.0161845
866.734	0.0162159
866.812	0.0160699
866.890	0.0162182
866.968	0.0161872
867.046	0.0162185
867.124	0.0162838
867.203	0.0161334
867.281	0.0161652
867.359	0.0162300
867.437	0.0162762
867.515	0.0161848
867.593	0.0162011
867.671	0.0160820
867.749	0.0160905
867.828	0.0160364
867.906	0.0160938
867.984	0.0160670
868.062	0.0160975
868.140	0.0161279
868.218	0.0158585
868.296	0.0159126
868.374	0.0160098
868.453	0.0160564
868.531	0.0160443
868.609	0.0161149
868.687	0.0159709
868.765	0.0161465
868.843	0.0160258
868.921	0.0161274
868.999	0.0161332
869.078	0.0160646
869.156	0.0162379
869.234	0.0159447
869.312	0.0160976
869.390	0.0160891
869.468	0.0160520
869.546	0.0161593
869.624	0.0161374
869.703	0.0161007
869.781	0.0160565
869.859	0.0160026
869.937	0.0160202
870.015	0.0159800
870.093	0.0159202
870.171	0.0159230
870.249	0.0159846
870.328	0.0159554
870.406	0.0160042
870.484	0.0159962
870.562	0.0159896
870.640	0.0158694
870.718	0.0159787
870.796	0.0160549
870.874	0.0159032
870.953	0.0160056
871.031	0.0159743
871.109	0.0161282
871.187	0.0161507
871.265	0.0161452
871.343	0.0160651
871.421	0.0160682
871.499	0.0160941
871.578	0.0161995
871.656	0.0162469
871.734	0.0160887
871.812	0.0159694
871.890	0.0161858
871.968	0.0161903
872.046	0.0160510
872.124	0.0159960
872.203	0.0160300
872.281	0.0161117
872.359	0.0159937
872.437	0.0160488
872.515	0.0159378
872.593	0.0160220
872.671	0.0159306
872.749	0.0160970
872.828	0.0160487
872.906	0.0160400
872.984	0.0158709
873.062	0.0159155
873.140	0.0159560
873.218	0.0159620
873.296	0.0159715
873.374	0.0158292
873.453	0.0159951
873.531	0.0160322
873.609	0.0159092
873.687	0.0158513
873.765	0.0159321
873.843	0.0158295
873.921	0.0160249
873.999	0.0159416
874.078	0.0158905
874.156	0.0160867
874.234	0.0160546
874.312	0.0159200
874.390	0.0160574
874.468	0.0162374
874.546	0.0162775
874.624	0.0162391
874.703	0.0163036
874.781	0.0163296
874.859	0.0163060
874.937	0.0162646
875.015	0.0162611
875.093	0.0162868
875.171	0.0164349
875.249	0.0161446
875.328	0.0160633
875.406	0.0162802
875.484	0.0163206
875.562	0.0162065
875.640	0.0161774
875.718	0.0159554
875.796	0.0159795
875.874	0.0160108
875.953	0.0160528
876.031	0.0159553
876.109	0.0159265
876.187	0.0160006
876.265	0.0161255
876.343	0.0159454
876.421	0.0160413
876.499	0.0158837
876.578	0.0160155
876.656	0.0158418
876.734	0.0159388
876.812	0.0160375
876.890	0.0160081
876.968	0.0159342
877.046	0.0159724
877.124	0.0160667
877.203	0.0161037
877.281	0.0160881
877.359	0.0159898
877.437	0.0160378
877.515	0.0160725
877.593	0.0161804
877.671	0.0161258
877.749	0.0161634
877.828	0.0159962
877.906	0.0160700
877.984	0.0161892
878.062	0.0161255
878.140	0.0160125
878.218	0.0160143
878.296	0.0161784
878.374	0.0161527
878.453	0.0160964
878.531	0.0161327
878.609	0.0161811
878.687	0.0162357
878.765	0.0160405
878.843	0.0161404
878.921	0.0162709
878.999	0.0161664
879.078	0.0161288
879.156	0.0162725
879.234	0.0162883
879.312	0.0162080
879.390	0.0162298
879.468	0.0162049
879.546	0.0161801
879.624	0.0162101
879.703	0.0161764
879.781	0.0162903
879.859	0.0161811
879.937	0.0160805
880.015	0.0162840
880.093	0.0162766
880.171	0.0160954
880.249	0.0161301
880.328	0.0160928
880.406	0.0161292
880.484	0.0162053
880.562	0.0160110
880.640	0.0160841
880.718	0.0160233
880.796	0.0161215
880.874	0.0160304
880.953	0.0160673
881.031	0.0161017
881.109	0.0159853
881.187	0.0159295
881.265	0.0160379
881.343	0.0159482
881.421	0.0160149
881.499	0.0160607
881.578	0.0161896
881.656	0.0161243
881.734	0.0160426
881.812	0.0161266
881.890	0.0162016
881.968	0.0161958
882.046	0.0160880
882.124	0.0160693
882.203	0.0160548
882.281	0.0162553
882.359	0.0162720
882.437	0.0162308
882.515	0.0162514
882.593	0.0162110
882.671	0.0162216
882.749	0.0162320
882.828	0.0162231
882.906	0.0162119
882.984	0.0161434
883.062	0.0159822
883.140	0.0161407
883.218	0.0163010
883.296	0.0161366
883.374	0.0160478
883.453	0.0160931
883.531	0.0161479
883.609	0.0161210
883.687	0.0160902
883.765	0.0160453
883.843	0.0162554
883.921	0.0161980
883.999	0.0160822
884.078	0.0160918
884.156	0.0162086
884.234	0.0161515
884.312	0.0162929
884.390	0.0162601
884.468	0.0161264
884.546	0.0161488
884.624	0.0161546
884.703	0.0161317
884.781	0.0162386
884.859	0.0161355
884.937	0.0161025
885.015	0.0161375
885.093	0.0160905
885.171	0.0161079
885.249	0.0159855
885.328	0.0160268
885.406	0.0160664
885.484	0.0160328
885.562	0.0159932
885.640	0.0160623
885.718	0.0160689
885.796	0.0162051
885.874	0.0160334
885.953	0.0161247
886.031	0.0160963
886.109	0.0161359
886.187	0.0162447
886.265	0.0161776
886.343	0.0161066
886.421	0.0160692
886.499	0.0161804
886.578	0.0162685
886.656	0.0162167
886.734	0.0161525
886.812	0.0162360
886.890	0.0161580
886.968	0.0162402
887.046	0.0161377
887.124	0.0161391
887.203	0.0161760
887.281	0.0161849
887.359	0.0160979
887.437	0.0161298
887.515	0.0159871
887.593	0.0160986
887.671	0.0161107
887.749	0.0161116
887.828	0.0160838
887.906	0.0160661
887.984	0.0159367
888.062	0.0161949
888.140	0.0160180
888.218	0.0160897
888.296	0.0159743
888.374	0.0158802
888.453	0.0159421
888.531	0.0160012
888.609	0.0159235
888.687	0.0159592
888.765	0.0159880
888.843	0.0161047
888.921	0.0160599
888.999	0.0160248
889.078	0.0159695
889.156	0.0161359
889.234	0.0159258
889.312	0.0158824
889.390	0.0160590
889.468	0.0161272
889.546	0.0161534
889.624	0.0161215
889.703	0.0161708
889.781	0.0161703
889.859	0.0161600
889.937	0.0163154
890.015	0.0161832
890.093	0.0163302
890.171	0.0162612
890.249	0.0163662
890.328	0.0163007
890.406	0.0162592
890.484	0.0161411
890.562	0.0162337
890.640	0.0161978
890.718	0.0161674
890.796	0.0161120
890.874	0.0160436
890.953	0.0161087
891.031	0.0160907
891.109	0.0159767
891.187	0.0161187
891.265	0.0161749
891.343	0.0159892
891.421	0.0159215
891.499	0.0159571
891.578	0.0160729
891.656	0.0158650
891.734	0.0159715
891.812	0.0159515
891.890	0.0159634
891.968	0.0160565
892.046	0.0161830
892.124	0.0162481
892.203	0.0160867
892.281	0.0161321
892.359	0.0161653
892.437	0.0160416
892.515	0.0161014
892.593	0.0160016
892.671	0.0160699
892.749	0.0161322
892.828	0.0161844
892.906	0.0159456
892.984	0.0160586
893.062	0.0160915
893.140	0.0160790
893.218	0.0160320
893.296	0.0157069
893.374	0.0158684
893.453	0.0160493
893.531	0.0158677
893.609	0.0158997
893.687	0.0158566
893.765	0.0159364
893.843	0.0159657
893.921	0.0158821
893.999	0.0160593
894.078	0.0159003
894.156	0.0159719
894.234	0.0158788
894.312	0.0158850
894.390	0.0158774
894.468	0.0160303
894.546	0.0159043
894.624	0.0159252
894.703	0.0159303
894.781	0.0160596
894.859	0.0160099
894.937	0.0159866
895.015	0.0160166
895.093	0.0161537
895.171	0.0162787
895.249	0.0161002
895.328	0.0160571
895.406	0.0161348
895.484	0.0162702
895.562	0.0161268
895.640	0.0161894
895.718	0.0161372
895.796	0.0161414
895.874	0.0161439
895.953	0.0162151
896.031	0.0162463
896.109	0.0162110
896.187	0.0161160
896.265	0.0160961
896.343	0.0161840
896.421	0.0161741
896.499	0.0161354
896.578	0.0161710
896.656	0.0161266
896.734	0.0160299
896.812	0.0160630
896.890	0.0161378
896.968	0.0161970
897.046	0.0162196
897.124	0.0161830
897.203	0.0161095
897.281	0.0160983
897.359	0.0161497
897.437	0.0162413
897.515	0.0162309
897.593	0.0163251
897.671	0.0161317
897.749	0.0161954
897.828	0.0162394
897.906	0.0162521
897.984	0.0161733
898.062	0.0163876
898.140	0.0163734
898.218	0.0162608
898.296	0.0162800
898.374	0.0160536
898.453	0.0162543
898.531	0.0163425
898.609	0.0162428
898.687	0.0162067
898.765	0.0162538
898.843	0.0162637
898.921	0.0162755
898.999	0.0162376
899.078	0.0162689
899.156	0.0162628
899.234	0.0161076
899.312	0.0160282
899.390	0.0160158
899.468	0.0161592
899.546	0.0159878
899.624	0.0160384
899.703	0.0159074
899.781	0.0159503
899.859	0.0160027
899.937	0.0159354
900.015	0.0158895
900.093	0.0160063
900.171	0.0160793
900.249	0.0159254
900.328	0.0159843
900.406	0.0160517
900.484	0.0158498
900.562	0.0160065
900.640	0.0160788
900.718	0.0160669
900.796	0.0159792
900.874	0.0160485
900.953	0.0161285
901.031	0.0160941
901.109	0.0160166
901.187	0.0161156
901.265	0.0160314
901.343	0.0161945
901.421	0.0162065
901.499	0.0163702
901.578	0.0163994
901.656	0.0161877
901.734	0.0161917
901.812	0.0162764
901.890	0.0162813
901.968	0.0160671
902.046	0.0162762
902.124	0.0162716
902.203	0.0162656
902.281	0.0163984
902.359	0.0162253
902.437	0.0160992
902.515	0.0161159
902.593	0.0161775
902.671	0.0161964
902.749	0.0160555
902.828	0.0161614
902.906	0.0161668
902.984	0.0160566
903.062	0.0161182
903.140	0.0160813
903.218	0.0162824
903.296	0.0162376
903.374	0.0161324
903.453	0.0160524
903.531	0.0161309
903.609	0.0160281
903.687	0.0161120
903.765	0.0162057
903.843	0.0160907
903.921	0.0160913
903.999	0.0162013
904.078	0.0161437
904.156	0.0160935
904.234	0.0160660
904.312	0.0162589
904.390	0.0161910
904.468	0.0161005
904.546	0.0161678
904.624	0.0162176
904.703	0.0160446
904.781	0.0161144
904.859	0.0162058
904.937	0.0160752
905.015	0.0160827
905.093	0.0161588
905.171	0.0159537
905.249	0.0160270
905.328	0.0160729
905.406	0.0161935
905.484	0.0160568
905.562	0.0161598
905.640	0.0159985
905.718	0.0160313
905.796	0.0160721
905.874	0.0160098
905.953	0.0159774
906.031	0.0160364
906.109	0.0160199
906.187	0.0160596
906.265	0.0161251
906.343	0.0162050
906.421	0.0160382
906.499	0.0160583
906.578	0.0160586
906.656	0.0161590
906.734	0.0162237
906.812	0.0162757
906.890	0.0162334
906.968	0.0161470
907.046	0.0163202
907.124	0.0163026
907.203	0.0162672
907.281	0.0162169
907.359	0.0162738
907.437	0.0161604
907.515	0.0162913
907.593	0.0162025
907.671	0.0163093
907.749	0.0163829
907.828	0.0162406
907.906	0.0161564
907.984	0.0161747
908.062	0.0162763
908.140	0.0162547
908.218	0.0162094
908.296	0.0161362
908.374	0.0161565
908.453	0.0161010
908.531	0.0162216
908.609	0.0162003
908.687	0.0161839
908.765	0.0160636
908.843	0.0161485
908.921	0.0161492
908.999	0.0160786
909.078	0.0161610
909.156	0.0160762
909.234	0.0161583
909.312	0.0162092
909.390	0.0161148
909.468	0.0162141
909.546	0.0160007
909.624	0.0161530
909.703	0.0162568
909.781	0.0161081
909.859	0.0161633
909.937	0.0161852
910.015	0.0160188
910.093	0.0163165
910.171	0.0161939
910.249	0.0161633
910.328	0.0162537
910.406	0.0161288
910.484	0.0160847
910.562	0.0161497
910.640	0.0161611
910.718	0.0161303
910.796	0.0161861
910.874	0.0162302
910.953	0.0162149
911.031	0.0161560
911.109	0.0162981
911.187	0.0162162
911.265	0.0161665
911.343	0.0162018
911.421	0.0162206
911.499	0.0161755
911.578	0.0161913
911.656	0.0161153
911.734	0.0163049
911.812	0.0162772
911.890	0.0162820
911.968	0.0162520
912.046	0.0161691
912.124	0.0160959
912.203	0.0161604
912.281	0.0162388
912.359	0.0162196
912.437	0.0162344
912.515	0.0162695
912.593	0.0162154
912.671	0.0161897
912.749	0.0162975
912.828	0.0163681
912.906	0.0162228
912.984	0.0160640
913.062	0.0162653
913.140	0.0162941
913.218	0.0161708
913.296	0.0162711
913.374	0.0163470
913.453	0.0162227
913.531	0.0162440
913.609	0.0161811
913.687	0.0161411
913.765	0.0162856
913.843	0.0161958
913.921	0.0162801
913.999	0.0161236
914.078	0.0160180
914.156	0.0161868
914.234	0.0162247
914.312	0.0160182
914.390	0.0160568
914.468	0.0160974
914.546	0.0161040
914.624	0.0160238
914.703	0.0161076
914.781	0.0160153
914.859	0.0159911
914.937	0.0160958
915.015	0.0161761
915.093	0.0160657
915.171	0.0161457
915.249	0.0160030
915.328	0.0161502
915.406	0.0160558
915.484	0.0161612
915.562	0.0161512
915.640	0.0160420
915.718	0.0161842
915.796	0.0161414
915.874	0.0162135
915.953	0.0161150
916.031	0.0160847
916.109	0.0162439
916.187	0.0162467
916.265	0.0162218
916.343	0.0162591
916.421	0.0160970
916.499	0.0161326
916.578	0.0161983
916.656	0.0161669
916.734	0.0160989
916.812	0.0161961
916.890	0.0161760
916.968	0.0161603
917.046	0.0162159
917.124	0.0163441
917.203	0.0161894
917.281	0.0161886
917.359	0.0161295
917.437	0.0161621
917.515	0.0161059
917.593	0.0161565
917.671	0.0160525
917.749	0.0160606
917.828	0.0160995
917.906	0.0161242
917.984	0.0159132
918.062	0.0160856
918.140	0.0160555
918.218	0.0160798
918.296	0.0160210
918.374	0.0160389
918.453	0.0160212
918.531	0.0161115
918.609	0.0162580
918.687	0.0160856
918.765	0.0161109
918.843	0.0162317
918.921	0.0160836
918.999	0.0161766
919.078	0.0160323
919.156	0.0161587
919.234	0.0161318
919.312	0.0160986
919.390	0.0160368
919.468	0.0161473
919.546	0.0161079
919.624	0.0159498
919.703	0.0159895
919.781	0.0159876
919.859	0.0160657
919.937	0.0161217
