06/10/2022	16:42:28	Ver.	4.1	UNKNOWN
Optical Delay	600.015094	Delta X		0.078125	Sweeps	1	Scan Rate	0/0
Coordinates	Axis 1	NaN	Axis 2	NaN	Axis 3	NaN	Axis 4	NaN	Axis 5	NaN	Axis 6	0.000000
TX Power	0.000000	RX Power	0.000000

600.015	0.0165358
600.093	0.0165101
600.171	0.0165159
600.249	0.0165167
600.328	0.0165551
600.406	0.0167013
600.484	0.0165595
600.562	0.0165273
600.640	0.0165247
600.718	0.0165882
600.796	0.0168166
600.874	0.0164749
600.953	0.0164730
601.031	0.0165596
601.109	0.0167740
601.187	0.0167339
601.265	0.0165885
601.343	0.0165390
601.421	0.0167033
601.499	0.0164837
601.578	0.0166135
601.656	0.0167572
601.734	0.0166290
601.812	0.0166243
601.890	0.0166361
601.968	0.0165593
602.046	0.0166796
602.124	0.0166211
602.203	0.0166000
602.281	0.0165815
602.359	0.0166174
602.437	0.0166021
602.515	0.0166842
602.593	0.0167435
602.671	0.0165855
602.749	0.0165968
602.828	0.0165810
602.906	0.0166528
602.984	0.0166418
603.062	0.0165542
603.140	0.0165623
603.218	0.0165726
603.296	0.0165952
603.374	0.0166271
603.453	0.0166830
603.531	0.0165565
603.609	0.0166832
603.687	0.0166353
603.765	0.0166317
603.843	0.0165094
603.921	0.0166006
603.999	0.0166944
604.078	0.0166092
604.156	0.0166239
604.234	0.0165932
604.312	0.0166017
604.390	0.0167168
604.468	0.0167231
604.546	0.0165633
604.624	0.0165702
604.703	0.0165742
604.781	0.0166370
604.859	0.0166707
604.937	0.0166496
605.015	0.0166551
605.093	0.0165951
605.171	0.0165842
605.249	0.0165568
605.328	0.0167577
605.406	0.0166603
605.484	0.0167288
605.562	0.0167539
605.640	0.0166922
605.718	0.0166954
605.796	0.0164942
605.874	0.0166078
605.953	0.0167384
606.031	0.0165707
606.109	0.0165977
606.187	0.0166893
606.265	0.0166363
606.343	0.0166348
606.421	0.0166593
606.499	0.0166577
606.578	0.0166515
606.656	0.0165057
606.734	0.0165862
606.812	0.0166763
606.890	0.0165234
606.968	0.0166557
607.046	0.0166834
607.124	0.0165203
607.203	0.0166343
607.281	0.0167332
607.359	0.0165868
607.437	0.0164059
607.515	0.0164563
607.593	0.0166146
607.671	0.0165582
607.749	0.0165805
607.828	0.0165131
607.906	0.0166605
607.984	0.0165979
608.062	0.0164484
608.140	0.0165443
608.218	0.0166202
608.296	0.0166692
608.374	0.0164532
608.453	0.0164817
608.531	0.0165684
608.609	0.0165298
608.687	0.0165951
608.765	0.0165368
608.843	0.0166169
608.921	0.0164388
608.999	0.0165215
609.078	0.0166743
609.156	0.0167863
609.234	0.0164663
609.312	0.0165553
609.390	0.0165328
609.468	0.0165475
609.546	0.0164883
609.624	0.0165126
609.703	0.0166699
609.781	0.0165551
609.859	0.0165105
609.937	0.0165777
610.015	0.0165781
610.093	0.0165496
610.171	0.0165469
610.249	0.0166453
610.328	0.0165187
610.406	0.0165400
610.484	0.0166771
610.562	0.0165735
610.640	0.0165808
610.718	0.0165996
610.796	0.0165867
610.874	0.0164948
610.953	0.0164874
611.031	0.0166599
611.109	0.0167070
611.187	0.0166183
611.265	0.0167645
611.343	0.0166692
611.421	0.0164918
611.499	0.0166157
611.578	0.0165369
611.656	0.0166484
611.734	0.0164886
611.812	0.0164849
611.890	0.0165593
611.968	0.0166428
612.046	0.0165073
612.124	0.0164140
612.203	0.0165155
612.281	0.0165694
612.359	0.0165647
612.437	0.0165748
612.515	0.0165845
612.593	0.0166301
612.671	0.0164984
612.749	0.0166243
612.828	0.0165575
612.906	0.0166541
612.984	0.0165230
613.062	0.0165377
613.140	0.0165459
613.218	0.0165916
613.296	0.0166572
613.374	0.0165678
613.453	0.0164945
613.531	0.0164675
613.609	0.0164992
613.687	0.0164787
613.765	0.0165653
613.843	0.0164799
613.921	0.0165311
613.999	0.0166192
614.078	0.0165411
614.156	0.0165482
614.234	0.0164882
614.312	0.0165032
614.390	0.0165449
614.468	0.0165762
614.546	0.0165977
614.624	0.0166592
614.703	0.0164801
614.781	0.0165774
614.859	0.0165823
614.937	0.0165893
615.015	0.0167221
615.093	0.0165647
615.171	0.0166349
615.249	0.0165392
615.328	0.0165572
615.406	0.0166273
615.484	0.0166505
615.562	0.0165280
615.640	0.0165174
615.718	0.0165237
615.796	0.0165753
615.874	0.0165707
615.953	0.0165392
616.031	0.0166967
616.109	0.0165566
616.187	0.0165417
616.265	0.0166171
616.343	0.0165860
616.421	0.0166410
616.499	0.0165681
616.578	0.0166019
616.656	0.0165955
616.734	0.0166165
616.812	0.0166416
616.890	0.0165557
616.968	0.0164955
617.046	0.0164900
617.124	0.0164966
617.203	0.0166428
617.281	0.0165381
617.359	0.0166862
617.437	0.0165381
617.515	0.0164275
617.593	0.0165741
617.671	0.0165427
617.749	0.0165306
617.828	0.0165210
617.906	0.0165897
617.984	0.0166273
618.062	0.0165092
618.140	0.0165366
618.218	0.0164013
618.296	0.0165178
618.374	0.0165693
618.453	0.0165865
618.531	0.0165567
618.609	0.0164935
618.687	0.0165990
618.765	0.0165458
618.843	0.0165140
618.921	0.0166039
618.999	0.0166265
619.078	0.0165122
619.156	0.0165065
619.234	0.0165817
619.312	0.0165524
619.390	0.0166479
619.468	0.0165454
619.546	0.0165327
619.624	0.0164703
619.703	0.0165588
619.781	0.0166088
619.859	0.0164584
619.937	0.0166330
620.015	0.0165338
620.093	0.0164864
620.171	0.0165698
620.249	0.0164935
620.328	0.0165402
620.406	0.0165622
620.484	0.0165927
620.562	0.0165475
620.640	0.0166948
620.718	0.0166376
620.796	0.0165549
620.874	0.0165005
620.953	0.0164828
621.031	0.0165524
621.109	0.0166153
621.187	0.0164862
621.265	0.0164720
621.343	0.0165089
621.421	0.0164742
621.499	0.0164559
621.578	0.0165945
621.656	0.0166200
621.734	0.0164295
621.812	0.0164787
621.890	0.0164848
621.968	0.0165267
622.046	0.0165090
622.124	0.0164618
622.203	0.0165386
622.281	0.0165096
622.359	0.0165581
622.437	0.0164914
622.515	0.0165029
622.593	0.0164885
622.671	0.0164754
622.749	0.0163927
622.828	0.0165891
622.906	0.0164320
622.984	0.0164412
623.062	0.0164894
623.140	0.0164118
623.218	0.0165199
623.296	0.0166131
623.374	0.0164082
623.453	0.0164840
623.531	0.0166972
623.609	0.0166426
623.687	0.0164295
623.765	0.0165170
623.843	0.0165317
623.921	0.0164509
623.999	0.0165352
624.078	0.0166090
624.156	0.0165374
624.234	0.0166193
624.312	0.0165338
624.390	0.0165814
624.468	0.0165053
624.546	0.0165583
624.624	0.0164822
624.703	0.0164835
624.781	0.0165588
624.859	0.0166183
624.937	0.0165079
625.015	0.0164934
625.093	0.0164552
625.171	0.0166095
625.249	0.0165652
625.328	0.0166106
625.406	0.0165214
625.484	0.0165287
625.562	0.0165700
625.640	0.0165422
625.718	0.0165690
625.796	0.0165860
625.874	0.0166024
625.953	0.0166616
626.031	0.0165530
626.109	0.0165205
626.187	0.0165730
626.265	0.0165281
626.343	0.0165116
626.421	0.0165288
626.499	0.0167046
626.578	0.0166446
626.656	0.0165349
626.734	0.0165491
626.812	0.0165808
626.890	0.0165700
626.968	0.0166120
627.046	0.0167441
627.124	0.0165390
627.203	0.0165691
627.281	0.0166444
627.359	0.0165705
627.437	0.0165095
627.515	0.0166376
627.593	0.0165334
627.671	0.0165222
627.749	0.0166673
627.828	0.0165447
627.906	0.0165093
627.984	0.0165913
628.062	0.0165995
628.140	0.0165922
628.218	0.0166615
628.296	0.0166204
628.374	0.0166292
628.453	0.0166026
628.531	0.0164602
628.609	0.0167132
628.687	0.0167394
628.765	0.0165594
628.843	0.0166511
628.921	0.0167323
628.999	0.0165641
629.078	0.0166890
629.156	0.0166927
629.234	0.0166942
629.312	0.0165479
629.390	0.0166611
629.468	0.0166430
629.546	0.0165466
629.624	0.0166695
629.703	0.0166868
629.781	0.0167385
629.859	0.0166153
629.937	0.0166202
630.015	0.0164581
630.093	0.0165279
630.171	0.0167057
630.249	0.0167459
630.328	0.0166762
630.406	0.0166436
630.484	0.0165446
630.562	0.0166619
630.640	0.0165936
630.718	0.0165819
630.796	0.0166757
630.874	0.0165880
630.953	0.0166406
631.031	0.0167799
631.109	0.0166110
631.187	0.0165911
631.265	0.0166131
631.343	0.0166759
631.421	0.0166281
631.499	0.0168971
631.578	0.0167292
631.656	0.0166445
631.734	0.0166161
631.812	0.0165927
631.890	0.0167406
631.968	0.0165137
632.046	0.0166734
632.124	0.0167271
632.203	0.0166176
632.281	0.0166204
632.359	0.0166166
632.437	0.0168913
632.515	0.0165942
632.593	0.0165410
632.671	0.0165500
632.749	0.0168226
632.828	0.0165661
632.906	0.0166401
632.984	0.0166853
633.062	0.0166505
633.140	0.0165511
633.218	0.0166556
633.296	0.0166718
633.374	0.0166222
633.453	0.0166683
633.531	0.0164902
633.609	0.0166234
633.687	0.0165216
633.765	0.0166018
633.843	0.0166885
633.921	0.0164727
633.999	0.0166176
634.078	0.0165642
634.156	0.0165912
634.234	0.0166066
634.312	0.0166256
634.390	0.0165796
634.468	0.0165884
634.546	0.0165911
634.624	0.0166623
634.703	0.0164521
634.781	0.0166451
634.859	0.0165718
634.937	0.0165548
635.015	0.0166292
635.093	0.0166208
635.171	0.0166278
635.249	0.0167396
635.328	0.0165020
635.406	0.0166005
635.484	0.0166080
635.562	0.0166650
635.640	0.0166043
635.718	0.0166982
635.796	0.0165513
635.874	0.0165811
635.953	0.0166581
636.031	0.0166126
636.109	0.0165550
636.187	0.0166117
636.265	0.0167551
636.343	0.0166434
636.421	0.0166807
636.499	0.0166036
636.578	0.0166394
636.656	0.0165503
636.734	0.0166188
636.812	0.0165832
636.890	0.0165728
636.968	0.0164833
637.046	0.0167241
637.124	0.0167152
637.203	0.0166292
637.281	0.0165299
637.359	0.0166273
637.437	0.0165089
637.515	0.0165323
637.593	0.0165933
637.671	0.0166434
637.749	0.0165732
637.828	0.0166017
637.906	0.0165541
637.984	0.0165646
638.062	0.0164909
638.140	0.0166767
638.218	0.0165963
638.296	0.0165395
638.374	0.0165325
638.453	0.0165771
638.531	0.0165079
638.609	0.0164782
638.687	0.0165993
638.765	0.0166846
638.843	0.0166447
638.921	0.0165711
638.999	0.0165903
639.078	0.0165624
639.156	0.0165796
639.234	0.0166168
639.312	0.0167274
639.390	0.0164858
639.468	0.0165842
639.546	0.0165704
639.624	0.0166363
639.703	0.0165734
639.781	0.0166077
639.859	0.0165488
639.937	0.0165469
640.015	0.0165793
640.093	0.0165588
640.171	0.0165674
640.249	0.0164806
640.328	0.0166920
640.406	0.0166251
640.484	0.0164745
640.562	0.0165957
640.640	0.0164984
640.718	0.0165036
640.796	0.0164265
640.874	0.0163844
640.953	0.0165381
641.031	0.0166547
641.109	0.0165380
641.187	0.0165607
641.265	0.0165352
641.343	0.0165774
641.421	0.0166062
641.499	0.0165367
641.578	0.0165150
641.656	0.0166183
641.734	0.0163782
641.812	0.0165100
641.890	0.0165415
641.968	0.0165696
642.046	0.0165018
642.124	0.0164513
642.203	0.0167032
642.281	0.0166348
642.359	0.0164967
642.437	0.0164227
642.515	0.0166071
642.593	0.0164753
642.671	0.0163763
642.749	0.0165697
642.828	0.0164951
642.906	0.0164910
642.984	0.0165012
643.062	0.0164515
643.140	0.0165359
643.218	0.0164963
643.296	0.0165475
643.374	0.0165179
643.453	0.0165154
643.531	0.0165070
643.609	0.0164665
643.687	0.0165737
643.765	0.0165740
643.843	0.0164696
643.921	0.0166036
643.999	0.0165578
644.078	0.0165530
644.156	0.0164210
644.234	0.0164637
644.312	0.0165592
644.390	0.0164629
644.468	0.0164537
644.546	0.0164487
644.624	0.0165029
644.703	0.0164584
644.781	0.0164791
644.859	0.0165648
644.937	0.0165285
645.015	0.0164079
645.093	0.0166727
645.171	0.0165120
645.249	0.0165369
645.328	0.0165000
645.406	0.0164551
645.484	0.0165707
645.562	0.0164989
645.640	0.0165049
645.718	0.0166884
645.796	0.0164412
645.874	0.0165195
645.953	0.0165130
646.031	0.0165620
646.109	0.0165856
646.187	0.0165678
646.265	0.0163172
646.343	0.0163624
646.421	0.0164546
646.499	0.0165907
646.578	0.0165784
646.656	0.0165724
646.734	0.0165603
646.812	0.0166225
646.890	0.0166543
646.968	0.0165082
647.046	0.0165026
647.124	0.0165009
647.203	0.0165270
647.281	0.0164551
647.359	0.0166154
647.437	0.0165457
647.515	0.0165402
647.593	0.0166235
647.671	0.0164555
647.749	0.0164173
647.828	0.0165372
647.906	0.0165914
647.984	0.0164999
648.062	0.0164590
648.140	0.0164964
648.218	0.0166400
648.296	0.0166772
648.374	0.0165410
648.453	0.0164677
648.531	0.0165675
648.609	0.0164467
648.687	0.0166199
648.765	0.0166803
648.843	0.0165395
648.921	0.0166380
648.999	0.0166734
649.078	0.0166376
649.156	0.0166787
649.234	0.0166644
649.312	0.0166162
649.390	0.0167020
649.468	0.0167049
649.546	0.0164776
649.624	0.0165916
649.703	0.0165654
649.781	0.0165702
649.859	0.0165464
649.937	0.0166245
650.015	0.0165765
650.093	0.0165446
650.171	0.0166721
650.249	0.0166442
650.328	0.0166169
650.406	0.0165070
650.484	0.0167276
650.562	0.0166905
650.640	0.0164928
650.718	0.0166156
650.796	0.0165767
650.874	0.0166454
650.953	0.0166167
651.031	0.0165763
651.109	0.0165796
651.187	0.0165488
651.265	0.0165585
651.343	0.0165659
651.421	0.0165814
651.499	0.0165686
651.578	0.0166395
651.656	0.0166506
651.734	0.0165749
651.812	0.0165063
651.890	0.0166541
651.968	0.0165507
652.046	0.0165535
652.124	0.0166593
652.203	0.0165890
652.281	0.0166075
652.359	0.0166862
652.437	0.0165318
652.515	0.0165942
652.593	0.0165874
652.671	0.0166649
652.749	0.0166678
652.828	0.0165897
652.906	0.0165409
652.984	0.0166638
653.062	0.0165548
653.140	0.0166045
653.218	0.0166823
653.296	0.0165198
653.374	0.0165829
653.453	0.0166798
653.531	0.0165459
653.609	0.0166904
653.687	0.0165682
653.765	0.0167265
653.843	0.0167287
653.921	0.0166097
653.999	0.0166284
654.078	0.0165986
654.156	0.0167045
654.234	0.0166090
654.312	0.0165319
654.390	0.0166512
654.468	0.0167419
654.546	0.0167480
654.624	0.0166002
654.703	0.0166539
654.781	0.0165211
654.859	0.0166584
654.937	0.0164731
655.015	0.0166928
655.093	0.0166602
655.171	0.0166310
655.249	0.0166682
655.328	0.0166629
655.406	0.0167067
655.484	0.0166216
655.562	0.0164472
655.640	0.0166494
655.718	0.0165677
655.796	0.0166969
655.874	0.0166909
655.953	0.0166821
656.031	0.0167511
656.109	0.0167228
656.187	0.0166214
656.265	0.0166408
656.343	0.0166123
656.421	0.0166817
656.499	0.0166306
656.578	0.0166130
656.656	0.0166493
656.734	0.0166814
656.812	0.0167355
656.890	0.0166398
656.968	0.0166002
657.046	0.0166871
657.124	0.0167043
657.203	0.0167522
657.281	0.0167330
657.359	0.0166040
657.437	0.0166708
657.515	0.0166392
657.593	0.0166115
657.671	0.0166290
657.749	0.0166772
657.828	0.0166417
657.906	0.0167160
657.984	0.0166280
658.062	0.0167647
658.140	0.0167567
658.218	0.0167412
658.296	0.0168006
658.374	0.0168217
658.453	0.0165818
658.531	0.0167239
658.609	0.0166061
658.687	0.0167426
658.765	0.0167678
658.843	0.0166627
658.921	0.0165775
658.999	0.0166216
659.078	0.0167143
659.156	0.0166065
659.234	0.0166640
659.312	0.0167439
659.390	0.0166430
659.468	0.0166850
659.546	0.0166369
659.624	0.0167658
659.703	0.0166431
659.781	0.0167280
659.859	0.0167405
659.937	0.0166304
660.015	0.0166255
660.093	0.0166573
660.171	0.0166500
660.249	0.0167256
660.328	0.0166759
660.406	0.0166068
660.484	0.0165494
660.562	0.0167356
660.640	0.0166626
660.718	0.0166358
660.796	0.0167438
660.874	0.0167708
660.953	0.0167466
661.031	0.0165630
661.109	0.0166001
661.187	0.0166334
661.265	0.0166940
661.343	0.0165598
661.421	0.0166288
661.499	0.0165860
661.578	0.0166817
661.656	0.0166811
661.734	0.0165705
661.812	0.0166654
661.890	0.0165915
661.968	0.0165533
662.046	0.0166309
662.124	0.0166226
662.203	0.0166209
662.281	0.0167390
662.359	0.0167313
662.437	0.0166092
662.515	0.0165904
662.593	0.0166861
662.671	0.0166072
662.749	0.0166029
662.828	0.0166529
662.906	0.0165068
662.984	0.0165570
663.062	0.0166741
663.140	0.0165764
663.218	0.0164778
663.296	0.0165948
663.374	0.0166226
663.453	0.0166467
663.531	0.0165666
663.609	0.0165424
663.687	0.0166434
663.765	0.0165395
663.843	0.0165807
663.921	0.0166747
663.999	0.0165884
664.078	0.0166277
664.156	0.0165993
664.234	0.0165444
664.312	0.0165366
664.390	0.0166136
664.468	0.0166815
664.546	0.0164727
664.624	0.0164987
664.703	0.0166232
664.781	0.0166146
664.859	0.0166214
664.937	0.0165082
665.015	0.0166302
665.093	0.0166530
665.171	0.0165467
665.249	0.0166014
665.328	0.0166553
665.406	0.0166156
665.484	0.0167302
665.562	0.0166302
665.640	0.0165808
665.718	0.0165598
665.796	0.0165807
665.874	0.0166403
665.953	0.0166602
666.031	0.0166170
666.109	0.0165215
666.187	0.0166032
666.265	0.0165978
666.343	0.0165908
666.421	0.0166171
666.499	0.0164912
666.578	0.0165098
666.656	0.0166353
666.734	0.0166433
666.812	0.0165058
666.890	0.0165364
666.968	0.0165878
667.046	0.0166022
667.124	0.0165997
667.203	0.0165459
667.281	0.0166553
667.359	0.0165439
667.437	0.0166979
667.515	0.0165939
667.593	0.0166859
667.671	0.0165495
667.749	0.0166127
667.828	0.0165985
667.906	0.0166514
667.984	0.0165515
668.062	0.0164777
668.140	0.0165078
668.218	0.0164674
668.296	0.0165110
668.374	0.0166242
668.453	0.0165992
668.531	0.0165134
668.609	0.0164037
668.687	0.0164902
668.765	0.0163419
668.843	0.0163858
668.921	0.0165672
668.999	0.0165129
669.078	0.0164999
669.156	0.0164832
669.234	0.0165862
669.312	0.0164735
669.390	0.0163821
669.468	0.0165830
669.546	0.0165739
669.624	0.0164581
669.703	0.0164127
669.781	0.0166323
669.859	0.0165143
669.937	0.0164676
670.015	0.0165662
670.093	0.0165636
670.171	0.0165024
670.249	0.0164915
670.328	0.0164738
670.406	0.0165060
670.484	0.0165194
670.562	0.0165990
670.640	0.0165788
670.718	0.0164295
670.796	0.0165681
670.874	0.0165057
670.953	0.0164361
671.031	0.0164040
671.109	0.0165802
671.187	0.0165225
671.265	0.0165882
671.343	0.0164154
671.421	0.0165382
671.499	0.0166023
671.578	0.0165225
671.656	0.0164671
671.734	0.0164375
671.812	0.0164633
671.890	0.0166033
671.968	0.0165815
672.046	0.0166448
672.124	0.0166277
672.203	0.0163523
672.281	0.0166427
672.359	0.0166879
672.437	0.0165916
672.515	0.0165849
672.593	0.0166075
672.671	0.0165084
672.749	0.0165123
672.828	0.0164990
672.906	0.0165244
672.984	0.0165756
673.062	0.0166460
673.140	0.0165388
673.218	0.0166380
673.296	0.0165607
673.374	0.0164996
673.453	0.0166205
673.531	0.0165638
673.609	0.0165459
673.687	0.0165275
673.765	0.0166820
673.843	0.0166689
673.921	0.0164343
673.999	0.0165929
674.078	0.0165656
674.156	0.0165941
674.234	0.0164355
674.312	0.0165969
674.390	0.0164417
674.468	0.0164608
674.546	0.0165540
674.624	0.0165965
674.703	0.0165456
674.781	0.0166072
674.859	0.0164983
674.937	0.0165807
675.015	0.0165232
675.093	0.0164814
675.171	0.0165411
675.249	0.0166434
675.328	0.0165612
675.406	0.0165131
675.484	0.0165910
675.562	0.0166621
675.640	0.0166106
675.718	0.0165133
675.796	0.0164574
675.874	0.0165083
675.953	0.0165221
676.031	0.0167496
676.109	0.0165815
676.187	0.0165841
676.265	0.0166040
676.343	0.0166419
676.421	0.0164549
676.499	0.0164986
676.578	0.0165785
676.656	0.0165731
676.734	0.0165463
676.812	0.0165621
676.890	0.0164574
676.968	0.0166043
677.046	0.0166434
677.124	0.0166290
677.203	0.0165771
677.281	0.0166582
677.359	0.0166296
677.437	0.0165530
677.515	0.0165198
677.593	0.0166316
677.671	0.0165891
677.749	0.0165940
677.828	0.0166641
677.906	0.0166814
677.984	0.0166730
678.062	0.0164707
678.140	0.0166584
678.218	0.0167314
678.296	0.0167696
678.374	0.0166099
678.453	0.0166382
678.531	0.0167482
678.609	0.0167104
678.687	0.0167610
678.765	0.0167091
678.843	0.0166060
678.921	0.0167486
678.999	0.0165286
679.078	0.0166071
679.156	0.0166859
679.234	0.0168045
679.312	0.0166685
679.390	0.0165842
679.468	0.0166256
679.546	0.0166593
679.624	0.0165952
679.703	0.0167017
679.781	0.0164899
679.859	0.0166018
679.937	0.0167606
680.015	0.0165837
680.093	0.0168042
680.171	0.0167442
680.249	0.0166718
680.328	0.0166174
680.406	0.0165540
680.484	0.0166599
680.562	0.0166891
680.640	0.0166006
680.718	0.0166904
680.796	0.0166803
680.874	0.0165965
680.953	0.0166033
681.031	0.0165871
681.109	0.0165977
681.187	0.0166470
681.265	0.0166543
681.343	0.0165503
681.421	0.0165524
681.499	0.0167055
681.578	0.0166357
681.656	0.0165675
681.734	0.0165590
681.812	0.0166436
681.890	0.0166521
681.968	0.0166225
682.046	0.0166201
682.124	0.0165787
682.203	0.0166681
682.281	0.0166190
682.359	0.0166348
682.437	0.0166238
682.515	0.0165586
682.593	0.0166621
682.671	0.0165215
682.749	0.0165870
682.828	0.0166378
682.906	0.0166183
682.984	0.0165006
683.062	0.0165940
683.140	0.0165838
683.218	0.0166976
683.296	0.0166578
683.374	0.0166503
683.453	0.0165816
683.531	0.0165591
683.609	0.0165993
683.687	0.0168089
683.765	0.0166308
683.843	0.0165890
683.921	0.0167068
683.999	0.0166385
684.078	0.0165398
684.156	0.0167513
684.234	0.0166547
684.312	0.0166845
684.390	0.0166630
684.468	0.0166126
684.546	0.0167976
684.624	0.0166164
684.703	0.0165913
684.781	0.0166715
684.859	0.0166559
684.937	0.0166181
685.015	0.0166993
685.093	0.0166238
685.171	0.0166690
685.249	0.0164420
685.328	0.0164985
685.406	0.0168217
685.484	0.0165468
685.562	0.0166037
685.640	0.0165296
685.718	0.0164954
685.796	0.0166497
685.874	0.0166182
685.953	0.0166504
686.031	0.0166058
686.109	0.0166112
686.187	0.0166448
686.265	0.0165485
686.343	0.0166449
686.421	0.0166890
686.499	0.0166322
686.578	0.0166599
686.656	0.0167506
686.734	0.0166509
686.812	0.0166042
686.890	0.0165754
686.968	0.0165578
687.046	0.0166477
687.124	0.0166260
687.203	0.0168125
687.281	0.0167017
687.359	0.0167483
687.437	0.0166750
687.515	0.0166267
687.593	0.0166762
687.671	0.0166144
687.749	0.0166853
687.828	0.0165707
687.906	0.0166371
687.984	0.0167087
688.062	0.0167252
688.140	0.0166336
688.218	0.0166726
688.296	0.0165989
688.374	0.0165358
688.453	0.0164650
688.531	0.0166628
688.609	0.0165464
688.687	0.0165647
688.765	0.0167007
688.843	0.0165887
688.921	0.0166999
688.999	0.0164912
689.078	0.0165545
689.156	0.0165706
689.234	0.0167235
689.312	0.0166362
689.390	0.0166633
689.468	0.0165154
689.546	0.0166130
689.624	0.0165812
689.703	0.0165787
689.781	0.0165101
689.859	0.0165644
689.937	0.0165398
690.015	0.0166190
690.093	0.0166412
690.171	0.0166987
690.249	0.0165718
690.328	0.0166399
690.406	0.0166213
690.484	0.0164948
690.562	0.0166792
690.640	0.0165532
690.718	0.0164443
690.796	0.0164735
690.874	0.0166695
690.953	0.0164612
691.031	0.0164677
691.109	0.0165366
691.187	0.0164461
691.265	0.0166422
691.343	0.0165548
691.421	0.0164272
691.499	0.0166132
691.578	0.0165887
691.656	0.0165881
691.734	0.0165879
691.812	0.0162859
691.890	0.0165772
691.968	0.0166370
692.046	0.0165273
692.124	0.0164691
692.203	0.0165772
692.281	0.0164578
692.359	0.0162608
692.437	0.0164468
692.515	0.0166840
692.593	0.0166219
692.671	0.0164049
692.749	0.0164352
692.828	0.0166958
692.906	0.0164680
692.984	0.0164677
693.062	0.0164091
693.140	0.0165848
693.218	0.0164327
693.296	0.0164916
693.374	0.0164416
693.453	0.0164834
693.531	0.0165565
693.609	0.0165403
693.687	0.0165308
693.765	0.0164549
693.843	0.0164706
693.921	0.0162349
693.999	0.0164681
694.078	0.0164716
694.156	0.0164235
694.234	0.0164518
694.312	0.0163947
694.390	0.0165401
694.468	0.0165060
694.546	0.0162694
694.624	0.0164054
694.703	0.0163572
694.781	0.0164147
694.859	0.0165016
694.937	0.0163860
695.015	0.0164018
695.093	0.0164267
695.171	0.0163290
695.249	0.0165752
695.328	0.0165753
695.406	0.0163291
695.484	0.0163264
695.562	0.0164871
695.640	0.0164906
695.718	0.0164462
695.796	0.0164828
695.874	0.0164017
695.953	0.0164079
696.031	0.0166254
696.109	0.0165437
696.187	0.0164426
696.265	0.0164498
696.343	0.0164098
696.421	0.0165127
696.499	0.0165181
696.578	0.0164233
696.656	0.0164614
696.734	0.0165145
696.812	0.0165259
696.890	0.0165675
696.968	0.0165054
697.046	0.0165031
697.124	0.0164396
697.203	0.0164158
697.281	0.0165010
697.359	0.0163837
697.437	0.0165560
697.515	0.0163577
697.593	0.0164020
697.671	0.0164058
697.749	0.0163770
697.828	0.0165275
697.906	0.0164478
697.984	0.0163721
698.062	0.0164565
698.140	0.0165444
698.218	0.0164539
698.296	0.0164195
698.374	0.0164280
698.453	0.0164989
698.531	0.0163283
698.609	0.0165305
698.687	0.0164471
698.765	0.0166343
698.843	0.0164328
698.921	0.0166159
698.999	0.0165364
699.078	0.0164584
699.156	0.0164978
699.234	0.0165317
699.312	0.0165379
699.390	0.0165413
699.468	0.0165871
699.546	0.0165060
699.624	0.0164192
699.703	0.0165075
699.781	0.0164338
699.859	0.0165376
699.937	0.0164432
700.015	0.0165332
700.093	0.0166068
700.171	0.0165495
700.249	0.0165211
700.328	0.0165430
700.406	0.0166197
700.484	0.0165730
700.562	0.0166660
700.640	0.0166206
700.718	0.0165290
700.796	0.0166966
700.874	0.0165587
700.953	0.0166148
701.031	0.0166324
701.109	0.0165008
701.187	0.0166229
701.265	0.0166698
701.343	0.0164302
701.421	0.0166341
701.499	0.0166048
701.578	0.0165714
701.656	0.0165999
701.734	0.0164752
701.812	0.0164947
701.890	0.0164772
701.968	0.0165310
702.046	0.0168060
702.124	0.0166361
702.203	0.0166706
702.281	0.0166232
702.359	0.0165370
702.437	0.0167280
702.515	0.0165389
702.593	0.0165863
702.671	0.0166814
702.749	0.0166381
702.828	0.0165839
702.906	0.0166759
702.984	0.0165815
703.062	0.0165749
703.140	0.0166492
703.218	0.0167410
703.296	0.0166000
703.374	0.0167048
703.453	0.0165639
703.531	0.0167801
703.609	0.0166066
703.687	0.0165819
703.765	0.0168039
703.843	0.0167635
703.921	0.0166671
703.999	0.0166696
704.078	0.0165683
704.156	0.0166420
704.234	0.0165881
704.312	0.0165977
704.390	0.0166756
704.468	0.0167817
704.546	0.0166061
704.624	0.0166769
704.703	0.0167107
704.781	0.0166477
704.859	0.0166328
704.937	0.0164981
705.015	0.0167187
705.093	0.0167755
705.171	0.0165559
705.249	0.0166812
705.328	0.0167904
705.406	0.0165774
705.484	0.0167030
705.562	0.0166042
705.640	0.0165847
705.718	0.0165867
705.796	0.0166496
705.874	0.0164379
705.953	0.0166090
706.031	0.0165394
706.109	0.0165409
706.187	0.0166237
706.265	0.0165850
706.343	0.0167652
706.421	0.0166635
706.499	0.0165291
706.578	0.0165328
706.656	0.0165732
706.734	0.0166697
706.812	0.0167459
706.890	0.0166914
706.968	0.0167451
707.046	0.0165793
707.124	0.0167332
707.203	0.0167435
707.281	0.0166225
707.359	0.0166890
707.437	0.0167341
707.515	0.0166103
707.593	0.0166888
707.671	0.0166096
707.749	0.0164443
707.828	0.0166953
707.906	0.0166547
707.984	0.0165678
708.062	0.0165809
708.140	0.0165615
708.218	0.0165973
708.296	0.0165308
708.374	0.0165945
708.453	0.0164824
708.531	0.0166645
708.609	0.0166080
708.687	0.0167590
708.765	0.0165686
708.843	0.0165340
708.921	0.0166165
708.999	0.0167062
709.078	0.0166549
709.156	0.0166041
709.234	0.0167339
709.312	0.0167474
709.390	0.0166154
709.468	0.0166267
709.546	0.0166599
709.624	0.0166901
709.703	0.0166441
709.781	0.0166505
709.859	0.0165833
709.937	0.0165586
710.015	0.0166946
710.093	0.0166619
710.171	0.0165737
710.249	0.0165582
710.328	0.0166467
710.406	0.0166172
710.484	0.0166009
710.562	0.0165482
710.640	0.0165005
710.718	0.0165710
710.796	0.0165941
710.874	0.0165220
710.953	0.0165368
711.031	0.0166199
711.109	0.0167797
711.187	0.0166911
711.265	0.0167062
711.343	0.0166230
711.421	0.0165135
711.499	0.0165858
711.578	0.0166621
711.656	0.0165720
711.734	0.0166055
711.812	0.0167043
711.890	0.0166399
711.968	0.0166125
712.046	0.0166368
712.124	0.0165467
712.203	0.0165096
712.281	0.0165495
712.359	0.0167823
712.437	0.0167511
712.515	0.0167402
712.593	0.0165321
712.671	0.0166982
712.749	0.0167003
712.828	0.0165511
712.906	0.0165379
712.984	0.0166326
713.062	0.0165357
713.140	0.0165908
713.218	0.0165995
713.296	0.0165118
713.374	0.0165664
713.453	0.0165685
713.531	0.0166018
713.609	0.0166315
713.687	0.0165031
713.765	0.0165647
713.843	0.0165477
713.921	0.0165531
713.999	0.0164592
714.078	0.0164812
714.156	0.0166025
714.234	0.0165909
714.312	0.0165148
714.390	0.0166025
714.468	0.0165359
714.546	0.0167393
714.624	0.0166772
714.703	0.0164821
714.781	0.0165176
714.859	0.0166938
714.937	0.0165487
715.015	0.0166443
715.093	0.0165704
715.171	0.0166212
715.249	0.0165882
715.328	0.0166385
715.406	0.0167103
715.484	0.0167841
715.562	0.0166168
715.640	0.0166257
715.718	0.0165610
715.796	0.0165778
715.874	0.0164992
715.953	0.0165620
716.031	0.0165482
716.109	0.0166680
716.187	0.0164925
716.265	0.0165500
716.343	0.0165977
716.421	0.0166364
716.499	0.0166326
716.578	0.0166016
716.656	0.0165987
716.734	0.0165943
716.812	0.0165505
716.890	0.0165105
716.968	0.0165900
717.046	0.0165519
717.124	0.0163406
717.203	0.0164716
717.281	0.0166769
717.359	0.0165953
717.437	0.0164767
717.515	0.0164751
717.593	0.0166303
717.671	0.0164980
717.749	0.0165033
717.828	0.0165453
717.906	0.0166376
717.984	0.0166172
718.062	0.0165009
718.140	0.0164733
718.218	0.0165495
718.296	0.0164375
718.374	0.0163800
718.453	0.0165771
718.531	0.0164874
718.609	0.0163861
718.687	0.0165104
718.765	0.0164024
718.843	0.0165132
718.921	0.0165868
718.999	0.0166041
719.078	0.0163876
719.156	0.0163831
719.234	0.0163332
719.312	0.0163948
719.390	0.0165907
719.468	0.0164674
719.546	0.0163558
719.624	0.0165372
719.703	0.0164276
719.781	0.0165702
719.859	0.0163487
719.937	0.0162193
720.015	0.0165493
720.093	0.0164388
720.171	0.0165279
720.249	0.0164577
720.328	0.0165008
720.406	0.0164591
720.484	0.0164594
720.562	0.0165145
720.640	0.0164336
720.718	0.0164424
720.796	0.0166101
720.874	0.0164642
720.953	0.0163575
721.031	0.0164832
721.109	0.0164302
721.187	0.0165090
721.265	0.0164467
721.343	0.0163831
721.421	0.0165920
721.499	0.0165697
721.578	0.0164858
721.656	0.0164789
721.734	0.0165057
721.812	0.0165118
721.890	0.0164687
721.968	0.0165440
722.046	0.0164960
722.124	0.0165477
722.203	0.0166264
722.281	0.0165222
722.359	0.0164657
722.437	0.0163365
722.515	0.0166801
722.593	0.0165570
722.671	0.0166213
722.749	0.0165026
722.828	0.0165049
722.906	0.0163944
722.984	0.0165464
723.062	0.0165723
723.140	0.0165730
723.218	0.0165176
723.296	0.0165600
723.374	0.0165692
723.453	0.0165600
723.531	0.0165549
723.609	0.0165597
723.687	0.0165155
723.765	0.0166180
723.843	0.0166850
723.921	0.0164616
723.999	0.0164825
724.078	0.0166575
724.156	0.0166265
724.234	0.0167097
724.312	0.0164099
724.390	0.0166093
724.468	0.0166185
724.546	0.0166776
724.624	0.0166038
724.703	0.0166307
724.781	0.0165956
724.859	0.0165797
724.937	0.0167538
725.015	0.0165604
725.093	0.0165979
725.171	0.0165020
725.249	0.0166048
725.328	0.0165905
725.406	0.0165590
725.484	0.0165125
725.562	0.0166932
725.640	0.0166685
725.718	0.0165913
725.796	0.0167142
725.874	0.0165789
725.953	0.0165034
726.031	0.0166618
726.109	0.0165274
726.187	0.0165355
726.265	0.0166064
726.343	0.0165938
726.421	0.0166202
726.499	0.0165055
726.578	0.0165376
726.656	0.0166830
726.734	0.0164921
726.812	0.0167094
726.890	0.0167151
726.968	0.0166859
727.046	0.0167542
727.124	0.0166692
727.203	0.0165752
727.281	0.0166399
727.359	0.0166991
727.437	0.0166139
727.515	0.0165007
727.593	0.0165515
727.671	0.0167175
727.749	0.0166178
727.828	0.0165370
727.906	0.0165175
727.984	0.0166430
728.062	0.0166659
728.140	0.0166327
728.218	0.0166525
728.296	0.0166444
728.374	0.0166862
728.453	0.0166782
728.531	0.0167841
728.609	0.0166022
728.687	0.0166845
728.765	0.0167312
728.843	0.0165746
728.921	0.0167226
728.999	0.0166388
729.078	0.0166805
729.156	0.0166679
729.234	0.0165697
729.312	0.0166144
729.390	0.0165865
729.468	0.0165917
729.546	0.0166383
729.624	0.0165791
729.703	0.0166795
729.781	0.0166898
729.859	0.0166240
729.937	0.0165883
730.015	0.0166579
730.093	0.0166431
730.171	0.0165856
730.249	0.0165557
730.328	0.0167548
730.406	0.0167636
730.484	0.0165521
730.562	0.0166961
730.640	0.0165694
730.718	0.0165670
730.796	0.0166853
730.874	0.0166338
730.953	0.0166958
731.031	0.0165470
731.109	0.0166548
731.187	0.0166602
731.265	0.0166418
731.343	0.0167123
731.421	0.0166784
731.499	0.0167019
731.578	0.0166575
731.656	0.0167169
731.734	0.0167117
731.812	0.0166977
731.890	0.0166061
731.968	0.0165777
732.046	0.0168391
732.124	0.0166104
732.203	0.0167390
732.281	0.0166330
732.359	0.0165899
732.437	0.0166235
732.515	0.0167142
732.593	0.0166817
732.671	0.0166532
732.749	0.0167012
732.828	0.0167513
732.906	0.0166993
732.984	0.0166048
733.062	0.0166086
733.140	0.0166006
733.218	0.0165930
733.296	0.0165379
733.374	0.0167533
733.453	0.0166497
733.531	0.0165929
733.609	0.0167221
733.687	0.0166664
733.765	0.0166021
733.843	0.0166888
733.921	0.0166534
733.999	0.0165059
734.078	0.0167216
734.156	0.0166750
734.234	0.0167064
734.312	0.0166480
734.390	0.0166723
734.468	0.0167078
734.546	0.0166225
734.624	0.0166967
734.703	0.0166735
734.781	0.0166154
734.859	0.0165846
734.937	0.0166336
735.015	0.0166373
735.093	0.0166814
735.171	0.0166917
735.249	0.0166092
735.328	0.0166600
735.406	0.0166759
735.484	0.0167474
735.562	0.0166271
735.640	0.0166447
735.718	0.0166747
735.796	0.0166541
735.874	0.0166725
735.953	0.0165860
736.031	0.0167501
736.109	0.0165241
736.187	0.0164596
736.265	0.0166873
736.343	0.0167503
736.421	0.0167455
736.499	0.0166590
736.578	0.0165754
736.656	0.0166064
736.734	0.0166607
736.812	0.0167538
736.890	0.0166047
736.968	0.0164983
737.046	0.0167103
737.124	0.0166048
737.203	0.0166746
737.281	0.0167714
737.359	0.0167107
737.437	0.0166177
737.515	0.0165916
737.593	0.0166734
737.671	0.0165952
737.749	0.0167329
737.828	0.0166786
737.906	0.0167151
737.984	0.0167197
738.062	0.0167505
738.140	0.0166364
738.218	0.0166312
738.296	0.0166976
738.374	0.0165981
738.453	0.0165475
738.531	0.0166615
738.609	0.0166599
738.687	0.0166069
738.765	0.0165795
738.843	0.0166789
738.921	0.0166151
738.999	0.0168300
739.078	0.0166067
739.156	0.0166232
739.234	0.0166274
739.312	0.0166633
739.390	0.0168047
739.468	0.0165586
739.546	0.0166460
739.624	0.0165395
739.703	0.0165990
739.781	0.0166360
739.859	0.0165052
739.937	0.0165847
740.015	0.0165888
740.093	0.0165543
740.171	0.0166009
740.249	0.0166397
740.328	0.0164555
740.406	0.0164368
740.484	0.0165296
740.562	0.0166212
740.640	0.0164995
740.718	0.0163883
740.796	0.0165388
740.874	0.0164283
740.953	0.0164850
741.031	0.0164714
741.109	0.0164527
741.187	0.0165853
741.265	0.0166422
741.343	0.0164759
741.421	0.0164065
741.499	0.0162996
741.578	0.0164323
741.656	0.0164555
741.734	0.0164509
741.812	0.0166164
741.890	0.0165780
741.968	0.0166616
742.046	0.0166664
742.124	0.0165698
742.203	0.0165040
742.281	0.0164642
742.359	0.0164672
742.437	0.0166087
742.515	0.0164505
742.593	0.0166017
742.671	0.0165774
742.749	0.0165466
742.828	0.0164989
742.906	0.0165259
742.984	0.0165411
743.062	0.0165369
743.140	0.0166843
743.218	0.0167375
743.296	0.0165468
743.374	0.0164291
743.453	0.0165910
743.531	0.0166314
743.609	0.0166238
743.687	0.0164768
743.765	0.0165213
743.843	0.0164663
743.921	0.0165778
743.999	0.0166096
744.078	0.0165437
744.156	0.0165582
744.234	0.0165852
744.312	0.0164748
744.390	0.0165141
744.468	0.0165017
744.546	0.0164944
744.624	0.0166271
744.703	0.0164966
744.781	0.0165416
744.859	0.0165530
744.937	0.0165672
745.015	0.0165401
745.093	0.0165008
745.171	0.0165996
745.249	0.0166071
745.328	0.0166417
745.406	0.0166304
745.484	0.0165605
745.562	0.0165047
745.640	0.0164820
745.718	0.0165095
745.796	0.0165199
745.874	0.0165091
745.953	0.0165263
746.031	0.0166315
746.109	0.0165605
746.187	0.0166046
746.265	0.0166480
746.343	0.0167161
746.421	0.0165624
746.499	0.0166375
746.578	0.0167019
746.656	0.0165488
746.734	0.0166882
746.812	0.0166886
746.890	0.0165282
746.968	0.0165568
747.046	0.0166988
747.124	0.0166058
747.203	0.0165917
747.281	0.0166298
747.359	0.0165755
747.437	0.0165665
747.515	0.0166523
747.593	0.0166874
747.671	0.0166727
747.749	0.0165445
747.828	0.0165019
747.906	0.0167319
747.984	0.0166799
748.062	0.0166111
748.140	0.0165194
748.218	0.0166376
748.296	0.0165961
748.374	0.0166180
748.453	0.0166837
748.531	0.0166660
748.609	0.0166628
748.687	0.0165150
748.765	0.0164600
748.843	0.0166315
748.921	0.0165658
748.999	0.0166544
749.078	0.0166682
749.156	0.0166164
749.234	0.0165504
749.312	0.0166962
749.390	0.0165147
749.468	0.0165233
749.546	0.0167347
749.624	0.0165429
749.703	0.0165882
749.781	0.0165831
749.859	0.0167274
749.937	0.0166466
750.015	0.0165747
750.093	0.0166330
750.171	0.0166093
750.249	0.0166568
750.328	0.0166749
750.406	0.0165685
750.484	0.0165314
750.562	0.0165963
750.640	0.0166847
750.718	0.0165926
750.796	0.0166026
750.874	0.0166876
750.953	0.0165334
751.031	0.0165683
751.109	0.0166011
751.187	0.0166479
751.265	0.0166344
751.343	0.0165274
751.421	0.0165802
751.499	0.0166735
751.578	0.0165712
751.656	0.0166409
751.734	0.0165896
751.812	0.0166002
751.890	0.0165811
751.968	0.0164507
752.046	0.0166805
752.124	0.0165948
752.203	0.0166757
752.281	0.0166076
752.359	0.0165607
752.437	0.0165493
752.515	0.0165540
752.593	0.0166726
752.671	0.0166882
752.749	0.0166813
752.828	0.0166177
752.906	0.0166740
752.984	0.0166377
753.062	0.0166466
753.140	0.0165997
753.218	0.0166122
753.296	0.0165804
753.374	0.0165662
753.453	0.0165871
753.531	0.0166161
753.609	0.0165508
753.687	0.0165895
753.765	0.0165441
753.843	0.0165547
753.921	0.0164949
753.999	0.0166865
754.078	0.0166112
754.156	0.0165719
754.234	0.0166534
754.312	0.0165960
754.390	0.0165885
754.468	0.0165076
754.546	0.0165946
754.624	0.0167487
754.703	0.0166676
754.781	0.0166671
754.859	0.0166893
754.937	0.0167025
755.015	0.0165917
755.093	0.0167160
755.171	0.0166804
755.249	0.0165849
755.328	0.0166280
755.406	0.0167985
755.484	0.0166766
755.562	0.0165368
755.640	0.0166571
755.718	0.0167204
755.796	0.0166331
755.874	0.0165732
755.953	0.0167123
756.031	0.0166324
756.109	0.0165361
756.187	0.0166046
756.265	0.0165717
756.343	0.0166360
756.421	0.0166105
756.499	0.0166049
756.578	0.0165082
756.656	0.0165543
756.734	0.0165601
756.812	0.0165575
756.890	0.0165628
756.968	0.0166064
757.046	0.0167110
757.124	0.0166444
757.203	0.0165755
757.281	0.0164429
757.359	0.0166642
757.437	0.0168259
757.515	0.0166063
757.593	0.0165780
757.671	0.0165765
757.749	0.0165933
757.828	0.0167043
757.906	0.0167389
757.984	0.0166197
758.062	0.0166586
758.140	0.0166584
758.218	0.0167476
758.296	0.0167082
758.374	0.0166245
758.453	0.0166872
758.531	0.0166447
758.609	0.0166492
758.687	0.0165965
758.765	0.0165804
758.843	0.0165639
758.921	0.0165154
758.999	0.0165143
759.078	0.0164922
759.156	0.0165275
759.234	0.0164832
759.312	0.0165159
759.390	0.0164761
759.468	0.0164714
759.546	0.0166204
759.624	0.0164793
759.703	0.0165697
759.781	0.0164458
759.859	0.0166473
759.937	0.0165646
760.015	0.0165256
760.093	0.0165478
760.171	0.0165706
760.249	0.0167648
760.328	0.0165611
760.406	0.0165658
760.484	0.0166451
760.562	0.0166422
760.640	0.0165555
760.718	0.0165260
760.796	0.0165685
760.874	0.0164784
760.953	0.0165572
761.031	0.0165892
761.109	0.0165594
761.187	0.0166323
761.265	0.0165768
761.343	0.0166228
761.421	0.0165820
761.499	0.0165183
761.578	0.0166806
761.656	0.0166154
761.734	0.0164653
761.812	0.0165219
761.890	0.0166836
761.968	0.0166547
762.046	0.0165825
762.124	0.0166156
762.203	0.0165788
762.281	0.0165835
762.359	0.0164713
762.437	0.0165139
762.515	0.0164864
762.593	0.0165782
762.671	0.0164609
762.749	0.0165955
762.828	0.0165774
762.906	0.0165568
762.984	0.0165623
763.062	0.0165341
763.140	0.0166086
763.218	0.0164602
763.296	0.0166135
763.374	0.0166097
763.453	0.0166444
763.531	0.0167303
763.609	0.0165655
763.687	0.0166042
763.765	0.0165532
763.843	0.0166949
763.921	0.0166240
763.999	0.0165818
764.078	0.0164665
764.156	0.0165073
764.234	0.0165018
764.312	0.0164813
764.390	0.0163814
764.468	0.0165311
764.546	0.0164077
764.624	0.0163914
764.703	0.0163312
764.781	0.0164970
764.859	0.0164251
764.937	0.0164704
765.015	0.0165015
765.093	0.0166185
765.171	0.0166080
765.249	0.0165784
765.328	0.0165665
765.406	0.0165639
765.484	0.0166212
765.562	0.0164816
765.640	0.0164969
765.718	0.0165466
765.796	0.0164700
765.874	0.0166494
765.953	0.0166976
766.031	0.0166153
766.109	0.0166360
766.187	0.0166133
766.265	0.0166735
766.343	0.0167278
766.421	0.0167285
766.499	0.0166294
766.578	0.0166515
766.656	0.0166531
766.734	0.0165569
766.812	0.0165376
766.890	0.0166965
766.968	0.0165411
767.046	0.0165334
767.124	0.0165995
767.203	0.0165405
767.281	0.0166776
767.359	0.0163543
767.437	0.0163888
767.515	0.0164207
767.593	0.0164010
767.671	0.0163795
767.749	0.0163984
767.828	0.0164902
767.906	0.0163601
767.984	0.0161976
768.062	0.0163332
768.140	0.0162867
768.218	0.0162692
768.296	0.0163839
768.374	0.0163188
768.453	0.0162516
768.531	0.0162761
768.609	0.0163540
768.687	0.0162856
768.765	0.0164848
768.843	0.0164172
768.921	0.0165382
768.999	0.0165340
769.078	0.0166353
769.156	0.0165581
769.234	0.0166115
769.312	0.0165427
769.390	0.0165849
769.468	0.0164845
769.546	0.0166599
769.624	0.0166846
769.703	0.0167831
769.781	0.0166066
769.859	0.0166780
769.937	0.0166068
770.015	0.0166451
770.093	0.0166313
770.171	0.0165347
770.249	0.0165727
770.328	0.0165692
770.406	0.0165562
770.484	0.0165170
770.562	0.0166451
770.640	0.0165108
770.718	0.0164748
770.796	0.0165133
770.874	0.0165139
770.953	0.0166195
771.031	0.0165543
771.109	0.0165266
771.187	0.0166290
771.265	0.0164117
771.343	0.0164869
771.421	0.0164036
771.499	0.0164106
771.578	0.0164499
771.656	0.0164928
771.734	0.0164242
771.812	0.0163010
771.890	0.0163735
771.968	0.0164841
772.046	0.0164577
772.124	0.0165128
772.203	0.0164538
772.281	0.0164549
772.359	0.0164816
772.437	0.0163982
772.515	0.0164025
772.593	0.0164497
772.671	0.0165606
772.749	0.0164864
772.828	0.0164940
772.906	0.0164671
772.984	0.0164468
773.062	0.0164203
773.140	0.0164011
773.218	0.0165518
773.296	0.0164068
773.374	0.0164617
773.453	0.0164925
773.531	0.0163560
773.609	0.0164609
773.687	0.0164350
773.765	0.0164935
773.843	0.0164516
773.921	0.0165316
773.999	0.0165037
774.078	0.0166204
774.156	0.0164658
774.234	0.0164456
774.312	0.0164840
774.390	0.0166055
774.468	0.0166405
774.546	0.0166402
774.624	0.0167448
774.703	0.0168456
774.781	0.0168600
774.859	0.0167442
774.937	0.0167725
775.015	0.0168698
775.093	0.0167166
775.171	0.0167410
775.249	0.0168411
775.328	0.0166386
775.406	0.0166570
775.484	0.0167391
775.562	0.0165570
775.640	0.0165546
775.718	0.0165385
775.796	0.0165141
775.874	0.0163925
775.953	0.0164098
776.031	0.0163789
776.109	0.0163060
776.187	0.0164211
776.265	0.0162962
776.343	0.0164040
776.421	0.0162160
776.499	0.0162932
776.578	0.0161891
776.656	0.0163255
776.734	0.0163728
776.812	0.0164259
776.890	0.0164120
776.968	0.0163508
777.046	0.0164535
777.124	0.0163799
777.203	0.0164346
777.281	0.0164613
777.359	0.0166875
777.437	0.0166830
777.515	0.0166216
777.593	0.0165601
777.671	0.0165847
777.749	0.0167136
777.828	0.0168479
777.906	0.0167998
777.984	0.0167649
778.062	0.0168591
778.140	0.0167696
778.218	0.0167764
778.296	0.0167978
778.374	0.0167427
778.453	0.0167278
778.531	0.0167125
778.609	0.0167734
778.687	0.0166531
778.765	0.0166637
778.843	0.0167060
778.921	0.0166673
778.999	0.0166393
779.078	0.0165179
779.156	0.0166855
779.234	0.0166359
779.312	0.0165551
779.390	0.0166505
779.468	0.0167561
779.546	0.0168146
779.624	0.0165739
779.703	0.0165254
779.781	0.0166040
779.859	0.0166785
779.937	0.0166320
780.015	0.0167441
780.093	0.0168928
780.171	0.0168131
780.249	0.0167617
780.328	0.0166832
780.406	0.0166513
780.484	0.0166729
780.562	0.0167838
780.640	0.0165871
780.718	0.0166212
780.796	0.0165117
780.874	0.0166482
780.953	0.0165222
781.031	0.0164510
781.109	0.0164233
781.187	0.0164243
781.265	0.0163971
781.343	0.0164112
781.421	0.0163509
781.499	0.0163515
781.578	0.0163268
781.656	0.0162251
781.734	0.0162587
781.812	0.0163158
781.890	0.0165075
781.968	0.0163329
782.046	0.0164484
782.124	0.0165726
782.203	0.0165813
782.281	0.0166064
782.359	0.0166125
782.437	0.0167265
782.515	0.0167957
782.593	0.0167093
782.671	0.0167251
782.749	0.0168844
782.828	0.0168537
782.906	0.0169299
782.984	0.0167844
783.062	0.0167358
783.140	0.0167896
783.218	0.0169379
783.296	0.0168393
783.374	0.0169067
783.453	0.0166839
783.531	0.0167168
783.609	0.0167349
783.687	0.0167682
783.765	0.0165671
783.843	0.0165918
783.921	0.0164899
783.999	0.0164783
784.078	0.0163436
784.156	0.0163608
784.234	0.0164700
784.312	0.0163799
784.390	0.0162856
784.468	0.0163010
784.546	0.0162363
784.624	0.0163458
784.703	0.0162608
784.781	0.0163382
784.859	0.0162576
784.937	0.0164490
785.015	0.0164275
785.093	0.0163350
785.171	0.0164360
785.249	0.0165591
785.328	0.0163657
785.406	0.0164718
785.484	0.0164050
785.562	0.0164420
785.640	0.0166352
785.718	0.0167093
785.796	0.0166116
785.874	0.0166279
785.953	0.0166096
786.031	0.0166383
786.109	0.0167319
786.187	0.0167569
786.265	0.0166938
786.343	0.0167054
786.421	0.0168213
786.499	0.0168108
786.578	0.0168993
786.656	0.0168268
786.734	0.0166887
786.812	0.0167207
786.890	0.0168443
786.968	0.0167831
787.046	0.0166344
787.124	0.0166580
787.203	0.0166582
787.281	0.0166637
787.359	0.0165608
787.437	0.0166653
787.515	0.0165714
787.593	0.0164346
787.671	0.0164282
787.749	0.0165392
787.828	0.0165607
787.906	0.0164609
787.984	0.0164605
788.062	0.0164839
788.140	0.0163511
788.218	0.0164668
788.296	0.0162872
788.374	0.0164838
788.453	0.0166470
788.531	0.0164777
788.609	0.0164128
788.687	0.0163080
788.765	0.0164714
788.843	0.0164983
788.921	0.0163196
788.999	0.0163045
789.078	0.0163690
789.156	0.0164665
789.234	0.0164685
789.312	0.0164391
789.390	0.0163142
789.468	0.0165778
789.546	0.0165395
789.624	0.0165814
789.703	0.0166196
789.781	0.0164997
789.859	0.0165917
789.937	0.0165618
790.015	0.0165343
790.093	0.0166357
790.171	0.0165912
790.249	0.0165392
790.328	0.0166679
790.406	0.0167102
790.484	0.0165378
790.562	0.0166183
790.640	0.0167904
790.718	0.0167087
790.796	0.0165621
790.874	0.0166680
790.953	0.0167096
791.031	0.0167657
791.109	0.0168365
791.187	0.0167843
791.265	0.0168526
791.343	0.0167778
791.421	0.0166732
791.499	0.0166405
791.578	0.0166620
791.656	0.0167057
791.734	0.0166884
791.812	0.0166564
791.890	0.0166651
791.968	0.0167072
792.046	0.0166763
792.124	0.0165999
792.203	0.0165716
792.281	0.0165771
792.359	0.0165302
792.437	0.0163795
792.515	0.0163657
792.593	0.0163584
792.671	0.0163286
792.749	0.0162896
792.828	0.0162045
792.906	0.0160335
792.984	0.0161129
793.062	0.0160961
793.140	0.0160089
793.218	0.0160317
793.296	0.0159612
793.374	0.0160036
793.453	0.0160575
793.531	0.0161253
793.609	0.0161307
793.687	0.0160532
793.765	0.0162815
793.843	0.0160570
793.921	0.0162488
793.999	0.0163572
794.078	0.0162369
794.156	0.0163866
794.234	0.0164117
794.312	0.0163544
794.390	0.0164934
794.468	0.0167303
794.546	0.0165620
794.624	0.0165555
794.703	0.0166885
794.781	0.0166444
794.859	0.0167725
794.937	0.0166084
795.015	0.0166767
795.093	0.0166781
795.171	0.0167357
795.249	0.0168459
795.328	0.0166814
795.406	0.0167696
795.484	0.0168649
795.562	0.0168335
795.640	0.0166920
795.718	0.0165503
795.796	0.0166080
795.874	0.0164941
795.953	0.0165402
796.031	0.0164133
796.109	0.0164827
796.187	0.0164360
796.265	0.0164035
796.343	0.0164094
796.421	0.0163985
796.499	0.0163760
796.578	0.0163192
796.656	0.0163059
796.734	0.0162061
796.812	0.0163206
796.890	0.0163731
796.968	0.0162977
797.046	0.0162319
797.124	0.0162518
797.203	0.0163550
797.281	0.0163219
797.359	0.0164134
797.437	0.0162555
797.515	0.0162852
797.593	0.0163417
797.671	0.0162761
797.749	0.0164577
797.828	0.0164584
797.906	0.0164420
797.984	0.0164850
798.062	0.0166054
798.140	0.0166775
798.218	0.0164718
798.296	0.0166140
798.374	0.0166784
798.453	0.0167074
798.531	0.0166490
798.609	0.0166416
798.687	0.0166972
798.765	0.0166886
798.843	0.0166721
798.921	0.0167488
798.999	0.0166937
799.078	0.0166286
799.156	0.0165623
799.234	0.0168610
799.312	0.0166039
799.390	0.0165431
799.468	0.0166669
799.546	0.0164885
799.624	0.0164018
799.703	0.0164769
799.781	0.0163451
799.859	0.0164246
799.937	0.0164761
800.015	0.0162617
800.093	0.0162566
800.171	0.0163044
800.249	0.0162521
800.328	0.0163245
800.406	0.0160820
800.484	0.0162827
800.562	0.0163208
800.640	0.0162017
800.718	0.0164249
800.796	0.0164243
800.874	0.0163293
800.953	0.0164653
801.031	0.0163916
801.109	0.0162943
801.187	0.0164868
801.265	0.0165804
801.343	0.0167422
801.421	0.0166257
801.499	0.0166333
801.578	0.0166939
801.656	0.0167619
801.734	0.0167820
801.812	0.0167650
801.890	0.0168026
801.968	0.0169827
802.046	0.0168944
802.124	0.0169454
802.203	0.0169881
802.281	0.0169308
802.359	0.0170116
802.437	0.0168159
802.515	0.0170877
802.593	0.0168477
802.671	0.0169805
802.749	0.0170844
802.828	0.0167820
802.906	0.0169066
802.984	0.0167258
803.062	0.0166071
803.140	0.0166178
803.218	0.0165366
803.296	0.0164628
803.374	0.0165199
803.453	0.0165021
803.531	0.0163769
803.609	0.0164416
803.687	0.0164859
803.765	0.0164017
803.843	0.0163602
803.921	0.0164757
803.999	0.0165243
804.078	0.0164649
804.156	0.0166283
804.234	0.0165411
804.312	0.0164798
804.390	0.0165630
804.468	0.0164497
804.546	0.0165438
804.624	0.0165342
804.703	0.0165934
804.781	0.0165298
804.859	0.0165618
804.937	0.0165260
805.015	0.0164689
805.093	0.0163830
805.171	0.0163902
805.249	0.0164604
805.328	0.0164977
805.406	0.0164004
805.484	0.0164066
805.562	0.0166129
805.640	0.0166156
805.718	0.0164983
805.796	0.0165575
805.874	0.0166357
805.953	0.0166829
806.031	0.0166836
806.109	0.0168235
806.187	0.0167831
806.265	0.0167755
806.343	0.0166924
806.421	0.0166838
806.499	0.0168204
806.578	0.0167859
806.656	0.0168708
806.734	0.0168349
806.812	0.0167505
806.890	0.0168285
806.968	0.0168319
807.046	0.0170581
807.124	0.0169237
807.203	0.0169989
807.281	0.0169563
807.359	0.0169857
807.437	0.0169041
807.515	0.0169489
807.593	0.0170878
807.671	0.0168852
807.749	0.0169953
807.828	0.0170705
807.906	0.0168511
807.984	0.0167049
808.062	0.0167171
808.140	0.0164740
808.218	0.0166045
808.296	0.0166850
808.374	0.0166135
808.453	0.0166064
808.531	0.0165812
808.609	0.0165105
808.687	0.0164975
808.765	0.0163986
808.843	0.0165117
808.921	0.0166046
808.999	0.0164333
809.078	0.0163641
809.156	0.0165146
809.234	0.0165409
809.312	0.0165671
809.390	0.0166576
809.468	0.0166049
809.546	0.0164213
809.624	0.0164112
809.703	0.0166511
809.781	0.0166610
809.859	0.0165497
809.937	0.0167377
810.015	0.0166597
810.093	0.0167970
810.171	0.0167834
810.249	0.0168323
810.328	0.0166405
810.406	0.0167680
810.484	0.0168969
810.562	0.0166357
810.640	0.0166114
810.718	0.0168690
810.796	0.0167152
810.874	0.0165998
810.953	0.0166397
811.031	0.0165919
811.109	0.0165275
811.187	0.0166451
811.265	0.0165365
811.343	0.0166228
811.421	0.0167241
811.499	0.0165695
811.578	0.0165355
811.656	0.0166046
811.734	0.0165914
811.812	0.0165460
811.890	0.0166979
811.968	0.0167141
812.046	0.0165981
812.124	0.0167391
812.203	0.0166422
812.281	0.0165799
812.359	0.0165446
812.437	0.0167050
812.515	0.0165243
812.593	0.0166758
812.671	0.0165728
812.749	0.0165363
812.828	0.0165636
812.906	0.0166017
812.984	0.0166668
813.062	0.0166124
813.140	0.0166592
813.218	0.0165310
813.296	0.0167206
813.374	0.0168138
813.453	0.0167455
813.531	0.0169911
813.609	0.0168995
813.687	0.0168872
813.765	0.0169071
813.843	0.0168331
813.921	0.0168106
813.999	0.0168531
814.078	0.0169025
814.156	0.0167920
814.234	0.0168084
814.312	0.0167099
814.390	0.0167394
814.468	0.0166583
814.546	0.0168077
814.624	0.0165692
814.703	0.0166888
814.781	0.0168354
814.859	0.0166326
814.937	0.0166261
815.015	0.0166246
815.093	0.0165164
815.171	0.0163129
815.249	0.0164501
815.328	0.0164900
815.406	0.0163951
815.484	0.0163352
815.562	0.0164555
815.640	0.0162589
815.718	0.0163898
815.796	0.0163470
815.874	0.0164742
815.953	0.0164851
816.031	0.0165423
816.109	0.0164912
816.187	0.0166096
816.265	0.0165467
816.343	0.0165746
816.421	0.0164986
816.499	0.0164046
816.578	0.0164510
816.656	0.0165986
816.734	0.0166943
816.812	0.0165093
816.890	0.0165588
816.968	0.0166054
817.046	0.0164814
817.124	0.0165482
817.203	0.0167098
817.281	0.0166669
817.359	0.0165569
817.437	0.0166132
817.515	0.0166881
817.593	0.0166350
817.671	0.0166482
817.749	0.0166289
817.828	0.0167087
817.906	0.0167020
817.984	0.0166725
818.062	0.0167287
818.140	0.0167595
818.218	0.0168191
818.296	0.0167672
818.374	0.0166615
818.453	0.0168111
818.531	0.0167746
818.609	0.0168385
818.687	0.0169100
818.765	0.0168475
818.843	0.0168793
818.921	0.0168336
818.999	0.0170373
819.078	0.0169999
819.156	0.0169009
819.234	0.0168961
819.312	0.0169755
819.390	0.0169694
819.468	0.0169199
819.546	0.0167754
819.624	0.0168037
819.703	0.0168526
819.781	0.0169038
819.859	0.0167796
819.937	0.0166037
820.015	0.0165939
820.093	0.0166228
820.171	0.0165974
820.249	0.0165891
820.328	0.0165088
820.406	0.0164633
820.484	0.0165759
820.562	0.0165170
820.640	0.0163391
820.718	0.0163321
820.796	0.0163190
820.874	0.0162140
820.953	0.0162238
821.031	0.0162308
821.109	0.0163151
821.187	0.0161600
821.265	0.0163590
821.343	0.0164402
821.421	0.0164834
821.499	0.0165713
821.578	0.0166542
821.656	0.0165992
821.734	0.0166307
821.812	0.0166184
821.890	0.0167749
821.968	0.0168255
822.046	0.0167604
822.124	0.0167509
822.203	0.0167411
822.281	0.0167772
822.359	0.0167730
822.437	0.0167811
822.515	0.0166337
822.593	0.0167073
822.671	0.0166178
822.749	0.0165931
822.828	0.0166042
822.906	0.0165374
822.984	0.0165340
823.062	0.0165694
823.140	0.0164677
823.218	0.0164672
823.296	0.0165257
823.374	0.0164679
823.453	0.0164932
823.531	0.0165376
823.609	0.0166177
823.687	0.0165580
823.765	0.0163761
823.843	0.0163306
823.921	0.0165639
823.999	0.0164857
824.078	0.0164071
824.156	0.0164439
824.234	0.0165401
824.312	0.0165651
824.390	0.0165775
824.468	0.0167253
824.546	0.0167017
824.624	0.0167372
824.703	0.0166920
824.781	0.0167403
824.859	0.0166319
824.937	0.0167421
825.015	0.0168635
825.093	0.0169019
825.171	0.0167154
825.249	0.0169216
825.328	0.0168599
825.406	0.0169852
825.484	0.0169534
825.562	0.0170039
825.640	0.0170599
825.718	0.0170202
825.796	0.0169543
825.874	0.0170466
825.953	0.0169671
826.031	0.0169001
826.109	0.0169342
826.187	0.0169386
826.265	0.0167342
826.343	0.0168311
826.421	0.0166111
826.499	0.0165289
826.578	0.0164266
826.656	0.0163419
826.734	0.0163337
826.812	0.0162502
826.890	0.0161329
826.968	0.0160639
827.046	0.0161383
827.124	0.0161719
827.203	0.0160705
827.281	0.0159174
827.359	0.0160303
827.437	0.0159643
827.515	0.0162634
827.593	0.0162578
827.671	0.0163109
827.749	0.0163574
827.828	0.0164470
827.906	0.0164916
827.984	0.0166416
828.062	0.0167256
828.140	0.0167064
828.218	0.0168224
828.296	0.0170100
828.374	0.0170366
828.453	0.0169122
828.531	0.0171863
828.609	0.0172276
828.687	0.0172022
828.765	0.0171037
828.843	0.0170827
828.921	0.0170726
828.999	0.0171414
829.078	0.0170055
829.156	0.0170387
829.234	0.0170724
829.312	0.0169511
829.390	0.0169315
829.468	0.0169159
829.546	0.0168712
829.624	0.0168050
829.703	0.0167277
829.781	0.0167181
829.859	0.0165143
829.937	0.0164869
830.015	0.0166817
830.093	0.0163950
830.171	0.0164674
830.249	0.0164098
830.328	0.0163710
830.406	0.0162664
830.484	0.0162330
830.562	0.0163549
830.640	0.0161600
830.718	0.0162180
830.796	0.0160138
830.874	0.0162648
830.953	0.0162144
831.031	0.0162740
831.109	0.0163249
831.187	0.0162711
831.265	0.0163684
831.343	0.0165597
831.421	0.0165967
831.499	0.0165916
831.578	0.0167281
831.656	0.0168428
831.734	0.0168913
831.812	0.0169123
831.890	0.0171469
831.968	0.0170161
832.046	0.0169997
832.124	0.0171340
832.203	0.0171116
832.281	0.0172240
832.359	0.0171629
832.437	0.0171940
832.515	0.0172818
832.593	0.0170850
832.671	0.0170319
832.749	0.0170525
832.828	0.0170480
832.906	0.0168831
832.984	0.0169218
833.062	0.0168327
833.140	0.0166748
833.218	0.0167068
833.296	0.0165923
833.374	0.0166755
833.453	0.0166132
833.531	0.0162884
833.609	0.0162444
833.687	0.0162867
833.765	0.0162694
833.843	0.0161852
833.921	0.0161402
833.999	0.0161184
834.078	0.0161426
834.156	0.0161159
834.234	0.0160873
834.312	0.0162269
834.390	0.0162106
834.468	0.0162813
834.546	0.0162913
834.624	0.0163304
834.703	0.0163224
834.781	0.0163073
834.859	0.0163339
834.937	0.0164119
835.015	0.0165206
835.093	0.0165111
835.171	0.0165229
835.249	0.0165042
835.328	0.0165900
835.406	0.0165716
835.484	0.0166203
835.562	0.0167836
835.640	0.0167265
835.718	0.0166410
835.796	0.0168253
835.874	0.0168524
835.953	0.0167619
836.031	0.0168260
836.109	0.0167490
836.187	0.0167137
836.265	0.0167174
836.343	0.0168372
836.421	0.0168644
836.499	0.0167847
836.578	0.0168215
836.656	0.0167924
836.734	0.0169466
836.812	0.0168303
836.890	0.0168865
836.968	0.0168826
837.046	0.0168209
837.124	0.0169296
837.203	0.0169331
837.281	0.0169670
837.359	0.0168587
837.437	0.0169131
837.515	0.0171480
837.593	0.0169088
837.671	0.0169043
837.749	0.0170223
837.828	0.0168980
837.906	0.0168327
837.984	0.0170416
838.062	0.0168241
838.140	0.0168645
838.218	0.0168288
838.296	0.0167482
838.374	0.0166998
838.453	0.0166850
838.531	0.0165272
838.609	0.0164455
838.687	0.0164112
838.765	0.0162218
838.843	0.0160805
838.921	0.0160184
838.999	0.0160477
839.078	0.0160484
839.156	0.0159439
839.234	0.0159886
839.312	0.0158776
839.390	0.0159253
839.468	0.0160518
839.546	0.0160079
839.624	0.0159321
839.703	0.0160836
839.781	0.0161485
839.859	0.0161710
839.937	0.0163194
840.015	0.0165754
840.093	0.0163266
840.171	0.0166355
840.249	0.0166146
840.328	0.0167493
840.406	0.0168308
840.484	0.0169032
840.562	0.0169310
840.640	0.0170463
840.718	0.0170202
840.796	0.0171001
840.874	0.0171885
840.953	0.0172274
841.031	0.0172610
841.109	0.0171962
841.187	0.0172312
841.265	0.0172546
841.343	0.0172653
841.421	0.0172932
841.499	0.0171472
841.578	0.0172200
841.656	0.0172094
841.734	0.0171394
841.812	0.0170743
841.890	0.0169792
841.968	0.0169440
842.046	0.0168290
842.124	0.0166819
842.203	0.0166145
842.281	0.0166234
842.359	0.0164633
842.437	0.0164266
842.515	0.0163918
842.593	0.0163190
842.671	0.0161604
842.749	0.0161779
842.828	0.0161652
842.906	0.0162292
842.984	0.0161825
843.062	0.0159402
843.140	0.0159367
843.218	0.0161953
843.296	0.0160715
843.374	0.0160397
843.453	0.0161832
843.531	0.0162091
843.609	0.0162037
843.687	0.0162426
843.765	0.0162376
843.843	0.0163441
843.921	0.0163812
843.999	0.0164527
844.078	0.0164186
844.156	0.0164772
844.234	0.0166184
844.312	0.0166648
844.390	0.0166144
844.468	0.0167277
844.546	0.0167077
844.624	0.0168722
844.703	0.0167995
844.781	0.0167454
844.859	0.0168265
844.937	0.0169083
845.015	0.0168525
845.093	0.0167547
845.171	0.0167903
845.249	0.0168901
845.328	0.0168432
845.406	0.0168800
845.484	0.0168385
845.562	0.0168026
845.640	0.0166670
845.718	0.0165605
845.796	0.0167361
845.874	0.0166282
845.953	0.0166677
846.031	0.0165774
846.109	0.0164649
846.187	0.0165344
846.265	0.0165489
846.343	0.0164275
846.421	0.0162954
846.499	0.0162516
846.578	0.0163521
846.656	0.0163450
846.734	0.0161489
846.812	0.0162501
846.890	0.0162615
846.968	0.0163332
847.046	0.0162444
847.124	0.0162457
847.203	0.0163552
847.281	0.0163282
847.359	0.0163255
847.437	0.0163457
847.515	0.0164755
847.593	0.0165490
847.671	0.0163673
847.749	0.0166074
847.828	0.0164639
847.906	0.0166189
847.984	0.0166173
848.062	0.0168636
848.140	0.0166787
848.218	0.0167322
848.296	0.0165348
848.374	0.0165474
848.453	0.0166103
848.531	0.0166182
848.609	0.0166070
848.687	0.0165816
848.765	0.0165464
848.843	0.0165861
848.921	0.0166945
848.999	0.0165192
849.078	0.0166703
849.156	0.0166353
849.234	0.0164481
849.312	0.0166542
849.390	0.0165615
849.468	0.0166566
849.546	0.0166596
849.624	0.0165712
849.703	0.0165814
849.781	0.0166247
849.859	0.0166470
849.937	0.0166046
850.015	0.0166401
850.093	0.0164974
850.171	0.0166352
850.249	0.0165616
850.328	0.0166469
850.406	0.0166107
850.484	0.0168591
850.562	0.0165687
850.640	0.0165131
850.718	0.0166543
850.796	0.0164665
850.874	0.0164660
850.953	0.0166151
851.031	0.0166268
851.109	0.0163192
851.187	0.0164597
851.265	0.0164776
851.343	0.0163496
851.421	0.0162970
851.499	0.0164321
851.578	0.0163779
851.656	0.0162611
851.734	0.0163331
851.812	0.0164581
851.890	0.0163972
851.968	0.0163816
852.046	0.0163200
852.124	0.0164322
852.203	0.0165001
852.281	0.0165891
852.359	0.0166270
852.437	0.0165578
852.515	0.0166399
852.593	0.0166744
852.671	0.0165733
852.749	0.0167165
852.828	0.0168860
852.906	0.0167674
852.984	0.0167471
853.062	0.0167279
853.140	0.0168429
853.218	0.0168783
853.296	0.0168219
853.374	0.0167457
853.453	0.0168998
853.531	0.0168227
853.609	0.0166339
853.687	0.0166100
853.765	0.0166115
853.843	0.0164035
853.921	0.0164595
853.999	0.0165758
854.078	0.0162555
854.156	0.0162878
854.234	0.0163174
854.312	0.0164287
854.390	0.0162938
854.468	0.0162453
854.546	0.0163303
854.624	0.0161166
854.703	0.0162730
854.781	0.0164130
854.859	0.0163381
854.937	0.0163031
855.015	0.0163804
855.093	0.0164371
855.171	0.0165826
855.249	0.0165703
855.328	0.0165668
855.406	0.0165559
855.484	0.0165235
855.562	0.0166177
855.640	0.0166306
855.718	0.0166108
855.796	0.0167311
855.874	0.0166808
855.953	0.0166841
856.031	0.0167397
856.109	0.0167619
856.187	0.0168158
856.265	0.0168229
856.343	0.0167774
856.421	0.0166040
856.499	0.0166955
856.578	0.0167971
856.656	0.0166881
856.734	0.0165382
856.812	0.0167872
856.890	0.0167707
856.968	0.0166212
857.046	0.0166905
857.124	0.0165303
857.203	0.0164757
857.281	0.0164721
857.359	0.0165842
857.437	0.0164732
857.515	0.0163884
857.593	0.0164970
857.671	0.0163816
857.749	0.0164148
857.828	0.0163457
857.906	0.0163842
857.984	0.0163353
858.062	0.0163468
858.140	0.0163092
858.218	0.0164984
858.296	0.0165285
858.374	0.0164258
858.453	0.0163596
858.531	0.0164738
858.609	0.0165616
858.687	0.0164769
858.765	0.0166003
858.843	0.0164188
858.921	0.0166785
858.999	0.0165759
859.078	0.0165990
859.156	0.0166325
859.234	0.0165229
859.312	0.0166699
859.390	0.0166878
859.468	0.0166115
859.546	0.0165681
859.624	0.0167558
859.703	0.0165888
859.781	0.0167310
859.859	0.0166261
859.937	0.0165495
860.015	0.0166088
860.093	0.0166046
860.171	0.0165200
860.249	0.0164994
860.328	0.0165858
860.406	0.0166274
860.484	0.0166396
860.562	0.0165520
860.640	0.0166347
860.718	0.0165224
860.796	0.0167090
860.874	0.0165895
860.953	0.0165396
861.031	0.0165379
861.109	0.0165927
861.187	0.0165217
861.265	0.0165739
861.343	0.0166090
861.421	0.0165864
861.499	0.0165076
861.578	0.0165482
861.656	0.0164234
861.734	0.0164930
861.812	0.0164475
861.890	0.0165361
861.968	0.0164555
862.046	0.0164458
862.124	0.0164410
862.203	0.0164835
862.281	0.0165197
862.359	0.0164497
862.437	0.0165287
862.515	0.0166958
862.593	0.0164687
862.671	0.0166530
862.749	0.0165548
862.828	0.0164764
862.906	0.0166980
862.984	0.0165311
863.062	0.0166286
863.140	0.0165807
863.218	0.0164302
863.296	0.0166428
863.374	0.0164197
863.453	0.0164729
863.531	0.0165234
863.609	0.0163712
863.687	0.0165482
863.765	0.0164540
863.843	0.0163913
863.921	0.0165350
863.999	0.0165842
864.078	0.0165458
864.156	0.0165123
864.234	0.0164738
864.312	0.0166759
864.390	0.0166224
864.468	0.0166690
864.546	0.0167867
864.624	0.0167051
864.703	0.0167432
864.781	0.0166724
864.859	0.0166605
864.937	0.0167787
865.015	0.0165472
865.093	0.0168199
865.171	0.0166999
865.249	0.0166203
865.328	0.0164945
865.406	0.0165753
865.484	0.0165417
865.562	0.0163781
865.640	0.0166037
865.718	0.0163493
865.796	0.0164476
865.874	0.0165068
865.953	0.0163834
866.031	0.0163217
866.109	0.0163882
866.187	0.0163653
866.265	0.0164214
866.343	0.0163997
866.421	0.0162862
866.499	0.0163491
866.578	0.0164350
866.656	0.0165215
866.734	0.0165611
866.812	0.0164626
866.890	0.0163783
866.968	0.0165951
867.046	0.0165609
867.124	0.0165971
867.203	0.0166990
867.281	0.0165849
867.359	0.0167126
867.437	0.0166473
867.515	0.0166228
867.593	0.0166469
867.671	0.0165301
867.749	0.0166110
867.828	0.0165272
867.906	0.0167548
867.984	0.0166194
868.062	0.0166339
868.140	0.0166612
868.218	0.0165298
868.296	0.0165597
868.374	0.0164132
868.453	0.0167135
868.531	0.0166000
868.609	0.0165373
868.687	0.0165376
868.765	0.0165362
868.843	0.0164610
868.921	0.0166000
868.999	0.0166025
869.078	0.0163833
869.156	0.0165331
869.234	0.0164965
869.312	0.0164859
869.390	0.0165932
869.468	0.0165575
869.546	0.0165795
869.624	0.0165126
869.703	0.0165088
869.781	0.0164787
869.859	0.0165937
869.937	0.0164807
870.015	0.0163820
870.093	0.0165078
870.171	0.0166368
870.249	0.0164683
870.328	0.0164371
870.406	0.0166612
870.484	0.0166147
870.562	0.0165483
870.640	0.0166886
870.718	0.0166621
870.796	0.0166423
870.874	0.0166037
870.953	0.0165399
871.031	0.0166508
871.109	0.0164780
871.187	0.0167218
871.265	0.0165891
871.343	0.0166284
871.421	0.0166184
871.499	0.0164712
871.578	0.0166338
871.656	0.0165197
871.734	0.0165332
871.812	0.0166210
871.890	0.0165998
871.968	0.0165121
872.046	0.0165746
872.124	0.0166231
872.203	0.0165654
872.281	0.0165905
872.359	0.0165903
872.437	0.0164799
872.515	0.0167085
872.593	0.0165881
872.671	0.0166817
872.749	0.0167451
872.828	0.0165722
872.906	0.0165516
872.984	0.0166593
873.062	0.0167236
873.140	0.0167207
873.218	0.0166857
873.296	0.0165952
873.374	0.0166201
873.453	0.0166029
873.531	0.0167283
873.609	0.0166376
873.687	0.0166492
873.765	0.0165576
873.843	0.0164567
873.921	0.0164337
873.999	0.0163867
874.078	0.0165433
874.156	0.0164412
874.234	0.0164529
874.312	0.0164896
874.390	0.0163766
874.468	0.0164450
874.546	0.0164719
874.624	0.0164001
874.703	0.0163799
874.781	0.0164568
874.859	0.0164204
874.937	0.0164453
875.015	0.0165157
875.093	0.0165403
875.171	0.0166016
875.249	0.0167563
875.328	0.0166436
875.406	0.0166434
875.484	0.0167171
875.562	0.0164998
875.640	0.0166763
875.718	0.0167765
875.796	0.0166909
875.874	0.0166916
875.953	0.0167610
876.031	0.0168093
876.109	0.0167050
876.187	0.0166774
876.265	0.0168414
876.343	0.0167756
876.421	0.0166025
876.499	0.0167056
876.578	0.0166844
876.656	0.0166197
876.734	0.0165888
876.812	0.0166253
876.890	0.0166055
876.968	0.0163704
877.046	0.0165500
877.124	0.0166135
877.203	0.0166589
877.281	0.0164668
877.359	0.0165803
877.437	0.0166332
877.515	0.0164806
877.593	0.0165421
877.671	0.0166602
877.749	0.0165275
877.828	0.0166483
877.906	0.0167390
877.984	0.0166541
878.062	0.0167011
878.140	0.0166263
878.218	0.0167243
878.296	0.0165780
878.374	0.0166580
878.453	0.0167883
878.531	0.0166435
878.609	0.0165845
878.687	0.0165620
878.765	0.0167290
878.843	0.0167004
878.921	0.0168328
878.999	0.0167477
879.078	0.0166000
879.156	0.0167388
879.234	0.0168093
879.312	0.0166607
879.390	0.0167692
879.468	0.0167027
879.546	0.0166570
879.624	0.0165539
879.703	0.0166519
879.781	0.0166642
879.859	0.0167005
879.937	0.0165673
880.015	0.0166034
880.093	0.0165626
880.171	0.0164668
880.249	0.0165891
880.328	0.0166425
880.406	0.0164937
880.484	0.0166235
880.562	0.0166303
880.640	0.0165321
880.718	0.0166048
880.796	0.0166043
880.874	0.0165778
880.953	0.0166271
881.031	0.0166348
881.109	0.0165523
881.187	0.0166974
881.265	0.0166706
881.343	0.0166248
881.421	0.0165234
881.499	0.0165845
881.578	0.0165742
881.656	0.0166592
881.734	0.0166922
881.812	0.0165402
881.890	0.0165745
881.968	0.0165492
882.046	0.0165720
882.124	0.0167116
882.203	0.0164823
882.281	0.0165320
882.359	0.0166126
882.437	0.0165963
882.515	0.0165788
882.593	0.0166789
882.671	0.0165553
882.749	0.0166702
882.828	0.0165302
882.906	0.0166006
882.984	0.0166740
883.062	0.0166526
883.140	0.0166750
883.218	0.0166014
883.296	0.0164294
883.374	0.0165565
883.453	0.0166375
883.531	0.0166663
883.609	0.0166839
883.687	0.0165993
883.765	0.0166040
883.843	0.0165332
883.921	0.0166467
883.999	0.0166328
884.078	0.0164693
884.156	0.0164184
884.234	0.0163957
884.312	0.0164864
884.390	0.0165679
884.468	0.0164703
884.546	0.0164032
884.624	0.0163669
884.703	0.0165836
884.781	0.0164395
884.859	0.0165171
884.937	0.0165544
885.015	0.0164893
885.093	0.0164404
885.171	0.0164117
885.249	0.0165040
885.328	0.0165610
885.406	0.0165166
885.484	0.0165527
885.562	0.0164857
885.640	0.0163306
885.718	0.0164902
885.796	0.0164307
885.874	0.0164774
885.953	0.0164978
886.031	0.0166254
886.109	0.0163710
886.187	0.0165855
886.265	0.0166126
886.343	0.0166019
886.421	0.0165999
886.499	0.0166519
886.578	0.0165800
886.656	0.0166393
886.734	0.0166724
886.812	0.0166200
886.890	0.0165898
886.968	0.0167039
887.046	0.0166856
887.124	0.0165773
887.203	0.0166046
887.281	0.0166087
887.359	0.0165003
887.437	0.0165226
887.515	0.0165253
887.593	0.0167136
887.671	0.0165699
887.749	0.0165505
887.828	0.0166405
887.906	0.0165543
887.984	0.0164432
888.062	0.0166335
888.140	0.0165578
888.218	0.0165036
888.296	0.0165939
888.374	0.0165363
888.453	0.0165646
888.531	0.0165664
888.609	0.0164663
888.687	0.0165273
888.765	0.0163719
888.843	0.0163181
888.921	0.0164832
888.999	0.0163557
889.078	0.0162688
889.156	0.0164919
889.234	0.0164497
889.312	0.0161974
889.390	0.0163651
889.468	0.0163125
889.546	0.0163287
889.624	0.0162029
889.703	0.0164626
889.781	0.0165459
889.859	0.0165455
889.937	0.0164718
890.015	0.0166370
890.093	0.0164331
890.171	0.0165991
890.249	0.0166582
890.328	0.0166778
890.406	0.0166431
890.484	0.0165400
890.562	0.0167216
890.640	0.0166495
890.718	0.0167754
890.796	0.0166882
890.874	0.0166651
890.953	0.0166689
891.031	0.0167232
891.109	0.0167975
891.187	0.0167393
891.265	0.0166465
891.343	0.0166019
891.421	0.0166353
891.499	0.0166879
891.578	0.0166267
891.656	0.0167136
891.734	0.0166676
891.812	0.0165825
891.890	0.0164325
891.968	0.0165272
892.046	0.0166786
892.124	0.0164374
892.203	0.0165141
892.281	0.0165730
892.359	0.0165984
892.437	0.0165968
892.515	0.0165943
892.593	0.0164599
892.671	0.0165983
892.749	0.0165308
892.828	0.0164443
892.906	0.0164184
892.984	0.0166032
893.062	0.0165941
893.140	0.0165626
893.218	0.0165767
893.296	0.0165288
893.374	0.0165084
893.453	0.0165186
893.531	0.0166930
893.609	0.0165360
893.687	0.0166551
893.765	0.0167329
893.843	0.0165901
893.921	0.0166554
893.999	0.0166084
894.078	0.0166191
894.156	0.0165698
894.234	0.0165598
894.312	0.0165999
894.390	0.0166153
894.468	0.0166757
894.546	0.0166314
894.624	0.0164614
894.703	0.0165595
894.781	0.0166384
894.859	0.0166480
894.937	0.0165907
895.015	0.0164176
895.093	0.0165401
895.171	0.0166266
895.249	0.0165594
895.328	0.0165130
895.406	0.0165556
895.484	0.0165986
895.562	0.0165069
895.640	0.0165392
895.718	0.0166470
895.796	0.0165665
895.874	0.0166296
895.953	0.0166071
896.031	0.0166853
896.109	0.0166524
896.187	0.0166512
896.265	0.0168098
896.343	0.0167501
896.421	0.0167974
896.499	0.0168098
896.578	0.0167817
896.656	0.0167005
896.734	0.0167278
896.812	0.0166957
896.890	0.0167375
896.968	0.0167564
897.046	0.0167210
897.124	0.0166270
897.203	0.0166516
897.281	0.0166426
897.359	0.0164246
897.437	0.0167307
897.515	0.0165538
897.593	0.0166761
897.671	0.0165218
897.749	0.0166820
897.828	0.0166563
897.906	0.0167258
897.984	0.0166505
898.062	0.0166032
898.140	0.0166953
898.218	0.0166531
898.296	0.0167210
898.374	0.0166729
898.453	0.0167635
898.531	0.0166963
898.609	0.0168162
898.687	0.0167519
898.765	0.0166895
898.843	0.0168660
898.921	0.0168822
898.999	0.0167740
899.078	0.0167034
899.156	0.0168875
899.234	0.0168329
899.312	0.0167476
899.390	0.0168171
899.468	0.0169987
899.546	0.0167451
899.624	0.0166606
899.703	0.0169469
899.781	0.0168447
899.859	0.0167478
899.937	0.0166303
900.015	0.0166889
900.093	0.0166395
900.171	0.0165173
900.249	0.0165575
900.328	0.0165036
900.406	0.0166147
900.484	0.0163691
900.562	0.0163110
900.640	0.0163268
900.718	0.0164452
900.796	0.0164337
900.874	0.0163875
900.953	0.0163483
901.031	0.0163954
901.109	0.0163283
901.187	0.0164391
901.265	0.0164023
901.343	0.0164937
901.421	0.0166025
901.499	0.0164479
901.578	0.0164915
901.656	0.0166656
901.734	0.0166634
901.812	0.0167022
901.890	0.0166802
901.968	0.0168584
902.046	0.0168151
902.124	0.0169268
902.203	0.0167492
902.281	0.0168336
902.359	0.0168406
902.437	0.0168960
902.515	0.0170045
902.593	0.0170853
902.671	0.0169424
902.749	0.0167876
902.828	0.0169327
902.906	0.0169920
902.984	0.0168822
903.062	0.0168606
903.140	0.0168764
903.218	0.0167964
903.296	0.0168648
903.374	0.0165714
903.453	0.0167042
903.531	0.0168120
903.609	0.0167503
903.687	0.0166727
903.765	0.0167635
903.843	0.0165922
903.921	0.0166978
903.999	0.0167407
904.078	0.0166285
904.156	0.0167709
904.234	0.0165894
904.312	0.0166667
904.390	0.0167419
904.468	0.0164844
904.546	0.0167307
904.624	0.0166814
904.703	0.0165761
904.781	0.0167036
904.859	0.0166932
904.937	0.0166595
905.015	0.0166260
905.093	0.0166421
905.171	0.0167313
905.249	0.0167590
905.328	0.0165537
905.406	0.0165323
905.484	0.0165314
905.562	0.0164552
905.640	0.0165858
905.718	0.0165907
905.796	0.0166961
905.874	0.0165479
905.953	0.0165690
906.031	0.0165012
906.109	0.0164747
906.187	0.0165371
906.265	0.0163872
906.343	0.0165891
906.421	0.0164441
906.499	0.0164117
906.578	0.0164591
906.656	0.0164756
906.734	0.0165084
906.812	0.0164090
906.890	0.0166089
906.968	0.0165162
907.046	0.0165601
907.124	0.0166585
907.203	0.0166289
907.281	0.0166328
907.359	0.0166713
907.437	0.0168020
907.515	0.0167630
907.593	0.0165888
907.671	0.0167741
907.749	0.0168134
907.828	0.0167565
907.906	0.0166633
907.984	0.0167271
908.062	0.0165235
908.140	0.0165578
908.218	0.0167243
908.296	0.0166354
908.374	0.0165914
908.453	0.0165907
908.531	0.0166610
908.609	0.0167336
908.687	0.0164949
908.765	0.0165949
908.843	0.0166666
908.921	0.0165249
908.999	0.0165024
909.078	0.0164891
909.156	0.0165272
909.234	0.0164676
909.312	0.0165488
909.390	0.0165901
909.468	0.0165300
909.546	0.0165797
909.624	0.0165575
909.703	0.0164931
909.781	0.0164854
909.859	0.0166141
909.937	0.0165745
910.015	0.0165892
910.093	0.0164814
910.171	0.0165421
910.249	0.0167367
910.328	0.0165959
910.406	0.0166571
910.484	0.0167220
910.562	0.0164949
910.640	0.0165726
910.718	0.0166162
910.796	0.0164883
910.874	0.0166172
910.953	0.0166076
911.031	0.0164699
911.109	0.0164014
911.187	0.0166157
911.265	0.0165746
911.343	0.0165535
911.421	0.0165672
911.499	0.0163772
911.578	0.0165031
911.656	0.0165202
911.734	0.0165544
911.812	0.0165492
911.890	0.0164500
911.968	0.0164484
912.046	0.0164299
912.124	0.0165438
912.203	0.0165229
912.281	0.0165214
912.359	0.0164684
912.437	0.0164560
912.515	0.0164164
912.593	0.0164075
912.671	0.0164611
912.749	0.0163847
912.828	0.0164869
912.906	0.0165258
912.984	0.0164610
913.062	0.0164872
913.140	0.0165453
913.218	0.0164955
913.296	0.0164959
913.374	0.0165582
913.453	0.0165192
913.531	0.0165572
913.609	0.0166857
913.687	0.0165880
913.765	0.0166129
913.843	0.0164305
913.921	0.0166462
913.999	0.0165851
914.078	0.0166164
914.156	0.0166989
914.234	0.0165405
914.312	0.0163232
914.390	0.0166275
914.468	0.0165195
914.546	0.0166483
914.624	0.0166597
914.703	0.0165718
914.781	0.0165272
914.859	0.0166380
914.937	0.0166554
915.015	0.0165719
915.093	0.0165227
915.171	0.0165630
915.249	0.0165401
915.328	0.0165666
915.406	0.0166029
915.484	0.0165218
915.562	0.0167006
915.640	0.0166879
915.718	0.0165244
915.796	0.0166194
915.874	0.0166302
915.953	0.0166656
916.031	0.0166840
916.109	0.0167623
916.187	0.0168010
916.265	0.0167607
916.343	0.0169005
916.421	0.0168163
916.499	0.0166589
916.578	0.0167500
916.656	0.0166890
916.734	0.0168092
916.812	0.0166195
916.890	0.0165955
916.968	0.0169068
917.046	0.0166447
917.124	0.0167094
917.203	0.0166155
917.281	0.0166780
917.359	0.0166061
917.437	0.0165994
917.515	0.0165222
917.593	0.0164653
917.671	0.0166573
917.749	0.0168053
917.828	0.0168611
917.906	0.0166790
917.984	0.0166335
918.062	0.0167519
918.140	0.0166964
918.218	0.0168183
918.296	0.0168956
918.374	0.0167232
918.453	0.0167677
918.531	0.0168689
918.609	0.0167661
918.687	0.0169044
918.765	0.0168919
918.843	0.0168497
918.921	0.0168836
918.999	0.0167526
919.078	0.0168252
919.156	0.0166605
919.234	0.0167813
919.312	0.0167388
919.390	0.0166945
919.468	0.0166438
919.546	0.0167299
919.624	0.0166676
919.703	0.0166949
919.781	0.0166579
919.859	0.0166582
919.937	0.0166434
