06/10/2022	16:52:54	Ver.	4.1	UNKNOWN
Optical Delay	600.015094	Delta X		0.078125	Sweeps	1	Scan Rate	0/0
Coordinates	Axis 1	NaN	Axis 2	NaN	Axis 3	NaN	Axis 4	NaN	Axis 5	NaN	Axis 6	0.000000
TX Power	0.000000	RX Power	0.000000

600.015	0.0180667
600.093	0.0180560
600.171	0.0179999
600.249	0.0180225
600.328	0.0180664
600.406	0.0179510
600.484	0.0180226
600.562	0.0180737
600.640	0.0180051
600.718	0.0179192
600.796	0.0179817
600.874	0.0179480
600.953	0.0179501
601.031	0.0178364
601.109	0.0180035
601.187	0.0180041
601.265	0.0179456
601.343	0.0179181
601.421	0.0179991
601.499	0.0179518
601.578	0.0181194
601.656	0.0180791
601.734	0.0181275
601.812	0.0180423
601.890	0.0181320
601.968	0.0181059
602.046	0.0181205
602.124	0.0182556
602.203	0.0180209
602.281	0.0181849
602.359	0.0182635
602.437	0.0180967
602.515	0.0180753
602.593	0.0182185
602.671	0.0182143
602.749	0.0183128
602.828	0.0183828
602.906	0.0185110
602.984	0.0184122
603.062	0.0184929
603.140	0.0185048
603.218	0.0183877
603.296	0.0185351
603.374	0.0184723
603.453	0.0184464
603.531	0.0185345
603.609	0.0185070
603.687	0.0184130
603.765	0.0183910
603.843	0.0183622
603.921	0.0183323
603.999	0.0183464
604.078	0.0183692
604.156	0.0182406
604.234	0.0181373
604.312	0.0182143
604.390	0.0181954
604.468	0.0182288
604.546	0.0181576
604.624	0.0180730
604.703	0.0181033
604.781	0.0180659
604.859	0.0180016
604.937	0.0179768
605.015	0.0179200
605.093	0.0179247
605.171	0.0179418
605.249	0.0179855
605.328	0.0179682
605.406	0.0179302
605.484	0.0179402
605.562	0.0179198
605.640	0.0178658
605.718	0.0179465
605.796	0.0179333
605.874	0.0179043
605.953	0.0179655
606.031	0.0179079
606.109	0.0180108
606.187	0.0179609
606.265	0.0177928
606.343	0.0178333
606.421	0.0179912
606.499	0.0180473
606.578	0.0178393
606.656	0.0178373
606.734	0.0179336
606.812	0.0179670
606.890	0.0179478
606.968	0.0178843
607.046	0.0178291
607.124	0.0178872
607.203	0.0179753
607.281	0.0179356
607.359	0.0178922
607.437	0.0179453
607.515	0.0179318
607.593	0.0180118
607.671	0.0178136
607.749	0.0179527
607.828	0.0180278
607.906	0.0180547
607.984	0.0179609
608.062	0.0180101
608.140	0.0180040
608.218	0.0180568
608.296	0.0180494
608.374	0.0179187
608.453	0.0181369
608.531	0.0179192
608.609	0.0179592
608.687	0.0180693
608.765	0.0179510
608.843	0.0179317
608.921	0.0180283
608.999	0.0180212
609.078	0.0179283
609.156	0.0179497
609.234	0.0178315
609.312	0.0178306
609.390	0.0179190
609.468	0.0179041
609.546	0.0179138
609.624	0.0178300
609.703	0.0178998
609.781	0.0177868
609.859	0.0178932
609.937	0.0179301
610.015	0.0178913
610.093	0.0178579
610.171	0.0178199
610.249	0.0178513
610.328	0.0178716
610.406	0.0178735
610.484	0.0178368
610.562	0.0179304
610.640	0.0181651
610.718	0.0179220
610.796	0.0177763
610.874	0.0177640
610.953	0.0178726
611.031	0.0179335
611.109	0.0179695
611.187	0.0179676
611.265	0.0178638
611.343	0.0178069
611.421	0.0177896
611.499	0.0179520
611.578	0.0177170
611.656	0.0178030
611.734	0.0177242
611.812	0.0176814
611.890	0.0176811
611.968	0.0175317
612.046	0.0173711
612.124	0.0177251
612.203	0.0176680
612.281	0.0175391
612.359	0.0174449
612.437	0.0174150
612.515	0.0176511
612.593	0.0173441
612.671	0.0172682
612.749	0.0173417
612.828	0.0172112
612.906	0.0171822
612.984	0.0172801
613.062	0.0172227
613.140	0.0172815
613.218	0.0171039
613.296	0.0175621
613.374	0.0174655
613.453	0.0173665
613.531	0.0175525
613.609	0.0175665
613.687	0.0175203
613.765	0.0174768
613.843	0.0177118
613.921	0.0177301
613.999	0.0178442
614.078	0.0178005
614.156	0.0178637
614.234	0.0178118
614.312	0.0178936
614.390	0.0179710
614.468	0.0179122
614.546	0.0180989
614.624	0.0179745
614.703	0.0179143
614.781	0.0180655
614.859	0.0181786
614.937	0.0181367
615.015	0.0182458
615.093	0.0181538
615.171	0.0182083
615.249	0.0181748
615.328	0.0182307
615.406	0.0181239
615.484	0.0183253
615.562	0.0182482
615.640	0.0181889
615.718	0.0178820
615.796	0.0179501
615.874	0.0180463
615.953	0.0178920
616.031	0.0178648
616.109	0.0180529
616.187	0.0179028
616.265	0.0179448
616.343	0.0177532
616.421	0.0178905
616.499	0.0178503
616.578	0.0180045
616.656	0.0180801
616.734	0.0180332
616.812	0.0179539
616.890	0.0179480
616.968	0.0181768
617.046	0.0182668
617.124	0.0181271
617.203	0.0181821
617.281	0.0180978
617.359	0.0181124
617.437	0.0183695
617.515	0.0181735
617.593	0.0182997
617.671	0.0183971
617.749	0.0182404
617.828	0.0181355
617.906	0.0181876
617.984	0.0182959
618.062	0.0184563
618.140	0.0182560
618.218	0.0182155
618.296	0.0183119
618.374	0.0182953
618.453	0.0183328
618.531	0.0184522
618.609	0.0182911
618.687	0.0183285
618.765	0.0183771
618.843	0.0185751
618.921	0.0185017
618.999	0.0184396
619.078	0.0185420
619.156	0.0183454
619.234	0.0183372
619.312	0.0185125
619.390	0.0182777
619.468	0.0183855
619.546	0.0183910
619.624	0.0182825
619.703	0.0182523
619.781	0.0182642
619.859	0.0184660
619.937	0.0183340
620.015	0.0182884
620.093	0.0182787
620.171	0.0180914
620.249	0.0181931
620.328	0.0182354
620.406	0.0181528
620.484	0.0180122
620.562	0.0180341
620.640	0.0180001
620.718	0.0180545
620.796	0.0179069
620.874	0.0180721
620.953	0.0180614
621.031	0.0180309
621.109	0.0179285
621.187	0.0180428
621.265	0.0179861
621.343	0.0182047
621.421	0.0181376
621.499	0.0180324
621.578	0.0180771
621.656	0.0181242
621.734	0.0179620
621.812	0.0180936
621.890	0.0180461
621.968	0.0179787
622.046	0.0180688
622.124	0.0180888
622.203	0.0181434
622.281	0.0179536
622.359	0.0179793
622.437	0.0180560
622.515	0.0179358
622.593	0.0180519
622.671	0.0180957
622.749	0.0180245
622.828	0.0181069
622.906	0.0180083
622.984	0.0180045
623.062	0.0179882
623.140	0.0180753
623.218	0.0179999
623.296	0.0179616
623.374	0.0180029
623.453	0.0180833
623.531	0.0181018
623.609	0.0180278
623.687	0.0179710
623.765	0.0179885
623.843	0.0179728
623.921	0.0177869
623.999	0.0179264
624.078	0.0178255
624.156	0.0179345
624.234	0.0180119
624.312	0.0179971
624.390	0.0179680
624.468	0.0177879
624.546	0.0180645
624.624	0.0179372
624.703	0.0179118
624.781	0.0179665
624.859	0.0179020
624.937	0.0180556
625.015	0.0180238
625.093	0.0180437
625.171	0.0179297
625.249	0.0180692
625.328	0.0180241
625.406	0.0180767
625.484	0.0181257
625.562	0.0179288
625.640	0.0180934
625.718	0.0181848
625.796	0.0180821
625.874	0.0180782
625.953	0.0180524
626.031	0.0181074
626.109	0.0180618
626.187	0.0180908
626.265	0.0181042
626.343	0.0181225
626.421	0.0181951
626.499	0.0180817
626.578	0.0181425
626.656	0.0180825
626.734	0.0181166
626.812	0.0181023
626.890	0.0181287
626.968	0.0182345
627.046	0.0182008
627.124	0.0180883
627.203	0.0181155
627.281	0.0181909
627.359	0.0181680
627.437	0.0181447
627.515	0.0180977
627.593	0.0182827
627.671	0.0182402
627.749	0.0180730
627.828	0.0179756
627.906	0.0182438
627.984	0.0181487
628.062	0.0181000
628.140	0.0181938
628.218	0.0182475
628.296	0.0181684
628.374	0.0180775
628.453	0.0181544
628.531	0.0180968
628.609	0.0181253
628.687	0.0179443
628.765	0.0180226
628.843	0.0180611
628.921	0.0180708
628.999	0.0181332
629.078	0.0180549
629.156	0.0181103
629.234	0.0180597
629.312	0.0179671
629.390	0.0179263
629.468	0.0181378
629.546	0.0180810
629.624	0.0180022
629.703	0.0179940
629.781	0.0177166
629.859	0.0178956
629.937	0.0179719
630.015	0.0179110
630.093	0.0178970
630.171	0.0178503
630.249	0.0178722
630.328	0.0178864
630.406	0.0179825
630.484	0.0178662
630.562	0.0177968
630.640	0.0178988
630.718	0.0179508
630.796	0.0178034
630.874	0.0179098
630.953	0.0177776
631.031	0.0179226
631.109	0.0178481
631.187	0.0177898
631.265	0.0177009
631.343	0.0178967
631.421	0.0177964
631.499	0.0178579
631.578	0.0177620
631.656	0.0179607
631.734	0.0180384
631.812	0.0180113
631.890	0.0178649
631.968	0.0178353
632.046	0.0178027
632.124	0.0179321
632.203	0.0178837
632.281	0.0179634
632.359	0.0177670
632.437	0.0179354
632.515	0.0180415
632.593	0.0178812
632.671	0.0179271
632.749	0.0179532
632.828	0.0178481
632.906	0.0177806
632.984	0.0177496
633.062	0.0178763
633.140	0.0177661
633.218	0.0178835
633.296	0.0179057
633.374	0.0179345
633.453	0.0177880
633.531	0.0177858
633.609	0.0178967
633.687	0.0179835
633.765	0.0179049
633.843	0.0178893
633.921	0.0178725
633.999	0.0180400
634.078	0.0179788
634.156	0.0179146
634.234	0.0177979
634.312	0.0179642
634.390	0.0179928
634.468	0.0178886
634.546	0.0179587
634.624	0.0178397
634.703	0.0177233
634.781	0.0179906
634.859	0.0180226
634.937	0.0179144
635.015	0.0179933
635.093	0.0179519
635.171	0.0178692
635.249	0.0179797
635.328	0.0180191
635.406	0.0178664
635.484	0.0180123
635.562	0.0178683
635.640	0.0178107
635.718	0.0177818
635.796	0.0178881
635.874	0.0179407
635.953	0.0179364
636.031	0.0178809
636.109	0.0178002
636.187	0.0179420
636.265	0.0179357
636.343	0.0177703
636.421	0.0179359
636.499	0.0179945
636.578	0.0180029
636.656	0.0179310
636.734	0.0179342
636.812	0.0179224
636.890	0.0180062
636.968	0.0179703
637.046	0.0180231
637.124	0.0182419
637.203	0.0181472
637.281	0.0179102
637.359	0.0178932
637.437	0.0180039
637.515	0.0181135
637.593	0.0181522
637.671	0.0178597
637.749	0.0179615
637.828	0.0181033
637.906	0.0181209
637.984	0.0180835
638.062	0.0180299
638.140	0.0180222
638.218	0.0178932
638.296	0.0180775
638.374	0.0180329
638.453	0.0181331
638.531	0.0180304
638.609	0.0181178
638.687	0.0180365
638.765	0.0181464
638.843	0.0180360
638.921	0.0179974
638.999	0.0179272
639.078	0.0179762
639.156	0.0180820
639.234	0.0179906
639.312	0.0181710
639.390	0.0179614
639.468	0.0179427
639.546	0.0181527
639.624	0.0180932
639.703	0.0180228
639.781	0.0180038
639.859	0.0178895
639.937	0.0180280
640.015	0.0181295
640.093	0.0180637
640.171	0.0181643
640.249	0.0181814
640.328	0.0181118
640.406	0.0180107
640.484	0.0179240
640.562	0.0180630
640.640	0.0180244
640.718	0.0179210
640.796	0.0180258
640.874	0.0179919
640.953	0.0179153
641.031	0.0179630
641.109	0.0178174
641.187	0.0178902
641.265	0.0180154
641.343	0.0179145
641.421	0.0179536
641.499	0.0178592
641.578	0.0179807
641.656	0.0178689
641.734	0.0180475
641.812	0.0179303
641.890	0.0179201
641.968	0.0178881
642.046	0.0178344
642.124	0.0178658
642.203	0.0179421
642.281	0.0180389
642.359	0.0179820
642.437	0.0177947
642.515	0.0178865
642.593	0.0179630
642.671	0.0180923
642.749	0.0179919
642.828	0.0178541
642.906	0.0178699
642.984	0.0178838
643.062	0.0180876
643.140	0.0179666
643.218	0.0179215
643.296	0.0180571
643.374	0.0179912
643.453	0.0179240
643.531	0.0178863
643.609	0.0179390
643.687	0.0179870
643.765	0.0179417
643.843	0.0178102
643.921	0.0179922
643.999	0.0179094
644.078	0.0178365
644.156	0.0180724
644.234	0.0180273
644.312	0.0179083
644.390	0.0178849
644.468	0.0178352
644.546	0.0178946
644.624	0.0180123
644.703	0.0180383
644.781	0.0178255
644.859	0.0178602
644.937	0.0180135
645.015	0.0178794
645.093	0.0177325
645.171	0.0179668
645.249	0.0179339
645.328	0.0179398
645.406	0.0179110
645.484	0.0178612
645.562	0.0178903
645.640	0.0179623
645.718	0.0179796
645.796	0.0178587
645.874	0.0180122
645.953	0.0180345
646.031	0.0180881
646.109	0.0179413
646.187	0.0180916
646.265	0.0181883
646.343	0.0180997
646.421	0.0181091
646.499	0.0180722
646.578	0.0180590
646.656	0.0182413
646.734	0.0181604
646.812	0.0182214
646.890	0.0180614
646.968	0.0181789
647.046	0.0182391
647.124	0.0181770
647.203	0.0182560
647.281	0.0183111
647.359	0.0182008
647.437	0.0182080
647.515	0.0182423
647.593	0.0180980
647.671	0.0182516
647.749	0.0182384
647.828	0.0182332
647.906	0.0182132
647.984	0.0182054
648.062	0.0181944
648.140	0.0181130
648.218	0.0180634
648.296	0.0182196
648.374	0.0182288
648.453	0.0181562
648.531	0.0182212
648.609	0.0182269
648.687	0.0181136
648.765	0.0181803
648.843	0.0182237
648.921	0.0181981
648.999	0.0182623
649.078	0.0183551
649.156	0.0181430
649.234	0.0181145
649.312	0.0183961
649.390	0.0181290
649.468	0.0183584
649.546	0.0181700
649.624	0.0182278
649.703	0.0181615
649.781	0.0181939
649.859	0.0181882
649.937	0.0180830
650.015	0.0180653
650.093	0.0182282
650.171	0.0182005
650.249	0.0181392
650.328	0.0181530
650.406	0.0182100
650.484	0.0181570
650.562	0.0181606
650.640	0.0181102
650.718	0.0181760
650.796	0.0182254
650.874	0.0180084
650.953	0.0180599
651.031	0.0180486
651.109	0.0182586
651.187	0.0181050
651.265	0.0181008
651.343	0.0180859
651.421	0.0181357
651.499	0.0182724
651.578	0.0180111
651.656	0.0182825
651.734	0.0180998
651.812	0.0180293
651.890	0.0179558
651.968	0.0179773
652.046	0.0181232
652.124	0.0180353
652.203	0.0179428
652.281	0.0180518
652.359	0.0179874
652.437	0.0179897
652.515	0.0179721
652.593	0.0179312
652.671	0.0179507
652.749	0.0179680
652.828	0.0178036
652.906	0.0179990
652.984	0.0180748
653.062	0.0179727
653.140	0.0181073
653.218	0.0178963
653.296	0.0180224
653.374	0.0180671
653.453	0.0181242
653.531	0.0179452
653.609	0.0179245
653.687	0.0180631
653.765	0.0180798
653.843	0.0179284
653.921	0.0180382
653.999	0.0180672
654.078	0.0178863
654.156	0.0180190
654.234	0.0180432
654.312	0.0179527
654.390	0.0178999
654.468	0.0180523
654.546	0.0179940
654.624	0.0178514
654.703	0.0179273
654.781	0.0179731
654.859	0.0179395
654.937	0.0180718
655.015	0.0179604
655.093	0.0178970
655.171	0.0178568
655.249	0.0178439
655.328	0.0179123
655.406	0.0178881
655.484	0.0179234
655.562	0.0179391
655.640	0.0179914
655.718	0.0179501
655.796	0.0179253
655.874	0.0178952
655.953	0.0177490
656.031	0.0177743
656.109	0.0178297
656.187	0.0179505
656.265	0.0179118
656.343	0.0179357
656.421	0.0178430
656.499	0.0178083
656.578	0.0178355
656.656	0.0178436
656.734	0.0179146
656.812	0.0177933
656.890	0.0177203
656.968	0.0178603
657.046	0.0179672
657.124	0.0179365
657.203	0.0178896
657.281	0.0179636
657.359	0.0180627
657.437	0.0180073
657.515	0.0179759
657.593	0.0179179
657.671	0.0180836
657.749	0.0181510
657.828	0.0178976
657.906	0.0179526
657.984	0.0180457
658.062	0.0181273
658.140	0.0180243
658.218	0.0180611
658.296	0.0179010
658.374	0.0180073
658.453	0.0181382
658.531	0.0180196
658.609	0.0180232
658.687	0.0180725
658.765	0.0179546
658.843	0.0180765
658.921	0.0180898
658.999	0.0180424
659.078	0.0180724
659.156	0.0180791
659.234	0.0180050
659.312	0.0179794
659.390	0.0179118
659.468	0.0180093
659.546	0.0180057
659.624	0.0180481
659.703	0.0180302
659.781	0.0178965
659.859	0.0179520
659.937	0.0179829
660.015	0.0181599
660.093	0.0179147
660.171	0.0180945
660.249	0.0179327
660.328	0.0178513
660.406	0.0180628
660.484	0.0178988
660.562	0.0179264
660.640	0.0180420
660.718	0.0180748
660.796	0.0180492
660.874	0.0179660
660.953	0.0178245
661.031	0.0180821
661.109	0.0179935
661.187	0.0180589
661.265	0.0180521
661.343	0.0178978
661.421	0.0179800
661.499	0.0178762
661.578	0.0179865
661.656	0.0179617
661.734	0.0178564
661.812	0.0179153
661.890	0.0179197
661.968	0.0180212
662.046	0.0179582
662.124	0.0180286
662.203	0.0180085
662.281	0.0180337
662.359	0.0179996
662.437	0.0180105
662.515	0.0178500
662.593	0.0179934
662.671	0.0180981
662.749	0.0178974
662.828	0.0179385
662.906	0.0180783
662.984	0.0179494
663.062	0.0179317
663.140	0.0180363
663.218	0.0180627
663.296	0.0180188
663.374	0.0180009
663.453	0.0180116
663.531	0.0178095
663.609	0.0179737
663.687	0.0179400
663.765	0.0180508
663.843	0.0179874
663.921	0.0179381
663.999	0.0179589
664.078	0.0179786
664.156	0.0178344
664.234	0.0179899
664.312	0.0181763
664.390	0.0179764
664.468	0.0180527
664.546	0.0181629
664.624	0.0180245
664.703	0.0180782
664.781	0.0180897
664.859	0.0181001
664.937	0.0179264
665.015	0.0179971
665.093	0.0181702
665.171	0.0181541
665.249	0.0180681
665.328	0.0181199
665.406	0.0182072
665.484	0.0181018
665.562	0.0181064
665.640	0.0180679
665.718	0.0180595
665.796	0.0180862
665.874	0.0181564
665.953	0.0182411
666.031	0.0181280
666.109	0.0182137
666.187	0.0181000
666.265	0.0179737
666.343	0.0179866
666.421	0.0180353
666.499	0.0180984
666.578	0.0181813
666.656	0.0181294
666.734	0.0180650
666.812	0.0180913
666.890	0.0181149
666.968	0.0180904
667.046	0.0181863
667.124	0.0180042
667.203	0.0180016
667.281	0.0180495
667.359	0.0179642
667.437	0.0181263
667.515	0.0182021
667.593	0.0180851
667.671	0.0181118
667.749	0.0180489
667.828	0.0182137
667.906	0.0181384
667.984	0.0180045
668.062	0.0181473
668.140	0.0181163
668.218	0.0180009
668.296	0.0181641
668.374	0.0181364
668.453	0.0181087
668.531	0.0180624
668.609	0.0181683
668.687	0.0181778
668.765	0.0180700
668.843	0.0180703
668.921	0.0181165
668.999	0.0181060
669.078	0.0180936
669.156	0.0180787
669.234	0.0179993
669.312	0.0180961
669.390	0.0180281
669.468	0.0180222
669.546	0.0179464
669.624	0.0180242
669.703	0.0180179
669.781	0.0180181
669.859	0.0179709
669.937	0.0181059
670.015	0.0180932
670.093	0.0180503
670.171	0.0180985
670.249	0.0180029
670.328	0.0180714
670.406	0.0182161
670.484	0.0181502
670.562	0.0181043
670.640	0.0181655
670.718	0.0182360
670.796	0.0182498
670.874	0.0181866
670.953	0.0181211
671.031	0.0180800
671.109	0.0184083
671.187	0.0183285
671.265	0.0180243
671.343	0.0180411
671.421	0.0182709
671.499	0.0182191
671.578	0.0180699
671.656	0.0181987
671.734	0.0182710
671.812	0.0182135
671.890	0.0183225
671.968	0.0182772
672.046	0.0182501
672.124	0.0181983
672.203	0.0182220
672.281	0.0182190
672.359	0.0183039
672.437	0.0183914
672.515	0.0181718
672.593	0.0182039
672.671	0.0182305
672.749	0.0181557
672.828	0.0182038
672.906	0.0181104
672.984	0.0180547
673.062	0.0181593
673.140	0.0181979
673.218	0.0180949
673.296	0.0181201
673.374	0.0180977
673.453	0.0181778
673.531	0.0182408
673.609	0.0179775
673.687	0.0180066
673.765	0.0179466
673.843	0.0178982
673.921	0.0180318
673.999	0.0179583
674.078	0.0180315
674.156	0.0179547
674.234	0.0179137
674.312	0.0180286
674.390	0.0179637
674.468	0.0179282
674.546	0.0180478
674.624	0.0179372
674.703	0.0178829
674.781	0.0180595
674.859	0.0178299
674.937	0.0180095
675.015	0.0179546
675.093	0.0181160
675.171	0.0180169
675.249	0.0180711
675.328	0.0180198
675.406	0.0179645
675.484	0.0181346
675.562	0.0181274
675.640	0.0180361
675.718	0.0179702
675.796	0.0181066
675.874	0.0180926
675.953	0.0180690
676.031	0.0180421
676.109	0.0180831
676.187	0.0180293
676.265	0.0181059
676.343	0.0180721
676.421	0.0181342
676.499	0.0180453
676.578	0.0180901
676.656	0.0181012
676.734	0.0181083
676.812	0.0181641
676.890	0.0180299
676.968	0.0180846
677.046	0.0182350
677.124	0.0181057
677.203	0.0182532
677.281	0.0182285
677.359	0.0181955
677.437	0.0180647
677.515	0.0180326
677.593	0.0180363
677.671	0.0180870
677.749	0.0181711
677.828	0.0180404
677.906	0.0180241
677.984	0.0181476
678.062	0.0181940
678.140	0.0181244
678.218	0.0180014
678.296	0.0180703
678.374	0.0180038
678.453	0.0179547
678.531	0.0180161
678.609	0.0181055
678.687	0.0181215
678.765	0.0180511
678.843	0.0181525
678.921	0.0180688
678.999	0.0179726
679.078	0.0179951
679.156	0.0180753
679.234	0.0180999
679.312	0.0179940
679.390	0.0179330
679.468	0.0181007
679.546	0.0180695
679.624	0.0180264
679.703	0.0179777
679.781	0.0180362
679.859	0.0179765
679.937	0.0180524
680.015	0.0179800
680.093	0.0180213
680.171	0.0180966
680.249	0.0180500
680.328	0.0180524
680.406	0.0179706
680.484	0.0177972
680.562	0.0178927
680.640	0.0180869
680.718	0.0178292
680.796	0.0177523
680.874	0.0178248
680.953	0.0178393
681.031	0.0177811
681.109	0.0177142
681.187	0.0177773
681.265	0.0177618
681.343	0.0177537
681.421	0.0176214
681.499	0.0177345
681.578	0.0177819
681.656	0.0177953
681.734	0.0177627
681.812	0.0177832
681.890	0.0177605
681.968	0.0178191
682.046	0.0176942
682.124	0.0178179
682.203	0.0177982
682.281	0.0176797
682.359	0.0177165
682.437	0.0177426
682.515	0.0176275
682.593	0.0178875
682.671	0.0178667
682.749	0.0177772
682.828	0.0177290
682.906	0.0177380
682.984	0.0178207
683.062	0.0177843
683.140	0.0177778
683.218	0.0178313
683.296	0.0177444
683.374	0.0178574
683.453	0.0178427
683.531	0.0177959
683.609	0.0177968
683.687	0.0178101
683.765	0.0177473
683.843	0.0177765
683.921	0.0176844
683.999	0.0179311
684.078	0.0179089
684.156	0.0178584
684.234	0.0176699
684.312	0.0178281
684.390	0.0177292
684.468	0.0177085
684.546	0.0177272
684.624	0.0177467
684.703	0.0177692
684.781	0.0177356
684.859	0.0178931
684.937	0.0178949
685.015	0.0178017
685.093	0.0178534
685.171	0.0179265
685.249	0.0178388
685.328	0.0177930
685.406	0.0177073
685.484	0.0177943
685.562	0.0177428
685.640	0.0176720
685.718	0.0178152
685.796	0.0178435
685.874	0.0177744
685.953	0.0177029
686.031	0.0177507
686.109	0.0177560
686.187	0.0177597
686.265	0.0179092
686.343	0.0178517
686.421	0.0177428
686.499	0.0177642
686.578	0.0178663
686.656	0.0177990
686.734	0.0177292
686.812	0.0177876
686.890	0.0177667
686.968	0.0177611
687.046	0.0177943
687.124	0.0177567
687.203	0.0178967
687.281	0.0178191
687.359	0.0177091
687.437	0.0176810
687.515	0.0177400
687.593	0.0178030
687.671	0.0178368
687.749	0.0179638
687.828	0.0178256
687.906	0.0178185
687.984	0.0177183
688.062	0.0178905
688.140	0.0178021
688.218	0.0177545
688.296	0.0178465
688.374	0.0179265
688.453	0.0179275
688.531	0.0178342
688.609	0.0178268
688.687	0.0178453
688.765	0.0178353
688.843	0.0179490
688.921	0.0179208
688.999	0.0179343
689.078	0.0178694
689.156	0.0179116
689.234	0.0178719
689.312	0.0180672
689.390	0.0179129
689.468	0.0179178
689.546	0.0180051
689.624	0.0179342
689.703	0.0178829
689.781	0.0179492
689.859	0.0179408
689.937	0.0179446
690.015	0.0179859
690.093	0.0177959
690.171	0.0179157
690.249	0.0179661
690.328	0.0179188
690.406	0.0180407
690.484	0.0179117
690.562	0.0180151
690.640	0.0180665
690.718	0.0178952
690.796	0.0179754
690.874	0.0180318
690.953	0.0179492
691.031	0.0179066
691.109	0.0180788
691.187	0.0180813
691.265	0.0180493
691.343	0.0178851
691.421	0.0180196
691.499	0.0180947
691.578	0.0180980
691.656	0.0180825
691.734	0.0178380
691.812	0.0180885
691.890	0.0180435
691.968	0.0180577
692.046	0.0180755
692.124	0.0181136
692.203	0.0179978
692.281	0.0181796
692.359	0.0181514
692.437	0.0179884
692.515	0.0181023
692.593	0.0181531
692.671	0.0181581
692.749	0.0180611
692.828	0.0182327
692.906	0.0181961
692.984	0.0181635
693.062	0.0181709
693.140	0.0182018
693.218	0.0181133
693.296	0.0182224
693.374	0.0181911
693.453	0.0182913
693.531	0.0181472
693.609	0.0181776
693.687	0.0181953
693.765	0.0182726
693.843	0.0182181
693.921	0.0183797
693.999	0.0181937
694.078	0.0181588
694.156	0.0182353
694.234	0.0181272
694.312	0.0181137
694.390	0.0181508
694.468	0.0181945
694.546	0.0183664
694.624	0.0181745
694.703	0.0180219
694.781	0.0182207
694.859	0.0181087
694.937	0.0182035
695.015	0.0180148
695.093	0.0180527
695.171	0.0181511
695.249	0.0182165
695.328	0.0182490
695.406	0.0182520
695.484	0.0181159
695.562	0.0182349
695.640	0.0182318
695.718	0.0180776
695.796	0.0180919
695.874	0.0181337
695.953	0.0181921
696.031	0.0181750
696.109	0.0181749
696.187	0.0179411
696.265	0.0181458
696.343	0.0181070
696.421	0.0181463
696.499	0.0181934
696.578	0.0183215
696.656	0.0181196
696.734	0.0180440
696.812	0.0181200
696.890	0.0183514
696.968	0.0181059
697.046	0.0179800
697.124	0.0180983
697.203	0.0183557
697.281	0.0181293
697.359	0.0180647
697.437	0.0181567
697.515	0.0182780
697.593	0.0182088
697.671	0.0181754
697.749	0.0181950
697.828	0.0181155
697.906	0.0182390
697.984	0.0183365
698.062	0.0182439
698.140	0.0182512
698.218	0.0181761
698.296	0.0182445
698.374	0.0182477
698.453	0.0183013
698.531	0.0181734
698.609	0.0181180
698.687	0.0181688
698.765	0.0181085
698.843	0.0181625
698.921	0.0182150
698.999	0.0180048
699.078	0.0180360
699.156	0.0180907
699.234	0.0179707
699.312	0.0180082
699.390	0.0181323
699.468	0.0180733
699.546	0.0179171
699.624	0.0181917
699.703	0.0181215
699.781	0.0179236
699.859	0.0180708
699.937	0.0181321
700.015	0.0180855
700.093	0.0181769
700.171	0.0180378
700.249	0.0181280
700.328	0.0181746
700.406	0.0181935
700.484	0.0180621
700.562	0.0181541
700.640	0.0182205
700.718	0.0182044
700.796	0.0180672
700.874	0.0181208
700.953	0.0180057
701.031	0.0180309
701.109	0.0181789
701.187	0.0180754
701.265	0.0180075
701.343	0.0182532
701.421	0.0180443
701.499	0.0182607
701.578	0.0180958
701.656	0.0180988
701.734	0.0179643
701.812	0.0181322
701.890	0.0181248
701.968	0.0180055
702.046	0.0179944
702.124	0.0179807
702.203	0.0180328
702.281	0.0179079
702.359	0.0178210
702.437	0.0179027
702.515	0.0179504
702.593	0.0178822
702.671	0.0179109
702.749	0.0179890
702.828	0.0179452
702.906	0.0179855
702.984	0.0180128
703.062	0.0178387
703.140	0.0179025
703.218	0.0179961
703.296	0.0179010
703.374	0.0180717
703.453	0.0177833
703.531	0.0179051
703.609	0.0179127
703.687	0.0179882
703.765	0.0179500
703.843	0.0178873
703.921	0.0177656
703.999	0.0176669
704.078	0.0177710
704.156	0.0177827
704.234	0.0178639
704.312	0.0177673
704.390	0.0177377
704.468	0.0178917
704.546	0.0177898
704.624	0.0176955
704.703	0.0177405
704.781	0.0177804
704.859	0.0178251
704.937	0.0178306
705.015	0.0177954
705.093	0.0178533
705.171	0.0177673
705.249	0.0177438
705.328	0.0178472
705.406	0.0180080
705.484	0.0177761
705.562	0.0178169
705.640	0.0178732
705.718	0.0179550
705.796	0.0177022
705.874	0.0178403
705.953	0.0178326
706.031	0.0178851
706.109	0.0177829
706.187	0.0177548
706.265	0.0176472
706.343	0.0177322
706.421	0.0177686
706.499	0.0177333
706.578	0.0177406
706.656	0.0177244
706.734	0.0177134
706.812	0.0177280
706.890	0.0178062
706.968	0.0175816
707.046	0.0177129
707.124	0.0176048
707.203	0.0178043
707.281	0.0177129
707.359	0.0177496
707.437	0.0177614
707.515	0.0178575
707.593	0.0177219
707.671	0.0176293
707.749	0.0176677
707.828	0.0176553
707.906	0.0177464
707.984	0.0177576
708.062	0.0178050
708.140	0.0176727
708.218	0.0177128
708.296	0.0178365
708.374	0.0177425
708.453	0.0177437
708.531	0.0179018
708.609	0.0179281
708.687	0.0178276
708.765	0.0178158
708.843	0.0178155
708.921	0.0177721
708.999	0.0178482
709.078	0.0179049
709.156	0.0179634
709.234	0.0176976
709.312	0.0178741
709.390	0.0179588
709.468	0.0179007
709.546	0.0177615
709.624	0.0177325
709.703	0.0178511
709.781	0.0179387
709.859	0.0178511
709.937	0.0179145
710.015	0.0179098
710.093	0.0177309
710.171	0.0178983
710.249	0.0179915
710.328	0.0179045
710.406	0.0178664
710.484	0.0179374
710.562	0.0178746
710.640	0.0178258
710.718	0.0181070
710.796	0.0180707
710.874	0.0178540
710.953	0.0178711
711.031	0.0180014
711.109	0.0179388
711.187	0.0179361
711.265	0.0178351
711.343	0.0178996
711.421	0.0178481
711.499	0.0179246
711.578	0.0180229
711.656	0.0179553
711.734	0.0180863
711.812	0.0180493
711.890	0.0179310
711.968	0.0179000
712.046	0.0178733
712.124	0.0179813
712.203	0.0179832
712.281	0.0179720
712.359	0.0178638
712.437	0.0179232
712.515	0.0179096
712.593	0.0179763
712.671	0.0178150
712.749	0.0180023
712.828	0.0178362
712.906	0.0178890
712.984	0.0179383
713.062	0.0178115
713.140	0.0180330
713.218	0.0179520
713.296	0.0178918
713.374	0.0179014
713.453	0.0178128
713.531	0.0178590
713.609	0.0178487
713.687	0.0178789
713.765	0.0178761
713.843	0.0178147
713.921	0.0176575
713.999	0.0179069
714.078	0.0178613
714.156	0.0177368
714.234	0.0178439
714.312	0.0179291
714.390	0.0179204
714.468	0.0178375
714.546	0.0177840
714.624	0.0179485
714.703	0.0179175
714.781	0.0180595
714.859	0.0178809
714.937	0.0179955
715.015	0.0179429
715.093	0.0180571
715.171	0.0179269
715.249	0.0179389
715.328	0.0180405
715.406	0.0180007
715.484	0.0180382
715.562	0.0180714
715.640	0.0180469
715.718	0.0180511
715.796	0.0181603
715.874	0.0180664
715.953	0.0180590
716.031	0.0180289
716.109	0.0180505
716.187	0.0181697
716.265	0.0179402
716.343	0.0180065
716.421	0.0180875
716.499	0.0182100
716.578	0.0180252
716.656	0.0180303
716.734	0.0180722
716.812	0.0180595
716.890	0.0181172
716.968	0.0179740
717.046	0.0181702
717.124	0.0181847
717.203	0.0181953
717.281	0.0181390
717.359	0.0181659
717.437	0.0180670
717.515	0.0179577
717.593	0.0182389
717.671	0.0180972
717.749	0.0179784
717.828	0.0180122
717.906	0.0180903
717.984	0.0182227
718.062	0.0182844
718.140	0.0181224
718.218	0.0181680
718.296	0.0181784
718.374	0.0181124
718.453	0.0182080
718.531	0.0182167
718.609	0.0181935
718.687	0.0183134
718.765	0.0181949
718.843	0.0182365
718.921	0.0182830
718.999	0.0182648
719.078	0.0181248
719.156	0.0181418
719.234	0.0181893
719.312	0.0182851
719.390	0.0183385
719.468	0.0181759
719.546	0.0181464
719.624	0.0183239
719.703	0.0182227
719.781	0.0180875
719.859	0.0181824
719.937	0.0181496
720.015	0.0182082
720.093	0.0181893
720.171	0.0182288
720.249	0.0181735
720.328	0.0181259
720.406	0.0180072
720.484	0.0182023
720.562	0.0181212
720.640	0.0181539
720.718	0.0179819
720.796	0.0180383
720.874	0.0181644
720.953	0.0181331
721.031	0.0181310
721.109	0.0181989
721.187	0.0180849
721.265	0.0180311
721.343	0.0181554
721.421	0.0180917
721.499	0.0180934
721.578	0.0180665
721.656	0.0180233
721.734	0.0181958
721.812	0.0181495
721.890	0.0181271
721.968	0.0182275
722.046	0.0180975
722.124	0.0181654
722.203	0.0180840
722.281	0.0181231
722.359	0.0181586
722.437	0.0181719
722.515	0.0182707
722.593	0.0182228
722.671	0.0182242
722.749	0.0182178
722.828	0.0180431
722.906	0.0181596
722.984	0.0181450
723.062	0.0181387
723.140	0.0182317
723.218	0.0180998
723.296	0.0181499
723.374	0.0182056
723.453	0.0181964
723.531	0.0181725
723.609	0.0182861
723.687	0.0182358
723.765	0.0180822
723.843	0.0181531
723.921	0.0181082
723.999	0.0181048
724.078	0.0181062
724.156	0.0182394
724.234	0.0180716
724.312	0.0179710
724.390	0.0181367
724.468	0.0180525
724.546	0.0180767
724.624	0.0181995
724.703	0.0180238
724.781	0.0180703
724.859	0.0179971
724.937	0.0179816
725.015	0.0180215
725.093	0.0182875
725.171	0.0180762
725.249	0.0180533
725.328	0.0181747
725.406	0.0181632
725.484	0.0182260
725.562	0.0182132
725.640	0.0180725
725.718	0.0181517
725.796	0.0181959
725.874	0.0181464
725.953	0.0182430
726.031	0.0180495
726.109	0.0182294
726.187	0.0181099
726.265	0.0181439
726.343	0.0180917
726.421	0.0182327
726.499	0.0181750
726.578	0.0182097
726.656	0.0181896
726.734	0.0181467
726.812	0.0180991
726.890	0.0180991
726.968	0.0181357
727.046	0.0182056
727.124	0.0181182
727.203	0.0179919
727.281	0.0181393
727.359	0.0179560
727.437	0.0180778
727.515	0.0181212
727.593	0.0180595
727.671	0.0180661
727.749	0.0180513
727.828	0.0180695
727.906	0.0180428
727.984	0.0180740
728.062	0.0179736
728.140	0.0179992
728.218	0.0180262
728.296	0.0179401
728.374	0.0180428
728.453	0.0180615
728.531	0.0179870
728.609	0.0178759
728.687	0.0178205
728.765	0.0178851
728.843	0.0179243
728.921	0.0179241
728.999	0.0179490
729.078	0.0178958
729.156	0.0178497
729.234	0.0179337
729.312	0.0179371
729.390	0.0179425
729.468	0.0180102
729.546	0.0180421
729.624	0.0178308
729.703	0.0179719
729.781	0.0180171
729.859	0.0178561
729.937	0.0177453
730.015	0.0178541
730.093	0.0178063
730.171	0.0179071
730.249	0.0178488
730.328	0.0179025
730.406	0.0179926
730.484	0.0177899
730.562	0.0178899
730.640	0.0179430
730.718	0.0178803
730.796	0.0178902
730.874	0.0178277
730.953	0.0178304
731.031	0.0176551
731.109	0.0177949
731.187	0.0177192
731.265	0.0177489
731.343	0.0176884
731.421	0.0177624
731.499	0.0178664
731.578	0.0176647
731.656	0.0176964
731.734	0.0176488
731.812	0.0178404
731.890	0.0176417
731.968	0.0175725
732.046	0.0175980
732.124	0.0177604
732.203	0.0175873
732.281	0.0176777
732.359	0.0175655
732.437	0.0176500
732.515	0.0176361
732.593	0.0176857
732.671	0.0177520
732.749	0.0176231
732.828	0.0176762
732.906	0.0176830
732.984	0.0178307
733.062	0.0178619
733.140	0.0178152
733.218	0.0178970
733.296	0.0179329
733.374	0.0179595
733.453	0.0178381
733.531	0.0180759
733.609	0.0179955
733.687	0.0179833
733.765	0.0180709
733.843	0.0181391
733.921	0.0180639
733.999	0.0181361
734.078	0.0181858
734.156	0.0182068
734.234	0.0182039
734.312	0.0181515
734.390	0.0182464
734.468	0.0182162
734.546	0.0182312
734.624	0.0182476
734.703	0.0183481
734.781	0.0182953
734.859	0.0181963
734.937	0.0181131
735.015	0.0180756
735.093	0.0179733
735.171	0.0181924
735.249	0.0180267
735.328	0.0181567
735.406	0.0180387
735.484	0.0180171
735.562	0.0178428
735.640	0.0179765
735.718	0.0179089
735.796	0.0179622
735.874	0.0178976
735.953	0.0179311
736.031	0.0179102
736.109	0.0179270
736.187	0.0179681
736.265	0.0179174
736.343	0.0179314
736.421	0.0178501
736.499	0.0177997
736.578	0.0179224
736.656	0.0178799
736.734	0.0177213
736.812	0.0178475
736.890	0.0178766
736.968	0.0178838
737.046	0.0178291
737.124	0.0179588
737.203	0.0179388
737.281	0.0179958
737.359	0.0179255
737.437	0.0178713
737.515	0.0179021
737.593	0.0179700
737.671	0.0177950
737.749	0.0179048
737.828	0.0178617
737.906	0.0179533
737.984	0.0179852
738.062	0.0179829
738.140	0.0178571
738.218	0.0180319
738.296	0.0179301
738.374	0.0179753
738.453	0.0179208
738.531	0.0178641
738.609	0.0179369
738.687	0.0179292
738.765	0.0180264
738.843	0.0179774
738.921	0.0179435
738.999	0.0180247
739.078	0.0181040
739.156	0.0180154
739.234	0.0180583
739.312	0.0180837
739.390	0.0180186
739.468	0.0180988
739.546	0.0180746
739.624	0.0180130
739.703	0.0181398
739.781	0.0181493
739.859	0.0180617
739.937	0.0181249
740.015	0.0181169
740.093	0.0179775
740.171	0.0180822
740.249	0.0181525
740.328	0.0181258
740.406	0.0180545
740.484	0.0181684
740.562	0.0181422
740.640	0.0180756
740.718	0.0181203
740.796	0.0181149
740.874	0.0181673
740.953	0.0181276
741.031	0.0181252
741.109	0.0179819
741.187	0.0182886
741.265	0.0182154
741.343	0.0180908
741.421	0.0182529
741.499	0.0183218
741.578	0.0182483
741.656	0.0181847
741.734	0.0181019
741.812	0.0181512
741.890	0.0182468
741.968	0.0182175
742.046	0.0180361
742.124	0.0181515
742.203	0.0182304
742.281	0.0181845
742.359	0.0181043
742.437	0.0180537
742.515	0.0181964
742.593	0.0180384
742.671	0.0181155
742.749	0.0180478
742.828	0.0180712
742.906	0.0182173
742.984	0.0181297
743.062	0.0181734
743.140	0.0180676
743.218	0.0180786
743.296	0.0181635
743.374	0.0181133
743.453	0.0181393
743.531	0.0179666
743.609	0.0179887
743.687	0.0180093
743.765	0.0180411
743.843	0.0180593
743.921	0.0179858
743.999	0.0179214
744.078	0.0179038
744.156	0.0179410
744.234	0.0179516
744.312	0.0179949
744.390	0.0180809
744.468	0.0180401
744.546	0.0180304
744.624	0.0180528
744.703	0.0180360
744.781	0.0179740
744.859	0.0179395
744.937	0.0180441
745.015	0.0180099
745.093	0.0179489
745.171	0.0180993
745.249	0.0181079
745.328	0.0180730
745.406	0.0180414
745.484	0.0180691
745.562	0.0180453
745.640	0.0181479
745.718	0.0180422
745.796	0.0180503
745.874	0.0179987
745.953	0.0179722
746.031	0.0181492
746.109	0.0181576
746.187	0.0181422
746.265	0.0181194
746.343	0.0179807
746.421	0.0180034
746.499	0.0180270
746.578	0.0181081
746.656	0.0181100
746.734	0.0180291
746.812	0.0179684
746.890	0.0178858
746.968	0.0179742
747.046	0.0179420
747.124	0.0179156
747.203	0.0179827
747.281	0.0180640
747.359	0.0179134
747.437	0.0180383
747.515	0.0179513
747.593	0.0178823
747.671	0.0179357
747.749	0.0180763
747.828	0.0179440
747.906	0.0178957
747.984	0.0179436
748.062	0.0181145
748.140	0.0179755
748.218	0.0180383
748.296	0.0180042
748.374	0.0179387
748.453	0.0181081
748.531	0.0180936
748.609	0.0180452
748.687	0.0178309
748.765	0.0180214
748.843	0.0180426
748.921	0.0179240
748.999	0.0179077
749.078	0.0180074
749.156	0.0180285
749.234	0.0180579
749.312	0.0180342
749.390	0.0179478
749.468	0.0180904
749.546	0.0180980
749.624	0.0179304
749.703	0.0179412
749.781	0.0178993
749.859	0.0180473
749.937	0.0180765
750.015	0.0178741
750.093	0.0179646
750.171	0.0179684
750.249	0.0179681
750.328	0.0179546
750.406	0.0178938
750.484	0.0178844
750.562	0.0179068
750.640	0.0179286
750.718	0.0179077
750.796	0.0179552
750.874	0.0179381
750.953	0.0178001
751.031	0.0179460
751.109	0.0179502
751.187	0.0179152
751.265	0.0179202
751.343	0.0180712
751.421	0.0179759
751.499	0.0179311
751.578	0.0179707
751.656	0.0179265
751.734	0.0178926
751.812	0.0179952
751.890	0.0179755
751.968	0.0179914
752.046	0.0179827
752.124	0.0180184
752.203	0.0179639
752.281	0.0178939
752.359	0.0179016
752.437	0.0179253
752.515	0.0178582
752.593	0.0178852
752.671	0.0179210
752.749	0.0179755
752.828	0.0179483
752.906	0.0178913
752.984	0.0179378
753.062	0.0178329
753.140	0.0178481
753.218	0.0177180
753.296	0.0176955
753.374	0.0178352
753.453	0.0177271
753.531	0.0178530
753.609	0.0178527
753.687	0.0178458
753.765	0.0176975
753.843	0.0178233
753.921	0.0179261
753.999	0.0179572
754.078	0.0177540
754.156	0.0178817
754.234	0.0177410
754.312	0.0176158
754.390	0.0177326
754.468	0.0178808
754.546	0.0178592
754.624	0.0176905
754.703	0.0177740
754.781	0.0177763
754.859	0.0178262
754.937	0.0178557
755.015	0.0177671
755.093	0.0178938
755.171	0.0178197
755.249	0.0178334
755.328	0.0178819
755.406	0.0178247
755.484	0.0178371
755.562	0.0177881
755.640	0.0178423
755.718	0.0179358
755.796	0.0178988
755.874	0.0179098
755.953	0.0179507
756.031	0.0179067
756.109	0.0179067
756.187	0.0179153
756.265	0.0178938
756.343	0.0180224
756.421	0.0178854
756.499	0.0180252
756.578	0.0179687
756.656	0.0178204
756.734	0.0179069
756.812	0.0179581
756.890	0.0179042
756.968	0.0179184
757.046	0.0180814
757.124	0.0178915
757.203	0.0180493
757.281	0.0179069
757.359	0.0179292
757.437	0.0180271
757.515	0.0178818
757.593	0.0179345
757.671	0.0179395
757.749	0.0179507
757.828	0.0180391
757.906	0.0180517
757.984	0.0180876
758.062	0.0180590
758.140	0.0179314
758.218	0.0179410
758.296	0.0180270
758.374	0.0181178
758.453	0.0179552
758.531	0.0178574
758.609	0.0178660
758.687	0.0180007
758.765	0.0179541
758.843	0.0179211
758.921	0.0178961
758.999	0.0179127
759.078	0.0179028
759.156	0.0178981
759.234	0.0179086
759.312	0.0180687
759.390	0.0180625
759.468	0.0180052
759.546	0.0179906
759.624	0.0179929
759.703	0.0179850
759.781	0.0180635
759.859	0.0178381
759.937	0.0179472
760.015	0.0179736
760.093	0.0180074
760.171	0.0179131
760.249	0.0180640
760.328	0.0180547
760.406	0.0179450
760.484	0.0180280
760.562	0.0179911
760.640	0.0179359
760.718	0.0179991
760.796	0.0179870
760.874	0.0180305
760.953	0.0181002
761.031	0.0181182
761.109	0.0179903
761.187	0.0179990
761.265	0.0180244
761.343	0.0180672
761.421	0.0179453
761.499	0.0178932
761.578	0.0180528
761.656	0.0180643
761.734	0.0180016
761.812	0.0179771
761.890	0.0178586
761.968	0.0180656
762.046	0.0179533
762.124	0.0179896
762.203	0.0177933
762.281	0.0179958
762.359	0.0179473
762.437	0.0177882
762.515	0.0178971
762.593	0.0179509
762.671	0.0179943
762.749	0.0181389
762.828	0.0179216
762.906	0.0179658
762.984	0.0178494
763.062	0.0179529
763.140	0.0180920
763.218	0.0180043
763.296	0.0181046
763.374	0.0179454
763.453	0.0181392
763.531	0.0180724
763.609	0.0179691
763.687	0.0179610
763.765	0.0181164
763.843	0.0181190
763.921	0.0180711
763.999	0.0181550
764.078	0.0180505
764.156	0.0181476
764.234	0.0181329
764.312	0.0180837
764.390	0.0181007
764.468	0.0181718
764.546	0.0182712
764.624	0.0182171
764.703	0.0182684
764.781	0.0181820
764.859	0.0181310
764.937	0.0181039
765.015	0.0183274
765.093	0.0182709
765.171	0.0183184
765.249	0.0181898
765.328	0.0183045
765.406	0.0182816
765.484	0.0182349
765.562	0.0182393
765.640	0.0181450
765.718	0.0181858
765.796	0.0181780
765.874	0.0180117
765.953	0.0181512
766.031	0.0180614
766.109	0.0182561
766.187	0.0181425
766.265	0.0179985
766.343	0.0179546
766.421	0.0180483
766.499	0.0180627
766.578	0.0180877
766.656	0.0179924
766.734	0.0180600
766.812	0.0179685
766.890	0.0180705
766.968	0.0179326
767.046	0.0178420
767.124	0.0181472
767.203	0.0178914
767.281	0.0178671
767.359	0.0179715
767.437	0.0178799
767.515	0.0179166
767.593	0.0179269
767.671	0.0178215
767.749	0.0179623
767.828	0.0178852
767.906	0.0178331
767.984	0.0178973
768.062	0.0179154
768.140	0.0178372
768.218	0.0178432
768.296	0.0180200
768.374	0.0179039
768.453	0.0177084
768.531	0.0179111
768.609	0.0179827
768.687	0.0177792
768.765	0.0178899
768.843	0.0179914
768.921	0.0179281
768.999	0.0179552
769.078	0.0178612
769.156	0.0177524
769.234	0.0178686
769.312	0.0178797
769.390	0.0178438
769.468	0.0177521
769.546	0.0178472
769.624	0.0178732
769.703	0.0178240
769.781	0.0177344
769.859	0.0178519
769.937	0.0178527
770.015	0.0178293
770.093	0.0178300
770.171	0.0179238
770.249	0.0179934
770.328	0.0178904
770.406	0.0178873
770.484	0.0179875
770.562	0.0179099
770.640	0.0178066
770.718	0.0177563
770.796	0.0177995
770.874	0.0178805
770.953	0.0178727
771.031	0.0179140
771.109	0.0179501
771.187	0.0178255
771.265	0.0177405
771.343	0.0179288
771.421	0.0179131
771.499	0.0178529
771.578	0.0178241
771.656	0.0178235
771.734	0.0178285
771.812	0.0179739
771.890	0.0178554
771.968	0.0177065
772.046	0.0178190
772.124	0.0178436
772.203	0.0178333
772.281	0.0178947
772.359	0.0178396
772.437	0.0178718
772.515	0.0177308
772.593	0.0178358
772.671	0.0178753
772.749	0.0177864
772.828	0.0177646
772.906	0.0176618
772.984	0.0179202
773.062	0.0178427
773.140	0.0176165
773.218	0.0178970
773.296	0.0178886
773.374	0.0178999
773.453	0.0179569
773.531	0.0178995
773.609	0.0179659
773.687	0.0179400
773.765	0.0178027
773.843	0.0178270
773.921	0.0177981
773.999	0.0180167
774.078	0.0178461
774.156	0.0178074
774.234	0.0179446
774.312	0.0179565
774.390	0.0178266
774.468	0.0180207
774.546	0.0181281
774.624	0.0180061
774.703	0.0179821
774.781	0.0180093
774.859	0.0180725
774.937	0.0179691
775.015	0.0181161
775.093	0.0181481
775.171	0.0180556
775.249	0.0180961
775.328	0.0181223
775.406	0.0181203
775.484	0.0180490
775.562	0.0181393
775.640	0.0181937
775.718	0.0182613
775.796	0.0182124
775.874	0.0181242
775.953	0.0181701
776.031	0.0181493
776.109	0.0181470
776.187	0.0181358
776.265	0.0180853
776.343	0.0181704
776.421	0.0181710
776.499	0.0181125
776.578	0.0180857
776.656	0.0180153
776.734	0.0180715
776.812	0.0180609
776.890	0.0179761
776.968	0.0181047
777.046	0.0180185
777.124	0.0179459
777.203	0.0179210
777.281	0.0180887
777.359	0.0180323
777.437	0.0179589
777.515	0.0179769
777.593	0.0180027
777.671	0.0179860
777.749	0.0179459
777.828	0.0180552
777.906	0.0179171
777.984	0.0179089
778.062	0.0180027
778.140	0.0180058
778.218	0.0179538
778.296	0.0179654
778.374	0.0179143
778.453	0.0179157
778.531	0.0179030
778.609	0.0180000
778.687	0.0180662
778.765	0.0179039
778.843	0.0180717
778.921	0.0179871
778.999	0.0178692
779.078	0.0178112
779.156	0.0179797
779.234	0.0178398
779.312	0.0178361
779.390	0.0178397
779.468	0.0178964
779.546	0.0178676
779.624	0.0179021
779.703	0.0178555
779.781	0.0180064
779.859	0.0179425
779.937	0.0178165
780.015	0.0180114
780.093	0.0178841
780.171	0.0180452
780.249	0.0179304
780.328	0.0179202
780.406	0.0179616
780.484	0.0180807
780.562	0.0180831
780.640	0.0180298
780.718	0.0180074
780.796	0.0180216
780.874	0.0180459
780.953	0.0180991
781.031	0.0179452
781.109	0.0179932
781.187	0.0182490
781.265	0.0181925
781.343	0.0179736
781.421	0.0180457
781.499	0.0180191
781.578	0.0180161
781.656	0.0180800
781.734	0.0180720
781.812	0.0181895
781.890	0.0179729
781.968	0.0180468
782.046	0.0182092
782.124	0.0180186
782.203	0.0179815
782.281	0.0180315
782.359	0.0180200
782.437	0.0179020
782.515	0.0179130
782.593	0.0180083
782.671	0.0178122
782.749	0.0179562
782.828	0.0179043
782.906	0.0179536
782.984	0.0179644
783.062	0.0179440
783.140	0.0177718
783.218	0.0178704
783.296	0.0180765
783.374	0.0179907
783.453	0.0180759
783.531	0.0180413
783.609	0.0179988
783.687	0.0181091
783.765	0.0181705
783.843	0.0180345
783.921	0.0179956
783.999	0.0180511
784.078	0.0181417
784.156	0.0181881
784.234	0.0181089
784.312	0.0181333
784.390	0.0180834
784.468	0.0180527
784.546	0.0180350
784.624	0.0182391
784.703	0.0182608
784.781	0.0180637
784.859	0.0182867
784.937	0.0180459
785.015	0.0180934
785.093	0.0181762
785.171	0.0179834
785.249	0.0180818
785.328	0.0181202
785.406	0.0179532
785.484	0.0179551
785.562	0.0180687
785.640	0.0181773
785.718	0.0179993
785.796	0.0180372
785.874	0.0180827
785.953	0.0179743
786.031	0.0179943
786.109	0.0179744
786.187	0.0179066
786.265	0.0181261
786.343	0.0179347
786.421	0.0179742
786.499	0.0181319
786.578	0.0180634
786.656	0.0180392
786.734	0.0181036
786.812	0.0180775
786.890	0.0181251
786.968	0.0181243
787.046	0.0180914
787.124	0.0180678
787.203	0.0181800
787.281	0.0182728
787.359	0.0181009
787.437	0.0181556
787.515	0.0183009
787.593	0.0181274
787.671	0.0181367
787.749	0.0180945
787.828	0.0180414
787.906	0.0181750
787.984	0.0182018
788.062	0.0181141
788.140	0.0181348
788.218	0.0179197
788.296	0.0180045
788.374	0.0179399
788.453	0.0178477
788.531	0.0179288
788.609	0.0179916
788.687	0.0180146
788.765	0.0178006
788.843	0.0177790
788.921	0.0178642
788.999	0.0179584
789.078	0.0179101
789.156	0.0179208
789.234	0.0178336
789.312	0.0178476
789.390	0.0179114
789.468	0.0178261
789.546	0.0179461
789.624	0.0180350
789.703	0.0180692
789.781	0.0180039
789.859	0.0179369
789.937	0.0179715
790.015	0.0181182
790.093	0.0180019
790.171	0.0180166
790.249	0.0179019
790.328	0.0181210
790.406	0.0179232
790.484	0.0180117
790.562	0.0180376
790.640	0.0180708
790.718	0.0179797
790.796	0.0179800
790.874	0.0180471
790.953	0.0180643
791.031	0.0181081
791.109	0.0180949
791.187	0.0181347
791.265	0.0180730
791.343	0.0181017
791.421	0.0180927
791.499	0.0181113
791.578	0.0180560
791.656	0.0180404
791.734	0.0180242
791.812	0.0180254
791.890	0.0180997
791.968	0.0181918
792.046	0.0180870
792.124	0.0180775
792.203	0.0180930
792.281	0.0180486
792.359	0.0180688
792.437	0.0181144
792.515	0.0182002
792.593	0.0181921
792.671	0.0180035
792.749	0.0179533
792.828	0.0181790
792.906	0.0181157
792.984	0.0180798
793.062	0.0180230
793.140	0.0179370
793.218	0.0180264
793.296	0.0180247
793.374	0.0180384
793.453	0.0179603
793.531	0.0179668
793.609	0.0180037
793.687	0.0179630
793.765	0.0179635
793.843	0.0179392
793.921	0.0179331
793.999	0.0178458
794.078	0.0179163
794.156	0.0179421
794.234	0.0180204
794.312	0.0179589
794.390	0.0179678
794.468	0.0180067
794.546	0.0180869
794.624	0.0180303
794.703	0.0179834
794.781	0.0179388
794.859	0.0179144
794.937	0.0180079
795.015	0.0178922
795.093	0.0178751
795.171	0.0178423
795.249	0.0177740
795.328	0.0179367
795.406	0.0179278
795.484	0.0176769
795.562	0.0177510
795.640	0.0177650
795.718	0.0177602
795.796	0.0176826
795.874	0.0178223
795.953	0.0179834
796.031	0.0177359
796.109	0.0177590
796.187	0.0179928
796.265	0.0178668
796.343	0.0177710
796.421	0.0179975
796.499	0.0178984
796.578	0.0180631
796.656	0.0179019
796.734	0.0180156
796.812	0.0180345
796.890	0.0180416
796.968	0.0181123
797.046	0.0182353
797.124	0.0182227
797.203	0.0180755
797.281	0.0181903
797.359	0.0182466
797.437	0.0182355
797.515	0.0183047
797.593	0.0182826
797.671	0.0181690
797.749	0.0181917
797.828	0.0181525
797.906	0.0182610
797.984	0.0182661
798.062	0.0182806
798.140	0.0180338
798.218	0.0179466
798.296	0.0181882
798.374	0.0181256
798.453	0.0180278
798.531	0.0180862
798.609	0.0181315
798.687	0.0180417
798.765	0.0180348
798.843	0.0182795
798.921	0.0180731
798.999	0.0180333
799.078	0.0180765
799.156	0.0180241
799.234	0.0181439
799.312	0.0181062
799.390	0.0181356
799.468	0.0180993
799.546	0.0179891
799.624	0.0181479
799.703	0.0180531
799.781	0.0181878
799.859	0.0182581
799.937	0.0180727
800.015	0.0181615
800.093	0.0181219
800.171	0.0181619
800.249	0.0180912
800.328	0.0180432
800.406	0.0179840
800.484	0.0181422
800.562	0.0181297
800.640	0.0179825
800.718	0.0180560
800.796	0.0180392
800.874	0.0181470
800.953	0.0180145
801.031	0.0180193
801.109	0.0180602
801.187	0.0181031
801.265	0.0180904
801.343	0.0181039
801.421	0.0181371
801.499	0.0180952
801.578	0.0182579
801.656	0.0180370
801.734	0.0180671
801.812	0.0180640
801.890	0.0180402
801.968	0.0181477
802.046	0.0181518
802.124	0.0180566
802.203	0.0182568
802.281	0.0180853
802.359	0.0179801
802.437	0.0181048
802.515	0.0180416
802.593	0.0181162
802.671	0.0180873
802.749	0.0180068
802.828	0.0179878
802.906	0.0178823
802.984	0.0180210
803.062	0.0180338
803.140	0.0180657
803.218	0.0178902
803.296	0.0178795
803.374	0.0178963
803.453	0.0177836
803.531	0.0178669
803.609	0.0178570
803.687	0.0177560
803.765	0.0179832
803.843	0.0177518
803.921	0.0178848
803.999	0.0179612
804.078	0.0179202
804.156	0.0178645
804.234	0.0178574
804.312	0.0178963
804.390	0.0180066
804.468	0.0180766
804.546	0.0179388
804.624	0.0179578
804.703	0.0179760
804.781	0.0180762
804.859	0.0179642
804.937	0.0179641
805.015	0.0180163
805.093	0.0180363
805.171	0.0180106
805.249	0.0180296
805.328	0.0180175
805.406	0.0180253
805.484	0.0179607
805.562	0.0179070
805.640	0.0179961
805.718	0.0179855
805.796	0.0179436
805.874	0.0180794
805.953	0.0178802
806.031	0.0180065
806.109	0.0181977
806.187	0.0179360
806.265	0.0178972
806.343	0.0182325
806.421	0.0180721
806.499	0.0178564
806.578	0.0181232
806.656	0.0181057
806.734	0.0179214
806.812	0.0180467
806.890	0.0180042
806.968	0.0181485
807.046	0.0180488
807.124	0.0180298
807.203	0.0180998
807.281	0.0181951
807.359	0.0179831
807.437	0.0180989
807.515	0.0180186
807.593	0.0181965
807.671	0.0180996
807.749	0.0182605
807.828	0.0181636
807.906	0.0181358
807.984	0.0181381
808.062	0.0181145
808.140	0.0181480
808.218	0.0181742
808.296	0.0181553
808.374	0.0180252
808.453	0.0180308
808.531	0.0180400
808.609	0.0181499
808.687	0.0181416
808.765	0.0180469
808.843	0.0180963
808.921	0.0181007
808.999	0.0180634
809.078	0.0180937
809.156	0.0180510
809.234	0.0179926
809.312	0.0180605
809.390	0.0182054
809.468	0.0179816
809.546	0.0180318
809.624	0.0180728
809.703	0.0179980
809.781	0.0181844
809.859	0.0181716
809.937	0.0180056
810.015	0.0179237
810.093	0.0181107
810.171	0.0180972
810.249	0.0181819
810.328	0.0181331
810.406	0.0179482
810.484	0.0180991
810.562	0.0180172
810.640	0.0181040
810.718	0.0180930
810.796	0.0180060
810.874	0.0180101
810.953	0.0180172
811.031	0.0177785
811.109	0.0179432
811.187	0.0178886
811.265	0.0179498
811.343	0.0179918
811.421	0.0180825
811.499	0.0179179
811.578	0.0180550
811.656	0.0179259
811.734	0.0180148
811.812	0.0181685
811.890	0.0180074
811.968	0.0180929
812.046	0.0181437
812.124	0.0179643
812.203	0.0180753
812.281	0.0181056
812.359	0.0181533
812.437	0.0180173
812.515	0.0180501
812.593	0.0180655
812.671	0.0179704
812.749	0.0179080
812.828	0.0180805
812.906	0.0180444
812.984	0.0180518
813.062	0.0181134
813.140	0.0179050
813.218	0.0180509
813.296	0.0180767
813.374	0.0179230
813.453	0.0179328
813.531	0.0180116
813.609	0.0180109
813.687	0.0180133
813.765	0.0177892
813.843	0.0179326
813.921	0.0179813
813.999	0.0179916
814.078	0.0178211
814.156	0.0179561
814.234	0.0180013
814.312	0.0179623
814.390	0.0179111
814.468	0.0177525
814.546	0.0177949
814.624	0.0178645
814.703	0.0179657
814.781	0.0178411
814.859	0.0179298
814.937	0.0179937
815.015	0.0177772
815.093	0.0178554
815.171	0.0179502
815.249	0.0177692
815.328	0.0179125
815.406	0.0179682
815.484	0.0178890
815.562	0.0178780
815.640	0.0179382
815.718	0.0178997
815.796	0.0178912
815.874	0.0179487
815.953	0.0179610
816.031	0.0179121
816.109	0.0179698
816.187	0.0179764
816.265	0.0179573
816.343	0.0180297
816.421	0.0180209
816.499	0.0180345
816.578	0.0179871
816.656	0.0179776
816.734	0.0179902
816.812	0.0181773
816.890	0.0181380
816.968	0.0180659
817.046	0.0180505
817.124	0.0182315
817.203	0.0181572
817.281	0.0181077
817.359	0.0181457
817.437	0.0181512
817.515	0.0181623
817.593	0.0181670
817.671	0.0181880
817.749	0.0180583
817.828	0.0181907
817.906	0.0181587
817.984	0.0180916
818.062	0.0180130
818.140	0.0180630
818.218	0.0180534
818.296	0.0179596
818.374	0.0178638
818.453	0.0180097
818.531	0.0179357
818.609	0.0178706
818.687	0.0177193
818.765	0.0178580
818.843	0.0178751
818.921	0.0176878
818.999	0.0177418
819.078	0.0178642
819.156	0.0179018
819.234	0.0178475
819.312	0.0177401
819.390	0.0178262
819.468	0.0178321
819.546	0.0178795
819.624	0.0178952
819.703	0.0178593
819.781	0.0177815
819.859	0.0179230
819.937	0.0180972
820.015	0.0178210
820.093	0.0179292
820.171	0.0178992
820.249	0.0179317
820.328	0.0180104
820.406	0.0179326
820.484	0.0180708
820.562	0.0179177
820.640	0.0179149
820.718	0.0178083
820.796	0.0177887
820.874	0.0178341
820.953	0.0179819
821.031	0.0179980
821.109	0.0179311
821.187	0.0178915
821.265	0.0179771
821.343	0.0179119
821.421	0.0178252
821.499	0.0179038
821.578	0.0179090
821.656	0.0178329
821.734	0.0178344
821.812	0.0179665
821.890	0.0178887
821.968	0.0179113
822.046	0.0180363
822.124	0.0179886
822.203	0.0179932
822.281	0.0180856
822.359	0.0180085
822.437	0.0180814
822.515	0.0179591
822.593	0.0179637
822.671	0.0180151
822.749	0.0179453
822.828	0.0181693
822.906	0.0179836
822.984	0.0179907
823.062	0.0180233
823.140	0.0180477
823.218	0.0178798
823.296	0.0180383
823.374	0.0180413
823.453	0.0179874
823.531	0.0179498
823.609	0.0181796
823.687	0.0181062
823.765	0.0179275
823.843	0.0178835
823.921	0.0178470
823.999	0.0180263
824.078	0.0180354
824.156	0.0179773
824.234	0.0179362
824.312	0.0179816
824.390	0.0179635
824.468	0.0180789
824.546	0.0179652
824.624	0.0179682
824.703	0.0179253
824.781	0.0179514
824.859	0.0179839
824.937	0.0179911
825.015	0.0180528
825.093	0.0180345
825.171	0.0181506
825.249	0.0181641
825.328	0.0180478
825.406	0.0180700
825.484	0.0181261
825.562	0.0182106
825.640	0.0182256
825.718	0.0181059
825.796	0.0180934
825.874	0.0181631
825.953	0.0181054
826.031	0.0181634
826.109	0.0181954
826.187	0.0181550
826.265	0.0181134
826.343	0.0180061
826.421	0.0181921
826.499	0.0180776
826.578	0.0180402
826.656	0.0180630
826.734	0.0180031
826.812	0.0181248
826.890	0.0180318
826.968	0.0180006
827.046	0.0180846
827.124	0.0180943
827.203	0.0181120
827.281	0.0180280
827.359	0.0181143
827.437	0.0180618
827.515	0.0180264
827.593	0.0179520
827.671	0.0180556
827.749	0.0180064
827.828	0.0180619
827.906	0.0180786
827.984	0.0179036
828.062	0.0179814
828.140	0.0181463
828.218	0.0180781
828.296	0.0179916
828.374	0.0180476
828.453	0.0180344
828.531	0.0180214
828.609	0.0179507
828.687	0.0179417
828.765	0.0178849
828.843	0.0179424
828.921	0.0178811
828.999	0.0179045
829.078	0.0178752
829.156	0.0179249
829.234	0.0178855
829.312	0.0179832
829.390	0.0178631
829.468	0.0179275
829.546	0.0180575
829.624	0.0179741
829.703	0.0178507
829.781	0.0178191
829.859	0.0179894
829.937	0.0180976
830.015	0.0181160
830.093	0.0180653
830.171	0.0180725
830.249	0.0181608
830.328	0.0181913
830.406	0.0181184
830.484	0.0180699
830.562	0.0182742
830.640	0.0182147
830.718	0.0181358
830.796	0.0182357
830.874	0.0183432
830.953	0.0181798
831.031	0.0182253
831.109	0.0183362
831.187	0.0182323
831.265	0.0181445
831.343	0.0181898
831.421	0.0182513
831.499	0.0181829
831.578	0.0181265
831.656	0.0180244
831.734	0.0182740
831.812	0.0181322
831.890	0.0180399
831.968	0.0181335
832.046	0.0180617
832.124	0.0179649
832.203	0.0180621
832.281	0.0181430
832.359	0.0179279
832.437	0.0180637
832.515	0.0180453
832.593	0.0179543
832.671	0.0178932
832.749	0.0179868
832.828	0.0179803
832.906	0.0180273
832.984	0.0179995
833.062	0.0180772
833.140	0.0180556
833.218	0.0180182
833.296	0.0180885
833.374	0.0181191
833.453	0.0181541
833.531	0.0181548
833.609	0.0182391
833.687	0.0182259
833.765	0.0180418
833.843	0.0181001
833.921	0.0182426
833.999	0.0183501
834.078	0.0181519
834.156	0.0180940
834.234	0.0180699
834.312	0.0180324
834.390	0.0179875
834.468	0.0180034
834.546	0.0179452
834.624	0.0180411
834.703	0.0179544
834.781	0.0179508
834.859	0.0179498
834.937	0.0179504
835.015	0.0178313
835.093	0.0180445
835.171	0.0179556
835.249	0.0178925
835.328	0.0180473
835.406	0.0180215
835.484	0.0179366
835.562	0.0178305
835.640	0.0179543
835.718	0.0179826
835.796	0.0179437
835.874	0.0179607
835.953	0.0180414
836.031	0.0180571
836.109	0.0180649
836.187	0.0180482
836.265	0.0179867
836.343	0.0181458
836.421	0.0181012
836.499	0.0179156
836.578	0.0180126
836.656	0.0180637
836.734	0.0182014
836.812	0.0180312
836.890	0.0180276
836.968	0.0179845
837.046	0.0179955
837.124	0.0181201
837.203	0.0178888
837.281	0.0178025
837.359	0.0177143
837.437	0.0177336
837.515	0.0179202
837.593	0.0178569
837.671	0.0177657
837.749	0.0178035
837.828	0.0177198
837.906	0.0177035
837.984	0.0177364
838.062	0.0177113
838.140	0.0176688
838.218	0.0178870
838.296	0.0178993
838.374	0.0177122
838.453	0.0178194
838.531	0.0179082
838.609	0.0178764
838.687	0.0178947
838.765	0.0179562
838.843	0.0179314
838.921	0.0179665
838.999	0.0180047
839.078	0.0180310
839.156	0.0179596
839.234	0.0179787
839.312	0.0178838
839.390	0.0180264
839.468	0.0179326
839.546	0.0179693
839.624	0.0177859
839.703	0.0178824
839.781	0.0178704
839.859	0.0177859
839.937	0.0178527
840.015	0.0176756
840.093	0.0176888
840.171	0.0177732
840.249	0.0177579
840.328	0.0176812
840.406	0.0176947
840.484	0.0177834
840.562	0.0177137
840.640	0.0178165
840.718	0.0177322
840.796	0.0177971
840.874	0.0178053
840.953	0.0177438
841.031	0.0177677
841.109	0.0178581
841.187	0.0178642
841.265	0.0178233
841.343	0.0177328
841.421	0.0178130
841.499	0.0179994
841.578	0.0180551
841.656	0.0179384
841.734	0.0178773
841.812	0.0180457
841.890	0.0179448
841.968	0.0180505
842.046	0.0181472
842.124	0.0179963
842.203	0.0182148
842.281	0.0180450
842.359	0.0180800
842.437	0.0180239
842.515	0.0180098
842.593	0.0181130
842.671	0.0180193
842.749	0.0182124
842.828	0.0180540
842.906	0.0179582
842.984	0.0179517
843.062	0.0179894
843.140	0.0178825
843.218	0.0179119
843.296	0.0177973
843.374	0.0179039
843.453	0.0178782
843.531	0.0179618
843.609	0.0178252
843.687	0.0178351
843.765	0.0178195
843.843	0.0178362
843.921	0.0178285
843.999	0.0177927
844.078	0.0178294
844.156	0.0177444
844.234	0.0177837
844.312	0.0178082
844.390	0.0178905
844.468	0.0178736
844.546	0.0178580
844.624	0.0179398
844.703	0.0178835
844.781	0.0178548
844.859	0.0178490
844.937	0.0177832
845.015	0.0179128
845.093	0.0178005
845.171	0.0178870
845.249	0.0178004
845.328	0.0178010
845.406	0.0178959
845.484	0.0178999
845.562	0.0178200
845.640	0.0178415
845.718	0.0179884
845.796	0.0179020
845.874	0.0178960
845.953	0.0178621
846.031	0.0180255
846.109	0.0180536
846.187	0.0179628
846.265	0.0181022
846.343	0.0178326
846.421	0.0180391
846.499	0.0179813
846.578	0.0180583
846.656	0.0180837
846.734	0.0180437
846.812	0.0180181
846.890	0.0180644
846.968	0.0180740
847.046	0.0181316
847.124	0.0181599
847.203	0.0181581
847.281	0.0182587
847.359	0.0181373
847.437	0.0181769
847.515	0.0181561
847.593	0.0181205
847.671	0.0181715
847.749	0.0181776
847.828	0.0183213
847.906	0.0182795
847.984	0.0183192
848.062	0.0180718
848.140	0.0182056
848.218	0.0180212
848.296	0.0181606
848.374	0.0181862
848.453	0.0181068
848.531	0.0180956
848.609	0.0181551
848.687	0.0180665
848.765	0.0179684
848.843	0.0179707
848.921	0.0180183
848.999	0.0178072
849.078	0.0179141
849.156	0.0180397
849.234	0.0180072
849.312	0.0178368
849.390	0.0180646
849.468	0.0178296
849.546	0.0179893
849.624	0.0179377
849.703	0.0179095
849.781	0.0179448
849.859	0.0179731
849.937	0.0179293
850.015	0.0179770
850.093	0.0180549
850.171	0.0180263
850.249	0.0180148
850.328	0.0179259
850.406	0.0179644
850.484	0.0180096
850.562	0.0179826
850.640	0.0179216
850.718	0.0179748
850.796	0.0179587
850.874	0.0180841
850.953	0.0179979
851.031	0.0178983
851.109	0.0179152
851.187	0.0179106
851.265	0.0181055
851.343	0.0179208
851.421	0.0179710
851.499	0.0179790
851.578	0.0179901
851.656	0.0180671
851.734	0.0178447
851.812	0.0179987
851.890	0.0179330
851.968	0.0179382
852.046	0.0180199
852.124	0.0180607
852.203	0.0179485
852.281	0.0179329
852.359	0.0180145
852.437	0.0179623
852.515	0.0179266
852.593	0.0178711
852.671	0.0180685
852.749	0.0179745
852.828	0.0180097
852.906	0.0179437
852.984	0.0179962
853.062	0.0180666
853.140	0.0180779
853.218	0.0179524
853.296	0.0180996
853.374	0.0180592
853.453	0.0178973
853.531	0.0180790
853.609	0.0181227
853.687	0.0180235
853.765	0.0181171
853.843	0.0181172
853.921	0.0180930
853.999	0.0181168
854.078	0.0180474
854.156	0.0182816
854.234	0.0182561
854.312	0.0180106
854.390	0.0179967
854.468	0.0181020
854.546	0.0180656
854.624	0.0181549
854.703	0.0180772
854.781	0.0180724
854.859	0.0181841
854.937	0.0181902
855.015	0.0180106
855.093	0.0180054
855.171	0.0181024
855.249	0.0182201
855.328	0.0180853
855.406	0.0180800
855.484	0.0180544
855.562	0.0180402
855.640	0.0182418
855.718	0.0182469
855.796	0.0179626
855.874	0.0182494
855.953	0.0181775
856.031	0.0180545
856.109	0.0182364
856.187	0.0180606
856.265	0.0182403
856.343	0.0181161
856.421	0.0181625
856.499	0.0181973
856.578	0.0180693
856.656	0.0182104
856.734	0.0181379
856.812	0.0180721
856.890	0.0183777
856.968	0.0183475
857.046	0.0181017
857.124	0.0180513
857.203	0.0181960
857.281	0.0183234
857.359	0.0182004
857.437	0.0182127
857.515	0.0180920
857.593	0.0182285
857.671	0.0182725
857.749	0.0180935
857.828	0.0182673
857.906	0.0181372
857.984	0.0181938
858.062	0.0181658
858.140	0.0180579
858.218	0.0180862
858.296	0.0180412
858.374	0.0180740
858.453	0.0180556
858.531	0.0182211
858.609	0.0180292
858.687	0.0180717
858.765	0.0180540
858.843	0.0180922
858.921	0.0180567
858.999	0.0180879
859.078	0.0181008
859.156	0.0179542
859.234	0.0180259
859.312	0.0180896
859.390	0.0180297
859.468	0.0180693
859.546	0.0181516
859.624	0.0180702
859.703	0.0179980
859.781	0.0180677
859.859	0.0181178
859.937	0.0179762
860.015	0.0181675
860.093	0.0181452
860.171	0.0179364
860.249	0.0181155
860.328	0.0181103
860.406	0.0180666
860.484	0.0180398
860.562	0.0180359
860.640	0.0181642
860.718	0.0179525
860.796	0.0180381
860.874	0.0180267
860.953	0.0179743
861.031	0.0179495
861.109	0.0180006
861.187	0.0178618
861.265	0.0179937
861.343	0.0180501
861.421	0.0181724
861.499	0.0178370
861.578	0.0181623
861.656	0.0179315
861.734	0.0180074
861.812	0.0181069
861.890	0.0179874
861.968	0.0179290
862.046	0.0180789
862.124	0.0180496
862.203	0.0181390
862.281	0.0181528
862.359	0.0180990
862.437	0.0181381
862.515	0.0180310
862.593	0.0181112
862.671	0.0180379
862.749	0.0180090
862.828	0.0181034
862.906	0.0181068
862.984	0.0180505
863.062	0.0179813
863.140	0.0178060
863.218	0.0180080
863.296	0.0179708
863.374	0.0181191
863.453	0.0179600
863.531	0.0178944
863.609	0.0180261
863.687	0.0179604
863.765	0.0180400
863.843	0.0179810
863.921	0.0179156
863.999	0.0179522
864.078	0.0179330
864.156	0.0179863
864.234	0.0178712
864.312	0.0177930
864.390	0.0179946
864.468	0.0179622
864.546	0.0179541
864.624	0.0180399
864.703	0.0179605
864.781	0.0178551
864.859	0.0178737
864.937	0.0178783
865.015	0.0179146
865.093	0.0178374
865.171	0.0180695
865.249	0.0178914
865.328	0.0178668
865.406	0.0179146
865.484	0.0179600
865.562	0.0180294
865.640	0.0178677
865.718	0.0180177
865.796	0.0179645
865.874	0.0179867
865.953	0.0179840
866.031	0.0181329
866.109	0.0180089
866.187	0.0181155
866.265	0.0181065
866.343	0.0180900
866.421	0.0180750
866.499	0.0182342
866.578	0.0180977
866.656	0.0182629
866.734	0.0181648
866.812	0.0180672
866.890	0.0182552
866.968	0.0183397
867.046	0.0182430
867.124	0.0181228
867.203	0.0181115
867.281	0.0181833
867.359	0.0181096
867.437	0.0181018
867.515	0.0181813
867.593	0.0181042
867.671	0.0179755
867.749	0.0178306
867.828	0.0179313
867.906	0.0178592
867.984	0.0179453
868.062	0.0178363
868.140	0.0178138
868.218	0.0177187
868.296	0.0176889
868.374	0.0177589
868.453	0.0177715
868.531	0.0176761
868.609	0.0176437
868.687	0.0176024
868.765	0.0177283
868.843	0.0176298
868.921	0.0177641
868.999	0.0176797
869.078	0.0177809
869.156	0.0179025
869.234	0.0178300
869.312	0.0177994
869.390	0.0176265
869.468	0.0177854
869.546	0.0178337
869.624	0.0178410
869.703	0.0178346
869.781	0.0179293
869.859	0.0177885
869.937	0.0178398
870.015	0.0178577
870.093	0.0178149
870.171	0.0178957
870.249	0.0179057
870.328	0.0177994
870.406	0.0178019
870.484	0.0178075
870.562	0.0178518
870.640	0.0177253
870.718	0.0178303
870.796	0.0177554
870.874	0.0177392
870.953	0.0178217
871.031	0.0179707
871.109	0.0178726
871.187	0.0176238
871.265	0.0177499
871.343	0.0178899
871.421	0.0177736
871.499	0.0178717
871.578	0.0178143
871.656	0.0178139
871.734	0.0178703
871.812	0.0178863
871.890	0.0179316
871.968	0.0179089
872.046	0.0178675
872.124	0.0178375
872.203	0.0179904
872.281	0.0179298
872.359	0.0179855
872.437	0.0178889
872.515	0.0179217
872.593	0.0179733
872.671	0.0179160
872.749	0.0178620
872.828	0.0180885
872.906	0.0179484
872.984	0.0180304
873.062	0.0180152
873.140	0.0179403
873.218	0.0180648
873.296	0.0180397
873.374	0.0179714
873.453	0.0181475
873.531	0.0180741
873.609	0.0179288
873.687	0.0180533
873.765	0.0180910
873.843	0.0180585
873.921	0.0180286
873.999	0.0179940
874.078	0.0180511
874.156	0.0178649
874.234	0.0181159
874.312	0.0182556
874.390	0.0179628
874.468	0.0178583
874.546	0.0179772
874.624	0.0180914
874.703	0.0181807
874.781	0.0181567
874.859	0.0180226
874.937	0.0180682
875.015	0.0182031
875.093	0.0182128
875.171	0.0181061
875.249	0.0181940
875.328	0.0181873
875.406	0.0182202
875.484	0.0181960
875.562	0.0182383
875.640	0.0181723
875.718	0.0181357
875.796	0.0181213
875.874	0.0182008
875.953	0.0180889
876.031	0.0180788
876.109	0.0181734
876.187	0.0179901
876.265	0.0181415
876.343	0.0180548
876.421	0.0179936
876.499	0.0180000
876.578	0.0180034
876.656	0.0180111
876.734	0.0181010
876.812	0.0180766
876.890	0.0180366
876.968	0.0179465
877.046	0.0180217
877.124	0.0179962
877.203	0.0180635
877.281	0.0181100
877.359	0.0180358
877.437	0.0179972
877.515	0.0180864
877.593	0.0180221
877.671	0.0180930
877.749	0.0179534
877.828	0.0179888
877.906	0.0179517
877.984	0.0180729
878.062	0.0179716
878.140	0.0179636
878.218	0.0178808
878.296	0.0179002
878.374	0.0180338
878.453	0.0179359
878.531	0.0179420
878.609	0.0178896
878.687	0.0180534
878.765	0.0180453
878.843	0.0180196
878.921	0.0181371
878.999	0.0180790
879.078	0.0179039
879.156	0.0180269
879.234	0.0179631
879.312	0.0179805
879.390	0.0179060
879.468	0.0179441
879.546	0.0180228
879.624	0.0177498
879.703	0.0179676
879.781	0.0179703
879.859	0.0179078
879.937	0.0179282
880.015	0.0179507
880.093	0.0180043
880.171	0.0178563
880.249	0.0177831
880.328	0.0179964
880.406	0.0179041
880.484	0.0178111
880.562	0.0180573
880.640	0.0180475
880.718	0.0179475
880.796	0.0179375
880.874	0.0179531
880.953	0.0180885
881.031	0.0179703
881.109	0.0181002
881.187	0.0180489
881.265	0.0182017
881.343	0.0180890
881.421	0.0180537
881.499	0.0181474
881.578	0.0180544
881.656	0.0180234
881.734	0.0180580
881.812	0.0181636
881.890	0.0181876
881.968	0.0180730
882.046	0.0180746
882.124	0.0181105
882.203	0.0180323
882.281	0.0180490
882.359	0.0180694
882.437	0.0180423
882.515	0.0181738
882.593	0.0179279
882.671	0.0181220
882.749	0.0180324
882.828	0.0180336
882.906	0.0179906
882.984	0.0179713
883.062	0.0181689
883.140	0.0179890
883.218	0.0180890
883.296	0.0182234
883.374	0.0181616
883.453	0.0181084
883.531	0.0182978
883.609	0.0182180
883.687	0.0181932
883.765	0.0181745
883.843	0.0181665
883.921	0.0182446
883.999	0.0181185
884.078	0.0182178
884.156	0.0180801
884.234	0.0181223
884.312	0.0182396
884.390	0.0181614
884.468	0.0180567
884.546	0.0182246
884.624	0.0180735
884.703	0.0179632
884.781	0.0180365
884.859	0.0180230
884.937	0.0181089
885.015	0.0180563
885.093	0.0179983
885.171	0.0180965
885.249	0.0179487
885.328	0.0179577
885.406	0.0180660
885.484	0.0179839
885.562	0.0179861
885.640	0.0180371
885.718	0.0179544
885.796	0.0179591
885.874	0.0180840
885.953	0.0180104
886.031	0.0178987
886.109	0.0179574
886.187	0.0180769
886.265	0.0180691
886.343	0.0180325
886.421	0.0181290
886.499	0.0181276
886.578	0.0180955
886.656	0.0181035
886.734	0.0180123
886.812	0.0179948
886.890	0.0181598
886.968	0.0179314
887.046	0.0181083
887.124	0.0182238
887.203	0.0181715
887.281	0.0181180
887.359	0.0181642
887.437	0.0179693
887.515	0.0180777
887.593	0.0180599
887.671	0.0180813
887.749	0.0179591
887.828	0.0181102
887.906	0.0180565
887.984	0.0180170
888.062	0.0179105
888.140	0.0179165
888.218	0.0179150
888.296	0.0179351
888.374	0.0181238
888.453	0.0179053
888.531	0.0179373
888.609	0.0179198
888.687	0.0178716
888.765	0.0178482
888.843	0.0179163
888.921	0.0178683
888.999	0.0179053
889.078	0.0179109
889.156	0.0178527
889.234	0.0179739
889.312	0.0180489
889.390	0.0178425
889.468	0.0179611
889.546	0.0178884
889.624	0.0179348
889.703	0.0178822
889.781	0.0179896
889.859	0.0179802
889.937	0.0179620
890.015	0.0179542
890.093	0.0179871
890.171	0.0179391
890.249	0.0178899
890.328	0.0180032
890.406	0.0179136
890.484	0.0178925
890.562	0.0178432
890.640	0.0180147
890.718	0.0179404
890.796	0.0178836
890.874	0.0179599
890.953	0.0180917
891.031	0.0178410
891.109	0.0178799
891.187	0.0178870
891.265	0.0180810
891.343	0.0180004
891.421	0.0179748
891.499	0.0179325
891.578	0.0180619
891.656	0.0180059
891.734	0.0180294
891.812	0.0179521
891.890	0.0179690
891.968	0.0179883
892.046	0.0179737
892.124	0.0178808
892.203	0.0180990
892.281	0.0180636
892.359	0.0180269
892.437	0.0180083
892.515	0.0181442
892.593	0.0179512
892.671	0.0180456
892.749	0.0180722
892.828	0.0180696
892.906	0.0178991
892.984	0.0179340
893.062	0.0179395
893.140	0.0179174
893.218	0.0180492
893.296	0.0179552
893.374	0.0179120
893.453	0.0179379
893.531	0.0178001
893.609	0.0178049
893.687	0.0178802
893.765	0.0179710
893.843	0.0177866
893.921	0.0179530
893.999	0.0178952
894.078	0.0176727
894.156	0.0178749
894.234	0.0178461
894.312	0.0178050
894.390	0.0178329
894.468	0.0178244
894.546	0.0177657
894.624	0.0177877
894.703	0.0178970
894.781	0.0178508
894.859	0.0179620
894.937	0.0178822
895.015	0.0178687
895.093	0.0178427
895.171	0.0178665
895.249	0.0179697
895.328	0.0178694
895.406	0.0177657
895.484	0.0178838
895.562	0.0180476
895.640	0.0178017
895.718	0.0178458
895.796	0.0179511
895.874	0.0179197
895.953	0.0179076
896.031	0.0179979
896.109	0.0178867
896.187	0.0179930
896.265	0.0179932
896.343	0.0179293
896.421	0.0179253
896.499	0.0179948
896.578	0.0179271
896.656	0.0180460
896.734	0.0180593
896.812	0.0180096
896.890	0.0179807
896.968	0.0178528
897.046	0.0179245
897.124	0.0179720
897.203	0.0179293
897.281	0.0179357
897.359	0.0179685
897.437	0.0178907
897.515	0.0179958
897.593	0.0178677
897.671	0.0178715
897.749	0.0179759
897.828	0.0180004
897.906	0.0179381
897.984	0.0179578
898.062	0.0180234
898.140	0.0180415
898.218	0.0180701
898.296	0.0181243
898.374	0.0180824
898.453	0.0179658
898.531	0.0179019
898.609	0.0182220
898.687	0.0182513
898.765	0.0181744
898.843	0.0182435
898.921	0.0182836
898.999	0.0182267
899.078	0.0180996
899.156	0.0181374
899.234	0.0182120
899.312	0.0180468
899.390	0.0182247
899.468	0.0181976
899.546	0.0181413
899.624	0.0180066
899.703	0.0182658
899.781	0.0181229
899.859	0.0181844
899.937	0.0181614
900.015	0.0181441
900.093	0.0182371
900.171	0.0180427
900.249	0.0181367
900.328	0.0180562
900.406	0.0182261
900.484	0.0180922
900.562	0.0180484
900.640	0.0181911
900.718	0.0180259
900.796	0.0181541
900.874	0.0181622
900.953	0.0181137
901.031	0.0181976
901.109	0.0181338
901.187	0.0180241
901.265	0.0181578
901.343	0.0181891
901.421	0.0180424
901.499	0.0181429
901.578	0.0181338
901.656	0.0181030
901.734	0.0181482
901.812	0.0181950
901.890	0.0180858
901.968	0.0180144
902.046	0.0180758
902.124	0.0180140
902.203	0.0179054
902.281	0.0179623
902.359	0.0179273
902.437	0.0178915
902.515	0.0178893
902.593	0.0177481
902.671	0.0178578
902.749	0.0178214
902.828	0.0178626
902.906	0.0177807
902.984	0.0178620
903.062	0.0179655
903.140	0.0178243
903.218	0.0178687
903.296	0.0179000
903.374	0.0179107
903.453	0.0178973
903.531	0.0178436
903.609	0.0180281
903.687	0.0179897
903.765	0.0181297
903.843	0.0180231
903.921	0.0179456
903.999	0.0181303
904.078	0.0183428
904.156	0.0180107
904.234	0.0180709
904.312	0.0181992
904.390	0.0178877
904.468	0.0181338
904.546	0.0181821
904.624	0.0182423
904.703	0.0182572
904.781	0.0181522
904.859	0.0181635
904.937	0.0180970
905.015	0.0181190
905.093	0.0181148
905.171	0.0181196
905.249	0.0180151
905.328	0.0181063
905.406	0.0182150
905.484	0.0182095
905.562	0.0180270
905.640	0.0181434
905.718	0.0179743
905.796	0.0181873
905.874	0.0181603
905.953	0.0181076
906.031	0.0181937
906.109	0.0182513
906.187	0.0180419
906.265	0.0182143
906.343	0.0181470
906.421	0.0181071
906.499	0.0181031
906.578	0.0180899
906.656	0.0181245
906.734	0.0180877
906.812	0.0181516
906.890	0.0181068
906.968	0.0180208
907.046	0.0181893
907.124	0.0182558
907.203	0.0182405
907.281	0.0179003
907.359	0.0181326
907.437	0.0179411
907.515	0.0180800
907.593	0.0182090
907.671	0.0180918
907.749	0.0179859
907.828	0.0181844
907.906	0.0180530
907.984	0.0182336
908.062	0.0182303
908.140	0.0180816
908.218	0.0180531
908.296	0.0181586
908.374	0.0181777
908.453	0.0182059
908.531	0.0181682
908.609	0.0181054
908.687	0.0180904
908.765	0.0180458
908.843	0.0181445
908.921	0.0181197
908.999	0.0181049
909.078	0.0181806
909.156	0.0180876
909.234	0.0181264
909.312	0.0182448
909.390	0.0181085
909.468	0.0181617
909.546	0.0179783
909.624	0.0180112
909.703	0.0181751
909.781	0.0180289
909.859	0.0179694
909.937	0.0179456
910.015	0.0180692
910.093	0.0181108
910.171	0.0179394
910.249	0.0180972
910.328	0.0178907
910.406	0.0179848
910.484	0.0178803
910.562	0.0179192
910.640	0.0178244
910.718	0.0177361
910.796	0.0179142
910.874	0.0179043
910.953	0.0178886
911.031	0.0177717
911.109	0.0177868
911.187	0.0177728
911.265	0.0177955
911.343	0.0178807
911.421	0.0178281
911.499	0.0178423
911.578	0.0178560
911.656	0.0179357
911.734	0.0178654
911.812	0.0178307
911.890	0.0178663
911.968	0.0180279
912.046	0.0178361
912.124	0.0179986
912.203	0.0178064
912.281	0.0179382
912.359	0.0178667
912.437	0.0180773
912.515	0.0180720
912.593	0.0181222
912.671	0.0180389
912.749	0.0180492
912.828	0.0181960
912.906	0.0180610
912.984	0.0180839
913.062	0.0180782
913.140	0.0181027
913.218	0.0182221
913.296	0.0179362
913.374	0.0181609
913.453	0.0181458
913.531	0.0179015
913.609	0.0179845
913.687	0.0180555
913.765	0.0181878
913.843	0.0180064
913.921	0.0179634
913.999	0.0180571
914.078	0.0180994
914.156	0.0179346
914.234	0.0179884
914.312	0.0180471
914.390	0.0181092
914.468	0.0180136
914.546	0.0179299
914.624	0.0178859
914.703	0.0180629
914.781	0.0179165
914.859	0.0180211
914.937	0.0179432
915.015	0.0179820
915.093	0.0180354
915.171	0.0179740
915.249	0.0179955
915.328	0.0179327
915.406	0.0180927
915.484	0.0180402
915.562	0.0179911
915.640	0.0180315
915.718	0.0180485
915.796	0.0179406
915.874	0.0180814
915.953	0.0181556
916.031	0.0179700
916.109	0.0181324
916.187	0.0181588
916.265	0.0180297
916.343	0.0179607
916.421	0.0180412
916.499	0.0180665
916.578	0.0180156
916.656	0.0179833
916.734	0.0179883
916.812	0.0180177
916.890	0.0179904
916.968	0.0179834
917.046	0.0180005
917.124	0.0180001
917.203	0.0179024
917.281	0.0178294
917.359	0.0180267
917.437	0.0179642
917.515	0.0179177
917.593	0.0178085
917.671	0.0178112
917.749	0.0178555
917.828	0.0179156
917.906	0.0177686
917.984	0.0177297
918.062	0.0179028
918.140	0.0178134
918.218	0.0178349
918.296	0.0178849
918.374	0.0179343
918.453	0.0177999
918.531	0.0178575
918.609	0.0178496
918.687	0.0178394
918.765	0.0179553
918.843	0.0180391
918.921	0.0180824
918.999	0.0179424
919.078	0.0178941
919.156	0.0179353
919.234	0.0179857
919.312	0.0179160
919.390	0.0180190
919.468	0.0179285
919.546	0.0180166
919.624	0.0179925
919.703	0.0178731
919.781	0.0179552
919.859	0.0179998
919.937	0.0180743
