06/10/2022	16:53:39	Ver.	4.1	UNKNOWN
Optical Delay	600.015094	Delta X		0.078125	Sweeps	1	Scan Rate	0/0
Coordinates	Axis 1	NaN	Axis 2	NaN	Axis 3	NaN	Axis 4	NaN	Axis 5	NaN	Axis 6	0.000000
TX Power	0.000000	RX Power	0.000000

600.015	0.0181330
600.093	0.0179222
600.171	0.0177594
600.249	0.0179967
600.328	0.0179404
600.406	0.0178930
600.484	0.0177321
600.562	0.0179702
600.640	0.0180109
600.718	0.0179398
600.796	0.0179880
600.874	0.0179715
600.953	0.0179893
601.031	0.0181368
601.109	0.0180566
601.187	0.0180089
601.265	0.0181303
601.343	0.0180740
601.421	0.0181403
601.499	0.0182081
601.578	0.0181523
601.656	0.0180446
601.734	0.0182219
601.812	0.0181623
601.890	0.0181682
601.968	0.0181013
602.046	0.0181676
602.124	0.0180134
602.203	0.0181370
602.281	0.0181081
602.359	0.0180525
602.437	0.0180503
602.515	0.0180088
602.593	0.0179952
602.671	0.0179987
602.749	0.0180830
602.828	0.0179871
602.906	0.0178981
602.984	0.0178799
603.062	0.0178784
603.140	0.0179520
603.218	0.0180180
603.296	0.0179482
603.374	0.0178382
603.453	0.0178273
603.531	0.0178919
603.609	0.0179168
603.687	0.0180015
603.765	0.0179451
603.843	0.0178738
603.921	0.0177562
603.999	0.0178780
604.078	0.0177280
604.156	0.0179038
604.234	0.0178815
604.312	0.0178093
604.390	0.0177740
604.468	0.0178383
604.546	0.0177267
604.624	0.0178219
604.703	0.0177954
604.781	0.0176730
604.859	0.0175493
604.937	0.0176956
605.015	0.0176958
605.093	0.0176058
605.171	0.0176292
605.249	0.0176299
605.328	0.0175886
605.406	0.0175903
605.484	0.0174953
605.562	0.0174082
605.640	0.0174245
605.718	0.0174395
605.796	0.0172853
605.874	0.0172561
605.953	0.0171880
606.031	0.0172330
606.109	0.0172103
606.187	0.0172630
606.265	0.0171909
606.343	0.0171735
606.421	0.0173135
606.499	0.0174023
606.578	0.0173054
606.656	0.0174411
606.734	0.0174751
606.812	0.0175037
606.890	0.0176005
606.968	0.0177512
607.046	0.0178097
607.124	0.0179266
607.203	0.0178960
607.281	0.0179040
607.359	0.0179192
607.437	0.0180038
607.515	0.0180689
607.593	0.0180338
607.671	0.0180322
607.749	0.0181632
607.828	0.0181382
607.906	0.0182336
607.984	0.0182873
608.062	0.0183023
608.140	0.0183018
608.218	0.0182760
608.296	0.0184336
608.374	0.0184735
608.453	0.0183002
608.531	0.0182851
608.609	0.0183148
608.687	0.0182872
608.765	0.0182823
608.843	0.0179970
608.921	0.0180093
608.999	0.0179086
609.078	0.0177142
609.156	0.0178529
609.234	0.0178092
609.312	0.0177394
609.390	0.0178343
609.468	0.0177760
609.546	0.0177369
609.624	0.0177103
609.703	0.0178566
609.781	0.0179247
609.859	0.0177997
609.937	0.0177928
610.015	0.0180389
610.093	0.0179700
610.171	0.0179251
610.249	0.0179735
610.328	0.0179845
610.406	0.0180943
610.484	0.0179404
610.562	0.0181543
610.640	0.0181517
610.718	0.0181921
610.796	0.0181638
610.874	0.0181470
610.953	0.0181149
611.031	0.0182644
611.109	0.0184166
611.187	0.0182736
611.265	0.0182202
611.343	0.0183343
611.421	0.0183504
611.499	0.0182957
611.578	0.0182106
611.656	0.0183046
611.734	0.0183396
611.812	0.0183428
611.890	0.0183912
611.968	0.0183551
612.046	0.0183396
612.124	0.0184403
612.203	0.0183594
612.281	0.0182843
612.359	0.0184113
612.437	0.0184429
612.515	0.0183640
612.593	0.0182677
612.671	0.0184782
612.749	0.0184892
612.828	0.0184190
612.906	0.0182798
612.984	0.0183514
613.062	0.0183628
613.140	0.0182869
613.218	0.0181721
613.296	0.0183115
613.374	0.0181650
613.453	0.0182432
613.531	0.0181476
613.609	0.0180203
613.687	0.0180531
613.765	0.0179743
613.843	0.0180581
613.921	0.0179414
613.999	0.0180009
614.078	0.0181080
614.156	0.0179967
614.234	0.0180017
614.312	0.0179050
614.390	0.0178524
614.468	0.0179824
614.546	0.0179173
614.624	0.0179923
614.703	0.0182143
614.781	0.0179708
614.859	0.0180331
614.937	0.0179967
615.015	0.0180876
615.093	0.0181255
615.171	0.0180429
615.249	0.0180968
615.328	0.0179148
615.406	0.0181587
615.484	0.0181210
615.562	0.0180206
615.640	0.0182092
615.718	0.0181177
615.796	0.0180479
615.874	0.0181388
615.953	0.0181603
616.031	0.0181129
616.109	0.0181182
616.187	0.0180711
616.265	0.0181194
616.343	0.0181676
616.421	0.0180473
616.499	0.0182230
616.578	0.0182249
616.656	0.0182381
616.734	0.0181517
616.812	0.0181413
616.890	0.0182658
616.968	0.0181548
617.046	0.0182219
617.124	0.0182782
617.203	0.0180288
617.281	0.0180663
617.359	0.0182155
617.437	0.0180971
617.515	0.0180368
617.593	0.0180907
617.671	0.0181544
617.749	0.0180832
617.828	0.0181406
617.906	0.0179616
617.984	0.0180339
618.062	0.0180730
618.140	0.0180061
618.218	0.0181042
618.296	0.0180810
618.374	0.0179647
618.453	0.0181528
618.531	0.0181268
618.609	0.0180901
618.687	0.0180276
618.765	0.0181936
618.843	0.0180340
618.921	0.0181418
618.999	0.0181776
619.078	0.0183353
619.156	0.0181612
619.234	0.0180241
619.312	0.0182230
619.390	0.0182482
619.468	0.0181292
619.546	0.0182123
619.624	0.0181157
619.703	0.0181525
619.781	0.0181391
619.859	0.0181911
619.937	0.0181436
620.015	0.0183140
620.093	0.0182218
620.171	0.0182478
620.249	0.0180544
620.328	0.0181971
620.406	0.0183017
620.484	0.0181937
620.562	0.0182137
620.640	0.0180833
620.718	0.0180988
620.796	0.0181303
620.874	0.0180266
620.953	0.0181255
621.031	0.0181544
621.109	0.0179859
621.187	0.0180840
621.265	0.0180149
621.343	0.0180914
621.421	0.0181025
621.499	0.0180614
621.578	0.0181003
621.656	0.0180421
621.734	0.0180513
621.812	0.0180012
621.890	0.0180849
621.968	0.0180727
622.046	0.0180897
622.124	0.0181307
622.203	0.0180639
622.281	0.0180812
622.359	0.0180602
622.437	0.0180836
622.515	0.0180248
622.593	0.0181056
622.671	0.0180275
622.749	0.0180133
622.828	0.0181084
622.906	0.0179980
622.984	0.0181741
623.062	0.0180632
623.140	0.0179872
623.218	0.0179706
623.296	0.0179530
623.374	0.0179718
623.453	0.0180738
623.531	0.0180542
623.609	0.0179344
623.687	0.0178709
623.765	0.0178713
623.843	0.0178772
623.921	0.0179212
623.999	0.0177141
624.078	0.0178517
624.156	0.0178136
624.234	0.0177892
624.312	0.0177890
624.390	0.0177622
624.468	0.0177215
624.546	0.0177441
624.624	0.0178671
624.703	0.0179046
624.781	0.0177160
624.859	0.0176175
624.937	0.0176572
625.015	0.0176752
625.093	0.0177182
625.171	0.0177990
625.249	0.0176083
625.328	0.0176685
625.406	0.0177228
625.484	0.0176389
625.562	0.0177226
625.640	0.0177274
625.718	0.0175933
625.796	0.0177386
625.874	0.0177510
625.953	0.0177706
626.031	0.0176611
626.109	0.0175242
626.187	0.0176538
626.265	0.0176828
626.343	0.0176701
626.421	0.0177276
626.499	0.0175896
626.578	0.0176132
626.656	0.0175113
626.734	0.0178090
626.812	0.0177026
626.890	0.0177071
626.968	0.0178079
627.046	0.0176301
627.124	0.0178283
627.203	0.0177928
627.281	0.0177554
627.359	0.0178506
627.437	0.0177406
627.515	0.0177703
627.593	0.0177780
627.671	0.0177412
627.749	0.0177322
627.828	0.0177485
627.906	0.0176395
627.984	0.0177513
628.062	0.0177585
628.140	0.0178893
628.218	0.0176624
628.296	0.0177677
628.374	0.0178796
628.453	0.0176640
628.531	0.0177753
628.609	0.0176254
628.687	0.0176608
628.765	0.0176830
628.843	0.0177150
628.921	0.0175945
628.999	0.0175883
629.078	0.0176570
629.156	0.0176087
629.234	0.0176505
629.312	0.0177730
629.390	0.0177023
629.468	0.0177338
629.546	0.0177086
629.624	0.0178179
629.703	0.0177716
629.781	0.0177267
629.859	0.0178322
629.937	0.0178316
630.015	0.0178676
630.093	0.0177895
630.171	0.0178702
630.249	0.0179393
630.328	0.0179124
630.406	0.0178825
630.484	0.0178140
630.562	0.0181063
630.640	0.0180013
630.718	0.0179131
630.796	0.0180357
630.874	0.0180283
630.953	0.0178759
631.031	0.0178446
631.109	0.0179944
631.187	0.0181661
631.265	0.0180593
631.343	0.0179935
631.421	0.0179955
631.499	0.0180529
631.578	0.0180515
631.656	0.0180763
631.734	0.0180499
631.812	0.0181635
631.890	0.0180086
631.968	0.0180487
632.046	0.0178874
632.124	0.0180842
632.203	0.0182605
632.281	0.0181623
632.359	0.0180560
632.437	0.0181458
632.515	0.0181307
632.593	0.0182291
632.671	0.0182257
632.749	0.0180715
632.828	0.0181479
632.906	0.0182935
632.984	0.0181258
633.062	0.0182001
633.140	0.0182519
633.218	0.0182341
633.296	0.0182610
633.374	0.0181244
633.453	0.0182446
633.531	0.0183267
633.609	0.0182629
633.687	0.0182245
633.765	0.0182831
633.843	0.0181072
633.921	0.0181495
633.999	0.0181898
634.078	0.0182115
634.156	0.0182068
634.234	0.0181978
634.312	0.0181874
634.390	0.0180838
634.468	0.0181419
634.546	0.0183022
634.624	0.0181819
634.703	0.0181288
634.781	0.0180968
634.859	0.0181813
634.937	0.0180840
635.015	0.0180987
635.093	0.0182072
635.171	0.0181506
635.249	0.0180871
635.328	0.0182375
635.406	0.0178894
635.484	0.0180630
635.562	0.0181201
635.640	0.0180206
635.718	0.0180694
635.796	0.0180157
635.874	0.0181155
635.953	0.0180645
636.031	0.0180265
636.109	0.0180648
636.187	0.0179324
636.265	0.0179616
636.343	0.0180635
636.421	0.0181157
636.499	0.0180193
636.578	0.0179784
636.656	0.0179663
636.734	0.0179967
636.812	0.0180018
636.890	0.0179545
636.968	0.0180669
637.046	0.0181242
637.124	0.0180440
637.203	0.0179951
637.281	0.0180197
637.359	0.0178467
637.437	0.0179708
637.515	0.0180269
637.593	0.0179712
637.671	0.0180328
637.749	0.0180146
637.828	0.0179742
637.906	0.0180731
637.984	0.0178360
638.062	0.0179924
638.140	0.0180951
638.218	0.0179939
638.296	0.0180306
638.374	0.0182046
638.453	0.0180508
638.531	0.0179433
638.609	0.0180429
638.687	0.0181399
638.765	0.0178894
638.843	0.0180676
638.921	0.0179732
638.999	0.0180189
639.078	0.0180731
639.156	0.0181695
639.234	0.0180364
639.312	0.0180222
639.390	0.0182040
639.468	0.0181362
639.546	0.0181135
639.624	0.0181552
639.703	0.0181039
639.781	0.0182887
639.859	0.0182074
639.937	0.0181230
640.015	0.0183127
640.093	0.0181316
640.171	0.0181819
640.249	0.0182683
640.328	0.0182383
640.406	0.0181712
640.484	0.0182412
640.562	0.0183025
640.640	0.0181441
640.718	0.0180863
640.796	0.0181293
640.874	0.0181347
640.953	0.0182005
641.031	0.0181021
641.109	0.0183746
641.187	0.0182196
641.265	0.0182411
641.343	0.0182062
641.421	0.0182449
641.499	0.0181061
641.578	0.0181799
641.656	0.0182343
641.734	0.0182948
641.812	0.0182452
641.890	0.0181966
641.968	0.0181026
642.046	0.0181319
642.124	0.0182658
642.203	0.0182969
642.281	0.0182281
642.359	0.0183047
642.437	0.0182175
642.515	0.0180887
642.593	0.0181823
642.671	0.0181532
642.749	0.0182738
642.828	0.0182124
642.906	0.0181451
642.984	0.0182927
643.062	0.0181657
643.140	0.0182511
643.218	0.0182150
643.296	0.0181539
643.374	0.0180884
643.453	0.0181676
643.531	0.0181720
643.609	0.0182287
643.687	0.0181811
643.765	0.0180754
643.843	0.0180201
643.921	0.0181040
643.999	0.0182217
644.078	0.0180896
644.156	0.0181987
644.234	0.0181228
644.312	0.0180299
644.390	0.0181197
644.468	0.0181159
644.546	0.0178935
644.624	0.0180302
644.703	0.0177912
644.781	0.0179567
644.859	0.0180866
644.937	0.0179968
645.015	0.0178826
645.093	0.0179697
645.171	0.0179844
645.249	0.0179877
645.328	0.0179220
645.406	0.0179432
645.484	0.0179718
645.562	0.0180027
645.640	0.0179512
645.718	0.0178723
645.796	0.0179542
645.874	0.0178822
645.953	0.0178430
646.031	0.0178400
646.109	0.0178500
646.187	0.0178674
646.265	0.0178665
646.343	0.0177963
646.421	0.0178224
646.499	0.0180005
646.578	0.0179131
646.656	0.0179042
646.734	0.0178267
646.812	0.0178680
646.890	0.0179977
646.968	0.0179926
647.046	0.0179435
647.124	0.0179469
647.203	0.0178703
647.281	0.0179348
647.359	0.0179503
647.437	0.0178528
647.515	0.0178671
647.593	0.0179107
647.671	0.0178500
647.749	0.0179609
647.828	0.0179525
647.906	0.0180067
647.984	0.0178439
648.062	0.0179643
648.140	0.0179788
648.218	0.0178500
648.296	0.0178504
648.374	0.0177960
648.453	0.0179260
648.531	0.0180087
648.609	0.0178419
648.687	0.0178590
648.765	0.0178684
648.843	0.0178004
648.921	0.0178602
648.999	0.0179598
649.078	0.0179385
649.156	0.0177859
649.234	0.0176932
649.312	0.0178594
649.390	0.0180035
649.468	0.0179565
649.546	0.0179650
649.624	0.0179215
649.703	0.0179310
649.781	0.0179472
649.859	0.0179135
649.937	0.0179531
650.015	0.0180206
650.093	0.0180048
650.171	0.0179391
650.249	0.0178974
650.328	0.0179590
650.406	0.0179871
650.484	0.0180016
650.562	0.0180302
650.640	0.0179131
650.718	0.0178605
650.796	0.0180999
650.874	0.0180678
650.953	0.0180801
651.031	0.0179475
651.109	0.0179771
651.187	0.0179622
651.265	0.0180598
651.343	0.0180460
651.421	0.0180613
651.499	0.0181036
651.578	0.0181107
651.656	0.0180061
651.734	0.0181368
651.812	0.0182231
651.890	0.0180889
651.968	0.0179958
652.046	0.0179865
652.124	0.0179695
652.203	0.0180891
652.281	0.0179828
652.359	0.0180729
652.437	0.0180435
652.515	0.0178973
652.593	0.0181087
652.671	0.0180233
652.749	0.0180132
652.828	0.0179707
652.906	0.0179699
652.984	0.0179834
653.062	0.0180195
653.140	0.0180076
653.218	0.0179361
653.296	0.0180874
653.374	0.0179042
653.453	0.0178677
653.531	0.0180365
653.609	0.0180379
653.687	0.0179709
653.765	0.0180083
653.843	0.0179593
653.921	0.0179180
653.999	0.0180004
654.078	0.0179464
654.156	0.0179504
654.234	0.0179176
654.312	0.0180257
654.390	0.0180706
654.468	0.0179042
654.546	0.0178815
654.624	0.0179140
654.703	0.0179104
654.781	0.0179490
654.859	0.0180297
654.937	0.0180325
655.015	0.0179605
655.093	0.0179316
655.171	0.0178975
655.249	0.0180695
655.328	0.0180450
655.406	0.0180672
655.484	0.0179945
655.562	0.0181573
655.640	0.0179018
655.718	0.0179632
655.796	0.0179739
655.874	0.0180254
655.953	0.0180997
656.031	0.0180746
656.109	0.0180546
656.187	0.0180686
656.265	0.0180891
656.343	0.0180412
656.421	0.0181773
656.499	0.0180301
656.578	0.0182657
656.656	0.0182312
656.734	0.0181086
656.812	0.0180859
656.890	0.0180528
656.968	0.0182373
657.046	0.0181181
657.124	0.0181976
657.203	0.0182061
657.281	0.0182066
657.359	0.0181304
657.437	0.0180882
657.515	0.0181091
657.593	0.0181857
657.671	0.0182107
657.749	0.0180597
657.828	0.0181430
657.906	0.0181944
657.984	0.0182881
658.062	0.0183147
658.140	0.0182139
658.218	0.0182580
658.296	0.0182220
658.374	0.0182184
658.453	0.0181411
658.531	0.0182788
658.609	0.0181866
658.687	0.0182805
658.765	0.0182052
658.843	0.0183247
658.921	0.0182672
658.999	0.0182059
659.078	0.0181979
659.156	0.0182441
659.234	0.0181178
659.312	0.0181526
659.390	0.0181749
659.468	0.0182345
659.546	0.0182468
659.624	0.0182576
659.703	0.0181628
659.781	0.0181305
659.859	0.0180611
659.937	0.0181610
660.015	0.0181819
660.093	0.0181268
660.171	0.0182230
660.249	0.0183145
660.328	0.0182939
660.406	0.0182817
660.484	0.0181837
660.562	0.0181446
660.640	0.0183598
660.718	0.0183381
660.796	0.0181657
660.874	0.0183092
660.953	0.0182536
661.031	0.0181082
661.109	0.0181570
661.187	0.0181751
661.265	0.0181626
661.343	0.0182382
661.421	0.0180402
661.499	0.0182589
661.578	0.0182500
661.656	0.0181965
661.734	0.0181304
661.812	0.0181545
661.890	0.0181503
661.968	0.0181623
662.046	0.0181814
662.124	0.0180313
662.203	0.0181554
662.281	0.0181514
662.359	0.0180645
662.437	0.0179846
662.515	0.0180096
662.593	0.0181993
662.671	0.0180408
662.749	0.0179497
662.828	0.0180140
662.906	0.0180440
662.984	0.0180129
663.062	0.0179087
663.140	0.0180425
663.218	0.0181038
663.296	0.0181141
663.374	0.0181462
663.453	0.0180820
663.531	0.0180429
663.609	0.0181161
663.687	0.0181441
663.765	0.0181423
663.843	0.0179872
663.921	0.0179862
663.999	0.0181719
664.078	0.0180817
664.156	0.0182182
664.234	0.0181326
664.312	0.0181013
664.390	0.0181441
664.468	0.0181025
664.546	0.0181974
664.624	0.0183101
664.703	0.0181841
664.781	0.0182085
664.859	0.0181815
664.937	0.0180975
665.015	0.0181052
665.093	0.0181607
665.171	0.0180878
665.249	0.0180201
665.328	0.0181173
665.406	0.0180605
665.484	0.0182967
665.562	0.0179654
665.640	0.0182901
665.718	0.0181782
665.796	0.0181133
665.874	0.0180817
665.953	0.0180689
666.031	0.0180482
666.109	0.0180472
666.187	0.0180507
666.265	0.0179710
666.343	0.0180598
666.421	0.0180422
666.499	0.0180920
666.578	0.0179765
666.656	0.0180689
666.734	0.0180632
666.812	0.0180428
666.890	0.0180284
666.968	0.0179948
667.046	0.0180054
667.124	0.0179845
667.203	0.0180456
667.281	0.0180329
667.359	0.0179195
667.437	0.0179975
667.515	0.0181287
667.593	0.0179357
667.671	0.0179348
667.749	0.0180214
667.828	0.0180521
667.906	0.0180666
667.984	0.0180925
668.062	0.0178905
668.140	0.0179718
668.218	0.0179716
668.296	0.0180649
668.374	0.0180640
668.453	0.0179810
668.531	0.0178207
668.609	0.0178968
668.687	0.0180790
668.765	0.0180718
668.843	0.0179942
668.921	0.0179575
668.999	0.0179978
669.078	0.0179636
669.156	0.0179691
669.234	0.0179681
669.312	0.0180386
669.390	0.0179664
669.468	0.0180667
669.546	0.0179097
669.624	0.0180341
669.703	0.0179487
669.781	0.0179695
669.859	0.0180326
669.937	0.0181440
670.015	0.0181580
670.093	0.0179265
670.171	0.0180029
670.249	0.0180826
670.328	0.0180951
670.406	0.0180370
670.484	0.0179928
670.562	0.0181219
670.640	0.0181311
670.718	0.0179080
670.796	0.0180497
670.874	0.0180011
670.953	0.0180861
671.031	0.0181265
671.109	0.0180963
671.187	0.0180144
671.265	0.0180732
671.343	0.0180828
671.421	0.0181006
671.499	0.0180765
671.578	0.0180862
671.656	0.0181333
671.734	0.0181036
671.812	0.0181608
671.890	0.0181422
671.968	0.0181350
672.046	0.0181689
672.124	0.0180684
672.203	0.0181199
672.281	0.0181161
672.359	0.0179565
672.437	0.0180785
672.515	0.0180845
672.593	0.0180012
672.671	0.0181779
672.749	0.0181520
672.828	0.0180392
672.906	0.0181210
672.984	0.0180926
673.062	0.0179865
673.140	0.0180378
673.218	0.0180606
673.296	0.0181863
673.374	0.0180668
673.453	0.0179968
673.531	0.0180807
673.609	0.0180210
673.687	0.0179771
673.765	0.0181378
673.843	0.0180347
673.921	0.0179741
673.999	0.0178378
674.078	0.0180464
674.156	0.0178379
674.234	0.0180315
674.312	0.0179363
674.390	0.0179959
674.468	0.0180605
674.546	0.0179898
674.624	0.0179302
674.703	0.0178098
674.781	0.0180014
674.859	0.0179395
674.937	0.0177366
675.015	0.0179497
675.093	0.0179160
675.171	0.0178576
675.249	0.0179243
675.328	0.0178535
675.406	0.0177742
675.484	0.0178938
675.562	0.0179015
675.640	0.0179515
675.718	0.0177931
675.796	0.0178690
675.874	0.0177252
675.953	0.0179147
676.031	0.0177239
676.109	0.0178000
676.187	0.0176809
676.265	0.0177831
676.343	0.0177052
676.421	0.0177116
676.499	0.0177513
676.578	0.0177837
676.656	0.0177866
676.734	0.0176906
676.812	0.0177635
676.890	0.0176767
676.968	0.0176485
677.046	0.0177743
677.124	0.0177837
677.203	0.0178269
677.281	0.0177613
677.359	0.0177654
677.437	0.0178973
677.515	0.0177534
677.593	0.0178039
677.671	0.0177254
677.749	0.0178665
677.828	0.0178930
677.906	0.0178207
677.984	0.0178026
678.062	0.0178521
678.140	0.0178375
678.218	0.0178132
678.296	0.0178094
678.374	0.0176640
678.453	0.0178163
678.531	0.0180244
678.609	0.0179615
678.687	0.0177882
678.765	0.0177773
678.843	0.0178274
678.921	0.0178777
678.999	0.0178555
679.078	0.0179320
679.156	0.0178381
679.234	0.0176982
679.312	0.0179585
679.390	0.0178104
679.468	0.0179224
679.546	0.0179073
679.624	0.0178416
679.703	0.0181009
679.781	0.0179869
679.859	0.0178813
679.937	0.0180114
680.015	0.0178755
680.093	0.0178453
680.171	0.0179333
680.249	0.0180058
680.328	0.0178682
680.406	0.0179159
680.484	0.0179150
680.562	0.0180480
680.640	0.0179512
680.718	0.0180063
680.796	0.0179954
680.874	0.0178641
680.953	0.0178936
681.031	0.0180387
681.109	0.0180044
681.187	0.0180787
681.265	0.0180219
681.343	0.0181628
681.421	0.0179563
681.499	0.0179910
681.578	0.0180531
681.656	0.0180588
681.734	0.0180508
681.812	0.0180590
681.890	0.0181564
681.968	0.0182136
682.046	0.0181104
682.124	0.0179611
682.203	0.0180441
682.281	0.0180964
682.359	0.0180319
682.437	0.0181818
682.515	0.0181078
682.593	0.0180054
682.671	0.0181014
682.749	0.0180850
682.828	0.0181004
682.906	0.0181718
682.984	0.0182459
683.062	0.0181721
683.140	0.0180923
683.218	0.0181402
683.296	0.0180888
683.374	0.0181158
683.453	0.0182334
683.531	0.0181718
683.609	0.0182443
683.687	0.0181181
683.765	0.0182040
683.843	0.0182120
683.921	0.0180251
683.999	0.0180545
684.078	0.0180853
684.156	0.0181883
684.234	0.0181305
684.312	0.0182952
684.390	0.0181811
684.468	0.0181460
684.546	0.0181990
684.624	0.0181493
684.703	0.0181528
684.781	0.0182401
684.859	0.0181785
684.937	0.0180225
685.015	0.0181145
685.093	0.0182038
685.171	0.0182415
685.249	0.0181541
685.328	0.0182252
685.406	0.0182919
685.484	0.0182993
685.562	0.0181140
685.640	0.0181807
685.718	0.0181283
685.796	0.0182159
685.874	0.0180801
685.953	0.0182240
686.031	0.0181923
686.109	0.0181374
686.187	0.0182838
686.265	0.0181585
686.343	0.0181501
686.421	0.0181496
686.499	0.0182149
686.578	0.0180767
686.656	0.0181493
686.734	0.0182112
686.812	0.0181221
686.890	0.0180210
686.968	0.0180979
687.046	0.0181654
687.124	0.0180930
687.203	0.0181640
687.281	0.0181568
687.359	0.0180990
687.437	0.0180361
687.515	0.0182024
687.593	0.0181419
687.671	0.0180666
687.749	0.0180882
687.828	0.0180879
687.906	0.0181200
687.984	0.0180609
688.062	0.0181338
688.140	0.0181863
688.218	0.0180787
688.296	0.0180351
688.374	0.0179419
688.453	0.0180540
688.531	0.0180079
688.609	0.0180202
688.687	0.0181447
688.765	0.0179819
688.843	0.0180267
688.921	0.0180867
688.999	0.0179582
689.078	0.0180930
689.156	0.0179860
689.234	0.0180460
689.312	0.0180253
689.390	0.0179126
689.468	0.0180644
689.546	0.0181184
689.624	0.0181275
689.703	0.0180195
689.781	0.0180732
689.859	0.0181059
689.937	0.0181592
690.015	0.0182216
690.093	0.0180670
690.171	0.0181024
690.249	0.0182469
690.328	0.0182245
690.406	0.0182755
690.484	0.0182570
690.562	0.0183022
690.640	0.0181981
690.718	0.0181020
690.796	0.0182575
690.874	0.0180351
690.953	0.0181326
691.031	0.0181821
691.109	0.0181950
691.187	0.0180057
691.265	0.0181636
691.343	0.0180776
691.421	0.0181716
691.499	0.0183176
691.578	0.0181547
691.656	0.0182521
691.734	0.0181727
691.812	0.0181303
691.890	0.0182029
691.968	0.0180009
692.046	0.0181132
692.124	0.0180921
692.203	0.0180917
692.281	0.0180570
692.359	0.0180157
692.437	0.0181194
692.515	0.0178637
692.593	0.0180538
692.671	0.0181235
692.749	0.0181397
692.828	0.0180203
692.906	0.0180782
692.984	0.0181460
693.062	0.0180573
693.140	0.0181512
693.218	0.0181568
693.296	0.0180965
693.374	0.0181723
693.453	0.0181675
693.531	0.0181574
693.609	0.0179893
693.687	0.0181306
693.765	0.0180789
693.843	0.0180994
693.921	0.0180713
693.999	0.0179816
694.078	0.0179919
694.156	0.0180904
694.234	0.0180254
694.312	0.0180534
694.390	0.0180125
694.468	0.0181121
694.546	0.0180847
694.624	0.0180677
694.703	0.0179838
694.781	0.0179302
694.859	0.0179444
694.937	0.0179901
695.015	0.0181651
695.093	0.0180280
695.171	0.0179211
695.249	0.0180470
695.328	0.0179001
695.406	0.0178162
695.484	0.0180108
695.562	0.0178668
695.640	0.0181003
695.718	0.0179299
695.796	0.0178205
695.874	0.0179048
695.953	0.0179678
696.031	0.0180161
696.109	0.0179194
696.187	0.0179541
696.265	0.0181039
696.343	0.0179480
696.421	0.0179387
696.499	0.0181113
696.578	0.0180381
696.656	0.0179929
696.734	0.0179094
696.812	0.0180543
696.890	0.0181018
696.968	0.0180919
697.046	0.0181001
697.124	0.0181164
697.203	0.0180400
697.281	0.0179193
697.359	0.0178321
697.437	0.0178030
697.515	0.0179288
697.593	0.0179032
697.671	0.0179189
697.749	0.0179080
697.828	0.0177642
697.906	0.0178872
697.984	0.0178339
698.062	0.0179750
698.140	0.0178425
698.218	0.0178686
698.296	0.0178445
698.374	0.0178624
698.453	0.0178064
698.531	0.0177847
698.609	0.0179140
698.687	0.0178292
698.765	0.0179031
698.843	0.0178258
698.921	0.0179667
698.999	0.0178790
699.078	0.0177417
699.156	0.0178174
699.234	0.0178959
699.312	0.0178559
699.390	0.0177469
699.468	0.0178989
699.546	0.0178194
699.624	0.0178890
699.703	0.0177093
699.781	0.0178267
699.859	0.0179008
699.937	0.0176692
700.015	0.0178977
700.093	0.0176687
700.171	0.0177032
700.249	0.0179967
700.328	0.0178702
700.406	0.0177916
700.484	0.0178573
700.562	0.0178550
700.640	0.0177447
700.718	0.0177636
700.796	0.0178272
700.874	0.0177956
700.953	0.0177306
701.031	0.0177121
701.109	0.0178345
701.187	0.0176967
701.265	0.0176730
701.343	0.0177779
701.421	0.0177940
701.499	0.0176687
701.578	0.0177230
701.656	0.0177599
701.734	0.0177637
701.812	0.0176746
701.890	0.0176819
701.968	0.0177338
702.046	0.0178710
702.124	0.0178719
702.203	0.0177600
702.281	0.0178532
702.359	0.0178325
702.437	0.0177248
702.515	0.0178058
702.593	0.0179004
702.671	0.0179753
702.749	0.0178820
702.828	0.0178262
702.906	0.0178172
702.984	0.0180051
703.062	0.0179190
703.140	0.0178748
703.218	0.0179319
703.296	0.0179295
703.374	0.0179622
703.453	0.0178946
703.531	0.0178779
703.609	0.0179014
703.687	0.0178247
703.765	0.0179419
703.843	0.0178789
703.921	0.0178792
703.999	0.0178841
704.078	0.0179128
704.156	0.0179251
704.234	0.0178665
704.312	0.0179137
704.390	0.0180511
704.468	0.0179742
704.546	0.0179373
704.624	0.0179586
704.703	0.0179922
704.781	0.0179675
704.859	0.0179017
704.937	0.0179096
705.015	0.0180966
705.093	0.0179722
705.171	0.0180246
705.249	0.0179081
705.328	0.0178744
705.406	0.0179418
705.484	0.0179327
705.562	0.0179870
705.640	0.0180932
705.718	0.0180352
705.796	0.0180582
705.874	0.0180109
705.953	0.0181538
706.031	0.0180394
706.109	0.0180033
706.187	0.0180532
706.265	0.0179735
706.343	0.0180383
706.421	0.0179967
706.499	0.0180366
706.578	0.0180391
706.656	0.0180521
706.734	0.0179887
706.812	0.0180643
706.890	0.0180999
706.968	0.0180313
707.046	0.0180341
707.124	0.0182260
707.203	0.0180943
707.281	0.0179506
707.359	0.0180832
707.437	0.0179747
707.515	0.0179784
707.593	0.0179463
707.671	0.0180370
707.749	0.0180712
707.828	0.0180754
707.906	0.0180973
707.984	0.0181792
708.062	0.0181402
708.140	0.0180320
708.218	0.0182100
708.296	0.0180356
708.374	0.0181895
708.453	0.0180067
708.531	0.0182433
708.609	0.0181110
708.687	0.0181947
708.765	0.0182023
708.843	0.0182447
708.921	0.0182306
708.999	0.0180743
709.078	0.0181273
709.156	0.0182552
709.234	0.0181390
709.312	0.0181555
709.390	0.0181072
709.468	0.0181478
709.546	0.0182857
709.624	0.0182005
709.703	0.0182214
709.781	0.0182969
709.859	0.0181292
709.937	0.0181617
710.015	0.0181251
710.093	0.0181327
710.171	0.0182027
710.249	0.0181294
710.328	0.0182042
710.406	0.0182176
710.484	0.0181646
710.562	0.0182180
710.640	0.0182294
710.718	0.0181456
710.796	0.0182043
710.874	0.0182394
710.953	0.0181575
711.031	0.0182697
711.109	0.0181967
711.187	0.0182433
711.265	0.0182476
711.343	0.0182526
711.421	0.0181401
711.499	0.0181892
711.578	0.0182318
711.656	0.0181458
711.734	0.0181983
711.812	0.0182310
711.890	0.0181306
711.968	0.0182159
712.046	0.0184472
712.124	0.0183409
712.203	0.0182986
712.281	0.0182249
712.359	0.0181592
712.437	0.0183289
712.515	0.0181627
712.593	0.0180830
712.671	0.0180712
712.749	0.0182831
712.828	0.0182087
712.906	0.0181380
712.984	0.0181778
713.062	0.0181613
713.140	0.0183021
713.218	0.0181455
713.296	0.0180335
713.374	0.0182067
713.453	0.0181195
713.531	0.0182504
713.609	0.0180545
713.687	0.0180544
713.765	0.0182152
713.843	0.0181457
713.921	0.0181720
713.999	0.0181157
714.078	0.0181759
714.156	0.0181364
714.234	0.0181228
714.312	0.0181438
714.390	0.0181809
714.468	0.0180645
714.546	0.0181409
714.624	0.0181918
714.703	0.0181531
714.781	0.0180312
714.859	0.0181437
714.937	0.0181068
715.015	0.0181396
715.093	0.0182730
715.171	0.0181268
715.249	0.0181532
715.328	0.0181418
715.406	0.0180341
715.484	0.0180724
715.562	0.0179681
715.640	0.0180602
715.718	0.0182513
715.796	0.0180412
715.874	0.0181852
715.953	0.0180189
716.031	0.0181734
716.109	0.0180803
716.187	0.0180557
716.265	0.0180896
716.343	0.0181517
716.421	0.0181406
716.499	0.0180773
716.578	0.0180895
716.656	0.0181395
716.734	0.0182015
716.812	0.0182102
716.890	0.0182587
716.968	0.0180562
717.046	0.0181128
717.124	0.0181722
717.203	0.0182979
717.281	0.0182849
717.359	0.0181379
717.437	0.0180654
717.515	0.0180726
717.593	0.0181698
717.671	0.0181520
717.749	0.0182343
717.828	0.0181690
717.906	0.0180752
717.984	0.0182751
718.062	0.0181856
718.140	0.0182227
718.218	0.0182654
718.296	0.0181162
718.374	0.0181993
718.453	0.0181843
718.531	0.0183171
718.609	0.0180639
718.687	0.0182064
718.765	0.0182405
718.843	0.0181636
718.921	0.0182967
718.999	0.0181047
719.078	0.0179796
719.156	0.0181966
719.234	0.0182207
719.312	0.0180453
719.390	0.0180097
719.468	0.0181751
719.546	0.0181995
719.624	0.0180487
719.703	0.0182715
719.781	0.0180264
719.859	0.0181532
719.937	0.0181829
720.015	0.0182477
720.093	0.0180982
720.171	0.0180918
720.249	0.0180640
720.328	0.0181452
720.406	0.0180987
720.484	0.0180027
720.562	0.0180804
720.640	0.0182327
720.718	0.0181581
720.796	0.0181617
720.874	0.0181158
720.953	0.0181530
721.031	0.0181725
721.109	0.0181090
721.187	0.0179881
721.265	0.0179560
721.343	0.0179796
721.421	0.0181345
721.499	0.0180150
721.578	0.0179681
721.656	0.0179563
721.734	0.0179726
721.812	0.0179537
721.890	0.0179604
721.968	0.0178883
722.046	0.0178706
722.124	0.0179574
722.203	0.0179844
722.281	0.0180480
722.359	0.0179446
722.437	0.0177454
722.515	0.0178413
722.593	0.0179048
722.671	0.0178815
722.749	0.0177334
722.828	0.0178551
722.906	0.0179232
722.984	0.0179601
723.062	0.0178545
723.140	0.0178092
723.218	0.0178078
723.296	0.0178529
723.374	0.0178647
723.453	0.0177572
723.531	0.0177432
723.609	0.0179696
723.687	0.0179933
723.765	0.0176892
723.843	0.0178721
723.921	0.0178587
723.999	0.0178623
724.078	0.0177997
724.156	0.0177367
724.234	0.0178008
724.312	0.0178297
724.390	0.0177995
724.468	0.0178921
724.546	0.0179076
724.624	0.0178833
724.703	0.0180142
724.781	0.0178185
724.859	0.0176762
724.937	0.0177869
725.015	0.0176582
725.093	0.0178235
725.171	0.0177526
725.249	0.0176617
725.328	0.0177262
725.406	0.0177230
725.484	0.0177742
725.562	0.0176501
725.640	0.0175102
725.718	0.0175809
725.796	0.0176751
725.874	0.0175902
725.953	0.0175913
726.031	0.0177018
726.109	0.0176321
726.187	0.0175895
726.265	0.0177370
726.343	0.0176945
726.421	0.0176612
726.499	0.0177814
726.578	0.0178661
726.656	0.0179320
726.734	0.0180605
726.812	0.0179159
726.890	0.0180434
726.968	0.0181277
727.046	0.0180283
727.124	0.0179646
727.203	0.0181116
727.281	0.0180670
727.359	0.0181464
727.437	0.0182263
727.515	0.0182504
727.593	0.0181744
727.671	0.0181640
727.749	0.0181616
727.828	0.0181700
727.906	0.0181750
727.984	0.0182390
728.062	0.0182986
728.140	0.0182049
728.218	0.0182488
728.296	0.0182637
728.374	0.0181178
728.453	0.0180559
728.531	0.0181207
728.609	0.0182858
728.687	0.0181631
728.765	0.0181128
728.843	0.0180629
728.921	0.0180286
728.999	0.0180252
729.078	0.0182269
729.156	0.0180318
729.234	0.0181047
729.312	0.0180219
729.390	0.0180576
729.468	0.0181403
729.546	0.0179844
729.624	0.0179834
729.703	0.0180016
729.781	0.0178444
729.859	0.0179323
729.937	0.0180677
730.015	0.0179925
730.093	0.0180280
730.171	0.0180124
730.249	0.0179881
730.328	0.0179770
730.406	0.0178431
730.484	0.0178802
730.562	0.0178817
730.640	0.0179327
730.718	0.0178327
730.796	0.0179592
730.874	0.0179529
730.953	0.0178399
731.031	0.0178456
731.109	0.0179044
731.187	0.0178514
731.265	0.0180375
731.343	0.0180852
731.421	0.0179861
731.499	0.0180756
731.578	0.0180886
731.656	0.0179031
731.734	0.0181880
731.812	0.0180091
731.890	0.0179902
731.968	0.0180827
732.046	0.0181479
732.124	0.0179613
732.203	0.0180932
732.281	0.0181822
732.359	0.0181009
732.437	0.0181701
732.515	0.0181544
732.593	0.0181973
732.671	0.0183328
732.749	0.0182490
732.828	0.0180550
732.906	0.0181651
732.984	0.0181488
733.062	0.0183010
733.140	0.0181758
733.218	0.0180337
733.296	0.0181495
733.374	0.0181400
733.453	0.0181477
733.531	0.0181342
733.609	0.0181131
733.687	0.0180945
733.765	0.0181224
733.843	0.0180412
733.921	0.0181042
733.999	0.0179560
734.078	0.0182790
734.156	0.0181165
734.234	0.0180821
734.312	0.0181556
734.390	0.0182615
734.468	0.0181445
734.546	0.0181418
734.624	0.0183694
734.703	0.0183273
734.781	0.0181715
734.859	0.0181396
734.937	0.0181030
735.015	0.0181873
735.093	0.0182866
735.171	0.0182584
735.249	0.0181738
735.328	0.0182434
735.406	0.0182064
735.484	0.0182954
735.562	0.0181687
735.640	0.0182195
735.718	0.0182680
735.796	0.0183759
735.874	0.0183044
735.953	0.0181713
736.031	0.0182182
736.109	0.0181982
736.187	0.0181934
736.265	0.0181909
736.343	0.0182038
736.421	0.0181500
736.499	0.0181994
736.578	0.0180796
736.656	0.0181309
736.734	0.0181335
736.812	0.0180743
736.890	0.0181887
736.968	0.0181353
737.046	0.0179843
737.124	0.0179664
737.203	0.0180840
737.281	0.0180089
737.359	0.0180032
737.437	0.0180788
737.515	0.0180075
737.593	0.0180569
737.671	0.0180571
737.749	0.0181092
737.828	0.0179829
737.906	0.0180998
737.984	0.0180171
738.062	0.0180360
738.140	0.0180264
738.218	0.0179665
738.296	0.0179289
738.374	0.0180338
738.453	0.0180647
738.531	0.0180841
738.609	0.0180739
738.687	0.0179884
738.765	0.0180547
738.843	0.0180105
738.921	0.0180647
738.999	0.0180003
739.078	0.0179948
739.156	0.0180162
739.234	0.0178803
739.312	0.0180143
739.390	0.0180891
739.468	0.0180530
739.546	0.0179212
739.624	0.0179726
739.703	0.0180591
739.781	0.0179904
739.859	0.0178579
739.937	0.0179353
740.015	0.0181137
740.093	0.0180679
740.171	0.0180035
740.249	0.0179649
740.328	0.0178933
740.406	0.0178397
740.484	0.0178964
740.562	0.0180495
740.640	0.0178343
740.718	0.0178622
740.796	0.0179070
740.874	0.0181055
740.953	0.0180598
741.031	0.0180570
741.109	0.0179367
741.187	0.0180063
741.265	0.0178860
741.343	0.0181036
741.421	0.0181319
741.499	0.0179990
741.578	0.0178963
741.656	0.0180066
741.734	0.0180402
741.812	0.0179253
741.890	0.0179842
741.968	0.0180251
742.046	0.0179066
742.124	0.0178206
742.203	0.0178362
742.281	0.0178595
742.359	0.0179849
742.437	0.0179740
742.515	0.0180043
742.593	0.0179800
742.671	0.0180251
742.749	0.0179296
742.828	0.0178896
742.906	0.0179927
742.984	0.0180888
743.062	0.0180166
743.140	0.0180249
743.218	0.0180855
743.296	0.0180016
743.374	0.0180009
743.453	0.0180148
743.531	0.0181934
743.609	0.0179561
743.687	0.0180455
743.765	0.0180688
743.843	0.0180704
743.921	0.0179913
743.999	0.0180897
744.078	0.0180459
744.156	0.0179575
744.234	0.0181255
744.312	0.0180717
744.390	0.0181622
744.468	0.0181279
744.546	0.0181258
744.624	0.0180889
744.703	0.0180865
744.781	0.0179692
744.859	0.0179359
744.937	0.0180847
745.015	0.0180122
745.093	0.0180624
745.171	0.0180396
745.249	0.0179559
745.328	0.0180696
745.406	0.0180274
745.484	0.0179456
745.562	0.0180328
745.640	0.0179893
745.718	0.0178121
745.796	0.0180101
745.874	0.0180793
745.953	0.0178172
746.031	0.0178240
746.109	0.0179914
746.187	0.0180710
746.265	0.0179686
746.343	0.0178413
746.421	0.0178777
746.499	0.0178497
746.578	0.0177798
746.656	0.0177773
746.734	0.0177341
746.812	0.0178149
746.890	0.0179769
746.968	0.0179539
747.046	0.0178177
747.124	0.0177397
747.203	0.0177812
747.281	0.0178019
747.359	0.0177877
747.437	0.0175681
747.515	0.0177367
747.593	0.0177175
747.671	0.0176887
747.749	0.0177327
747.828	0.0177859
747.906	0.0176542
747.984	0.0176489
748.062	0.0176296
748.140	0.0178031
748.218	0.0176471
748.296	0.0175957
748.374	0.0178469
748.453	0.0178302
748.531	0.0176961
748.609	0.0176585
748.687	0.0177548
748.765	0.0176718
748.843	0.0176721
748.921	0.0178300
748.999	0.0177995
749.078	0.0177251
749.156	0.0176926
749.234	0.0177996
749.312	0.0179153
749.390	0.0178564
749.468	0.0178659
749.546	0.0177454
749.624	0.0180164
749.703	0.0178082
749.781	0.0178622
749.859	0.0178535
749.937	0.0178136
750.015	0.0178481
750.093	0.0180074
750.171	0.0180006
750.249	0.0179392
750.328	0.0179408
750.406	0.0180204
750.484	0.0178863
750.562	0.0178796
750.640	0.0180216
750.718	0.0180392
750.796	0.0180392
750.874	0.0180019
750.953	0.0178776
751.031	0.0179233
751.109	0.0178719
751.187	0.0180002
751.265	0.0180394
751.343	0.0180975
751.421	0.0179261
751.499	0.0179944
751.578	0.0179372
751.656	0.0179307
751.734	0.0179229
751.812	0.0180138
751.890	0.0179653
751.968	0.0179339
752.046	0.0180731
752.124	0.0180360
752.203	0.0180684
752.281	0.0179424
752.359	0.0179983
752.437	0.0179727
752.515	0.0180290
752.593	0.0181031
752.671	0.0180508
752.749	0.0181459
752.828	0.0180825
752.906	0.0181657
752.984	0.0180396
753.062	0.0179982
753.140	0.0182158
753.218	0.0182981
753.296	0.0181993
753.374	0.0181210
753.453	0.0180547
753.531	0.0180903
753.609	0.0182466
753.687	0.0181009
753.765	0.0181395
753.843	0.0180250
753.921	0.0182091
753.999	0.0181788
754.078	0.0182976
754.156	0.0180859
754.234	0.0181947
754.312	0.0182543
754.390	0.0180627
754.468	0.0180038
754.546	0.0181470
754.624	0.0181251
754.703	0.0181303
754.781	0.0180218
754.859	0.0181503
754.937	0.0182264
755.015	0.0181583
755.093	0.0180483
755.171	0.0180981
755.249	0.0180077
755.328	0.0181590
755.406	0.0181712
755.484	0.0180521
755.562	0.0179974
755.640	0.0181012
755.718	0.0181158
755.796	0.0180503
755.874	0.0181629
755.953	0.0179630
756.031	0.0179204
756.109	0.0181532
756.187	0.0179625
756.265	0.0179404
756.343	0.0180095
756.421	0.0181615
756.499	0.0181148
756.578	0.0179385
756.656	0.0179475
756.734	0.0179739
756.812	0.0179731
756.890	0.0181248
756.968	0.0178283
757.046	0.0178343
757.124	0.0180682
757.203	0.0178706
757.281	0.0180891
757.359	0.0180241
757.437	0.0180348
757.515	0.0179285
757.593	0.0180284
757.671	0.0180232
757.749	0.0181068
757.828	0.0180237
757.906	0.0181474
757.984	0.0180176
758.062	0.0180413
758.140	0.0181092
758.218	0.0181502
758.296	0.0182076
758.374	0.0180912
758.453	0.0181754
758.531	0.0182269
758.609	0.0182076
758.687	0.0181745
758.765	0.0182451
758.843	0.0182048
758.921	0.0182034
758.999	0.0181139
759.078	0.0182666
759.156	0.0183080
759.234	0.0183101
759.312	0.0182442
759.390	0.0183084
759.468	0.0181902
759.546	0.0182471
759.624	0.0182016
759.703	0.0182473
759.781	0.0181911
759.859	0.0180839
759.937	0.0180537
760.015	0.0181677
760.093	0.0182088
760.171	0.0181382
760.249	0.0181465
760.328	0.0180708
760.406	0.0179946
760.484	0.0180015
760.562	0.0180926
760.640	0.0180653
760.718	0.0179844
760.796	0.0179581
760.874	0.0180013
760.953	0.0180899
761.031	0.0181194
761.109	0.0179289
761.187	0.0178695
761.265	0.0179691
761.343	0.0180219
761.421	0.0179007
761.499	0.0179678
761.578	0.0179791
761.656	0.0178415
761.734	0.0178626
761.812	0.0179594
761.890	0.0179197
761.968	0.0178123
762.046	0.0180267
762.124	0.0179095
762.203	0.0178459
762.281	0.0178751
762.359	0.0178162
762.437	0.0178639
762.515	0.0179087
762.593	0.0179648
762.671	0.0179001
762.749	0.0180004
762.828	0.0179224
762.906	0.0179478
762.984	0.0179721
763.062	0.0181015
763.140	0.0180302
763.218	0.0179451
763.296	0.0179272
763.374	0.0180499
763.453	0.0180594
763.531	0.0181744
763.609	0.0180323
763.687	0.0180275
763.765	0.0180444
763.843	0.0181169
763.921	0.0180320
763.999	0.0179315
764.078	0.0178770
764.156	0.0180341
764.234	0.0178938
764.312	0.0179611
764.390	0.0179364
764.468	0.0180047
764.546	0.0179333
764.624	0.0178876
764.703	0.0177979
764.781	0.0177948
764.859	0.0178982
764.937	0.0178610
765.015	0.0179041
765.093	0.0179301
765.171	0.0176745
765.249	0.0177920
765.328	0.0178531
765.406	0.0178618
765.484	0.0178413
765.562	0.0177806
765.640	0.0179147
765.718	0.0178367
765.796	0.0178442
765.874	0.0179774
765.953	0.0177541
766.031	0.0178366
766.109	0.0180054
766.187	0.0179482
766.265	0.0178096
766.343	0.0178310
766.421	0.0178160
766.499	0.0178939
766.578	0.0180912
766.656	0.0178428
766.734	0.0178714
766.812	0.0179663
766.890	0.0179053
766.968	0.0179491
767.046	0.0179411
767.124	0.0180211
767.203	0.0181725
767.281	0.0180713
767.359	0.0178127
767.437	0.0178252
767.515	0.0180811
767.593	0.0180010
767.671	0.0179192
767.749	0.0179153
767.828	0.0179205
767.906	0.0178440
767.984	0.0179874
768.062	0.0178922
768.140	0.0179720
768.218	0.0178463
768.296	0.0178413
768.374	0.0180875
768.453	0.0180835
768.531	0.0180883
768.609	0.0181076
768.687	0.0180714
768.765	0.0180744
768.843	0.0182243
768.921	0.0182290
768.999	0.0180081
769.078	0.0182250
769.156	0.0182966
769.234	0.0180621
769.312	0.0183007
769.390	0.0182325
769.468	0.0181862
769.546	0.0181961
769.624	0.0183598
769.703	0.0180612
769.781	0.0179987
769.859	0.0181233
769.937	0.0180559
770.015	0.0180879
770.093	0.0181606
770.171	0.0180121
770.249	0.0180192
770.328	0.0180014
770.406	0.0180254
770.484	0.0179806
770.562	0.0179585
770.640	0.0180125
770.718	0.0179861
770.796	0.0180206
770.874	0.0179024
770.953	0.0180005
771.031	0.0180470
771.109	0.0178985
771.187	0.0180466
771.265	0.0179573
771.343	0.0178671
771.421	0.0178928
771.499	0.0179850
771.578	0.0180187
771.656	0.0179917
771.734	0.0179886
771.812	0.0178885
771.890	0.0180067
771.968	0.0180572
772.046	0.0179659
772.124	0.0178836
772.203	0.0180486
772.281	0.0179411
772.359	0.0179236
772.437	0.0179264
772.515	0.0179459
772.593	0.0178723
772.671	0.0177688
772.749	0.0178311
772.828	0.0179079
772.906	0.0177271
772.984	0.0177904
773.062	0.0178453
773.140	0.0178888
773.218	0.0178394
773.296	0.0179032
773.374	0.0177983
773.453	0.0178490
773.531	0.0179779
773.609	0.0178032
773.687	0.0178438
773.765	0.0179282
773.843	0.0179430
773.921	0.0179839
773.999	0.0179249
774.078	0.0181078
774.156	0.0179605
774.234	0.0180997
774.312	0.0179932
774.390	0.0181379
774.468	0.0181770
774.546	0.0181745
774.624	0.0180901
774.703	0.0180746
774.781	0.0181593
774.859	0.0179724
774.937	0.0178741
775.015	0.0180344
775.093	0.0179488
775.171	0.0179395
775.249	0.0179787
775.328	0.0180460
775.406	0.0181242
775.484	0.0180161
775.562	0.0180556
775.640	0.0179991
775.718	0.0178638
775.796	0.0179379
775.874	0.0179874
775.953	0.0179766
776.031	0.0180030
776.109	0.0179946
776.187	0.0180341
776.265	0.0181090
776.343	0.0179758
776.421	0.0179779
776.499	0.0180479
776.578	0.0179063
776.656	0.0180967
776.734	0.0180500
776.812	0.0179720
776.890	0.0179901
776.968	0.0179234
777.046	0.0180856
777.124	0.0179535
777.203	0.0180128
777.281	0.0179855
777.359	0.0180400
777.437	0.0180065
777.515	0.0179684
777.593	0.0179226
777.671	0.0180317
777.749	0.0180724
777.828	0.0180624
777.906	0.0179221
777.984	0.0179652
778.062	0.0181465
778.140	0.0182090
778.218	0.0181243
778.296	0.0181192
778.374	0.0180952
778.453	0.0180048
778.531	0.0180635
778.609	0.0181958
778.687	0.0181890
778.765	0.0180139
778.843	0.0181293
778.921	0.0180779
778.999	0.0180030
779.078	0.0181973
779.156	0.0180814
779.234	0.0182007
779.312	0.0180804
779.390	0.0180689
779.468	0.0181923
779.546	0.0180442
779.624	0.0181903
779.703	0.0182864
779.781	0.0181422
779.859	0.0180381
779.937	0.0182168
780.015	0.0180676
780.093	0.0180813
780.171	0.0181030
780.249	0.0180883
780.328	0.0181197
780.406	0.0181850
780.484	0.0181799
780.562	0.0181082
780.640	0.0180923
780.718	0.0180938
780.796	0.0180341
780.874	0.0181009
780.953	0.0180901
781.031	0.0180473
781.109	0.0180137
781.187	0.0178920
781.265	0.0179234
781.343	0.0179278
781.421	0.0179729
781.499	0.0178707
781.578	0.0178761
781.656	0.0178564
781.734	0.0179249
781.812	0.0179847
781.890	0.0180235
781.968	0.0179945
782.046	0.0179669
782.124	0.0180396
782.203	0.0181915
782.281	0.0179758
782.359	0.0180371
782.437	0.0182025
782.515	0.0181191
782.593	0.0181065
782.671	0.0180211
782.749	0.0180180
782.828	0.0181638
782.906	0.0182225
782.984	0.0181544
783.062	0.0181410
783.140	0.0182408
783.218	0.0182420
783.296	0.0181482
783.374	0.0182017
783.453	0.0181860
783.531	0.0180504
783.609	0.0181123
783.687	0.0180344
783.765	0.0180533
783.843	0.0180899
783.921	0.0181605
783.999	0.0180063
784.078	0.0182500
784.156	0.0179255
784.234	0.0179911
784.312	0.0181478
784.390	0.0180907
784.468	0.0180774
784.546	0.0179675
784.624	0.0180465
784.703	0.0180560
784.781	0.0181822
784.859	0.0179593
784.937	0.0179306
785.015	0.0180817
785.093	0.0180827
785.171	0.0180003
785.249	0.0181473
785.328	0.0179921
785.406	0.0180910
785.484	0.0181121
785.562	0.0180968
785.640	0.0180309
785.718	0.0181606
785.796	0.0182841
785.874	0.0180733
785.953	0.0181805
786.031	0.0180761
786.109	0.0182617
786.187	0.0182271
786.265	0.0183290
786.343	0.0182876
786.421	0.0182194
786.499	0.0181911
786.578	0.0181929
786.656	0.0181870
786.734	0.0181099
786.812	0.0182169
786.890	0.0180482
786.968	0.0181327
787.046	0.0180274
787.124	0.0179581
787.203	0.0179694
787.281	0.0179812
787.359	0.0179746
787.437	0.0176585
787.515	0.0179303
787.593	0.0181262
787.671	0.0179797
787.749	0.0179474
787.828	0.0178257
787.906	0.0179478
787.984	0.0177647
788.062	0.0179577
788.140	0.0179394
788.218	0.0178923
788.296	0.0178004
788.374	0.0178056
788.453	0.0180516
788.531	0.0179540
788.609	0.0178813
788.687	0.0178963
788.765	0.0177868
788.843	0.0177831
788.921	0.0177682
788.999	0.0178080
789.078	0.0178009
789.156	0.0180931
789.234	0.0179197
789.312	0.0179169
789.390	0.0179488
789.468	0.0180072
789.546	0.0179204
789.624	0.0180443
789.703	0.0180544
789.781	0.0178959
789.859	0.0179351
789.937	0.0180235
790.015	0.0180039
790.093	0.0178676
790.171	0.0178580
790.249	0.0180221
790.328	0.0180403
790.406	0.0179786
790.484	0.0180791
790.562	0.0181419
790.640	0.0179706
790.718	0.0180076
790.796	0.0179372
790.874	0.0180579
790.953	0.0181525
791.031	0.0180527
791.109	0.0179514
791.187	0.0180827
791.265	0.0180633
791.343	0.0180176
791.421	0.0180774
791.499	0.0180601
791.578	0.0180884
791.656	0.0180562
791.734	0.0180817
791.812	0.0178548
791.890	0.0180209
791.968	0.0180079
792.046	0.0179868
792.124	0.0178671
792.203	0.0179892
792.281	0.0180170
792.359	0.0181215
792.437	0.0180466
792.515	0.0180186
792.593	0.0178905
792.671	0.0179507
792.749	0.0179978
792.828	0.0180831
792.906	0.0179845
792.984	0.0180459
793.062	0.0180675
793.140	0.0180994
793.218	0.0180335
793.296	0.0180865
793.374	0.0182355
793.453	0.0181208
793.531	0.0181522
793.609	0.0180286
793.687	0.0181109
793.765	0.0180786
793.843	0.0181770
793.921	0.0182886
793.999	0.0181618
794.078	0.0180784
794.156	0.0182369
794.234	0.0182465
794.312	0.0181674
794.390	0.0180783
794.468	0.0181978
794.546	0.0180978
794.624	0.0180936
794.703	0.0180768
794.781	0.0182052
794.859	0.0181467
794.937	0.0181123
795.015	0.0179543
795.093	0.0180869
795.171	0.0181077
795.249	0.0180482
795.328	0.0181036
795.406	0.0181583
795.484	0.0180608
795.562	0.0181485
795.640	0.0181350
795.718	0.0181901
795.796	0.0180994
795.874	0.0181550
795.953	0.0180566
796.031	0.0180970
796.109	0.0180761
796.187	0.0180661
796.265	0.0181488
796.343	0.0181217
796.421	0.0180582
796.499	0.0180620
796.578	0.0180811
796.656	0.0180645
796.734	0.0181282
796.812	0.0180031
796.890	0.0179910
796.968	0.0179598
797.046	0.0179805
797.124	0.0180251
797.203	0.0178786
797.281	0.0179693
797.359	0.0178558
797.437	0.0179439
797.515	0.0179996
797.593	0.0178724
797.671	0.0178098
797.749	0.0179454
797.828	0.0178780
797.906	0.0179085
797.984	0.0180534
798.062	0.0179844
798.140	0.0178642
798.218	0.0180198
798.296	0.0181784
798.374	0.0180338
798.453	0.0180291
798.531	0.0180664
798.609	0.0180266
798.687	0.0180727
798.765	0.0181472
798.843	0.0180070
798.921	0.0180782
798.999	0.0180507
799.078	0.0179736
799.156	0.0181454
799.234	0.0180989
799.312	0.0180476
799.390	0.0181457
799.468	0.0180141
799.546	0.0180017
799.624	0.0180286
799.703	0.0181387
799.781	0.0180426
799.859	0.0181425
799.937	0.0180267
800.015	0.0180204
800.093	0.0179202
800.171	0.0179385
800.249	0.0179858
800.328	0.0179495
800.406	0.0179814
800.484	0.0181554
800.562	0.0180257
800.640	0.0181432
800.718	0.0181104
800.796	0.0181613
800.874	0.0181673
800.953	0.0182520
801.031	0.0182659
801.109	0.0183479
801.187	0.0183332
801.265	0.0181958
801.343	0.0184267
801.421	0.0183348
801.499	0.0182124
801.578	0.0181433
801.656	0.0181561
801.734	0.0182812
801.812	0.0182186
801.890	0.0181986
801.968	0.0181365
802.046	0.0181348
802.124	0.0181580
802.203	0.0181220
802.281	0.0181408
802.359	0.0180177
802.437	0.0179606
802.515	0.0180672
802.593	0.0180105
802.671	0.0179864
802.749	0.0182133
802.828	0.0180489
802.906	0.0182243
802.984	0.0181502
803.062	0.0181923
803.140	0.0181389
803.218	0.0181161
803.296	0.0183070
803.374	0.0180875
803.453	0.0181895
803.531	0.0182806
803.609	0.0180642
803.687	0.0181493
803.765	0.0181481
803.843	0.0180652
803.921	0.0181200
803.999	0.0180589
804.078	0.0180762
804.156	0.0179767
804.234	0.0181905
804.312	0.0181349
804.390	0.0180006
804.468	0.0179906
804.546	0.0180402
804.624	0.0180663
804.703	0.0180719
804.781	0.0180103
804.859	0.0181124
804.937	0.0180503
805.015	0.0180613
805.093	0.0181005
805.171	0.0181240
805.249	0.0180685
805.328	0.0179948
805.406	0.0181152
805.484	0.0179974
805.562	0.0180967
805.640	0.0181384
805.718	0.0181147
805.796	0.0181431
805.874	0.0181570
805.953	0.0180872
806.031	0.0181304
806.109	0.0179678
806.187	0.0180707
806.265	0.0181432
806.343	0.0180876
806.421	0.0179594
806.499	0.0181245
806.578	0.0181032
806.656	0.0179825
806.734	0.0180798
806.812	0.0181127
806.890	0.0180720
806.968	0.0181071
807.046	0.0179382
807.124	0.0179707
807.203	0.0178823
807.281	0.0177861
807.359	0.0181095
807.437	0.0180110
807.515	0.0179331
807.593	0.0179449
807.671	0.0178894
807.749	0.0178128
807.828	0.0179837
807.906	0.0178669
807.984	0.0178685
808.062	0.0178925
808.140	0.0180196
808.218	0.0180724
808.296	0.0179400
808.374	0.0178586
808.453	0.0177071
808.531	0.0178125
808.609	0.0179224
808.687	0.0178708
808.765	0.0177897
808.843	0.0178068
808.921	0.0177834
808.999	0.0179201
809.078	0.0179356
809.156	0.0178617
809.234	0.0178881
809.312	0.0179517
809.390	0.0178760
809.468	0.0178510
809.546	0.0180482
809.624	0.0178400
809.703	0.0179929
809.781	0.0178792
809.859	0.0177775
809.937	0.0180283
810.015	0.0178799
810.093	0.0177964
810.171	0.0178333
810.249	0.0178445
810.328	0.0179030
810.406	0.0180531
810.484	0.0179279
810.562	0.0179794
810.640	0.0180566
810.718	0.0180983
810.796	0.0180775
810.874	0.0181074
810.953	0.0181027
811.031	0.0181606
811.109	0.0181935
811.187	0.0179682
811.265	0.0179571
811.343	0.0181815
811.421	0.0180619
811.499	0.0180633
811.578	0.0178876
811.656	0.0181322
811.734	0.0179421
811.812	0.0178779
811.890	0.0179408
811.968	0.0177883
812.046	0.0178800
812.124	0.0179630
812.203	0.0178703
812.281	0.0179820
812.359	0.0179453
812.437	0.0178891
812.515	0.0179973
812.593	0.0179420
812.671	0.0179800
812.749	0.0178338
812.828	0.0177583
812.906	0.0177928
812.984	0.0179012
813.062	0.0178545
813.140	0.0177252
813.218	0.0177348
813.296	0.0177859
813.374	0.0178453
813.453	0.0177261
813.531	0.0178972
813.609	0.0177886
813.687	0.0177928
813.765	0.0178176
813.843	0.0178865
813.921	0.0179613
813.999	0.0178640
814.078	0.0177636
814.156	0.0178620
814.234	0.0178392
814.312	0.0179350
814.390	0.0178930
814.468	0.0179862
814.546	0.0179787
814.624	0.0179870
814.703	0.0180068
814.781	0.0178609
814.859	0.0180252
814.937	0.0180939
815.015	0.0180000
815.093	0.0179722
815.171	0.0179979
815.249	0.0179678
815.328	0.0179308
815.406	0.0179540
815.484	0.0179610
815.562	0.0180254
815.640	0.0179890
815.718	0.0179859
815.796	0.0180222
815.874	0.0179768
815.953	0.0181203
816.031	0.0181209
816.109	0.0180674
816.187	0.0181490
816.265	0.0182458
816.343	0.0181448
816.421	0.0179945
816.499	0.0180887
816.578	0.0180457
816.656	0.0180885
816.734	0.0181738
816.812	0.0181094
816.890	0.0181461
816.968	0.0181033
817.046	0.0180611
817.124	0.0181712
817.203	0.0181712
817.281	0.0180886
817.359	0.0181243
817.437	0.0180592
817.515	0.0181042
817.593	0.0181204
817.671	0.0181339
817.749	0.0182104
817.828	0.0180418
817.906	0.0181062
817.984	0.0181880
818.062	0.0181994
818.140	0.0180814
818.218	0.0181744
818.296	0.0181728
818.374	0.0182800
818.453	0.0180875
818.531	0.0182227
818.609	0.0182605
818.687	0.0182703
818.765	0.0181657
818.843	0.0180745
818.921	0.0181549
818.999	0.0181586
819.078	0.0181946
819.156	0.0181560
819.234	0.0181506
819.312	0.0180846
819.390	0.0182191
819.468	0.0181467
819.546	0.0181658
819.624	0.0180006
819.703	0.0179700
819.781	0.0180428
819.859	0.0180315
819.937	0.0178947
820.015	0.0180337
820.093	0.0180766
820.171	0.0180363
820.249	0.0179580
820.328	0.0180274
820.406	0.0180086
820.484	0.0179596
820.562	0.0180004
820.640	0.0179446
820.718	0.0178638
820.796	0.0180096
820.874	0.0180750
820.953	0.0181403
821.031	0.0180421
821.109	0.0180544
821.187	0.0180556
821.265	0.0181313
821.343	0.0180639
821.421	0.0182122
821.499	0.0181761
821.578	0.0181478
821.656	0.0182665
821.734	0.0181641
821.812	0.0183047
821.890	0.0181837
821.968	0.0181705
822.046	0.0181973
822.124	0.0182568
822.203	0.0182182
822.281	0.0182784
822.359	0.0181821
822.437	0.0180717
822.515	0.0181114
822.593	0.0180849
822.671	0.0180729
822.749	0.0178899
822.828	0.0179920
822.906	0.0179869
822.984	0.0179795
823.062	0.0179159
823.140	0.0179922
823.218	0.0179302
823.296	0.0179108
823.374	0.0177914
823.453	0.0180387
823.531	0.0180952
823.609	0.0179148
823.687	0.0179531
823.765	0.0179229
823.843	0.0177780
823.921	0.0180038
823.999	0.0178719
824.078	0.0180019
824.156	0.0178844
824.234	0.0179980
824.312	0.0181185
824.390	0.0179279
824.468	0.0178918
824.546	0.0179729
824.624	0.0179718
824.703	0.0180186
824.781	0.0181014
824.859	0.0180212
824.937	0.0179189
825.015	0.0179643
825.093	0.0180945
825.171	0.0180737
825.249	0.0182877
825.328	0.0181369
825.406	0.0180682
825.484	0.0182560
825.562	0.0181091
825.640	0.0181096
825.718	0.0181225
825.796	0.0180341
825.874	0.0180591
825.953	0.0180883
826.031	0.0181057
826.109	0.0182945
826.187	0.0180188
826.265	0.0180685
826.343	0.0180264
826.421	0.0181308
826.499	0.0180811
826.578	0.0181123
826.656	0.0181799
826.734	0.0181461
826.812	0.0181762
826.890	0.0180856
826.968	0.0182045
827.046	0.0182172
827.124	0.0180304
827.203	0.0181042
827.281	0.0181300
827.359	0.0179939
827.437	0.0181522
827.515	0.0180704
827.593	0.0181529
827.671	0.0180132
827.749	0.0180216
827.828	0.0181613
827.906	0.0180113
827.984	0.0179512
828.062	0.0179930
828.140	0.0180403
828.218	0.0180420
828.296	0.0180097
828.374	0.0178972
828.453	0.0179469
828.531	0.0179359
828.609	0.0179549
828.687	0.0179700
828.765	0.0179005
828.843	0.0180036
828.921	0.0180942
828.999	0.0180074
829.078	0.0179744
829.156	0.0180289
829.234	0.0180835
829.312	0.0180976
829.390	0.0181358
829.468	0.0181906
829.546	0.0178707
829.624	0.0180494
829.703	0.0180256
829.781	0.0180711
829.859	0.0182023
829.937	0.0181651
830.015	0.0179771
830.093	0.0181152
830.171	0.0181097
830.249	0.0179189
830.328	0.0181418
830.406	0.0180622
830.484	0.0179986
830.562	0.0179465
830.640	0.0181143
830.718	0.0180243
830.796	0.0181185
830.874	0.0181334
830.953	0.0180304
831.031	0.0180260
831.109	0.0179178
831.187	0.0179611
831.265	0.0180132
831.343	0.0178244
831.421	0.0178754
831.499	0.0178125
831.578	0.0179087
831.656	0.0178496
831.734	0.0177640
831.812	0.0177873
831.890	0.0178097
831.968	0.0176669
832.046	0.0177385
832.124	0.0178290
832.203	0.0177855
832.281	0.0178242
832.359	0.0178822
832.437	0.0178149
832.515	0.0177924
832.593	0.0177770
832.671	0.0178455
832.749	0.0178240
832.828	0.0178648
832.906	0.0178597
832.984	0.0179465
833.062	0.0179783
833.140	0.0179063
833.218	0.0179206
833.296	0.0178204
833.374	0.0178590
833.453	0.0179150
833.531	0.0179617
833.609	0.0180225
833.687	0.0179388
833.765	0.0178900
833.843	0.0178752
833.921	0.0180000
833.999	0.0178837
834.078	0.0179010
834.156	0.0178258
834.234	0.0178056
834.312	0.0179457
834.390	0.0177856
834.468	0.0178999
834.546	0.0178388
834.624	0.0178719
834.703	0.0178616
834.781	0.0177719
834.859	0.0178869
834.937	0.0179079
835.015	0.0179839
835.093	0.0179291
835.171	0.0180251
835.249	0.0179816
835.328	0.0181423
835.406	0.0179119
835.484	0.0180302
835.562	0.0179279
835.640	0.0180150
835.718	0.0181366
835.796	0.0179939
835.874	0.0180969
835.953	0.0180486
836.031	0.0180887
836.109	0.0180911
836.187	0.0180025
836.265	0.0180191
836.343	0.0180107
836.421	0.0179665
836.499	0.0180994
836.578	0.0181008
836.656	0.0180859
836.734	0.0179914
836.812	0.0179428
836.890	0.0179472
836.968	0.0179412
837.046	0.0179115
837.124	0.0179640
837.203	0.0180334
837.281	0.0180486
837.359	0.0181322
837.437	0.0180047
837.515	0.0179151
837.593	0.0177747
837.671	0.0179696
837.749	0.0180244
837.828	0.0180811
837.906	0.0180065
837.984	0.0179584
838.062	0.0179242
838.140	0.0180013
838.218	0.0180443
838.296	0.0179893
838.374	0.0181200
838.453	0.0180848
838.531	0.0179741
838.609	0.0179462
838.687	0.0181427
838.765	0.0180326
838.843	0.0180427
838.921	0.0179814
838.999	0.0180701
839.078	0.0180953
839.156	0.0178424
839.234	0.0180112
839.312	0.0179321
839.390	0.0180074
839.468	0.0177829
839.546	0.0178705
839.624	0.0179728
839.703	0.0179175
839.781	0.0179585
839.859	0.0178609
839.937	0.0179973
840.015	0.0178310
840.093	0.0179248
840.171	0.0179149
840.249	0.0180209
840.328	0.0179221
840.406	0.0180897
840.484	0.0179817
840.562	0.0179942
840.640	0.0180180
840.718	0.0180998
840.796	0.0179435
840.874	0.0179977
840.953	0.0180350
841.031	0.0181713
841.109	0.0180836
841.187	0.0180209
841.265	0.0180357
841.343	0.0180891
841.421	0.0181239
841.499	0.0180696
841.578	0.0179824
841.656	0.0181236
841.734	0.0180932
841.812	0.0181964
841.890	0.0181017
841.968	0.0181309
842.046	0.0180659
842.124	0.0179674
842.203	0.0181398
842.281	0.0180321
842.359	0.0179951
842.437	0.0180608
842.515	0.0180976
842.593	0.0180090
842.671	0.0179576
842.749	0.0180875
842.828	0.0181289
842.906	0.0181000
842.984	0.0180869
843.062	0.0180798
843.140	0.0179832
843.218	0.0180029
843.296	0.0180909
843.374	0.0179053
843.453	0.0181023
843.531	0.0179535
843.609	0.0179564
843.687	0.0179009
843.765	0.0180297
843.843	0.0180771
843.921	0.0179108
843.999	0.0180526
844.078	0.0180010
844.156	0.0178519
844.234	0.0179836
844.312	0.0178020
844.390	0.0180107
844.468	0.0179225
844.546	0.0178008
844.624	0.0178116
844.703	0.0178902
844.781	0.0178786
844.859	0.0178772
844.937	0.0179034
845.015	0.0180354
845.093	0.0180418
845.171	0.0180575
845.249	0.0178806
845.328	0.0177406
845.406	0.0180283
845.484	0.0178956
845.562	0.0180698
845.640	0.0180210
845.718	0.0179694
845.796	0.0180350
845.874	0.0180442
845.953	0.0180514
846.031	0.0180964
846.109	0.0180552
846.187	0.0181093
846.265	0.0180651
846.343	0.0180807
846.421	0.0181046
846.499	0.0181001
846.578	0.0180965
846.656	0.0181930
846.734	0.0180999
846.812	0.0181707
846.890	0.0181467
846.968	0.0181486
847.046	0.0182975
847.124	0.0181836
847.203	0.0182092
847.281	0.0181758
847.359	0.0181753
847.437	0.0182009
847.515	0.0183503
847.593	0.0181564
847.671	0.0182024
847.749	0.0181982
847.828	0.0181589
847.906	0.0182029
847.984	0.0180989
848.062	0.0181104
848.140	0.0181121
848.218	0.0180592
848.296	0.0180675
848.374	0.0180750
848.453	0.0179868
848.531	0.0181190
848.609	0.0180423
848.687	0.0180452
848.765	0.0181149
848.843	0.0180914
848.921	0.0180189
848.999	0.0181302
849.078	0.0180769
849.156	0.0181929
849.234	0.0181494
849.312	0.0181077
849.390	0.0180202
849.468	0.0179149
849.546	0.0180450
849.624	0.0181395
849.703	0.0180250
849.781	0.0181077
849.859	0.0181427
849.937	0.0180090
850.015	0.0180605
850.093	0.0181943
850.171	0.0180764
850.249	0.0180669
850.328	0.0180617
850.406	0.0180553
850.484	0.0181314
850.562	0.0182584
850.640	0.0182021
850.718	0.0181983
850.796	0.0181735
850.874	0.0182439
850.953	0.0181173
851.031	0.0181418
851.109	0.0181812
851.187	0.0180884
851.265	0.0182597
851.343	0.0182898
851.421	0.0182367
851.499	0.0182310
851.578	0.0181654
851.656	0.0181699
851.734	0.0182007
851.812	0.0182184
851.890	0.0182027
851.968	0.0181644
852.046	0.0180190
852.124	0.0180267
852.203	0.0181791
852.281	0.0182182
852.359	0.0181169
852.437	0.0181672
852.515	0.0180309
852.593	0.0180257
852.671	0.0179183
852.749	0.0180669
852.828	0.0180236
852.906	0.0180949
852.984	0.0182054
853.062	0.0181133
853.140	0.0180936
853.218	0.0179102
853.296	0.0180078
853.374	0.0180319
853.453	0.0179002
853.531	0.0179807
853.609	0.0181315
853.687	0.0180209
853.765	0.0180509
853.843	0.0179317
853.921	0.0179495
853.999	0.0180374
854.078	0.0180326
854.156	0.0178929
854.234	0.0178817
854.312	0.0179051
854.390	0.0179527
854.468	0.0180502
854.546	0.0181116
854.624	0.0179842
854.703	0.0180502
854.781	0.0180935
854.859	0.0179766
854.937	0.0179591
855.015	0.0180128
855.093	0.0178878
855.171	0.0181052
855.249	0.0179912
855.328	0.0179333
855.406	0.0180097
855.484	0.0180634
855.562	0.0179982
855.640	0.0179157
855.718	0.0181075
855.796	0.0181584
855.874	0.0180470
855.953	0.0178779
856.031	0.0180345
856.109	0.0181771
856.187	0.0180248
856.265	0.0179934
856.343	0.0179749
856.421	0.0180036
856.499	0.0179494
856.578	0.0179700
856.656	0.0180031
856.734	0.0180839
856.812	0.0179913
856.890	0.0180797
856.968	0.0180736
857.046	0.0181606
857.124	0.0180904
857.203	0.0180101
857.281	0.0182165
857.359	0.0180247
857.437	0.0181625
857.515	0.0181213
857.593	0.0181647
857.671	0.0179461
857.749	0.0181278
857.828	0.0181208
857.906	0.0180186
857.984	0.0179710
858.062	0.0180934
858.140	0.0180354
858.218	0.0181194
858.296	0.0180071
858.374	0.0181138
858.453	0.0180295
858.531	0.0179043
858.609	0.0179295
858.687	0.0179813
858.765	0.0178490
858.843	0.0179570
858.921	0.0179653
858.999	0.0180725
859.078	0.0178793
859.156	0.0178483
859.234	0.0180610
859.312	0.0180486
859.390	0.0179781
859.468	0.0180039
859.546	0.0180227
859.624	0.0181074
859.703	0.0181007
859.781	0.0178809
859.859	0.0181826
859.937	0.0181573
860.015	0.0180828
860.093	0.0181354
860.171	0.0179605
860.249	0.0181958
860.328	0.0182632
860.406	0.0180587
860.484	0.0182309
860.562	0.0180909
860.640	0.0180058
860.718	0.0181036
860.796	0.0179660
860.874	0.0179874
860.953	0.0180625
861.031	0.0180638
861.109	0.0179221
861.187	0.0178290
861.265	0.0179314
861.343	0.0180056
861.421	0.0180744
861.499	0.0179677
861.578	0.0178752
861.656	0.0179528
861.734	0.0180025
861.812	0.0179713
861.890	0.0178436
861.968	0.0178987
862.046	0.0178314
862.124	0.0178564
862.203	0.0178398
862.281	0.0179885
862.359	0.0178423
862.437	0.0178757
862.515	0.0178419
862.593	0.0177837
862.671	0.0177867
862.749	0.0178426
862.828	0.0177885
862.906	0.0178919
862.984	0.0177790
863.062	0.0177068
863.140	0.0177010
863.218	0.0178309
863.296	0.0177850
863.374	0.0176991
863.453	0.0176460
863.531	0.0178900
863.609	0.0178426
863.687	0.0178049
863.765	0.0178555
863.843	0.0178778
863.921	0.0178378
863.999	0.0177525
864.078	0.0178467
864.156	0.0178590
864.234	0.0177949
864.312	0.0177634
864.390	0.0178067
864.468	0.0178749
864.546	0.0177725
864.624	0.0178297
864.703	0.0178643
864.781	0.0177825
864.859	0.0178883
864.937	0.0178672
865.015	0.0178897
865.093	0.0180003
865.171	0.0177830
865.249	0.0177650
865.328	0.0179803
865.406	0.0179106
865.484	0.0179431
865.562	0.0178751
865.640	0.0179177
865.718	0.0180312
865.796	0.0180073
865.874	0.0179088
865.953	0.0180087
866.031	0.0180647
866.109	0.0178513
866.187	0.0180760
866.265	0.0181012
866.343	0.0181474
866.421	0.0180099
866.499	0.0180260
866.578	0.0179936
866.656	0.0179836
866.734	0.0180733
866.812	0.0180637
866.890	0.0179971
866.968	0.0180886
867.046	0.0179437
867.124	0.0179556
867.203	0.0182270
867.281	0.0182238
867.359	0.0180599
867.437	0.0179588
867.515	0.0180909
867.593	0.0180964
867.671	0.0180871
867.749	0.0180855
867.828	0.0180996
867.906	0.0179151
867.984	0.0180161
868.062	0.0177409
868.140	0.0179606
868.218	0.0180154
868.296	0.0180942
868.374	0.0180666
868.453	0.0179484
868.531	0.0180393
868.609	0.0179420
868.687	0.0180256
868.765	0.0180327
868.843	0.0178038
868.921	0.0181031
868.999	0.0180389
869.078	0.0179458
869.156	0.0177749
869.234	0.0179785
869.312	0.0181322
869.390	0.0180025
869.468	0.0181280
869.546	0.0179990
869.624	0.0181271
869.703	0.0180422
869.781	0.0182239
869.859	0.0180743
869.937	0.0180849
870.015	0.0181404
870.093	0.0180862
870.171	0.0182581
870.249	0.0181181
870.328	0.0181535
870.406	0.0180622
870.484	0.0181039
870.562	0.0181288
870.640	0.0181278
870.718	0.0180828
870.796	0.0180215
870.874	0.0182297
870.953	0.0180322
871.031	0.0179538
871.109	0.0181297
871.187	0.0179582
871.265	0.0180819
871.343	0.0180148
871.421	0.0179874
871.499	0.0180180
871.578	0.0179875
871.656	0.0181191
871.734	0.0180296
871.812	0.0180637
871.890	0.0179635
871.968	0.0180838
872.046	0.0180751
872.124	0.0179630
872.203	0.0179642
872.281	0.0182140
872.359	0.0180780
872.437	0.0180608
872.515	0.0179109
872.593	0.0181036
872.671	0.0180102
872.749	0.0180209
872.828	0.0179712
872.906	0.0178942
872.984	0.0180399
873.062	0.0179539
873.140	0.0181045
873.218	0.0179181
873.296	0.0179034
873.374	0.0179444
873.453	0.0179612
873.531	0.0180090
873.609	0.0179333
873.687	0.0180595
873.765	0.0180724
873.843	0.0180436
873.921	0.0178869
873.999	0.0179380
874.078	0.0178819
874.156	0.0180828
874.234	0.0179429
874.312	0.0180997
874.390	0.0180297
874.468	0.0180662
874.546	0.0181303
874.624	0.0180235
874.703	0.0180336
874.781	0.0179596
874.859	0.0178857
874.937	0.0179911
875.015	0.0179071
875.093	0.0181052
875.171	0.0180171
875.249	0.0180492
875.328	0.0179444
875.406	0.0180818
875.484	0.0180722
875.562	0.0178754
875.640	0.0179327
875.718	0.0179283
875.796	0.0180902
875.874	0.0180868
875.953	0.0179434
876.031	0.0179195
876.109	0.0181272
876.187	0.0181398
876.265	0.0180685
876.343	0.0180334
876.421	0.0180727
876.499	0.0181041
876.578	0.0180377
876.656	0.0181963
876.734	0.0181377
876.812	0.0180814
876.890	0.0182228
876.968	0.0183558
877.046	0.0182197
877.124	0.0181979
877.203	0.0180795
877.281	0.0181277
877.359	0.0182951
877.437	0.0183268
877.515	0.0181841
877.593	0.0180817
877.671	0.0182051
877.749	0.0182155
877.828	0.0180460
877.906	0.0180912
877.984	0.0179778
878.062	0.0180711
878.140	0.0179503
878.218	0.0180553
878.296	0.0181593
878.374	0.0181162
878.453	0.0180997
878.531	0.0179939
878.609	0.0181062
878.687	0.0180772
878.765	0.0181709
878.843	0.0180243
878.921	0.0180521
878.999	0.0180309
879.078	0.0179704
879.156	0.0179042
879.234	0.0180212
879.312	0.0181558
879.390	0.0179373
879.468	0.0178719
879.546	0.0180455
879.624	0.0180221
879.703	0.0180704
879.781	0.0179263
879.859	0.0178993
879.937	0.0180257
880.015	0.0178848
880.093	0.0179290
880.171	0.0180034
880.249	0.0179041
880.328	0.0179121
880.406	0.0179620
880.484	0.0178503
880.562	0.0179150
880.640	0.0180183
880.718	0.0180092
880.796	0.0180532
880.874	0.0178938
880.953	0.0179057
881.031	0.0180622
881.109	0.0179333
881.187	0.0177938
881.265	0.0179211
881.343	0.0178854
881.421	0.0180041
881.499	0.0181265
881.578	0.0178746
881.656	0.0180885
881.734	0.0179458
881.812	0.0179849
881.890	0.0178042
881.968	0.0181115
882.046	0.0180914
882.124	0.0180535
882.203	0.0179728
882.281	0.0178890
882.359	0.0180087
882.437	0.0180881
882.515	0.0180115
882.593	0.0181673
882.671	0.0180991
882.749	0.0179840
882.828	0.0179845
882.906	0.0180168
882.984	0.0180767
883.062	0.0179047
883.140	0.0178461
883.218	0.0179089
883.296	0.0178637
883.374	0.0179423
883.453	0.0178816
883.531	0.0178793
883.609	0.0178287
883.687	0.0179306
883.765	0.0180584
883.843	0.0178963
883.921	0.0179443
883.999	0.0177936
884.078	0.0179018
884.156	0.0179543
884.234	0.0180338
884.312	0.0179033
884.390	0.0178575
884.468	0.0179177
884.546	0.0178204
884.624	0.0178851
884.703	0.0179349
884.781	0.0179720
884.859	0.0177883
884.937	0.0178219
885.015	0.0178525
885.093	0.0179543
885.171	0.0178987
885.249	0.0178831
885.328	0.0179155
885.406	0.0178777
885.484	0.0179586
885.562	0.0179026
885.640	0.0177660
885.718	0.0178199
885.796	0.0177540
885.874	0.0178675
885.953	0.0177499
886.031	0.0179702
886.109	0.0178036
886.187	0.0178201
886.265	0.0178881
886.343	0.0177557
886.421	0.0178917
886.499	0.0179753
886.578	0.0178885
886.656	0.0178748
886.734	0.0179661
886.812	0.0179444
886.890	0.0178947
886.968	0.0178147
887.046	0.0177578
887.124	0.0180167
887.203	0.0178554
887.281	0.0178893
887.359	0.0180112
887.437	0.0179348
887.515	0.0177957
887.593	0.0178554
887.671	0.0176698
887.749	0.0179442
887.828	0.0179837
887.906	0.0179243
887.984	0.0178369
888.062	0.0179417
888.140	0.0178710
888.218	0.0178414
888.296	0.0179050
888.374	0.0179919
888.453	0.0179356
888.531	0.0179449
888.609	0.0179894
888.687	0.0178642
888.765	0.0179762
888.843	0.0180708
888.921	0.0179504
888.999	0.0179690
889.078	0.0177821
889.156	0.0178987
889.234	0.0178994
889.312	0.0180193
889.390	0.0180107
889.468	0.0180218
889.546	0.0179364
889.624	0.0179304
889.703	0.0179694
889.781	0.0179825
889.859	0.0179266
889.937	0.0178868
890.015	0.0179822
890.093	0.0179663
890.171	0.0179932
890.249	0.0180215
890.328	0.0179320
890.406	0.0178985
890.484	0.0180054
890.562	0.0178783
890.640	0.0179782
890.718	0.0181615
890.796	0.0182357
890.874	0.0181172
890.953	0.0180431
891.031	0.0181258
891.109	0.0180058
891.187	0.0180494
891.265	0.0180597
891.343	0.0182774
891.421	0.0181322
891.499	0.0181145
891.578	0.0179581
891.656	0.0180470
891.734	0.0181767
891.812	0.0181094
891.890	0.0182146
891.968	0.0181497
892.046	0.0181495
892.124	0.0181617
892.203	0.0181826
892.281	0.0181297
892.359	0.0181661
892.437	0.0181625
892.515	0.0181823
892.593	0.0183543
892.671	0.0182289
892.749	0.0181812
892.828	0.0182812
892.906	0.0182664
892.984	0.0182814
893.062	0.0183281
893.140	0.0182816
893.218	0.0184212
893.296	0.0182755
893.374	0.0183182
893.453	0.0183568
893.531	0.0183200
893.609	0.0182647
893.687	0.0183640
893.765	0.0182710
893.843	0.0182365
893.921	0.0182927
893.999	0.0182537
894.078	0.0180528
894.156	0.0182513
894.234	0.0180364
894.312	0.0181992
894.390	0.0181860
894.468	0.0180249
894.546	0.0180252
894.624	0.0180501
894.703	0.0180874
894.781	0.0180902
894.859	0.0180051
894.937	0.0178949
895.015	0.0179704
895.093	0.0179874
895.171	0.0180991
895.249	0.0180502
895.328	0.0178447
895.406	0.0180667
895.484	0.0180582
895.562	0.0178471
895.640	0.0179504
895.718	0.0180038
895.796	0.0181245
895.874	0.0178344
895.953	0.0178571
896.031	0.0179800
896.109	0.0180266
896.187	0.0177964
896.265	0.0180399
896.343	0.0180407
896.421	0.0179304
896.499	0.0180240
896.578	0.0180569
896.656	0.0180815
896.734	0.0180640
896.812	0.0180198
896.890	0.0181230
896.968	0.0181538
897.046	0.0181717
897.124	0.0181413
897.203	0.0181023
897.281	0.0181548
897.359	0.0180639
897.437	0.0181841
897.515	0.0181312
897.593	0.0181918
897.671	0.0180558
897.749	0.0180724
897.828	0.0181442
897.906	0.0182924
897.984	0.0182405
898.062	0.0180686
898.140	0.0181252
898.218	0.0181287
898.296	0.0182322
898.374	0.0183235
898.453	0.0181735
898.531	0.0182400
898.609	0.0183236
898.687	0.0181304
898.765	0.0182053
898.843	0.0182852
898.921	0.0181966
898.999	0.0183264
899.078	0.0181319
899.156	0.0181276
899.234	0.0181762
899.312	0.0180366
899.390	0.0180713
899.468	0.0181762
899.546	0.0181255
899.624	0.0180123
899.703	0.0180487
899.781	0.0181819
899.859	0.0179763
899.937	0.0180497
900.015	0.0180319
900.093	0.0180943
900.171	0.0179980
900.249	0.0181285
900.328	0.0181138
900.406	0.0178953
900.484	0.0179308
900.562	0.0178741
900.640	0.0179018
900.718	0.0180186
900.796	0.0179000
900.874	0.0180735
900.953	0.0181073
901.031	0.0180267
901.109	0.0179632
901.187	0.0180122
901.265	0.0180290
901.343	0.0181403
901.421	0.0181095
901.499	0.0180177
901.578	0.0181404
901.656	0.0181795
901.734	0.0182413
901.812	0.0182001
901.890	0.0181619
901.968	0.0182564
902.046	0.0181607
902.124	0.0181998
902.203	0.0181871
902.281	0.0182694
902.359	0.0181915
902.437	0.0181773
902.515	0.0181171
902.593	0.0181409
902.671	0.0180973
902.749	0.0182217
902.828	0.0180049
902.906	0.0179321
902.984	0.0178957
903.062	0.0179724
903.140	0.0181643
903.218	0.0180692
903.296	0.0179784
903.374	0.0179110
903.453	0.0180388
903.531	0.0178931
903.609	0.0178752
903.687	0.0177998
903.765	0.0178992
903.843	0.0178761
903.921	0.0177579
903.999	0.0178673
904.078	0.0177338
904.156	0.0179043
904.234	0.0178666
904.312	0.0176951
904.390	0.0178163
904.468	0.0178716
904.546	0.0177397
904.624	0.0178508
904.703	0.0178135
904.781	0.0177644
904.859	0.0178577
904.937	0.0177998
905.015	0.0177661
905.093	0.0179124
905.171	0.0178945
905.249	0.0178075
905.328	0.0178323
905.406	0.0178825
905.484	0.0178790
905.562	0.0177869
905.640	0.0178587
905.718	0.0178562
905.796	0.0177879
905.874	0.0178567
905.953	0.0178917
906.031	0.0179146
906.109	0.0177182
906.187	0.0179877
906.265	0.0179951
906.343	0.0177258
906.421	0.0179459
906.499	0.0180029
906.578	0.0178056
906.656	0.0178147
906.734	0.0178113
906.812	0.0180279
906.890	0.0179856
906.968	0.0179739
907.046	0.0180159
907.124	0.0179321
907.203	0.0179104
907.281	0.0179212
907.359	0.0180003
907.437	0.0179856
907.515	0.0178649
907.593	0.0180984
907.671	0.0180765
907.749	0.0178622
907.828	0.0182207
907.906	0.0180059
907.984	0.0180957
908.062	0.0179830
908.140	0.0180651
908.218	0.0180919
908.296	0.0181098
908.374	0.0180609
908.453	0.0180933
908.531	0.0179883
908.609	0.0179854
908.687	0.0181351
908.765	0.0180563
908.843	0.0179782
908.921	0.0181715
908.999	0.0181079
909.078	0.0180986
909.156	0.0181452
909.234	0.0181600
909.312	0.0182618
909.390	0.0181036
909.468	0.0180198
909.546	0.0180961
909.624	0.0181789
909.703	0.0181719
909.781	0.0180953
909.859	0.0181876
909.937	0.0180663
910.015	0.0180747
910.093	0.0180689
910.171	0.0180879
910.249	0.0180436
910.328	0.0181429
910.406	0.0180371
910.484	0.0180419
910.562	0.0180599
910.640	0.0179044
910.718	0.0180071
910.796	0.0180560
910.874	0.0179111
910.953	0.0178277
911.031	0.0179755
911.109	0.0180205
911.187	0.0178410
911.265	0.0179239
911.343	0.0178789
911.421	0.0178941
911.499	0.0178930
911.578	0.0178033
911.656	0.0179636
911.734	0.0178272
911.812	0.0179269
911.890	0.0178485
911.968	0.0177606
912.046	0.0180083
912.124	0.0178142
912.203	0.0178617
912.281	0.0178743
912.359	0.0180536
912.437	0.0179059
912.515	0.0179489
912.593	0.0179983
912.671	0.0179932
912.749	0.0180580
912.828	0.0181525
912.906	0.0180382
912.984	0.0181637
913.062	0.0181857
913.140	0.0180306
913.218	0.0180710
913.296	0.0182391
913.374	0.0180136
913.453	0.0180228
913.531	0.0182761
913.609	0.0181648
913.687	0.0180853
913.765	0.0180054
913.843	0.0179397
913.921	0.0179777
913.999	0.0179364
914.078	0.0179022
914.156	0.0180080
914.234	0.0179736
914.312	0.0179308
914.390	0.0180019
914.468	0.0179355
914.546	0.0180093
914.624	0.0178142
914.703	0.0179956
914.781	0.0178474
914.859	0.0178972
914.937	0.0179039
915.015	0.0179376
915.093	0.0178020
915.171	0.0179947
915.249	0.0179542
915.328	0.0179327
915.406	0.0179306
915.484	0.0179228
915.562	0.0179456
915.640	0.0179897
915.718	0.0180390
915.796	0.0181292
915.874	0.0180860
915.953	0.0181048
916.031	0.0182574
916.109	0.0180609
916.187	0.0181728
916.265	0.0182006
916.343	0.0181106
916.421	0.0182285
916.499	0.0183905
916.578	0.0182217
916.656	0.0181644
916.734	0.0182280
916.812	0.0181915
916.890	0.0182547
916.968	0.0182303
917.046	0.0183237
917.124	0.0182914
917.203	0.0182186
917.281	0.0183004
917.359	0.0183030
917.437	0.0181867
917.515	0.0183528
917.593	0.0183829
917.671	0.0183233
917.749	0.0182991
917.828	0.0183556
917.906	0.0183498
917.984	0.0182702
918.062	0.0184453
918.140	0.0183518
918.218	0.0183347
918.296	0.0183216
918.374	0.0182399
918.453	0.0181730
918.531	0.0183067
918.609	0.0182816
918.687	0.0183943
918.765	0.0184257
918.843	0.0183800
918.921	0.0182534
918.999	0.0182658
919.078	0.0183392
919.156	0.0183311
919.234	0.0183453
919.312	0.0182792
919.390	0.0182155
919.468	0.0181012
919.546	0.0182635
919.624	0.0182903
919.703	0.0183411
919.781	0.0183391
919.859	0.0183598
919.937	0.0182471
