06/10/2022	16:15:22	Ver.	4.1	UNKNOWN
Optical Delay	550.020508	Delta X		0.078125	Sweeps	1	Scan Rate	0/0
Coordinates	Axis 1	NaN	Axis 2	NaN	Axis 3	NaN	Axis 4	NaN	Axis 5	NaN	Axis 6	0.000000
TX Power	0.000000	RX Power	0.000000

550.021	0.0164880
550.099	0.0165121
550.177	0.0166674
550.255	0.0165166
550.333	0.0164662
550.411	0.0166108
550.489	0.0165528
550.567	0.0164600
550.646	0.0164327
550.724	0.0165091
550.802	0.0163954
550.880	0.0165080
550.958	0.0166323
551.036	0.0164883
551.114	0.0165490
551.192	0.0165466
551.271	0.0165630
551.349	0.0164853
551.427	0.0165816
551.505	0.0165388
551.583	0.0165408
551.661	0.0164569
551.739	0.0166320
551.817	0.0165193
551.896	0.0165861
551.974	0.0165921
552.052	0.0165041
552.130	0.0165035
552.208	0.0164848
552.286	0.0165107
552.364	0.0164738
552.442	0.0164737
552.521	0.0165746
552.599	0.0164610
552.677	0.0166083
552.755	0.0164927
552.833	0.0165528
552.911	0.0164545
552.989	0.0165371
553.067	0.0164772
553.146	0.0165615
553.224	0.0164751
553.302	0.0165420
553.380	0.0165836
553.458	0.0166476
553.536	0.0165563
553.614	0.0165685
553.692	0.0165492
553.771	0.0165602
553.849	0.0164019
553.927	0.0164592
554.005	0.0165743
554.083	0.0165607
554.161	0.0164996
554.239	0.0164677
554.317	0.0166302
554.396	0.0164751
554.474	0.0165321
554.552	0.0164827
554.630	0.0165642
554.708	0.0164587
554.786	0.0165548
554.864	0.0164153
554.942	0.0165829
555.021	0.0163741
555.099	0.0164904
555.177	0.0164859
555.255	0.0165227
555.333	0.0165795
555.411	0.0164549
555.489	0.0164289
555.567	0.0165051
555.646	0.0165603
555.724	0.0164394
555.802	0.0164810
555.880	0.0165878
555.958	0.0165714
556.036	0.0165308
556.114	0.0166091
556.192	0.0165183
556.271	0.0164292
556.349	0.0164171
556.427	0.0164102
556.505	0.0164262
556.583	0.0164783
556.661	0.0163892
556.739	0.0165520
556.817	0.0165703
556.896	0.0165894
556.974	0.0165291
557.052	0.0165857
557.130	0.0164156
557.208	0.0165405
557.286	0.0166479
557.364	0.0164719
557.442	0.0164883
557.521	0.0164623
557.599	0.0165855
557.677	0.0164942
557.755	0.0165971
557.833	0.0165144
557.911	0.0165564
557.989	0.0164849
558.067	0.0165575
558.146	0.0165012
558.224	0.0166228
558.302	0.0165778
558.380	0.0166015
558.458	0.0163933
558.536	0.0163938
558.614	0.0165981
558.692	0.0164143
558.771	0.0164722
558.849	0.0164685
558.927	0.0164427
559.005	0.0164430
559.083	0.0164732
559.161	0.0165091
559.239	0.0164809
559.317	0.0165186
559.396	0.0164294
559.474	0.0164923
559.552	0.0165402
559.630	0.0165524
559.708	0.0165717
559.786	0.0165388
559.864	0.0164257
559.942	0.0165240
560.021	0.0166321
560.099	0.0166373
560.177	0.0164662
560.255	0.0166160
560.333	0.0164815
560.411	0.0164777
560.489	0.0165308
560.567	0.0164594
560.646	0.0165485
560.724	0.0165134
560.802	0.0164813
560.880	0.0165208
560.958	0.0165170
561.036	0.0164951
561.114	0.0164633
561.192	0.0165939
561.271	0.0164423
561.349	0.0165702
561.427	0.0164918
561.505	0.0164317
561.583	0.0164648
561.661	0.0165684
561.739	0.0164877
561.817	0.0164258
561.896	0.0163599
561.974	0.0167136
562.052	0.0164300
562.130	0.0164772
562.208	0.0165785
562.286	0.0165973
562.364	0.0164867
562.442	0.0164363
562.521	0.0164948
562.599	0.0165176
562.677	0.0165480
562.755	0.0163652
562.833	0.0165629
562.911	0.0165482
562.989	0.0163960
563.067	0.0165926
563.146	0.0166589
563.224	0.0166117
563.302	0.0164685
563.380	0.0164453
563.458	0.0165974
563.536	0.0164570
563.614	0.0165417
563.692	0.0164203
563.771	0.0164724
563.849	0.0166037
563.927	0.0165038
564.005	0.0166106
564.083	0.0166362
564.161	0.0164642
564.239	0.0165170
564.317	0.0164137
564.396	0.0166571
564.474	0.0165282
564.552	0.0164523
564.630	0.0165274
564.708	0.0165840
564.786	0.0165200
564.864	0.0165658
564.942	0.0164185
565.021	0.0166268
565.099	0.0165539
565.177	0.0164745
565.255	0.0165234
565.333	0.0165499
565.411	0.0165589
565.489	0.0165025
565.567	0.0165659
565.646	0.0164159
565.724	0.0165644
565.802	0.0166199
565.880	0.0165413
565.958	0.0165294
566.036	0.0166605
566.114	0.0166564
566.192	0.0164990
566.271	0.0164279
566.349	0.0165686
566.427	0.0164281
566.505	0.0165903
566.583	0.0164407
566.661	0.0165097
566.739	0.0166624
566.817	0.0166260
566.896	0.0164085
566.974	0.0165191
567.052	0.0165321
567.130	0.0164703
567.208	0.0165266
567.286	0.0165485
567.364	0.0164813
567.442	0.0164729
567.521	0.0165221
567.599	0.0165128
567.677	0.0164632
567.755	0.0165577
567.833	0.0165144
567.911	0.0165795
567.989	0.0166537
568.067	0.0164766
568.146	0.0164938
568.224	0.0164873
568.302	0.0164562
568.380	0.0164718
568.458	0.0165231
568.536	0.0165199
568.614	0.0165260
568.692	0.0166175
568.771	0.0164295
568.849	0.0164300
568.927	0.0164529
569.005	0.0164539
569.083	0.0164410
569.161	0.0165425
569.239	0.0165504
569.317	0.0165665
569.396	0.0165451
569.474	0.0164870
569.552	0.0165622
569.630	0.0165771
569.708	0.0164503
569.786	0.0166112
569.864	0.0167899
569.942	0.0165039
570.021	0.0165046
570.099	0.0165285
570.177	0.0165073
570.255	0.0166268
570.333	0.0164908
570.411	0.0164771
570.489	0.0165105
570.567	0.0165453
570.646	0.0166074
570.724	0.0166624
570.802	0.0166115
570.880	0.0163704
570.958	0.0165339
571.036	0.0165565
571.114	0.0165633
571.192	0.0166154
571.271	0.0166557
571.349	0.0165549
571.427	0.0166006
571.505	0.0165881
571.583	0.0164772
571.661	0.0164550
571.739	0.0164681
571.817	0.0166473
571.896	0.0165733
571.974	0.0165774
572.052	0.0164952
572.130	0.0164941
572.208	0.0166412
572.286	0.0164523
572.364	0.0164666
572.442	0.0163988
572.521	0.0165205
572.599	0.0166040
572.677	0.0166475
572.755	0.0165826
572.833	0.0165382
572.911	0.0165806
572.989	0.0165196
573.067	0.0165211
573.146	0.0164615
573.224	0.0165575
573.302	0.0164431
573.380	0.0164758
573.458	0.0165310
573.536	0.0167754
573.614	0.0164571
573.692	0.0164618
573.771	0.0165364
573.849	0.0165824
573.927	0.0165829
574.005	0.0164547
574.083	0.0164823
574.161	0.0165603
574.239	0.0165035
574.317	0.0164629
574.396	0.0165785
574.474	0.0164597
574.552	0.0164040
574.630	0.0165952
574.708	0.0165971
574.786	0.0165714
574.864	0.0166011
574.942	0.0165662
575.021	0.0165275
575.099	0.0165656
575.177	0.0165298
575.255	0.0167699
575.333	0.0164285
575.411	0.0166197
575.489	0.0166534
575.567	0.0165689
575.646	0.0164101
575.724	0.0164536
575.802	0.0165395
575.880	0.0165184
575.958	0.0165668
576.036	0.0164771
576.114	0.0165389
576.192	0.0165623
576.271	0.0166177
576.349	0.0165334
576.427	0.0165054
576.505	0.0165587
576.583	0.0164102
576.661	0.0164794
576.739	0.0164734
576.817	0.0165915
576.896	0.0164804
576.974	0.0164778
577.052	0.0165033
577.130	0.0166048
577.208	0.0165846
577.286	0.0164078
577.364	0.0166051
577.442	0.0165457
577.521	0.0164239
577.599	0.0166129
577.677	0.0166396
577.755	0.0167037
577.833	0.0165556
577.911	0.0164770
577.989	0.0164908
578.067	0.0165115
578.146	0.0164963
578.224	0.0166815
578.302	0.0163700
578.380	0.0164725
578.458	0.0166506
578.536	0.0165601
578.614	0.0164314
578.692	0.0166323
578.771	0.0165649
578.849	0.0165776
578.927	0.0166101
579.005	0.0164484
579.083	0.0164630
579.161	0.0165350
579.239	0.0165711
579.317	0.0164672
579.396	0.0164724
579.474	0.0164830
579.552	0.0164770
579.630	0.0166568
579.708	0.0166977
579.786	0.0165404
579.864	0.0164716
579.942	0.0166418
580.021	0.0165059
580.099	0.0165571
580.177	0.0166920
580.255	0.0166022
580.333	0.0165920
580.411	0.0165118
580.489	0.0165327
580.567	0.0163776
580.646	0.0165943
580.724	0.0166007
580.802	0.0164422
580.880	0.0164448
580.958	0.0165573
581.036	0.0165466
581.114	0.0165437
581.192	0.0166860
581.271	0.0165178
581.349	0.0162891
581.427	0.0165555
581.505	0.0165340
581.583	0.0165300
581.661	0.0164495
581.739	0.0164921
581.817	0.0165157
581.896	0.0164407
581.974	0.0165276
582.052	0.0165356
582.130	0.0165442
582.208	0.0166388
582.286	0.0165694
582.364	0.0166268
582.442	0.0166454
582.521	0.0164857
582.599	0.0166419
582.677	0.0164754
582.755	0.0165460
582.833	0.0166160
582.911	0.0165693
582.989	0.0163882
583.067	0.0165698
583.146	0.0166724
583.224	0.0165263
583.302	0.0165128
583.380	0.0165141
583.458	0.0165326
583.536	0.0164831
583.614	0.0166468
583.692	0.0166924
583.771	0.0164067
583.849	0.0164933
583.927	0.0166342
584.005	0.0164025
584.083	0.0164018
584.161	0.0164524
584.239	0.0165460
584.317	0.0166092
584.396	0.0164262
584.474	0.0164822
584.552	0.0167223
584.630	0.0165899
584.708	0.0163690
584.786	0.0165578
584.864	0.0165828
584.942	0.0165129
585.021	0.0165675
585.099	0.0164955
585.177	0.0164941
585.255	0.0165974
585.333	0.0165407
585.411	0.0165628
585.489	0.0163923
585.567	0.0164796
585.646	0.0165351
585.724	0.0165069
585.802	0.0165549
585.880	0.0166242
585.958	0.0165494
586.036	0.0165492
586.114	0.0166339
586.192	0.0165772
586.271	0.0165809
586.349	0.0164452
586.427	0.0164675
586.505	0.0164678
586.583	0.0166197
586.661	0.0165252
586.739	0.0165117
586.817	0.0163924
586.896	0.0165362
586.974	0.0165855
587.052	0.0165089
587.130	0.0164589
587.208	0.0164745
587.286	0.0165493
587.364	0.0164575
587.442	0.0165326
587.521	0.0165487
587.599	0.0163920
587.677	0.0165681
587.755	0.0164871
587.833	0.0165860
587.911	0.0165401
587.989	0.0164706
588.067	0.0165752
588.146	0.0167097
588.224	0.0165868
588.302	0.0165647
588.380	0.0165794
588.458	0.0165116
588.536	0.0164105
588.614	0.0165765
588.692	0.0165833
588.771	0.0166224
588.849	0.0165569
588.927	0.0165190
589.005	0.0166061
589.083	0.0163914
589.161	0.0165579
589.239	0.0163495
589.317	0.0165953
589.396	0.0165514
589.474	0.0167266
589.552	0.0164811
589.630	0.0166396
589.708	0.0165431
589.786	0.0164926
589.864	0.0165932
589.942	0.0164665
590.021	0.0165910
590.099	0.0165499
590.177	0.0165417
590.255	0.0166017
590.333	0.0164571
590.411	0.0164616
590.489	0.0165694
590.567	0.0164851
590.646	0.0165140
590.724	0.0165613
590.802	0.0164690
590.880	0.0163416
590.958	0.0164988
591.036	0.0164239
591.114	0.0165085
591.192	0.0165549
591.271	0.0165975
591.349	0.0165247
591.427	0.0164691
591.505	0.0165067
591.583	0.0164578
591.661	0.0164881
591.739	0.0165215
591.817	0.0165392
591.896	0.0167009
591.974	0.0165483
592.052	0.0164957
592.130	0.0166267
592.208	0.0165475
592.286	0.0165265
592.364	0.0164433
592.442	0.0164944
592.521	0.0165739
592.599	0.0166280
592.677	0.0167531
592.755	0.0165116
592.833	0.0165993
592.911	0.0164828
592.989	0.0166193
593.067	0.0164849
593.146	0.0166033
593.224	0.0166049
593.302	0.0166376
593.380	0.0164577
593.458	0.0165468
593.536	0.0165732
593.614	0.0164628
593.692	0.0165332
593.771	0.0164982
593.849	0.0164776
593.927	0.0165015
594.005	0.0165508
594.083	0.0165234
594.161	0.0165554
594.239	0.0165483
594.317	0.0164378
594.396	0.0165002
594.474	0.0166354
594.552	0.0164678
594.630	0.0165301
594.708	0.0165231
594.786	0.0164365
594.864	0.0166840
594.942	0.0163822
595.021	0.0165568
595.099	0.0165392
595.177	0.0164673
595.255	0.0164874
595.333	0.0164937
595.411	0.0166303
595.489	0.0166067
595.567	0.0164904
595.646	0.0164759
595.724	0.0167414
595.802	0.0165823
595.880	0.0164751
595.958	0.0164938
596.036	0.0164991
596.114	0.0163997
596.192	0.0165822
596.271	0.0165130
596.349	0.0164976
596.427	0.0163837
596.505	0.0165474
596.583	0.0164370
596.661	0.0164614
596.739	0.0165551
596.817	0.0165253
596.896	0.0165241
596.974	0.0164780
597.052	0.0166128
597.130	0.0165877
597.208	0.0165827
597.286	0.0164442
597.364	0.0164442
597.442	0.0165908
597.521	0.0165756
597.599	0.0165569
597.677	0.0165264
597.755	0.0165396
597.833	0.0164838
597.911	0.0164884
597.989	0.0164645
598.067	0.0165217
598.146	0.0166611
598.224	0.0164936
598.302	0.0165249
598.380	0.0165363
598.458	0.0164819
598.536	0.0166142
598.614	0.0166086
598.692	0.0165689
598.771	0.0166325
598.849	0.0165064
598.927	0.0166335
599.005	0.0165266
599.083	0.0165759
599.161	0.0165515
599.239	0.0163808
599.317	0.0165672
599.396	0.0164829
599.474	0.0164230
599.552	0.0165385
599.630	0.0165981
599.708	0.0165493
599.786	0.0165530
599.864	0.0165320
599.942	0.0165807
600.021	0.0164747
600.099	0.0164769
600.177	0.0165035
600.255	0.0164352
600.333	0.0165757
600.411	0.0166362
600.489	0.0165796
600.567	0.0164407
600.646	0.0165616
600.724	0.0165892
600.802	0.0165687
600.880	0.0164629
600.958	0.0164606
601.036	0.0164509
601.114	0.0165210
601.192	0.0164414
601.271	0.0165461
601.349	0.0164670
601.427	0.0165445
601.505	0.0164738
601.583	0.0164520
601.661	0.0165341
601.739	0.0165468
601.817	0.0164328
601.896	0.0165490
601.974	0.0166544
602.052	0.0165498
602.130	0.0164322
602.208	0.0164219
602.286	0.0163303
602.364	0.0164217
602.442	0.0164292
602.521	0.0165341
602.599	0.0164677
602.677	0.0164847
602.755	0.0165672
602.833	0.0165324
602.911	0.0164182
602.989	0.0165308
603.067	0.0164919
603.146	0.0164940
603.224	0.0164796
603.302	0.0164660
603.380	0.0165578
603.458	0.0165588
603.536	0.0164520
603.614	0.0165671
603.692	0.0164687
603.771	0.0165530
603.849	0.0164389
603.927	0.0164455
604.005	0.0163707
604.083	0.0165261
604.161	0.0166539
604.239	0.0164493
604.317	0.0165179
604.396	0.0165886
604.474	0.0165333
604.552	0.0165115
604.630	0.0165223
604.708	0.0165903
604.786	0.0164777
604.864	0.0164780
604.942	0.0164890
605.021	0.0164766
605.099	0.0164929
605.177	0.0164726
605.255	0.0166524
605.333	0.0165956
605.411	0.0165594
605.489	0.0166434
605.567	0.0164417
605.646	0.0165149
605.724	0.0163703
605.802	0.0164338
605.880	0.0164054
605.958	0.0165650
606.036	0.0165977
606.114	0.0166428
606.192	0.0166389
606.271	0.0165052
606.349	0.0165257
606.427	0.0166176
606.505	0.0165052
606.583	0.0165152
606.661	0.0165853
606.739	0.0165423
606.817	0.0164510
606.896	0.0165215
606.974	0.0165303
607.052	0.0164386
607.130	0.0164656
607.208	0.0165546
607.286	0.0166061
607.364	0.0165565
607.442	0.0165060
607.521	0.0164625
607.599	0.0165868
607.677	0.0164257
607.755	0.0163717
607.833	0.0165117
607.911	0.0166077
607.989	0.0165108
608.067	0.0164861
608.146	0.0166028
608.224	0.0165362
608.302	0.0165764
608.380	0.0165356
608.458	0.0165671
608.536	0.0165148
608.614	0.0166422
608.692	0.0163805
608.771	0.0165342
608.849	0.0164642
608.927	0.0166006
609.005	0.0166210
609.083	0.0164922
609.161	0.0164964
609.239	0.0164429
609.317	0.0164053
609.396	0.0165546
609.474	0.0164521
609.552	0.0165584
609.630	0.0164821
609.708	0.0165706
609.786	0.0166791
609.864	0.0165768
609.942	0.0164248
610.021	0.0165598
610.099	0.0165768
610.177	0.0167379
610.255	0.0164963
610.333	0.0165416
610.411	0.0164849
610.489	0.0164468
610.567	0.0165480
610.646	0.0165921
610.724	0.0164786
610.802	0.0165664
610.880	0.0165337
610.958	0.0164819
611.036	0.0165796
611.114	0.0165163
611.192	0.0165775
611.271	0.0164413
611.349	0.0164521
611.427	0.0165534
611.505	0.0164567
611.583	0.0165695
611.661	0.0165927
611.739	0.0165570
611.817	0.0165010
611.896	0.0164692
611.974	0.0164505
612.052	0.0163715
612.130	0.0165364
612.208	0.0165678
612.286	0.0166867
612.364	0.0165885
612.442	0.0165207
612.521	0.0165902
612.599	0.0166135
612.677	0.0164313
612.755	0.0166135
612.833	0.0166661
612.911	0.0166448
612.989	0.0166370
613.067	0.0165394
613.146	0.0165040
613.224	0.0166097
613.302	0.0165220
613.380	0.0165360
613.458	0.0165085
613.536	0.0164989
613.614	0.0164850
613.692	0.0164909
613.771	0.0165550
613.849	0.0165510
613.927	0.0164451
614.005	0.0164825
614.083	0.0164400
614.161	0.0165408
614.239	0.0165464
614.317	0.0165635
614.396	0.0165656
614.474	0.0164317
614.552	0.0163979
614.630	0.0164504
614.708	0.0164780
614.786	0.0164586
614.864	0.0164265
614.942	0.0164757
615.021	0.0165602
615.099	0.0164802
615.177	0.0165942
615.255	0.0165449
615.333	0.0165515
615.411	0.0166280
615.489	0.0165621
615.567	0.0164400
615.646	0.0164353
615.724	0.0164247
615.802	0.0165856
615.880	0.0165240
615.958	0.0165134
616.036	0.0164548
616.114	0.0164445
616.192	0.0164340
616.271	0.0165833
616.349	0.0164925
616.427	0.0164064
616.505	0.0163972
616.583	0.0164612
616.661	0.0166038
616.739	0.0165165
616.817	0.0163418
616.896	0.0163953
616.974	0.0165580
617.052	0.0164131
617.130	0.0163340
617.208	0.0166513
617.286	0.0164558
617.364	0.0165958
617.442	0.0165176
617.521	0.0165690
617.599	0.0164719
617.677	0.0164634
617.755	0.0166464
617.833	0.0165384
617.911	0.0164497
617.989	0.0164684
618.067	0.0165999
618.146	0.0165700
618.224	0.0164911
618.302	0.0164370
618.380	0.0164475
618.458	0.0165206
618.536	0.0165362
618.614	0.0164270
618.692	0.0164511
618.771	0.0166299
618.849	0.0166195
618.927	0.0165945
619.005	0.0163526
619.083	0.0165713
619.161	0.0165948
619.239	0.0164674
619.317	0.0165737
619.396	0.0164015
619.474	0.0165935
619.552	0.0164124
619.630	0.0165699
619.708	0.0163920
619.786	0.0164847
619.864	0.0164988
619.942	0.0165566
620.021	0.0164767
620.099	0.0165173
620.177	0.0166315
620.255	0.0164431
620.333	0.0164448
620.411	0.0164565
620.489	0.0165877
620.567	0.0165807
620.646	0.0164365
620.724	0.0166071
620.802	0.0165034
620.880	0.0165283
620.958	0.0163849
621.036	0.0165644
621.114	0.0165501
621.192	0.0165596
621.271	0.0165060
621.349	0.0165963
621.427	0.0164893
621.505	0.0166373
621.583	0.0165708
621.661	0.0162759
621.739	0.0164188
621.817	0.0166215
621.896	0.0166627
621.974	0.0164781
622.052	0.0165105
622.130	0.0165247
622.208	0.0166747
622.286	0.0165676
622.364	0.0165100
622.442	0.0166251
622.521	0.0164798
622.599	0.0165049
622.677	0.0164897
622.755	0.0165897
622.833	0.0166914
622.911	0.0164601
622.989	0.0165330
623.067	0.0165607
623.146	0.0166382
623.224	0.0164072
623.302	0.0165177
623.380	0.0165536
623.458	0.0165488
623.536	0.0165215
623.614	0.0165440
623.692	0.0164426
623.771	0.0165849
623.849	0.0166045
623.927	0.0164714
624.005	0.0164386
624.083	0.0166673
624.161	0.0165757
624.239	0.0164066
624.317	0.0164608
624.396	0.0165390
624.474	0.0164903
624.552	0.0164187
624.630	0.0165543
624.708	0.0165397
624.786	0.0164547
624.864	0.0164993
624.942	0.0165492
625.021	0.0166145
625.099	0.0166330
625.177	0.0164462
625.255	0.0165593
625.333	0.0166117
625.411	0.0165709
625.489	0.0164085
625.567	0.0165029
625.646	0.0164951
625.724	0.0164719
625.802	0.0164780
625.880	0.0164983
625.958	0.0165285
626.036	0.0165333
626.114	0.0163530
626.192	0.0165000
626.271	0.0166000
626.349	0.0164333
626.427	0.0165383
626.505	0.0164635
626.583	0.0163890
626.661	0.0165669
626.739	0.0164460
626.817	0.0165524
626.896	0.0164954
626.974	0.0164159
627.052	0.0165327
627.130	0.0164625
627.208	0.0164707
627.286	0.0165742
627.364	0.0166174
627.442	0.0166051
627.521	0.0165242
627.599	0.0165680
627.677	0.0165222
627.755	0.0166384
627.833	0.0165069
627.911	0.0165284
627.989	0.0164246
628.067	0.0164857
628.146	0.0165259
628.224	0.0164678
628.302	0.0166014
628.380	0.0164320
628.458	0.0165575
628.536	0.0165211
628.614	0.0166209
628.692	0.0164145
628.771	0.0164980
628.849	0.0165012
628.927	0.0165894
629.005	0.0164870
629.083	0.0164797
629.161	0.0163034
629.239	0.0165495
629.317	0.0166939
629.396	0.0165958
629.474	0.0165338
629.552	0.0165606
629.630	0.0165820
629.708	0.0165236
629.786	0.0164867
629.864	0.0165535
629.942	0.0165011
630.021	0.0164514
630.099	0.0166363
630.177	0.0165405
630.255	0.0164330
630.333	0.0164214
630.411	0.0165535
630.489	0.0165793
630.567	0.0165689
630.646	0.0165312
630.724	0.0165542
630.802	0.0165226
630.880	0.0166254
630.958	0.0163583
631.036	0.0164195
631.114	0.0167166
631.192	0.0165678
631.271	0.0166081
631.349	0.0165756
631.427	0.0165638
631.505	0.0164085
631.583	0.0165041
631.661	0.0164444
631.739	0.0165244
631.817	0.0166285
631.896	0.0165225
631.974	0.0166019
632.052	0.0164445
632.130	0.0165037
632.208	0.0163989
632.286	0.0166537
632.364	0.0166310
632.442	0.0167168
632.521	0.0166311
632.599	0.0164841
632.677	0.0166270
632.755	0.0166450
632.833	0.0165996
632.911	0.0164748
632.989	0.0166582
633.067	0.0164867
633.146	0.0165005
633.224	0.0165913
633.302	0.0164814
633.380	0.0165817
633.458	0.0164278
633.536	0.0165591
633.614	0.0166797
633.692	0.0166191
633.771	0.0165189
633.849	0.0163544
633.927	0.0164367
634.005	0.0165685
634.083	0.0166180
634.161	0.0165188
634.239	0.0166096
634.317	0.0164337
634.396	0.0166514
634.474	0.0165768
634.552	0.0165481
634.630	0.0165293
634.708	0.0164336
634.786	0.0164890
634.864	0.0166492
634.942	0.0166631
635.021	0.0165264
635.099	0.0165714
635.177	0.0165481
635.255	0.0165424
635.333	0.0164558
635.411	0.0166011
635.489	0.0165021
635.567	0.0165577
635.646	0.0165821
635.724	0.0164407
635.802	0.0164784
635.880	0.0165477
635.958	0.0164427
636.036	0.0165520
636.114	0.0166588
636.192	0.0166069
636.271	0.0165343
636.349	0.0166196
636.427	0.0165849
636.505	0.0165768
636.583	0.0165558
636.661	0.0164940
636.739	0.0164819
636.817	0.0164066
636.896	0.0164646
636.974	0.0166260
637.052	0.0165408
637.130	0.0165128
637.208	0.0164925
637.286	0.0165308
637.364	0.0164797
637.442	0.0165919
637.521	0.0165398
637.599	0.0166300
637.677	0.0166626
637.755	0.0165903
637.833	0.0165629
637.911	0.0166537
637.989	0.0163799
638.067	0.0164716
638.146	0.0165031
638.224	0.0164025
638.302	0.0165910
638.380	0.0165759
638.458	0.0164738
638.536	0.0165182
638.614	0.0164777
638.692	0.0164345
638.771	0.0165522
638.849	0.0165022
638.927	0.0164700
639.005	0.0164093
639.083	0.0165277
639.161	0.0165859
639.239	0.0163885
639.317	0.0164051
639.396	0.0166229
639.474	0.0164681
639.552	0.0165185
639.630	0.0164432
639.708	0.0164753
639.786	0.0165559
639.864	0.0164857
639.942	0.0165259
640.021	0.0164922
640.099	0.0165210
640.177	0.0166111
640.255	0.0165759
640.333	0.0165698
640.411	0.0165557
640.489	0.0165166
640.567	0.0164935
640.646	0.0165840
640.724	0.0165124
640.802	0.0163691
640.880	0.0164977
640.958	0.0166293
641.036	0.0165431
641.114	0.0165417
641.192	0.0165044
641.271	0.0163849
641.349	0.0165357
641.427	0.0164271
641.505	0.0164973
641.583	0.0165455
641.661	0.0164984
641.739	0.0165289
641.817	0.0166079
641.896	0.0165056
641.974	0.0165182
642.052	0.0164930
642.130	0.0164500
642.208	0.0165533
642.286	0.0164921
642.364	0.0165270
642.442	0.0165491
642.521	0.0164698
642.599	0.0165324
642.677	0.0165339
642.755	0.0163984
642.833	0.0165417
642.911	0.0165744
642.989	0.0164107
643.067	0.0165041
643.146	0.0163905
643.224	0.0163959
643.302	0.0163990
643.380	0.0165065
643.458	0.0166618
643.536	0.0164964
643.614	0.0163873
643.692	0.0165397
643.771	0.0165430
643.849	0.0165383
643.927	0.0165740
644.005	0.0165927
644.083	0.0165564
644.161	0.0165628
644.239	0.0166508
644.317	0.0165849
644.396	0.0164699
644.474	0.0165130
644.552	0.0165385
644.630	0.0166419
644.708	0.0166322
644.786	0.0165285
644.864	0.0165519
644.942	0.0165223
645.021	0.0165124
645.099	0.0165765
645.177	0.0165963
645.255	0.0166385
645.333	0.0165879
645.411	0.0164774
645.489	0.0165853
645.567	0.0166003
645.646	0.0165414
645.724	0.0166658
645.802	0.0164914
645.880	0.0165228
645.958	0.0165827
646.036	0.0165491
646.114	0.0164094
646.192	0.0164806
646.271	0.0164935
646.349	0.0165764
646.427	0.0166057
646.505	0.0165435
646.583	0.0166019
646.661	0.0165734
646.739	0.0164790
646.817	0.0165257
646.896	0.0164884
646.974	0.0166767
647.052	0.0166843
647.130	0.0163746
647.208	0.0165141
647.286	0.0164405
647.364	0.0166400
647.442	0.0165468
647.521	0.0166312
647.599	0.0165117
647.677	0.0164438
647.755	0.0164600
647.833	0.0166167
647.911	0.0164765
647.989	0.0165450
648.067	0.0165523
648.146	0.0164587
648.224	0.0166637
648.302	0.0163885
648.380	0.0165317
648.458	0.0164152
648.536	0.0164607
648.614	0.0165823
648.692	0.0164822
648.771	0.0165043
648.849	0.0166414
648.927	0.0165718
649.005	0.0166804
649.083	0.0165099
649.161	0.0165529
649.239	0.0166786
649.317	0.0165217
649.396	0.0164317
649.474	0.0164818
649.552	0.0166362
649.630	0.0165290
649.708	0.0165670
649.786	0.0165630
649.864	0.0165399
649.942	0.0165703
650.021	0.0163775
650.099	0.0165020
650.177	0.0165136
650.255	0.0164133
650.333	0.0163837
650.411	0.0164454
650.489	0.0164702
650.567	0.0164927
650.646	0.0166220
650.724	0.0165921
650.802	0.0165269
650.880	0.0164284
650.958	0.0165520
651.036	0.0166332
651.114	0.0165634
651.192	0.0164087
651.271	0.0165271
651.349	0.0165895
651.427	0.0166201
651.505	0.0165295
651.583	0.0165515
651.661	0.0165881
651.739	0.0165816
651.817	0.0165509
651.896	0.0165816
651.974	0.0166080
652.052	0.0165395
652.130	0.0165694
652.208	0.0164971
652.286	0.0166624
652.364	0.0164909
652.442	0.0164519
652.521	0.0166305
652.599	0.0165120
652.677	0.0165769
652.755	0.0165151
652.833	0.0165614
652.911	0.0165544
652.989	0.0166129
653.067	0.0164852
653.146	0.0165228
653.224	0.0165183
653.302	0.0164788
653.380	0.0166147
653.458	0.0164564
653.536	0.0165613
653.614	0.0166778
653.692	0.0167098
653.771	0.0165430
653.849	0.0165131
653.927	0.0165245
654.005	0.0164948
654.083	0.0164626
654.161	0.0166969
654.239	0.0166033
654.317	0.0165592
654.396	0.0164306
654.474	0.0164985
654.552	0.0164125
654.630	0.0167473
654.708	0.0165736
654.786	0.0165855
654.864	0.0163993
654.942	0.0165317
655.021	0.0164575
655.099	0.0166464
655.177	0.0166933
655.255	0.0166108
655.333	0.0164853
655.411	0.0165095
655.489	0.0167017
655.567	0.0164441
655.646	0.0165506
655.724	0.0165939
655.802	0.0164096
655.880	0.0164250
655.958	0.0164172
656.036	0.0165287
656.114	0.0164958
656.192	0.0166888
656.271	0.0165944
656.349	0.0163150
656.427	0.0166284
656.505	0.0164871
656.583	0.0164249
656.661	0.0165257
656.739	0.0165285
656.817	0.0165395
656.896	0.0167199
656.974	0.0165132
657.052	0.0165878
657.130	0.0165014
657.208	0.0165646
657.286	0.0165664
657.364	0.0166397
657.442	0.0165627
657.521	0.0165806
657.599	0.0166281
657.677	0.0165813
657.755	0.0166000
657.833	0.0165272
657.911	0.0164922
657.989	0.0165275
658.067	0.0166295
658.146	0.0165656
658.224	0.0164908
658.302	0.0165872
658.380	0.0165765
658.458	0.0165226
658.536	0.0165273
658.614	0.0165161
658.692	0.0166023
658.771	0.0165414
658.849	0.0165482
658.927	0.0164936
659.005	0.0164811
659.083	0.0165612
659.161	0.0165940
659.239	0.0165715
659.317	0.0164240
659.396	0.0166106
659.474	0.0164666
659.552	0.0166060
659.630	0.0165717
659.708	0.0166197
659.786	0.0165233
659.864	0.0165472
659.942	0.0164392
660.021	0.0166540
660.099	0.0164465
660.177	0.0165820
660.255	0.0165588
660.333	0.0165536
660.411	0.0165838
660.489	0.0164946
660.567	0.0165371
660.646	0.0164763
660.724	0.0164676
660.802	0.0164434
660.880	0.0165170
660.958	0.0164558
661.036	0.0165314
661.114	0.0164687
661.192	0.0165030
661.271	0.0165122
661.349	0.0165889
661.427	0.0165089
661.505	0.0166003
661.583	0.0165845
661.661	0.0164923
661.739	0.0166262
661.817	0.0165202
661.896	0.0167189
661.974	0.0164929
662.052	0.0164736
662.130	0.0165098
662.208	0.0165874
662.286	0.0166496
662.364	0.0166495
662.442	0.0166257
662.521	0.0164347
662.599	0.0165049
662.677	0.0165706
662.755	0.0165759
662.833	0.0165131
662.911	0.0164848
662.989	0.0165532
663.067	0.0166772
663.146	0.0166099
663.224	0.0164574
663.302	0.0164260
663.380	0.0165324
663.458	0.0165736
663.536	0.0165328
663.614	0.0167155
663.692	0.0165401
663.771	0.0165490
663.849	0.0165699
663.927	0.0164437
664.005	0.0165620
664.083	0.0165431
664.161	0.0165915
664.239	0.0165224
664.317	0.0165875
664.396	0.0165808
664.474	0.0164518
664.552	0.0164939
664.630	0.0165643
664.708	0.0165087
664.786	0.0165514
664.864	0.0165466
664.942	0.0165472
665.021	0.0165753
665.099	0.0165913
665.177	0.0164215
665.255	0.0164754
665.333	0.0165778
665.411	0.0166426
665.489	0.0165178
665.567	0.0164329
665.646	0.0165257
665.724	0.0164039
665.802	0.0164766
665.880	0.0164935
665.958	0.0165627
666.036	0.0165994
666.114	0.0165609
666.192	0.0165571
666.271	0.0165703
666.349	0.0165296
666.427	0.0167059
666.505	0.0164983
666.583	0.0164782
666.661	0.0165981
666.739	0.0165123
666.817	0.0164655
666.896	0.0165012
666.974	0.0167036
667.052	0.0164463
667.130	0.0165435
667.208	0.0166877
667.286	0.0166361
667.364	0.0166023
667.442	0.0166248
667.521	0.0164637
667.599	0.0165646
667.677	0.0164993
667.755	0.0165438
667.833	0.0165774
667.911	0.0166300
667.989	0.0165310
668.067	0.0164879
668.146	0.0165884
668.224	0.0166595
668.302	0.0164991
668.380	0.0164417
668.458	0.0165278
668.536	0.0165874
668.614	0.0165409
668.692	0.0164864
668.771	0.0164160
668.849	0.0164333
668.927	0.0165607
669.005	0.0165845
669.083	0.0163617
669.161	0.0165208
669.239	0.0165445
669.317	0.0165974
669.396	0.0163842
669.474	0.0163573
669.552	0.0166341
669.630	0.0165972
669.708	0.0165377
669.786	0.0166114
669.864	0.0166470
669.942	0.0165416
670.021	0.0162883
670.099	0.0165493
670.177	0.0165750
670.255	0.0164828
670.333	0.0165221
670.411	0.0165947
670.489	0.0164739
670.567	0.0166449
670.646	0.0165874
670.724	0.0163878
670.802	0.0166384
670.880	0.0165752
670.958	0.0164651
671.036	0.0165247
671.114	0.0165154
671.192	0.0163228
671.271	0.0165737
671.349	0.0165540
671.427	0.0165066
671.505	0.0164449
671.583	0.0165041
671.661	0.0164244
671.739	0.0165115
671.817	0.0165568
671.896	0.0165007
671.974	0.0164249
672.052	0.0165041
672.130	0.0164395
672.208	0.0164591
672.286	0.0165173
672.364	0.0166235
672.442	0.0164204
672.521	0.0164837
672.599	0.0165420
672.677	0.0165749
672.755	0.0165209
672.833	0.0165651
672.911	0.0164487
672.989	0.0166400
673.067	0.0165726
673.146	0.0165265
673.224	0.0164704
673.302	0.0166623
673.380	0.0165301
673.458	0.0164677
673.536	0.0166241
673.614	0.0164991
673.692	0.0165539
673.771	0.0165003
673.849	0.0164904
673.927	0.0165592
674.005	0.0164268
674.083	0.0165981
674.161	0.0165030
674.239	0.0164732
674.317	0.0164786
674.396	0.0165606
674.474	0.0165814
674.552	0.0164969
674.630	0.0165013
674.708	0.0163966
674.786	0.0166050
674.864	0.0165231
674.942	0.0165026
675.021	0.0165125
675.099	0.0164595
675.177	0.0164253
675.255	0.0164653
675.333	0.0165269
675.411	0.0165564
675.489	0.0164968
675.567	0.0166119
675.646	0.0166087
675.724	0.0164043
675.802	0.0166216
675.880	0.0165394
675.958	0.0165733
676.036	0.0165795
676.114	0.0166051
676.192	0.0164019
676.271	0.0165443
676.349	0.0165839
676.427	0.0165257
676.505	0.0165937
676.583	0.0165007
676.661	0.0164758
676.739	0.0165012
676.817	0.0165085
676.896	0.0164428
676.974	0.0165018
677.052	0.0165292
677.130	0.0164204
677.208	0.0164118
677.286	0.0164500
677.364	0.0165216
677.442	0.0165775
677.521	0.0165838
677.599	0.0164873
677.677	0.0164536
677.755	0.0164382
677.833	0.0165569
677.911	0.0166125
677.989	0.0165895
678.067	0.0165027
678.146	0.0166151
678.224	0.0165191
678.302	0.0165282
678.380	0.0166016
678.458	0.0165794
678.536	0.0165919
678.614	0.0166408
678.692	0.0166313
678.771	0.0165425
678.849	0.0165441
678.927	0.0166038
679.005	0.0165936
679.083	0.0165599
679.161	0.0165256
679.239	0.0165648
679.317	0.0165820
679.396	0.0165244
679.474	0.0164480
679.552	0.0164577
679.630	0.0165052
679.708	0.0163848
679.786	0.0164711
679.864	0.0165125
679.942	0.0165396
680.021	0.0165622
680.099	0.0164469
680.177	0.0164964
680.255	0.0164273
680.333	0.0163358
680.411	0.0166270
680.489	0.0166497
680.567	0.0165489
680.646	0.0164484
680.724	0.0165215
680.802	0.0164708
680.880	0.0164892
680.958	0.0165533
681.036	0.0165739
681.114	0.0166192
681.192	0.0166377
681.271	0.0166168
681.349	0.0165204
681.427	0.0165622
681.505	0.0165400
681.583	0.0164963
681.661	0.0165588
681.739	0.0166108
681.817	0.0166228
681.896	0.0165220
681.974	0.0165994
682.052	0.0165742
682.130	0.0166184
682.208	0.0165902
682.286	0.0165086
682.364	0.0164854
682.442	0.0165941
682.521	0.0164885
682.599	0.0163155
682.677	0.0165459
682.755	0.0165538
682.833	0.0163830
682.911	0.0164422
682.989	0.0166319
683.067	0.0166020
683.146	0.0165459
683.224	0.0164864
683.302	0.0166300
683.380	0.0164001
683.458	0.0165887
683.536	0.0166206
683.614	0.0163751
683.692	0.0163560
683.771	0.0165031
683.849	0.0167042
683.927	0.0165749
684.005	0.0164909
684.083	0.0164944
684.161	0.0166708
684.239	0.0166087
684.317	0.0164605
684.396	0.0164827
684.474	0.0165163
684.552	0.0167433
684.630	0.0166882
684.708	0.0165586
684.786	0.0165810
684.864	0.0165845
684.942	0.0165302
685.021	0.0165444
685.099	0.0164525
685.177	0.0165336
685.255	0.0164963
685.333	0.0165644
685.411	0.0164419
685.489	0.0166457
685.567	0.0165161
685.646	0.0165144
685.724	0.0164285
685.802	0.0164998
685.880	0.0164761
685.958	0.0165020
686.036	0.0166040
686.114	0.0165938
686.192	0.0165181
686.271	0.0165326
686.349	0.0166226
686.427	0.0164835
686.505	0.0164861
686.583	0.0165818
686.661	0.0166061
686.739	0.0164957
686.817	0.0165056
686.896	0.0164597
686.974	0.0165501
687.052	0.0165176
687.130	0.0164380
687.208	0.0164899
687.286	0.0165819
687.364	0.0165689
687.442	0.0164811
687.521	0.0164474
687.599	0.0165566
687.677	0.0165048
687.755	0.0164653
687.833	0.0164275
687.911	0.0166167
687.989	0.0166824
688.067	0.0166100
688.146	0.0165690
688.224	0.0164108
688.302	0.0164498
688.380	0.0163223
688.458	0.0166230
688.536	0.0167308
688.614	0.0165022
688.692	0.0165509
688.771	0.0165888
688.849	0.0165913
688.927	0.0164848
689.005	0.0165752
689.083	0.0166348
689.161	0.0164063
689.239	0.0164588
689.317	0.0165534
689.396	0.0164458
689.474	0.0164952
689.552	0.0164732
689.630	0.0164709
689.708	0.0164283
689.786	0.0165353
689.864	0.0165675
689.942	0.0164066
690.021	0.0165283
690.099	0.0165780
690.177	0.0165001
690.255	0.0164726
690.333	0.0165532
690.411	0.0163883
690.489	0.0164179
690.567	0.0164409
690.646	0.0165563
690.724	0.0164119
690.802	0.0165435
690.880	0.0165632
690.958	0.0165397
691.036	0.0165842
691.114	0.0163750
691.192	0.0164271
691.271	0.0164566
691.349	0.0165714
691.427	0.0165022
691.505	0.0163701
691.583	0.0165462
691.661	0.0165688
691.739	0.0164259
691.817	0.0164554
691.896	0.0166061
691.974	0.0164800
692.052	0.0164127
692.130	0.0166262
692.208	0.0164779
692.286	0.0165111
692.364	0.0164140
692.442	0.0164980
692.521	0.0165095
692.599	0.0165081
692.677	0.0164574
692.755	0.0165461
692.833	0.0165691
692.911	0.0164686
692.989	0.0166563
693.067	0.0164911
693.146	0.0164806
693.224	0.0165097
693.302	0.0166446
693.380	0.0163325
693.458	0.0166093
693.536	0.0165343
693.614	0.0164861
693.692	0.0165542
693.771	0.0165968
693.849	0.0165376
693.927	0.0164378
694.005	0.0165531
694.083	0.0166460
694.161	0.0166516
694.239	0.0165746
694.317	0.0165558
694.396	0.0165913
694.474	0.0165411
694.552	0.0166080
694.630	0.0165566
694.708	0.0165169
694.786	0.0165163
694.864	0.0165271
694.942	0.0166640
695.021	0.0166335
695.099	0.0166060
695.177	0.0165482
695.255	0.0163444
695.333	0.0164701
695.411	0.0166301
695.489	0.0165203
695.567	0.0164646
695.646	0.0166045
695.724	0.0164393
695.802	0.0164481
695.880	0.0164413
695.958	0.0166406
696.036	0.0166111
696.114	0.0164759
696.192	0.0164372
696.271	0.0165225
696.349	0.0163401
696.427	0.0164839
696.505	0.0165894
696.583	0.0167041
696.661	0.0164587
696.739	0.0165930
696.817	0.0165323
696.896	0.0165034
696.974	0.0165493
697.052	0.0165080
697.130	0.0165131
697.208	0.0165375
697.286	0.0164616
697.364	0.0165636
697.442	0.0165822
697.521	0.0165811
697.599	0.0165312
697.677	0.0166363
697.755	0.0165628
697.833	0.0166837
697.911	0.0164616
697.989	0.0165766
698.067	0.0165689
698.146	0.0164867
698.224	0.0164709
698.302	0.0163726
698.380	0.0165419
698.458	0.0165599
698.536	0.0165361
698.614	0.0166269
698.692	0.0165279
698.771	0.0164178
698.849	0.0164912
698.927	0.0165241
699.005	0.0165125
699.083	0.0166412
699.161	0.0165061
699.239	0.0165770
699.317	0.0165175
699.396	0.0164629
699.474	0.0164175
699.552	0.0165744
699.630	0.0165295
699.708	0.0165060
699.786	0.0165029
699.864	0.0165599
699.942	0.0166257
700.021	0.0164249
700.099	0.0165049
700.177	0.0164871
700.255	0.0166480
700.333	0.0166021
700.411	0.0165401
700.489	0.0163805
700.567	0.0164980
700.646	0.0166088
700.724	0.0165775
700.802	0.0165464
700.880	0.0163976
700.958	0.0165389
701.036	0.0165740
701.114	0.0165783
701.192	0.0164525
701.271	0.0165508
701.349	0.0165318
701.427	0.0165145
701.505	0.0165202
701.583	0.0164773
701.661	0.0165038
701.739	0.0166244
701.817	0.0164697
701.896	0.0165130
701.974	0.0166498
702.052	0.0164652
702.130	0.0164835
702.208	0.0165371
702.286	0.0166536
702.364	0.0166351
702.442	0.0164512
702.521	0.0165265
702.599	0.0166343
702.677	0.0164892
702.755	0.0164556
702.833	0.0165495
702.911	0.0164343
702.989	0.0165594
703.067	0.0165139
703.146	0.0166096
703.224	0.0166093
703.302	0.0163697
703.380	0.0164596
703.458	0.0165263
703.536	0.0166084
703.614	0.0165464
703.692	0.0165630
703.771	0.0165812
703.849	0.0165784
703.927	0.0164378
704.005	0.0165191
704.083	0.0165971
704.161	0.0164931
704.239	0.0165989
704.317	0.0165294
704.396	0.0164326
704.474	0.0165709
704.552	0.0166163
704.630	0.0164092
704.708	0.0163914
704.786	0.0165137
704.864	0.0164787
704.942	0.0164735
705.021	0.0165963
705.099	0.0165430
705.177	0.0164516
705.255	0.0163739
705.333	0.0164385
705.411	0.0165028
705.489	0.0165595
705.567	0.0164455
705.646	0.0166120
705.724	0.0165965
705.802	0.0164770
705.880	0.0165312
705.958	0.0164676
706.036	0.0165981
706.114	0.0165269
706.192	0.0165112
706.271	0.0165656
706.349	0.0165115
706.427	0.0166364
706.505	0.0164798
706.583	0.0165975
706.661	0.0165910
706.739	0.0164621
706.817	0.0165244
706.896	0.0165183
706.974	0.0165034
707.052	0.0165487
707.130	0.0165132
707.208	0.0164075
707.286	0.0164677
707.364	0.0165395
707.442	0.0164266
707.521	0.0164334
707.599	0.0165784
707.677	0.0165042
707.755	0.0165255
707.833	0.0166245
707.911	0.0163636
707.989	0.0165752
708.067	0.0165936
708.146	0.0165353
708.224	0.0165778
708.302	0.0164303
708.380	0.0164572
708.458	0.0164942
708.536	0.0166520
708.614	0.0164594
708.692	0.0164645
708.771	0.0165372
708.849	0.0165488
708.927	0.0165156
709.005	0.0165726
709.083	0.0164773
709.161	0.0163884
709.239	0.0163939
709.317	0.0165975
709.396	0.0165637
709.474	0.0164928
709.552	0.0164377
709.630	0.0165504
709.708	0.0164513
709.786	0.0165150
709.864	0.0165077
709.942	0.0164980
710.021	0.0164414
710.099	0.0165216
710.177	0.0164867
710.255	0.0164078
710.333	0.0166769
710.411	0.0165133
710.489	0.0163633
710.567	0.0163424
710.646	0.0165260
710.724	0.0166332
710.802	0.0166086
710.880	0.0164555
710.958	0.0164708
711.036	0.0166062
711.114	0.0164973
711.192	0.0164926
711.271	0.0165400
711.349	0.0166788
711.427	0.0163885
711.505	0.0164574
711.583	0.0164767
711.661	0.0164709
711.739	0.0165511
711.817	0.0165711
711.896	0.0164764
711.974	0.0164568
712.052	0.0164631
712.130	0.0165755
712.208	0.0164757
712.286	0.0165038
712.364	0.0164433
712.442	0.0165623
712.521	0.0163658
712.599	0.0164369
712.677	0.0165169
712.755	0.0164098
712.833	0.0164851
712.911	0.0163269
712.989	0.0165019
713.067	0.0164813
713.146	0.0164773
713.224	0.0165655
713.302	0.0164493
713.380	0.0164858
713.458	0.0164896
713.536	0.0165453
713.614	0.0165939
713.692	0.0167057
713.771	0.0166283
713.849	0.0164054
713.927	0.0164713
714.005	0.0164593
714.083	0.0164785
714.161	0.0165746
714.239	0.0165080
714.317	0.0165009
714.396	0.0165549
714.474	0.0165845
714.552	0.0165673
714.630	0.0165160
714.708	0.0166077
714.786	0.0165760
714.864	0.0164993
714.942	0.0165283
715.021	0.0166410
715.099	0.0164851
715.177	0.0165063
715.255	0.0165067
715.333	0.0164375
715.411	0.0165134
715.489	0.0165011
715.567	0.0163973
715.646	0.0164689
715.724	0.0165138
715.802	0.0165371
715.880	0.0163578
715.958	0.0166758
716.036	0.0164149
716.114	0.0163702
716.192	0.0164957
716.271	0.0165470
716.349	0.0165164
716.427	0.0165034
716.505	0.0163882
716.583	0.0165912
716.661	0.0165253
716.739	0.0165598
716.817	0.0165200
716.896	0.0164560
716.974	0.0164559
717.052	0.0164967
717.130	0.0163382
717.208	0.0164636
717.286	0.0164539
717.364	0.0165117
717.442	0.0165067
717.521	0.0165752
717.599	0.0164588
717.677	0.0163431
717.755	0.0165572
717.833	0.0165669
717.911	0.0164828
717.989	0.0164945
718.067	0.0165549
718.146	0.0165185
718.224	0.0165660
718.302	0.0165533
718.380	0.0164272
718.458	0.0165678
718.536	0.0164999
718.614	0.0165828
718.692	0.0165886
718.771	0.0165515
718.849	0.0164904
718.927	0.0164452
719.005	0.0164120
719.083	0.0165279
719.161	0.0165401
719.239	0.0165656
719.317	0.0165237
719.396	0.0165810
719.474	0.0164409
719.552	0.0165317
719.630	0.0164802
719.708	0.0165993
719.786	0.0164869
719.864	0.0164779
719.942	0.0164891
720.021	0.0165376
720.099	0.0165140
720.177	0.0165853
720.255	0.0165710
720.333	0.0164516
720.411	0.0166710
720.489	0.0165697
720.567	0.0165786
720.646	0.0164111
720.724	0.0166447
720.802	0.0165027
720.880	0.0164204
720.958	0.0166635
721.036	0.0164769
721.114	0.0164664
721.192	0.0164945
721.271	0.0164885
721.349	0.0164515
721.427	0.0164926
721.505	0.0165841
721.583	0.0163359
721.661	0.0164601
721.739	0.0163898
721.817	0.0165121
721.896	0.0166058
721.974	0.0165401
722.052	0.0164090
722.130	0.0164722
722.208	0.0165430
722.286	0.0164880
722.364	0.0164259
722.442	0.0165559
722.521	0.0165130
722.599	0.0165694
722.677	0.0164169
722.755	0.0164874
722.833	0.0165320
722.911	0.0164593
722.989	0.0164614
723.067	0.0166434
723.146	0.0165518
723.224	0.0165620
723.302	0.0164210
723.380	0.0163992
723.458	0.0163786
723.536	0.0164886
723.614	0.0165141
723.692	0.0164801
723.771	0.0164441
723.849	0.0166142
723.927	0.0163969
724.005	0.0165593
724.083	0.0165683
724.161	0.0165705
724.239	0.0164888
724.317	0.0165588
724.396	0.0164714
724.474	0.0163904
724.552	0.0165137
724.630	0.0163960
724.708	0.0165418
724.786	0.0165302
724.864	0.0165343
724.942	0.0166827
725.021	0.0165579
725.099	0.0165311
725.177	0.0164710
725.255	0.0165721
725.333	0.0165621
725.411	0.0165268
725.489	0.0164778
725.567	0.0165781
725.646	0.0164555
725.724	0.0165317
725.802	0.0165001
725.880	0.0165257
725.958	0.0165504
726.036	0.0165543
726.114	0.0165570
726.192	0.0165375
726.271	0.0166114
726.349	0.0165247
726.427	0.0165678
726.505	0.0166013
726.583	0.0167127
726.661	0.0165553
726.739	0.0165735
726.817	0.0164884
726.896	0.0165517
726.974	0.0165917
727.052	0.0165810
727.130	0.0166065
727.208	0.0166768
727.286	0.0167026
727.364	0.0165572
727.442	0.0165795
727.521	0.0165280
727.599	0.0166286
727.677	0.0165646
727.755	0.0166417
727.833	0.0166447
727.911	0.0163959
727.989	0.0166050
728.067	0.0165698
728.146	0.0166508
728.224	0.0166328
728.302	0.0165989
728.380	0.0166334
728.458	0.0165724
728.536	0.0166190
728.614	0.0165933
728.692	0.0166045
728.771	0.0166516
728.849	0.0166429
728.927	0.0165144
729.005	0.0165696
729.083	0.0166053
729.161	0.0166017
729.239	0.0165014
729.317	0.0165488
729.396	0.0165944
729.474	0.0166197
729.552	0.0166257
729.630	0.0166817
729.708	0.0166846
729.786	0.0165453
729.864	0.0165961
729.942	0.0165498
730.021	0.0165282
730.099	0.0164473
730.177	0.0165726
730.255	0.0166739
730.333	0.0165425
730.411	0.0165504
730.489	0.0165162
730.567	0.0166176
730.646	0.0165185
730.724	0.0163378
730.802	0.0166351
730.880	0.0166463
730.958	0.0165250
731.036	0.0166804
731.114	0.0166193
731.192	0.0164868
731.271	0.0165240
731.349	0.0167373
731.427	0.0164934
731.505	0.0166420
731.583	0.0167062
731.661	0.0164957
731.739	0.0165244
731.817	0.0166103
731.896	0.0165119
731.974	0.0164394
732.052	0.0165278
732.130	0.0166376
732.208	0.0165932
732.286	0.0165525
732.364	0.0164680
732.442	0.0164201
732.521	0.0165506
732.599	0.0165031
732.677	0.0164926
732.755	0.0165173
732.833	0.0165967
732.911	0.0166411
732.989	0.0164936
733.067	0.0165298
733.146	0.0164775
733.224	0.0163927
733.302	0.0165441
733.380	0.0164334
733.458	0.0165444
733.536	0.0166572
733.614	0.0165858
733.692	0.0164911
733.771	0.0166284
733.849	0.0165631
733.927	0.0165750
734.005	0.0165577
734.083	0.0164969
734.161	0.0164622
734.239	0.0164428
734.317	0.0164922
734.396	0.0164843
734.474	0.0165485
734.552	0.0164713
734.630	0.0166190
734.708	0.0164742
734.786	0.0164810
734.864	0.0165977
734.942	0.0165479
735.021	0.0165565
735.099	0.0163791
735.177	0.0164621
735.255	0.0166232
735.333	0.0165469
735.411	0.0164175
735.489	0.0164504
735.567	0.0164851
735.646	0.0164093
735.724	0.0165047
735.802	0.0164510
735.880	0.0165151
735.958	0.0164662
736.036	0.0163741
736.114	0.0165652
736.192	0.0164654
736.271	0.0164467
736.349	0.0164378
736.427	0.0164874
736.505	0.0164745
736.583	0.0164655
736.661	0.0165189
736.739	0.0164832
736.817	0.0165371
736.896	0.0165444
736.974	0.0165069
737.052	0.0164477
737.130	0.0165326
737.208	0.0165602
737.286	0.0165195
737.364	0.0164340
737.442	0.0164585
737.521	0.0164229
737.599	0.0165154
737.677	0.0164930
737.755	0.0166225
737.833	0.0164531
737.911	0.0164044
737.989	0.0165844
738.067	0.0165594
738.146	0.0163724
738.224	0.0163563
738.302	0.0164862
738.380	0.0165413
738.458	0.0164845
738.536	0.0164698
738.614	0.0165158
738.692	0.0165505
738.771	0.0164169
738.849	0.0165732
738.927	0.0164816
739.005	0.0164095
739.083	0.0164742
739.161	0.0165167
739.239	0.0164005
739.317	0.0164754
739.396	0.0164478
739.474	0.0163977
739.552	0.0164295
739.630	0.0165472
739.708	0.0165755
739.786	0.0165632
739.864	0.0162887
739.942	0.0163245
740.021	0.0163834
740.099	0.0164263
740.177	0.0164001
740.255	0.0164641
740.333	0.0165920
740.411	0.0165320
740.489	0.0163795
740.567	0.0164978
740.646	0.0166454
740.724	0.0165156
740.802	0.0165366
740.880	0.0165298
740.958	0.0165572
741.036	0.0166070
741.114	0.0165447
741.192	0.0166381
741.271	0.0165864
741.349	0.0166229
741.427	0.0166702
741.505	0.0166071
741.583	0.0166824
741.661	0.0165065
741.739	0.0165114
741.817	0.0166428
741.896	0.0165909
741.974	0.0166409
742.052	0.0166087
742.130	0.0164729
742.208	0.0161825
742.286	0.0162506
742.364	0.0162460
742.442	0.0161995
742.521	0.0160299
742.599	0.0160229
742.677	0.0161290
742.755	0.0162737
742.833	0.0162383
742.911	0.0165820
742.989	0.0165701
743.067	0.0165547
743.146	0.0168839
743.224	0.0170842
743.302	0.0171259
743.380	0.0172765
743.458	0.0172746
743.536	0.0173493
743.614	0.0174136
743.692	0.0172406
743.771	0.0169933
743.849	0.0169237
743.927	0.0168750
744.005	0.0166353
744.083	0.0163894
744.161	0.0159803
744.239	0.0156628
744.317	0.0153893
744.396	0.0152530
744.474	0.0150716
744.552	0.0149505
744.630	0.0149835
744.708	0.0152356
744.786	0.0153205
744.864	0.0156916
744.942	0.0162354
745.021	0.0167798
745.099	0.0174067
745.177	0.0176638
745.255	0.0180351
745.333	0.0183371
745.411	0.0182327
745.489	0.0181602
745.567	0.0181259
745.646	0.0178743
745.724	0.0174173
745.802	0.0172062
745.880	0.0166943
745.958	0.0163331
746.036	0.0158366
746.114	0.0156348
746.192	0.0156458
746.271	0.0152780
746.349	0.0153448
746.427	0.0154687
746.505	0.0156944
746.583	0.0155057
746.661	0.0157813
746.739	0.0156966
746.817	0.0158029
746.896	0.0157640
746.974	0.0157860
747.052	0.0160136
747.130	0.0160836
747.208	0.0162840
747.286	0.0166215
747.364	0.0170901
747.442	0.0173992
747.521	0.0178777
747.599	0.0180946
747.677	0.0182858
747.755	0.0182900
747.833	0.0181709
747.911	0.0179661
747.989	0.0176453
748.067	0.0171607
748.146	0.0167654
748.224	0.0161979
748.302	0.0157679
748.380	0.0153438
748.458	0.0149844
748.536	0.0147545
748.614	0.0146275
748.692	0.0144933
748.771	0.0145330
748.849	0.0144933
748.927	0.0146875
749.005	0.0149069
749.083	0.0152020
749.161	0.0154768
749.239	0.0157077
749.317	0.0161038
749.396	0.0164500
749.474	0.0169322
749.552	0.0176111
749.630	0.0180047
749.708	0.0187041
749.786	0.0192701
749.864	0.0197495
749.942	0.0202043
750.021	0.0203729
750.099	0.0205965
750.177	0.0203284
750.255	0.0199598
750.333	0.0194120
750.411	0.0183743
750.489	0.0174419
750.567	0.0163706
750.646	0.0152574
750.724	0.0144476
750.802	0.0133926
750.880	0.0126224
750.958	0.0121751
751.036	0.0116012
751.114	0.0117345
751.192	0.0116838
751.271	0.0120023
751.349	0.0123698
751.427	0.0129513
751.505	0.0137501
751.583	0.0145794
751.661	0.0152320
751.739	0.0160276
751.817	0.0168618
751.896	0.0177110
751.974	0.0184036
752.052	0.0191012
752.130	0.0198605
752.208	0.0202925
752.286	0.0209657
752.364	0.0214027
752.442	0.0217188
752.521	0.0218871
752.599	0.0218506
752.677	0.0217899
752.755	0.0214917
752.833	0.0210267
752.911	0.0203831
752.989	0.0196313
753.067	0.0187733
753.146	0.0175095
753.224	0.0163264
753.302	0.0150813
753.380	0.0137119
753.458	0.0125175
753.536	0.0115628
753.614	0.0105214
753.692	0.00968872
753.771	0.00922234
753.849	0.00896118
753.927	0.00895035
754.005	0.00922707
754.083	0.00999115
754.161	0.0108237
754.239	0.0117544
754.317	0.0128970
754.396	0.0141129
754.474	0.0154392
754.552	0.0168092
754.630	0.0181387
754.708	0.0194551
754.786	0.0206329
754.864	0.0216984
754.942	0.0224868
755.021	0.0232644
755.099	0.0237670
755.177	0.0241698
755.255	0.0240273
755.333	0.0238871
755.411	0.0237115
755.489	0.0231646
755.567	0.0224535
755.646	0.0215871
755.724	0.0204492
755.802	0.0193636
755.880	0.0181996
755.958	0.0168715
756.036	0.0156417
756.114	0.0141506
756.192	0.0130019
756.271	0.0119925
756.349	0.0108730
756.427	0.0100976
756.505	0.00942200
756.583	0.00914986
756.661	0.00889557
756.739	0.00895256
756.817	0.00925293
756.896	0.00963776
756.974	0.0104895
757.052	0.0114795
757.130	0.0124456
757.208	0.0136525
757.286	0.0149210
757.364	0.0162125
757.442	0.0176154
757.521	0.0187215
757.599	0.0199013
757.677	0.0210162
757.755	0.0218879
757.833	0.0225265
757.911	0.0227136
757.989	0.0230785
758.067	0.0232456
758.146	0.0229945
758.224	0.0226048
758.302	0.0220631
758.380	0.0214148
758.458	0.0207712
758.536	0.0200491
758.614	0.0189980
758.692	0.0180685
758.771	0.0171828
758.849	0.0162434
758.927	0.0154514
759.005	0.0144224
759.083	0.0135279
759.161	0.0128629
759.239	0.0121439
759.317	0.0116070
759.396	0.0113168
759.474	0.0111519
759.552	0.0111763
759.630	0.0112547
759.708	0.0113077
759.786	0.0119617
759.864	0.0125401
759.942	0.0130838
760.021	0.0138286
760.099	0.0146899
760.177	0.0156234
760.255	0.0164142
760.333	0.0174254
760.411	0.0179958
760.489	0.0188165
760.567	0.0194541
760.646	0.0200903
760.724	0.0204836
760.802	0.0207783
760.880	0.0208289
760.958	0.0208749
761.036	0.0207895
761.114	0.0206099
761.192	0.0202139
761.271	0.0198025
761.349	0.0194169
761.427	0.0190008
761.505	0.0183270
761.583	0.0178119
761.661	0.0172944
761.739	0.0166914
761.817	0.0160691
761.896	0.0154175
761.974	0.0146999
762.052	0.0142017
762.130	0.0136932
762.208	0.0131004
762.286	0.0127175
762.364	0.0124565
762.442	0.0124109
762.521	0.0122811
762.599	0.0123709
762.677	0.0126858
762.755	0.0130754
762.833	0.0134499
762.911	0.0139518
762.989	0.0146964
763.067	0.0153540
763.146	0.0160624
763.224	0.0168545
763.302	0.0173165
763.380	0.0178262
763.458	0.0183237
763.536	0.0186511
763.614	0.0189626
763.692	0.0192663
763.771	0.0193427
763.849	0.0193252
763.927	0.0192187
764.005	0.0191382
764.083	0.0188913
764.161	0.0188676
764.239	0.0184515
764.317	0.0182576
764.396	0.0182070
764.474	0.0178719
764.552	0.0174680
764.630	0.0171149
764.708	0.0168228
764.786	0.0164341
764.864	0.0160667
764.942	0.0158233
765.021	0.0155690
765.099	0.0154060
765.177	0.0152608
765.255	0.0150712
765.333	0.0151730
765.411	0.0150111
765.489	0.0149925
765.567	0.0150542
765.646	0.0150096
765.724	0.0148833
765.802	0.0150796
765.880	0.0151509
765.958	0.0151229
766.036	0.0151188
766.114	0.0154383
766.192	0.0154656
766.271	0.0154141
766.349	0.0154383
766.427	0.0154350
766.505	0.0153570
766.583	0.0154827
766.661	0.0153515
766.739	0.0155460
766.817	0.0158788
766.896	0.0160705
766.974	0.0164027
767.052	0.0167284
767.130	0.0171223
767.208	0.0174329
767.286	0.0177293
767.364	0.0179237
767.442	0.0182005
767.521	0.0184057
767.599	0.0185085
767.677	0.0184276
767.755	0.0184682
767.833	0.0185029
767.911	0.0183187
767.989	0.0180020
768.067	0.0177910
768.146	0.0175775
768.224	0.0173731
768.302	0.0171334
768.380	0.0168169
768.458	0.0166421
768.536	0.0164442
768.614	0.0162690
768.692	0.0160900
768.771	0.0160036
768.849	0.0158286
768.927	0.0156631
769.005	0.0155630
769.083	0.0157144
769.161	0.0157607
769.239	0.0156155
769.317	0.0156697
769.396	0.0158143
769.474	0.0159935
769.552	0.0161963
769.630	0.0161729
769.708	0.0163921
769.786	0.0164424
769.864	0.0166032
769.942	0.0165522
770.021	0.0165836
770.099	0.0165917
770.177	0.0166974
770.255	0.0166286
770.333	0.0166526
770.411	0.0166692
770.489	0.0165941
770.567	0.0166106
770.646	0.0166193
770.724	0.0166235
770.802	0.0166050
770.880	0.0165490
770.958	0.0163502
771.036	0.0162461
771.114	0.0162077
771.192	0.0158832
771.271	0.0158486
771.349	0.0158717
771.427	0.0158990
771.505	0.0159087
771.583	0.0159374
771.661	0.0160066
771.739	0.0161490
771.817	0.0162336
771.896	0.0163329
771.974	0.0165140
772.052	0.0165172
772.130	0.0165935
772.208	0.0165128
772.286	0.0164489
772.364	0.0163070
772.442	0.0162618
772.521	0.0162647
772.599	0.0161563
772.677	0.0163039
772.755	0.0164105
772.833	0.0163571
772.911	0.0165643
772.989	0.0164997
773.067	0.0166572
773.146	0.0169497
773.224	0.0171646
773.302	0.0173078
773.380	0.0173108
773.458	0.0173597
773.536	0.0172680
773.614	0.0174117
773.692	0.0173962
773.771	0.0173871
773.849	0.0172701
773.927	0.0172363
774.005	0.0169833
774.083	0.0172375
774.161	0.0169913
774.239	0.0167944
774.317	0.0166451
774.396	0.0165746
774.474	0.0165547
774.552	0.0162844
774.630	0.0163229
774.708	0.0163309
774.786	0.0161954
774.864	0.0160181
774.942	0.0160052
775.021	0.0159931
775.099	0.0159138
775.177	0.0159349
775.255	0.0159806
775.333	0.0161178
775.411	0.0160188
775.489	0.0160989
775.567	0.0160485
775.646	0.0162188
775.724	0.0162338
775.802	0.0161086
775.880	0.0162465
775.958	0.0161671
776.036	0.0161443
776.114	0.0159217
776.192	0.0160902
776.271	0.0160674
776.349	0.0160497
776.427	0.0159827
776.505	0.0160034
776.583	0.0159811
776.661	0.0159380
776.739	0.0158568
776.817	0.0160064
776.896	0.0160998
776.974	0.0162826
777.052	0.0162920
777.130	0.0165824
777.208	0.0167622
777.286	0.0169066
777.364	0.0171508
777.442	0.0173396
777.521	0.0175237
777.599	0.0177135
777.677	0.0178909
777.755	0.0178876
777.833	0.0180121
777.911	0.0180146
777.989	0.0180370
778.067	0.0179726
778.146	0.0178303
778.224	0.0176753
778.302	0.0176215
778.380	0.0174407
778.458	0.0171688
778.536	0.0169563
778.614	0.0165220
778.692	0.0164655
778.771	0.0162684
778.849	0.0161683
778.927	0.0160011
779.005	0.0159760
779.083	0.0157793
779.161	0.0156279
779.239	0.0155476
779.317	0.0155475
779.396	0.0155978
779.474	0.0153899
779.552	0.0153579
779.630	0.0156348
779.708	0.0155729
779.786	0.0158546
779.864	0.0159901
779.942	0.0162787
780.021	0.0165897
780.099	0.0167422
780.177	0.0169696
780.255	0.0171297
780.333	0.0172884
780.411	0.0173635
780.489	0.0174814
780.567	0.0175145
780.646	0.0175282
780.724	0.0174245
780.802	0.0171115
780.880	0.0170668
780.958	0.0170011
781.036	0.0166947
781.114	0.0163756
781.192	0.0162238
781.271	0.0160149
781.349	0.0157878
781.427	0.0154877
781.505	0.0154758
781.583	0.0153432
781.661	0.0152768
781.739	0.0153816
781.817	0.0154183
781.896	0.0154724
781.974	0.0154145
782.052	0.0155482
782.130	0.0158214
782.208	0.0161468
782.286	0.0163770
782.364	0.0166195
782.442	0.0168821
782.521	0.0171240
782.599	0.0173279
782.677	0.0175325
782.755	0.0176788
782.833	0.0178896
782.911	0.0178424
782.989	0.0179396
783.067	0.0178103
783.146	0.0177551
783.224	0.0176545
783.302	0.0173838
783.380	0.0171786
783.458	0.0169090
783.536	0.0166640
783.614	0.0166167
783.692	0.0164941
783.771	0.0163226
783.849	0.0160783
783.927	0.0160043
784.005	0.0160466
784.083	0.0160280
784.161	0.0159016
784.239	0.0159985
784.317	0.0161606
784.396	0.0163029
784.474	0.0164854
784.552	0.0165194
784.630	0.0166889
784.708	0.0169160
784.786	0.0170699
784.864	0.0169789
784.942	0.0171831
785.021	0.0171799
785.099	0.0170848
785.177	0.0171096
785.255	0.0170227
785.333	0.0169226
785.411	0.0169525
785.489	0.0167572
785.567	0.0166348
785.646	0.0163268
785.724	0.0161067
785.802	0.0162334
785.880	0.0159823
785.958	0.0159315
786.036	0.0157703
786.114	0.0157213
786.192	0.0156288
786.271	0.0156395
786.349	0.0155904
786.427	0.0155596
786.505	0.0157041
786.583	0.0155624
786.661	0.0157670
786.739	0.0157800
786.817	0.0157604
786.896	0.0156363
786.974	0.0156517
787.052	0.0156737
787.130	0.0157167
787.208	0.0158765
787.286	0.0158300
787.364	0.0160471
787.442	0.0160651
787.521	0.0162859
787.599	0.0164512
787.677	0.0166980
787.755	0.0166309
787.833	0.0169493
787.911	0.0172191
787.989	0.0173554
788.067	0.0175700
788.146	0.0177289
788.224	0.0177602
788.302	0.0177259
788.380	0.0178182
788.458	0.0178614
788.536	0.0177612
788.614	0.0177131
788.692	0.0177308
788.771	0.0174698
788.849	0.0170945
788.927	0.0169971
789.005	0.0168309
789.083	0.0165983
789.161	0.0163786
789.239	0.0161662
789.317	0.0159978
789.396	0.0159788
789.474	0.0158817
789.552	0.0159037
789.630	0.0158145
789.708	0.0158097
789.786	0.0159719
789.864	0.0161145
789.942	0.0162576
790.021	0.0162315
790.099	0.0164569
790.177	0.0166788
790.255	0.0167078
790.333	0.0168668
790.411	0.0168214
790.489	0.0167195
790.567	0.0167899
790.646	0.0169251
790.724	0.0169919
790.802	0.0168434
790.880	0.0168285
790.958	0.0166831
791.036	0.0166667
791.114	0.0164381
791.192	0.0162771
791.271	0.0162035
791.349	0.0161842
791.427	0.0160429
791.505	0.0161321
791.583	0.0161027
791.661	0.0159371
791.739	0.0161900
791.817	0.0160090
791.896	0.0161286
791.974	0.0161462
792.052	0.0159779
792.130	0.0160941
792.208	0.0160458
792.286	0.0161270
792.364	0.0159452
792.442	0.0160481
792.521	0.0160661
792.599	0.0160070
792.677	0.0159966
792.755	0.0160163
792.833	0.0161295
792.911	0.0160446
792.989	0.0161012
793.067	0.0162653
793.146	0.0164051
793.224	0.0166245
793.302	0.0166944
793.380	0.0168153
793.458	0.0169564
793.536	0.0169506
793.614	0.0170470
793.692	0.0171674
793.771	0.0171506
793.849	0.0171973
793.927	0.0172303
794.005	0.0171089
794.083	0.0171337
794.161	0.0169793
794.239	0.0168407
794.317	0.0168406
794.396	0.0167654
794.474	0.0166063
794.552	0.0166764
794.630	0.0164390
794.708	0.0162893
794.786	0.0162923
794.864	0.0163010
794.942	0.0161115
795.021	0.0160098
795.099	0.0160978
795.177	0.0161674
795.255	0.0161797
795.333	0.0161482
795.411	0.0162679
795.489	0.0163811
795.567	0.0164523
795.646	0.0166447
795.724	0.0167561
795.802	0.0167370
795.880	0.0170731
795.958	0.0169760
796.036	0.0169917
796.114	0.0169290
796.192	0.0169025
796.271	0.0168369
796.349	0.0167580
796.427	0.0166605
796.505	0.0162656
796.583	0.0164053
796.661	0.0161459
796.739	0.0160522
796.817	0.0160374
796.896	0.0158763
796.974	0.0159329
797.052	0.0158157
797.130	0.0157475
797.208	0.0157541
797.286	0.0159625
797.364	0.0159579
797.442	0.0158749
797.521	0.0160807
797.599	0.0161311
797.677	0.0164581
797.755	0.0163420
797.833	0.0164922
797.911	0.0165455
797.989	0.0166800
798.067	0.0167066
798.146	0.0167567
798.224	0.0167712
798.302	0.0167188
798.380	0.0168348
798.458	0.0168219
798.536	0.0168149
798.614	0.0166881
798.692	0.0165862
798.771	0.0165331
798.849	0.0165321
798.927	0.0165529
799.005	0.0165311
799.083	0.0163640
799.161	0.0163171
799.239	0.0164431
799.317	0.0163042
799.396	0.0163589
799.474	0.0164436
799.552	0.0165917
799.630	0.0166677
799.708	0.0165253
799.786	0.0167216
799.864	0.0167277
799.942	0.0168033
800.021	0.0168050
800.099	0.0167596
800.177	0.0168097
800.255	0.0166778
800.333	0.0167439
800.411	0.0167145
800.489	0.0165769
800.567	0.0165429
800.646	0.0166313
800.724	0.0164984
800.802	0.0163968
800.880	0.0164291
800.958	0.0162939
801.036	0.0162807
801.114	0.0163450
801.192	0.0165753
801.271	0.0165130
801.349	0.0166507
801.427	0.0167327
801.505	0.0167426
801.583	0.0168732
801.661	0.0168517
801.739	0.0170495
801.817	0.0169695
801.896	0.0169598
801.974	0.0168181
802.052	0.0167854
802.130	0.0168119
802.208	0.0167095
802.286	0.0166882
802.364	0.0165830
802.442	0.0166032
802.521	0.0164894
802.599	0.0162984
802.677	0.0162154
802.755	0.0161915
802.833	0.0161383
802.911	0.0160222
802.989	0.0160843
803.067	0.0157930
803.146	0.0157957
803.224	0.0157663
803.302	0.0157870
803.380	0.0157613
803.458	0.0157885
803.536	0.0159324
803.614	0.0159764
803.692	0.0161987
803.771	0.0162817
803.849	0.0162175
803.927	0.0163839
804.005	0.0164462
804.083	0.0164499
804.161	0.0164877
804.239	0.0165098
804.317	0.0165651
804.396	0.0166052
804.474	0.0167251
804.552	0.0165006
804.630	0.0166742
804.708	0.0167306
804.786	0.0166348
804.864	0.0166603
804.942	0.0167892
805.021	0.0167670
805.099	0.0168057
805.177	0.0167256
805.255	0.0168739
805.333	0.0168087
805.411	0.0169532
805.489	0.0170179
805.567	0.0169644
805.646	0.0171356
805.724	0.0171372
805.802	0.0170882
805.880	0.0171572
805.958	0.0171192
806.036	0.0171535
806.114	0.0171032
806.192	0.0171021
806.271	0.0170865
806.349	0.0170117
806.427	0.0169374
806.505	0.0168156
806.583	0.0168193
806.661	0.0168116
806.739	0.0166513
806.817	0.0166241
806.896	0.0166522
806.974	0.0164706
807.052	0.0164597
807.130	0.0164822
807.208	0.0164494
807.286	0.0163107
807.364	0.0163889
807.442	0.0164500
807.521	0.0162335
807.599	0.0164840
807.677	0.0164595
807.755	0.0164222
807.833	0.0163249
807.911	0.0163433
807.989	0.0164422
808.067	0.0162730
808.146	0.0165499
808.224	0.0164535
808.302	0.0164294
808.380	0.0163434
808.458	0.0163110
808.536	0.0161786
808.614	0.0162623
808.692	0.0161787
808.771	0.0161160
808.849	0.0161185
808.927	0.0160393
809.005	0.0160039
809.083	0.0159808
809.161	0.0159921
809.239	0.0159341
809.317	0.0161608
809.396	0.0161129
809.474	0.0161948
809.552	0.0163050
809.630	0.0163215
809.708	0.0165723
809.786	0.0166434
809.864	0.0167039
809.942	0.0167685
810.021	0.0167664
810.099	0.0168547
810.177	0.0169643
810.255	0.0169035
810.333	0.0169936
810.411	0.0170226
810.489	0.0170179
810.567	0.0170172
810.646	0.0169118
810.724	0.0170192
810.802	0.0168941
810.880	0.0169318
810.958	0.0169318
811.036	0.0168063
811.114	0.0165623
811.192	0.0164449
811.271	0.0164857
811.349	0.0164382
811.427	0.0164558
811.505	0.0164067
811.583	0.0164909
811.661	0.0165218
811.739	0.0163477
811.817	0.0165250
811.896	0.0165106
811.974	0.0166621
812.052	0.0164110
812.130	0.0166311
812.208	0.0167476
812.286	0.0167370
812.364	0.0166376
812.442	0.0168858
812.521	0.0168025
812.599	0.0169899
812.677	0.0169109
812.755	0.0168875
812.833	0.0168987
812.911	0.0167796
812.989	0.0166730
813.067	0.0167049
813.146	0.0166988
813.224	0.0165912
813.302	0.0165828
813.380	0.0165587
813.458	0.0163963
813.536	0.0165413
813.614	0.0165108
813.692	0.0163795
813.771	0.0162873
813.849	0.0164289
813.927	0.0162115
814.005	0.0163484
814.083	0.0162772
814.161	0.0162092
814.239	0.0162405
814.317	0.0164148
814.396	0.0163320
814.474	0.0161779
814.552	0.0162748
814.630	0.0162028
814.708	0.0163328
814.786	0.0162013
814.864	0.0163319
814.942	0.0161869
815.021	0.0160781
815.099	0.0162813
815.177	0.0163470
815.255	0.0162740
815.333	0.0163379
815.411	0.0162460
815.489	0.0162460
815.567	0.0163962
815.646	0.0163730
815.724	0.0165282
815.802	0.0165984
815.880	0.0165917
815.958	0.0166010
816.036	0.0165789
816.114	0.0165935
816.192	0.0167963
816.271	0.0166785
816.349	0.0166865
816.427	0.0166752
816.505	0.0165059
816.583	0.0166035
816.661	0.0164341
816.739	0.0165682
816.817	0.0164799
816.896	0.0163576
816.974	0.0164007
817.052	0.0165096
817.130	0.0162525
817.208	0.0162980
817.286	0.0162577
817.364	0.0162608
817.442	0.0164526
817.521	0.0164526
817.599	0.0166344
817.677	0.0165831
817.755	0.0166836
817.833	0.0168063
817.911	0.0168805
817.989	0.0168075
818.067	0.0170243
818.146	0.0169603
818.224	0.0169454
818.302	0.0168425
818.380	0.0168822
818.458	0.0167398
818.536	0.0167384
818.614	0.0167848
818.692	0.0166308
818.771	0.0167416
818.849	0.0167530
818.927	0.0165897
819.005	0.0163062
819.083	0.0163003
819.161	0.0163434
819.239	0.0162196
819.317	0.0161200
819.396	0.0162416
819.474	0.0163351
819.552	0.0163313
819.630	0.0164011
819.708	0.0163543
819.786	0.0164398
819.864	0.0162674
819.942	0.0164175
820.021	0.0163591
820.099	0.0165293
820.177	0.0164915
820.255	0.0165542
820.333	0.0165562
820.411	0.0165263
820.489	0.0164616
820.567	0.0166076
820.646	0.0165273
820.724	0.0166746
820.802	0.0167070
820.880	0.0165624
820.958	0.0165099
821.036	0.0166070
821.114	0.0164881
821.192	0.0164778
821.271	0.0163787
821.349	0.0164455
821.427	0.0164350
821.505	0.0164631
821.583	0.0164223
821.661	0.0165559
821.739	0.0164223
821.817	0.0164479
821.896	0.0164061
821.974	0.0163597
822.052	0.0163639
822.130	0.0164122
822.208	0.0165352
822.286	0.0164806
822.364	0.0165597
822.442	0.0165037
822.521	0.0164166
822.599	0.0164786
822.677	0.0166039
822.755	0.0165115
822.833	0.0165659
822.911	0.0167208
822.989	0.0165430
823.067	0.0164913
823.146	0.0164799
823.224	0.0166622
823.302	0.0165178
823.380	0.0167101
823.458	0.0166290
823.536	0.0165677
823.614	0.0164481
823.692	0.0164757
823.771	0.0165513
823.849	0.0164301
823.927	0.0162718
824.005	0.0164091
824.083	0.0163197
824.161	0.0164082
824.239	0.0164245
824.317	0.0165137
824.396	0.0163650
824.474	0.0164801
824.552	0.0164689
824.630	0.0163648
824.708	0.0164141
824.786	0.0166660
824.864	0.0167016
824.942	0.0167442
825.021	0.0167709
825.099	0.0165320
825.177	0.0167587
825.255	0.0166666
825.333	0.0166585
825.411	0.0167062
825.489	0.0166422
825.567	0.0167769
825.646	0.0166756
825.724	0.0165595
825.802	0.0163995
825.880	0.0165376
825.958	0.0165588
826.036	0.0164610
826.114	0.0165131
826.192	0.0165459
826.271	0.0166062
826.349	0.0165670
826.427	0.0166110
826.505	0.0167220
826.583	0.0166324
826.661	0.0166171
826.739	0.0167126
826.817	0.0167117
826.896	0.0165707
826.974	0.0165702
827.052	0.0166485
827.130	0.0165316
827.208	0.0164810
827.286	0.0164754
827.364	0.0163692
827.442	0.0163821
827.521	0.0163780
827.599	0.0162592
827.677	0.0161088
827.755	0.0160670
827.833	0.0160908
827.911	0.0161890
827.989	0.0161566
828.067	0.0161552
828.146	0.0161043
828.224	0.0161224
828.302	0.0162751
828.380	0.0164024
828.458	0.0162802
828.536	0.0163142
828.614	0.0165425
828.692	0.0165607
828.771	0.0165488
828.849	0.0166943
828.927	0.0168180
829.005	0.0168500
829.083	0.0168542
829.161	0.0168610
829.239	0.0167344
829.317	0.0167464
829.396	0.0168816
829.474	0.0167729
829.552	0.0166669
829.630	0.0167504
829.708	0.0166000
829.786	0.0163715
829.864	0.0162886
829.942	0.0162706
830.021	0.0163300
830.099	0.0163696
830.177	0.0162741
830.255	0.0163089
830.333	0.0164043
830.411	0.0163733
830.489	0.0164101
830.567	0.0162977
830.646	0.0164441
830.724	0.0165874
830.802	0.0167121
830.880	0.0166702
830.958	0.0167733
831.036	0.0168992
831.114	0.0167819
831.192	0.0169260
831.271	0.0169157
831.349	0.0167876
831.427	0.0168979
831.505	0.0167042
831.583	0.0166032
831.661	0.0166377
831.739	0.0165466
831.817	0.0165342
831.896	0.0164243
831.974	0.0162356
832.052	0.0164048
832.130	0.0164366
832.208	0.0163883
832.286	0.0162594
832.364	0.0163841
832.442	0.0163792
832.521	0.0163505
832.599	0.0162951
832.677	0.0162396
832.755	0.0164288
832.833	0.0163319
832.911	0.0163665
832.989	0.0165265
833.067	0.0164116
833.146	0.0165618
833.224	0.0166726
833.302	0.0165659
833.380	0.0166584
833.458	0.0167134
833.536	0.0165725
833.614	0.0166283
833.692	0.0164993
833.771	0.0165186
833.849	0.0165422
833.927	0.0166155
834.005	0.0164282
834.083	0.0163847
834.161	0.0164324
834.239	0.0163184
834.317	0.0163112
834.396	0.0163963
834.474	0.0163128
834.552	0.0164001
834.630	0.0164583
834.708	0.0164120
834.786	0.0164671
834.864	0.0163963
834.942	0.0165387
835.021	0.0165405
835.099	0.0165693
835.177	0.0164765
835.255	0.0164816
835.333	0.0167735
835.411	0.0166669
835.489	0.0165539
835.567	0.0166551
835.646	0.0166814
835.724	0.0165119
835.802	0.0164607
835.880	0.0166203
835.958	0.0166119
836.036	0.0164034
836.114	0.0165466
836.192	0.0165390
836.271	0.0165448
836.349	0.0164330
836.427	0.0165038
836.505	0.0165188
836.583	0.0166254
836.661	0.0165901
836.739	0.0166574
836.817	0.0167624
836.896	0.0167028
836.974	0.0168009
837.052	0.0170155
837.130	0.0168314
837.208	0.0169368
837.286	0.0169797
837.364	0.0168431
837.442	0.0169400
837.521	0.0170071
837.599	0.0170000
837.677	0.0169014
837.755	0.0169107
837.833	0.0168791
837.911	0.0166289
837.989	0.0166993
838.067	0.0166381
838.146	0.0164012
838.224	0.0164297
838.302	0.0161588
838.380	0.0163141
838.458	0.0162350
838.536	0.0161858
838.614	0.0161600
838.692	0.0162008
838.771	0.0162819
838.849	0.0162907
838.927	0.0162405
839.005	0.0163337
839.083	0.0164179
839.161	0.0164836
839.239	0.0164496
839.317	0.0163504
839.396	0.0164990
839.474	0.0164735
839.552	0.0167072
839.630	0.0166115
839.708	0.0164745
839.786	0.0166995
839.864	0.0163955
839.942	0.0164962
840.021	0.0165335
840.099	0.0165224
840.177	0.0163233
840.255	0.0162054
840.333	0.0163303
840.411	0.0162482
840.489	0.0163084
840.567	0.0162751
840.646	0.0164114
840.724	0.0162428
840.802	0.0162931
840.880	0.0161497
840.958	0.0163673
841.036	0.0164809
841.114	0.0164238
841.192	0.0165343
841.271	0.0165814
841.349	0.0166961
841.427	0.0167744
841.505	0.0167709
841.583	0.0168144
841.661	0.0167976
841.739	0.0167568
841.817	0.0166312
841.896	0.0168043
841.974	0.0167352
842.052	0.0167311
842.130	0.0166091
842.208	0.0166998
842.286	0.0166288
842.364	0.0166542
842.442	0.0164909
842.521	0.0165148
842.599	0.0164613
842.677	0.0164371
842.755	0.0163885
842.833	0.0165553
842.911	0.0166016
842.989	0.0166591
843.067	0.0165971
843.146	0.0166965
843.224	0.0166659
843.302	0.0167926
843.380	0.0167101
843.458	0.0168239
843.536	0.0167787
843.614	0.0168652
843.692	0.0168328
843.771	0.0168848
843.849	0.0169234
843.927	0.0167099
844.005	0.0166073
844.083	0.0165985
844.161	0.0166624
844.239	0.0163339
844.317	0.0162135
844.396	0.0162471
844.474	0.0161555
844.552	0.0160867
844.630	0.0160307
844.708	0.0160117
844.786	0.0158886
844.864	0.0160999
844.942	0.0159810
845.021	0.0159321
845.099	0.0159415
845.177	0.0158990
845.255	0.0160905
845.333	0.0160383
845.411	0.0162142
845.489	0.0163565
845.567	0.0164297
845.646	0.0165346
845.724	0.0165546
845.802	0.0165240
845.880	0.0166521
845.958	0.0166002
846.036	0.0166776
846.114	0.0168147
846.192	0.0167615
846.271	0.0166576
846.349	0.0167558
846.427	0.0166850
846.505	0.0166547
846.583	0.0165745
846.661	0.0165882
846.739	0.0165044
846.817	0.0164362
846.896	0.0164830
846.974	0.0162456
847.052	0.0162436
847.130	0.0162610
847.208	0.0161566
847.286	0.0161446
847.364	0.0161440
847.442	0.0161861
847.521	0.0161826
847.599	0.0162033
847.677	0.0159492
847.755	0.0162384
847.833	0.0163074
847.911	0.0163903
847.989	0.0164013
848.067	0.0163476
848.146	0.0164532
848.224	0.0166104
848.302	0.0167319
848.380	0.0167532
848.458	0.0167872
848.536	0.0168670
848.614	0.0168055
848.692	0.0169717
848.771	0.0170021
848.849	0.0168829
848.927	0.0169721
849.005	0.0170545
849.083	0.0169502
849.161	0.0169707
849.239	0.0170235
849.317	0.0169406
849.396	0.0169037
849.474	0.0168965
849.552	0.0167648
849.630	0.0167649
849.708	0.0166662
849.786	0.0166502
849.864	0.0164715
849.942	0.0164185
850.021	0.0163146
850.099	0.0162803
850.177	0.0161753
850.255	0.0160523
850.333	0.0160547
850.411	0.0158385
850.489	0.0159425
850.567	0.0159338
850.646	0.0156785
850.724	0.0157768
850.802	0.0159042
850.880	0.0160371
850.958	0.0159164
851.036	0.0161397
851.114	0.0160998
851.192	0.0164395
851.271	0.0164613
851.349	0.0164307
851.427	0.0165766
851.505	0.0166906
851.583	0.0168575
851.661	0.0170298
851.739	0.0170306
851.817	0.0170773
851.896	0.0172206
851.974	0.0173813
852.052	0.0172694
852.130	0.0171276
852.208	0.0171391
852.286	0.0171176
852.364	0.0169769
852.442	0.0168020
852.521	0.0167968
852.599	0.0165787
852.677	0.0165135
852.755	0.0163168
852.833	0.0161240
852.911	0.0160474
852.989	0.0160545
853.067	0.0158483
853.146	0.0157545
853.224	0.0159007
853.302	0.0156329
853.380	0.0156619
853.458	0.0158295
853.536	0.0158303
853.614	0.0159366
853.692	0.0159052
853.771	0.0159643
853.849	0.0160532
853.927	0.0163822
854.005	0.0164338
854.083	0.0166024
854.161	0.0166544
854.239	0.0168446
854.317	0.0167366
854.396	0.0168761
854.474	0.0170020
854.552	0.0171326
854.630	0.0170550
854.708	0.0170047
854.786	0.0170711
854.864	0.0170139
854.942	0.0172160
855.021	0.0169370
855.099	0.0169518
855.177	0.0168475
855.255	0.0168939
855.333	0.0168412
855.411	0.0166827
855.489	0.0165562
855.567	0.0165169
855.646	0.0164107
855.724	0.0164397
855.802	0.0164300
855.880	0.0163256
855.958	0.0162805
856.036	0.0161594
856.114	0.0162868
856.192	0.0162520
856.271	0.0163187
856.349	0.0163430
856.427	0.0163773
856.505	0.0163723
856.583	0.0163229
856.661	0.0164905
856.739	0.0164518
856.817	0.0163975
856.896	0.0164259
856.974	0.0164722
857.052	0.0164713
857.130	0.0165166
857.208	0.0163846
857.286	0.0164574
857.364	0.0165835
857.442	0.0165589
857.521	0.0166351
857.599	0.0165623
857.677	0.0165265
857.755	0.0165032
857.833	0.0164955
857.911	0.0164748
857.989	0.0165244
858.067	0.0167352
858.146	0.0166619
858.224	0.0164488
858.302	0.0166659
858.380	0.0165600
858.458	0.0165063
858.536	0.0165202
858.614	0.0165426
858.692	0.0165086
858.771	0.0163828
858.849	0.0162669
858.927	0.0163899
859.005	0.0162725
859.083	0.0162002
859.161	0.0160409
859.239	0.0162639
859.317	0.0163022
859.396	0.0162585
859.474	0.0162051
859.552	0.0162746
859.630	0.0163448
859.708	0.0164178
859.786	0.0163977
859.864	0.0165999
859.942	0.0165421
860.021	0.0165116
860.099	0.0165297
860.177	0.0166219
860.255	0.0167018
860.333	0.0168312
860.411	0.0168020
860.489	0.0168106
860.567	0.0169472
860.646	0.0167655
860.724	0.0167921
860.802	0.0167778
860.880	0.0167994
860.958	0.0167963
861.036	0.0166467
861.114	0.0166954
861.192	0.0167767
861.271	0.0168266
861.349	0.0168136
861.427	0.0167013
861.505	0.0165991
861.583	0.0166364
861.661	0.0166066
861.739	0.0165488
861.817	0.0164500
861.896	0.0165051
861.974	0.0166460
862.052	0.0164752
862.130	0.0163919
862.208	0.0163970
862.286	0.0163126
862.364	0.0162880
862.442	0.0163742
862.521	0.0163946
862.599	0.0162564
862.677	0.0163248
862.755	0.0162255
862.833	0.0163480
862.911	0.0163217
862.989	0.0162115
863.067	0.0161952
863.146	0.0162299
863.224	0.0161466
863.302	0.0163074
863.380	0.0162240
863.458	0.0163361
863.536	0.0163492
863.614	0.0162516
863.692	0.0162969
863.771	0.0163248
863.849	0.0163524
863.927	0.0164433
864.005	0.0165070
864.083	0.0165182
864.161	0.0167039
864.239	0.0167117
864.317	0.0168050
864.396	0.0168261
864.474	0.0168233
864.552	0.0169704
864.630	0.0168608
864.708	0.0168977
864.786	0.0167877
864.864	0.0168137
864.942	0.0165709
865.021	0.0165952
865.099	0.0167100
865.177	0.0167138
865.255	0.0165062
865.333	0.0164593
865.411	0.0164562
865.489	0.0164072
865.567	0.0162991
865.646	0.0163344
865.724	0.0162685
865.802	0.0162967
865.880	0.0161529
865.958	0.0163070
866.036	0.0163692
866.114	0.0162347
866.192	0.0162638
866.271	0.0163660
866.349	0.0164098
866.427	0.0164848
866.505	0.0164893
866.583	0.0163137
866.661	0.0165610
866.739	0.0167438
866.817	0.0165288
866.896	0.0166146
866.974	0.0164975
867.052	0.0166569
867.130	0.0166371
867.208	0.0164415
867.286	0.0166120
867.364	0.0166216
867.442	0.0166153
867.521	0.0165662
867.599	0.0165394
867.677	0.0166000
867.755	0.0165894
867.833	0.0163888
867.911	0.0165771
867.989	0.0165541
868.067	0.0165018
868.146	0.0165112
868.224	0.0165220
868.302	0.0163327
868.380	0.0164764
868.458	0.0165867
868.536	0.0164522
868.614	0.0165777
868.692	0.0164611
868.771	0.0164809
868.849	0.0165105
868.927	0.0164446
869.005	0.0163854
869.083	0.0163546
869.161	0.0164912
869.239	0.0164659
869.317	0.0165375
869.396	0.0166020
869.474	0.0165495
869.552	0.0165427
869.630	0.0164557
869.708	0.0164666
869.786	0.0163460
869.864	0.0163670
869.942	0.0163501
