06/10/2022	16:16:27	Ver.	4.1	UNKNOWN
Optical Delay	550.020508	Delta X		0.078125	Sweeps	1	Scan Rate	0/0
Coordinates	Axis 1	NaN	Axis 2	NaN	Axis 3	NaN	Axis 4	NaN	Axis 5	NaN	Axis 6	0.000000
TX Power	0.000000	RX Power	0.000000

550.021	0.0166177
550.099	0.0164996
550.177	0.0165074
550.255	0.0166291
550.333	0.0166798
550.411	0.0165519
550.489	0.0167271
550.567	0.0165795
550.646	0.0166609
550.724	0.0167361
550.802	0.0166004
550.880	0.0165492
550.958	0.0166393
551.036	0.0167316
551.114	0.0166544
551.192	0.0165491
551.271	0.0167260
551.349	0.0165410
551.427	0.0166502
551.505	0.0165270
551.583	0.0166048
551.661	0.0165192
551.739	0.0164725
551.817	0.0165929
551.896	0.0166874
551.974	0.0165691
552.052	0.0165530
552.130	0.0166091
552.208	0.0166370
552.286	0.0166180
552.364	0.0166299
552.442	0.0164767
552.521	0.0166684
552.599	0.0166088
552.677	0.0167185
552.755	0.0165836
552.833	0.0164953
552.911	0.0166544
552.989	0.0166998
553.067	0.0166248
553.146	0.0165792
553.224	0.0164333
553.302	0.0165267
553.380	0.0166904
553.458	0.0165516
553.536	0.0165412
553.614	0.0166561
553.692	0.0166068
553.771	0.0165599
553.849	0.0165843
553.927	0.0166854
554.005	0.0165235
554.083	0.0165079
554.161	0.0166244
554.239	0.0165810
554.317	0.0166641
554.396	0.0165179
554.474	0.0166050
554.552	0.0165531
554.630	0.0165838
554.708	0.0166694
554.786	0.0165987
554.864	0.0165796
554.942	0.0165947
555.021	0.0166248
555.099	0.0165249
555.177	0.0165527
555.255	0.0166591
555.333	0.0165753
555.411	0.0166147
555.489	0.0165506
555.567	0.0164959
555.646	0.0166304
555.724	0.0166863
555.802	0.0165797
555.880	0.0165783
555.958	0.0165788
556.036	0.0165340
556.114	0.0165254
556.192	0.0165717
556.271	0.0166865
556.349	0.0165734
556.427	0.0165652
556.505	0.0165755
556.583	0.0166883
556.661	0.0166687
556.739	0.0164972
556.817	0.0166092
556.896	0.0166743
556.974	0.0165199
557.052	0.0166328
557.130	0.0166136
557.208	0.0166237
557.286	0.0165496
557.364	0.0165337
557.442	0.0165448
557.521	0.0166144
557.599	0.0165711
557.677	0.0165608
557.755	0.0165869
557.833	0.0165964
557.911	0.0166151
557.989	0.0167198
558.067	0.0166351
558.146	0.0166033
558.224	0.0164768
558.302	0.0165772
558.380	0.0165985
558.458	0.0165083
558.536	0.0165822
558.614	0.0165714
558.692	0.0167314
558.771	0.0165147
558.849	0.0166142
558.927	0.0166177
559.005	0.0165907
559.083	0.0165300
559.161	0.0166083
559.239	0.0165744
559.317	0.0166182
559.396	0.0165145
559.474	0.0166617
559.552	0.0165480
559.630	0.0166669
559.708	0.0165453
559.786	0.0165221
559.864	0.0166006
559.942	0.0166492
560.021	0.0166672
560.099	0.0165841
560.177	0.0164880
560.255	0.0165671
560.333	0.0165221
560.411	0.0166451
560.489	0.0166000
560.567	0.0165215
560.646	0.0166682
560.724	0.0167271
560.802	0.0166394
560.880	0.0165691
560.958	0.0165942
561.036	0.0164626
561.114	0.0166982
561.192	0.0165353
561.271	0.0165456
561.349	0.0165762
561.427	0.0166063
561.505	0.0166389
561.583	0.0165368
561.661	0.0165305
561.739	0.0168063
561.817	0.0166622
561.896	0.0164534
561.974	0.0164677
562.052	0.0165369
562.130	0.0166370
562.208	0.0166452
562.286	0.0166245
562.364	0.0166517
562.442	0.0166106
562.521	0.0164780
562.599	0.0165776
562.677	0.0166335
562.755	0.0165940
562.833	0.0165988
562.911	0.0166707
562.989	0.0166833
563.067	0.0165559
563.146	0.0166428
563.224	0.0167575
563.302	0.0164534
563.380	0.0166763
563.458	0.0166137
563.536	0.0165833
563.614	0.0165897
563.692	0.0167211
563.771	0.0166744
563.849	0.0165356
563.927	0.0166638
564.005	0.0164930
564.083	0.0165811
564.161	0.0166409
564.239	0.0166684
564.317	0.0165923
564.396	0.0166862
564.474	0.0165559
564.552	0.0165784
564.630	0.0165711
564.708	0.0165667
564.786	0.0165902
564.864	0.0165759
564.942	0.0166329
565.021	0.0166663
565.099	0.0164815
565.177	0.0166142
565.255	0.0166297
565.333	0.0165176
565.411	0.0165861
565.489	0.0165255
565.567	0.0167431
565.646	0.0165532
565.724	0.0165445
565.802	0.0165523
565.880	0.0166331
565.958	0.0165642
566.036	0.0164866
566.114	0.0167194
566.192	0.0167075
566.271	0.0166785
566.349	0.0165784
566.427	0.0165771
566.505	0.0166817
566.583	0.0167371
566.661	0.0166209
566.739	0.0165826
566.817	0.0164845
566.896	0.0165384
566.974	0.0166444
567.052	0.0164747
567.130	0.0165841
567.208	0.0166138
567.286	0.0165603
567.364	0.0166016
567.442	0.0166572
567.521	0.0165587
567.599	0.0164880
567.677	0.0165395
567.755	0.0166601
567.833	0.0166476
567.911	0.0165124
567.989	0.0165998
568.067	0.0165091
568.146	0.0166637
568.224	0.0164973
568.302	0.0166215
568.380	0.0166324
568.458	0.0166106
568.536	0.0165344
568.614	0.0166292
568.692	0.0167277
568.771	0.0165307
568.849	0.0164194
568.927	0.0166246
569.005	0.0166431
569.083	0.0165958
569.161	0.0164483
569.239	0.0166446
569.317	0.0166141
569.396	0.0167163
569.474	0.0164856
569.552	0.0165849
569.630	0.0166693
569.708	0.0166489
569.786	0.0164855
569.864	0.0166335
569.942	0.0165160
570.021	0.0164272
570.099	0.0165973
570.177	0.0165941
570.255	0.0165926
570.333	0.0166591
570.411	0.0165480
570.489	0.0166109
570.567	0.0166254
570.646	0.0165148
570.724	0.0165047
570.802	0.0165213
570.880	0.0165207
570.958	0.0165761
571.036	0.0164249
571.114	0.0165554
571.192	0.0166026
571.271	0.0165507
571.349	0.0165742
571.427	0.0165137
571.505	0.0165789
571.583	0.0165094
571.661	0.0165833
571.739	0.0166670
571.817	0.0165946
571.896	0.0166415
571.974	0.0165291
572.052	0.0165659
572.130	0.0166039
572.208	0.0164625
572.286	0.0166604
572.364	0.0166119
572.442	0.0167702
572.521	0.0166280
572.599	0.0164882
572.677	0.0166222
572.755	0.0165560
572.833	0.0165675
572.911	0.0165933
572.989	0.0166043
573.067	0.0166119
573.146	0.0164801
573.224	0.0167013
573.302	0.0165626
573.380	0.0165881
573.458	0.0166451
573.536	0.0165669
573.614	0.0165694
573.692	0.0165976
573.771	0.0164658
573.849	0.0165168
573.927	0.0166664
574.005	0.0165156
574.083	0.0163448
574.161	0.0166111
574.239	0.0166673
574.317	0.0164511
574.396	0.0165829
574.474	0.0165675
574.552	0.0167029
574.630	0.0166445
574.708	0.0166130
574.786	0.0165025
574.864	0.0166862
574.942	0.0166608
575.021	0.0165731
575.099	0.0165137
575.177	0.0165379
575.255	0.0166022
575.333	0.0164238
575.411	0.0165665
575.489	0.0165785
575.567	0.0165727
575.646	0.0165781
575.724	0.0165591
575.802	0.0166266
575.880	0.0165617
575.958	0.0166213
576.036	0.0165564
576.114	0.0164938
576.192	0.0166667
576.271	0.0165838
576.349	0.0165973
576.427	0.0165961
576.505	0.0166866
576.583	0.0166210
576.661	0.0164941
576.739	0.0165231
576.817	0.0166890
576.896	0.0165692
576.974	0.0165814
577.052	0.0166333
577.130	0.0166317
577.208	0.0165995
577.286	0.0165628
577.364	0.0166161
577.442	0.0166190
577.521	0.0164498
577.599	0.0167712
577.677	0.0165845
577.755	0.0165263
577.833	0.0166628
577.911	0.0165592
577.989	0.0165137
578.067	0.0166903
578.146	0.0166036
578.224	0.0166428
578.302	0.0164555
578.380	0.0167316
578.458	0.0166164
578.536	0.0166761
578.614	0.0165913
578.692	0.0167571
578.771	0.0166428
578.849	0.0166250
578.927	0.0165813
579.005	0.0166078
579.083	0.0166656
579.161	0.0165978
579.239	0.0167027
579.317	0.0167787
579.396	0.0165999
579.474	0.0165746
579.552	0.0165336
579.630	0.0166098
579.708	0.0165838
579.786	0.0165993
579.864	0.0165895
579.942	0.0166348
580.021	0.0165395
580.099	0.0164848
580.177	0.0165630
580.255	0.0165593
580.333	0.0165806
580.411	0.0166243
580.489	0.0165002
580.567	0.0165118
580.646	0.0165940
580.724	0.0166084
580.802	0.0167797
580.880	0.0166818
580.958	0.0165367
581.036	0.0165466
581.114	0.0165719
581.192	0.0165643
581.271	0.0166070
581.349	0.0165916
581.427	0.0166210
581.505	0.0165474
581.583	0.0166222
581.661	0.0166442
581.739	0.0166747
581.817	0.0164840
581.896	0.0166401
581.974	0.0167004
582.052	0.0166218
582.130	0.0165939
582.208	0.0167184
582.286	0.0167412
582.364	0.0165239
582.442	0.0165784
582.521	0.0165505
582.599	0.0164887
582.677	0.0166125
582.755	0.0165250
582.833	0.0167557
582.911	0.0166943
582.989	0.0165847
583.067	0.0166446
583.146	0.0166585
583.224	0.0167771
583.302	0.0167255
583.380	0.0165633
583.458	0.0164140
583.536	0.0165281
583.614	0.0166172
583.692	0.0166033
583.771	0.0166031
583.849	0.0165746
583.927	0.0165343
584.005	0.0165659
584.083	0.0165462
584.161	0.0165705
584.239	0.0165062
584.317	0.0165570
584.396	0.0166048
584.474	0.0166402
584.552	0.0166114
584.630	0.0165542
584.708	0.0166218
584.786	0.0165316
584.864	0.0165394
584.942	0.0166599
585.021	0.0167459
585.099	0.0166392
585.177	0.0165362
585.255	0.0164846
585.333	0.0165863
585.411	0.0166531
585.489	0.0165446
585.567	0.0166762
585.646	0.0165532
585.724	0.0166557
585.802	0.0165823
585.880	0.0166307
585.958	0.0165264
586.036	0.0165895
586.114	0.0166402
586.192	0.0165655
586.271	0.0166221
586.349	0.0164981
586.427	0.0165608
586.505	0.0165412
586.583	0.0165720
586.661	0.0166629
586.739	0.0167674
586.817	0.0166527
586.896	0.0166502
586.974	0.0165402
587.052	0.0166071
587.130	0.0166869
587.208	0.0167438
587.286	0.0165134
587.364	0.0166608
587.442	0.0166603
587.521	0.0167309
587.599	0.0166190
587.677	0.0166541
587.755	0.0165525
587.833	0.0166813
587.911	0.0165663
587.989	0.0164583
588.067	0.0166754
588.146	0.0167035
588.224	0.0166710
588.302	0.0164896
588.380	0.0168353
588.458	0.0165884
588.536	0.0166492
588.614	0.0165907
588.692	0.0165612
588.771	0.0167582
588.849	0.0165730
588.927	0.0164794
589.005	0.0165668
589.083	0.0165565
589.161	0.0167911
589.239	0.0165926
589.317	0.0165340
589.396	0.0166034
589.474	0.0166491
589.552	0.0166289
589.630	0.0166900
589.708	0.0166232
589.786	0.0166247
589.864	0.0166286
589.942	0.0165846
590.021	0.0165896
590.099	0.0166199
590.177	0.0165735
590.255	0.0165900
590.333	0.0165707
590.411	0.0165244
590.489	0.0166000
590.567	0.0166045
590.646	0.0166365
590.724	0.0163921
590.802	0.0166161
590.880	0.0165507
590.958	0.0164883
591.036	0.0166183
591.114	0.0165891
591.192	0.0166562
591.271	0.0166340
591.349	0.0166827
591.427	0.0166578
591.505	0.0166026
591.583	0.0165359
591.661	0.0166080
591.739	0.0166927
591.817	0.0166299
591.896	0.0166506
591.974	0.0166209
592.052	0.0166573
592.130	0.0165655
592.208	0.0166486
592.286	0.0166904
592.364	0.0165369
592.442	0.0166528
592.521	0.0166038
592.599	0.0167122
592.677	0.0166233
592.755	0.0166119
592.833	0.0165847
592.911	0.0165290
592.989	0.0165365
593.067	0.0165228
593.146	0.0165631
593.224	0.0165594
593.302	0.0167181
593.380	0.0166193
593.458	0.0166277
593.536	0.0166781
593.614	0.0165698
593.692	0.0166201
593.771	0.0165696
593.849	0.0166368
593.927	0.0166261
594.005	0.0165667
594.083	0.0166995
594.161	0.0166345
594.239	0.0167388
594.317	0.0164704
594.396	0.0164513
594.474	0.0165243
594.552	0.0165889
594.630	0.0165783
594.708	0.0165836
594.786	0.0165747
594.864	0.0165744
594.942	0.0165530
595.021	0.0165782
595.099	0.0165517
595.177	0.0165435
595.255	0.0165834
595.333	0.0166187
595.411	0.0165074
595.489	0.0166895
595.567	0.0165902
595.646	0.0165854
595.724	0.0165995
595.802	0.0165570
595.880	0.0165643
595.958	0.0164524
596.036	0.0167205
596.114	0.0166038
596.192	0.0165925
596.271	0.0166405
596.349	0.0166574
596.427	0.0165627
596.505	0.0165932
596.583	0.0166323
596.661	0.0166273
596.739	0.0165319
596.817	0.0165180
596.896	0.0166955
596.974	0.0165822
597.052	0.0166299
597.130	0.0165623
597.208	0.0165823
597.286	0.0167667
597.364	0.0164692
597.442	0.0165009
597.521	0.0166987
597.599	0.0166580
597.677	0.0165408
597.755	0.0165974
597.833	0.0166856
597.911	0.0165087
597.989	0.0166359
598.067	0.0167122
598.146	0.0165652
598.224	0.0165541
598.302	0.0165593
598.380	0.0167183
598.458	0.0167625
598.536	0.0166589
598.614	0.0165928
598.692	0.0165562
598.771	0.0166396
598.849	0.0164172
598.927	0.0166236
599.005	0.0165571
599.083	0.0166051
599.161	0.0165421
599.239	0.0165540
599.317	0.0166635
599.396	0.0165212
599.474	0.0166408
599.552	0.0166261
599.630	0.0167269
599.708	0.0166164
599.786	0.0167123
599.864	0.0165365
599.942	0.0166415
600.021	0.0166954
600.099	0.0165890
600.177	0.0166323
600.255	0.0165406
600.333	0.0167312
600.411	0.0166416
600.489	0.0165334
600.567	0.0166272
600.646	0.0167385
600.724	0.0166014
600.802	0.0165344
600.880	0.0165731
600.958	0.0166348
601.036	0.0166717
601.114	0.0166875
601.192	0.0165366
601.271	0.0167279
601.349	0.0166394
601.427	0.0166619
601.505	0.0165540
601.583	0.0166732
601.661	0.0167110
601.739	0.0165245
601.817	0.0165363
601.896	0.0166376
601.974	0.0165247
602.052	0.0165008
602.130	0.0166279
602.208	0.0165761
602.286	0.0165072
602.364	0.0164880
602.442	0.0166442
602.521	0.0166838
602.599	0.0167478
602.677	0.0165246
602.755	0.0165510
602.833	0.0166119
602.911	0.0165844
602.989	0.0165752
603.067	0.0166409
603.146	0.0165179
603.224	0.0164936
603.302	0.0165675
603.380	0.0166048
603.458	0.0165649
603.536	0.0166477
603.614	0.0166206
603.692	0.0165634
603.771	0.0165237
603.849	0.0166873
603.927	0.0166353
604.005	0.0164723
604.083	0.0164521
604.161	0.0166435
604.239	0.0165115
604.317	0.0164577
604.396	0.0165527
604.474	0.0165057
604.552	0.0164674
604.630	0.0166708
604.708	0.0166138
604.786	0.0165170
604.864	0.0167953
604.942	0.0165694
605.021	0.0165054
605.099	0.0164885
605.177	0.0166585
605.255	0.0165403
605.333	0.0165905
605.411	0.0166051
605.489	0.0165239
605.567	0.0164538
605.646	0.0165818
605.724	0.0166319
605.802	0.0165614
605.880	0.0165586
605.958	0.0165388
606.036	0.0166532
606.114	0.0164607
606.192	0.0164273
606.271	0.0166251
606.349	0.0165688
606.427	0.0164012
606.505	0.0164843
606.583	0.0167410
606.661	0.0164539
606.739	0.0165851
606.817	0.0167305
606.896	0.0166361
606.974	0.0165272
607.052	0.0165283
607.130	0.0165495
607.208	0.0166041
607.286	0.0166649
607.364	0.0165262
607.442	0.0165073
607.521	0.0164851
607.599	0.0165791
607.677	0.0166133
607.755	0.0165503
607.833	0.0164748
607.911	0.0166426
607.989	0.0165859
608.067	0.0165474
608.146	0.0167159
608.224	0.0166563
608.302	0.0166210
608.380	0.0166663
608.458	0.0165161
608.536	0.0165651
608.614	0.0165169
608.692	0.0166656
608.771	0.0164918
608.849	0.0166082
608.927	0.0166470
609.005	0.0165405
609.083	0.0165957
609.161	0.0166323
609.239	0.0164625
609.317	0.0167130
609.396	0.0165339
609.474	0.0165925
609.552	0.0164901
609.630	0.0165308
609.708	0.0166055
609.786	0.0165800
609.864	0.0166616
609.942	0.0166006
610.021	0.0166496
610.099	0.0165287
610.177	0.0164977
610.255	0.0164687
610.333	0.0164822
610.411	0.0165730
610.489	0.0166119
610.567	0.0165573
610.646	0.0165784
610.724	0.0164759
610.802	0.0165636
610.880	0.0165742
610.958	0.0166033
611.036	0.0166446
611.114	0.0165534
611.192	0.0165604
611.271	0.0166350
611.349	0.0165343
611.427	0.0166641
611.505	0.0165273
611.583	0.0166357
611.661	0.0164871
611.739	0.0164962
611.817	0.0166951
611.896	0.0166341
611.974	0.0165036
612.052	0.0166156
612.130	0.0165988
612.208	0.0166097
612.286	0.0166532
612.364	0.0166349
612.442	0.0165103
612.521	0.0165426
612.599	0.0166717
612.677	0.0166502
612.755	0.0166985
612.833	0.0166405
612.911	0.0164202
612.989	0.0164821
613.067	0.0165862
613.146	0.0166884
613.224	0.0166219
613.302	0.0164824
613.380	0.0166969
613.458	0.0167430
613.536	0.0167079
613.614	0.0166594
613.692	0.0164831
613.771	0.0164810
613.849	0.0165789
613.927	0.0166931
614.005	0.0165856
614.083	0.0165299
614.161	0.0165051
614.239	0.0165204
614.317	0.0166133
614.396	0.0165563
614.474	0.0165585
614.552	0.0165742
614.630	0.0165907
614.708	0.0166526
614.786	0.0166619
614.864	0.0165458
614.942	0.0165237
615.021	0.0165867
615.099	0.0166588
615.177	0.0166160
615.255	0.0165810
615.333	0.0165480
615.411	0.0166212
615.489	0.0164931
615.567	0.0166476
615.646	0.0166164
615.724	0.0164353
615.802	0.0165425
615.880	0.0166441
615.958	0.0165174
616.036	0.0164639
616.114	0.0164864
616.192	0.0166245
616.271	0.0166167
616.349	0.0166395
616.427	0.0164993
616.505	0.0164896
616.583	0.0165506
616.661	0.0165778
616.739	0.0167418
616.817	0.0165260
616.896	0.0165628
616.974	0.0165920
617.052	0.0165186
617.130	0.0165399
617.208	0.0165813
617.286	0.0164697
617.364	0.0164774
617.442	0.0166764
617.521	0.0166824
617.599	0.0165882
617.677	0.0167476
617.755	0.0166502
617.833	0.0165140
617.911	0.0164521
617.989	0.0166218
618.067	0.0165633
618.146	0.0164417
618.224	0.0166501
618.302	0.0165336
618.380	0.0165632
618.458	0.0166237
618.536	0.0165342
618.614	0.0165411
618.692	0.0165908
618.771	0.0165410
618.849	0.0166444
618.927	0.0166187
619.005	0.0163832
619.083	0.0165483
619.161	0.0166740
619.239	0.0165396
619.317	0.0165585
619.396	0.0165842
619.474	0.0165807
619.552	0.0165673
619.630	0.0165974
619.708	0.0164782
619.786	0.0167330
619.864	0.0164394
619.942	0.0164809
620.021	0.0166982
620.099	0.0165043
620.177	0.0166338
620.255	0.0166936
620.333	0.0166291
620.411	0.0165266
620.489	0.0166274
620.567	0.0165959
620.646	0.0164934
620.724	0.0166468
620.802	0.0166762
620.880	0.0166476
620.958	0.0166454
621.036	0.0166422
621.114	0.0166676
621.192	0.0166130
621.271	0.0166659
621.349	0.0166537
621.427	0.0164744
621.505	0.0166311
621.583	0.0166261
621.661	0.0165584
621.739	0.0167579
621.817	0.0164909
621.896	0.0165506
621.974	0.0164767
622.052	0.0165991
622.130	0.0165582
622.208	0.0165308
622.286	0.0165802
622.364	0.0165721
622.442	0.0166252
622.521	0.0166142
622.599	0.0166087
622.677	0.0166053
622.755	0.0164879
622.833	0.0165350
622.911	0.0166056
622.989	0.0166386
623.067	0.0166147
623.146	0.0165546
623.224	0.0164993
623.302	0.0166178
623.380	0.0166212
623.458	0.0165996
623.536	0.0166499
623.614	0.0165160
623.692	0.0165928
623.771	0.0165204
623.849	0.0165234
623.927	0.0164970
624.005	0.0165364
624.083	0.0165347
624.161	0.0166161
624.239	0.0165592
624.317	0.0165614
624.396	0.0166028
624.474	0.0166656
624.552	0.0164081
624.630	0.0165868
624.708	0.0165543
624.786	0.0165777
624.864	0.0166964
624.942	0.0167093
625.021	0.0166341
625.099	0.0165160
625.177	0.0165984
625.255	0.0165002
625.333	0.0167014
625.411	0.0164490
625.489	0.0164989
625.567	0.0164743
625.646	0.0165945
625.724	0.0165449
625.802	0.0165279
625.880	0.0166634
625.958	0.0164695
626.036	0.0164943
626.114	0.0166491
626.192	0.0166384
626.271	0.0166209
626.349	0.0166595
626.427	0.0165257
626.505	0.0164525
626.583	0.0165136
626.661	0.0165669
626.739	0.0165302
626.817	0.0166311
626.896	0.0164958
626.974	0.0165085
627.052	0.0167025
627.130	0.0167267
627.208	0.0165046
627.286	0.0165673
627.364	0.0165424
627.442	0.0166209
627.521	0.0165617
627.599	0.0164531
627.677	0.0165640
627.755	0.0164478
627.833	0.0164867
627.911	0.0165532
627.989	0.0165617
628.067	0.0166824
628.146	0.0165163
628.224	0.0166150
628.302	0.0165842
628.380	0.0166249
628.458	0.0166140
628.536	0.0164735
628.614	0.0165222
628.692	0.0165412
628.771	0.0165253
628.849	0.0166080
628.927	0.0164791
629.005	0.0166123
629.083	0.0167339
629.161	0.0165687
629.239	0.0164116
629.317	0.0165639
629.396	0.0166213
629.474	0.0164558
629.552	0.0166027
629.630	0.0166710
629.708	0.0164833
629.786	0.0164848
629.864	0.0166632
629.942	0.0166980
630.021	0.0165118
630.099	0.0166504
630.177	0.0166014
630.255	0.0165512
630.333	0.0164590
630.411	0.0165127
630.489	0.0165124
630.567	0.0165235
630.646	0.0166579
630.724	0.0165653
630.802	0.0165407
630.880	0.0165787
630.958	0.0165334
631.036	0.0164751
631.114	0.0165606
631.192	0.0167046
631.271	0.0165206
631.349	0.0165276
631.427	0.0165044
631.505	0.0166037
631.583	0.0164721
631.661	0.0165440
631.739	0.0165401
631.817	0.0165495
631.896	0.0166212
631.974	0.0165404
632.052	0.0166248
632.130	0.0165618
632.208	0.0164555
632.286	0.0165078
632.364	0.0166495
632.442	0.0165435
632.521	0.0165221
632.599	0.0165609
632.677	0.0166456
632.755	0.0166072
632.833	0.0165927
632.911	0.0165437
632.989	0.0164799
633.067	0.0166442
633.146	0.0167042
633.224	0.0166122
633.302	0.0165965
633.380	0.0165424
633.458	0.0166245
633.536	0.0166192
633.614	0.0165869
633.692	0.0165380
633.771	0.0166030
633.849	0.0167228
633.927	0.0166496
634.005	0.0165981
634.083	0.0165535
634.161	0.0164987
634.239	0.0165054
634.317	0.0165723
634.396	0.0165220
634.474	0.0164420
634.552	0.0166524
634.630	0.0165330
634.708	0.0166063
634.786	0.0165085
634.864	0.0165623
634.942	0.0166358
635.021	0.0165831
635.099	0.0165828
635.177	0.0166177
635.255	0.0166067
635.333	0.0165491
635.411	0.0165544
635.489	0.0165089
635.567	0.0166114
635.646	0.0165720
635.724	0.0165865
635.802	0.0165341
635.880	0.0165375
635.958	0.0165324
636.036	0.0166370
636.114	0.0165506
636.192	0.0165887
636.271	0.0166448
636.349	0.0165677
636.427	0.0165742
636.505	0.0166306
636.583	0.0165080
636.661	0.0166499
636.739	0.0166761
636.817	0.0166384
636.896	0.0164931
636.974	0.0165685
637.052	0.0165051
637.130	0.0167264
637.208	0.0165755
637.286	0.0165958
637.364	0.0166983
637.442	0.0166749
637.521	0.0165981
637.599	0.0165311
637.677	0.0166449
637.755	0.0165612
637.833	0.0166868
637.911	0.0165723
637.989	0.0165521
638.067	0.0165721
638.146	0.0166631
638.224	0.0165458
638.302	0.0166772
638.380	0.0165845
638.458	0.0165626
638.536	0.0165894
638.614	0.0165919
638.692	0.0166254
638.771	0.0164991
638.849	0.0167107
638.927	0.0166515
639.005	0.0166922
639.083	0.0166872
639.161	0.0167310
639.239	0.0164993
639.317	0.0165706
639.396	0.0167106
639.474	0.0165094
639.552	0.0165381
639.630	0.0167239
639.708	0.0166157
639.786	0.0165057
639.864	0.0165733
639.942	0.0166248
640.021	0.0166148
640.099	0.0165828
640.177	0.0166509
640.255	0.0165514
640.333	0.0165753
640.411	0.0167121
640.489	0.0165279
640.567	0.0165399
640.646	0.0165981
640.724	0.0166057
640.802	0.0165776
640.880	0.0166389
640.958	0.0167098
641.036	0.0164796
641.114	0.0165348
641.192	0.0165389
641.271	0.0167051
641.349	0.0166016
641.427	0.0165288
641.505	0.0165440
641.583	0.0165623
641.661	0.0166178
641.739	0.0165582
641.817	0.0165275
641.896	0.0166110
641.974	0.0165759
642.052	0.0164626
642.130	0.0165495
642.208	0.0166002
642.286	0.0166082
642.364	0.0165611
642.442	0.0167699
642.521	0.0165838
642.599	0.0165567
642.677	0.0165057
642.755	0.0165202
642.833	0.0166093
642.911	0.0164884
642.989	0.0165116
643.067	0.0166132
643.146	0.0165242
643.224	0.0166086
643.302	0.0166354
643.380	0.0166194
643.458	0.0165866
643.536	0.0164909
643.614	0.0164610
643.692	0.0166416
643.771	0.0165612
643.849	0.0166004
643.927	0.0166546
644.005	0.0165269
644.083	0.0165440
644.161	0.0167089
644.239	0.0166325
644.317	0.0165759
644.396	0.0165123
644.474	0.0165080
644.552	0.0168163
644.630	0.0165998
644.708	0.0166175
644.786	0.0165802
644.864	0.0166317
644.942	0.0166719
645.021	0.0165643
645.099	0.0166453
645.177	0.0165588
645.255	0.0166037
645.333	0.0165823
645.411	0.0165940
645.489	0.0165495
645.567	0.0166961
645.646	0.0165669
645.724	0.0165484
645.802	0.0166550
645.880	0.0164846
645.958	0.0165600
646.036	0.0166992
646.114	0.0166266
646.192	0.0165607
646.271	0.0166216
646.349	0.0167486
646.427	0.0165263
646.505	0.0167100
646.583	0.0165928
646.661	0.0165322
646.739	0.0166306
646.817	0.0165863
646.896	0.0166666
646.974	0.0165249
647.052	0.0166498
647.130	0.0166776
647.208	0.0165611
647.286	0.0164502
647.364	0.0164668
647.442	0.0166476
647.521	0.0165973
647.599	0.0167085
647.677	0.0165459
647.755	0.0165675
647.833	0.0168108
647.911	0.0166101
647.989	0.0165011
648.067	0.0166154
648.146	0.0166232
648.224	0.0165494
648.302	0.0166997
648.380	0.0165872
648.458	0.0165318
648.536	0.0165997
648.614	0.0166113
648.692	0.0165809
648.771	0.0165274
648.849	0.0165517
648.927	0.0165562
649.005	0.0166327
649.083	0.0166012
649.161	0.0164777
649.239	0.0166737
649.317	0.0166100
649.396	0.0165806
649.474	0.0166136
649.552	0.0166680
649.630	0.0165972
649.708	0.0165528
649.786	0.0165961
649.864	0.0165356
649.942	0.0166167
650.021	0.0165318
650.099	0.0165828
650.177	0.0166067
650.255	0.0165500
650.333	0.0166233
650.411	0.0167207
650.489	0.0166616
650.567	0.0166592
650.646	0.0166410
650.724	0.0165495
650.802	0.0165476
650.880	0.0166555
650.958	0.0166577
651.036	0.0166914
651.114	0.0165568
651.192	0.0165988
651.271	0.0165656
651.349	0.0166393
651.427	0.0165530
651.505	0.0166105
651.583	0.0164945
651.661	0.0166868
651.739	0.0166792
651.817	0.0165042
651.896	0.0165614
651.974	0.0165454
652.052	0.0165942
652.130	0.0167251
652.208	0.0166661
652.286	0.0165874
652.364	0.0165797
652.442	0.0167182
652.521	0.0166930
652.599	0.0166320
652.677	0.0167122
652.755	0.0166843
652.833	0.0166450
652.911	0.0165646
652.989	0.0166838
653.067	0.0165953
653.146	0.0166831
653.224	0.0167310
653.302	0.0166753
653.380	0.0165981
653.458	0.0164890
653.536	0.0166229
653.614	0.0164365
653.692	0.0166012
653.771	0.0166758
653.849	0.0165514
653.927	0.0165826
654.005	0.0167722
654.083	0.0164743
654.161	0.0166650
654.239	0.0166045
654.317	0.0166866
654.396	0.0166048
654.474	0.0165091
654.552	0.0166774
654.630	0.0166312
654.708	0.0165744
654.786	0.0165807
654.864	0.0165647
654.942	0.0165496
655.021	0.0166198
655.099	0.0166046
655.177	0.0165613
655.255	0.0165283
655.333	0.0165443
655.411	0.0167259
655.489	0.0165594
655.567	0.0166325
655.646	0.0165082
655.724	0.0166941
655.802	0.0167635
655.880	0.0165204
655.958	0.0165669
656.036	0.0164736
656.114	0.0165782
656.192	0.0165775
656.271	0.0166266
656.349	0.0166201
656.427	0.0166758
656.505	0.0165810
656.583	0.0167492
656.661	0.0166280
656.739	0.0166709
656.817	0.0167029
656.896	0.0167121
656.974	0.0165278
657.052	0.0163734
657.130	0.0165669
657.208	0.0165369
657.286	0.0166283
657.364	0.0164983
657.442	0.0165122
657.521	0.0166753
657.599	0.0166384
657.677	0.0165764
657.755	0.0165748
657.833	0.0165850
657.911	0.0165206
657.989	0.0164984
658.067	0.0166101
658.146	0.0166064
658.224	0.0165211
658.302	0.0166589
658.380	0.0165965
658.458	0.0165284
658.536	0.0165363
658.614	0.0164851
658.692	0.0164394
658.771	0.0166899
658.849	0.0166100
658.927	0.0166357
659.005	0.0166405
659.083	0.0165581
659.161	0.0165495
659.239	0.0166141
659.317	0.0165320
659.396	0.0164908
659.474	0.0167281
659.552	0.0166525
659.630	0.0164996
659.708	0.0164965
659.786	0.0165835
659.864	0.0166581
659.942	0.0165923
660.021	0.0164986
660.099	0.0165135
660.177	0.0166914
660.255	0.0165060
660.333	0.0164489
660.411	0.0167682
660.489	0.0165918
660.567	0.0166421
660.646	0.0165202
660.724	0.0164609
660.802	0.0164724
660.880	0.0166990
660.958	0.0165715
661.036	0.0165351
661.114	0.0165325
661.192	0.0164509
661.271	0.0166439
661.349	0.0166024
661.427	0.0165824
661.505	0.0167439
661.583	0.0167529
661.661	0.0164827
661.739	0.0167213
661.817	0.0166553
661.896	0.0165998
661.974	0.0166320
662.052	0.0165734
662.130	0.0165560
662.208	0.0166135
662.286	0.0166195
662.364	0.0166006
662.442	0.0166500
662.521	0.0166041
662.599	0.0164799
662.677	0.0165579
662.755	0.0166972
662.833	0.0166322
662.911	0.0166431
662.989	0.0164767
663.067	0.0166618
663.146	0.0166529
663.224	0.0165742
663.302	0.0166756
663.380	0.0164230
663.458	0.0166422
663.536	0.0166920
663.614	0.0165860
663.692	0.0164578
663.771	0.0165025
663.849	0.0167166
663.927	0.0165913
664.005	0.0166756
664.083	0.0165256
664.161	0.0165826
664.239	0.0165228
664.317	0.0166419
664.396	0.0165998
664.474	0.0167047
664.552	0.0166784
664.630	0.0166441
664.708	0.0166739
664.786	0.0165101
664.864	0.0165616
664.942	0.0166196
665.021	0.0166301
665.099	0.0165914
665.177	0.0166496
665.255	0.0166422
665.333	0.0166476
665.411	0.0166802
665.489	0.0166205
665.567	0.0165437
665.646	0.0165112
665.724	0.0166351
665.802	0.0168425
665.880	0.0166676
665.958	0.0164312
666.036	0.0165125
666.114	0.0166640
666.192	0.0166940
666.271	0.0165374
666.349	0.0165535
666.427	0.0166429
666.505	0.0166080
666.583	0.0166469
666.661	0.0165942
666.739	0.0165520
666.817	0.0166594
666.896	0.0167254
666.974	0.0165790
667.052	0.0166126
667.130	0.0166434
667.208	0.0165708
667.286	0.0165630
667.364	0.0166659
667.442	0.0165218
667.521	0.0166388
667.599	0.0166441
667.677	0.0165975
667.755	0.0166950
667.833	0.0166929
667.911	0.0167140
667.989	0.0167013
668.067	0.0165028
668.146	0.0165261
668.224	0.0165988
668.302	0.0165913
668.380	0.0166653
668.458	0.0166365
668.536	0.0164746
668.614	0.0166578
668.692	0.0166344
668.771	0.0165751
668.849	0.0165337
668.927	0.0164999
669.005	0.0166754
669.083	0.0166609
669.161	0.0166159
669.239	0.0165646
669.317	0.0167299
669.396	0.0166139
669.474	0.0165672
669.552	0.0165979
669.630	0.0166370
669.708	0.0165518
669.786	0.0165240
669.864	0.0165434
669.942	0.0166032
670.021	0.0165964
670.099	0.0166182
670.177	0.0165292
670.255	0.0167316
670.333	0.0166902
670.411	0.0166459
670.489	0.0166241
670.567	0.0166160
670.646	0.0164845
670.724	0.0165140
670.802	0.0166557
670.880	0.0165987
670.958	0.0165852
671.036	0.0164420
671.114	0.0166228
671.192	0.0166306
671.271	0.0165754
671.349	0.0165946
671.427	0.0166644
671.505	0.0166059
671.583	0.0165141
671.661	0.0166879
671.739	0.0166743
671.817	0.0164451
671.896	0.0166515
671.974	0.0167057
672.052	0.0165077
672.130	0.0165659
672.208	0.0166351
672.286	0.0167225
672.364	0.0165845
672.442	0.0166296
672.521	0.0165905
672.599	0.0166408
672.677	0.0166368
672.755	0.0166177
672.833	0.0165919
672.911	0.0164376
672.989	0.0165252
673.067	0.0166318
673.146	0.0167611
673.224	0.0165887
673.302	0.0164349
673.380	0.0165364
673.458	0.0165227
673.536	0.0166879
673.614	0.0165189
673.692	0.0165343
673.771	0.0166130
673.849	0.0168618
673.927	0.0166576
674.005	0.0164970
674.083	0.0167022
674.161	0.0167102
674.239	0.0165141
674.317	0.0165035
674.396	0.0166188
674.474	0.0165709
674.552	0.0166409
674.630	0.0167758
674.708	0.0167287
674.786	0.0166218
674.864	0.0164771
674.942	0.0165842
675.021	0.0164993
675.099	0.0165306
675.177	0.0167279
675.255	0.0167115
675.333	0.0165337
675.411	0.0166931
675.489	0.0166451
675.567	0.0166371
675.646	0.0166302
675.724	0.0167787
675.802	0.0167201
675.880	0.0166589
675.958	0.0166420
676.036	0.0165989
676.114	0.0166409
676.192	0.0165092
676.271	0.0166806
676.349	0.0165898
676.427	0.0165657
676.505	0.0166531
676.583	0.0166257
676.661	0.0165247
676.739	0.0166458
676.817	0.0166168
676.896	0.0164637
676.974	0.0166050
677.052	0.0165195
677.130	0.0165862
677.208	0.0166398
677.286	0.0166393
677.364	0.0164836
677.442	0.0165484
677.521	0.0166030
677.599	0.0166727
677.677	0.0165012
677.755	0.0166177
677.833	0.0166451
677.911	0.0165968
677.989	0.0166997
678.067	0.0166914
678.146	0.0166129
678.224	0.0167033
678.302	0.0167308
678.380	0.0165556
678.458	0.0166605
678.536	0.0167255
678.614	0.0166669
678.692	0.0165421
678.771	0.0166245
678.849	0.0165792
678.927	0.0166084
679.005	0.0166409
679.083	0.0164548
679.161	0.0166103
679.239	0.0166449
679.317	0.0165793
679.396	0.0166216
679.474	0.0165557
679.552	0.0164709
679.630	0.0165833
679.708	0.0165671
679.786	0.0164863
679.864	0.0165219
679.942	0.0166261
680.021	0.0165542
680.099	0.0165993
680.177	0.0165516
680.255	0.0165250
680.333	0.0166776
680.411	0.0166386
680.489	0.0165543
680.567	0.0165963
680.646	0.0166502
680.724	0.0166013
680.802	0.0166068
680.880	0.0164761
680.958	0.0165208
681.036	0.0167619
681.114	0.0167490
681.192	0.0165646
681.271	0.0166809
681.349	0.0166601
681.427	0.0166607
681.505	0.0165874
681.583	0.0165554
681.661	0.0165489
681.739	0.0167091
681.817	0.0165911
681.896	0.0166679
681.974	0.0165910
682.052	0.0165716
682.130	0.0165890
682.208	0.0166424
682.286	0.0166290
682.364	0.0166814
682.442	0.0163954
682.521	0.0165486
682.599	0.0165642
682.677	0.0166046
682.755	0.0164874
682.833	0.0165246
682.911	0.0165383
682.989	0.0166051
683.067	0.0165148
683.146	0.0166236
683.224	0.0166267
683.302	0.0165643
683.380	0.0165478
683.458	0.0166832
683.536	0.0167614
683.614	0.0167124
683.692	0.0165791
683.771	0.0165585
683.849	0.0165631
683.927	0.0164676
684.005	0.0165420
684.083	0.0165994
684.161	0.0165808
684.239	0.0166035
684.317	0.0165881
684.396	0.0165726
684.474	0.0166964
684.552	0.0165573
684.630	0.0165833
684.708	0.0165826
684.786	0.0165150
684.864	0.0165842
684.942	0.0164975
685.021	0.0165951
685.099	0.0166464
685.177	0.0165198
685.255	0.0167432
685.333	0.0165214
685.411	0.0165670
685.489	0.0166579
685.567	0.0164330
685.646	0.0164833
685.724	0.0166579
685.802	0.0166220
685.880	0.0164991
685.958	0.0166753
686.036	0.0164780
686.114	0.0165925
686.192	0.0165740
686.271	0.0166431
686.349	0.0166950
686.427	0.0166974
686.505	0.0165063
686.583	0.0166031
686.661	0.0166784
686.739	0.0166244
686.817	0.0166146
686.896	0.0164909
686.974	0.0166570
687.052	0.0165411
687.130	0.0166272
687.208	0.0166965
687.286	0.0166265
687.364	0.0165557
687.442	0.0165506
687.521	0.0167171
687.599	0.0165902
687.677	0.0166419
687.755	0.0165163
687.833	0.0166090
687.911	0.0166520
687.989	0.0166016
688.067	0.0165899
688.146	0.0165517
688.224	0.0167430
688.302	0.0165532
688.380	0.0166099
688.458	0.0166268
688.536	0.0165890
688.614	0.0166858
688.692	0.0165984
688.771	0.0166521
688.849	0.0164884
688.927	0.0166461
689.005	0.0166204
689.083	0.0166129
689.161	0.0166238
689.239	0.0166193
689.317	0.0166830
689.396	0.0166270
689.474	0.0166676
689.552	0.0166868
689.630	0.0165649
689.708	0.0165976
689.786	0.0165891
689.864	0.0165863
689.942	0.0166012
690.021	0.0165085
690.099	0.0165102
690.177	0.0166525
690.255	0.0166974
690.333	0.0167195
690.411	0.0166267
690.489	0.0165968
690.567	0.0163828
690.646	0.0164469
690.724	0.0166142
690.802	0.0166226
690.880	0.0165052
690.958	0.0165196
691.036	0.0164687
691.114	0.0167548
691.192	0.0166843
691.271	0.0165395
691.349	0.0166345
691.427	0.0164767
691.505	0.0165834
691.583	0.0167220
691.661	0.0166558
691.739	0.0164819
691.817	0.0165133
691.896	0.0166033
691.974	0.0166165
692.052	0.0164982
692.130	0.0164812
692.208	0.0165739
692.286	0.0165683
692.364	0.0167234
692.442	0.0166335
692.521	0.0166333
692.599	0.0166815
692.677	0.0167205
692.755	0.0166117
692.833	0.0165940
692.911	0.0164902
692.989	0.0164812
693.067	0.0165367
693.146	0.0166151
693.224	0.0166198
693.302	0.0166089
693.380	0.0166232
693.458	0.0167159
693.536	0.0165670
693.614	0.0165117
693.692	0.0166190
693.771	0.0166187
693.849	0.0166006
693.927	0.0166750
694.005	0.0166672
694.083	0.0166199
694.161	0.0165871
694.239	0.0166881
694.317	0.0164405
694.396	0.0166396
694.474	0.0166008
694.552	0.0166603
694.630	0.0167376
694.708	0.0166626
694.786	0.0165646
694.864	0.0165810
694.942	0.0166712
695.021	0.0164690
695.099	0.0165086
695.177	0.0166814
695.255	0.0166245
695.333	0.0166614
695.411	0.0167785
695.489	0.0166850
695.567	0.0166098
695.646	0.0166675
695.724	0.0166355
695.802	0.0166685
695.880	0.0165559
695.958	0.0165274
696.036	0.0166981
696.114	0.0167101
696.192	0.0166846
696.271	0.0166254
696.349	0.0167527
696.427	0.0167490
696.505	0.0165395
696.583	0.0165141
696.661	0.0166891
696.739	0.0166457
696.817	0.0167079
696.896	0.0166489
696.974	0.0165377
697.052	0.0166400
697.130	0.0166237
697.208	0.0165572
697.286	0.0166462
697.364	0.0166458
697.442	0.0165535
697.521	0.0164895
697.599	0.0166427
697.677	0.0165832
697.755	0.0166646
697.833	0.0166573
697.911	0.0165670
697.989	0.0165465
698.067	0.0166539
698.146	0.0167267
698.224	0.0166070
698.302	0.0165965
698.380	0.0166232
698.458	0.0165755
698.536	0.0166254
698.614	0.0165893
698.692	0.0164917
698.771	0.0165868
698.849	0.0166756
698.927	0.0167197
699.005	0.0166344
699.083	0.0166765
699.161	0.0165804
699.239	0.0166585
699.317	0.0166656
699.396	0.0165980
699.474	0.0166548
699.552	0.0165765
699.630	0.0166170
699.708	0.0166914
699.786	0.0166080
699.864	0.0166243
699.942	0.0165926
700.021	0.0166249
700.099	0.0166483
700.177	0.0166115
700.255	0.0165884
700.333	0.0166460
700.411	0.0166066
700.489	0.0164877
700.567	0.0165131
700.646	0.0166507
700.724	0.0166869
700.802	0.0165799
700.880	0.0165680
700.958	0.0166676
701.036	0.0166283
701.114	0.0166135
701.192	0.0166346
701.271	0.0166911
701.349	0.0166571
701.427	0.0166651
701.505	0.0165839
701.583	0.0165871
701.661	0.0166895
701.739	0.0165994
701.817	0.0165559
701.896	0.0165350
701.974	0.0166474
702.052	0.0166369
702.130	0.0166274
702.208	0.0166396
702.286	0.0166200
702.364	0.0165775
702.442	0.0165703
702.521	0.0165423
702.599	0.0165692
702.677	0.0167020
702.755	0.0167181
702.833	0.0167749
702.911	0.0166486
702.989	0.0166138
703.067	0.0165867
703.146	0.0166232
703.224	0.0166034
703.302	0.0166565
703.380	0.0165828
703.458	0.0166525
703.536	0.0166096
703.614	0.0166206
703.692	0.0165319
703.771	0.0166231
703.849	0.0166324
703.927	0.0164998
704.005	0.0166627
704.083	0.0167133
704.161	0.0165734
704.239	0.0165567
704.317	0.0166203
704.396	0.0165729
704.474	0.0165572
704.552	0.0166335
704.630	0.0166889
704.708	0.0165762
704.786	0.0167226
704.864	0.0166936
704.942	0.0166216
705.021	0.0167672
705.099	0.0166030
705.177	0.0166711
705.255	0.0165783
705.333	0.0167249
705.411	0.0166388
705.489	0.0165109
705.567	0.0164573
705.646	0.0166900
705.724	0.0166088
705.802	0.0165253
705.880	0.0166823
705.958	0.0166293
706.036	0.0166685
706.114	0.0166726
706.192	0.0166083
706.271	0.0166956
706.349	0.0165295
706.427	0.0167316
706.505	0.0165879
706.583	0.0166555
706.661	0.0167377
706.739	0.0166878
706.817	0.0165511
706.896	0.0166393
706.974	0.0166560
707.052	0.0166683
707.130	0.0166383
707.208	0.0165938
707.286	0.0166885
707.364	0.0165726
707.442	0.0165736
707.521	0.0165234
707.599	0.0166491
707.677	0.0166086
707.755	0.0164678
707.833	0.0167292
707.911	0.0166880
707.989	0.0165359
708.067	0.0166580
708.146	0.0166110
708.224	0.0166571
708.302	0.0166930
708.380	0.0166542
708.458	0.0166566
708.536	0.0166146
708.614	0.0165911
708.692	0.0167063
708.771	0.0165955
708.849	0.0166634
708.927	0.0165681
709.005	0.0165164
709.083	0.0165083
709.161	0.0165830
709.239	0.0164846
709.317	0.0166245
709.396	0.0166653
709.474	0.0165970
709.552	0.0165317
709.630	0.0164941
709.708	0.0165703
709.786	0.0166469
709.864	0.0165878
709.942	0.0165353
710.021	0.0164394
710.099	0.0165800
710.177	0.0166290
710.255	0.0166670
710.333	0.0165492
710.411	0.0166186
710.489	0.0166157
710.567	0.0166145
710.646	0.0165661
710.724	0.0165366
710.802	0.0166048
710.880	0.0167069
710.958	0.0166942
711.036	0.0166149
711.114	0.0165424
711.192	0.0166257
711.271	0.0165380
711.349	0.0163791
711.427	0.0166864
711.505	0.0167088
711.583	0.0166401
711.661	0.0166608
711.739	0.0167258
711.817	0.0167213
711.896	0.0166563
711.974	0.0166756
712.052	0.0166335
712.130	0.0167107
712.208	0.0165498
712.286	0.0167481
712.364	0.0166995
712.442	0.0166695
712.521	0.0165599
712.599	0.0166846
712.677	0.0166876
712.755	0.0165259
712.833	0.0167857
712.911	0.0166206
712.989	0.0166821
713.067	0.0165536
713.146	0.0167434
713.224	0.0164925
713.302	0.0166682
713.380	0.0165788
713.458	0.0165641
713.536	0.0165789
713.614	0.0165664
713.692	0.0165658
713.771	0.0166731
713.849	0.0167619
713.927	0.0166476
714.005	0.0166729
714.083	0.0166625
714.161	0.0166834
714.239	0.0166911
714.317	0.0167133
714.396	0.0165974
714.474	0.0164533
714.552	0.0167260
714.630	0.0165511
714.708	0.0166915
714.786	0.0165024
714.864	0.0167387
714.942	0.0166075
715.021	0.0166544
715.099	0.0165250
715.177	0.0165388
715.255	0.0167039
715.333	0.0165714
715.411	0.0166714
715.489	0.0167444
715.567	0.0166455
715.646	0.0164848
715.724	0.0166219
715.802	0.0165887
715.880	0.0166261
715.958	0.0167293
716.036	0.0166885
716.114	0.0164875
716.192	0.0165930
716.271	0.0166756
716.349	0.0165457
716.427	0.0165887
716.505	0.0167268
716.583	0.0165901
716.661	0.0165704
716.739	0.0166042
716.817	0.0165903
716.896	0.0165071
716.974	0.0165741
717.052	0.0166429
717.130	0.0165185
717.208	0.0165472
717.286	0.0164154
717.364	0.0166243
717.442	0.0165183
717.521	0.0166430
717.599	0.0164731
717.677	0.0164429
717.755	0.0165599
717.833	0.0166225
717.911	0.0166058
717.989	0.0165465
718.067	0.0165462
718.146	0.0166137
718.224	0.0166188
718.302	0.0165598
718.380	0.0166942
718.458	0.0166397
718.536	0.0166355
718.614	0.0165832
718.692	0.0166127
718.771	0.0165617
718.849	0.0165547
718.927	0.0166633
719.005	0.0166389
719.083	0.0166936
719.161	0.0166660
719.239	0.0165688
719.317	0.0166630
719.396	0.0165710
719.474	0.0165749
719.552	0.0164130
719.630	0.0166890
719.708	0.0165698
719.786	0.0165823
719.864	0.0166633
719.942	0.0164933
720.021	0.0164989
720.099	0.0165793
720.177	0.0165706
720.255	0.0166366
720.333	0.0165652
720.411	0.0165627
720.489	0.0166028
720.567	0.0167427
720.646	0.0166765
720.724	0.0166730
720.802	0.0164530
720.880	0.0166599
720.958	0.0165774
721.036	0.0165720
721.114	0.0166586
721.192	0.0166674
721.271	0.0165979
721.349	0.0165787
721.427	0.0166464
721.505	0.0166273
721.583	0.0165704
721.661	0.0166934
721.739	0.0166687
721.817	0.0166811
721.896	0.0164552
721.974	0.0164785
722.052	0.0165632
722.130	0.0165062
722.208	0.0165623
722.286	0.0166428
722.364	0.0165136
722.442	0.0165338
722.521	0.0168015
722.599	0.0166487
722.677	0.0163892
722.755	0.0164525
722.833	0.0166795
722.911	0.0165957
722.989	0.0164987
723.067	0.0166695
723.146	0.0165483
723.224	0.0166470
723.302	0.0166410
723.380	0.0165738
723.458	0.0167416
723.536	0.0165788
723.614	0.0165277
723.692	0.0165332
723.771	0.0166249
723.849	0.0166565
723.927	0.0165688
724.005	0.0164658
724.083	0.0165985
724.161	0.0165607
724.239	0.0165678
724.317	0.0165969
724.396	0.0166055
724.474	0.0164415
724.552	0.0165221
724.630	0.0166236
724.708	0.0166482
724.786	0.0165776
724.864	0.0166134
724.942	0.0167154
725.021	0.0166232
725.099	0.0166282
725.177	0.0165857
725.255	0.0165944
725.333	0.0166359
725.411	0.0165431
725.489	0.0166833
725.567	0.0165971
725.646	0.0166385
725.724	0.0165260
725.802	0.0165990
725.880	0.0166151
725.958	0.0165829
726.036	0.0166058
726.114	0.0165266
726.192	0.0166192
726.271	0.0166386
726.349	0.0166979
726.427	0.0166781
726.505	0.0166032
726.583	0.0165604
726.661	0.0166917
726.739	0.0166668
726.817	0.0165572
726.896	0.0166698
726.974	0.0167336
727.052	0.0166230
727.130	0.0165598
727.208	0.0166077
727.286	0.0167265
727.364	0.0165348
727.442	0.0166203
727.521	0.0164460
727.599	0.0165182
727.677	0.0165707
727.755	0.0166582
727.833	0.0166461
727.911	0.0167054
727.989	0.0166459
728.067	0.0165800
728.146	0.0167332
728.224	0.0165753
728.302	0.0166906
728.380	0.0166569
728.458	0.0166826
728.536	0.0166183
728.614	0.0166840
728.692	0.0166536
728.771	0.0166029
728.849	0.0167498
728.927	0.0166600
729.005	0.0165392
729.083	0.0166633
729.161	0.0166586
729.239	0.0166210
729.317	0.0165928
729.396	0.0166461
729.474	0.0165479
729.552	0.0166254
729.630	0.0165887
729.708	0.0165731
729.786	0.0166674
729.864	0.0165710
729.942	0.0166393
730.021	0.0166052
730.099	0.0166619
730.177	0.0166290
730.255	0.0166893
730.333	0.0165819
730.411	0.0165596
730.489	0.0165965
730.567	0.0165604
730.646	0.0165544
730.724	0.0166743
730.802	0.0167390
730.880	0.0167677
730.958	0.0165800
731.036	0.0166440
731.114	0.0165692
731.192	0.0166748
731.271	0.0165802
731.349	0.0165730
731.427	0.0165721
731.505	0.0165636
731.583	0.0165567
731.661	0.0166546
731.739	0.0165906
731.817	0.0165366
731.896	0.0167393
731.974	0.0166060
732.052	0.0164825
732.130	0.0165235
732.208	0.0165928
732.286	0.0165542
732.364	0.0165853
732.442	0.0165627
732.521	0.0164633
732.599	0.0166060
732.677	0.0166233
732.755	0.0165416
732.833	0.0166940
732.911	0.0164496
732.989	0.0165606
733.067	0.0163635
733.146	0.0167015
733.224	0.0165447
733.302	0.0165629
733.380	0.0165069
733.458	0.0165473
733.536	0.0165322
733.614	0.0165229
733.692	0.0166283
733.771	0.0166130
733.849	0.0165951
733.927	0.0164828
734.005	0.0166241
734.083	0.0165676
734.161	0.0164475
734.239	0.0166941
734.317	0.0165416
734.396	0.0167145
734.474	0.0164825
734.552	0.0165205
734.630	0.0164969
734.708	0.0166295
734.786	0.0165973
734.864	0.0165948
734.942	0.0165176
735.021	0.0165718
735.099	0.0166135
735.177	0.0165161
735.255	0.0165493
735.333	0.0164626
735.411	0.0165786
735.489	0.0165397
735.567	0.0164892
735.646	0.0164878
735.724	0.0164792
735.802	0.0165996
735.880	0.0164468
735.958	0.0164595
736.036	0.0166081
736.114	0.0165350
736.192	0.0166290
736.271	0.0165047
736.349	0.0165563
736.427	0.0165327
736.505	0.0166292
736.583	0.0165404
736.661	0.0164764
736.739	0.0164355
736.817	0.0164756
736.896	0.0164585
736.974	0.0164464
737.052	0.0165089
737.130	0.0164933
737.208	0.0165755
737.286	0.0164150
737.364	0.0166653
737.442	0.0164533
737.521	0.0165322
737.599	0.0165505
737.677	0.0163795
737.755	0.0165120
737.833	0.0164560
737.911	0.0165437
737.989	0.0165084
738.067	0.0167181
738.146	0.0165533
738.224	0.0165671
738.302	0.0165159
738.380	0.0164320
738.458	0.0166108
738.536	0.0164620
738.614	0.0166045
738.692	0.0165225
738.771	0.0163761
738.849	0.0164783
738.927	0.0165852
739.005	0.0166135
739.083	0.0164868
739.161	0.0165374
739.239	0.0164339
739.317	0.0165858
739.396	0.0165873
739.474	0.0166042
739.552	0.0164149
739.630	0.0164281
739.708	0.0164871
739.786	0.0166590
739.864	0.0165475
739.942	0.0164611
740.021	0.0166777
740.099	0.0165897
740.177	0.0164677
740.255	0.0164695
740.333	0.0165363
740.411	0.0166084
740.489	0.0165955
740.567	0.0165787
740.646	0.0166180
740.724	0.0165241
740.802	0.0165332
740.880	0.0166658
740.958	0.0166576
741.036	0.0166415
741.114	0.0166551
741.192	0.0167479
741.271	0.0167164
741.349	0.0166343
741.427	0.0167096
741.505	0.0167547
741.583	0.0166692
741.661	0.0167674
741.739	0.0167674
741.817	0.0167004
741.896	0.0164829
741.974	0.0165334
742.052	0.0164806
742.130	0.0163778
742.208	0.0162259
742.286	0.0162054
742.364	0.0161163
742.442	0.0162182
742.521	0.0162932
742.599	0.0162022
742.677	0.0163732
742.755	0.0165585
742.833	0.0168215
742.911	0.0167540
742.989	0.0170617
743.067	0.0172137
743.146	0.0173367
743.224	0.0174658
743.302	0.0175565
743.380	0.0174873
743.458	0.0174446
743.536	0.0172591
743.614	0.0170963
743.692	0.0169730
743.771	0.0168779
743.849	0.0165587
743.927	0.0163673
744.005	0.0160587
744.083	0.0158513
744.161	0.0155563
744.239	0.0154426
744.317	0.0151616
744.396	0.0150223
744.474	0.0149674
744.552	0.0151051
744.630	0.0152750
744.708	0.0154736
744.786	0.0160958
744.864	0.0166251
744.942	0.0171566
745.021	0.0176141
745.099	0.0180831
745.177	0.0185172
745.255	0.0187013
745.333	0.0186847
745.411	0.0183969
745.489	0.0181626
745.567	0.0176514
745.646	0.0172567
745.724	0.0166376
745.802	0.0163273
745.880	0.0160759
745.958	0.0159826
746.036	0.0158768
746.114	0.0158086
746.192	0.0157973
746.271	0.0159653
746.349	0.0158903
746.427	0.0159749
746.505	0.0160751
746.583	0.0159485
746.661	0.0157790
746.739	0.0156773
746.817	0.0152756
746.896	0.0153701
746.974	0.0153327
747.052	0.0155882
747.130	0.0159850
747.208	0.0166002
747.286	0.0170276
747.364	0.0177591
747.442	0.0182623
747.521	0.0186758
747.599	0.0187836
747.677	0.0187578
747.755	0.0184684
747.833	0.0180128
747.911	0.0176021
747.989	0.0169584
748.067	0.0164419
748.146	0.0158862
748.224	0.0155856
748.302	0.0154679
748.380	0.0152993
748.458	0.0153656
748.536	0.0154547
748.614	0.0156496
748.692	0.0157383
748.771	0.0159151
748.849	0.0160634
748.927	0.0163567
749.005	0.0162067
749.083	0.0162427
749.161	0.0163345
749.239	0.0162395
749.317	0.0163467
749.396	0.0164848
749.474	0.0165021
749.552	0.0167331
749.630	0.0169146
749.708	0.0170933
749.786	0.0175779
749.864	0.0178306
749.942	0.0179185
750.021	0.0182354
750.099	0.0181654
750.177	0.0181039
750.255	0.0177890
750.333	0.0173230
750.411	0.0165653
750.489	0.0161017
750.567	0.0155164
750.646	0.0150201
750.724	0.0145362
750.802	0.0144358
750.880	0.0144847
750.958	0.0145887
751.036	0.0148674
751.114	0.0153523
751.192	0.0156620
751.271	0.0161939
751.349	0.0167010
751.427	0.0173907
751.505	0.0176220
751.583	0.0180888
751.661	0.0184367
751.739	0.0187634
751.817	0.0189614
751.896	0.0187880
751.974	0.0190376
752.052	0.0188744
752.130	0.0184763
752.208	0.0182062
752.286	0.0178193
752.364	0.0174596
752.442	0.0170345
752.521	0.0164624
752.599	0.0160737
752.677	0.0157107
752.755	0.0153070
752.833	0.0148655
752.911	0.0145889
752.989	0.0142082
753.067	0.0138560
753.146	0.0138313
753.224	0.0136397
753.302	0.0135167
753.380	0.0136802
753.458	0.0136102
753.536	0.0139832
753.614	0.0143885
753.692	0.0148629
753.771	0.0153772
753.849	0.0160225
753.927	0.0166264
754.005	0.0174108
754.083	0.0180779
754.161	0.0187953
754.239	0.0192855
754.317	0.0198676
754.396	0.0203493
754.474	0.0206944
754.552	0.0210767
754.630	0.0212897
754.708	0.0213331
754.786	0.0211333
754.864	0.0209893
754.942	0.0206438
755.021	0.0198997
755.099	0.0191006
755.177	0.0184267
755.255	0.0174876
755.333	0.0165231
755.411	0.0156297
755.489	0.0145898
755.567	0.0136245
755.646	0.0127576
755.724	0.0119891
755.802	0.0115518
755.880	0.0112109
755.958	0.0110690
756.036	0.0112260
756.114	0.0114223
756.192	0.0117426
756.271	0.0122192
756.349	0.0127962
756.427	0.0134027
756.505	0.0140530
756.583	0.0147932
756.661	0.0154005
756.739	0.0161579
756.817	0.0168169
756.896	0.0173990
756.974	0.0181432
757.052	0.0189553
757.130	0.0196296
757.208	0.0203679
757.286	0.0210102
757.364	0.0217814
757.442	0.0222636
757.521	0.0226996
757.599	0.0229845
757.677	0.0230633
757.755	0.0231040
757.833	0.0227525
757.911	0.0221062
757.989	0.0215689
758.067	0.0208438
758.146	0.0197173
758.224	0.0186348
758.302	0.0174254
758.380	0.0161518
758.458	0.0148719
758.536	0.0135627
758.614	0.0123323
758.692	0.0113880
758.771	0.0104111
758.849	0.00966911
758.927	0.00927681
759.005	0.00889633
759.083	0.00878883
759.161	0.00916237
759.239	0.00949768
759.317	0.0102688
759.396	0.0110027
759.474	0.0117834
759.552	0.0129121
759.630	0.0139386
759.708	0.0149606
759.786	0.0160801
759.864	0.0170918
759.942	0.0181593
760.021	0.0189769
760.099	0.0200587
760.177	0.0207584
760.255	0.0213094
760.333	0.0220301
760.411	0.0223950
760.489	0.0227067
760.567	0.0229487
760.646	0.0228704
760.724	0.0228295
760.802	0.0226633
760.880	0.0223243
760.958	0.0218307
761.036	0.0214104
761.114	0.0205324
761.192	0.0198343
761.271	0.0190030
761.349	0.0182491
761.427	0.0172595
761.505	0.0163480
761.583	0.0154887
761.661	0.0146404
761.739	0.0137193
761.817	0.0127036
761.896	0.0122108
761.974	0.0114130
762.052	0.0108286
762.130	0.0104509
762.208	0.0101488
762.286	0.0103508
762.364	0.0105555
762.442	0.0108553
762.521	0.0115161
762.599	0.0122270
762.677	0.0129840
762.755	0.0138895
762.833	0.0147620
762.911	0.0156747
762.989	0.0166271
763.067	0.0174203
763.146	0.0182735
763.224	0.0189983
763.302	0.0197276
763.380	0.0201838
763.458	0.0206524
763.536	0.0209882
763.614	0.0212309
763.692	0.0211478
763.771	0.0211098
763.849	0.0209087
763.927	0.0207288
764.005	0.0203593
764.083	0.0198673
764.161	0.0193272
764.239	0.0185336
764.317	0.0176878
764.396	0.0172146
764.474	0.0163797
764.552	0.0155818
764.630	0.0149191
764.708	0.0142572
764.786	0.0140031
764.864	0.0134899
764.942	0.0131245
765.021	0.0130347
765.099	0.0131069
765.177	0.0129736
765.255	0.0131477
765.333	0.0134442
765.411	0.0138578
765.489	0.0142725
765.567	0.0147027
765.646	0.0151402
765.724	0.0155595
765.802	0.0162724
765.880	0.0167809
765.958	0.0172625
766.036	0.0177413
766.114	0.0182843
766.192	0.0184895
766.271	0.0186441
766.349	0.0186626
766.427	0.0188787
766.505	0.0188332
766.583	0.0188131
766.661	0.0186659
766.739	0.0185994
766.817	0.0185152
766.896	0.0184167
766.974	0.0184726
767.052	0.0181611
767.130	0.0180666
767.208	0.0178818
767.286	0.0175522
767.364	0.0172382
767.442	0.0169807
767.521	0.0164919
767.599	0.0164053
767.677	0.0159850
767.755	0.0157152
767.833	0.0154682
767.911	0.0150519
767.989	0.0148724
768.067	0.0147417
768.146	0.0143694
768.224	0.0142989
768.302	0.0140321
768.380	0.0139584
768.458	0.0138777
768.536	0.0139259
768.614	0.0138380
768.692	0.0137921
768.771	0.0139481
768.849	0.0142348
768.927	0.0143858
769.005	0.0148781
769.083	0.0151051
769.161	0.0157255
769.239	0.0162959
769.317	0.0167632
769.396	0.0175742
769.474	0.0180833
769.552	0.0185606
769.630	0.0190881
769.708	0.0194900
769.786	0.0198027
769.864	0.0199383
769.942	0.0201437
770.021	0.0201080
770.099	0.0201369
770.177	0.0199314
770.255	0.0197862
770.333	0.0194852
770.411	0.0192628
770.489	0.0188795
770.567	0.0184853
770.646	0.0180640
770.724	0.0175060
770.802	0.0170343
770.880	0.0165656
770.958	0.0158018
771.036	0.0154079
771.114	0.0149625
771.192	0.0146440
771.271	0.0143642
771.349	0.0139638
771.427	0.0138231
771.505	0.0136755
771.583	0.0135581
771.661	0.0135970
771.739	0.0138024
771.817	0.0139101
771.896	0.0141207
771.974	0.0143273
772.052	0.0145811
772.130	0.0151147
772.208	0.0152016
772.286	0.0155444
772.364	0.0158462
772.442	0.0162830
772.521	0.0166275
772.599	0.0167858
772.677	0.0170743
772.755	0.0173363
772.833	0.0176614
772.911	0.0178731
772.989	0.0181154
773.067	0.0183971
773.146	0.0185704
773.224	0.0185188
773.302	0.0185592
773.380	0.0187056
773.458	0.0185541
773.536	0.0182544
773.614	0.0179908
773.692	0.0176985
773.771	0.0173702
773.849	0.0170868
773.927	0.0167846
774.005	0.0165344
774.083	0.0162831
774.161	0.0160905
774.239	0.0156179
774.317	0.0155393
774.396	0.0155550
774.474	0.0154358
774.552	0.0154215
774.630	0.0155285
774.708	0.0156119
774.786	0.0155908
774.864	0.0156848
774.942	0.0157973
775.021	0.0159715
775.099	0.0162863
775.177	0.0163544
775.255	0.0163084
775.333	0.0166401
775.411	0.0167612
775.489	0.0167206
775.567	0.0169448
775.646	0.0168262
775.724	0.0168748
775.802	0.0170551
775.880	0.0170048
775.958	0.0172314
776.036	0.0172649
776.114	0.0171739
776.192	0.0172788
776.271	0.0173527
776.349	0.0171854
776.427	0.0171517
776.505	0.0172871
776.583	0.0171177
776.661	0.0170099
776.739	0.0168731
776.817	0.0167307
776.896	0.0166202
776.974	0.0165663
777.052	0.0165803
777.130	0.0166338
777.208	0.0166467
777.286	0.0166856
777.364	0.0166117
777.442	0.0167204
777.521	0.0165829
777.599	0.0165563
777.677	0.0165857
777.755	0.0166906
777.833	0.0164783
777.911	0.0162003
777.989	0.0161084
778.067	0.0161340
778.146	0.0158018
778.224	0.0155572
778.302	0.0151653
778.380	0.0151245
778.458	0.0150602
778.536	0.0148933
778.614	0.0148937
778.692	0.0152802
778.771	0.0151355
778.849	0.0152701
778.927	0.0153858
779.005	0.0156960
779.083	0.0157693
779.161	0.0160791
779.239	0.0163379
779.317	0.0166261
779.396	0.0168713
779.474	0.0173203
779.552	0.0175262
779.630	0.0179124
779.708	0.0181030
779.786	0.0184583
779.864	0.0188213
779.942	0.0191174
780.021	0.0190195
780.099	0.0189884
780.177	0.0190008
780.255	0.0191086
780.333	0.0188988
780.411	0.0185960
780.489	0.0185502
780.567	0.0182845
780.646	0.0178936
780.724	0.0175983
780.802	0.0172543
780.880	0.0169055
780.958	0.0165704
781.036	0.0163462
781.114	0.0160098
781.192	0.0157554
781.271	0.0154996
781.349	0.0152819
781.427	0.0150887
781.505	0.0150065
781.583	0.0149780
781.661	0.0150466
781.739	0.0150117
781.817	0.0150790
781.896	0.0150875
781.974	0.0152292
782.052	0.0155558
782.130	0.0158039
782.208	0.0157565
782.286	0.0160873
782.364	0.0162230
782.442	0.0162054
782.521	0.0163419
782.599	0.0166557
782.677	0.0166228
782.755	0.0166250
782.833	0.0166238
782.911	0.0166003
782.989	0.0166264
783.067	0.0166036
783.146	0.0164967
783.224	0.0164230
783.302	0.0165702
783.380	0.0164879
783.458	0.0166888
783.536	0.0167947
783.614	0.0167188
783.692	0.0169118
783.771	0.0172780
783.849	0.0172632
783.927	0.0174911
784.005	0.0175358
784.083	0.0176678
784.161	0.0176201
784.239	0.0176443
784.317	0.0178869
784.396	0.0177122
784.474	0.0175098
784.552	0.0176662
784.630	0.0175948
784.708	0.0173687
784.786	0.0173395
784.864	0.0172104
784.942	0.0169900
785.021	0.0168516
785.099	0.0165862
785.177	0.0164257
785.255	0.0164746
785.333	0.0162378
785.411	0.0161185
785.489	0.0159911
785.567	0.0158199
785.646	0.0159689
785.724	0.0157378
785.802	0.0156503
785.880	0.0157056
785.958	0.0158191
786.036	0.0156625
786.114	0.0157471
786.192	0.0157437
786.271	0.0159296
786.349	0.0160088
786.427	0.0162555
786.505	0.0163557
786.583	0.0164034
786.661	0.0164851
786.739	0.0164461
786.817	0.0167024
786.896	0.0168839
786.974	0.0168474
787.052	0.0170601
787.130	0.0171373
787.208	0.0171134
787.286	0.0172053
787.364	0.0174058
787.442	0.0174229
787.521	0.0172854
787.599	0.0174403
787.677	0.0172449
787.755	0.0172736
787.833	0.0171674
787.911	0.0171716
787.989	0.0171456
788.067	0.0169470
788.146	0.0167904
788.224	0.0165750
788.302	0.0164534
788.380	0.0162350
788.458	0.0159985
788.536	0.0157207
788.614	0.0156564
788.692	0.0155219
788.771	0.0153970
788.849	0.0153616
788.927	0.0153934
789.005	0.0154866
789.083	0.0153515
789.161	0.0153371
789.239	0.0155791
789.317	0.0155932
789.396	0.0157292
789.474	0.0158556
789.552	0.0160556
789.630	0.0161827
789.708	0.0161690
789.786	0.0163982
789.864	0.0165807
789.942	0.0166568
790.021	0.0169048
790.099	0.0170062
790.177	0.0170274
790.255	0.0171889
790.333	0.0172108
790.411	0.0173468
790.489	0.0173652
790.567	0.0176099
790.646	0.0177337
790.724	0.0175879
790.802	0.0175855
790.880	0.0176618
790.958	0.0174928
791.036	0.0175241
791.114	0.0175574
791.192	0.0173703
791.271	0.0172425
791.349	0.0172242
791.427	0.0170676
791.505	0.0170340
791.583	0.0171806
791.661	0.0169486
791.739	0.0167227
791.817	0.0164914
791.896	0.0165076
791.974	0.0165315
792.052	0.0164915
792.130	0.0162617
792.208	0.0163334
792.286	0.0161667
792.364	0.0160488
792.442	0.0160646
792.521	0.0159519
792.599	0.0158921
792.677	0.0159908
792.755	0.0160866
792.833	0.0159662
792.911	0.0160339
792.989	0.0162010
793.067	0.0162824
793.146	0.0163116
793.224	0.0162822
793.302	0.0162072
793.380	0.0164923
793.458	0.0166432
793.536	0.0165634
793.614	0.0167574
793.692	0.0165914
793.771	0.0165958
793.849	0.0167464
793.927	0.0168155
794.005	0.0166629
794.083	0.0167634
794.161	0.0167502
794.239	0.0167842
794.317	0.0167029
794.396	0.0165958
794.474	0.0166414
794.552	0.0165203
794.630	0.0163664
794.708	0.0163830
794.786	0.0163710
794.864	0.0162854
794.942	0.0162660
795.021	0.0161143
795.099	0.0161880
795.177	0.0162007
795.255	0.0162113
795.333	0.0161226
795.411	0.0162777
795.489	0.0164441
795.567	0.0165126
795.646	0.0166048
795.724	0.0164939
795.802	0.0166732
795.880	0.0167951
795.958	0.0170097
796.036	0.0171619
796.114	0.0171783
796.192	0.0171276
796.271	0.0174280
796.349	0.0173244
796.427	0.0171728
796.505	0.0171712
796.583	0.0170306
796.661	0.0169354
796.739	0.0166712
796.817	0.0166639
796.896	0.0163805
796.974	0.0164071
797.052	0.0163017
797.130	0.0159806
797.208	0.0159908
797.286	0.0159321
797.364	0.0159791
797.442	0.0160390
797.521	0.0159246
797.599	0.0161098
797.677	0.0161996
797.755	0.0162884
797.833	0.0162930
797.911	0.0166598
797.989	0.0167400
798.067	0.0168953
798.146	0.0170313
798.224	0.0171268
798.302	0.0172172
798.380	0.0172753
798.458	0.0172623
798.536	0.0171442
798.614	0.0171323
798.692	0.0170206
798.771	0.0167977
798.849	0.0167230
798.927	0.0166340
799.005	0.0164883
799.083	0.0162865
799.161	0.0161271
799.239	0.0159408
799.317	0.0160242
799.396	0.0158930
799.474	0.0158953
799.552	0.0158875
799.630	0.0156598
799.708	0.0159750
799.786	0.0159435
799.864	0.0161213
799.942	0.0161636
800.021	0.0162687
800.099	0.0163000
800.177	0.0162457
800.255	0.0164492
800.333	0.0164178
800.411	0.0164008
800.489	0.0162369
800.567	0.0162798
800.646	0.0163638
800.724	0.0162772
800.802	0.0164293
800.880	0.0163443
800.958	0.0163464
801.036	0.0163859
801.114	0.0165546
801.192	0.0166432
801.271	0.0168442
801.349	0.0168746
801.427	0.0170583
801.505	0.0170860
801.583	0.0173094
801.661	0.0173555
801.739	0.0174066
801.817	0.0176007
801.896	0.0177063
801.974	0.0177294
802.052	0.0176617
802.130	0.0176077
802.208	0.0174393
802.286	0.0173144
802.364	0.0172089
802.442	0.0168925
802.521	0.0167240
802.599	0.0165420
802.677	0.0165172
802.755	0.0162600
802.833	0.0162017
802.911	0.0160925
802.989	0.0159514
803.067	0.0159946
803.146	0.0159861
803.224	0.0161303
803.302	0.0161970
803.380	0.0163078
803.458	0.0164273
803.536	0.0165988
803.614	0.0167085
803.692	0.0168568
803.771	0.0169128
803.849	0.0170482
803.927	0.0170679
804.005	0.0169688
804.083	0.0171726
804.161	0.0172179
804.239	0.0171893
804.317	0.0170516
804.396	0.0168806
804.474	0.0167793
804.552	0.0167414
804.630	0.0164639
804.708	0.0162954
804.786	0.0162938
804.864	0.0162378
804.942	0.0160483
805.021	0.0159161
805.099	0.0160402
805.177	0.0158830
805.255	0.0158958
805.333	0.0159620
805.411	0.0159662
805.489	0.0159741
805.567	0.0160790
805.646	0.0161322
805.724	0.0161629
805.802	0.0162199
805.880	0.0162537
805.958	0.0164016
806.036	0.0163384
806.114	0.0166522
806.192	0.0166285
806.271	0.0166731
806.349	0.0166802
806.427	0.0167445
806.505	0.0167300
806.583	0.0167950
806.661	0.0167161
806.739	0.0169585
806.817	0.0169727
806.896	0.0168990
806.974	0.0170203
807.052	0.0169582
807.130	0.0169565
807.208	0.0170271
807.286	0.0172070
807.364	0.0172567
807.442	0.0171204
807.521	0.0173283
807.599	0.0173108
807.677	0.0172221
807.755	0.0172872
807.833	0.0173557
807.911	0.0173601
807.989	0.0170853
808.067	0.0169070
808.146	0.0169869
808.224	0.0167619
808.302	0.0167500
808.380	0.0168426
808.458	0.0166074
808.536	0.0164148
808.614	0.0162766
808.692	0.0161885
808.771	0.0161128
808.849	0.0159669
808.927	0.0160388
809.005	0.0159809
809.083	0.0160909
809.161	0.0161451
809.239	0.0161581
809.317	0.0162375
809.396	0.0163058
809.474	0.0164417
809.552	0.0165905
809.630	0.0165211
809.708	0.0166911
809.786	0.0168032
809.864	0.0168770
809.942	0.0169250
810.021	0.0169318
810.099	0.0169070
810.177	0.0169907
810.255	0.0171218
810.333	0.0169637
810.411	0.0169051
810.489	0.0167417
810.567	0.0167244
810.646	0.0166771
810.724	0.0166046
810.802	0.0165384
810.880	0.0164079
810.958	0.0163879
811.036	0.0162485
811.114	0.0160786
811.192	0.0160921
811.271	0.0161301
811.349	0.0162501
811.427	0.0160786
811.505	0.0163118
811.583	0.0161257
811.661	0.0162211
811.739	0.0164650
811.817	0.0164110
811.896	0.0165622
811.974	0.0166246
812.052	0.0166136
812.130	0.0165375
812.208	0.0167034
812.286	0.0168701
812.364	0.0167798
812.442	0.0166954
812.521	0.0166466
812.599	0.0167562
812.677	0.0166267
812.755	0.0165989
812.833	0.0165200
812.911	0.0163115
812.989	0.0164631
813.067	0.0164904
813.146	0.0164703
813.224	0.0165421
813.302	0.0164889
813.380	0.0164577
813.458	0.0164724
813.536	0.0165209
813.614	0.0164725
813.692	0.0166812
813.771	0.0166811
813.849	0.0166410
813.927	0.0166748
814.005	0.0167661
814.083	0.0168620
814.161	0.0170130
814.239	0.0170018
814.317	0.0169776
814.396	0.0171423
814.474	0.0171181
814.552	0.0170200
814.630	0.0170435
814.708	0.0169724
814.786	0.0168731
814.864	0.0170149
814.942	0.0169138
815.021	0.0170571
815.099	0.0168665
815.177	0.0167366
815.255	0.0168315
815.333	0.0167792
815.411	0.0166739
815.489	0.0169003
815.567	0.0167876
815.646	0.0168874
815.724	0.0167620
815.802	0.0168483
815.880	0.0168480
815.958	0.0166762
816.036	0.0167338
816.114	0.0165583
816.192	0.0165893
816.271	0.0166339
816.349	0.0165308
816.427	0.0165314
816.505	0.0162853
816.583	0.0162390
816.661	0.0162195
816.739	0.0161986
816.817	0.0159948
816.896	0.0158748
816.974	0.0159232
817.052	0.0159543
817.130	0.0159908
817.208	0.0158887
817.286	0.0158395
817.364	0.0158989
817.442	0.0158699
817.521	0.0158418
817.599	0.0160323
817.677	0.0160160
817.755	0.0161304
817.833	0.0162225
817.911	0.0163037
817.989	0.0164507
818.067	0.0165642
818.146	0.0166908
818.224	0.0167028
818.302	0.0166930
818.380	0.0168352
818.458	0.0168990
818.536	0.0168832
818.614	0.0168379
818.692	0.0170073
818.771	0.0170950
818.849	0.0168890
818.927	0.0167867
819.005	0.0169562
819.083	0.0167576
819.161	0.0167785
819.239	0.0167585
819.317	0.0166975
819.396	0.0167087
819.474	0.0166943
819.552	0.0168089
819.630	0.0167956
819.708	0.0167867
819.786	0.0166661
819.864	0.0166748
819.942	0.0167735
820.021	0.0167490
820.099	0.0167617
820.177	0.0168652
820.255	0.0167696
820.333	0.0167592
820.411	0.0168073
820.489	0.0168727
820.567	0.0168355
820.646	0.0167554
820.724	0.0167253
820.802	0.0167491
820.880	0.0167255
820.958	0.0166438
821.036	0.0164664
821.114	0.0165034
821.192	0.0166151
821.271	0.0163895
821.349	0.0161773
821.427	0.0162196
821.505	0.0162447
821.583	0.0162742
821.661	0.0162226
821.739	0.0163703
821.817	0.0163317
821.896	0.0163944
821.974	0.0164338
822.052	0.0166573
822.130	0.0166624
822.208	0.0166745
822.286	0.0167984
822.364	0.0167661
822.442	0.0168497
822.521	0.0169401
822.599	0.0168455
822.677	0.0169380
822.755	0.0168507
822.833	0.0169422
822.911	0.0165749
822.989	0.0166551
823.067	0.0167718
823.146	0.0163602
823.224	0.0164734
823.302	0.0164845
823.380	0.0164441
823.458	0.0161304
823.536	0.0160410
823.614	0.0161243
823.692	0.0160644
823.771	0.0161227
823.849	0.0161836
823.927	0.0161398
824.005	0.0162630
824.083	0.0161889
824.161	0.0160641
824.239	0.0162381
824.317	0.0163016
824.396	0.0163992
824.474	0.0164603
824.552	0.0165057
824.630	0.0164694
824.708	0.0166108
824.786	0.0165588
824.864	0.0165803
824.942	0.0167431
825.021	0.0166898
825.099	0.0166397
825.177	0.0165330
825.255	0.0167310
825.333	0.0167406
825.411	0.0166628
825.489	0.0167535
825.567	0.0166888
825.646	0.0168266
825.724	0.0169067
825.802	0.0168226
825.880	0.0169355
825.958	0.0170235
826.036	0.0169381
826.114	0.0170647
826.192	0.0170037
826.271	0.0170165
826.349	0.0169258
826.427	0.0169488
826.505	0.0169487
826.583	0.0170274
826.661	0.0169457
826.739	0.0168960
826.817	0.0168945
826.896	0.0167593
826.974	0.0168013
827.052	0.0167522
827.130	0.0165962
827.208	0.0164220
827.286	0.0162959
827.364	0.0164646
827.442	0.0162906
827.521	0.0161922
827.599	0.0161983
827.677	0.0163134
827.755	0.0162531
827.833	0.0162399
827.911	0.0161546
827.989	0.0162604
828.067	0.0161646
828.146	0.0161092
828.224	0.0163799
828.302	0.0163620
828.380	0.0164999
828.458	0.0163651
828.536	0.0164914
828.614	0.0165916
828.692	0.0165589
828.771	0.0165549
828.849	0.0165411
828.927	0.0166000
829.005	0.0166872
829.083	0.0166956
829.161	0.0166278
829.239	0.0166390
829.317	0.0165739
829.396	0.0165914
829.474	0.0165366
829.552	0.0165788
829.630	0.0164688
829.708	0.0165910
829.786	0.0164054
829.864	0.0163240
829.942	0.0163830
830.021	0.0162078
830.099	0.0163062
830.177	0.0164278
830.255	0.0163256
830.333	0.0165203
830.411	0.0165010
830.489	0.0166128
830.567	0.0167108
830.646	0.0166389
830.724	0.0166000
830.802	0.0166560
830.880	0.0168751
830.958	0.0169616
831.036	0.0169469
831.114	0.0169910
831.192	0.0169267
831.271	0.0170808
831.349	0.0170411
831.427	0.0169493
831.505	0.0169264
831.583	0.0168568
831.661	0.0169226
831.739	0.0166771
831.817	0.0167562
831.896	0.0166667
831.974	0.0165163
832.052	0.0164075
832.130	0.0165598
832.208	0.0164957
832.286	0.0163300
832.364	0.0163499
832.442	0.0164520
832.521	0.0166006
832.599	0.0164453
832.677	0.0165984
832.755	0.0166773
832.833	0.0166577
832.911	0.0166821
832.989	0.0165821
833.067	0.0165829
833.146	0.0166936
833.224	0.0167091
833.302	0.0165899
833.380	0.0166979
833.458	0.0166803
833.536	0.0166643
833.614	0.0165324
833.692	0.0165762
833.771	0.0164622
833.849	0.0165519
833.927	0.0162405
834.005	0.0163939
834.083	0.0162688
834.161	0.0162109
834.239	0.0161695
834.317	0.0162543
834.396	0.0161403
834.474	0.0162576
834.552	0.0162203
834.630	0.0162852
834.708	0.0164471
834.786	0.0162759
834.864	0.0165031
834.942	0.0163860
835.021	0.0166174
835.099	0.0167507
835.177	0.0167062
835.255	0.0166028
835.333	0.0166108
835.411	0.0167429
835.489	0.0166049
835.567	0.0166611
835.646	0.0165707
835.724	0.0163842
835.802	0.0164293
835.880	0.0163972
835.958	0.0163672
836.036	0.0164771
836.114	0.0161964
836.192	0.0162035
836.271	0.0162135
836.349	0.0162226
836.427	0.0162075
836.505	0.0162669
836.583	0.0164487
836.661	0.0163577
836.739	0.0165758
836.817	0.0164937
836.896	0.0165959
836.974	0.0166606
837.052	0.0165067
837.130	0.0168244
837.208	0.0168745
837.286	0.0168580
837.364	0.0167554
837.442	0.0167840
837.521	0.0169466
837.599	0.0168394
837.677	0.0167281
837.755	0.0168304
837.833	0.0168531
837.911	0.0166880
837.989	0.0166326
838.067	0.0165899
838.146	0.0166358
838.224	0.0164551
838.302	0.0164381
838.380	0.0164326
838.458	0.0164532
838.536	0.0165183
838.614	0.0165652
838.692	0.0166319
838.771	0.0166774
838.849	0.0166458
838.927	0.0166557
839.005	0.0167300
839.083	0.0167970
839.161	0.0168636
839.239	0.0169290
839.317	0.0169696
839.396	0.0169936
839.474	0.0168994
839.552	0.0169485
839.630	0.0168422
839.708	0.0169104
839.786	0.0167670
839.864	0.0168418
839.942	0.0167830
840.021	0.0165751
840.099	0.0164880
840.177	0.0164036
840.255	0.0163708
840.333	0.0163122
840.411	0.0162502
840.489	0.0162539
840.567	0.0161510
840.646	0.0162517
840.724	0.0161642
840.802	0.0161562
840.880	0.0163651
840.958	0.0163495
841.036	0.0164487
841.114	0.0163786
841.192	0.0163358
841.271	0.0164922
841.349	0.0165684
841.427	0.0166750
841.505	0.0167077
841.583	0.0167262
841.661	0.0166222
841.739	0.0165195
841.817	0.0166591
841.896	0.0165884
841.974	0.0165788
842.052	0.0164194
842.130	0.0164834
842.208	0.0165987
842.286	0.0164830
842.364	0.0163800
842.442	0.0164205
842.521	0.0163969
842.599	0.0165249
842.677	0.0164029
842.755	0.0162849
842.833	0.0164718
842.911	0.0163950
842.989	0.0164463
843.067	0.0164591
843.146	0.0166395
843.224	0.0167676
843.302	0.0170156
843.380	0.0168177
843.458	0.0169147
843.536	0.0168578
843.614	0.0169551
843.692	0.0169577
843.771	0.0170247
843.849	0.0169556
843.927	0.0168954
844.005	0.0168021
844.083	0.0168171
844.161	0.0165482
844.239	0.0164799
844.317	0.0165652
844.396	0.0163536
844.474	0.0163692
844.552	0.0163879
844.630	0.0161421
844.708	0.0161006
844.786	0.0161446
844.864	0.0162934
844.942	0.0163667
845.021	0.0162917
845.099	0.0164230
845.177	0.0165530
845.255	0.0166727
845.333	0.0166477
845.411	0.0168739
845.489	0.0168953
845.567	0.0170331
845.646	0.0170821
845.724	0.0171300
845.802	0.0171880
845.880	0.0170977
845.958	0.0170044
846.036	0.0169946
846.114	0.0169402
846.192	0.0170063
846.271	0.0167610
846.349	0.0167032
846.427	0.0165696
846.505	0.0165203
846.583	0.0165204
846.661	0.0161860
846.739	0.0162282
846.817	0.0161823
846.896	0.0160689
846.974	0.0159504
847.052	0.0161048
847.130	0.0161898
847.208	0.0161369
847.286	0.0160720
847.364	0.0162777
847.442	0.0162303
847.521	0.0164707
847.599	0.0164465
847.677	0.0165095
847.755	0.0165386
847.833	0.0167262
847.911	0.0168587
847.989	0.0169144
848.067	0.0169308
848.146	0.0169282
848.224	0.0169371
848.302	0.0169424
848.380	0.0169590
848.458	0.0170718
848.536	0.0169627
848.614	0.0167387
848.692	0.0167353
848.771	0.0167637
848.849	0.0165249
848.927	0.0164426
849.005	0.0164383
849.083	0.0163723
849.161	0.0162289
849.239	0.0161792
849.317	0.0161524
849.396	0.0160944
849.474	0.0161257
849.552	0.0161568
849.630	0.0161356
849.708	0.0160518
849.786	0.0161804
849.864	0.0162379
849.942	0.0164481
850.021	0.0164608
850.099	0.0164279
850.177	0.0165234
850.255	0.0164049
850.333	0.0167934
850.411	0.0166622
850.489	0.0165305
850.567	0.0167616
850.646	0.0167934
850.724	0.0168130
850.802	0.0168573
850.880	0.0167975
850.958	0.0169515
851.036	0.0170145
851.114	0.0170534
851.192	0.0169862
851.271	0.0169279
851.349	0.0170021
851.427	0.0169297
851.505	0.0168610
851.583	0.0168432
851.661	0.0169649
851.739	0.0168863
851.817	0.0167752
851.896	0.0167378
851.974	0.0167600
852.052	0.0166770
852.130	0.0166649
852.208	0.0165070
852.286	0.0164577
852.364	0.0161996
852.442	0.0161475
852.521	0.0160838
852.599	0.0161686
852.677	0.0160625
852.755	0.0159917
852.833	0.0158783
852.911	0.0159996
852.989	0.0159439
853.067	0.0159486
853.146	0.0161370
853.224	0.0161040
853.302	0.0160473
853.380	0.0163517
853.458	0.0166102
853.536	0.0167123
853.614	0.0166003
853.692	0.0169873
853.771	0.0170770
853.849	0.0171427
853.927	0.0172597
854.005	0.0173243
854.083	0.0173096
854.161	0.0174273
854.239	0.0174561
854.317	0.0172675
854.396	0.0173809
854.474	0.0172885
854.552	0.0173118
854.630	0.0172073
854.708	0.0168874
854.786	0.0168342
854.864	0.0166314
854.942	0.0165247
855.021	0.0162437
855.099	0.0162112
855.177	0.0161495
855.255	0.0158918
855.333	0.0158389
855.411	0.0156288
855.489	0.0154566
855.567	0.0153867
855.646	0.0154090
855.724	0.0155573
855.802	0.0153665
855.880	0.0155235
855.958	0.0155135
856.036	0.0156612
856.114	0.0158579
856.192	0.0159146
856.271	0.0160278
856.349	0.0162609
856.427	0.0164173
856.505	0.0165091
856.583	0.0166792
856.661	0.0168500
856.739	0.0170442
856.817	0.0171185
856.896	0.0171862
856.974	0.0172538
857.052	0.0172167
857.130	0.0173245
857.208	0.0173734
857.286	0.0171777
857.364	0.0172568
857.442	0.0173931
857.521	0.0172385
857.599	0.0172742
857.677	0.0172810
857.755	0.0169989
857.833	0.0172083
857.911	0.0170868
857.989	0.0169929
858.067	0.0170733
858.146	0.0168759
858.224	0.0168926
858.302	0.0167446
858.380	0.0166160
858.458	0.0166113
858.536	0.0165276
858.614	0.0165384
858.692	0.0164045
858.771	0.0162708
858.849	0.0161978
858.927	0.0162260
859.005	0.0160949
859.083	0.0160887
859.161	0.0162522
859.239	0.0160693
859.317	0.0162930
859.396	0.0162160
859.474	0.0161274
859.552	0.0161472
859.630	0.0162833
859.708	0.0161536
859.786	0.0164365
859.864	0.0164840
859.942	0.0164780
860.021	0.0165380
860.099	0.0166509
860.177	0.0166818
860.255	0.0166302
860.333	0.0166248
860.411	0.0167619
860.489	0.0167481
860.567	0.0167979
860.646	0.0168391
860.724	0.0167896
860.802	0.0166946
860.880	0.0168328
860.958	0.0166807
861.036	0.0164462
861.114	0.0165361
861.192	0.0165900
861.271	0.0165491
861.349	0.0163467
861.427	0.0164508
861.505	0.0164352
861.583	0.0164928
861.661	0.0165335
861.739	0.0162386
861.817	0.0163149
861.896	0.0164278
861.974	0.0162701
862.052	0.0163979
862.130	0.0164778
862.208	0.0164620
862.286	0.0165645
862.364	0.0164893
862.442	0.0164600
862.521	0.0166854
862.599	0.0167229
862.677	0.0167542
862.755	0.0168641
862.833	0.0167614
862.911	0.0167827
862.989	0.0168847
863.067	0.0168892
863.146	0.0169360
863.224	0.0168353
863.302	0.0169900
863.380	0.0169547
863.458	0.0167362
863.536	0.0169327
863.614	0.0169012
863.692	0.0168633
863.771	0.0167779
863.849	0.0167277
863.927	0.0167442
864.005	0.0167802
864.083	0.0166046
864.161	0.0166417
864.239	0.0166131
864.317	0.0165464
864.396	0.0166535
864.474	0.0166474
864.552	0.0166483
864.630	0.0166747
864.708	0.0165987
864.786	0.0165311
864.864	0.0165779
864.942	0.0164664
865.021	0.0165273
865.099	0.0164470
865.177	0.0165011
865.255	0.0165765
865.333	0.0165324
865.411	0.0165494
865.489	0.0166698
865.567	0.0166366
865.646	0.0165484
865.724	0.0166660
865.802	0.0166117
865.880	0.0165896
865.958	0.0165649
866.036	0.0167517
866.114	0.0167258
866.192	0.0166650
866.271	0.0166778
866.349	0.0167366
866.427	0.0169373
866.505	0.0168206
866.583	0.0168964
866.661	0.0169023
866.739	0.0168650
866.817	0.0167602
866.896	0.0169305
866.974	0.0166577
867.052	0.0166760
867.130	0.0167134
867.208	0.0166132
867.286	0.0165257
867.364	0.0165398
867.442	0.0163007
867.521	0.0162981
867.599	0.0163264
867.677	0.0164273
867.755	0.0162789
867.833	0.0162128
867.911	0.0164120
867.989	0.0163265
868.067	0.0161877
868.146	0.0162559
868.224	0.0161303
868.302	0.0162684
868.380	0.0161658
868.458	0.0160294
868.536	0.0162103
868.614	0.0162369
868.692	0.0162198
868.771	0.0163869
868.849	0.0164060
868.927	0.0165512
869.005	0.0166722
869.083	0.0166995
869.161	0.0166857
869.239	0.0168679
869.317	0.0169016
869.396	0.0168848
869.474	0.0169762
869.552	0.0169192
869.630	0.0171596
869.708	0.0170837
869.786	0.0168782
869.864	0.0170023
869.942	0.0169399
