06/10/2022	16:17:27	Ver.	4.1	UNKNOWN
Optical Delay	599.995081	Delta X		0.078125	Sweeps	1	Scan Rate	0/0
Coordinates	Axis 1	NaN	Axis 2	NaN	Axis 3	NaN	Axis 4	NaN	Axis 5	NaN	Axis 6	0.000000
TX Power	0.000000	RX Power	0.000000

599.995	0.0164771
600.073	0.0165737
600.151	0.0164590
600.229	0.0164050
600.308	0.0165238
600.386	0.0165971
600.464	0.0164744
600.542	0.0163925
600.620	0.0163610
600.698	0.0165983
600.776	0.0165874
600.854	0.0165152
600.933	0.0164447
601.011	0.0164514
601.089	0.0165428
601.167	0.0165072
601.245	0.0164317
601.323	0.0164046
601.401	0.0164234
601.479	0.0165747
601.558	0.0164929
601.636	0.0164050
601.714	0.0165443
601.792	0.0165739
601.870	0.0164354
601.948	0.0165282
602.026	0.0164800
602.104	0.0165293
602.183	0.0163228
602.261	0.0164610
602.339	0.0163982
602.417	0.0165185
602.495	0.0163874
602.573	0.0166218
602.651	0.0164271
602.729	0.0164610
602.808	0.0165575
602.886	0.0164880
602.964	0.0165956
603.042	0.0165865
603.120	0.0164183
603.198	0.0164864
603.276	0.0164672
603.354	0.0164946
603.433	0.0165528
603.511	0.0164660
603.589	0.0165275
603.667	0.0165970
603.745	0.0163651
603.823	0.0163847
603.901	0.0164153
603.979	0.0165569
604.058	0.0164627
604.136	0.0164578
604.214	0.0163878
604.292	0.0165791
604.370	0.0164714
604.448	0.0164902
604.526	0.0165517
604.604	0.0165005
604.683	0.0163960
604.761	0.0165410
604.839	0.0164593
604.917	0.0164041
604.995	0.0164896
605.073	0.0163976
605.151	0.0165057
605.229	0.0165157
605.308	0.0164677
605.386	0.0164252
605.464	0.0166907
605.542	0.0164486
605.620	0.0163952
605.698	0.0165265
605.776	0.0164682
605.854	0.0165252
605.933	0.0165020
606.011	0.0165221
606.089	0.0164506
606.167	0.0164439
606.245	0.0164217
606.323	0.0166308
606.401	0.0165146
606.479	0.0164164
606.558	0.0166827
606.636	0.0164081
606.714	0.0164346
606.792	0.0165100
606.870	0.0164710
606.948	0.0163934
607.026	0.0164518
607.104	0.0164207
607.183	0.0164375
607.261	0.0165804
607.339	0.0165892
607.417	0.0163988
607.495	0.0165044
607.573	0.0165339
607.651	0.0163616
607.729	0.0164153
607.808	0.0165250
607.886	0.0163822
607.964	0.0163776
608.042	0.0164203
608.120	0.0165353
608.198	0.0164354
608.276	0.0164650
608.354	0.0164908
608.433	0.0165291
608.511	0.0164218
608.589	0.0165107
608.667	0.0163731
608.745	0.0164103
608.823	0.0164279
608.901	0.0165400
608.979	0.0164542
609.058	0.0163902
609.136	0.0165845
609.214	0.0164291
609.292	0.0164426
609.370	0.0165310
609.448	0.0165133
609.526	0.0165868
609.604	0.0163677
609.683	0.0164669
609.761	0.0165253
609.839	0.0164021
609.917	0.0164796
609.995	0.0165007
610.073	0.0164260
610.151	0.0165060
610.229	0.0164614
610.308	0.0165794
610.386	0.0164883
610.464	0.0165440
610.542	0.0164855
610.620	0.0164738
610.698	0.0163380
610.776	0.0164526
610.854	0.0165067
610.933	0.0165128
611.011	0.0164546
611.089	0.0164821
611.167	0.0165170
611.245	0.0164308
611.323	0.0166020
611.401	0.0164957
611.479	0.0163736
611.558	0.0166118
611.636	0.0166192
611.714	0.0165866
611.792	0.0165456
611.870	0.0164919
611.948	0.0164980
612.026	0.0165603
612.104	0.0164167
612.183	0.0164907
612.261	0.0165836
612.339	0.0165834
612.417	0.0164192
612.495	0.0165196
612.573	0.0165319
612.651	0.0164522
612.729	0.0165293
612.808	0.0164124
612.886	0.0165294
612.964	0.0164889
613.042	0.0163815
613.120	0.0165405
613.198	0.0165519
613.276	0.0163926
613.354	0.0164181
613.433	0.0165103
613.511	0.0164559
613.589	0.0166426
613.667	0.0165300
613.745	0.0164429
613.823	0.0165970
613.901	0.0164536
613.979	0.0165189
614.058	0.0164935
614.136	0.0165362
614.214	0.0164059
614.292	0.0165323
614.370	0.0165292
614.448	0.0164606
614.526	0.0164877
614.604	0.0165378
614.683	0.0165254
614.761	0.0165943
614.839	0.0166050
614.917	0.0165922
614.995	0.0164874
615.073	0.0164722
615.151	0.0163767
615.229	0.0165934
615.308	0.0165401
615.386	0.0165340
615.464	0.0164918
615.542	0.0165085
615.620	0.0164671
615.698	0.0165113
615.776	0.0163900
615.854	0.0165303
615.933	0.0165736
616.011	0.0163862
616.089	0.0165491
616.167	0.0164645
616.245	0.0164937
616.323	0.0165630
616.401	0.0164792
616.479	0.0163956
616.558	0.0164940
616.636	0.0165067
616.714	0.0165031
616.792	0.0164900
616.870	0.0165334
616.948	0.0164599
617.026	0.0163971
617.104	0.0164230
617.183	0.0165281
617.261	0.0165130
617.339	0.0165355
617.417	0.0164477
617.495	0.0166162
617.573	0.0165617
617.651	0.0164550
617.729	0.0165600
617.808	0.0164875
617.886	0.0165103
617.964	0.0164688
618.042	0.0166255
618.120	0.0165540
618.198	0.0163927
618.276	0.0164534
618.354	0.0165600
618.433	0.0166092
618.511	0.0164924
618.589	0.0164610
618.667	0.0165500
618.745	0.0165796
618.823	0.0166311
618.901	0.0164745
618.979	0.0165247
619.058	0.0165321
619.136	0.0163885
619.214	0.0165242
619.292	0.0164935
619.370	0.0164920
619.448	0.0164849
619.526	0.0164513
619.604	0.0164844
619.683	0.0165299
619.761	0.0165280
619.839	0.0165173
619.917	0.0164864
619.995	0.0165693
620.073	0.0165087
620.151	0.0165956
620.229	0.0163905
620.308	0.0164623
620.386	0.0163953
620.464	0.0164970
620.542	0.0166373
620.620	0.0165405
620.698	0.0165102
620.776	0.0164792
620.854	0.0165730
620.933	0.0165568
621.011	0.0164135
621.089	0.0164918
621.167	0.0166341
621.245	0.0162685
621.323	0.0164621
621.401	0.0164264
621.479	0.0165224
621.558	0.0164468
621.636	0.0166213
621.714	0.0164259
621.792	0.0164463
621.870	0.0164725
621.948	0.0164687
622.026	0.0163589
622.104	0.0164813
622.183	0.0165356
622.261	0.0165452
622.339	0.0166058
622.417	0.0164899
622.495	0.0164514
622.573	0.0164318
622.651	0.0164364
622.729	0.0164433
622.808	0.0165100
622.886	0.0163372
622.964	0.0162397
623.042	0.0165491
623.120	0.0164408
623.198	0.0163780
623.276	0.0164321
623.354	0.0165510
623.433	0.0165089
623.511	0.0165092
623.589	0.0164922
623.667	0.0164996
623.745	0.0164245
623.823	0.0165839
623.901	0.0164638
623.979	0.0164474
624.058	0.0164732
624.136	0.0165032
624.214	0.0165478
624.292	0.0165112
624.370	0.0164660
624.448	0.0164558
624.526	0.0164464
624.604	0.0164728
624.683	0.0164481
624.761	0.0165550
624.839	0.0163374
624.917	0.0164664
624.995	0.0164100
625.073	0.0166305
625.151	0.0166154
625.229	0.0165327
625.308	0.0164824
625.386	0.0165535
625.464	0.0165852
625.542	0.0164160
625.620	0.0164702
625.698	0.0164553
625.776	0.0164772
625.854	0.0165655
625.933	0.0164891
626.011	0.0164234
626.089	0.0163450
626.167	0.0164111
626.245	0.0163999
626.323	0.0166188
626.401	0.0164926
626.479	0.0165453
626.558	0.0166000
626.636	0.0164300
626.714	0.0165644
626.792	0.0165288
626.870	0.0164186
626.948	0.0164568
627.026	0.0165354
627.104	0.0164024
627.183	0.0164153
627.261	0.0165663
627.339	0.0163634
627.417	0.0165180
627.495	0.0164659
627.573	0.0164663
627.651	0.0166018
627.729	0.0164924
627.808	0.0162935
627.886	0.0163781
627.964	0.0164902
628.042	0.0165411
628.120	0.0164594
628.198	0.0164858
628.276	0.0164579
628.354	0.0163734
628.433	0.0163152
628.511	0.0164836
628.589	0.0165456
628.667	0.0165121
628.745	0.0164882
628.823	0.0164037
628.901	0.0163820
628.979	0.0164188
629.058	0.0164753
629.136	0.0163520
629.214	0.0164535
629.292	0.0164774
629.370	0.0165286
629.448	0.0164680
629.526	0.0164510
629.604	0.0164775
629.683	0.0165755
629.761	0.0163910
629.839	0.0164291
629.917	0.0164711
629.995	0.0164534
630.073	0.0163969
630.151	0.0165540
630.229	0.0164565
630.308	0.0163911
630.386	0.0163794
630.464	0.0163627
630.542	0.0164451
630.620	0.0164929
630.698	0.0165179
630.776	0.0165742
630.854	0.0164701
630.933	0.0165874
631.011	0.0164315
631.089	0.0164149
631.167	0.0163731
631.245	0.0165657
631.323	0.0164931
631.401	0.0164839
631.479	0.0164088
631.558	0.0164529
631.636	0.0164593
631.714	0.0164063
631.792	0.0164815
631.870	0.0165646
631.948	0.0164729
632.026	0.0164577
632.104	0.0164674
632.183	0.0164302
632.261	0.0165211
632.339	0.0164399
632.417	0.0165601
632.495	0.0164169
632.573	0.0165205
632.651	0.0164117
632.729	0.0164146
632.808	0.0165290
632.886	0.0164159
632.964	0.0164591
633.042	0.0163857
633.120	0.0164388
633.198	0.0164825
633.276	0.0164240
633.354	0.0165505
633.433	0.0165154
633.511	0.0165164
633.589	0.0165594
633.667	0.0165215
633.745	0.0165258
633.823	0.0164126
633.901	0.0164407
633.979	0.0164133
634.058	0.0164108
634.136	0.0163660
634.214	0.0165382
634.292	0.0165092
634.370	0.0164334
634.448	0.0164991
634.526	0.0164884
634.604	0.0164456
634.683	0.0163501
634.761	0.0164908
634.839	0.0165080
634.917	0.0164697
634.995	0.0165065
635.073	0.0164585
635.151	0.0164719
635.229	0.0164433
635.308	0.0165887
635.386	0.0165744
635.464	0.0164796
635.542	0.0163790
635.620	0.0165099
635.698	0.0165651
635.776	0.0165031
635.854	0.0164057
635.933	0.0164017
636.011	0.0165189
636.089	0.0165164
636.167	0.0163769
636.245	0.0166033
636.323	0.0166078
636.401	0.0165219
636.479	0.0165172
636.558	0.0164762
636.636	0.0164007
636.714	0.0164257
636.792	0.0165621
636.870	0.0165564
636.948	0.0164184
637.026	0.0164616
637.104	0.0165440
637.183	0.0164702
637.261	0.0164668
637.339	0.0165840
637.417	0.0165090
637.495	0.0164290
637.573	0.0165401
637.651	0.0165151
637.729	0.0165259
637.808	0.0165907
637.886	0.0165257
637.964	0.0165179
638.042	0.0165220
638.120	0.0166256
638.198	0.0165666
638.276	0.0164301
638.354	0.0164508
638.433	0.0164865
638.511	0.0166516
638.589	0.0164159
638.667	0.0164875
638.745	0.0165582
638.823	0.0165666
638.901	0.0165240
638.979	0.0165578
639.058	0.0165431
639.136	0.0166093
639.214	0.0165286
639.292	0.0165102
639.370	0.0164612
639.448	0.0164589
639.526	0.0165228
639.604	0.0165255
639.683	0.0166264
639.761	0.0164791
639.839	0.0166005
639.917	0.0164941
639.995	0.0165266
640.073	0.0164778
640.151	0.0165479
640.229	0.0164827
640.308	0.0165106
640.386	0.0164433
640.464	0.0164636
640.542	0.0165331
640.620	0.0166241
640.698	0.0164627
640.776	0.0165296
640.854	0.0165029
640.933	0.0164934
641.011	0.0165699
641.089	0.0165952
641.167	0.0165696
641.245	0.0166002
641.323	0.0164560
641.401	0.0165711
641.479	0.0165656
641.558	0.0166023
641.636	0.0164056
641.714	0.0165446
641.792	0.0165477
641.870	0.0164449
641.948	0.0164938
642.026	0.0165424
642.104	0.0165259
642.183	0.0164841
642.261	0.0164205
642.339	0.0165168
642.417	0.0166053
642.495	0.0165989
642.573	0.0165482
642.651	0.0164742
642.729	0.0163753
642.808	0.0164072
642.886	0.0165016
642.964	0.0165256
643.042	0.0165247
643.120	0.0166339
643.198	0.0165108
643.276	0.0163640
643.354	0.0164359
643.433	0.0164748
643.511	0.0164714
643.589	0.0165753
643.667	0.0163702
643.745	0.0165365
643.823	0.0163880
643.901	0.0163092
643.979	0.0164954
644.058	0.0165348
644.136	0.0165644
644.214	0.0164044
644.292	0.0162638
644.370	0.0165144
644.448	0.0165665
644.526	0.0164026
644.604	0.0165562
644.683	0.0164287
644.761	0.0165452
644.839	0.0164828
644.917	0.0163751
644.995	0.0164961
645.073	0.0164283
645.151	0.0165330
645.229	0.0164240
645.308	0.0164196
645.386	0.0164813
645.464	0.0165042
645.542	0.0165189
645.620	0.0165143
645.698	0.0165015
645.776	0.0165038
645.854	0.0163432
645.933	0.0165489
646.011	0.0165139
646.089	0.0165704
646.167	0.0165687
646.245	0.0164504
646.323	0.0165442
646.401	0.0165608
646.479	0.0163769
646.558	0.0164130
646.636	0.0163500
646.714	0.0164998
646.792	0.0165602
646.870	0.0165210
646.948	0.0164201
647.026	0.0164964
647.104	0.0166434
647.183	0.0164906
647.261	0.0164155
647.339	0.0165292
647.417	0.0166045
647.495	0.0165971
647.573	0.0164762
647.651	0.0164905
647.729	0.0165527
647.808	0.0164814
647.886	0.0164913
647.964	0.0164676
648.042	0.0164054
648.120	0.0165210
648.198	0.0164696
648.276	0.0164744
648.354	0.0165324
648.433	0.0165006
648.511	0.0164882
648.589	0.0164763
648.667	0.0164616
648.745	0.0163730
648.823	0.0164581
648.901	0.0163966
648.979	0.0165582
649.058	0.0165558
649.136	0.0164294
649.214	0.0165701
649.292	0.0164203
649.370	0.0163825
649.448	0.0165364
649.526	0.0163917
649.604	0.0165131
649.683	0.0166195
649.761	0.0165236
649.839	0.0165913
649.917	0.0165614
649.995	0.0163678
650.073	0.0164491
650.151	0.0164426
650.229	0.0163208
650.308	0.0164276
650.386	0.0165204
650.464	0.0163392
650.542	0.0163503
650.620	0.0166057
650.698	0.0165271
650.776	0.0164771
650.854	0.0165039
650.933	0.0164401
651.011	0.0165199
651.089	0.0164527
651.167	0.0164682
651.245	0.0163686
651.323	0.0165073
651.401	0.0165308
651.479	0.0164531
651.558	0.0164192
651.636	0.0164215
651.714	0.0165648
651.792	0.0164758
651.870	0.0164847
651.948	0.0163873
652.026	0.0164692
652.104	0.0164180
652.183	0.0165323
652.261	0.0165484
652.339	0.0164925
652.417	0.0163625
652.495	0.0164475
652.573	0.0165993
652.651	0.0164979
652.729	0.0164891
652.808	0.0165479
652.886	0.0163958
652.964	0.0164117
653.042	0.0166125
653.120	0.0165520
653.198	0.0164636
653.276	0.0165111
653.354	0.0164558
653.433	0.0164445
653.511	0.0163825
653.589	0.0165927
653.667	0.0164400
653.745	0.0163816
653.823	0.0164974
653.901	0.0165269
653.979	0.0165601
654.058	0.0164825
654.136	0.0165063
654.214	0.0166274
654.292	0.0163391
654.370	0.0163926
654.448	0.0165929
654.526	0.0165415
654.604	0.0164125
654.683	0.0164970
654.761	0.0164880
654.839	0.0165596
654.917	0.0165250
654.995	0.0165145
655.073	0.0164890
655.151	0.0164671
655.229	0.0164989
655.308	0.0165620
655.386	0.0165118
655.464	0.0166183
655.542	0.0163549
655.620	0.0164376
655.698	0.0164026
655.776	0.0165023
655.854	0.0164783
655.933	0.0164611
656.011	0.0165940
656.089	0.0164470
656.167	0.0164002
656.245	0.0165033
656.323	0.0165239
656.401	0.0165046
656.479	0.0165003
656.558	0.0165968
656.636	0.0165281
656.714	0.0164943
656.792	0.0164265
656.870	0.0164814
656.948	0.0165497
657.026	0.0165431
657.104	0.0164128
657.183	0.0163968
657.261	0.0166090
657.339	0.0164909
657.417	0.0164512
657.495	0.0164174
657.573	0.0164735
657.651	0.0164411
657.729	0.0164147
657.808	0.0164871
657.886	0.0165141
657.964	0.0165620
658.042	0.0165121
658.120	0.0164978
658.198	0.0164042
658.276	0.0164404
658.354	0.0165623
658.433	0.0164346
658.511	0.0165581
658.589	0.0164997
658.667	0.0165791
658.745	0.0165231
658.823	0.0164165
658.901	0.0164547
658.979	0.0164209
659.058	0.0164998
659.136	0.0164777
659.214	0.0164270
659.292	0.0164425
659.370	0.0165213
659.448	0.0164445
659.526	0.0164915
659.604	0.0165861
659.683	0.0164544
659.761	0.0165978
659.839	0.0164686
659.917	0.0164898
659.995	0.0164900
660.073	0.0164857
660.151	0.0165379
660.229	0.0163948
660.308	0.0165550
660.386	0.0165800
660.464	0.0165356
660.542	0.0162745
660.620	0.0164713
660.698	0.0164706
660.776	0.0165126
660.854	0.0164928
660.933	0.0165834
661.011	0.0164335
661.089	0.0164650
661.167	0.0165611
661.245	0.0165188
661.323	0.0165792
661.401	0.0164775
661.479	0.0163781
661.558	0.0164727
661.636	0.0165074
661.714	0.0165051
661.792	0.0165671
661.870	0.0166830
661.948	0.0164748
662.026	0.0163795
662.104	0.0164819
662.183	0.0165440
662.261	0.0164937
662.339	0.0164887
662.417	0.0165646
662.495	0.0164971
662.573	0.0165719
662.651	0.0165189
662.729	0.0165714
662.808	0.0164285
662.886	0.0165008
662.964	0.0163908
663.042	0.0165338
663.120	0.0165102
663.198	0.0164908
663.276	0.0165200
663.354	0.0165303
663.433	0.0165001
663.511	0.0163786
663.589	0.0164230
663.667	0.0166276
663.745	0.0166202
663.823	0.0165099
663.901	0.0164721
663.979	0.0163437
664.058	0.0165007
664.136	0.0165055
664.214	0.0164809
664.292	0.0165574
664.370	0.0164990
664.448	0.0165379
664.526	0.0164765
664.604	0.0164543
664.683	0.0164874
664.761	0.0165503
664.839	0.0164378
664.917	0.0163956
664.995	0.0165290
665.073	0.0165331
665.151	0.0164169
665.229	0.0165124
665.308	0.0165216
665.386	0.0164912
665.464	0.0165170
665.542	0.0165550
665.620	0.0164954
665.698	0.0165171
665.776	0.0165718
665.854	0.0164816
665.933	0.0163585
666.011	0.0165594
666.089	0.0165663
666.167	0.0165670
666.245	0.0164678
666.323	0.0165910
666.401	0.0165385
666.479	0.0164139
666.558	0.0165140
666.636	0.0165601
666.714	0.0165133
666.792	0.0164680
666.870	0.0166087
666.948	0.0164222
667.026	0.0163982
667.104	0.0165639
667.183	0.0165401
667.261	0.0164832
667.339	0.0163998
667.417	0.0166163
667.495	0.0165962
667.573	0.0165310
667.651	0.0164688
667.729	0.0164546
667.808	0.0166383
667.886	0.0165388
667.964	0.0164908
668.042	0.0163611
668.120	0.0164873
668.198	0.0166054
668.276	0.0165144
668.354	0.0165466
668.433	0.0164499
668.511	0.0165575
668.589	0.0165453
668.667	0.0164813
668.745	0.0165569
668.823	0.0164623
668.901	0.0165670
668.979	0.0165943
669.058	0.0165617
669.136	0.0164713
669.214	0.0164500
669.292	0.0165344
669.370	0.0164725
669.448	0.0165086
669.526	0.0164709
669.604	0.0164829
669.683	0.0166204
669.761	0.0164725
669.839	0.0165999
669.917	0.0166048
669.995	0.0166177
670.073	0.0164634
670.151	0.0165128
670.229	0.0165778
670.308	0.0164478
670.386	0.0164783
670.464	0.0163868
670.542	0.0165868
670.620	0.0165144
670.698	0.0163545
670.776	0.0164967
670.854	0.0165572
670.933	0.0165545
671.011	0.0164629
671.089	0.0166402
671.167	0.0165356
671.245	0.0165070
671.323	0.0163676
671.401	0.0165124
671.479	0.0163809
671.558	0.0165117
671.636	0.0164928
671.714	0.0164709
671.792	0.0163039
671.870	0.0165171
671.948	0.0164845
672.026	0.0166379
672.104	0.0165756
672.183	0.0162956
672.261	0.0164730
672.339	0.0164334
672.417	0.0165531
672.495	0.0165159
672.573	0.0164033
672.651	0.0164724
672.729	0.0164373
672.808	0.0166725
672.886	0.0166437
672.964	0.0165210
673.042	0.0165963
673.120	0.0164749
673.198	0.0164804
673.276	0.0165656
673.354	0.0164172
673.433	0.0164938
673.511	0.0165585
673.589	0.0165813
673.667	0.0164706
673.745	0.0165151
673.823	0.0164703
673.901	0.0165244
673.979	0.0165353
674.058	0.0165435
674.136	0.0165215
674.214	0.0165598
674.292	0.0165169
674.370	0.0164714
674.448	0.0164658
674.526	0.0165228
674.604	0.0164491
674.683	0.0164970
674.761	0.0164799
674.839	0.0165201
674.917	0.0165945
674.995	0.0164342
675.073	0.0164701
675.151	0.0164483
675.229	0.0164558
675.308	0.0165301
675.386	0.0165369
675.464	0.0165240
675.542	0.0165486
675.620	0.0165114
675.698	0.0164722
675.776	0.0165190
675.854	0.0165144
675.933	0.0164107
676.011	0.0165816
676.089	0.0165591
676.167	0.0165685
676.245	0.0165698
676.323	0.0162951
676.401	0.0164878
676.479	0.0163908
676.558	0.0165394
676.636	0.0164494
676.714	0.0166273
676.792	0.0165801
676.870	0.0163775
676.948	0.0164929
677.026	0.0164899
677.104	0.0164942
677.183	0.0165065
677.261	0.0165372
677.339	0.0163757
677.417	0.0164973
677.495	0.0164739
677.573	0.0165211
677.651	0.0164625
677.729	0.0165479
677.808	0.0164589
677.886	0.0164039
677.964	0.0164980
678.042	0.0165481
678.120	0.0164234
678.198	0.0165456
678.276	0.0164504
678.354	0.0164592
678.433	0.0165451
678.511	0.0164445
678.589	0.0165697
678.667	0.0164783
678.745	0.0165283
678.823	0.0165993
678.901	0.0164113
678.979	0.0164989
679.058	0.0165767
679.136	0.0165891
679.214	0.0165726
679.292	0.0165530
679.370	0.0165758
679.448	0.0164774
679.526	0.0165073
679.604	0.0165871
679.683	0.0164426
679.761	0.0164503
679.839	0.0165361
679.917	0.0165737
679.995	0.0165474
680.073	0.0165614
680.151	0.0165119
680.229	0.0164998
680.308	0.0165761
680.386	0.0165893
680.464	0.0163408
680.542	0.0164727
680.620	0.0165396
680.698	0.0165101
680.776	0.0165974
680.854	0.0165431
680.933	0.0165176
681.011	0.0163808
681.089	0.0164336
681.167	0.0165788
681.245	0.0164764
681.323	0.0165039
681.401	0.0164496
681.479	0.0165708
681.558	0.0164537
681.636	0.0163490
681.714	0.0165253
681.792	0.0165453
681.870	0.0164333
681.948	0.0164265
682.026	0.0164687
682.104	0.0165987
682.183	0.0165676
682.261	0.0164515
682.339	0.0164613
682.417	0.0165134
682.495	0.0165788
682.573	0.0164815
682.651	0.0163942
682.729	0.0164153
682.808	0.0165641
682.886	0.0165923
682.964	0.0165523
683.042	0.0165202
683.120	0.0165065
683.198	0.0166280
683.276	0.0165041
683.354	0.0165884
683.433	0.0165505
683.511	0.0164928
683.589	0.0165916
683.667	0.0164926
683.745	0.0165222
683.823	0.0165982
683.901	0.0165826
683.979	0.0165536
684.058	0.0164801
684.136	0.0165028
684.214	0.0165197
684.292	0.0164957
684.370	0.0165440
684.448	0.0164250
684.526	0.0165536
684.604	0.0164890
684.683	0.0163855
684.761	0.0165589
684.839	0.0164980
684.917	0.0164750
684.995	0.0164973
685.073	0.0165140
685.151	0.0164977
685.229	0.0166496
685.308	0.0165247
685.386	0.0164285
685.464	0.0166195
685.542	0.0165710
685.620	0.0165657
685.698	0.0165198
685.776	0.0165600
685.854	0.0164491
685.933	0.0165285
686.011	0.0165570
686.089	0.0163982
686.167	0.0164575
686.245	0.0167545
686.323	0.0165047
686.401	0.0164192
686.479	0.0166734
686.558	0.0166327
686.636	0.0163789
686.714	0.0164427
686.792	0.0165244
686.870	0.0165548
686.948	0.0164173
687.026	0.0164769
687.104	0.0165727
687.183	0.0165442
687.261	0.0165507
687.339	0.0165223
687.417	0.0164532
687.495	0.0165723
687.573	0.0165103
687.651	0.0164716
687.729	0.0164481
687.808	0.0164383
687.886	0.0166388
687.964	0.0164804
688.042	0.0165910
688.120	0.0164229
688.198	0.0165712
688.276	0.0164796
688.354	0.0164983
688.433	0.0164290
688.511	0.0163656
688.589	0.0165598
688.667	0.0165071
688.745	0.0165199
688.823	0.0165170
688.901	0.0164537
688.979	0.0164657
689.058	0.0166296
689.136	0.0165411
689.214	0.0164805
689.292	0.0165391
689.370	0.0165240
689.448	0.0165766
689.526	0.0165270
689.604	0.0165334
689.683	0.0164384
689.761	0.0164790
689.839	0.0165707
689.917	0.0165398
689.995	0.0165958
690.073	0.0165176
690.151	0.0166177
690.229	0.0164560
690.308	0.0165158
690.386	0.0164926
690.464	0.0163538
690.542	0.0165837
690.620	0.0165525
690.698	0.0165106
690.776	0.0165141
690.854	0.0166032
690.933	0.0165075
691.011	0.0166503
691.089	0.0164399
691.167	0.0164847
691.245	0.0165373
691.323	0.0164974
691.401	0.0164070
691.479	0.0165022
691.558	0.0165427
691.636	0.0165395
691.714	0.0164180
691.792	0.0165630
691.870	0.0165222
691.948	0.0163987
692.026	0.0165854
692.104	0.0165891
692.183	0.0165677
692.261	0.0165331
692.339	0.0165376
692.417	0.0166113
692.495	0.0164722
692.573	0.0165414
692.651	0.0166236
692.729	0.0165647
692.808	0.0166750
692.886	0.0165355
692.964	0.0164626
693.042	0.0165269
693.120	0.0164966
693.198	0.0165481
693.276	0.0166573
693.354	0.0165370
693.433	0.0163832
693.511	0.0165660
693.589	0.0165098
693.667	0.0166492
693.745	0.0164951
693.823	0.0164745
693.901	0.0163808
693.979	0.0164958
694.058	0.0165154
694.136	0.0165520
694.214	0.0165030
694.292	0.0164686
694.370	0.0166291
694.448	0.0164382
694.526	0.0165230
694.604	0.0165710
694.683	0.0165002
694.761	0.0165913
694.839	0.0164014
694.917	0.0165352
694.995	0.0165249
695.073	0.0164285
695.151	0.0165016
695.229	0.0164810
695.308	0.0164615
695.386	0.0165693
695.464	0.0165031
695.542	0.0166324
695.620	0.0165108
695.698	0.0165669
695.776	0.0165374
695.854	0.0165416
695.933	0.0165411
696.011	0.0165994
696.089	0.0164332
696.167	0.0164831
696.245	0.0164940
696.323	0.0164894
696.401	0.0165961
696.479	0.0166265
696.558	0.0165340
696.636	0.0165486
696.714	0.0165495
696.792	0.0166514
696.870	0.0165505
696.948	0.0163860
697.026	0.0164291
697.104	0.0164635
697.183	0.0165605
697.261	0.0164662
697.339	0.0166244
697.417	0.0166118
697.495	0.0164140
697.573	0.0165683
697.651	0.0165690
697.729	0.0165559
697.808	0.0165049
697.886	0.0165081
697.964	0.0165014
698.042	0.0164935
698.120	0.0164191
698.198	0.0166164
698.276	0.0164719
698.354	0.0164339
698.433	0.0165212
698.511	0.0165026
698.589	0.0165119
698.667	0.0164019
698.745	0.0165888
698.823	0.0165360
698.901	0.0164220
698.979	0.0166655
699.058	0.0165091
699.136	0.0165774
699.214	0.0164526
699.292	0.0165093
699.370	0.0164648
699.448	0.0165852
699.526	0.0166575
699.604	0.0165749
699.683	0.0165304
699.761	0.0165189
699.839	0.0165177
699.917	0.0165168
699.995	0.0164806
700.073	0.0164407
700.151	0.0165273
700.229	0.0165070
700.308	0.0164999
700.386	0.0163969
700.464	0.0165939
700.542	0.0164471
700.620	0.0166679
700.698	0.0165302
700.776	0.0163831
700.854	0.0165027
700.933	0.0164736
701.011	0.0165059
701.089	0.0165197
701.167	0.0164540
701.245	0.0164099
701.323	0.0164946
701.401	0.0165054
701.479	0.0164772
701.558	0.0165513
701.636	0.0163623
701.714	0.0164299
701.792	0.0164930
701.870	0.0165683
701.948	0.0164874
702.026	0.0166492
702.104	0.0165862
702.183	0.0165691
702.261	0.0164671
702.339	0.0164046
702.417	0.0165615
702.495	0.0166361
702.573	0.0165127
702.651	0.0164918
702.729	0.0164829
702.808	0.0166012
702.886	0.0165061
702.964	0.0165530
703.042	0.0165585
703.120	0.0165337
703.198	0.0165633
703.276	0.0166322
703.354	0.0164508
703.433	0.0164852
703.511	0.0166532
703.589	0.0164429
703.667	0.0164837
703.745	0.0165317
703.823	0.0164408
703.901	0.0165586
703.979	0.0164395
704.058	0.0163627
704.136	0.0164655
704.214	0.0165749
704.292	0.0164918
704.370	0.0164870
704.448	0.0164360
704.526	0.0165263
704.604	0.0165451
704.683	0.0165498
704.761	0.0165048
704.839	0.0164602
704.917	0.0165427
704.995	0.0163954
705.073	0.0164655
705.151	0.0164699
705.229	0.0166193
705.308	0.0164478
705.386	0.0164480
705.464	0.0164787
705.542	0.0164896
705.620	0.0165214
705.698	0.0164836
705.776	0.0164998
705.854	0.0164070
705.933	0.0164873
706.011	0.0165887
706.089	0.0164672
706.167	0.0165611
706.245	0.0165223
706.323	0.0165451
706.401	0.0165559
706.479	0.0165257
706.558	0.0163929
706.636	0.0164899
706.714	0.0165775
706.792	0.0164031
706.870	0.0163715
706.948	0.0164745
707.026	0.0165022
707.104	0.0165442
707.183	0.0164669
707.261	0.0165080
707.339	0.0165099
707.417	0.0164802
707.495	0.0165778
707.573	0.0164780
707.651	0.0164902
707.729	0.0165276
707.808	0.0165562
707.886	0.0165948
707.964	0.0164643
708.042	0.0164968
708.120	0.0165276
708.198	0.0164513
708.276	0.0165048
708.354	0.0165612
708.433	0.0164237
708.511	0.0165160
708.589	0.0164851
708.667	0.0164687
708.745	0.0164461
708.823	0.0164961
708.901	0.0164388
708.979	0.0165498
709.058	0.0165040
709.136	0.0164124
709.214	0.0165630
709.292	0.0164899
709.370	0.0165201
709.448	0.0166673
709.526	0.0164729
709.604	0.0165162
709.683	0.0165881
709.761	0.0165914
709.839	0.0164172
709.917	0.0164662
709.995	0.0165784
710.073	0.0164852
710.151	0.0164370
710.229	0.0165114
710.308	0.0164403
710.386	0.0165569
710.464	0.0163963
710.542	0.0164599
710.620	0.0164977
710.698	0.0164886
710.776	0.0164413
710.854	0.0165234
710.933	0.0165990
711.011	0.0166603
711.089	0.0163734
711.167	0.0163223
711.245	0.0164876
711.323	0.0164204
711.401	0.0165157
711.479	0.0164935
711.558	0.0164388
711.636	0.0164832
711.714	0.0164342
711.792	0.0165460
711.870	0.0164411
711.948	0.0165023
712.026	0.0166276
712.104	0.0163827
712.183	0.0163150
712.261	0.0164716
712.339	0.0164897
712.417	0.0163085
712.495	0.0164790
712.573	0.0165192
712.651	0.0164295
712.729	0.0164959
712.808	0.0164966
712.886	0.0164857
712.964	0.0164349
713.042	0.0165147
713.120	0.0165215
713.198	0.0164649
713.276	0.0163662
713.354	0.0166242
713.433	0.0165998
713.511	0.0165910
713.589	0.0164337
713.667	0.0164611
713.745	0.0165586
713.823	0.0164959
713.901	0.0164576
713.979	0.0164472
714.058	0.0164649
714.136	0.0165222
714.214	0.0164986
714.292	0.0164279
714.370	0.0164149
714.448	0.0164172
714.526	0.0165829
714.604	0.0165403
714.683	0.0164818
714.761	0.0164816
714.839	0.0166024
714.917	0.0165620
714.995	0.0164339
715.073	0.0164315
715.151	0.0165640
715.229	0.0163973
715.308	0.0164268
715.386	0.0165578
715.464	0.0166084
715.542	0.0164750
715.620	0.0164552
715.698	0.0164973
715.776	0.0165120
715.854	0.0163963
715.933	0.0164219
716.011	0.0164568
716.089	0.0165925
716.167	0.0163995
716.245	0.0164802
716.323	0.0163681
716.401	0.0163820
716.479	0.0165854
716.558	0.0165340
716.636	0.0164332
716.714	0.0163425
716.792	0.0164239
716.870	0.0164461
716.948	0.0164388
717.026	0.0165086
717.104	0.0165584
717.183	0.0163802
717.261	0.0165217
717.339	0.0165805
717.417	0.0165075
717.495	0.0164170
717.573	0.0164841
717.651	0.0164974
717.729	0.0163580
717.808	0.0164434
717.886	0.0166080
717.964	0.0165152
718.042	0.0166084
718.120	0.0163786
718.198	0.0165647
718.276	0.0164994
718.354	0.0164077
718.433	0.0165223
718.511	0.0163103
718.589	0.0166351
718.667	0.0165149
718.745	0.0165481
718.823	0.0164640
718.901	0.0163043
718.979	0.0164595
719.058	0.0165730
719.136	0.0164336
719.214	0.0166263
719.292	0.0167124
719.370	0.0165836
719.448	0.0163110
719.526	0.0164114
719.604	0.0164538
719.683	0.0164490
719.761	0.0164033
719.839	0.0162923
719.917	0.0163813
719.995	0.0164231
720.073	0.0165549
720.151	0.0165966
720.229	0.0163635
720.308	0.0164975
720.386	0.0165016
720.464	0.0163805
720.542	0.0164775
720.620	0.0164788
720.698	0.0166065
720.776	0.0164809
720.854	0.0164651
720.933	0.0165182
721.011	0.0164721
721.089	0.0163936
721.167	0.0164778
721.245	0.0165097
721.323	0.0164999
721.401	0.0164415
721.479	0.0164705
721.558	0.0164364
721.636	0.0165261
721.714	0.0167514
721.792	0.0165608
721.870	0.0164603
721.948	0.0165721
722.026	0.0165899
722.104	0.0164443
722.183	0.0166412
722.261	0.0165274
722.339	0.0163794
722.417	0.0165279
722.495	0.0165503
722.573	0.0165022
722.651	0.0164977
722.729	0.0163846
722.808	0.0164866
722.886	0.0165770
722.964	0.0164397
723.042	0.0164870
723.120	0.0165614
723.198	0.0165092
723.276	0.0166073
723.354	0.0165314
723.433	0.0164603
723.511	0.0165636
723.589	0.0165413
723.667	0.0165602
723.745	0.0164518
723.823	0.0166159
723.901	0.0164758
723.979	0.0164188
724.058	0.0164918
724.136	0.0165304
724.214	0.0164631
724.292	0.0164540
724.370	0.0165715
724.448	0.0164793
724.526	0.0164722
724.604	0.0164619
724.683	0.0164983
724.761	0.0165730
724.839	0.0165219
724.917	0.0165116
724.995	0.0165464
725.073	0.0165090
725.151	0.0164281
725.229	0.0166318
725.308	0.0166833
725.386	0.0165244
725.464	0.0165514
725.542	0.0165389
725.620	0.0164976
725.698	0.0165708
725.776	0.0164515
725.854	0.0163940
725.933	0.0166146
726.011	0.0165659
726.089	0.0164667
726.167	0.0164937
726.245	0.0164945
726.323	0.0165307
726.401	0.0167508
726.479	0.0165759
726.558	0.0163845
726.636	0.0165674
726.714	0.0164017
726.792	0.0164265
726.870	0.0164895
726.948	0.0165948
727.026	0.0164931
727.104	0.0165279
727.183	0.0165229
727.261	0.0164272
727.339	0.0165010
727.417	0.0164687
727.495	0.0164512
727.573	0.0166876
727.651	0.0165311
727.729	0.0164542
727.808	0.0166161
727.886	0.0165958
727.964	0.0166216
728.042	0.0165444
728.120	0.0164720
728.198	0.0166407
728.276	0.0165158
728.354	0.0166039
728.433	0.0165482
728.511	0.0165736
728.589	0.0165607
728.667	0.0165347
728.745	0.0166099
728.823	0.0164969
728.901	0.0164962
728.979	0.0165684
729.058	0.0164912
729.136	0.0165693
729.214	0.0165261
729.292	0.0165444
729.370	0.0164935
729.448	0.0164748
729.526	0.0165941
729.604	0.0166303
729.683	0.0165992
729.761	0.0164917
729.839	0.0165182
729.917	0.0164062
729.995	0.0164867
730.073	0.0165363
730.151	0.0166940
730.229	0.0167426
730.308	0.0165231
730.386	0.0165771
730.464	0.0165714
730.542	0.0165569
730.620	0.0165408
730.698	0.0165220
730.776	0.0165634
730.854	0.0164297
730.933	0.0166543
731.011	0.0164957
731.089	0.0165686
731.167	0.0165933
731.245	0.0165201
731.323	0.0165705
731.401	0.0165280
731.479	0.0165497
731.558	0.0164138
731.636	0.0165301
731.714	0.0165337
731.792	0.0164330
731.870	0.0164565
731.948	0.0165618
732.026	0.0165264
732.104	0.0164787
732.183	0.0165999
732.261	0.0165349
732.339	0.0165504
732.417	0.0165442
732.495	0.0164511
732.573	0.0166059
732.651	0.0165450
732.729	0.0164280
732.808	0.0165259
732.886	0.0165411
732.964	0.0164265
733.042	0.0165356
733.120	0.0164944
733.198	0.0165475
733.276	0.0165643
733.354	0.0165341
733.433	0.0165383
733.511	0.0166093
733.589	0.0165653
733.667	0.0166153
733.745	0.0164222
733.823	0.0166080
733.901	0.0165626
733.979	0.0164469
734.058	0.0164085
734.136	0.0164001
734.214	0.0164118
734.292	0.0165396
734.370	0.0164797
734.448	0.0166197
734.526	0.0164845
734.604	0.0164401
734.683	0.0165121
734.761	0.0164573
734.839	0.0164849
734.917	0.0164247
734.995	0.0164407
735.073	0.0164231
735.151	0.0164314
735.229	0.0165311
735.308	0.0165139
735.386	0.0165305
735.464	0.0164703
735.542	0.0164415
735.620	0.0164699
735.698	0.0164543
735.776	0.0165883
735.854	0.0164754
735.933	0.0165464
736.011	0.0165471
736.089	0.0163777
736.167	0.0164816
736.245	0.0164686
736.323	0.0165100
736.401	0.0164262
736.479	0.0164964
736.558	0.0165221
736.636	0.0165285
736.714	0.0163625
736.792	0.0165170
736.870	0.0165414
736.948	0.0165427
737.026	0.0164582
737.104	0.0164014
737.183	0.0166511
737.261	0.0166194
737.339	0.0163534
737.417	0.0165062
737.495	0.0164257
737.573	0.0164153
737.651	0.0163683
737.729	0.0164162
737.808	0.0165041
737.886	0.0165273
737.964	0.0164001
738.042	0.0163956
738.120	0.0164503
738.198	0.0164500
738.276	0.0162811
738.354	0.0163456
738.433	0.0164340
738.511	0.0165115
738.589	0.0163945
738.667	0.0164063
738.745	0.0165458
738.823	0.0163952
738.901	0.0163716
738.979	0.0164391
739.058	0.0165619
739.136	0.0164510
739.214	0.0162600
739.292	0.0164349
739.370	0.0164198
739.448	0.0164280
739.526	0.0164625
739.604	0.0164082
739.683	0.0163821
739.761	0.0164406
739.839	0.0163335
739.917	0.0163239
739.995	0.0164611
740.073	0.0164149
740.151	0.0164985
740.229	0.0164421
740.308	0.0165189
740.386	0.0164330
740.464	0.0163895
740.542	0.0165488
740.620	0.0165292
740.698	0.0165724
740.776	0.0166153
740.854	0.0165352
740.933	0.0166550
741.011	0.0166763
741.089	0.0166923
741.167	0.0164644
741.245	0.0164495
741.323	0.0165335
741.401	0.0164236
741.479	0.0165244
741.558	0.0164183
741.636	0.0163734
741.714	0.0161640
741.792	0.0160038
741.870	0.0162873
741.948	0.0160851
742.026	0.0159727
742.104	0.0161171
742.183	0.0161170
742.261	0.0162771
742.339	0.0164527
742.417	0.0166573
742.495	0.0170085
742.573	0.0170873
742.651	0.0170769
742.729	0.0173532
742.808	0.0172800
742.886	0.0172422
742.964	0.0172598
743.042	0.0172208
743.120	0.0168837
743.198	0.0169341
743.276	0.0167314
743.354	0.0164110
743.433	0.0161799
743.511	0.0159629
743.589	0.0156905
743.667	0.0155086
743.745	0.0153188
743.823	0.0151599
743.901	0.0150532
743.979	0.0149728
744.058	0.0148861
744.136	0.0151388
744.214	0.0154419
744.292	0.0159557
744.370	0.0162457
744.448	0.0169654
744.526	0.0175599
744.604	0.0182576
744.683	0.0185869
744.761	0.0187753
744.839	0.0189165
744.917	0.0185123
744.995	0.0180827
745.073	0.0174774
745.151	0.0169028
745.229	0.0164131
745.308	0.0160639
745.386	0.0155699
745.464	0.0156209
745.542	0.0154372
745.620	0.0154652
745.698	0.0155023
745.776	0.0158392
745.854	0.0159277
745.933	0.0160925
746.011	0.0160047
746.089	0.0159452
746.167	0.0157862
746.245	0.0155653
746.323	0.0151534
746.401	0.0149686
746.479	0.0150597
746.558	0.0150580
746.636	0.0155353
746.714	0.0160442
746.792	0.0167630
746.870	0.0174467
746.948	0.0182285
747.026	0.0187288
747.104	0.0190977
747.183	0.0193537
747.261	0.0189025
747.339	0.0186076
747.417	0.0179472
747.495	0.0174854
747.573	0.0166280
747.651	0.0159705
747.729	0.0155363
747.808	0.0154267
747.886	0.0151452
747.964	0.0150372
748.042	0.0150476
748.120	0.0149656
748.198	0.0150985
748.276	0.0154358
748.354	0.0154930
748.433	0.0154995
748.511	0.0154874
748.589	0.0155670
748.667	0.0157237
748.745	0.0159712
748.823	0.0159731
748.901	0.0162212
748.979	0.0165720
749.058	0.0167689
749.136	0.0170482
749.214	0.0172716
749.292	0.0178014
749.370	0.0178756
749.448	0.0182790
749.526	0.0184611
749.604	0.0187202
749.683	0.0185986
749.761	0.0182875
749.839	0.0180791
749.917	0.0174280
749.995	0.0165714
750.073	0.0159668
750.151	0.0156503
750.229	0.0150291
750.308	0.0148919
750.386	0.0149819
750.464	0.0150996
750.542	0.0152967
750.620	0.0154109
750.698	0.0158369
750.776	0.0162711
750.854	0.0163255
750.933	0.0166335
751.011	0.0167532
751.089	0.0167235
751.167	0.0167835
751.245	0.0165139
751.323	0.0164683
751.401	0.0162971
751.479	0.0163731
751.558	0.0161496
751.636	0.0160716
751.714	0.0160812
751.792	0.0160416
751.870	0.0162291
751.948	0.0162156
752.026	0.0163989
752.104	0.0167289
752.183	0.0167986
752.261	0.0170130
752.339	0.0172244
752.417	0.0172802
752.495	0.0172572
752.573	0.0171711
752.651	0.0172994
752.729	0.0173240
752.808	0.0172491
752.886	0.0172434
752.964	0.0171884
753.042	0.0173290
753.120	0.0173867
753.198	0.0174435
753.276	0.0173583
753.354	0.0174134
753.433	0.0173469
753.511	0.0174468
753.589	0.0173874
753.667	0.0170036
753.745	0.0166120
753.823	0.0161965
753.901	0.0157680
753.979	0.0153196
754.058	0.0148434
754.136	0.0145634
754.214	0.0142750
754.292	0.0140763
754.370	0.0140397
754.448	0.0140994
754.526	0.0140242
754.604	0.0144283
754.683	0.0148541
754.761	0.0149955
754.839	0.0152652
754.917	0.0158022
754.995	0.0162915
755.073	0.0169025
755.151	0.0173449
755.229	0.0178224
755.308	0.0182741
755.386	0.0186043
755.464	0.0188156
755.542	0.0190658
755.620	0.0192459
755.698	0.0194417
755.776	0.0193742
755.854	0.0192152
755.933	0.0190573
756.011	0.0190390
756.089	0.0188099
756.167	0.0186214
756.245	0.0184822
756.323	0.0181635
756.401	0.0178471
756.479	0.0175100
756.558	0.0169669
756.636	0.0165514
756.714	0.0157159
756.792	0.0150505
756.870	0.0144688
756.948	0.0138939
757.026	0.0135767
757.104	0.0132845
757.183	0.0130679
757.261	0.0129422
757.339	0.0130221
757.417	0.0131930
757.495	0.0136012
757.573	0.0139248
757.651	0.0142314
757.729	0.0147398
757.808	0.0150610
757.886	0.0154832
757.964	0.0156966
758.042	0.0161035
758.120	0.0162568
758.198	0.0164421
758.276	0.0167632
758.354	0.0168894
758.433	0.0172502
758.511	0.0176376
758.589	0.0180264
758.667	0.0184431
758.745	0.0188348
758.823	0.0192210
758.901	0.0196645
758.979	0.0200018
759.058	0.0203445
759.136	0.0204005
759.214	0.0205384
759.292	0.0205156
759.370	0.0205357
759.448	0.0202666
759.526	0.0198342
759.604	0.0192919
759.683	0.0186932
759.761	0.0181333
759.839	0.0174422
759.917	0.0165394
759.995	0.0155720
760.073	0.0148508
760.151	0.0139152
760.229	0.0132215
760.308	0.0126254
760.386	0.0121582
760.464	0.0115685
760.542	0.0114972
760.620	0.0114375
760.698	0.0114391
760.776	0.0116605
760.854	0.0120010
760.933	0.0125212
761.011	0.0130589
761.089	0.0134626
761.167	0.0140321
761.245	0.0146260
761.323	0.0150136
761.401	0.0153378
761.479	0.0158562
761.558	0.0162129
761.636	0.0165617
761.714	0.0168626
761.792	0.0174751
761.870	0.0180222
761.948	0.0186195
762.026	0.0193588
762.104	0.0199284
762.183	0.0204951
762.261	0.0210013
762.339	0.0214479
762.417	0.0219122
762.495	0.0220379
762.573	0.0221532
762.651	0.0220300
762.729	0.0217492
762.808	0.0213332
762.886	0.0207993
762.964	0.0201978
763.042	0.0193092
763.120	0.0185374
763.198	0.0175749
763.276	0.0163819
763.354	0.0156166
763.433	0.0146297
763.511	0.0136811
763.589	0.0129121
763.667	0.0121432
763.745	0.0118208
763.823	0.0113249
763.901	0.0111444
763.979	0.0106509
764.058	0.0108548
764.136	0.0110848
764.214	0.0114159
764.292	0.0118594
764.370	0.0125981
764.448	0.0133511
764.526	0.0142989
764.604	0.0151760
764.683	0.0158833
764.761	0.0165974
764.839	0.0171068
764.917	0.0175718
764.995	0.0178107
765.073	0.0179280
765.151	0.0181010
765.229	0.0179754
765.308	0.0180774
765.386	0.0180975
765.464	0.0180208
765.542	0.0180334
765.620	0.0179881
765.698	0.0179456
765.776	0.0180082
765.854	0.0180173
765.933	0.0179993
766.011	0.0178962
766.089	0.0179239
766.167	0.0181061
766.245	0.0181717
766.323	0.0181706
766.401	0.0182487
766.479	0.0183563
766.558	0.0183361
766.636	0.0183381
766.714	0.0181207
766.792	0.0178709
766.870	0.0175238
766.948	0.0170470
767.026	0.0165788
767.104	0.0161527
767.183	0.0159409
767.261	0.0156085
767.339	0.0152797
767.417	0.0151039
767.495	0.0148895
767.573	0.0148310
767.651	0.0148324
767.729	0.0149422
767.808	0.0149071
767.886	0.0152376
767.964	0.0154394
768.042	0.0158218
768.120	0.0160970
768.198	0.0162940
768.276	0.0165328
768.354	0.0166247
768.433	0.0168717
768.511	0.0169804
768.589	0.0168036
768.667	0.0166058
768.745	0.0165346
768.823	0.0162786
768.901	0.0161160
768.979	0.0160645
769.058	0.0158295
769.136	0.0156264
769.214	0.0156342
769.292	0.0154021
769.370	0.0153751
769.448	0.0152616
769.526	0.0152597
769.604	0.0152393
769.683	0.0153212
769.761	0.0155666
769.839	0.0155388
769.917	0.0155849
769.995	0.0157698
770.073	0.0160501
770.151	0.0162091
770.229	0.0164998
770.308	0.0162905
770.386	0.0164515
770.464	0.0167086
770.542	0.0166306
770.620	0.0169832
770.698	0.0170451
770.776	0.0171692
770.854	0.0173457
770.933	0.0175484
771.011	0.0176354
771.089	0.0177293
771.167	0.0180376
771.245	0.0179714
771.323	0.0181495
771.401	0.0184217
771.479	0.0186094
771.558	0.0187579
771.636	0.0188235
771.714	0.0188502
771.792	0.0188087
771.870	0.0187894
771.948	0.0186665
772.026	0.0183812
772.104	0.0182531
772.183	0.0180884
772.261	0.0175027
772.339	0.0171953
772.417	0.0166505
772.495	0.0161281
772.573	0.0156380
772.651	0.0150033
772.729	0.0144968
772.808	0.0139085
772.886	0.0135778
772.964	0.0132193
773.042	0.0128466
773.120	0.0127660
773.198	0.0124777
773.276	0.0124435
773.354	0.0127237
773.433	0.0127557
773.511	0.0131571
773.589	0.0134615
773.667	0.0140430
773.745	0.0145229
773.823	0.0151693
773.901	0.0157643
773.979	0.0163914
774.058	0.0169196
774.136	0.0174671
774.214	0.0179755
774.292	0.0182620
774.370	0.0188023
774.448	0.0189243
774.526	0.0190642
774.604	0.0191736
774.683	0.0193745
774.761	0.0192902
774.839	0.0190875
774.917	0.0188888
774.995	0.0187121
775.073	0.0185104
775.151	0.0181952
775.229	0.0178797
775.308	0.0175693
775.386	0.0173434
775.464	0.0170426
775.542	0.0168963
775.620	0.0168625
775.698	0.0165745
775.776	0.0164597
775.854	0.0162929
775.933	0.0163447
776.011	0.0160979
776.089	0.0160184
776.167	0.0162534
776.245	0.0161098
776.323	0.0158638
776.401	0.0158579
776.479	0.0159338
776.558	0.0159471
776.636	0.0160741
776.714	0.0159896
776.792	0.0159198
776.870	0.0158591
776.948	0.0157368
777.026	0.0156580
777.104	0.0155666
777.183	0.0155596
777.261	0.0154038
777.339	0.0153912
777.417	0.0154855
777.495	0.0153333
777.573	0.0152898
777.651	0.0153680
777.729	0.0155933
777.808	0.0156173
777.886	0.0156999
777.964	0.0158319
778.042	0.0160634
778.120	0.0161256
778.198	0.0163853
778.276	0.0167467
778.354	0.0168484
778.433	0.0171529
778.511	0.0173870
778.589	0.0174650
778.667	0.0176952
778.745	0.0177322
778.823	0.0180522
778.901	0.0181721
778.979	0.0181648
779.058	0.0183853
779.136	0.0184283
779.214	0.0184085
779.292	0.0183074
779.370	0.0183533
779.448	0.0181483
779.526	0.0178913
779.604	0.0174911
779.683	0.0172033
779.761	0.0166988
779.839	0.0163602
779.917	0.0160172
779.995	0.0154854
780.073	0.0151933
780.151	0.0148045
780.229	0.0144820
780.308	0.0142128
780.386	0.0140244
780.464	0.0137480
780.542	0.0138982
780.620	0.0140831
780.698	0.0141980
780.776	0.0142725
780.854	0.0147756
780.933	0.0150681
781.011	0.0155367
781.089	0.0159392
781.167	0.0164547
781.245	0.0168899
781.323	0.0174846
781.401	0.0179289
781.479	0.0184435
781.558	0.0186941
781.636	0.0187746
781.714	0.0191160
781.792	0.0191727
781.870	0.0191050
781.948	0.0190450
782.026	0.0190191
782.104	0.0188739
782.183	0.0185451
782.261	0.0184335
782.339	0.0181307
782.417	0.0177306
782.495	0.0175259
782.573	0.0171622
782.651	0.0168092
782.729	0.0166298
782.808	0.0163166
782.886	0.0161256
782.964	0.0157236
783.042	0.0156572
783.120	0.0155389
783.198	0.0154631
783.276	0.0153212
783.354	0.0150825
783.433	0.0151982
783.511	0.0150697
783.589	0.0150748
783.667	0.0151092
783.745	0.0151435
783.823	0.0150038
783.901	0.0151355
783.979	0.0150996
784.058	0.0150874
784.136	0.0152184
784.214	0.0153408
784.292	0.0154472
784.370	0.0155322
784.448	0.0156590
784.526	0.0156857
784.604	0.0158236
784.683	0.0160616
784.761	0.0161419
784.839	0.0163602
784.917	0.0165115
784.995	0.0165221
785.073	0.0166829
785.151	0.0170708
785.229	0.0171285
785.308	0.0171254
785.386	0.0172861
785.464	0.0175366
785.542	0.0175485
785.620	0.0178005
785.698	0.0178944
785.776	0.0180199
785.854	0.0182179
785.933	0.0183054
786.011	0.0182835
786.089	0.0183068
786.167	0.0183429
786.245	0.0181446
786.323	0.0180472
786.401	0.0179378
786.479	0.0177695
786.558	0.0174001
786.636	0.0172999
786.714	0.0168682
786.792	0.0166914
786.870	0.0164468
786.948	0.0160539
787.026	0.0158929
787.104	0.0154124
787.183	0.0150844
787.261	0.0151579
787.339	0.0150389
787.417	0.0149894
787.495	0.0149027
787.573	0.0149196
787.651	0.0149799
787.729	0.0148838
787.808	0.0147903
787.886	0.0149667
787.964	0.0149997
788.042	0.0150648
788.120	0.0152625
788.198	0.0154208
788.276	0.0156386
788.354	0.0157262
788.433	0.0160066
788.511	0.0163581
788.589	0.0164495
788.667	0.0167368
788.745	0.0172530
788.823	0.0173984
788.901	0.0176037
788.979	0.0178173
789.058	0.0178587
789.136	0.0179896
789.214	0.0181432
789.292	0.0180671
789.370	0.0180706
789.448	0.0180518
789.526	0.0178596
789.604	0.0175881
789.683	0.0176170
789.761	0.0172158
789.839	0.0169566
789.917	0.0166898
789.995	0.0164123
790.073	0.0162804
790.151	0.0161580
790.229	0.0158106
790.308	0.0157955
790.386	0.0155785
790.464	0.0154874
790.542	0.0153236
790.620	0.0153236
790.698	0.0153918
790.776	0.0152930
790.854	0.0153571
790.933	0.0154365
791.011	0.0153922
791.089	0.0156011
791.167	0.0155977
791.245	0.0158341
791.323	0.0160220
791.401	0.0161888
791.479	0.0163505
791.558	0.0164548
791.636	0.0166928
791.714	0.0166728
791.792	0.0168655
791.870	0.0168370
791.948	0.0168615
792.026	0.0168517
792.104	0.0170380
792.183	0.0169677
792.261	0.0169820
792.339	0.0169910
792.417	0.0170532
792.495	0.0171981
792.573	0.0171892
792.651	0.0172781
792.729	0.0172726
792.808	0.0172379
792.886	0.0173482
792.964	0.0173050
793.042	0.0172019
793.120	0.0171424
793.198	0.0172604
793.276	0.0172707
793.354	0.0170094
793.433	0.0169218
793.511	0.0169801
793.589	0.0167828
793.667	0.0168673
793.745	0.0167428
793.823	0.0166135
793.901	0.0165866
793.979	0.0164377
794.058	0.0164851
794.136	0.0163296
794.214	0.0163519
794.292	0.0163013
794.370	0.0159238
794.448	0.0160840
794.526	0.0158761
794.604	0.0157277
794.683	0.0156817
794.761	0.0157774
794.839	0.0156325
794.917	0.0156225
794.995	0.0155006
795.073	0.0155659
795.151	0.0154746
795.229	0.0155259
795.308	0.0155051
795.386	0.0156175
795.464	0.0157082
795.542	0.0158340
795.620	0.0159884
795.698	0.0160857
795.776	0.0162596
795.854	0.0164394
795.933	0.0166592
796.011	0.0165580
796.089	0.0167175
796.167	0.0168802
796.245	0.0169585
796.323	0.0170426
796.401	0.0170411
796.479	0.0170903
796.558	0.0170097
796.636	0.0170786
796.714	0.0170443
796.792	0.0171680
796.870	0.0169988
796.948	0.0171252
797.026	0.0171458
797.104	0.0169530
797.183	0.0168616
797.261	0.0168480
797.339	0.0169490
797.417	0.0168755
797.495	0.0168449
797.573	0.0168094
797.651	0.0168256
797.729	0.0168038
797.808	0.0167910
797.886	0.0167146
797.964	0.0166599
798.042	0.0167210
798.120	0.0166127
798.198	0.0166525
798.276	0.0164967
798.354	0.0162939
798.433	0.0162701
798.511	0.0161934
798.589	0.0159776
798.667	0.0158926
798.745	0.0158384
798.823	0.0158642
798.901	0.0157446
798.979	0.0157310
799.058	0.0157398
799.136	0.0157610
799.214	0.0158192
799.292	0.0159872
799.370	0.0161349
799.448	0.0161552
799.526	0.0163432
799.604	0.0163419
799.683	0.0165540
799.761	0.0167346
799.839	0.0166809
799.917	0.0166813
799.995	0.0166838
800.073	0.0166508
800.151	0.0165998
800.229	0.0166560
800.308	0.0167820
800.386	0.0167407
800.464	0.0167469
800.542	0.0165455
800.620	0.0166373
800.698	0.0165945
800.776	0.0166042
800.854	0.0165128
800.933	0.0165752
801.011	0.0166338
801.089	0.0166703
801.167	0.0166120
801.245	0.0165803
801.323	0.0166446
801.401	0.0166969
801.479	0.0166232
801.558	0.0165685
801.636	0.0164258
801.714	0.0164757
801.792	0.0163760
801.870	0.0162788
801.948	0.0162424
802.026	0.0162007
802.104	0.0161270
802.183	0.0161908
802.261	0.0159958
802.339	0.0160571
802.417	0.0160743
802.495	0.0158792
802.573	0.0160383
802.651	0.0160661
802.729	0.0159647
802.808	0.0161694
802.886	0.0162442
802.964	0.0162470
803.042	0.0164422
803.120	0.0164433
803.198	0.0166693
803.276	0.0167477
803.354	0.0167526
803.433	0.0168739
803.511	0.0170204
803.589	0.0170741
803.667	0.0171387
803.745	0.0171107
803.823	0.0170661
803.901	0.0170956
803.979	0.0170352
804.058	0.0171149
804.136	0.0168658
804.214	0.0167477
804.292	0.0166448
804.370	0.0165632
804.448	0.0164791
804.526	0.0165266
804.604	0.0164568
804.683	0.0167064
804.761	0.0165318
804.839	0.0163850
804.917	0.0165076
804.995	0.0166628
805.073	0.0166257
805.151	0.0167422
805.229	0.0166080
805.308	0.0165508
805.386	0.0165657
805.464	0.0167496
805.542	0.0165938
805.620	0.0166245
805.698	0.0166441
805.776	0.0165965
805.854	0.0165230
805.933	0.0165760
806.011	0.0165120
806.089	0.0165388
806.167	0.0164130
806.245	0.0163465
806.323	0.0163621
806.401	0.0164696
806.479	0.0161674
806.558	0.0163114
806.636	0.0162548
806.714	0.0161419
806.792	0.0160516
806.870	0.0160783
806.948	0.0161770
807.026	0.0162089
807.104	0.0162123
807.183	0.0160936
807.261	0.0161320
807.339	0.0162770
807.417	0.0161766
807.495	0.0160995
807.573	0.0162196
807.651	0.0163686
807.729	0.0163551
807.808	0.0161966
807.886	0.0160831
807.964	0.0162991
808.042	0.0162404
808.120	0.0164048
808.198	0.0163559
808.276	0.0164444
808.354	0.0164938
808.433	0.0166431
808.511	0.0168066
808.589	0.0169102
808.667	0.0169373
808.745	0.0170631
808.823	0.0171137
808.901	0.0171426
808.979	0.0172668
809.058	0.0173399
809.136	0.0174596
809.214	0.0174685
809.292	0.0173763
809.370	0.0172736
809.448	0.0173120
809.526	0.0172392
809.604	0.0171658
809.683	0.0171334
809.761	0.0171167
809.839	0.0169136
809.917	0.0168234
809.995	0.0166039
810.073	0.0165372
810.151	0.0164024
810.229	0.0162225
810.308	0.0160686
810.386	0.0161589
810.464	0.0159919
810.542	0.0159160
810.620	0.0156960
810.698	0.0157645
810.776	0.0157845
810.854	0.0157528
810.933	0.0158272
811.011	0.0160285
811.089	0.0159715
811.167	0.0161532
811.245	0.0163367
811.323	0.0164838
811.401	0.0164384
811.479	0.0164249
811.558	0.0167316
811.636	0.0167551
811.714	0.0168243
811.792	0.0169136
811.870	0.0169770
811.948	0.0169812
812.026	0.0168430
812.104	0.0170302
812.183	0.0167390
812.261	0.0165249
812.339	0.0167190
812.417	0.0166557
812.495	0.0165662
812.573	0.0164019
812.651	0.0164212
812.729	0.0162920
812.808	0.0160603
812.886	0.0160805
812.964	0.0161085
813.042	0.0160376
813.120	0.0159989
813.198	0.0160933
813.276	0.0161593
813.354	0.0162727
813.433	0.0162568
813.511	0.0162942
813.589	0.0162904
813.667	0.0163263
813.745	0.0163483
813.823	0.0164126
813.901	0.0163996
813.979	0.0164795
814.058	0.0164066
814.136	0.0163203
814.214	0.0164652
814.292	0.0164503
814.370	0.0164446
814.448	0.0163728
814.526	0.0162560
814.604	0.0162378
814.683	0.0163195
814.761	0.0161966
814.839	0.0163620
814.917	0.0163037
814.995	0.0163737
815.073	0.0165298
815.151	0.0164783
815.229	0.0166885
815.308	0.0167410
815.386	0.0168742
815.464	0.0167915
815.542	0.0171046
815.620	0.0171627
815.698	0.0170773
815.776	0.0171100
815.854	0.0171446
815.933	0.0171081
816.011	0.0169067
816.089	0.0170539
816.167	0.0170247
816.245	0.0170683
816.323	0.0168681
816.401	0.0168824
816.479	0.0168441
816.558	0.0168553
816.636	0.0167857
816.714	0.0167384
816.792	0.0167179
816.870	0.0168881
816.948	0.0168300
817.026	0.0166069
817.104	0.0168262
817.183	0.0166915
817.261	0.0166247
817.339	0.0167618
817.417	0.0166490
817.495	0.0166322
817.573	0.0165285
817.651	0.0164705
817.729	0.0164110
817.808	0.0162458
817.886	0.0162589
817.964	0.0160793
818.042	0.0159798
818.120	0.0159189
818.198	0.0156850
818.276	0.0156750
818.354	0.0156089
818.433	0.0154607
818.511	0.0153439
818.589	0.0153321
818.667	0.0153774
818.745	0.0153979
818.823	0.0152769
818.901	0.0154848
818.979	0.0154450
819.058	0.0156786
819.136	0.0158726
819.214	0.0161158
819.292	0.0161662
819.370	0.0164151
819.448	0.0165382
819.526	0.0167086
819.604	0.0168192
819.683	0.0169530
819.761	0.0170054
819.839	0.0170384
819.917	0.0171133
819.995	0.0171300
820.073	0.0170835
820.151	0.0170265
820.229	0.0169434
820.308	0.0169345
820.386	0.0168559
820.464	0.0167733
820.542	0.0168005
820.620	0.0168651
820.698	0.0168282
820.776	0.0168053
820.854	0.0168611
820.933	0.0169731
821.011	0.0168818
821.089	0.0168992
821.167	0.0170294
821.245	0.0169960
821.323	0.0170776
821.401	0.0170612
821.479	0.0170065
821.558	0.0168776
821.636	0.0168690
821.714	0.0169034
821.792	0.0167326
821.870	0.0168638
821.948	0.0167757
822.026	0.0166196
822.104	0.0163869
822.183	0.0163642
822.261	0.0162061
822.339	0.0161662
822.417	0.0161724
822.495	0.0158482
822.573	0.0159409
822.651	0.0160090
822.729	0.0159041
822.808	0.0158582
822.886	0.0158462
822.964	0.0160236
823.042	0.0160434
823.120	0.0161642
823.198	0.0163535
823.276	0.0162165
823.354	0.0163609
823.433	0.0163252
823.511	0.0166150
823.589	0.0166669
823.667	0.0166357
823.745	0.0166299
823.823	0.0168088
823.901	0.0166603
823.979	0.0168292
824.058	0.0167734
824.136	0.0168369
824.214	0.0168575
824.292	0.0167184
824.370	0.0168042
824.448	0.0168315
824.526	0.0168086
824.604	0.0168343
824.683	0.0166894
824.761	0.0166969
824.839	0.0166015
824.917	0.0165117
824.995	0.0163273
825.073	0.0163060
825.151	0.0162325
825.229	0.0162688
825.308	0.0160480
825.386	0.0161037
825.464	0.0161001
825.542	0.0159808
825.620	0.0160615
825.698	0.0158957
825.776	0.0159045
825.854	0.0160510
825.933	0.0160934
826.011	0.0161041
826.089	0.0162921
826.167	0.0160905
826.245	0.0161410
826.323	0.0162313
826.401	0.0163556
826.479	0.0162749
826.558	0.0163400
826.636	0.0163493
826.714	0.0162329
826.792	0.0163905
826.870	0.0163634
826.948	0.0165298
827.026	0.0165729
827.104	0.0164482
827.183	0.0165937
827.261	0.0168005
827.339	0.0168185
827.417	0.0169352
827.495	0.0169865
827.573	0.0170035
827.651	0.0170990
827.729	0.0169717
827.808	0.0169858
827.886	0.0171181
827.964	0.0171061
828.042	0.0172285
828.120	0.0170752
828.198	0.0170417
828.276	0.0169379
828.354	0.0170287
828.433	0.0169014
828.511	0.0167663
828.589	0.0167303
828.667	0.0164767
828.745	0.0166129
828.823	0.0164204
828.901	0.0163137
828.979	0.0163031
829.058	0.0161354
829.136	0.0161247
829.214	0.0160025
829.292	0.0159243
829.370	0.0159880
829.448	0.0161420
829.526	0.0160532
829.604	0.0160548
829.683	0.0162422
829.761	0.0161299
829.839	0.0161935
829.917	0.0163486
829.995	0.0162580
830.073	0.0162689
830.151	0.0163673
830.229	0.0164455
830.308	0.0164446
830.386	0.0163210
830.464	0.0163205
830.542	0.0161920
830.620	0.0161375
830.698	0.0162035
830.776	0.0161429
830.854	0.0159534
830.933	0.0160326
831.011	0.0158936
831.089	0.0158691
831.167	0.0160235
831.245	0.0161134
831.323	0.0163950
831.401	0.0163250
831.479	0.0162588
831.558	0.0164793
831.636	0.0165465
831.714	0.0166067
831.792	0.0166525
831.870	0.0167574
831.948	0.0168393
832.026	0.0169160
832.104	0.0169498
832.183	0.0167956
832.261	0.0168488
832.339	0.0169347
832.417	0.0169822
832.495	0.0170344
832.573	0.0169670
832.651	0.0169424
832.729	0.0168116
832.808	0.0166610
832.886	0.0165440
832.964	0.0165888
833.042	0.0164753
833.120	0.0164349
833.198	0.0164404
833.276	0.0164034
833.354	0.0162267
833.433	0.0162918
833.511	0.0162376
833.589	0.0162379
833.667	0.0162980
833.745	0.0163172
833.823	0.0164294
833.901	0.0164713
833.979	0.0164816
834.058	0.0165293
834.136	0.0165434
834.214	0.0164704
834.292	0.0166486
834.370	0.0167387
834.448	0.0164907
834.526	0.0165833
834.604	0.0164352
834.683	0.0164799
834.761	0.0165144
834.839	0.0165446
834.917	0.0163826
834.995	0.0163335
835.073	0.0163369
835.151	0.0162390
835.229	0.0162306
835.308	0.0161792
835.386	0.0164394
835.464	0.0163051
835.542	0.0162827
835.620	0.0162767
835.698	0.0163336
835.776	0.0162125
835.854	0.0162708
835.933	0.0163818
836.011	0.0163348
836.089	0.0163567
836.167	0.0164999
836.245	0.0165255
836.323	0.0165055
836.401	0.0165575
836.479	0.0166261
836.558	0.0165030
836.636	0.0165958
836.714	0.0166531
836.792	0.0165477
836.870	0.0167538
836.948	0.0166743
837.026	0.0165372
837.104	0.0165868
837.183	0.0165839
837.261	0.0163724
837.339	0.0163214
837.417	0.0161996
837.495	0.0163309
837.573	0.0162893
837.651	0.0162515
837.729	0.0160118
837.808	0.0160423
837.886	0.0161503
837.964	0.0162053
838.042	0.0161850
838.120	0.0161974
838.198	0.0163542
838.276	0.0164332
838.354	0.0165160
838.433	0.0163575
838.511	0.0166078
838.589	0.0166661
838.667	0.0166824
838.745	0.0167768
838.823	0.0168078
838.901	0.0168413
838.979	0.0170748
839.058	0.0169466
839.136	0.0168279
839.214	0.0168536
839.292	0.0170146
839.370	0.0167122
839.448	0.0168250
839.526	0.0168262
839.604	0.0167815
839.683	0.0167427
839.761	0.0165557
839.839	0.0165937
839.917	0.0164486
839.995	0.0164516
840.073	0.0165131
840.151	0.0167280
840.229	0.0166330
840.308	0.0166356
840.386	0.0166953
840.464	0.0167467
840.542	0.0167287
840.620	0.0169624
840.698	0.0169402
840.776	0.0169798
840.854	0.0171141
840.933	0.0169630
841.011	0.0169161
841.089	0.0167953
841.167	0.0166895
841.245	0.0166365
841.323	0.0166890
841.401	0.0165752
841.479	0.0165092
841.558	0.0162385
841.636	0.0162824
841.714	0.0160802
841.792	0.0160419
841.870	0.0160316
841.948	0.0160261
842.026	0.0158994
842.104	0.0159294
842.183	0.0158826
842.261	0.0160741
842.339	0.0159768
842.417	0.0162070
842.495	0.0162357
842.573	0.0162033
842.651	0.0162534
842.729	0.0164747
842.808	0.0164229
842.886	0.0166413
842.964	0.0165878
843.042	0.0167520
843.120	0.0165913
843.198	0.0165774
843.276	0.0166143
843.354	0.0165579
843.433	0.0163198
843.511	0.0163432
843.589	0.0162231
843.667	0.0162527
843.745	0.0161533
843.823	0.0161028
843.901	0.0160180
843.979	0.0159292
844.058	0.0160388
844.136	0.0160912
844.214	0.0160575
844.292	0.0162959
844.370	0.0163496
844.448	0.0164856
844.526	0.0166048
844.604	0.0166367
844.683	0.0169277
844.761	0.0169019
844.839	0.0170373
844.917	0.0171272
844.995	0.0171231
845.073	0.0170683
845.151	0.0171439
845.229	0.0170918
845.308	0.0170737
845.386	0.0167502
845.464	0.0168074
845.542	0.0168550
845.620	0.0167826
845.698	0.0166589
845.776	0.0164730
845.854	0.0164855
845.933	0.0163033
846.011	0.0162982
846.089	0.0162441
846.167	0.0161819
846.245	0.0161457
846.323	0.0161771
846.401	0.0161756
846.479	0.0162211
846.558	0.0161795
846.636	0.0163664
846.714	0.0164381
846.792	0.0164463
846.870	0.0163757
846.948	0.0165479
847.026	0.0166417
847.104	0.0166688
847.183	0.0165887
847.261	0.0165870
847.339	0.0167136
847.417	0.0166067
847.495	0.0165736
847.573	0.0166708
847.651	0.0164958
847.729	0.0164069
847.808	0.0165322
847.886	0.0163857
847.964	0.0164339
848.042	0.0164314
848.120	0.0164061
848.198	0.0165059
848.276	0.0163477
848.354	0.0163265
848.433	0.0163470
848.511	0.0162766
848.589	0.0163543
848.667	0.0162136
848.745	0.0162683
848.823	0.0162291
848.901	0.0163086
848.979	0.0165087
849.058	0.0164275
849.136	0.0165253
849.214	0.0165463
849.292	0.0166153
849.370	0.0166655
849.448	0.0167252
849.526	0.0167027
849.604	0.0167241
849.683	0.0167475
849.761	0.0168659
849.839	0.0167513
849.917	0.0168673
849.995	0.0165751
850.073	0.0164828
850.151	0.0166463
850.229	0.0165118
850.308	0.0163155
850.386	0.0164023
850.464	0.0162134
850.542	0.0162469
850.620	0.0162968
850.698	0.0163144
850.776	0.0163741
850.854	0.0161702
850.933	0.0161938
851.011	0.0163104
851.089	0.0163692
851.167	0.0163499
851.245	0.0163266
851.323	0.0164172
851.401	0.0163274
851.479	0.0164281
851.558	0.0166488
851.636	0.0164161
851.714	0.0165084
851.792	0.0165804
851.870	0.0165295
851.948	0.0167211
852.026	0.0167097
852.104	0.0165051
852.183	0.0166290
852.261	0.0168114
852.339	0.0166303
852.417	0.0166712
852.495	0.0167503
852.573	0.0167172
852.651	0.0167841
852.729	0.0167448
852.808	0.0167530
852.886	0.0166871
852.964	0.0168136
853.042	0.0168564
853.120	0.0167693
853.198	0.0165884
853.276	0.0165258
853.354	0.0165497
853.433	0.0163714
853.511	0.0163223
853.589	0.0163663
853.667	0.0163566
853.745	0.0162183
853.823	0.0159404
853.901	0.0160633
853.979	0.0158945
854.058	0.0159660
854.136	0.0158842
854.214	0.0159319
854.292	0.0159821
854.370	0.0160085
854.448	0.0160440
854.526	0.0161572
854.604	0.0162120
854.683	0.0161918
854.761	0.0163459
854.839	0.0165189
854.917	0.0165266
854.995	0.0166420
855.073	0.0167946
855.151	0.0168578
855.229	0.0168681
855.308	0.0170370
855.386	0.0170654
855.464	0.0170896
855.542	0.0173367
855.620	0.0172433
855.698	0.0173667
855.776	0.0172902
855.854	0.0171089
855.933	0.0171312
856.011	0.0171115
856.089	0.0169965
856.167	0.0168914
856.245	0.0167872
856.323	0.0166072
856.401	0.0163940
856.479	0.0163004
856.558	0.0162578
856.636	0.0161230
856.714	0.0158930
856.792	0.0159880
856.870	0.0158704
856.948	0.0157929
857.026	0.0158318
857.104	0.0157726
857.183	0.0157352
857.261	0.0157143
857.339	0.0158369
857.417	0.0159147
857.495	0.0157528
857.573	0.0159292
857.651	0.0159966
857.729	0.0160128
857.808	0.0159747
857.886	0.0161330
857.964	0.0160707
858.042	0.0161248
858.120	0.0163856
858.198	0.0162289
858.276	0.0162872
858.354	0.0165191
858.433	0.0166533
858.511	0.0167342
858.589	0.0166983
858.667	0.0167927
858.745	0.0167966
858.823	0.0170401
858.901	0.0171167
858.979	0.0170087
859.058	0.0170100
859.136	0.0173009
859.214	0.0171303
859.292	0.0172749
859.370	0.0172344
859.448	0.0171140
859.526	0.0170946
859.604	0.0171498
859.683	0.0171232
859.761	0.0171539
859.839	0.0170855
859.917	0.0168384
859.995	0.0168899
860.073	0.0167300
860.151	0.0165047
860.229	0.0166317
860.308	0.0164629
860.386	0.0162415
860.464	0.0163797
860.542	0.0161990
860.620	0.0161391
860.698	0.0161697
860.776	0.0162451
860.854	0.0159420
860.933	0.0161552
861.011	0.0160112
861.089	0.0159516
861.167	0.0159870
861.245	0.0160942
861.323	0.0160696
861.401	0.0161345
861.479	0.0160725
861.558	0.0162524
861.636	0.0163153
861.714	0.0163364
861.792	0.0164925
861.870	0.0165739
861.948	0.0165771
862.026	0.0164989
862.104	0.0165273
862.183	0.0165979
862.261	0.0166629
862.339	0.0166785
862.417	0.0166366
862.495	0.0167140
862.573	0.0166334
862.651	0.0167007
862.729	0.0165276
862.808	0.0164886
862.886	0.0167796
862.964	0.0166174
863.042	0.0167363
863.120	0.0166865
863.198	0.0166714
863.276	0.0167445
863.354	0.0166782
863.433	0.0167422
863.511	0.0167767
863.589	0.0167331
863.667	0.0169138
863.745	0.0168762
863.823	0.0168800
863.901	0.0168209
863.979	0.0168531
864.058	0.0168330
864.136	0.0168199
864.214	0.0167817
864.292	0.0165920
864.370	0.0166171
864.448	0.0165839
864.526	0.0165469
864.604	0.0165117
864.683	0.0165310
864.761	0.0164793
864.839	0.0164627
864.917	0.0162612
864.995	0.0162865
865.073	0.0161883
865.151	0.0161079
865.229	0.0161105
865.308	0.0161835
865.386	0.0161553
865.464	0.0162321
865.542	0.0161804
865.620	0.0162328
865.698	0.0162377
865.776	0.0161775
865.854	0.0162682
865.933	0.0162093
866.011	0.0162312
866.089	0.0162857
866.167	0.0164665
866.245	0.0165031
866.323	0.0166376
866.401	0.0163540
866.479	0.0164549
866.558	0.0165241
866.636	0.0165598
866.714	0.0166857
866.792	0.0165908
866.870	0.0165788
866.948	0.0166917
867.026	0.0165997
867.104	0.0166616
867.183	0.0167095
867.261	0.0167999
867.339	0.0169003
867.417	0.0166354
867.495	0.0167921
867.573	0.0168562
867.651	0.0168306
867.729	0.0166985
867.808	0.0168572
867.886	0.0168726
867.964	0.0169620
868.042	0.0167543
868.120	0.0168663
868.198	0.0168929
868.276	0.0169498
868.354	0.0168546
868.433	0.0170138
868.511	0.0169222
868.589	0.0169047
868.667	0.0168224
868.745	0.0167428
868.823	0.0166671
868.901	0.0167749
868.979	0.0164559
869.058	0.0163815
869.136	0.0162862
869.214	0.0163467
869.292	0.0161264
869.370	0.0159631
869.448	0.0157963
869.526	0.0157391
869.604	0.0157053
869.683	0.0157405
869.761	0.0156915
869.839	0.0156406
869.917	0.0156794
869.995	0.0157292
870.073	0.0157270
870.151	0.0159447
870.229	0.0159579
870.308	0.0160280
870.386	0.0161372
870.464	0.0160995
870.542	0.0162447
870.620	0.0163078
870.698	0.0163762
870.776	0.0165392
870.854	0.0165183
870.933	0.0166051
871.011	0.0166498
871.089	0.0167685
871.167	0.0168317
871.245	0.0168458
871.323	0.0169548
871.401	0.0168628
871.479	0.0170061
871.558	0.0169701
871.636	0.0169264
871.714	0.0170361
871.792	0.0168147
871.870	0.0169424
871.948	0.0168655
872.026	0.0168657
872.104	0.0167278
872.183	0.0169951
872.261	0.0167317
872.339	0.0167570
872.417	0.0168115
872.495	0.0167895
872.573	0.0167133
872.651	0.0165830
872.729	0.0165774
872.808	0.0167865
872.886	0.0165990
872.964	0.0164923
873.042	0.0164649
873.120	0.0165408
873.198	0.0164301
873.276	0.0165118
873.354	0.0163033
873.433	0.0164728
873.511	0.0164256
873.589	0.0163727
873.667	0.0163274
873.745	0.0163875
873.823	0.0163721
873.901	0.0164346
873.979	0.0164285
874.058	0.0164009
874.136	0.0164805
874.214	0.0163551
874.292	0.0164705
874.370	0.0164663
874.448	0.0163998
874.526	0.0166331
874.604	0.0164717
874.683	0.0165681
874.761	0.0165881
874.839	0.0166646
874.917	0.0166223
874.995	0.0164954
875.073	0.0166220
875.151	0.0165664
875.229	0.0167568
875.308	0.0164081
875.386	0.0165730
875.464	0.0165255
875.542	0.0163756
875.620	0.0164751
875.698	0.0163127
875.776	0.0162970
875.854	0.0162463
875.933	0.0164156
876.011	0.0164739
876.089	0.0164049
876.167	0.0163010
876.245	0.0162109
876.323	0.0164817
876.401	0.0163759
876.479	0.0163477
876.558	0.0163860
876.636	0.0163750
876.714	0.0164512
876.792	0.0163312
876.870	0.0164581
876.948	0.0163779
877.026	0.0162843
877.104	0.0162860
877.183	0.0162528
877.261	0.0163293
877.339	0.0163566
877.417	0.0163947
877.495	0.0165020
877.573	0.0163243
877.651	0.0164550
877.729	0.0165163
877.808	0.0166018
877.886	0.0165439
877.964	0.0165232
878.042	0.0167012
878.120	0.0165711
878.198	0.0167883
878.276	0.0168069
878.354	0.0168652
878.433	0.0166822
878.511	0.0167316
878.589	0.0168147
878.667	0.0168686
878.745	0.0168427
878.823	0.0168610
878.901	0.0168372
878.979	0.0169250
879.058	0.0169606
879.136	0.0168400
879.214	0.0169113
879.292	0.0167591
879.370	0.0167126
879.448	0.0166833
879.526	0.0165980
879.604	0.0165329
879.683	0.0164635
879.761	0.0166795
879.839	0.0165386
879.917	0.0164737
879.995	0.0162597
880.073	0.0163143
880.151	0.0163168
880.229	0.0162945
880.308	0.0162722
880.386	0.0162238
880.464	0.0161290
880.542	0.0162004
880.620	0.0162881
880.698	0.0163037
880.776	0.0161321
880.854	0.0160732
880.933	0.0163051
881.011	0.0162128
881.089	0.0162429
881.167	0.0162103
881.245	0.0163193
881.323	0.0162179
881.401	0.0162098
881.479	0.0163091
881.558	0.0163857
881.636	0.0164934
881.714	0.0164344
881.792	0.0164299
881.870	0.0163231
881.948	0.0164984
882.026	0.0165653
882.104	0.0165478
882.183	0.0166331
882.261	0.0166033
882.339	0.0166691
882.417	0.0167800
882.495	0.0167132
882.573	0.0167715
882.651	0.0167580
882.729	0.0167452
882.808	0.0169637
882.886	0.0168678
882.964	0.0167142
883.042	0.0168218
883.120	0.0168038
883.198	0.0166316
883.276	0.0167619
883.354	0.0168321
883.433	0.0166962
883.511	0.0166422
883.589	0.0165935
883.667	0.0166453
883.745	0.0166556
883.823	0.0166281
883.901	0.0167255
883.979	0.0165789
884.058	0.0164326
884.136	0.0165730
884.214	0.0164454
884.292	0.0165218
884.370	0.0164654
884.448	0.0164621
884.526	0.0163724
884.604	0.0164051
884.683	0.0165250
884.761	0.0164344
884.839	0.0163815
884.917	0.0164077
884.995	0.0164138
885.073	0.0163166
885.151	0.0165658
885.229	0.0164418
885.308	0.0165093
885.386	0.0164911
885.464	0.0165124
885.542	0.0164203
885.620	0.0165546
885.698	0.0166189
885.776	0.0166569
885.854	0.0166536
885.933	0.0167896
886.011	0.0167088
886.089	0.0166460
886.167	0.0167741
886.245	0.0167161
886.323	0.0167596
886.401	0.0167138
886.479	0.0166489
886.558	0.0166041
886.636	0.0167474
886.714	0.0167298
886.792	0.0165584
886.870	0.0164844
886.948	0.0165141
887.026	0.0164601
887.104	0.0163570
887.183	0.0163289
887.261	0.0163992
887.339	0.0164297
887.417	0.0162986
887.495	0.0163103
887.573	0.0162948
887.651	0.0165292
887.729	0.0164735
887.808	0.0165451
887.886	0.0165212
887.964	0.0166325
888.042	0.0163800
888.120	0.0163986
888.198	0.0164778
888.276	0.0164587
888.354	0.0165643
888.433	0.0164600
888.511	0.0164052
888.589	0.0166006
888.667	0.0166934
888.745	0.0165314
888.823	0.0165438
888.901	0.0165259
888.979	0.0165551
889.058	0.0165256
889.136	0.0166263
889.214	0.0165504
889.292	0.0165772
889.370	0.0165539
889.448	0.0165031
889.526	0.0165151
889.604	0.0166547
889.683	0.0166760
889.761	0.0167052
889.839	0.0165654
889.917	0.0166370
889.995	0.0166080
890.073	0.0167280
890.151	0.0166444
890.229	0.0166421
890.308	0.0166951
890.386	0.0168212
890.464	0.0167441
890.542	0.0167140
890.620	0.0166951
890.698	0.0167928
890.776	0.0167622
890.854	0.0168027
890.933	0.0166676
891.011	0.0165906
891.089	0.0166418
891.167	0.0166289
891.245	0.0166463
891.323	0.0164862
891.401	0.0165108
891.479	0.0165707
891.558	0.0163789
891.636	0.0164722
891.714	0.0165387
891.792	0.0163924
891.870	0.0162833
891.948	0.0162986
892.026	0.0162837
892.104	0.0163736
892.183	0.0162747
892.261	0.0164417
892.339	0.0162363
892.417	0.0162989
892.495	0.0162495
892.573	0.0162083
892.651	0.0164509
892.729	0.0163702
892.808	0.0163696
892.886	0.0165855
892.964	0.0165562
893.042	0.0164491
893.120	0.0166145
893.198	0.0165916
893.276	0.0166112
893.354	0.0166746
893.433	0.0166018
893.511	0.0167590
893.589	0.0167176
893.667	0.0165438
893.745	0.0166552
893.823	0.0165678
893.901	0.0164550
893.979	0.0165610
894.058	0.0166292
894.136	0.0165157
894.214	0.0165032
894.292	0.0165756
894.370	0.0165091
894.448	0.0165048
894.526	0.0164936
894.604	0.0165701
894.683	0.0165429
894.761	0.0165016
894.839	0.0163971
894.917	0.0164911
894.995	0.0164009
895.073	0.0164832
895.151	0.0163413
895.229	0.0162796
895.308	0.0163538
895.386	0.0164724
895.464	0.0163263
895.542	0.0161942
895.620	0.0164257
895.698	0.0164237
895.776	0.0164472
895.854	0.0164410
895.933	0.0163956
896.011	0.0164362
896.089	0.0163807
896.167	0.0163993
896.245	0.0163655
896.323	0.0163986
896.401	0.0165044
896.479	0.0164283
896.558	0.0164206
896.636	0.0164388
896.714	0.0165833
896.792	0.0165827
896.870	0.0165703
896.948	0.0164474
897.026	0.0165047
897.104	0.0165746
897.183	0.0164157
897.261	0.0163677
897.339	0.0164761
897.417	0.0164290
897.495	0.0164242
897.573	0.0164458
897.651	0.0164912
897.729	0.0165896
897.808	0.0165233
897.886	0.0164149
897.964	0.0163779
898.042	0.0165588
898.120	0.0165115
898.198	0.0165530
898.276	0.0166068
898.354	0.0165191
898.433	0.0166168
898.511	0.0166329
898.589	0.0167116
898.667	0.0166740
898.745	0.0164941
898.823	0.0164640
898.901	0.0165277
898.979	0.0166897
899.058	0.0166819
899.136	0.0165479
899.214	0.0164697
899.292	0.0164561
899.370	0.0165355
899.448	0.0164867
899.526	0.0165816
899.604	0.0165230
899.683	0.0163873
899.761	0.0164633
899.839	0.0164532
899.917	0.0164650
899.995	0.0164210
900.073	0.0164911
900.151	0.0165800
900.229	0.0165016
900.308	0.0164100
900.386	0.0166354
900.464	0.0165120
900.542	0.0165805
900.620	0.0166167
900.698	0.0165724
900.776	0.0165265
900.854	0.0164790
900.933	0.0166480
901.011	0.0165757
901.089	0.0165840
901.167	0.0164589
901.245	0.0165068
901.323	0.0164760
901.401	0.0164333
901.479	0.0164536
901.558	0.0164080
901.636	0.0164335
901.714	0.0165066
901.792	0.0164046
901.870	0.0163860
901.948	0.0165326
902.026	0.0165240
902.104	0.0164195
902.183	0.0164587
902.261	0.0165055
902.339	0.0164513
902.417	0.0165165
902.495	0.0165952
902.573	0.0165866
902.651	0.0165837
902.729	0.0166191
902.808	0.0167643
902.886	0.0166066
902.964	0.0166727
903.042	0.0167123
903.120	0.0166703
903.198	0.0166747
903.276	0.0166060
903.354	0.0166412
903.433	0.0165782
903.511	0.0166142
903.589	0.0165301
903.667	0.0164516
903.745	0.0164712
903.823	0.0163374
903.901	0.0164455
903.979	0.0165132
904.058	0.0164848
904.136	0.0164390
904.214	0.0164729
904.292	0.0164653
904.370	0.0164601
904.448	0.0164857
904.526	0.0165585
904.604	0.0165297
904.683	0.0163024
904.761	0.0164351
904.839	0.0164844
904.917	0.0165234
904.995	0.0165840
905.073	0.0164199
905.151	0.0164660
905.229	0.0163019
905.308	0.0165023
905.386	0.0166179
905.464	0.0164782
905.542	0.0163831
905.620	0.0165733
905.698	0.0164694
905.776	0.0163498
905.854	0.0165487
905.933	0.0165507
906.011	0.0164448
906.089	0.0165254
906.167	0.0164150
906.245	0.0164642
906.323	0.0163714
906.401	0.0165417
906.479	0.0165629
906.558	0.0165334
906.636	0.0163997
906.714	0.0166336
906.792	0.0166306
906.870	0.0166360
906.948	0.0165566
907.026	0.0166197
907.104	0.0165625
907.183	0.0166698
907.261	0.0167107
907.339	0.0166929
907.417	0.0166172
907.495	0.0166378
907.573	0.0165790
907.651	0.0164896
907.729	0.0164555
907.808	0.0164903
907.886	0.0163705
907.964	0.0163860
908.042	0.0163950
908.120	0.0164046
908.198	0.0163465
908.276	0.0164034
908.354	0.0164507
908.433	0.0164002
908.511	0.0163730
908.589	0.0164391
908.667	0.0163839
908.745	0.0166057
908.823	0.0165118
908.901	0.0164711
908.979	0.0167772
909.058	0.0167058
909.136	0.0167187
909.214	0.0167979
909.292	0.0167818
909.370	0.0167868
909.448	0.0166575
909.526	0.0166337
909.604	0.0167258
909.683	0.0166897
909.761	0.0167091
909.839	0.0166486
909.917	0.0166178
909.995	0.0166257
910.073	0.0166398
910.151	0.0165263
910.229	0.0164158
910.308	0.0165540
910.386	0.0165162
910.464	0.0164104
910.542	0.0163048
910.620	0.0164265
910.698	0.0165093
910.776	0.0164663
910.854	0.0164401
910.933	0.0163735
911.011	0.0164087
911.089	0.0165001
911.167	0.0163123
911.245	0.0164104
911.323	0.0164256
911.401	0.0163655
911.479	0.0162736
911.558	0.0162800
911.636	0.0164323
911.714	0.0164536
911.792	0.0164070
911.870	0.0163148
911.948	0.0162666
912.026	0.0163329
912.104	0.0164455
912.183	0.0164303
912.261	0.0165163
912.339	0.0164431
912.417	0.0163789
912.495	0.0165285
912.573	0.0164670
912.651	0.0164773
912.729	0.0165810
912.808	0.0163949
912.886	0.0165883
912.964	0.0166041
913.042	0.0166959
913.120	0.0167400
913.198	0.0166434
913.276	0.0166568
913.354	0.0167494
913.433	0.0166553
913.511	0.0168863
913.589	0.0168477
913.667	0.0167944
913.745	0.0168021
913.823	0.0166915
913.901	0.0165887
913.979	0.0166473
914.058	0.0167507
914.136	0.0166783
914.214	0.0167014
914.292	0.0167154
914.370	0.0165993
914.448	0.0166354
914.526	0.0164518
914.604	0.0165167
914.683	0.0166089
914.761	0.0165566
914.839	0.0163656
914.917	0.0164642
914.995	0.0164693
915.073	0.0164761
915.151	0.0163795
915.229	0.0162386
915.308	0.0163091
915.386	0.0163359
915.464	0.0162183
915.542	0.0162099
915.620	0.0161954
915.698	0.0161912
915.776	0.0159926
915.854	0.0161476
915.933	0.0162426
916.011	0.0163303
916.089	0.0162718
916.167	0.0162797
916.245	0.0163560
916.323	0.0163580
916.401	0.0163226
916.479	0.0163280
916.558	0.0164723
916.636	0.0164217
916.714	0.0163968
916.792	0.0165643
916.870	0.0165134
916.948	0.0164948
917.026	0.0166917
917.104	0.0165464
917.183	0.0165519
917.261	0.0167003
917.339	0.0164735
917.417	0.0166366
917.495	0.0168151
917.573	0.0167783
917.651	0.0166009
917.729	0.0166622
917.808	0.0166975
917.886	0.0166040
917.964	0.0167299
918.042	0.0167577
918.120	0.0168721
918.198	0.0167357
918.276	0.0167648
918.354	0.0166547
918.433	0.0167799
918.511	0.0167182
918.589	0.0166341
918.667	0.0165652
918.745	0.0165645
918.823	0.0164973
918.901	0.0164534
918.979	0.0166060
919.058	0.0163646
919.136	0.0163360
919.214	0.0163750
919.292	0.0164654
919.370	0.0163474
919.448	0.0164354
919.526	0.0163700
919.604	0.0164024
919.683	0.0164516
919.761	0.0162205
919.839	0.0163708
919.917	0.0164296
