06/10/2022	16:18:07	Ver.	4.1	UNKNOWN
Optical Delay	599.988409	Delta X		0.078125	Sweeps	1	Scan Rate	0/0
Coordinates	Axis 1	NaN	Axis 2	NaN	Axis 3	NaN	Axis 4	NaN	Axis 5	NaN	Axis 6	0.000000
TX Power	0.000000	RX Power	0.000000

599.988	0.0166435
600.067	0.0166444
600.145	0.0165972
600.223	0.0165732
600.301	0.0166671
600.379	0.0166814
600.457	0.0166061
600.535	0.0166426
600.613	0.0167714
600.692	0.0166457
600.770	0.0166734
600.848	0.0166950
600.926	0.0167112
601.004	0.0166858
601.082	0.0166659
601.160	0.0166265
601.238	0.0166920
601.317	0.0166861
601.395	0.0165878
601.473	0.0166255
601.551	0.0165974
601.629	0.0168306
601.707	0.0166547
601.785	0.0165742
601.863	0.0165814
601.942	0.0167810
602.020	0.0165926
602.098	0.0164944
602.176	0.0165421
602.254	0.0166421
602.332	0.0165927
602.410	0.0165984
602.488	0.0164424
602.567	0.0165617
602.645	0.0166661
602.723	0.0166326
602.801	0.0164986
602.879	0.0166588
602.957	0.0166192
603.035	0.0166054
603.113	0.0166576
603.192	0.0165829
603.270	0.0166834
603.348	0.0165942
603.426	0.0165752
603.504	0.0167620
603.582	0.0166695
603.660	0.0165466
603.738	0.0166049
603.817	0.0165810
603.895	0.0166246
603.973	0.0165507
604.051	0.0167251
604.129	0.0165438
604.207	0.0166762
604.285	0.0166696
604.363	0.0166383
604.442	0.0166724
604.520	0.0166517
604.598	0.0166188
604.676	0.0166045
604.754	0.0166215
604.832	0.0167021
604.910	0.0167197
604.988	0.0166521
605.067	0.0165192
605.145	0.0167105
605.223	0.0166315
605.301	0.0164728
605.379	0.0165785
605.457	0.0167189
605.535	0.0167417
605.613	0.0166158
605.692	0.0165714
605.770	0.0166854
605.848	0.0166469
605.926	0.0165567
606.004	0.0165767
606.082	0.0166129
606.160	0.0166977
606.238	0.0165256
606.317	0.0166193
606.395	0.0165386
606.473	0.0165889
606.551	0.0165495
606.629	0.0166579
606.707	0.0165703
606.785	0.0166135
606.863	0.0166761
606.942	0.0166091
607.020	0.0166431
607.098	0.0166703
607.176	0.0166582
607.254	0.0167699
607.332	0.0167279
607.410	0.0166147
607.488	0.0166133
607.567	0.0166139
607.645	0.0167236
607.723	0.0167805
607.801	0.0165612
607.879	0.0166544
607.957	0.0165379
608.035	0.0166685
608.113	0.0165617
608.192	0.0166335
608.270	0.0166212
608.348	0.0166487
608.426	0.0167087
608.504	0.0166098
608.582	0.0165715
608.660	0.0166786
608.738	0.0166055
608.817	0.0166247
608.895	0.0166332
608.973	0.0165976
609.051	0.0165347
609.129	0.0164869
609.207	0.0166149
609.285	0.0167322
609.363	0.0165794
609.442	0.0165883
609.520	0.0166009
609.598	0.0165627
609.676	0.0166211
609.754	0.0165608
609.832	0.0167090
609.910	0.0166092
609.988	0.0165972
610.067	0.0165746
610.145	0.0165962
610.223	0.0167260
610.301	0.0166506
610.379	0.0166925
610.457	0.0166655
610.535	0.0165575
610.613	0.0166804
610.692	0.0166689
610.770	0.0166074
610.848	0.0166965
610.926	0.0165656
611.004	0.0167063
611.082	0.0166977
611.160	0.0166821
611.238	0.0167918
611.317	0.0166377
611.395	0.0166978
611.473	0.0166240
611.551	0.0165830
611.629	0.0167520
611.707	0.0166582
611.785	0.0166270
611.863	0.0167448
611.942	0.0166259
612.020	0.0165552
612.098	0.0166753
612.176	0.0167188
612.254	0.0166685
612.332	0.0164984
612.410	0.0164837
612.488	0.0165292
612.567	0.0166248
612.645	0.0166895
612.723	0.0166380
612.801	0.0165277
612.879	0.0166155
612.957	0.0166644
613.035	0.0165743
613.113	0.0166389
613.192	0.0166237
613.270	0.0165865
613.348	0.0166306
613.426	0.0165711
613.504	0.0165926
613.582	0.0166434
613.660	0.0165112
613.738	0.0166208
613.817	0.0167391
613.895	0.0165632
613.973	0.0167171
614.051	0.0167171
614.129	0.0165566
614.207	0.0166013
614.285	0.0165936
614.363	0.0167635
614.442	0.0165260
614.520	0.0166221
614.598	0.0165530
614.676	0.0166116
614.754	0.0166306
614.832	0.0164998
614.910	0.0165806
614.988	0.0166802
615.067	0.0166203
615.145	0.0164896
615.223	0.0166278
615.301	0.0166837
615.379	0.0167281
615.457	0.0165639
615.535	0.0167038
615.613	0.0166489
615.692	0.0165665
615.770	0.0165557
615.848	0.0166099
615.926	0.0165369
616.004	0.0165154
616.082	0.0165350
616.160	0.0165481
616.238	0.0165020
616.317	0.0166693
616.395	0.0166335
616.473	0.0166837
616.551	0.0166483
616.629	0.0165606
616.707	0.0165698
616.785	0.0165963
616.863	0.0166867
616.942	0.0167422
617.020	0.0166382
617.098	0.0167083
617.176	0.0165320
617.254	0.0166669
617.332	0.0167487
617.410	0.0165491
617.488	0.0164898
617.567	0.0166337
617.645	0.0165564
617.723	0.0166582
617.801	0.0166403
617.879	0.0166217
617.957	0.0165858
618.035	0.0166788
618.113	0.0167452
618.192	0.0166521
618.270	0.0165759
618.348	0.0167074
618.426	0.0165195
618.504	0.0166336
618.582	0.0166964
618.660	0.0166562
618.738	0.0166624
618.817	0.0166444
618.895	0.0166687
618.973	0.0166899
619.051	0.0166679
619.129	0.0166319
619.207	0.0166880
619.285	0.0165859
619.363	0.0166073
619.442	0.0165746
619.520	0.0167449
619.598	0.0166845
619.676	0.0166413
619.754	0.0166103
619.832	0.0165799
619.910	0.0166801
619.988	0.0166725
620.067	0.0166117
620.145	0.0166721
620.223	0.0165836
620.301	0.0166285
620.379	0.0166674
620.457	0.0165796
620.535	0.0166550
620.613	0.0164847
620.692	0.0167261
620.770	0.0166886
620.848	0.0166574
620.926	0.0165870
621.004	0.0165964
621.082	0.0165213
621.160	0.0166816
621.238	0.0167370
621.317	0.0164906
621.395	0.0166313
621.473	0.0167181
621.551	0.0167773
621.629	0.0166116
621.707	0.0164722
621.785	0.0167979
621.863	0.0166373
621.942	0.0165872
622.020	0.0166043
622.098	0.0165350
622.176	0.0164973
622.254	0.0166957
622.332	0.0164756
622.410	0.0165572
622.488	0.0165993
622.567	0.0165632
622.645	0.0165384
622.723	0.0165782
622.801	0.0166942
622.879	0.0165202
622.957	0.0166475
623.035	0.0166830
623.113	0.0167059
623.192	0.0167509
623.270	0.0165665
623.348	0.0165531
623.426	0.0166738
623.504	0.0165132
623.582	0.0166196
623.660	0.0167147
623.738	0.0165279
623.817	0.0166057
623.895	0.0166763
623.973	0.0165004
624.051	0.0165322
624.129	0.0166707
624.207	0.0166506
624.285	0.0165501
624.363	0.0164527
624.442	0.0165928
624.520	0.0167088
624.598	0.0167711
624.676	0.0164681
624.754	0.0166418
624.832	0.0167049
624.910	0.0166209
624.988	0.0166306
625.067	0.0166592
625.145	0.0166100
625.223	0.0165438
625.301	0.0165119
625.379	0.0166367
625.457	0.0166460
625.535	0.0165406
625.613	0.0165257
625.692	0.0165919
625.770	0.0165647
625.848	0.0166216
625.926	0.0166667
626.004	0.0165248
626.082	0.0165775
626.160	0.0166563
626.238	0.0165693
626.317	0.0168414
626.395	0.0166515
626.473	0.0165549
626.551	0.0165817
626.629	0.0164514
626.707	0.0164890
626.785	0.0167621
626.863	0.0166492
626.942	0.0165274
627.020	0.0165500
627.098	0.0165909
627.176	0.0164825
627.254	0.0165401
627.332	0.0165710
627.410	0.0166449
627.488	0.0165946
627.567	0.0165350
627.645	0.0166525
627.723	0.0166402
627.801	0.0166679
627.879	0.0165865
627.957	0.0165586
628.035	0.0167162
628.113	0.0166419
628.192	0.0165779
628.270	0.0165865
628.348	0.0165465
628.426	0.0167532
628.504	0.0165430
628.582	0.0165759
628.660	0.0165958
628.738	0.0166570
628.817	0.0165421
628.895	0.0164822
628.973	0.0164713
629.051	0.0166272
629.129	0.0166537
629.207	0.0167309
629.285	0.0166769
629.363	0.0164520
629.442	0.0165964
629.520	0.0167072
629.598	0.0165645
629.676	0.0165765
629.754	0.0165990
629.832	0.0165039
629.910	0.0165975
629.988	0.0165727
630.067	0.0164834
630.145	0.0167035
630.223	0.0166507
630.301	0.0165167
630.379	0.0166028
630.457	0.0165617
630.535	0.0165834
630.613	0.0166721
630.692	0.0166436
630.770	0.0166496
630.848	0.0165711
630.926	0.0165601
631.004	0.0166599
631.082	0.0166515
631.160	0.0165613
631.238	0.0166116
631.317	0.0165136
631.395	0.0166969
631.473	0.0165558
631.551	0.0167158
631.629	0.0167880
631.707	0.0165178
631.785	0.0164027
631.863	0.0166476
631.942	0.0166489
632.020	0.0167542
632.098	0.0165669
632.176	0.0166424
632.254	0.0167330
632.332	0.0166886
632.410	0.0166913
632.488	0.0165897
632.567	0.0167737
632.645	0.0165550
632.723	0.0165878
632.801	0.0166154
632.879	0.0165864
632.957	0.0166355
633.035	0.0166222
633.113	0.0166389
633.192	0.0164660
633.270	0.0166508
633.348	0.0166789
633.426	0.0166149
633.504	0.0167660
633.582	0.0166795
633.660	0.0165710
633.738	0.0165480
633.817	0.0167165
633.895	0.0165656
633.973	0.0166164
634.051	0.0166475
634.129	0.0166503
634.207	0.0166167
634.285	0.0166483
634.363	0.0166724
634.442	0.0167123
634.520	0.0165079
634.598	0.0164748
634.676	0.0167011
634.754	0.0166833
634.832	0.0166097
634.910	0.0165447
634.988	0.0165992
635.067	0.0165459
635.145	0.0165910
635.223	0.0165638
635.301	0.0166000
635.379	0.0165778
635.457	0.0167453
635.535	0.0166050
635.613	0.0167145
635.692	0.0167043
635.770	0.0166405
635.848	0.0166452
635.926	0.0166520
636.004	0.0167285
636.082	0.0165959
636.160	0.0167393
636.238	0.0166432
636.317	0.0165406
636.395	0.0165443
636.473	0.0167533
636.551	0.0166412
636.629	0.0164575
636.707	0.0165665
636.785	0.0165810
636.863	0.0166833
636.942	0.0167985
637.020	0.0166662
637.098	0.0166582
637.176	0.0166325
637.254	0.0165449
637.332	0.0166803
637.410	0.0165809
637.488	0.0165574
637.567	0.0167079
637.645	0.0167751
637.723	0.0166345
637.801	0.0165762
637.879	0.0166137
637.957	0.0167106
638.035	0.0167494
638.113	0.0167096
638.192	0.0166653
638.270	0.0166648
638.348	0.0166055
638.426	0.0166403
638.504	0.0166907
638.582	0.0165980
638.660	0.0165747
638.738	0.0165604
638.817	0.0167606
638.895	0.0165642
638.973	0.0165797
639.051	0.0166102
639.129	0.0165861
639.207	0.0166529
639.285	0.0166610
639.363	0.0166273
639.442	0.0166402
639.520	0.0165668
639.598	0.0167485
639.676	0.0165920
639.754	0.0165285
639.832	0.0165794
639.910	0.0165926
639.988	0.0165935
640.067	0.0166304
640.145	0.0165412
640.223	0.0165477
640.301	0.0165793
640.379	0.0166605
640.457	0.0165834
640.535	0.0165306
640.613	0.0166063
640.692	0.0165530
640.770	0.0167593
640.848	0.0165523
640.926	0.0165488
641.004	0.0165816
641.082	0.0165861
641.160	0.0167348
641.238	0.0166223
641.317	0.0165437
641.395	0.0166624
641.473	0.0167020
641.551	0.0166321
641.629	0.0166454
641.707	0.0166882
641.785	0.0166528
641.863	0.0166240
641.942	0.0165483
642.020	0.0165669
642.098	0.0166444
642.176	0.0166547
642.254	0.0166126
642.332	0.0166901
642.410	0.0165816
642.488	0.0167075
642.567	0.0166366
642.645	0.0165554
642.723	0.0164983
642.801	0.0166467
642.879	0.0166824
642.957	0.0166431
643.035	0.0167543
643.113	0.0165417
643.192	0.0165490
643.270	0.0165553
643.348	0.0166002
643.426	0.0166676
643.504	0.0165172
643.582	0.0165656
643.660	0.0165553
643.738	0.0165948
643.817	0.0165897
643.895	0.0165540
643.973	0.0166459
644.051	0.0166785
644.129	0.0165331
644.207	0.0167016
644.285	0.0166341
644.363	0.0166355
644.442	0.0167511
644.520	0.0166377
644.598	0.0166342
644.676	0.0165729
644.754	0.0165150
644.832	0.0166050
644.910	0.0166725
644.988	0.0165800
645.067	0.0165678
645.145	0.0166431
645.223	0.0166213
645.301	0.0164841
645.379	0.0166569
645.457	0.0166589
645.535	0.0166090
645.613	0.0164710
645.692	0.0165807
645.770	0.0165449
645.848	0.0165726
645.926	0.0165555
646.004	0.0165477
646.082	0.0165969
646.160	0.0166199
646.238	0.0166397
646.317	0.0166579
646.395	0.0166149
646.473	0.0166837
646.551	0.0165086
646.629	0.0166883
646.707	0.0165620
646.785	0.0166138
646.863	0.0165646
646.942	0.0166089
647.020	0.0166420
647.098	0.0165421
647.176	0.0166621
647.254	0.0166482
647.332	0.0165709
647.410	0.0165690
647.488	0.0166320
647.567	0.0167236
647.645	0.0166598
647.723	0.0166837
647.801	0.0166374
647.879	0.0166653
647.957	0.0166193
648.035	0.0167003
648.113	0.0166423
648.192	0.0167149
648.270	0.0166255
648.348	0.0165878
648.426	0.0166498
648.504	0.0166301
648.582	0.0165782
648.660	0.0165636
648.738	0.0164536
648.817	0.0165662
648.895	0.0166448
648.973	0.0166769
649.051	0.0165949
649.129	0.0165510
649.207	0.0166023
649.285	0.0165794
649.363	0.0165317
649.442	0.0165744
649.520	0.0166846
649.598	0.0165372
649.676	0.0163699
649.754	0.0166680
649.832	0.0165694
649.910	0.0167168
649.988	0.0167014
650.067	0.0165705
650.145	0.0166115
650.223	0.0165722
650.301	0.0166539
650.379	0.0166004
650.457	0.0164254
650.535	0.0167133
650.613	0.0166761
650.692	0.0166014
650.770	0.0166589
650.848	0.0165337
650.926	0.0167645
651.004	0.0167822
651.082	0.0165994
651.160	0.0166035
651.238	0.0167024
651.317	0.0166047
651.395	0.0166634
651.473	0.0166576
651.551	0.0165908
651.629	0.0167035
651.707	0.0167398
651.785	0.0165873
651.863	0.0166649
651.942	0.0165611
652.020	0.0167033
652.098	0.0165360
652.176	0.0166685
652.254	0.0167263
652.332	0.0166506
652.410	0.0164664
652.488	0.0166200
652.567	0.0166280
652.645	0.0166684
652.723	0.0167182
652.801	0.0165739
652.879	0.0166287
652.957	0.0166107
653.035	0.0167308
653.113	0.0166537
653.192	0.0167107
653.270	0.0165119
653.348	0.0165379
653.426	0.0165800
653.504	0.0165932
653.582	0.0166610
653.660	0.0165569
653.738	0.0167000
653.817	0.0165324
653.895	0.0168192
653.973	0.0165685
654.051	0.0167344
654.129	0.0166505
654.207	0.0166631
654.285	0.0165378
654.363	0.0167329
654.442	0.0167353
654.520	0.0164348
654.598	0.0165417
654.676	0.0167037
654.754	0.0167574
654.832	0.0166428
654.910	0.0165197
654.988	0.0165056
655.067	0.0166459
655.145	0.0167168
655.223	0.0165714
655.301	0.0165891
655.379	0.0166751
655.457	0.0166280
655.535	0.0165604
655.613	0.0165886
655.692	0.0166534
655.770	0.0166814
655.848	0.0166214
655.926	0.0166035
656.004	0.0166476
656.082	0.0166186
656.160	0.0166942
656.238	0.0166664
656.317	0.0165996
656.395	0.0167313
656.473	0.0166723
656.551	0.0166307
656.629	0.0165524
656.707	0.0165364
656.785	0.0167065
656.863	0.0166790
656.942	0.0166331
657.020	0.0166632
657.098	0.0166946
657.176	0.0166205
657.254	0.0167374
657.332	0.0165951
657.410	0.0166489
657.488	0.0166356
657.567	0.0166631
657.645	0.0166463
657.723	0.0165289
657.801	0.0166192
657.879	0.0166285
657.957	0.0167075
658.035	0.0165849
658.113	0.0167192
658.192	0.0165888
658.270	0.0165739
658.348	0.0165869
658.426	0.0166974
658.504	0.0166393
658.582	0.0167059
658.660	0.0166692
658.738	0.0165818
658.817	0.0166566
658.895	0.0165550
658.973	0.0166010
659.051	0.0166706
659.129	0.0166084
659.207	0.0166467
659.285	0.0166849
659.363	0.0165900
659.442	0.0166068
659.520	0.0165514
659.598	0.0166414
659.676	0.0166119
659.754	0.0166887
659.832	0.0165990
659.910	0.0166750
659.988	0.0166368
660.067	0.0166328
660.145	0.0166771
660.223	0.0166484
660.301	0.0166080
660.379	0.0166431
660.457	0.0166129
660.535	0.0166408
660.613	0.0166713
660.692	0.0166621
660.770	0.0167213
660.848	0.0165953
660.926	0.0166460
661.004	0.0166090
661.082	0.0165816
661.160	0.0165547
661.238	0.0166692
661.317	0.0167835
661.395	0.0166003
661.473	0.0165601
661.551	0.0166380
661.629	0.0166643
661.707	0.0166058
661.785	0.0165645
661.863	0.0165809
661.942	0.0165219
662.020	0.0166318
662.098	0.0167078
662.176	0.0167176
662.254	0.0166303
662.332	0.0163916
662.410	0.0167243
662.488	0.0167959
662.567	0.0166206
662.645	0.0167533
662.723	0.0166055
662.801	0.0165593
662.879	0.0165953
662.957	0.0166580
663.035	0.0167194
663.113	0.0164671
663.192	0.0166104
663.270	0.0166508
663.348	0.0166117
663.426	0.0166407
663.504	0.0166156
663.582	0.0165988
663.660	0.0167082
663.738	0.0166859
663.817	0.0167171
663.895	0.0166171
663.973	0.0166373
664.051	0.0165673
664.129	0.0165570
664.207	0.0166860
664.285	0.0167339
664.363	0.0166701
664.442	0.0166598
664.520	0.0166432
664.598	0.0164471
664.676	0.0166716
664.754	0.0166006
664.832	0.0164336
664.910	0.0165673
664.988	0.0166716
665.067	0.0166595
665.145	0.0165530
665.223	0.0166567
665.301	0.0166834
665.379	0.0165735
665.457	0.0167002
665.535	0.0166626
665.613	0.0166649
665.692	0.0166492
665.770	0.0165553
665.848	0.0165802
665.926	0.0166452
666.004	0.0166376
666.082	0.0167883
666.160	0.0167422
666.238	0.0165840
666.317	0.0166541
666.395	0.0166738
666.473	0.0166854
666.551	0.0165907
666.629	0.0166291
666.707	0.0167515
666.785	0.0165620
666.863	0.0165272
666.942	0.0165273
667.020	0.0165523
667.098	0.0166270
667.176	0.0165957
667.254	0.0165633
667.332	0.0166553
667.410	0.0166405
667.488	0.0167220
667.567	0.0166543
667.645	0.0166074
667.723	0.0166889
667.801	0.0165817
667.879	0.0166341
667.957	0.0167267
668.035	0.0165826
668.113	0.0165337
668.192	0.0166961
668.270	0.0165784
668.348	0.0166032
668.426	0.0166300
668.504	0.0165645
668.582	0.0165924
668.660	0.0167094
668.738	0.0166434
668.817	0.0166190
668.895	0.0166254
668.973	0.0165565
669.051	0.0165492
669.129	0.0166820
669.207	0.0166625
669.285	0.0165262
669.363	0.0166254
669.442	0.0166534
669.520	0.0165618
669.598	0.0165723
669.676	0.0166728
669.754	0.0165931
669.832	0.0167173
669.910	0.0165955
669.988	0.0166341
670.067	0.0167962
670.145	0.0164933
670.223	0.0165677
670.301	0.0166653
670.379	0.0166218
670.457	0.0166665
670.535	0.0166708
670.613	0.0166409
670.692	0.0165764
670.770	0.0167596
670.848	0.0165704
670.926	0.0167029
671.004	0.0166916
671.082	0.0166744
671.160	0.0165952
671.238	0.0166644
671.317	0.0165459
671.395	0.0165101
671.473	0.0164918
671.551	0.0166855
671.629	0.0166951
671.707	0.0166192
671.785	0.0166565
671.863	0.0166972
671.942	0.0166053
672.020	0.0166787
672.098	0.0165163
672.176	0.0165578
672.254	0.0167432
672.332	0.0166815
672.410	0.0164598
672.488	0.0166914
672.567	0.0167130
672.645	0.0167215
672.723	0.0165923
672.801	0.0165907
672.879	0.0165606
672.957	0.0166351
673.035	0.0165981
673.113	0.0165961
673.192	0.0165547
673.270	0.0165707
673.348	0.0165127
673.426	0.0166659
673.504	0.0165926
673.582	0.0164449
673.660	0.0165767
673.738	0.0165291
673.817	0.0166978
673.895	0.0165516
673.973	0.0166347
674.051	0.0166595
674.129	0.0167136
674.207	0.0165794
674.285	0.0166784
674.363	0.0166951
674.442	0.0166518
674.520	0.0166739
674.598	0.0166206
674.676	0.0166894
674.754	0.0166116
674.832	0.0166365
674.910	0.0167078
674.988	0.0164407
675.067	0.0166214
675.145	0.0166195
675.223	0.0165849
675.301	0.0167265
675.379	0.0167835
675.457	0.0165429
675.535	0.0165453
675.613	0.0165877
675.692	0.0166917
675.770	0.0166145
675.848	0.0166461
675.926	0.0165752
676.004	0.0165668
676.082	0.0167344
676.160	0.0167000
676.238	0.0165562
676.317	0.0166129
676.395	0.0165824
676.473	0.0166174
676.551	0.0167139
676.629	0.0165382
676.707	0.0166563
676.785	0.0166640
676.863	0.0166110
676.942	0.0166322
677.020	0.0164876
677.098	0.0166060
677.176	0.0166888
677.254	0.0166333
677.332	0.0167123
677.410	0.0167376
677.488	0.0166033
677.567	0.0166480
677.645	0.0166409
677.723	0.0166052
677.801	0.0166145
677.879	0.0166763
677.957	0.0167002
678.035	0.0166109
678.113	0.0166046
678.192	0.0166920
678.270	0.0166332
678.348	0.0165891
678.426	0.0166449
678.504	0.0166535
678.582	0.0165367
678.660	0.0166847
678.738	0.0165609
678.817	0.0166534
678.895	0.0165789
678.973	0.0166592
679.051	0.0164996
679.129	0.0166778
679.207	0.0166687
679.285	0.0166516
679.363	0.0166184
679.442	0.0165923
679.520	0.0167093
679.598	0.0167101
679.676	0.0166835
679.754	0.0167534
679.832	0.0165382
679.910	0.0165271
679.988	0.0166190
680.067	0.0166712
680.145	0.0166470
680.223	0.0167107
680.301	0.0167536
680.379	0.0165734
680.457	0.0165397
680.535	0.0166920
680.613	0.0165624
680.692	0.0165628
680.770	0.0166297
680.848	0.0165250
680.926	0.0165657
681.004	0.0166812
681.082	0.0167271
681.160	0.0165534
681.238	0.0166439
681.317	0.0166869
681.395	0.0165944
681.473	0.0167278
681.551	0.0165659
681.629	0.0165936
681.707	0.0166218
681.785	0.0165049
681.863	0.0166738
681.942	0.0165391
682.020	0.0165636
682.098	0.0166357
682.176	0.0166134
682.254	0.0166594
682.332	0.0166441
682.410	0.0166329
682.488	0.0167693
682.567	0.0165703
682.645	0.0165717
682.723	0.0166544
682.801	0.0165257
682.879	0.0165849
682.957	0.0167202
683.035	0.0164722
683.113	0.0166426
683.192	0.0166749
683.270	0.0167143
683.348	0.0166310
683.426	0.0164973
683.504	0.0166566
683.582	0.0166928
683.660	0.0166318
683.738	0.0166570
683.817	0.0165938
683.895	0.0166109
683.973	0.0166338
684.051	0.0166918
684.129	0.0166232
684.207	0.0166649
684.285	0.0166900
684.363	0.0166368
684.442	0.0164584
684.520	0.0167201
684.598	0.0167012
684.676	0.0166656
684.754	0.0165449
684.832	0.0167366
684.910	0.0166280
684.988	0.0164640
685.067	0.0165135
685.145	0.0165435
685.223	0.0166222
685.301	0.0165966
685.379	0.0166050
685.457	0.0165974
685.535	0.0165098
685.613	0.0165873
685.692	0.0164996
685.770	0.0166251
685.848	0.0167624
685.926	0.0165249
686.004	0.0165958
686.082	0.0165701
686.160	0.0166711
686.238	0.0167446
686.317	0.0165200
686.395	0.0166007
686.473	0.0166608
686.551	0.0166084
686.629	0.0166294
686.707	0.0165639
686.785	0.0165890
686.863	0.0167142
686.942	0.0166509
687.020	0.0167126
687.098	0.0165759
687.176	0.0164925
687.254	0.0165976
687.332	0.0167624
687.410	0.0166287
687.488	0.0165930
687.567	0.0165363
687.645	0.0165494
687.723	0.0167459
687.801	0.0166772
687.879	0.0166093
687.957	0.0166203
688.035	0.0166944
688.113	0.0166582
688.192	0.0166439
688.270	0.0166109
688.348	0.0166824
688.426	0.0166243
688.504	0.0167311
688.582	0.0166833
688.660	0.0165062
688.738	0.0166874
688.817	0.0167776
688.895	0.0166348
688.973	0.0167339
689.051	0.0164756
689.129	0.0167923
689.207	0.0167205
689.285	0.0166716
689.363	0.0166307
689.442	0.0165962
689.520	0.0164416
689.598	0.0165536
689.676	0.0165636
689.754	0.0166441
689.832	0.0167110
689.910	0.0165268
689.988	0.0165449
690.067	0.0166713
690.145	0.0167921
690.223	0.0165800
690.301	0.0165501
690.379	0.0167067
690.457	0.0166238
690.535	0.0165234
690.613	0.0165076
690.692	0.0165270
690.770	0.0165795
690.848	0.0166350
690.926	0.0166057
691.004	0.0166624
691.082	0.0164722
691.160	0.0166222
691.238	0.0166297
691.317	0.0166519
691.395	0.0165430
691.473	0.0165327
691.551	0.0165791
691.629	0.0166293
691.707	0.0167290
691.785	0.0165968
691.863	0.0166443
691.942	0.0165769
692.020	0.0165385
692.098	0.0166157
692.176	0.0166610
692.254	0.0166737
692.332	0.0166424
692.410	0.0166201
692.488	0.0166535
692.567	0.0165556
692.645	0.0165905
692.723	0.0165350
692.801	0.0164646
692.879	0.0165982
692.957	0.0166735
693.035	0.0166437
693.113	0.0165498
693.192	0.0166127
693.270	0.0165762
693.348	0.0167160
693.426	0.0165148
693.504	0.0166382
693.582	0.0167626
693.660	0.0166470
693.738	0.0166320
693.817	0.0166169
693.895	0.0166199
693.973	0.0166407
694.051	0.0166301
694.129	0.0165495
694.207	0.0166138
694.285	0.0165713
694.363	0.0165205
694.442	0.0165840
694.520	0.0165582
694.598	0.0165565
694.676	0.0166859
694.754	0.0166452
694.832	0.0164737
694.910	0.0166100
694.988	0.0166759
695.067	0.0165344
695.145	0.0166561
695.223	0.0166556
695.301	0.0166477
695.379	0.0165215
695.457	0.0165910
695.535	0.0166991
695.613	0.0166604
695.692	0.0165995
695.770	0.0165786
695.848	0.0166148
695.926	0.0166779
696.004	0.0166525
696.082	0.0165159
696.160	0.0166311
696.238	0.0166791
696.317	0.0167304
696.395	0.0167182
696.473	0.0166676
696.551	0.0167271
696.629	0.0165523
696.707	0.0166147
696.785	0.0166703
696.863	0.0166766
696.942	0.0164849
697.020	0.0165231
697.098	0.0166236
697.176	0.0167745
697.254	0.0166737
697.332	0.0166008
697.410	0.0165315
697.488	0.0167338
697.567	0.0166156
697.645	0.0166614
697.723	0.0165865
697.801	0.0166296
697.879	0.0166685
697.957	0.0166443
698.035	0.0166587
698.113	0.0166488
698.192	0.0166789
698.270	0.0166434
698.348	0.0167633
698.426	0.0167440
698.504	0.0165981
698.582	0.0166968
698.660	0.0167377
698.738	0.0166800
698.817	0.0166371
698.895	0.0166293
698.973	0.0165611
699.051	0.0166118
699.129	0.0166553
699.207	0.0166722
699.285	0.0166202
699.363	0.0166193
699.442	0.0167477
699.520	0.0166093
699.598	0.0166351
699.676	0.0164904
699.754	0.0166118
699.832	0.0166238
699.910	0.0165470
699.988	0.0166404
700.067	0.0167605
700.145	0.0167634
700.223	0.0168354
700.301	0.0166689
700.379	0.0165808
700.457	0.0165450
700.535	0.0166351
700.613	0.0167844
700.692	0.0166843
700.770	0.0167110
700.848	0.0166587
700.926	0.0166314
701.004	0.0166809
701.082	0.0166270
701.160	0.0166167
701.238	0.0166319
701.317	0.0165816
701.395	0.0166515
701.473	0.0167270
701.551	0.0164989
701.629	0.0166132
701.707	0.0165938
701.785	0.0166533
701.863	0.0165325
701.942	0.0166206
702.020	0.0165697
702.098	0.0165686
702.176	0.0166416
702.254	0.0166596
702.332	0.0166000
702.410	0.0166170
702.488	0.0165154
702.567	0.0165670
702.645	0.0166160
702.723	0.0165492
702.801	0.0165656
702.879	0.0167394
702.957	0.0165688
703.035	0.0164335
703.113	0.0166437
703.192	0.0165398
703.270	0.0164645
703.348	0.0165064
703.426	0.0166460
703.504	0.0166962
703.582	0.0165241
703.660	0.0166628
703.738	0.0166833
703.817	0.0166453
703.895	0.0166412
703.973	0.0166108
704.051	0.0166579
704.129	0.0167521
704.207	0.0166694
704.285	0.0165318
704.363	0.0166475
704.442	0.0165747
704.520	0.0166830
704.598	0.0166971
704.676	0.0165439
704.754	0.0164638
704.832	0.0166262
704.910	0.0165845
704.988	0.0166160
705.067	0.0168012
705.145	0.0165456
705.223	0.0165444
705.301	0.0165333
705.379	0.0165166
705.457	0.0165296
705.535	0.0166589
705.613	0.0166703
705.692	0.0165038
705.770	0.0165010
705.848	0.0166209
705.926	0.0165527
706.004	0.0165374
706.082	0.0165178
706.160	0.0167284
706.238	0.0165706
706.317	0.0165263
706.395	0.0165498
706.473	0.0165650
706.551	0.0166441
706.629	0.0166902
706.707	0.0164043
706.785	0.0165510
706.863	0.0167057
706.942	0.0166571
707.020	0.0165491
707.098	0.0164838
707.176	0.0165707
707.254	0.0165325
707.332	0.0165581
707.410	0.0166135
707.488	0.0166589
707.567	0.0167347
707.645	0.0166933
707.723	0.0166321
707.801	0.0165802
707.879	0.0165577
707.957	0.0165654
708.035	0.0165285
708.113	0.0166542
708.192	0.0166374
708.270	0.0167169
708.348	0.0166313
708.426	0.0166416
708.504	0.0166280
708.582	0.0164648
708.660	0.0166985
708.738	0.0164860
708.817	0.0165092
708.895	0.0167239
708.973	0.0167488
709.051	0.0166818
709.129	0.0166296
709.207	0.0166145
709.285	0.0165714
709.363	0.0166182
709.442	0.0165417
709.520	0.0167026
709.598	0.0167121
709.676	0.0165527
709.754	0.0167574
709.832	0.0165724
709.910	0.0165874
709.988	0.0165494
710.067	0.0166339
710.145	0.0165804
710.223	0.0166058
710.301	0.0166418
710.379	0.0166431
710.457	0.0165684
710.535	0.0165414
710.613	0.0166840
710.692	0.0166164
710.770	0.0165403
710.848	0.0165919
710.926	0.0166595
711.004	0.0168568
711.082	0.0167400
711.160	0.0166686
711.238	0.0166175
711.317	0.0165029
711.395	0.0166993
711.473	0.0166081
711.551	0.0167543
711.629	0.0166824
711.707	0.0165476
711.785	0.0166210
711.863	0.0166171
711.942	0.0166383
712.020	0.0166146
712.098	0.0165081
712.176	0.0165266
712.254	0.0166360
712.332	0.0166755
712.410	0.0164967
712.488	0.0164354
712.567	0.0168217
712.645	0.0166261
712.723	0.0164935
712.801	0.0166085
712.879	0.0165799
712.957	0.0165541
713.035	0.0165370
713.113	0.0166047
713.192	0.0165012
713.270	0.0166983
713.348	0.0166569
713.426	0.0166254
713.504	0.0165714
713.582	0.0165639
713.660	0.0165555
713.738	0.0166730
713.817	0.0167048
713.895	0.0165295
713.973	0.0166966
714.051	0.0165652
714.129	0.0164619
714.207	0.0165720
714.285	0.0166705
714.363	0.0166573
714.442	0.0165327
714.520	0.0165946
714.598	0.0166031
714.676	0.0166454
714.754	0.0166772
714.832	0.0165723
714.910	0.0165627
714.988	0.0165997
715.067	0.0165949
715.145	0.0166910
715.223	0.0166184
715.301	0.0166119
715.379	0.0165983
715.457	0.0165804
715.535	0.0165975
715.613	0.0166765
715.692	0.0168267
715.770	0.0166454
715.848	0.0165801
715.926	0.0166083
716.004	0.0167868
716.082	0.0166119
716.160	0.0166156
716.238	0.0167429
716.317	0.0167413
716.395	0.0166882
716.473	0.0165705
716.551	0.0165554
716.629	0.0166222
716.707	0.0164851
716.785	0.0165240
716.863	0.0166198
716.942	0.0167709
717.020	0.0165618
717.098	0.0165945
717.176	0.0165047
717.254	0.0165404
717.332	0.0166106
717.410	0.0167397
717.488	0.0165022
717.567	0.0165767
717.645	0.0165298
717.723	0.0166102
717.801	0.0165656
717.879	0.0167211
717.957	0.0165312
718.035	0.0164365
718.113	0.0166505
718.192	0.0166747
718.270	0.0167067
718.348	0.0165756
718.426	0.0166058
718.504	0.0166090
718.582	0.0167426
718.660	0.0166414
718.738	0.0165718
718.817	0.0166718
718.895	0.0166253
718.973	0.0166186
719.051	0.0166394
719.129	0.0166415
719.207	0.0165328
719.285	0.0165865
719.363	0.0165892
719.442	0.0165977
719.520	0.0166989
719.598	0.0166183
719.676	0.0164229
719.754	0.0165314
719.832	0.0166024
719.910	0.0164917
719.988	0.0164730
720.067	0.0165852
720.145	0.0166592
720.223	0.0166236
720.301	0.0165493
720.379	0.0165674
720.457	0.0165335
720.535	0.0165483
720.613	0.0165562
720.692	0.0165414
720.770	0.0165142
720.848	0.0165747
720.926	0.0168040
721.004	0.0167169
721.082	0.0166444
721.160	0.0164024
721.238	0.0166024
721.317	0.0167529
721.395	0.0165568
721.473	0.0166660
721.551	0.0166041
721.629	0.0165191
721.707	0.0166627
721.785	0.0166653
721.863	0.0166478
721.942	0.0166203
722.020	0.0166657
722.098	0.0166086
722.176	0.0166485
722.254	0.0165879
722.332	0.0167074
722.410	0.0166447
722.488	0.0165319
722.567	0.0166109
722.645	0.0166085
722.723	0.0166087
722.801	0.0166008
722.879	0.0165720
722.957	0.0165174
723.035	0.0167041
723.113	0.0165984
723.192	0.0166319
723.270	0.0167545
723.348	0.0165171
723.426	0.0165888
723.504	0.0166059
723.582	0.0165282
723.660	0.0166093
723.738	0.0166525
723.817	0.0166602
723.895	0.0166801
723.973	0.0166959
724.051	0.0165089
724.129	0.0166553
724.207	0.0167235
724.285	0.0165168
724.363	0.0165401
724.442	0.0165629
724.520	0.0165730
724.598	0.0165575
724.676	0.0165750
724.754	0.0165466
724.832	0.0165120
724.910	0.0166040
724.988	0.0165799
725.067	0.0165236
725.145	0.0165933
725.223	0.0165130
725.301	0.0166010
725.379	0.0166393
725.457	0.0164682
725.535	0.0165792
725.613	0.0164881
725.692	0.0166421
725.770	0.0165236
725.848	0.0167397
725.926	0.0166317
726.004	0.0166764
726.082	0.0166265
726.160	0.0166016
726.238	0.0165606
726.317	0.0166405
726.395	0.0165855
726.473	0.0166473
726.551	0.0166105
726.629	0.0167613
726.707	0.0167680
726.785	0.0166508
726.863	0.0167098
726.942	0.0166847
727.020	0.0165866
727.098	0.0165733
727.176	0.0166673
727.254	0.0166851
727.332	0.0165533
727.410	0.0166947
727.488	0.0165670
727.567	0.0165599
727.645	0.0165559
727.723	0.0165903
727.801	0.0167048
727.879	0.0165645
727.957	0.0166900
728.035	0.0166017
728.113	0.0167345
728.192	0.0165969
728.270	0.0166558
728.348	0.0167764
728.426	0.0166590
728.504	0.0165485
728.582	0.0166832
728.660	0.0166736
728.738	0.0166248
728.817	0.0165766
728.895	0.0166106
728.973	0.0166581
729.051	0.0166667
729.129	0.0166256
729.207	0.0166833
729.285	0.0165830
729.363	0.0166083
729.442	0.0165671
729.520	0.0165593
729.598	0.0167021
729.676	0.0166612
729.754	0.0167913
729.832	0.0167590
729.910	0.0165239
729.988	0.0165189
730.067	0.0166759
730.145	0.0166818
730.223	0.0165669
730.301	0.0167104
730.379	0.0166775
730.457	0.0166379
730.535	0.0165098
730.613	0.0166051
730.692	0.0165782
730.770	0.0165834
730.848	0.0166808
730.926	0.0166418
731.004	0.0165838
731.082	0.0166692
731.160	0.0165816
731.238	0.0167132
731.317	0.0168098
731.395	0.0167197
731.473	0.0166393
731.551	0.0166491
731.629	0.0166631
731.707	0.0166797
731.785	0.0166182
731.863	0.0165447
731.942	0.0166420
732.020	0.0167686
732.098	0.0165958
732.176	0.0165968
732.254	0.0165772
732.332	0.0165514
732.410	0.0166689
732.488	0.0166109
732.567	0.0165757
732.645	0.0165437
732.723	0.0166576
732.801	0.0164987
732.879	0.0166035
732.957	0.0165430
733.035	0.0166394
733.113	0.0166363
733.192	0.0165807
733.270	0.0166134
733.348	0.0165903
733.426	0.0166533
733.504	0.0165878
733.582	0.0166178
733.660	0.0165861
733.738	0.0165087
733.817	0.0166462
733.895	0.0165086
733.973	0.0166817
734.051	0.0165324
734.129	0.0165186
734.207	0.0165417
734.285	0.0166834
734.363	0.0166347
734.442	0.0165865
734.520	0.0165872
734.598	0.0166974
734.676	0.0166111
734.754	0.0165231
734.832	0.0166457
734.910	0.0165945
734.988	0.0165912
735.067	0.0165982
735.145	0.0165073
735.223	0.0165591
735.301	0.0165514
735.379	0.0166129
735.457	0.0167213
735.535	0.0165874
735.613	0.0166499
735.692	0.0166399
735.770	0.0164680
735.848	0.0165955
735.926	0.0165894
736.004	0.0165758
736.082	0.0165786
736.160	0.0165813
736.238	0.0166568
736.317	0.0164843
736.395	0.0166030
736.473	0.0164982
736.551	0.0164977
736.629	0.0165855
736.707	0.0165737
736.785	0.0164363
736.863	0.0166058
736.942	0.0166925
737.020	0.0165193
737.098	0.0165158
737.176	0.0165269
737.254	0.0165686
737.332	0.0165275
737.410	0.0166949
737.488	0.0165785
737.567	0.0166088
737.645	0.0166286
737.723	0.0165665
737.801	0.0166192
737.879	0.0165779
737.957	0.0166843
738.035	0.0166061
738.113	0.0165441
738.192	0.0164349
738.270	0.0164891
738.348	0.0166183
738.426	0.0165725
738.504	0.0166228
738.582	0.0165874
738.660	0.0165709
738.738	0.0166048
738.817	0.0165314
738.895	0.0164709
738.973	0.0166537
739.051	0.0167058
739.129	0.0165782
739.207	0.0166364
739.285	0.0166130
739.363	0.0165729
739.442	0.0166872
739.520	0.0164687
739.598	0.0165202
739.676	0.0167525
739.754	0.0165878
739.832	0.0166142
739.910	0.0164676
739.988	0.0165745
740.067	0.0165439
740.145	0.0166592
740.223	0.0167843
740.301	0.0167516
740.379	0.0166569
740.457	0.0166322
740.535	0.0165318
740.613	0.0167004
740.692	0.0166605
740.770	0.0166390
740.848	0.0168466
740.926	0.0167072
741.004	0.0165784
741.082	0.0166636
741.160	0.0166846
741.238	0.0165417
741.317	0.0166966
741.395	0.0165672
741.473	0.0164539
741.551	0.0165038
741.629	0.0161569
741.707	0.0161144
741.785	0.0162646
741.863	0.0160503
741.942	0.0161284
742.020	0.0161332
742.098	0.0163449
742.176	0.0164062
742.254	0.0166643
742.332	0.0167559
742.410	0.0170890
742.488	0.0170686
742.567	0.0172388
742.645	0.0173528
742.723	0.0174738
742.801	0.0176772
742.879	0.0174617
742.957	0.0171837
743.035	0.0171946
743.113	0.0169917
743.192	0.0169592
743.270	0.0166609
743.348	0.0165837
743.426	0.0162403
743.504	0.0159648
743.582	0.0157309
743.660	0.0155801
743.738	0.0154266
743.817	0.0152449
743.895	0.0151308
743.973	0.0148705
744.051	0.0151846
744.129	0.0153927
744.207	0.0157459
744.285	0.0163757
744.363	0.0168586
744.442	0.0174707
744.520	0.0181871
744.598	0.0187747
744.676	0.0188868
744.754	0.0190598
744.832	0.0188389
744.910	0.0184098
744.988	0.0179857
745.067	0.0172713
745.145	0.0167326
745.223	0.0160939
745.301	0.0158070
745.379	0.0156236
745.457	0.0154377
745.535	0.0154981
745.613	0.0155994
745.692	0.0158453
745.770	0.0159502
745.848	0.0160542
745.926	0.0161876
746.004	0.0160197
746.082	0.0160775
746.160	0.0157796
746.238	0.0155470
746.317	0.0152718
746.395	0.0151363
746.473	0.0150919
746.551	0.0153384
746.629	0.0158747
746.707	0.0164664
746.785	0.0173260
746.863	0.0181242
746.942	0.0187951
747.020	0.0193272
747.098	0.0196122
747.176	0.0193645
747.254	0.0191747
747.332	0.0186771
747.410	0.0178309
747.488	0.0171825
747.567	0.0164967
747.645	0.0159353
747.723	0.0155350
747.801	0.0150611
747.879	0.0148991
747.957	0.0149071
748.035	0.0147153
748.113	0.0148746
748.192	0.0150083
748.270	0.0150107
748.348	0.0153315
748.426	0.0153918
748.504	0.0155255
748.582	0.0157682
748.660	0.0159134
748.738	0.0163846
748.817	0.0166174
748.895	0.0170461
748.973	0.0173521
749.051	0.0176918
749.129	0.0181611
749.207	0.0182598
749.285	0.0187798
749.363	0.0188607
749.442	0.0191344
749.520	0.0189173
749.598	0.0188074
749.676	0.0185063
749.754	0.0180520
749.832	0.0174298
749.910	0.0165390
749.988	0.0156461
750.067	0.0149570
750.145	0.0143027
750.223	0.0140549
750.301	0.0140733
750.379	0.0141222
750.457	0.0146146
750.535	0.0149561
750.613	0.0155842
750.692	0.0159807
750.770	0.0167244
750.848	0.0170985
750.926	0.0175383
751.004	0.0176856
751.082	0.0178758
751.160	0.0178163
751.238	0.0177797
751.317	0.0174220
751.395	0.0174633
751.473	0.0172020
751.551	0.0169398
751.629	0.0168054
751.707	0.0166966
751.785	0.0167346
751.863	0.0166677
751.942	0.0166869
752.020	0.0166618
752.098	0.0168135
752.176	0.0167477
752.254	0.0166754
752.332	0.0166972
752.410	0.0166055
752.488	0.0164145
752.567	0.0161609
752.645	0.0160767
752.723	0.0158140
752.801	0.0156926
752.879	0.0157705
752.957	0.0154257
753.035	0.0155272
753.113	0.0156738
753.192	0.0157332
753.270	0.0160964
753.348	0.0163827
753.426	0.0167991
753.504	0.0173715
753.582	0.0176006
753.660	0.0179819
753.738	0.0180311
753.817	0.0180875
753.895	0.0182735
753.973	0.0183124
754.051	0.0183934
754.129	0.0182008
754.207	0.0179966
754.285	0.0175842
754.363	0.0172981
754.442	0.0169888
754.520	0.0167492
754.598	0.0164208
754.676	0.0160440
754.754	0.0157136
754.832	0.0155468
754.910	0.0154218
754.988	0.0152378
755.067	0.0151973
755.145	0.0152076
755.223	0.0152430
755.301	0.0153400
755.379	0.0153384
755.457	0.0153645
755.535	0.0153645
755.613	0.0156457
755.692	0.0157007
755.770	0.0159820
755.848	0.0158347
755.926	0.0160932
756.004	0.0163395
756.082	0.0164393
756.160	0.0167564
756.238	0.0170058
756.317	0.0172935
756.395	0.0176832
756.473	0.0177987
756.551	0.0179835
756.629	0.0182953
756.707	0.0184869
756.785	0.0185022
756.863	0.0188499
756.942	0.0188202
757.020	0.0189439
757.098	0.0191478
757.176	0.0190984
757.254	0.0190031
757.332	0.0187721
757.410	0.0182370
757.488	0.0179846
757.567	0.0174578
757.645	0.0167429
757.723	0.0162259
757.801	0.0155587
757.879	0.0150163
757.957	0.0144230
758.035	0.0140015
758.113	0.0136476
758.192	0.0135002
758.270	0.0133746
758.348	0.0134309
758.426	0.0135316
758.504	0.0136452
758.582	0.0139332
758.660	0.0144305
758.738	0.0145683
758.817	0.0148742
758.895	0.0152525
758.973	0.0156521
759.051	0.0159302
759.129	0.0162651
759.207	0.0164884
759.285	0.0171107
759.363	0.0176771
759.442	0.0180212
759.520	0.0185019
759.598	0.0189397
759.676	0.0192668
759.754	0.0195344
759.832	0.0198435
759.910	0.0200631
759.988	0.0199326
760.067	0.0200500
760.145	0.0199617
760.223	0.0197429
760.301	0.0195493
760.379	0.0192172
760.457	0.0188484
760.535	0.0186610
760.613	0.0182542
760.692	0.0177870
760.770	0.0171453
760.848	0.0165724
760.926	0.0160779
761.004	0.0154523
761.082	0.0151551
761.160	0.0146730
761.238	0.0141109
761.317	0.0137914
761.395	0.0135194
761.473	0.0131102
761.551	0.0130335
761.629	0.0131199
761.707	0.0129544
761.785	0.0129306
761.863	0.0134617
761.942	0.0136695
762.020	0.0138766
762.098	0.0142440
762.176	0.0146219
762.254	0.0147752
762.332	0.0149837
762.410	0.0151991
762.488	0.0154565
762.567	0.0157191
762.645	0.0160306
762.723	0.0163472
762.801	0.0168102
762.879	0.0171839
762.957	0.0175804
763.035	0.0181208
763.113	0.0186113
763.192	0.0192027
763.270	0.0196857
763.348	0.0202838
763.426	0.0208429
763.504	0.0211255
763.582	0.0214634
763.660	0.0217102
763.738	0.0215140
763.817	0.0213992
763.895	0.0210166
763.973	0.0205646
764.051	0.0198089
764.129	0.0191300
764.207	0.0182896
764.285	0.0173313
764.363	0.0165365
764.442	0.0157431
764.520	0.0149501
764.598	0.0143807
764.676	0.0137457
764.754	0.0131825
764.832	0.0129536
764.910	0.0127230
764.988	0.0124461
765.067	0.0125208
765.145	0.0126618
765.223	0.0128156
765.301	0.0133402
765.379	0.0137806
765.457	0.0141497
765.535	0.0147350
765.613	0.0152926
765.692	0.0157423
765.770	0.0159645
765.848	0.0160216
765.926	0.0161512
766.004	0.0162213
766.082	0.0160928
766.160	0.0160448
766.238	0.0160500
766.317	0.0159348
766.395	0.0158782
766.473	0.0160041
766.551	0.0160072
766.629	0.0161557
766.707	0.0164292
766.785	0.0165873
766.863	0.0168481
766.942	0.0172410
767.020	0.0176744
767.098	0.0181941
767.176	0.0185754
767.254	0.0191595
767.332	0.0195318
767.410	0.0197295
767.488	0.0199580
767.567	0.0200726
767.645	0.0201278
767.723	0.0199471
767.801	0.0196968
767.879	0.0193634
767.957	0.0191948
768.035	0.0186513
768.113	0.0182236
768.192	0.0179400
768.270	0.0172467
768.348	0.0167498
768.426	0.0163387
768.504	0.0159896
768.582	0.0154535
768.660	0.0151321
768.738	0.0149979
768.817	0.0148387
768.895	0.0149335
768.973	0.0149174
769.051	0.0150468
769.129	0.0151431
769.207	0.0154390
769.285	0.0154786
769.363	0.0157778
769.442	0.0157777
769.520	0.0157058
769.598	0.0157575
769.676	0.0156948
769.754	0.0155083
769.832	0.0153756
769.910	0.0152994
769.988	0.0149658
770.067	0.0146487
770.145	0.0145291
770.223	0.0142085
770.301	0.0141971
770.379	0.0140544
770.457	0.0141073
770.535	0.0142598
770.613	0.0144876
770.692	0.0148395
770.770	0.0153928
770.848	0.0157644
770.926	0.0164073
771.004	0.0170161
771.082	0.0174783
771.160	0.0179639
771.238	0.0184331
771.317	0.0188197
771.395	0.0190717
771.473	0.0190699
771.551	0.0192722
771.629	0.0192610
771.707	0.0189549
771.785	0.0188425
771.863	0.0186557
771.942	0.0181997
772.020	0.0180393
772.098	0.0180120
772.176	0.0176247
772.254	0.0175805
772.332	0.0176109
772.410	0.0174039
772.488	0.0176282
772.567	0.0176356
772.645	0.0177264
772.723	0.0180024
772.801	0.0180343
772.879	0.0180518
772.957	0.0181080
773.035	0.0181075
773.113	0.0179678
773.192	0.0178600
773.270	0.0174474
773.348	0.0172781
773.426	0.0168719
773.504	0.0164601
773.582	0.0159801
773.660	0.0155859
773.738	0.0151492
773.817	0.0144309
773.895	0.0140687
773.973	0.0135760
774.051	0.0131828
774.129	0.0129207
774.207	0.0125683
774.285	0.0125236
774.363	0.0125353
774.442	0.0124627
774.520	0.0126080
774.598	0.0129646
774.676	0.0133446
774.754	0.0137820
774.832	0.0143020
774.910	0.0150819
774.988	0.0156369
775.067	0.0160301
775.145	0.0166845
775.223	0.0172225
775.301	0.0178572
775.379	0.0183366
775.457	0.0188265
775.535	0.0193101
775.613	0.0193702
775.692	0.0194586
775.770	0.0195875
775.848	0.0197625
775.926	0.0196801
776.004	0.0195037
776.082	0.0195132
776.160	0.0191702
776.238	0.0190510
776.317	0.0188628
776.395	0.0187167
776.473	0.0183696
776.551	0.0183601
776.629	0.0182402
776.707	0.0182004
776.785	0.0180815
776.863	0.0180650
776.942	0.0178242
777.020	0.0176968
777.098	0.0172988
777.176	0.0172497
777.254	0.0169666
777.332	0.0167931
777.410	0.0164795
777.488	0.0160978
777.567	0.0157814
777.645	0.0155557
777.723	0.0152566
777.801	0.0147977
777.879	0.0145464
777.957	0.0142985
778.035	0.0140237
778.113	0.0137319
778.192	0.0136106
778.270	0.0134018
778.348	0.0133828
778.426	0.0133507
778.504	0.0135415
778.582	0.0135619
778.660	0.0137586
778.738	0.0141994
778.817	0.0146107
778.895	0.0149220
778.973	0.0154878
779.051	0.0158029
779.129	0.0165318
779.207	0.0171011
779.285	0.0177085
779.363	0.0181055
779.442	0.0185562
779.520	0.0190515
779.598	0.0191915
779.676	0.0192868
779.754	0.0194292
779.832	0.0194478
779.910	0.0195021
779.988	0.0193889
780.067	0.0192186
780.145	0.0190410
780.223	0.0187944
780.301	0.0186336
780.379	0.0182801
780.457	0.0178933
780.535	0.0174726
780.613	0.0172370
780.692	0.0168788
780.770	0.0166249
780.848	0.0162232
780.926	0.0158517
781.004	0.0156229
781.082	0.0152959
781.160	0.0150487
781.238	0.0148855
781.317	0.0146107
781.395	0.0145184
781.473	0.0146012
781.551	0.0147309
781.629	0.0147659
781.707	0.0147337
781.785	0.0148000
781.863	0.0151209
781.942	0.0153664
782.020	0.0157503
782.098	0.0159613
782.176	0.0163660
782.254	0.0166126
782.332	0.0169257
782.410	0.0171296
782.488	0.0173402
782.567	0.0176098
782.645	0.0177422
782.723	0.0179131
782.801	0.0180270
782.879	0.0182255
782.957	0.0182836
783.035	0.0181474
783.113	0.0181551
783.192	0.0182235
783.270	0.0180957
783.348	0.0180391
783.426	0.0177608
783.504	0.0175284
783.582	0.0173047
783.660	0.0171987
783.738	0.0169497
783.817	0.0166914
783.895	0.0163921
783.973	0.0162946
784.051	0.0162056
784.129	0.0158096
784.207	0.0156281
784.285	0.0155643
784.363	0.0154059
784.442	0.0155347
784.520	0.0154726
784.598	0.0154749
784.676	0.0155321
784.754	0.0157381
784.832	0.0157276
784.910	0.0159232
784.988	0.0161594
785.067	0.0164156
785.145	0.0162161
785.223	0.0163431
785.301	0.0164953
785.379	0.0166017
785.457	0.0162966
785.535	0.0163020
785.613	0.0164738
785.692	0.0162663
785.770	0.0163003
785.848	0.0162135
785.926	0.0162515
786.004	0.0161373
786.082	0.0163364
786.160	0.0161566
786.238	0.0162346
786.317	0.0163863
786.395	0.0164924
786.473	0.0166197
786.551	0.0166392
786.629	0.0168785
786.707	0.0170331
786.785	0.0170015
786.863	0.0171120
786.942	0.0173935
787.020	0.0175493
787.098	0.0177235
787.176	0.0177397
787.254	0.0179130
787.332	0.0179832
787.410	0.0181286
787.488	0.0179957
787.567	0.0180072
787.645	0.0180141
787.723	0.0178975
787.801	0.0176499
787.879	0.0174728
787.957	0.0172552
788.035	0.0169090
788.113	0.0166284
788.192	0.0164750
788.270	0.0161691
788.348	0.0159521
788.426	0.0155975
788.504	0.0155767
788.582	0.0152362
788.660	0.0153397
788.738	0.0151125
788.817	0.0149166
788.895	0.0150662
788.973	0.0149473
789.051	0.0150446
789.129	0.0150288
789.207	0.0149816
789.285	0.0149793
789.363	0.0151744
789.442	0.0154005
789.520	0.0156638
789.598	0.0158205
789.676	0.0160119
789.754	0.0164388
789.832	0.0167162
789.910	0.0170218
789.988	0.0171410
790.067	0.0173328
790.145	0.0176712
790.223	0.0179591
790.301	0.0180647
790.379	0.0180984
790.457	0.0181850
790.535	0.0181741
790.613	0.0180229
790.692	0.0178053
790.770	0.0177282
790.848	0.0176499
790.926	0.0173327
791.004	0.0170761
791.082	0.0168938
791.160	0.0167124
791.238	0.0167153
791.317	0.0164989
791.395	0.0165056
791.473	0.0162239
791.551	0.0160210
791.629	0.0160912
791.707	0.0157449
791.785	0.0157196
791.863	0.0159061
791.942	0.0157314
792.020	0.0155915
792.098	0.0157102
792.176	0.0156828
792.254	0.0157346
792.332	0.0157748
792.410	0.0159550
792.488	0.0160192
792.567	0.0161083
792.645	0.0161968
792.723	0.0163106
792.801	0.0165592
792.879	0.0165388
792.957	0.0167063
793.035	0.0167007
793.113	0.0168525
793.192	0.0167677
793.270	0.0168154
793.348	0.0168077
793.426	0.0168988
793.504	0.0169355
793.582	0.0170997
793.660	0.0170701
793.738	0.0170695
793.817	0.0171056
793.895	0.0173624
793.973	0.0172736
794.051	0.0173478
794.129	0.0173516
794.207	0.0172956
794.285	0.0173765
794.363	0.0173055
794.442	0.0170837
794.520	0.0170516
794.598	0.0169025
794.676	0.0168463
794.754	0.0168486
794.832	0.0167845
794.910	0.0167003
794.988	0.0165556
795.067	0.0167031
795.145	0.0164921
795.223	0.0165988
795.301	0.0166031
795.379	0.0165157
795.457	0.0164229
795.535	0.0163987
795.613	0.0163684
795.692	0.0162387
795.770	0.0161358
795.848	0.0161479
795.926	0.0161254
796.004	0.0159466
796.082	0.0158425
796.160	0.0157142
796.238	0.0157024
796.317	0.0156313
796.395	0.0154983
796.473	0.0155043
796.551	0.0154057
796.629	0.0153382
796.707	0.0155927
796.785	0.0156837
796.863	0.0156445
796.942	0.0158454
797.020	0.0160519
797.098	0.0161919
797.176	0.0163179
797.254	0.0166268
797.332	0.0168366
797.410	0.0170493
797.488	0.0171740
797.567	0.0172359
797.645	0.0174300
797.723	0.0175749
797.801	0.0177629
797.879	0.0177518
797.957	0.0178301
798.035	0.0177863
798.113	0.0178289
798.192	0.0177074
798.270	0.0176346
798.348	0.0175629
798.426	0.0174241
798.504	0.0172338
798.582	0.0172953
798.660	0.0170767
798.738	0.0170008
798.817	0.0167372
798.895	0.0166054
798.973	0.0164838
799.051	0.0163170
799.129	0.0163219
799.207	0.0160991
799.285	0.0159556
799.363	0.0160490
799.442	0.0160226
799.520	0.0160621
799.598	0.0158652
799.676	0.0158353
799.754	0.0158434
799.832	0.0158492
799.910	0.0159423
799.988	0.0159290
800.067	0.0158916
800.145	0.0159663
800.223	0.0161295
800.301	0.0161040
800.379	0.0161868
800.457	0.0163774
800.535	0.0162894
800.613	0.0165699
800.692	0.0166135
800.770	0.0164767
800.848	0.0164343
800.926	0.0165469
801.004	0.0164717
801.082	0.0163278
801.160	0.0165459
801.238	0.0165555
801.317	0.0166442
801.395	0.0166699
801.473	0.0165797
801.551	0.0167309
801.629	0.0167220
801.707	0.0167000
801.785	0.0167780
801.863	0.0168272
801.942	0.0168198
802.020	0.0168455
802.098	0.0170866
802.176	0.0168311
802.254	0.0168830
802.332	0.0170126
802.410	0.0170576
802.488	0.0169323
802.567	0.0168651
802.645	0.0169138
802.723	0.0166497
802.801	0.0167513
802.879	0.0167228
802.957	0.0166163
803.035	0.0166013
803.113	0.0165047
803.192	0.0162820
803.270	0.0162160
803.348	0.0163226
803.426	0.0161913
803.504	0.0160818
803.582	0.0159060
803.660	0.0160502
803.738	0.0159225
803.817	0.0161454
803.895	0.0161527
803.973	0.0161375
804.051	0.0161965
804.129	0.0163142
804.207	0.0162786
804.285	0.0163176
804.363	0.0164167
804.442	0.0164291
804.520	0.0166401
804.598	0.0167967
804.676	0.0169096
804.754	0.0170471
804.832	0.0169576
804.910	0.0170166
804.988	0.0171459
805.067	0.0171972
805.145	0.0171098
805.223	0.0171581
805.301	0.0170856
805.379	0.0170656
805.457	0.0170122
805.535	0.0171099
805.613	0.0169312
805.692	0.0169762
805.770	0.0169998
805.848	0.0169763
805.926	0.0168671
806.004	0.0167267
806.082	0.0165163
806.160	0.0167082
806.238	0.0165852
806.317	0.0165828
806.395	0.0166675
806.473	0.0165767
806.551	0.0164149
806.629	0.0164552
806.707	0.0163122
806.785	0.0163525
806.863	0.0164096
806.942	0.0163335
807.020	0.0161605
807.098	0.0162698
807.176	0.0163529
807.254	0.0163593
807.332	0.0162966
807.410	0.0163505
807.488	0.0164198
807.567	0.0164419
807.645	0.0165076
807.723	0.0163993
807.801	0.0163572
807.879	0.0165036
807.957	0.0165417
808.035	0.0164629
808.113	0.0163089
808.192	0.0163146
808.270	0.0164259
808.348	0.0162098
808.426	0.0160940
808.504	0.0162559
808.582	0.0161555
808.660	0.0161429
808.738	0.0162547
808.817	0.0163314
808.895	0.0162457
808.973	0.0162314
809.051	0.0162477
809.129	0.0162759
809.207	0.0163761
809.285	0.0165039
809.363	0.0165659
809.442	0.0166745
809.520	0.0168025
809.598	0.0168188
809.676	0.0168826
809.754	0.0170506
809.832	0.0171104
809.910	0.0174406
809.988	0.0173689
810.067	0.0173416
810.145	0.0173973
810.223	0.0174439
810.301	0.0174538
810.379	0.0174574
810.457	0.0173433
810.535	0.0173866
810.613	0.0173214
810.692	0.0172997
810.770	0.0172451
810.848	0.0170845
810.926	0.0170258
811.004	0.0167711
811.082	0.0167736
811.160	0.0164767
811.238	0.0163992
811.317	0.0164093
811.395	0.0163532
811.473	0.0161687
811.551	0.0160523
811.629	0.0160989
811.707	0.0159322
811.785	0.0157097
811.863	0.0158037
811.942	0.0159766
812.020	0.0159435
812.098	0.0159369
812.176	0.0160423
812.254	0.0161131
812.332	0.0161048
812.410	0.0162866
812.488	0.0165801
812.567	0.0165061
812.645	0.0166557
812.723	0.0166758
812.801	0.0167192
812.879	0.0168894
812.957	0.0169360
813.035	0.0169486
813.113	0.0169821
813.192	0.0170015
813.270	0.0168045
813.348	0.0168475
813.426	0.0168121
813.504	0.0168536
813.582	0.0166653
813.660	0.0166734
813.738	0.0165225
813.817	0.0165147
813.895	0.0164054
813.973	0.0165417
814.051	0.0165017
814.129	0.0163737
814.207	0.0164949
814.285	0.0164801
814.363	0.0163801
814.442	0.0165168
814.520	0.0166689
814.598	0.0165147
814.676	0.0166200
814.754	0.0165585
814.832	0.0166364
814.910	0.0166597
814.988	0.0165907
815.067	0.0164565
815.145	0.0164497
815.223	0.0163199
815.301	0.0163152
815.379	0.0162334
815.457	0.0161687
815.535	0.0162256
815.613	0.0160585
815.692	0.0162244
815.770	0.0160670
815.848	0.0160841
815.926	0.0161308
816.004	0.0162373
816.082	0.0162341
816.160	0.0162323
816.238	0.0163127
816.317	0.0165977
816.395	0.0165952
816.473	0.0168160
816.551	0.0169035
816.629	0.0170631
816.707	0.0173775
816.785	0.0173180
816.863	0.0173741
816.942	0.0175096
817.020	0.0176134
817.098	0.0172913
817.176	0.0173196
817.254	0.0173098
817.332	0.0172304
817.410	0.0171637
817.488	0.0170361
817.567	0.0170258
817.645	0.0168076
817.723	0.0167675
817.801	0.0166865
817.879	0.0166459
817.957	0.0167904
818.035	0.0166096
818.113	0.0166554
818.192	0.0166648
818.270	0.0167686
818.348	0.0168674
818.426	0.0166965
818.504	0.0167870
818.582	0.0169156
818.660	0.0167948
818.738	0.0166352
818.817	0.0166360
818.895	0.0165844
818.973	0.0164996
819.051	0.0163374
819.129	0.0162439
819.207	0.0160767
819.285	0.0161742
819.363	0.0158469
819.442	0.0158247
819.520	0.0158274
819.598	0.0156187
819.676	0.0156989
819.754	0.0155070
819.832	0.0155367
819.910	0.0156321
819.988	0.0156652
820.067	0.0156728
820.145	0.0158533
820.223	0.0158694
820.301	0.0160173
820.379	0.0162170
820.457	0.0162429
820.535	0.0163622
820.613	0.0164380
820.692	0.0166212
820.770	0.0167892
820.848	0.0167048
820.926	0.0168426
821.004	0.0169257
821.082	0.0169648
821.160	0.0169486
821.238	0.0169350
821.317	0.0170581
821.395	0.0171104
821.473	0.0169972
821.551	0.0170736
821.629	0.0170315
821.707	0.0171005
821.785	0.0171025
821.863	0.0172709
821.942	0.0172916
822.020	0.0172196
822.098	0.0172678
822.176	0.0174067
822.254	0.0174110
822.332	0.0172609
822.410	0.0175146
822.488	0.0172513
822.567	0.0172075
822.645	0.0171371
822.723	0.0170332
822.801	0.0169984
822.879	0.0168594
822.957	0.0168491
823.035	0.0167381
823.113	0.0165049
823.192	0.0163396
823.270	0.0160727
823.348	0.0162461
823.426	0.0161706
823.504	0.0161578
823.582	0.0160170
823.660	0.0159953
823.738	0.0161177
823.817	0.0159782
823.895	0.0159238
823.973	0.0158995
824.051	0.0160686
824.129	0.0161752
824.207	0.0162191
824.285	0.0161684
824.363	0.0162901
824.442	0.0163824
824.520	0.0163286
824.598	0.0164655
824.676	0.0165327
824.754	0.0168078
824.832	0.0167357
824.910	0.0166911
824.988	0.0169275
825.067	0.0167845
825.145	0.0169431
825.223	0.0169721
825.301	0.0169749
825.379	0.0169839
825.457	0.0167986
825.535	0.0168060
825.613	0.0168616
825.692	0.0167353
825.770	0.0165292
825.848	0.0165818
825.926	0.0165271
826.004	0.0163779
826.082	0.0164715
826.160	0.0163088
826.238	0.0164118
826.317	0.0165939
826.395	0.0163210
826.473	0.0164365
826.551	0.0163341
826.629	0.0163555
826.707	0.0163345
826.785	0.0162160
826.863	0.0162997
826.942	0.0163174
827.020	0.0163615
827.098	0.0163287
827.176	0.0164827
827.254	0.0163666
827.332	0.0163177
827.410	0.0164699
827.488	0.0164225
827.567	0.0163971
827.645	0.0162981
827.723	0.0164182
827.801	0.0161963
827.879	0.0162839
827.957	0.0163208
828.035	0.0163929
828.113	0.0163937
828.192	0.0164562
828.270	0.0165768
828.348	0.0167260
828.426	0.0168910
828.504	0.0168924
828.582	0.0170619
828.660	0.0170412
828.738	0.0171750
828.817	0.0171795
828.895	0.0173059
828.973	0.0173660
829.051	0.0172724
829.129	0.0174059
829.207	0.0174509
829.285	0.0172762
829.363	0.0171284
829.442	0.0172275
829.520	0.0169875
829.598	0.0168673
829.676	0.0167892
829.754	0.0166695
829.832	0.0166386
829.910	0.0164131
829.988	0.0163461
830.067	0.0163406
830.145	0.0163532
830.223	0.0162579
830.301	0.0162107
830.379	0.0162307
830.457	0.0162621
830.535	0.0162972
830.613	0.0163068
830.692	0.0163253
830.770	0.0163242
830.848	0.0163827
830.926	0.0163122
831.004	0.0163371
831.082	0.0164241
831.160	0.0163692
831.238	0.0163136
831.317	0.0164264
831.395	0.0163998
831.473	0.0162402
831.551	0.0164057
831.629	0.0163406
831.707	0.0161678
831.785	0.0161702
831.863	0.0162935
831.942	0.0160317
832.020	0.0159627
832.098	0.0161205
832.176	0.0162324
832.254	0.0161503
832.332	0.0161737
832.410	0.0161691
832.488	0.0164983
832.567	0.0165479
832.645	0.0164445
832.723	0.0166637
832.801	0.0168177
832.879	0.0169424
832.957	0.0169119
833.035	0.0171343
833.113	0.0172354
833.192	0.0170953
833.270	0.0171092
833.348	0.0170365
833.426	0.0171559
833.504	0.0171598
833.582	0.0170865
833.660	0.0169436
833.738	0.0168503
833.817	0.0168136
833.895	0.0168405
833.973	0.0168519
834.051	0.0167720
834.129	0.0166833
834.207	0.0167070
834.285	0.0166323
834.363	0.0165698
834.442	0.0164735
834.520	0.0166388
834.598	0.0164635
834.676	0.0166206
834.754	0.0166704
834.832	0.0166064
834.910	0.0166219
834.988	0.0165378
835.067	0.0166402
835.145	0.0166125
835.223	0.0166454
835.301	0.0165958
835.379	0.0165942
835.457	0.0166055
835.535	0.0165253
835.613	0.0163699
835.692	0.0166042
835.770	0.0164609
835.848	0.0163969
835.926	0.0162198
836.004	0.0162679
836.082	0.0162674
836.160	0.0162201
836.238	0.0160823
836.317	0.0163725
836.395	0.0163927
836.473	0.0164263
836.551	0.0162563
836.629	0.0163305
836.707	0.0165783
836.785	0.0165878
836.863	0.0165180
836.942	0.0166730
837.020	0.0167771
837.098	0.0168521
837.176	0.0167606
837.254	0.0169073
837.332	0.0167188
837.410	0.0168908
837.488	0.0170639
837.567	0.0168802
837.645	0.0169582
837.723	0.0168195
837.801	0.0168176
837.879	0.0167781
837.957	0.0168273
838.035	0.0167213
838.113	0.0166385
838.192	0.0166171
838.270	0.0165490
838.348	0.0165721
838.426	0.0164638
838.504	0.0164983
838.582	0.0162473
838.660	0.0164809
838.738	0.0163145
838.817	0.0162667
838.895	0.0163494
838.973	0.0162457
839.051	0.0163634
839.129	0.0164209
839.207	0.0163593
839.285	0.0164551
839.363	0.0164714
839.442	0.0164771
839.520	0.0166737
839.598	0.0165416
839.676	0.0166061
839.754	0.0167632
839.832	0.0167367
839.910	0.0168392
839.988	0.0167662
840.067	0.0167732
840.145	0.0167629
840.223	0.0167580
840.301	0.0167804
840.379	0.0168132
840.457	0.0169268
840.535	0.0167964
840.613	0.0167416
840.692	0.0168908
840.770	0.0168456
840.848	0.0168256
840.926	0.0168533
841.004	0.0168665
841.082	0.0168168
841.160	0.0168295
841.238	0.0168394
841.317	0.0167606
841.395	0.0168405
841.473	0.0168999
841.551	0.0169654
841.629	0.0168660
841.707	0.0168982
841.785	0.0169783
841.863	0.0169223
841.942	0.0167078
842.020	0.0169640
842.098	0.0168140
842.176	0.0168428
842.254	0.0166257
842.332	0.0166058
842.410	0.0165329
842.488	0.0165572
842.567	0.0165433
842.645	0.0163211
842.723	0.0163331
842.801	0.0164595
842.879	0.0162919
842.957	0.0161373
843.035	0.0164432
843.113	0.0164016
843.192	0.0163398
843.270	0.0163850
843.348	0.0163747
843.426	0.0165235
843.504	0.0164812
843.582	0.0165535
843.660	0.0164677
843.738	0.0164767
843.817	0.0165451
843.895	0.0163949
843.973	0.0165314
844.051	0.0164802
844.129	0.0163770
844.207	0.0164980
844.285	0.0163593
844.363	0.0164003
844.442	0.0164603
844.520	0.0164125
844.598	0.0162369
844.676	0.0162845
844.754	0.0163455
844.832	0.0163498
844.910	0.0164400
844.988	0.0163803
845.067	0.0163763
845.145	0.0165498
845.223	0.0165342
845.301	0.0166348
845.379	0.0167797
845.457	0.0167265
845.535	0.0168835
845.613	0.0169283
845.692	0.0169649
845.770	0.0170441
845.848	0.0170817
845.926	0.0169161
846.004	0.0170971
846.082	0.0170773
846.160	0.0170695
846.238	0.0170164
846.317	0.0168507
846.395	0.0168500
846.473	0.0167350
846.551	0.0166819
846.629	0.0167509
846.707	0.0166170
846.785	0.0164896
846.863	0.0166131
846.942	0.0164570
847.020	0.0162769
847.098	0.0164323
847.176	0.0162173
847.254	0.0163842
847.332	0.0161955
847.410	0.0162437
847.488	0.0163779
847.567	0.0164355
847.645	0.0165082
847.723	0.0165820
847.801	0.0165916
847.879	0.0166605
847.957	0.0166716
848.035	0.0166094
848.113	0.0166045
848.192	0.0166336
848.270	0.0166708
848.348	0.0166093
848.426	0.0166529
848.504	0.0167329
848.582	0.0165501
848.660	0.0164890
848.738	0.0164992
848.817	0.0164252
848.895	0.0165050
848.973	0.0164935
849.051	0.0163279
849.129	0.0164870
849.207	0.0163393
849.285	0.0163644
849.363	0.0163187
849.442	0.0163139
849.520	0.0164981
849.598	0.0166353
849.676	0.0164503
849.754	0.0164784
849.832	0.0166135
849.910	0.0167507
849.988	0.0168051
850.067	0.0167230
850.145	0.0168404
850.223	0.0168176
850.301	0.0168160
850.379	0.0168803
850.457	0.0169013
850.535	0.0169865
850.613	0.0170284
850.692	0.0169208
850.770	0.0169278
850.848	0.0168320
850.926	0.0167898
851.004	0.0166476
851.082	0.0165533
851.160	0.0165501
851.238	0.0162923
851.317	0.0164497
851.395	0.0163337
851.473	0.0162570
851.551	0.0162275
851.629	0.0160216
851.707	0.0160966
851.785	0.0163105
851.863	0.0161951
851.942	0.0163094
852.020	0.0162650
852.098	0.0164348
852.176	0.0164873
852.254	0.0165292
852.332	0.0166741
852.410	0.0165826
852.488	0.0165643
852.567	0.0168130
852.645	0.0169713
852.723	0.0167487
852.801	0.0169438
852.879	0.0168967
852.957	0.0169115
853.035	0.0170580
853.113	0.0168715
853.192	0.0168479
853.270	0.0167364
853.348	0.0167178
853.426	0.0168100
853.504	0.0168532
853.582	0.0167332
853.660	0.0167954
853.738	0.0166875
853.817	0.0167139
853.895	0.0167153
853.973	0.0168633
854.051	0.0167001
854.129	0.0165958
854.207	0.0168193
854.285	0.0167245
854.363	0.0167405
854.442	0.0167035
854.520	0.0166269
854.598	0.0165506
854.676	0.0163985
854.754	0.0164206
854.832	0.0164003
854.910	0.0162432
854.988	0.0161621
855.067	0.0160687
855.145	0.0160812
855.223	0.0160394
855.301	0.0161053
855.379	0.0161477
855.457	0.0161622
855.535	0.0160601
855.613	0.0160870
855.692	0.0161617
855.770	0.0162221
855.848	0.0164780
855.926	0.0165019
856.004	0.0165921
856.082	0.0169335
856.160	0.0168510
856.238	0.0168886
856.317	0.0171102
856.395	0.0172913
856.473	0.0172765
856.551	0.0172396
856.629	0.0173772
856.707	0.0172715
856.785	0.0174148
856.863	0.0174185
856.942	0.0171301
857.020	0.0170822
857.098	0.0168854
857.176	0.0166821
857.254	0.0166676
857.332	0.0166375
857.410	0.0163019
857.488	0.0162680
857.567	0.0162241
857.645	0.0161583
857.723	0.0161039
857.801	0.0161100
857.879	0.0161468
857.957	0.0161224
858.035	0.0161366
858.113	0.0160404
858.192	0.0160151
858.270	0.0161288
858.348	0.0162867
858.426	0.0161925
858.504	0.0160528
858.582	0.0162764
858.660	0.0162531
858.738	0.0162329
858.817	0.0163703
858.895	0.0162701
858.973	0.0162032
859.051	0.0163383
859.129	0.0163554
859.207	0.0164104
859.285	0.0164748
859.363	0.0164732
859.442	0.0165439
859.520	0.0165561
859.598	0.0166295
859.676	0.0166212
859.754	0.0167261
859.832	0.0167678
859.910	0.0166657
859.988	0.0167469
860.067	0.0169264
860.145	0.0171503
860.223	0.0171023
860.301	0.0172440
860.379	0.0172922
860.457	0.0172430
860.535	0.0175678
860.613	0.0175494
860.692	0.0175101
860.770	0.0174409
860.848	0.0173878
860.926	0.0172105
861.004	0.0171413
861.082	0.0171268
861.160	0.0171194
861.238	0.0169372
861.317	0.0168616
861.395	0.0168267
861.473	0.0167409
861.551	0.0165802
861.629	0.0166437
861.707	0.0164696
861.785	0.0161910
861.863	0.0163235
861.942	0.0163169
862.020	0.0160661
862.098	0.0160693
862.176	0.0160223
862.254	0.0160191
862.332	0.0159515
862.410	0.0158326
862.488	0.0160775
862.567	0.0160345
862.645	0.0160660
862.723	0.0161707
862.801	0.0162030
862.879	0.0161645
862.957	0.0163100
863.035	0.0164082
863.113	0.0164869
863.192	0.0166042
863.270	0.0166541
863.348	0.0165795
863.426	0.0166928
863.504	0.0166569
863.582	0.0167892
863.660	0.0168340
863.738	0.0168266
863.817	0.0168720
863.895	0.0169604
863.973	0.0171074
864.051	0.0170065
864.129	0.0168941
864.207	0.0169556
864.285	0.0169172
864.363	0.0169281
864.442	0.0169962
864.520	0.0169881
864.598	0.0168493
864.676	0.0168233
864.754	0.0169260
864.832	0.0169675
864.910	0.0170631
864.988	0.0170130
865.067	0.0169836
865.145	0.0169220
865.223	0.0168690
865.301	0.0167867
865.379	0.0170556
865.457	0.0168604
865.535	0.0168977
865.613	0.0166553
865.692	0.0166896
865.770	0.0166544
865.848	0.0165984
865.926	0.0165265
866.004	0.0165205
866.082	0.0163390
866.160	0.0162590
866.238	0.0162685
866.317	0.0162598
866.395	0.0161343
866.473	0.0161446
866.551	0.0160902
866.629	0.0159824
866.707	0.0159327
866.785	0.0158850
866.863	0.0159722
866.942	0.0159406
867.020	0.0159952
867.098	0.0161514
867.176	0.0160856
867.254	0.0161892
867.332	0.0162853
867.410	0.0162775
867.488	0.0165279
867.567	0.0166602
867.645	0.0166444
867.723	0.0167636
867.801	0.0166914
867.879	0.0168356
867.957	0.0168415
868.035	0.0169710
868.113	0.0169949
868.192	0.0171133
868.270	0.0172167
868.348	0.0172334
868.426	0.0172108
868.504	0.0173446
868.582	0.0173161
868.660	0.0174612
868.738	0.0174033
868.817	0.0172155
868.895	0.0172033
868.973	0.0172673
869.051	0.0172397
869.129	0.0170665
869.207	0.0169912
869.285	0.0171387
869.363	0.0170086
869.442	0.0170320
869.520	0.0169776
869.598	0.0167524
869.676	0.0170007
869.754	0.0168012
869.832	0.0167965
869.910	0.0169105
869.988	0.0164947
870.067	0.0165030
870.145	0.0164524
870.223	0.0165181
870.301	0.0162453
870.379	0.0161657
870.457	0.0159945
870.535	0.0158284
870.613	0.0158033
870.692	0.0158002
870.770	0.0156679
870.848	0.0157640
870.926	0.0157391
871.004	0.0157507
871.082	0.0157433
871.160	0.0158095
871.238	0.0159605
871.317	0.0159485
871.395	0.0159571
871.473	0.0160626
871.551	0.0162004
871.629	0.0162440
871.707	0.0164420
871.785	0.0167062
871.863	0.0167393
871.942	0.0167117
872.020	0.0167344
872.098	0.0169349
872.176	0.0169096
872.254	0.0171668
872.332	0.0173047
872.410	0.0172530
872.488	0.0172878
872.567	0.0171757
872.645	0.0172056
872.723	0.0171255
872.801	0.0172478
872.879	0.0171136
872.957	0.0171291
873.035	0.0172021
873.113	0.0171023
873.192	0.0171062
873.270	0.0169838
873.348	0.0170643
873.426	0.0169463
873.504	0.0168768
873.582	0.0169187
873.660	0.0168519
873.738	0.0167690
873.817	0.0168703
873.895	0.0166932
873.973	0.0167921
874.051	0.0167506
874.129	0.0166093
874.207	0.0165916
874.285	0.0165609
874.363	0.0166594
874.442	0.0165713
874.520	0.0166669
874.598	0.0164492
874.676	0.0164751
874.754	0.0164018
874.832	0.0163758
874.910	0.0163704
874.988	0.0163081
875.067	0.0160699
875.145	0.0162583
875.223	0.0162378
875.301	0.0160255
875.379	0.0162094
875.457	0.0161984
875.535	0.0162321
875.613	0.0161958
875.692	0.0162811
875.770	0.0164024
875.848	0.0163231
875.926	0.0164164
876.004	0.0164329
876.082	0.0165270
876.160	0.0166970
876.238	0.0165916
876.317	0.0167540
876.395	0.0168800
876.473	0.0168398
876.551	0.0169279
876.629	0.0171100
876.707	0.0170502
876.785	0.0168069
876.863	0.0169107
876.942	0.0170222
877.020	0.0170605
877.098	0.0169369
877.176	0.0167945
877.254	0.0167546
877.332	0.0167644
877.410	0.0167683
877.488	0.0166652
877.567	0.0167481
877.645	0.0166149
877.723	0.0166119
877.801	0.0166178
877.879	0.0165441
877.957	0.0165392
878.035	0.0165098
878.113	0.0164923
878.192	0.0162627
878.270	0.0164093
878.348	0.0165614
878.426	0.0163541
878.504	0.0163898
878.582	0.0164094
878.660	0.0165170
878.738	0.0164819
878.817	0.0165255
878.895	0.0165435
878.973	0.0166491
879.051	0.0165991
879.129	0.0166473
879.207	0.0167651
879.285	0.0167609
879.363	0.0168839
879.442	0.0167889
879.520	0.0168864
879.598	0.0168331
879.676	0.0168819
879.754	0.0170266
879.832	0.0170965
879.910	0.0170020
879.988	0.0168762
880.067	0.0168162
880.145	0.0168109
880.223	0.0168653
880.301	0.0167467
880.379	0.0168379
880.457	0.0166840
880.535	0.0167611
880.613	0.0167162
880.692	0.0167088
880.770	0.0166085
880.848	0.0166387
880.926	0.0165447
881.004	0.0165472
881.082	0.0165332
881.160	0.0164941
881.238	0.0165532
881.317	0.0163699
881.395	0.0165731
881.473	0.0164577
881.551	0.0163831
881.629	0.0165208
881.707	0.0165060
881.785	0.0163245
881.863	0.0165202
881.942	0.0165942
882.020	0.0165026
882.098	0.0165058
882.176	0.0165446
882.254	0.0164977
882.332	0.0164978
882.410	0.0164812
882.488	0.0164676
882.567	0.0165001
882.645	0.0164414
882.723	0.0164153
882.801	0.0164726
882.879	0.0164062
882.957	0.0164519
883.035	0.0165051
883.113	0.0166215
883.192	0.0166212
883.270	0.0166387
883.348	0.0167390
883.426	0.0168439
883.504	0.0167998
883.582	0.0167995
883.660	0.0169392
883.738	0.0169978
883.817	0.0168440
883.895	0.0169116
883.973	0.0169754
884.051	0.0169942
884.129	0.0169097
884.207	0.0169718
884.285	0.0168498
884.363	0.0168831
884.442	0.0168828
884.520	0.0166888
884.598	0.0167097
884.676	0.0167012
884.754	0.0167153
884.832	0.0167126
884.910	0.0166505
884.988	0.0167332
885.067	0.0165797
885.145	0.0165044
885.223	0.0164955
885.301	0.0164606
885.379	0.0165051
885.457	0.0163828
885.535	0.0165227
885.613	0.0163882
885.692	0.0164968
885.770	0.0164648
885.848	0.0164809
885.926	0.0163168
886.004	0.0164875
886.082	0.0164669
886.160	0.0164626
886.238	0.0165485
886.317	0.0167922
886.395	0.0166590
886.473	0.0166155
886.551	0.0166582
886.629	0.0166976
886.707	0.0168153
886.785	0.0167241
886.863	0.0167433
886.942	0.0168797
887.020	0.0167921
887.098	0.0168769
887.176	0.0166447
887.254	0.0167442
887.332	0.0167016
887.410	0.0166748
887.488	0.0167747
887.567	0.0167992
887.645	0.0167104
887.723	0.0166086
887.801	0.0168480
887.879	0.0168150
887.957	0.0166584
888.035	0.0167305
888.113	0.0165132
888.192	0.0166896
888.270	0.0167373
888.348	0.0167862
888.426	0.0167226
888.504	0.0167081
888.582	0.0166349
888.660	0.0166923
888.738	0.0167394
888.817	0.0167289
888.895	0.0166320
888.973	0.0165259
889.051	0.0165889
889.129	0.0166958
889.207	0.0167059
889.285	0.0164858
889.363	0.0164747
889.442	0.0165390
889.520	0.0165537
889.598	0.0164545
889.676	0.0165633
889.754	0.0165000
889.832	0.0164742
889.910	0.0165788
889.988	0.0166379
890.067	0.0166363
890.145	0.0164323
890.223	0.0164912
890.301	0.0166551
890.379	0.0167182
890.457	0.0166603
890.535	0.0167782
890.613	0.0167983
890.692	0.0167601
890.770	0.0167215
890.848	0.0168212
890.926	0.0167854
891.004	0.0167944
891.082	0.0168401
891.160	0.0167440
891.238	0.0167421
891.317	0.0167554
891.395	0.0168150
891.473	0.0166570
891.551	0.0167178
891.629	0.0166525
891.707	0.0167809
891.785	0.0167341
891.863	0.0165995
891.942	0.0165076
892.020	0.0165760
892.098	0.0166254
892.176	0.0165247
892.254	0.0165742
892.332	0.0165099
892.410	0.0165583
892.488	0.0164304
892.567	0.0163674
892.645	0.0165457
892.723	0.0165582
892.801	0.0165340
892.879	0.0163675
892.957	0.0164053
893.035	0.0165309
893.113	0.0164123
893.192	0.0164819
893.270	0.0165394
893.348	0.0166074
893.426	0.0166000
893.504	0.0164071
893.582	0.0165469
893.660	0.0165147
893.738	0.0166548
893.817	0.0167080
893.895	0.0167127
893.973	0.0166801
894.051	0.0167718
894.129	0.0167141
894.207	0.0166721
894.285	0.0166631
894.363	0.0166167
894.442	0.0166761
894.520	0.0167371
894.598	0.0169251
894.676	0.0167067
894.754	0.0166705
894.832	0.0167313
894.910	0.0166795
894.988	0.0166118
895.067	0.0166272
895.145	0.0166524
895.223	0.0166714
895.301	0.0167596
895.379	0.0167323
895.457	0.0165954
895.535	0.0166449
895.613	0.0165963
895.692	0.0164902
895.770	0.0165551
895.848	0.0167477
895.926	0.0165970
896.004	0.0164144
896.082	0.0165095
896.160	0.0166540
896.238	0.0163874
896.317	0.0164328
896.395	0.0165604
896.473	0.0165503
896.551	0.0163779
896.629	0.0163174
896.707	0.0164567
896.785	0.0162589
896.863	0.0164354
896.942	0.0162832
897.020	0.0162399
897.098	0.0163854
897.176	0.0163709
897.254	0.0162363
897.332	0.0164051
897.410	0.0164099
897.488	0.0162582
897.567	0.0164491
897.645	0.0164182
897.723	0.0164669
897.801	0.0165302
897.879	0.0165331
897.957	0.0167176
898.035	0.0167151
898.113	0.0167743
898.192	0.0166792
898.270	0.0167763
898.348	0.0167953
898.426	0.0166070
898.504	0.0167387
898.582	0.0168353
898.660	0.0168217
898.738	0.0167740
898.817	0.0167292
898.895	0.0167796
898.973	0.0167500
899.051	0.0167455
899.129	0.0166999
899.207	0.0168797
899.285	0.0166614
899.363	0.0166171
899.442	0.0166986
899.520	0.0166346
899.598	0.0166296
899.676	0.0166626
899.754	0.0166086
899.832	0.0165644
899.910	0.0166837
899.988	0.0166991
900.067	0.0165742
900.145	0.0166188
900.223	0.0166540
900.301	0.0165915
900.379	0.0166113
900.457	0.0165494
900.535	0.0166911
900.613	0.0166667
900.692	0.0166106
900.770	0.0166896
900.848	0.0166788
900.926	0.0166609
901.004	0.0167423
901.082	0.0165929
901.160	0.0167596
901.238	0.0167751
901.317	0.0165792
901.395	0.0167404
901.473	0.0167384
901.551	0.0166105
901.629	0.0165587
901.707	0.0165324
901.785	0.0165263
901.863	0.0166003
901.942	0.0165205
902.020	0.0164533
902.098	0.0166029
902.176	0.0163966
902.254	0.0164257
902.332	0.0164217
902.410	0.0164281
902.488	0.0162836
902.567	0.0162193
902.645	0.0164095
902.723	0.0164481
902.801	0.0163440
902.879	0.0164810
902.957	0.0164643
903.035	0.0164495
903.113	0.0163175
903.192	0.0163729
903.270	0.0164583
903.348	0.0165646
903.426	0.0165233
903.504	0.0166348
903.582	0.0166195
903.660	0.0166474
903.738	0.0166107
903.817	0.0167310
903.895	0.0168251
903.973	0.0167184
904.051	0.0167860
904.129	0.0167766
904.207	0.0167127
904.285	0.0167708
904.363	0.0168256
904.442	0.0167569
904.520	0.0166790
904.598	0.0167722
904.676	0.0166647
904.754	0.0167092
904.832	0.0166776
904.910	0.0165839
904.988	0.0164098
905.067	0.0164711
905.145	0.0166717
905.223	0.0165931
905.301	0.0166016
905.379	0.0165864
905.457	0.0164909
905.535	0.0165557
905.613	0.0165230
905.692	0.0164276
905.770	0.0164356
905.848	0.0164155
905.926	0.0164775
906.004	0.0164619
906.082	0.0165425
906.160	0.0164763
906.238	0.0165799
906.317	0.0165553
906.395	0.0167088
906.473	0.0167233
906.551	0.0165417
906.629	0.0166592
906.707	0.0166987
906.785	0.0167621
906.863	0.0168669
906.942	0.0167322
907.020	0.0167076
907.098	0.0167989
907.176	0.0167999
907.254	0.0166878
907.332	0.0166413
907.410	0.0168316
907.488	0.0166875
907.567	0.0165912
907.645	0.0166702
907.723	0.0165492
907.801	0.0166341
907.879	0.0164409
907.957	0.0166119
908.035	0.0165909
908.113	0.0165777
908.192	0.0163232
908.270	0.0164417
908.348	0.0164705
908.426	0.0163644
908.504	0.0165155
908.582	0.0163859
908.660	0.0163045
908.738	0.0164555
908.817	0.0163960
908.895	0.0163391
908.973	0.0163786
909.051	0.0164767
909.129	0.0165370
909.207	0.0165169
909.285	0.0166598
909.363	0.0165326
909.442	0.0165348
909.520	0.0166940
909.598	0.0166761
909.676	0.0168332
909.754	0.0166132
909.832	0.0165783
909.910	0.0168247
909.988	0.0169000
910.067	0.0168755
910.145	0.0168690
910.223	0.0167097
910.301	0.0167219
910.379	0.0167491
910.457	0.0167224
910.535	0.0166235
910.613	0.0167078
910.692	0.0166118
910.770	0.0165679
910.848	0.0166380
910.926	0.0164783
911.004	0.0164996
911.082	0.0165787
911.160	0.0165246
911.238	0.0165589
911.317	0.0166180
911.395	0.0166931
911.473	0.0166372
911.551	0.0166225
911.629	0.0166265
911.707	0.0166997
911.785	0.0168024
911.863	0.0167515
911.942	0.0166004
912.020	0.0165317
912.098	0.0166832
912.176	0.0165824
912.254	0.0166754
912.332	0.0167688
912.410	0.0166021
912.488	0.0165580
912.567	0.0166090
912.645	0.0164634
912.723	0.0164876
912.801	0.0164201
912.879	0.0163371
912.957	0.0164692
913.035	0.0165298
913.113	0.0164729
913.192	0.0164586
913.270	0.0164087
913.348	0.0163574
913.426	0.0164129
913.504	0.0166761
913.582	0.0165162
913.660	0.0164018
913.738	0.0166531
913.817	0.0166491
913.895	0.0167371
913.973	0.0168112
914.051	0.0168390
914.129	0.0167994
914.207	0.0168683
914.285	0.0167381
914.363	0.0168262
914.442	0.0168183
914.520	0.0167841
914.598	0.0168837
914.676	0.0168901
914.754	0.0168021
914.832	0.0168309
914.910	0.0168533
914.988	0.0168999
915.067	0.0168174
915.145	0.0167857
915.223	0.0167430
915.301	0.0166131
915.379	0.0166047
915.457	0.0165518
915.535	0.0164791
915.613	0.0165679
915.692	0.0164909
915.770	0.0164650
915.848	0.0164628
915.926	0.0164994
916.004	0.0164586
916.082	0.0164394
916.160	0.0163643
916.238	0.0163753
916.317	0.0164104
916.395	0.0163065
916.473	0.0162997
916.551	0.0163741
916.629	0.0163687
916.707	0.0163027
916.785	0.0163115
916.863	0.0161859
916.942	0.0163715
917.020	0.0162783
917.098	0.0164307
917.176	0.0164555
917.254	0.0163767
917.332	0.0164679
917.410	0.0165368
917.488	0.0165411
917.567	0.0166145
917.645	0.0165588
917.723	0.0164130
917.801	0.0165697
917.879	0.0167471
917.957	0.0167020
918.035	0.0166712
918.113	0.0166413
918.192	0.0167580
918.270	0.0167505
918.348	0.0167762
918.426	0.0169023
918.504	0.0168135
918.582	0.0169196
918.660	0.0167788
918.738	0.0168705
918.817	0.0168166
918.895	0.0167367
918.973	0.0166548
919.051	0.0167136
919.129	0.0167580
919.207	0.0167712
919.285	0.0167201
919.363	0.0167831
919.442	0.0167014
919.520	0.0165611
919.598	0.0165936
919.676	0.0165984
919.754	0.0166066
919.832	0.0166439
919.910	0.0166445
