06/10/2022	16:18:27	Ver.	4.1	UNKNOWN
Optical Delay	599.988409	Delta X		0.078125	Sweeps	1	Scan Rate	0/0
Coordinates	Axis 1	NaN	Axis 2	NaN	Axis 3	NaN	Axis 4	NaN	Axis 5	NaN	Axis 6	0.000000
TX Power	0.000000	RX Power	0.000000

599.988	0.0164860
600.067	0.0165984
600.145	0.0164055
600.223	0.0164552
600.301	0.0165373
600.379	0.0165022
600.457	0.0163213
600.535	0.0164296
600.613	0.0165768
600.692	0.0164851
600.770	0.0164310
600.848	0.0164329
600.926	0.0164297
601.004	0.0166921
601.082	0.0164649
601.160	0.0165934
601.238	0.0164616
601.317	0.0164735
601.395	0.0164779
601.473	0.0164874
601.551	0.0165994
601.629	0.0165838
601.707	0.0163833
601.785	0.0164867
601.863	0.0164562
601.942	0.0164328
602.020	0.0164597
602.098	0.0164111
602.176	0.0165275
602.254	0.0163780
602.332	0.0165683
602.410	0.0165028
602.488	0.0164757
602.567	0.0164870
602.645	0.0165086
602.723	0.0164703
602.801	0.0164221
602.879	0.0165479
602.957	0.0166346
603.035	0.0164488
603.113	0.0164445
603.192	0.0165520
603.270	0.0165313
603.348	0.0164983
603.426	0.0164631
603.504	0.0165238
603.582	0.0165123
603.660	0.0165652
603.738	0.0164340
603.817	0.0164941
603.895	0.0165851
603.973	0.0165614
604.051	0.0166241
604.129	0.0165285
604.207	0.0165347
604.285	0.0164169
604.363	0.0165819
604.442	0.0164609
604.520	0.0164847
604.598	0.0166077
604.676	0.0164388
604.754	0.0166130
604.832	0.0165664
604.910	0.0165872
604.988	0.0164522
605.067	0.0166154
605.145	0.0166123
605.223	0.0164753
605.301	0.0164997
605.379	0.0165100
605.457	0.0165865
605.535	0.0164816
605.613	0.0166103
605.692	0.0164380
605.770	0.0165483
605.848	0.0165440
605.926	0.0165863
606.004	0.0164858
606.082	0.0164296
606.160	0.0164516
606.238	0.0165414
606.317	0.0163843
606.395	0.0164245
606.473	0.0164241
606.551	0.0165100
606.629	0.0166362
606.707	0.0163654
606.785	0.0164951
606.863	0.0163945
606.942	0.0164505
607.020	0.0164097
607.098	0.0165652
607.176	0.0165203
607.254	0.0164979
607.332	0.0164877
607.410	0.0164526
607.488	0.0164355
607.567	0.0164186
607.645	0.0164590
607.723	0.0164752
607.801	0.0163921
607.879	0.0165862
607.957	0.0164477
608.035	0.0164417
608.113	0.0165093
608.192	0.0164153
608.270	0.0165218
608.348	0.0165701
608.426	0.0165225
608.504	0.0163443
608.582	0.0164835
608.660	0.0165862
608.738	0.0165382
608.817	0.0165092
608.895	0.0165866
608.973	0.0164786
609.051	0.0164983
609.129	0.0164906
609.207	0.0164566
609.285	0.0164946
609.363	0.0164359
609.442	0.0164163
609.520	0.0166356
609.598	0.0164441
609.676	0.0163854
609.754	0.0164603
609.832	0.0164480
609.910	0.0163673
609.988	0.0163573
610.067	0.0164249
610.145	0.0164032
610.223	0.0165294
610.301	0.0165281
610.379	0.0165907
610.457	0.0164661
610.535	0.0165075
610.613	0.0164803
610.692	0.0167048
610.770	0.0164362
610.848	0.0164262
610.926	0.0164153
611.004	0.0164275
611.082	0.0164520
611.160	0.0165230
611.238	0.0163395
611.317	0.0163625
611.395	0.0164083
611.473	0.0163708
611.551	0.0165372
611.629	0.0165369
611.707	0.0165282
611.785	0.0164468
611.863	0.0164259
611.942	0.0164125
612.020	0.0165214
612.098	0.0165372
612.176	0.0165680
612.254	0.0165634
612.332	0.0163596
612.410	0.0166036
612.488	0.0164845
612.567	0.0165009
612.645	0.0165473
612.723	0.0165330
612.801	0.0165267
612.879	0.0164084
612.957	0.0165427
613.035	0.0164684
613.113	0.0165683
613.192	0.0165849
613.270	0.0165832
613.348	0.0165431
613.426	0.0164391
613.504	0.0166367
613.582	0.0164320
613.660	0.0165278
613.738	0.0165227
613.817	0.0164889
613.895	0.0164217
613.973	0.0164767
614.051	0.0165601
614.129	0.0165865
614.207	0.0166402
614.285	0.0164320
614.363	0.0164537
614.442	0.0165456
614.520	0.0165631
614.598	0.0165254
614.676	0.0164256
614.754	0.0163391
614.832	0.0165541
614.910	0.0165353
614.988	0.0165255
615.067	0.0165552
615.145	0.0163491
615.223	0.0166869
615.301	0.0166230
615.379	0.0165850
615.457	0.0164681
615.535	0.0165149
615.613	0.0164198
615.692	0.0163944
615.770	0.0165453
615.848	0.0164475
615.926	0.0165067
616.004	0.0164855
616.082	0.0164502
616.160	0.0166118
616.238	0.0164688
616.317	0.0165031
616.395	0.0164012
616.473	0.0164283
616.551	0.0166337
616.629	0.0165932
616.707	0.0166730
616.785	0.0164232
616.863	0.0165709
616.942	0.0164965
617.020	0.0164384
617.098	0.0165446
617.176	0.0165142
617.254	0.0165273
617.332	0.0166485
617.410	0.0164932
617.488	0.0164484
617.567	0.0164988
617.645	0.0166233
617.723	0.0165473
617.801	0.0164498
617.879	0.0165427
617.957	0.0165382
618.035	0.0165991
618.113	0.0163831
618.192	0.0163933
618.270	0.0165662
618.348	0.0165887
618.426	0.0165014
618.504	0.0164214
618.582	0.0165464
618.660	0.0165228
618.738	0.0164754
618.817	0.0166227
618.895	0.0164537
618.973	0.0165662
619.051	0.0166039
619.129	0.0163640
619.207	0.0165030
619.285	0.0164396
619.363	0.0165160
619.442	0.0165370
619.520	0.0164144
619.598	0.0165922
619.676	0.0165548
619.754	0.0164977
619.832	0.0164673
619.910	0.0163956
619.988	0.0165952
620.067	0.0164866
620.145	0.0165740
620.223	0.0164149
620.301	0.0164813
620.379	0.0165103
620.457	0.0165009
620.535	0.0165323
620.613	0.0164378
620.692	0.0163348
620.770	0.0166510
620.848	0.0166055
620.926	0.0166035
621.004	0.0164796
621.082	0.0164940
621.160	0.0163445
621.238	0.0163952
621.317	0.0164885
621.395	0.0165865
621.473	0.0166022
621.551	0.0164870
621.629	0.0165736
621.707	0.0164877
621.785	0.0164884
621.863	0.0163822
621.942	0.0164928
622.020	0.0164864
622.098	0.0165218
622.176	0.0164559
622.254	0.0165443
622.332	0.0164302
622.410	0.0164992
622.488	0.0163831
622.567	0.0164359
622.645	0.0163642
622.723	0.0164943
622.801	0.0164468
622.879	0.0164285
622.957	0.0164182
623.035	0.0164259
623.113	0.0165247
623.192	0.0164996
623.270	0.0163381
623.348	0.0165700
623.426	0.0165202
623.504	0.0163883
623.582	0.0164619
623.660	0.0163739
623.738	0.0165002
623.817	0.0164218
623.895	0.0165783
623.973	0.0164352
624.051	0.0164797
624.129	0.0165562
624.207	0.0164352
624.285	0.0164744
624.363	0.0164823
624.442	0.0164907
624.520	0.0166233
624.598	0.0164964
624.676	0.0164845
624.754	0.0164398
624.832	0.0164808
624.910	0.0165664
624.988	0.0165403
625.067	0.0163721
625.145	0.0164598
625.223	0.0166135
625.301	0.0166002
625.379	0.0165572
625.457	0.0164746
625.535	0.0165338
625.613	0.0163769
625.692	0.0163261
625.770	0.0163528
625.848	0.0165658
625.926	0.0165636
626.004	0.0165278
626.082	0.0165010
626.160	0.0166045
626.238	0.0163348
626.317	0.0164710
626.395	0.0165051
626.473	0.0165870
626.551	0.0165674
626.629	0.0164757
626.707	0.0164407
626.785	0.0164053
626.863	0.0164584
626.942	0.0164651
627.020	0.0165730
627.098	0.0164446
627.176	0.0166012
627.254	0.0164626
627.332	0.0164856
627.410	0.0166013
627.488	0.0165943
627.567	0.0164198
627.645	0.0164208
627.723	0.0165569
627.801	0.0165772
627.879	0.0165212
627.957	0.0165322
628.035	0.0163770
628.113	0.0165472
628.192	0.0165203
628.270	0.0164797
628.348	0.0164925
628.426	0.0165105
628.504	0.0164884
628.582	0.0165710
628.660	0.0164870
628.738	0.0164328
628.817	0.0164923
628.895	0.0164797
628.973	0.0163850
629.051	0.0164744
629.129	0.0165399
629.207	0.0165218
629.285	0.0163411
629.363	0.0164430
629.442	0.0164377
629.520	0.0165749
629.598	0.0164336
629.676	0.0164658
629.754	0.0163670
629.832	0.0165645
629.910	0.0165696
629.988	0.0164948
630.067	0.0164919
630.145	0.0165160
630.223	0.0164130
630.301	0.0165145
630.379	0.0165540
630.457	0.0164373
630.535	0.0165421
630.613	0.0164695
630.692	0.0164515
630.770	0.0164497
630.848	0.0166151
630.926	0.0165391
631.004	0.0164999
631.082	0.0165308
631.160	0.0165559
631.238	0.0164903
631.317	0.0163149
631.395	0.0164533
631.473	0.0164591
631.551	0.0165175
631.629	0.0165070
631.707	0.0162646
631.785	0.0166278
631.863	0.0164587
631.942	0.0166898
632.020	0.0165652
632.098	0.0165791
632.176	0.0164146
632.254	0.0164701
632.332	0.0164140
632.410	0.0165160
632.488	0.0164227
632.567	0.0165251
632.645	0.0164477
632.723	0.0164334
632.801	0.0164900
632.879	0.0165425
632.957	0.0164916
633.035	0.0164873
633.113	0.0163974
633.192	0.0166096
633.270	0.0166179
633.348	0.0165730
633.426	0.0164683
633.504	0.0165585
633.582	0.0164870
633.660	0.0166503
633.738	0.0165630
633.817	0.0164096
633.895	0.0165710
633.973	0.0165155
634.051	0.0164883
634.129	0.0165914
634.207	0.0163318
634.285	0.0164482
634.363	0.0164793
634.442	0.0166203
634.520	0.0165209
634.598	0.0163745
634.676	0.0166159
634.754	0.0164732
634.832	0.0163911
634.910	0.0164282
634.988	0.0165011
635.067	0.0165953
635.145	0.0165597
635.223	0.0165330
635.301	0.0165009
635.379	0.0164743
635.457	0.0164274
635.535	0.0165409
635.613	0.0165160
635.692	0.0164652
635.770	0.0163783
635.848	0.0165651
635.926	0.0166049
636.004	0.0164373
636.082	0.0164771
636.160	0.0164689
636.238	0.0165250
636.317	0.0165877
636.395	0.0165537
636.473	0.0165061
636.551	0.0164404
636.629	0.0165163
636.707	0.0164421
636.785	0.0166177
636.863	0.0164806
636.942	0.0164252
637.020	0.0164464
637.098	0.0164391
637.176	0.0164919
637.254	0.0164475
637.332	0.0165947
637.410	0.0166109
637.488	0.0164896
637.567	0.0163897
637.645	0.0164996
637.723	0.0165387
637.801	0.0165395
637.879	0.0164484
637.957	0.0164775
638.035	0.0164992
638.113	0.0164897
638.192	0.0165028
638.270	0.0166158
638.348	0.0165340
638.426	0.0165244
638.504	0.0165528
638.582	0.0164251
638.660	0.0164849
638.738	0.0164771
638.817	0.0164558
638.895	0.0164112
638.973	0.0165366
639.051	0.0165874
639.129	0.0165744
639.207	0.0165281
639.285	0.0163786
639.363	0.0164456
639.442	0.0164445
639.520	0.0164413
639.598	0.0164954
639.676	0.0164531
639.754	0.0164180
639.832	0.0166338
639.910	0.0164687
639.988	0.0164798
640.067	0.0165369
640.145	0.0164824
640.223	0.0164633
640.301	0.0164039
640.379	0.0165308
640.457	0.0165034
640.535	0.0165781
640.613	0.0165205
640.692	0.0164711
640.770	0.0164682
640.848	0.0164114
640.926	0.0163969
641.004	0.0164907
641.082	0.0164803
641.160	0.0164739
641.238	0.0164500
641.317	0.0164443
641.395	0.0164418
641.473	0.0164983
641.551	0.0166065
641.629	0.0163821
641.707	0.0165376
641.785	0.0164192
641.863	0.0164738
641.942	0.0165360
642.020	0.0164774
642.098	0.0164720
642.176	0.0165965
642.254	0.0164167
642.332	0.0166107
642.410	0.0165381
642.488	0.0165154
642.567	0.0164274
642.645	0.0165301
642.723	0.0165318
642.801	0.0165135
642.879	0.0166439
642.957	0.0165411
643.035	0.0164175
643.113	0.0165209
643.192	0.0165321
643.270	0.0165443
643.348	0.0165213
643.426	0.0165362
643.504	0.0164494
643.582	0.0163308
643.660	0.0163561
643.738	0.0165363
643.817	0.0165575
643.895	0.0165449
643.973	0.0164631
644.051	0.0165845
644.129	0.0164734
644.207	0.0165170
644.285	0.0164791
644.363	0.0165131
644.442	0.0165623
644.520	0.0165201
644.598	0.0164736
644.676	0.0165299
644.754	0.0164555
644.832	0.0163967
644.910	0.0165653
644.988	0.0165809
645.067	0.0165393
645.145	0.0165989
645.223	0.0164503
645.301	0.0165939
645.379	0.0164059
645.457	0.0163577
645.535	0.0164290
645.613	0.0164227
645.692	0.0164088
645.770	0.0164225
645.848	0.0165170
645.926	0.0165401
646.004	0.0165112
646.082	0.0164825
646.160	0.0164421
646.238	0.0163570
646.317	0.0164669
646.395	0.0164411
646.473	0.0166124
646.551	0.0165701
646.629	0.0165282
646.707	0.0165406
646.785	0.0165599
646.863	0.0164320
646.942	0.0164838
647.020	0.0164801
647.098	0.0164819
647.176	0.0165005
647.254	0.0165327
647.332	0.0164784
647.410	0.0163698
647.488	0.0164854
647.567	0.0165355
647.645	0.0163914
647.723	0.0165120
647.801	0.0164823
647.879	0.0165005
647.957	0.0165133
648.035	0.0165707
648.113	0.0165703
648.192	0.0164249
648.270	0.0165133
648.348	0.0165873
648.426	0.0163619
648.504	0.0165594
648.582	0.0164361
648.660	0.0163840
648.738	0.0165848
648.817	0.0165217
648.895	0.0164589
648.973	0.0164611
649.051	0.0165620
649.129	0.0164897
649.207	0.0164620
649.285	0.0165029
649.363	0.0165952
649.442	0.0164922
649.520	0.0164890
649.598	0.0165750
649.676	0.0165184
649.754	0.0165339
649.832	0.0165119
649.910	0.0165273
649.988	0.0164515
650.067	0.0164856
650.145	0.0165082
650.223	0.0165137
650.301	0.0166110
650.379	0.0165485
650.457	0.0164706
650.535	0.0164369
650.613	0.0165096
650.692	0.0164838
650.770	0.0164206
650.848	0.0165054
650.926	0.0164065
651.004	0.0164986
651.082	0.0164690
651.160	0.0165346
651.238	0.0164558
651.317	0.0164922
651.395	0.0165061
651.473	0.0165432
651.551	0.0164273
651.629	0.0165167
651.707	0.0165972
651.785	0.0164498
651.863	0.0164787
651.942	0.0165215
652.020	0.0165636
652.098	0.0164827
652.176	0.0164666
652.254	0.0164219
652.332	0.0164897
652.410	0.0164254
652.488	0.0164655
652.567	0.0165420
652.645	0.0164964
652.723	0.0164958
652.801	0.0165427
652.879	0.0165112
652.957	0.0165273
653.035	0.0164450
653.113	0.0165011
653.192	0.0164761
653.270	0.0164181
653.348	0.0164525
653.426	0.0165266
653.504	0.0165617
653.582	0.0164780
653.660	0.0163939
653.738	0.0166122
653.817	0.0165484
653.895	0.0164240
653.973	0.0165752
654.051	0.0165071
654.129	0.0165142
654.207	0.0164799
654.285	0.0164289
654.363	0.0164896
654.442	0.0165456
654.520	0.0165347
654.598	0.0164292
654.676	0.0165585
654.754	0.0164973
654.832	0.0163533
654.910	0.0164308
654.988	0.0164547
655.067	0.0166018
655.145	0.0164903
655.223	0.0164770
655.301	0.0165173
655.379	0.0164253
655.457	0.0164252
655.535	0.0164552
655.613	0.0164517
655.692	0.0165985
655.770	0.0164957
655.848	0.0164511
655.926	0.0165905
656.004	0.0164616
656.082	0.0165253
656.160	0.0165459
656.238	0.0165509
656.317	0.0164167
656.395	0.0167146
656.473	0.0165209
656.551	0.0163943
656.629	0.0165423
656.707	0.0165816
656.785	0.0164617
656.863	0.0164222
656.942	0.0164972
657.020	0.0166241
657.098	0.0164525
657.176	0.0162977
657.254	0.0165959
657.332	0.0166230
657.410	0.0166369
657.488	0.0165005
657.567	0.0166382
657.645	0.0163942
657.723	0.0165524
657.801	0.0165887
657.879	0.0165639
657.957	0.0165502
658.035	0.0164516
658.113	0.0165266
658.192	0.0165766
658.270	0.0165363
658.348	0.0164636
658.426	0.0164598
658.504	0.0165448
658.582	0.0165314
658.660	0.0164404
658.738	0.0165231
658.817	0.0165601
658.895	0.0165879
658.973	0.0165817
659.051	0.0163922
659.129	0.0164767
659.207	0.0165051
659.285	0.0164297
659.363	0.0164536
659.442	0.0165186
659.520	0.0164979
659.598	0.0165047
659.676	0.0165992
659.754	0.0164335
659.832	0.0165276
659.910	0.0164165
659.988	0.0164737
660.067	0.0165218
660.145	0.0164799
660.223	0.0165073
660.301	0.0165975
660.379	0.0166027
660.457	0.0164152
660.535	0.0164204
660.613	0.0164942
660.692	0.0164161
660.770	0.0165755
660.848	0.0164459
660.926	0.0164777
661.004	0.0165233
661.082	0.0164470
661.160	0.0165262
661.238	0.0163314
661.317	0.0164333
661.395	0.0164781
661.473	0.0165929
661.551	0.0165724
661.629	0.0164420
661.707	0.0165297
661.785	0.0164538
661.863	0.0164079
661.942	0.0166117
662.020	0.0164981
662.098	0.0164422
662.176	0.0164114
662.254	0.0164345
662.332	0.0163634
662.410	0.0163819
662.488	0.0165330
662.567	0.0166190
662.645	0.0165121
662.723	0.0165008
662.801	0.0163113
662.879	0.0166026
662.957	0.0164148
663.035	0.0164321
663.113	0.0165059
663.192	0.0164980
663.270	0.0164591
663.348	0.0165193
663.426	0.0164223
663.504	0.0165440
663.582	0.0164887
663.660	0.0165775
663.738	0.0165520
663.817	0.0164577
663.895	0.0165031
663.973	0.0165499
664.051	0.0165215
664.129	0.0165643
664.207	0.0163092
664.285	0.0165228
664.363	0.0164878
664.442	0.0164713
664.520	0.0165740
664.598	0.0165334
664.676	0.0164275
664.754	0.0165751
664.832	0.0165014
664.910	0.0165736
664.988	0.0164325
665.067	0.0163480
665.145	0.0165111
665.223	0.0165207
665.301	0.0162949
665.379	0.0165653
665.457	0.0164703
665.535	0.0163333
665.613	0.0165081
665.692	0.0165231
665.770	0.0164108
665.848	0.0164282
665.926	0.0165207
666.004	0.0165476
666.082	0.0164433
666.160	0.0164568
666.238	0.0163826
666.317	0.0164769
666.395	0.0164751
666.473	0.0164342
666.551	0.0165011
666.629	0.0164613
666.707	0.0165096
666.785	0.0163689
666.863	0.0165416
666.942	0.0164650
667.020	0.0166301
667.098	0.0165955
667.176	0.0166696
667.254	0.0166074
667.332	0.0164468
667.410	0.0165202
667.488	0.0166509
667.567	0.0164292
667.645	0.0165647
667.723	0.0164562
667.801	0.0164406
667.879	0.0164124
667.957	0.0166065
668.035	0.0165805
668.113	0.0165582
668.192	0.0165945
668.270	0.0164955
668.348	0.0164191
668.426	0.0164613
668.504	0.0165092
668.582	0.0165424
668.660	0.0164766
668.738	0.0164632
668.817	0.0164545
668.895	0.0164272
668.973	0.0165077
669.051	0.0165364
669.129	0.0165244
669.207	0.0164105
669.285	0.0166841
669.363	0.0165437
669.442	0.0164873
669.520	0.0165263
669.598	0.0164268
669.676	0.0165266
669.754	0.0164485
669.832	0.0165101
669.910	0.0164608
669.988	0.0165941
670.067	0.0164993
670.145	0.0165249
670.223	0.0165353
670.301	0.0165253
670.379	0.0166005
670.457	0.0165043
670.535	0.0163831
670.613	0.0164857
670.692	0.0165229
670.770	0.0165970
670.848	0.0164399
670.926	0.0165659
671.004	0.0164321
671.082	0.0165296
671.160	0.0165103
671.238	0.0165137
671.317	0.0165213
671.395	0.0164726
671.473	0.0163621
671.551	0.0162952
671.629	0.0165002
671.707	0.0164330
671.785	0.0164751
671.863	0.0164012
671.942	0.0165095
672.020	0.0166237
672.098	0.0164866
672.176	0.0163840
672.254	0.0164868
672.332	0.0166315
672.410	0.0163894
672.488	0.0165057
672.567	0.0165578
672.645	0.0166447
672.723	0.0164265
672.801	0.0164177
672.879	0.0164710
672.957	0.0163777
673.035	0.0165691
673.113	0.0165302
673.192	0.0165240
673.270	0.0164284
673.348	0.0164472
673.426	0.0164318
673.504	0.0165070
673.582	0.0165422
673.660	0.0165954
673.738	0.0164501
673.817	0.0165102
673.895	0.0165062
673.973	0.0165774
674.051	0.0163284
674.129	0.0165345
674.207	0.0165472
674.285	0.0164574
674.363	0.0165012
674.442	0.0165682
674.520	0.0165305
674.598	0.0166061
674.676	0.0166727
674.754	0.0165607
674.832	0.0165645
674.910	0.0165914
674.988	0.0164490
675.067	0.0164737
675.145	0.0165568
675.223	0.0165621
675.301	0.0165078
675.379	0.0166225
675.457	0.0165039
675.535	0.0163564
675.613	0.0163918
675.692	0.0165488
675.770	0.0164110
675.848	0.0165234
675.926	0.0165916
676.004	0.0163286
676.082	0.0164209
676.160	0.0164229
676.238	0.0166632
676.317	0.0164737
676.395	0.0164850
676.473	0.0166142
676.551	0.0165117
676.629	0.0165948
676.707	0.0164960
676.785	0.0165900
676.863	0.0165276
676.942	0.0164349
677.020	0.0165248
677.098	0.0165063
677.176	0.0164833
677.254	0.0164529
677.332	0.0165448
677.410	0.0165369
677.488	0.0165159
677.567	0.0165585
677.645	0.0165169
677.723	0.0165074
677.801	0.0165630
677.879	0.0165311
677.957	0.0164551
678.035	0.0164969
678.113	0.0164686
678.192	0.0165926
678.270	0.0163947
678.348	0.0165219
678.426	0.0165192
678.504	0.0164526
678.582	0.0164646
678.660	0.0164875
678.738	0.0165437
678.817	0.0165256
678.895	0.0164026
678.973	0.0165294
679.051	0.0164884
679.129	0.0164973
679.207	0.0164761
679.285	0.0164039
679.363	0.0165022
679.442	0.0165105
679.520	0.0164992
679.598	0.0164004
679.676	0.0165355
679.754	0.0164820
679.832	0.0165374
679.910	0.0165720
679.988	0.0165285
680.067	0.0164390
680.145	0.0165196
680.223	0.0164335
680.301	0.0166263
680.379	0.0164798
680.457	0.0164415
680.535	0.0165665
680.613	0.0165503
680.692	0.0165368
680.770	0.0164241
680.848	0.0165958
680.926	0.0163876
681.004	0.0164207
681.082	0.0165691
681.160	0.0164956
681.238	0.0165497
681.317	0.0165250
681.395	0.0166116
681.473	0.0166319
681.551	0.0164613
681.629	0.0164168
681.707	0.0163952
681.785	0.0165112
681.863	0.0165534
681.942	0.0164824
682.020	0.0163892
682.098	0.0164236
682.176	0.0164469
682.254	0.0164161
682.332	0.0165169
682.410	0.0165331
682.488	0.0164346
682.567	0.0164456
682.645	0.0165848
682.723	0.0163889
682.801	0.0164976
682.879	0.0163824
682.957	0.0165732
683.035	0.0166248
683.113	0.0165407
683.192	0.0165615
683.270	0.0165668
683.348	0.0165578
683.426	0.0165591
683.504	0.0164139
683.582	0.0163368
683.660	0.0165015
683.738	0.0165133
683.817	0.0164350
683.895	0.0164534
683.973	0.0166019
684.051	0.0164474
684.129	0.0165338
684.207	0.0166311
684.285	0.0164318
684.363	0.0163449
684.442	0.0165804
684.520	0.0164623
684.598	0.0164309
684.676	0.0164931
684.754	0.0165427
684.832	0.0164443
684.910	0.0164066
684.988	0.0164597
685.067	0.0164355
685.145	0.0164733
685.223	0.0165456
685.301	0.0165403
685.379	0.0165574
685.457	0.0164851
685.535	0.0164540
685.613	0.0164536
685.692	0.0163437
685.770	0.0165514
685.848	0.0165399
685.926	0.0164289
686.004	0.0165387
686.082	0.0164527
686.160	0.0165137
686.238	0.0166042
686.317	0.0166090
686.395	0.0164135
686.473	0.0163297
686.551	0.0164999
686.629	0.0165207
686.707	0.0165646
686.785	0.0163810
686.863	0.0165365
686.942	0.0164355
687.020	0.0164477
687.098	0.0165617
687.176	0.0164451
687.254	0.0166038
687.332	0.0165620
687.410	0.0165189
687.488	0.0163817
687.567	0.0163180
687.645	0.0164736
687.723	0.0164501
687.801	0.0164500
687.879	0.0164698
687.957	0.0164668
688.035	0.0165401
688.113	0.0165728
688.192	0.0166075
688.270	0.0164452
688.348	0.0164487
688.426	0.0165056
688.504	0.0165684
688.582	0.0165701
688.660	0.0164987
688.738	0.0165255
688.817	0.0165154
688.895	0.0165409
688.973	0.0164605
689.051	0.0164759
689.129	0.0166003
689.207	0.0164410
689.285	0.0165137
689.363	0.0164836
689.442	0.0164989
689.520	0.0165470
689.598	0.0165097
689.676	0.0163123
689.754	0.0165403
689.832	0.0166143
689.910	0.0163927
689.988	0.0164503
690.067	0.0164468
690.145	0.0163428
690.223	0.0166020
690.301	0.0164829
690.379	0.0164260
690.457	0.0164310
690.535	0.0164894
690.613	0.0163032
690.692	0.0164065
690.770	0.0164328
690.848	0.0165066
690.926	0.0165170
691.004	0.0164783
691.082	0.0165454
691.160	0.0163921
691.238	0.0164906
691.317	0.0164529
691.395	0.0163259
691.473	0.0167135
691.551	0.0165054
691.629	0.0164828
691.707	0.0164455
691.785	0.0165041
691.863	0.0166007
691.942	0.0164420
692.020	0.0164398
692.098	0.0165451
692.176	0.0164382
692.254	0.0163957
692.332	0.0165681
692.410	0.0165630
692.488	0.0164602
692.567	0.0165898
692.645	0.0165660
692.723	0.0163062
692.801	0.0165426
692.879	0.0166154
692.957	0.0166042
693.035	0.0165743
693.113	0.0165564
693.192	0.0165002
693.270	0.0164311
693.348	0.0166127
693.426	0.0165734
693.504	0.0165494
693.582	0.0166147
693.660	0.0163969
693.738	0.0165497
693.817	0.0165440
693.895	0.0166084
693.973	0.0165426
694.051	0.0164655
694.129	0.0165907
694.207	0.0165070
694.285	0.0165968
694.363	0.0165952
694.442	0.0165025
694.520	0.0164301
694.598	0.0164864
694.676	0.0164090
694.754	0.0164304
694.832	0.0163628
694.910	0.0164310
694.988	0.0164257
695.067	0.0164276
695.145	0.0164297
695.223	0.0164949
695.301	0.0165059
695.379	0.0164113
695.457	0.0164909
695.535	0.0163829
695.613	0.0164299
695.692	0.0165418
695.770	0.0166468
695.848	0.0164977
695.926	0.0163345
696.004	0.0163696
696.082	0.0164356
696.160	0.0164537
696.238	0.0165684
696.317	0.0165564
696.395	0.0164620
696.473	0.0164788
696.551	0.0164532
696.629	0.0164367
696.707	0.0166166
696.785	0.0165633
696.863	0.0164847
696.942	0.0165335
697.020	0.0164624
697.098	0.0164262
697.176	0.0165370
697.254	0.0165399
697.332	0.0164993
697.410	0.0164297
697.488	0.0164830
697.567	0.0165025
697.645	0.0166569
697.723	0.0165588
697.801	0.0165410
697.879	0.0166135
697.957	0.0165777
698.035	0.0164919
698.113	0.0164069
698.192	0.0165820
698.270	0.0165636
698.348	0.0165536
698.426	0.0165329
698.504	0.0165689
698.582	0.0164902
698.660	0.0165581
698.738	0.0165454
698.817	0.0164690
698.895	0.0163976
698.973	0.0164310
699.051	0.0165131
699.129	0.0165826
699.207	0.0165552
699.285	0.0163741
699.363	0.0164419
699.442	0.0165339
699.520	0.0165230
699.598	0.0164715
699.676	0.0164370
699.754	0.0165172
699.832	0.0164715
699.910	0.0164536
699.988	0.0165644
700.067	0.0165372
700.145	0.0164746
700.223	0.0165384
700.301	0.0163698
700.379	0.0164338
700.457	0.0165764
700.535	0.0165617
700.613	0.0166496
700.692	0.0165994
700.770	0.0164845
700.848	0.0164681
700.926	0.0165510
701.004	0.0165508
701.082	0.0165366
701.160	0.0165839
701.238	0.0164379
701.317	0.0164809
701.395	0.0163721
701.473	0.0163110
701.551	0.0166175
701.629	0.0166164
701.707	0.0164614
701.785	0.0164361
701.863	0.0165276
701.942	0.0165100
702.020	0.0165547
702.098	0.0164752
702.176	0.0165017
702.254	0.0164091
702.332	0.0165842
702.410	0.0165936
702.488	0.0163977
702.567	0.0163821
702.645	0.0164330
702.723	0.0163464
702.801	0.0165050
702.879	0.0166050
702.957	0.0164707
703.035	0.0164630
703.113	0.0164887
703.192	0.0164839
703.270	0.0165343
703.348	0.0164096
703.426	0.0164700
703.504	0.0164665
703.582	0.0165960
703.660	0.0165025
703.738	0.0164606
703.817	0.0165533
703.895	0.0165036
703.973	0.0164081
704.051	0.0166185
704.129	0.0165014
704.207	0.0165093
704.285	0.0165330
704.363	0.0165488
704.442	0.0165829
704.520	0.0163859
704.598	0.0165853
704.676	0.0163908
704.754	0.0164713
704.832	0.0165374
704.910	0.0164330
704.988	0.0164883
705.067	0.0164928
705.145	0.0165509
705.223	0.0164067
705.301	0.0164857
705.379	0.0165415
705.457	0.0163168
705.535	0.0165102
705.613	0.0165453
705.692	0.0164691
705.770	0.0164300
705.848	0.0165263
705.926	0.0164389
706.004	0.0164072
706.082	0.0165259
706.160	0.0166628
706.238	0.0165364
706.317	0.0165329
706.395	0.0164337
706.473	0.0164690
706.551	0.0165147
706.629	0.0165601
706.707	0.0165101
706.785	0.0164693
706.863	0.0164580
706.942	0.0164689
707.020	0.0165974
707.098	0.0164266
707.176	0.0164462
707.254	0.0165655
707.332	0.0164841
707.410	0.0165250
707.488	0.0166070
707.567	0.0164524
707.645	0.0164870
707.723	0.0164121
707.801	0.0164713
707.879	0.0165212
707.957	0.0164503
708.035	0.0163860
708.113	0.0164857
708.192	0.0164322
708.270	0.0165311
708.348	0.0166853
708.426	0.0165374
708.504	0.0163727
708.582	0.0165231
708.660	0.0166593
708.738	0.0163939
708.817	0.0164624
708.895	0.0165273
708.973	0.0165216
709.051	0.0164764
709.129	0.0164788
709.207	0.0163822
709.285	0.0165210
709.363	0.0163910
709.442	0.0164093
709.520	0.0166061
709.598	0.0166380
709.676	0.0165627
709.754	0.0163129
709.832	0.0165357
709.910	0.0165979
709.988	0.0165994
710.067	0.0165350
710.145	0.0163345
710.223	0.0164088
710.301	0.0165363
710.379	0.0164876
710.457	0.0164296
710.535	0.0166130
710.613	0.0164526
710.692	0.0166028
710.770	0.0166111
710.848	0.0164854
710.926	0.0164945
711.004	0.0165393
711.082	0.0166212
711.160	0.0165774
711.238	0.0165601
711.317	0.0164219
711.395	0.0165543
711.473	0.0165469
711.551	0.0166884
711.629	0.0165061
711.707	0.0165641
711.785	0.0165375
711.863	0.0164483
711.942	0.0163692
712.020	0.0165848
712.098	0.0165683
712.176	0.0166491
712.254	0.0165660
712.332	0.0164378
712.410	0.0164957
712.488	0.0164815
712.567	0.0165765
712.645	0.0166142
712.723	0.0165298
712.801	0.0164659
712.879	0.0165483
712.957	0.0165041
713.035	0.0165148
713.113	0.0164822
713.192	0.0165038
713.270	0.0164913
713.348	0.0164792
713.426	0.0164835
713.504	0.0164884
713.582	0.0164420
713.660	0.0165516
713.738	0.0165833
713.817	0.0165404
713.895	0.0164954
713.973	0.0164996
714.051	0.0164999
714.129	0.0163600
714.207	0.0165749
714.285	0.0165450
714.363	0.0164194
714.442	0.0165562
714.520	0.0166293
714.598	0.0164812
714.676	0.0165578
714.754	0.0165410
714.832	0.0165820
714.910	0.0165652
714.988	0.0163985
715.067	0.0164339
715.145	0.0166083
715.223	0.0165648
715.301	0.0165034
715.379	0.0165735
715.457	0.0165759
715.535	0.0165611
715.613	0.0165065
715.692	0.0165769
715.770	0.0164954
715.848	0.0164798
715.926	0.0165919
716.004	0.0166039
716.082	0.0165828
716.160	0.0164494
716.238	0.0166435
716.317	0.0165352
716.395	0.0165359
716.473	0.0165433
716.551	0.0165492
716.629	0.0165501
716.707	0.0164531
716.785	0.0164420
716.863	0.0165254
716.942	0.0164021
717.020	0.0164783
717.098	0.0166074
717.176	0.0164807
717.254	0.0165638
717.332	0.0165536
717.410	0.0165643
717.488	0.0165118
717.567	0.0166264
717.645	0.0165529
717.723	0.0164169
717.801	0.0164075
717.879	0.0165873
717.957	0.0165495
718.035	0.0164288
718.113	0.0165643
718.192	0.0165808
718.270	0.0165048
718.348	0.0164501
718.426	0.0164065
718.504	0.0163987
718.582	0.0165681
718.660	0.0164420
718.738	0.0165078
718.817	0.0165706
718.895	0.0163871
718.973	0.0164353
719.051	0.0164990
719.129	0.0164304
719.207	0.0164965
719.285	0.0167545
719.363	0.0165169
719.442	0.0164961
719.520	0.0164357
719.598	0.0165006
719.676	0.0166397
719.754	0.0166071
719.832	0.0165148
719.910	0.0164185
719.988	0.0165501
720.067	0.0164861
720.145	0.0164935
720.223	0.0165131
720.301	0.0164579
720.379	0.0164120
720.457	0.0164733
720.535	0.0165929
720.613	0.0165770
720.692	0.0165746
720.770	0.0164889
720.848	0.0164631
720.926	0.0164986
721.004	0.0164993
721.082	0.0164537
721.160	0.0165036
721.238	0.0165450
721.317	0.0164561
721.395	0.0164885
721.473	0.0163416
721.551	0.0164571
721.629	0.0165643
721.707	0.0164049
721.785	0.0164404
721.863	0.0164359
721.942	0.0165008
722.020	0.0164958
722.098	0.0165697
722.176	0.0165042
722.254	0.0164906
722.332	0.0165797
722.410	0.0164830
722.488	0.0165958
722.567	0.0165961
722.645	0.0166431
722.723	0.0165171
722.801	0.0164201
722.879	0.0165175
722.957	0.0165542
723.035	0.0165681
723.113	0.0164653
723.192	0.0165958
723.270	0.0166582
723.348	0.0166767
723.426	0.0164802
723.504	0.0164986
723.582	0.0166142
723.660	0.0165189
723.738	0.0165842
723.817	0.0165581
723.895	0.0164353
723.973	0.0163522
724.051	0.0165677
724.129	0.0165276
724.207	0.0165439
724.285	0.0165071
724.363	0.0164293
724.442	0.0165377
724.520	0.0165456
724.598	0.0163966
724.676	0.0164777
724.754	0.0165928
724.832	0.0166030
724.910	0.0165668
724.988	0.0164458
725.067	0.0164408
725.145	0.0165197
725.223	0.0167081
725.301	0.0165131
725.379	0.0165552
725.457	0.0166443
725.535	0.0165739
725.613	0.0166287
725.692	0.0164878
725.770	0.0164816
725.848	0.0165407
725.926	0.0166979
726.004	0.0166447
726.082	0.0164980
726.160	0.0165062
726.238	0.0165719
726.317	0.0166000
726.395	0.0165551
726.473	0.0164140
726.551	0.0165224
726.629	0.0165256
726.707	0.0166166
726.785	0.0165153
726.863	0.0165876
726.942	0.0164049
727.020	0.0163953
727.098	0.0164693
727.176	0.0165211
727.254	0.0166665
727.332	0.0165205
727.410	0.0166188
727.488	0.0165442
727.567	0.0165445
727.645	0.0165388
727.723	0.0165189
727.801	0.0165389
727.879	0.0166807
727.957	0.0165372
728.035	0.0166339
728.113	0.0165598
728.192	0.0166413
728.270	0.0165044
728.348	0.0165668
728.426	0.0165680
728.504	0.0165768
728.582	0.0165536
728.660	0.0164894
728.738	0.0165575
728.817	0.0165085
728.895	0.0164704
728.973	0.0164085
729.051	0.0165398
729.129	0.0166006
729.207	0.0165545
729.285	0.0164965
729.363	0.0165285
729.442	0.0165496
729.520	0.0165041
729.598	0.0165731
729.676	0.0165575
729.754	0.0164766
729.832	0.0165510
729.910	0.0164159
729.988	0.0165641
730.067	0.0166541
730.145	0.0165932
730.223	0.0165422
730.301	0.0166080
730.379	0.0165218
730.457	0.0166256
730.535	0.0166326
730.613	0.0164894
730.692	0.0165080
730.770	0.0164911
730.848	0.0165614
730.926	0.0165099
731.004	0.0165961
731.082	0.0166179
731.160	0.0165695
731.238	0.0164951
731.317	0.0166177
731.395	0.0165543
731.473	0.0164415
731.551	0.0165934
731.629	0.0163560
731.707	0.0164310
731.785	0.0165191
731.863	0.0164421
731.942	0.0163827
732.020	0.0164935
732.098	0.0166613
732.176	0.0165349
732.254	0.0165486
732.332	0.0164648
732.410	0.0165197
732.488	0.0164259
732.567	0.0164758
732.645	0.0164611
732.723	0.0166144
732.801	0.0165132
732.879	0.0166087
732.957	0.0164767
733.035	0.0165030
733.113	0.0165531
733.192	0.0166360
733.270	0.0164815
733.348	0.0164848
733.426	0.0165776
733.504	0.0164814
733.582	0.0165679
733.660	0.0164727
733.738	0.0164563
733.817	0.0166247
733.895	0.0165351
733.973	0.0165073
734.051	0.0163979
734.129	0.0165219
734.207	0.0164155
734.285	0.0164461
734.363	0.0165050
734.442	0.0165695
734.520	0.0165154
734.598	0.0164230
734.676	0.0164343
734.754	0.0164497
734.832	0.0164719
734.910	0.0164555
734.988	0.0164288
735.067	0.0164119
735.145	0.0164677
735.223	0.0165565
735.301	0.0165261
735.379	0.0164497
735.457	0.0165178
735.535	0.0165261
735.613	0.0163136
735.692	0.0163496
735.770	0.0164217
735.848	0.0165209
735.926	0.0165984
736.004	0.0164190
736.082	0.0163784
736.160	0.0164565
736.238	0.0165301
736.317	0.0165031
736.395	0.0164967
736.473	0.0164330
736.551	0.0164680
736.629	0.0164564
736.707	0.0164526
736.785	0.0164515
736.863	0.0164619
736.942	0.0164527
737.020	0.0165865
737.098	0.0165426
737.176	0.0164420
737.254	0.0166295
737.332	0.0165524
737.410	0.0164735
737.488	0.0164914
737.567	0.0164413
737.645	0.0164269
737.723	0.0164004
737.801	0.0164835
737.879	0.0164788
737.957	0.0165356
738.035	0.0164568
738.113	0.0164059
738.192	0.0166869
738.270	0.0165379
738.348	0.0163812
738.426	0.0163706
738.504	0.0164810
738.582	0.0165450
738.660	0.0164327
738.738	0.0164265
738.817	0.0163193
738.895	0.0163871
738.973	0.0164818
739.051	0.0164591
739.129	0.0165130
739.207	0.0163719
739.285	0.0163059
739.363	0.0164359
739.442	0.0164268
739.520	0.0164880
739.598	0.0164833
739.676	0.0165217
739.754	0.0164111
739.832	0.0165520
739.910	0.0164835
739.988	0.0164857
740.067	0.0164474
740.145	0.0165969
740.223	0.0165092
740.301	0.0166539
740.379	0.0165348
740.457	0.0164907
740.535	0.0165154
740.613	0.0166325
740.692	0.0166098
740.770	0.0165797
740.848	0.0165089
740.926	0.0165085
741.004	0.0164830
741.082	0.0164546
741.160	0.0162903
741.238	0.0162872
741.317	0.0161607
741.395	0.0162054
741.473	0.0160410
741.551	0.0158154
741.629	0.0160217
741.707	0.0159859
741.785	0.0161610
741.863	0.0164230
741.942	0.0163843
742.020	0.0167196
742.098	0.0167072
742.176	0.0170019
742.254	0.0171934
742.332	0.0171973
742.410	0.0174429
742.488	0.0173684
742.567	0.0172947
742.645	0.0171564
742.723	0.0170394
742.801	0.0168565
742.879	0.0165911
742.957	0.0164839
743.035	0.0162860
743.113	0.0161298
743.192	0.0158717
743.270	0.0155895
743.348	0.0154853
743.426	0.0152189
743.504	0.0149069
743.582	0.0148626
743.660	0.0149235
743.738	0.0151075
743.817	0.0153687
743.895	0.0159690
743.973	0.0164567
744.051	0.0170667
744.129	0.0177928
744.207	0.0181786
744.285	0.0186658
744.363	0.0189967
744.442	0.0189590
744.520	0.0186638
744.598	0.0182379
744.676	0.0176350
744.754	0.0169142
744.832	0.0163853
744.910	0.0159138
744.988	0.0154668
745.067	0.0152855
745.145	0.0152590
745.223	0.0153819
745.301	0.0155839
745.379	0.0156335
745.457	0.0159553
745.535	0.0160486
745.613	0.0160643
745.692	0.0160049
745.770	0.0157543
745.848	0.0155472
745.926	0.0153549
746.004	0.0150186
746.082	0.0149866
746.160	0.0150986
746.238	0.0153654
746.317	0.0158782
746.395	0.0166032
746.473	0.0175378
746.551	0.0182422
746.629	0.0189447
746.707	0.0193611
746.785	0.0194146
746.863	0.0192975
746.942	0.0188613
747.020	0.0181403
747.098	0.0176164
747.176	0.0168870
747.254	0.0160503
747.332	0.0157914
747.410	0.0152710
747.488	0.0149261
747.567	0.0148417
747.645	0.0147072
747.723	0.0146784
747.801	0.0148429
747.879	0.0149461
747.957	0.0150552
748.035	0.0151266
748.113	0.0153178
748.192	0.0154618
748.270	0.0156453
748.348	0.0157648
748.426	0.0161736
748.504	0.0165752
748.582	0.0167172
748.660	0.0170303
748.738	0.0175037
748.817	0.0179810
748.895	0.0182436
748.973	0.0184286
749.051	0.0187324
749.129	0.0188781
749.207	0.0190164
749.285	0.0191304
749.363	0.0186796
749.442	0.0181253
749.520	0.0173346
749.598	0.0166061
749.676	0.0156793
749.754	0.0151098
749.832	0.0147510
749.910	0.0143152
749.988	0.0142829
750.067	0.0143510
750.145	0.0145596
750.223	0.0149214
750.301	0.0152853
750.379	0.0156778
750.457	0.0159832
750.535	0.0161812
750.613	0.0165871
750.692	0.0168732
750.770	0.0169993
750.848	0.0170238
750.926	0.0170085
751.004	0.0170293
751.082	0.0170556
751.160	0.0171134
751.238	0.0170705
751.317	0.0171899
751.395	0.0174442
751.473	0.0175417
751.551	0.0175471
751.629	0.0175053
751.707	0.0177077
751.785	0.0177338
751.863	0.0176439
751.942	0.0173791
752.020	0.0171971
752.098	0.0167822
752.176	0.0164293
752.254	0.0160140
752.332	0.0157338
752.410	0.0152834
752.488	0.0150882
752.567	0.0150405
752.645	0.0149459
752.723	0.0147890
752.801	0.0152644
752.879	0.0153946
752.957	0.0155650
753.035	0.0159356
753.113	0.0162609
753.192	0.0163926
753.270	0.0166878
753.348	0.0165996
753.426	0.0169176
753.504	0.0168875
753.582	0.0168787
753.660	0.0168797
753.738	0.0168645
753.817	0.0171272
753.895	0.0171895
753.973	0.0172884
754.051	0.0173643
754.129	0.0176917
754.207	0.0175441
754.285	0.0176149
754.363	0.0177000
754.442	0.0178510
754.520	0.0176192
754.598	0.0176624
754.676	0.0176397
754.754	0.0174503
754.832	0.0173055
754.910	0.0171336
754.988	0.0165913
755.067	0.0161646
755.145	0.0159232
755.223	0.0154930
755.301	0.0152175
755.379	0.0148386
755.457	0.0145021
755.535	0.0143845
755.613	0.0142833
755.692	0.0143127
755.770	0.0144129
755.848	0.0146510
755.926	0.0148579
756.004	0.0151710
756.082	0.0154359
756.160	0.0157431
756.238	0.0160880
756.317	0.0163436
756.395	0.0162070
756.473	0.0167084
756.551	0.0172200
756.629	0.0174802
756.707	0.0177957
756.785	0.0181921
756.863	0.0183929
756.942	0.0185806
757.020	0.0188235
757.098	0.0189882
757.176	0.0189507
757.254	0.0190575
757.332	0.0192337
757.410	0.0191413
757.488	0.0189627
757.567	0.0185442
757.645	0.0185159
757.723	0.0180156
757.801	0.0175696
757.879	0.0170219
757.957	0.0165823
758.035	0.0158961
758.113	0.0151248
758.192	0.0146760
758.270	0.0140109
758.348	0.0134274
758.426	0.0131330
758.504	0.0128151
758.582	0.0127953
758.660	0.0128867
758.738	0.0130988
758.817	0.0134481
758.895	0.0136312
758.973	0.0142531
759.051	0.0147352
759.129	0.0153231
759.207	0.0156041
759.285	0.0162467
759.363	0.0165858
759.442	0.0167785
759.520	0.0170567
759.598	0.0173483
759.676	0.0174995
759.754	0.0177252
759.832	0.0179211
759.910	0.0182240
759.988	0.0184863
760.067	0.0187919
760.145	0.0190913
760.223	0.0190160
760.301	0.0190388
760.379	0.0191398
760.457	0.0192439
760.535	0.0191928
760.613	0.0189186
760.692	0.0187154
760.770	0.0184312
760.848	0.0181319
760.926	0.0178082
761.004	0.0174037
761.082	0.0169622
761.160	0.0165539
761.238	0.0158833
761.317	0.0154259
761.395	0.0150677
761.473	0.0147269
761.551	0.0146918
761.629	0.0144288
761.707	0.0141541
761.785	0.0141396
761.863	0.0141130
761.942	0.0142096
762.020	0.0142161
762.098	0.0143511
762.176	0.0145138
762.254	0.0146211
762.332	0.0146300
762.410	0.0148042
762.488	0.0147416
762.567	0.0148891
762.645	0.0148558
762.723	0.0148386
762.801	0.0148326
762.879	0.0146387
762.957	0.0147385
763.035	0.0148918
763.113	0.0152120
763.192	0.0154874
763.270	0.0160485
763.348	0.0166267
763.426	0.0171887
763.504	0.0175550
763.582	0.0182044
763.660	0.0188284
763.738	0.0191840
763.817	0.0196449
763.895	0.0201504
763.973	0.0202012
764.051	0.0204992
764.129	0.0205518
764.207	0.0204681
764.285	0.0202017
764.363	0.0201669
764.442	0.0198118
764.520	0.0193078
764.598	0.0188635
764.676	0.0181001
764.754	0.0173051
764.832	0.0166763
764.910	0.0159589
764.988	0.0153310
765.067	0.0148318
765.145	0.0145013
765.223	0.0141296
765.301	0.0139189
765.379	0.0138416
765.457	0.0136296
765.535	0.0137102
765.613	0.0138516
765.692	0.0140507
765.770	0.0141262
765.848	0.0144084
765.926	0.0148251
766.004	0.0150333
766.082	0.0152924
766.160	0.0152837
766.238	0.0154328
766.317	0.0153857
766.395	0.0153401
766.473	0.0151921
766.551	0.0148562
766.629	0.0146860
766.707	0.0145079
766.785	0.0145560
766.863	0.0143874
766.942	0.0143814
767.020	0.0146299
767.098	0.0149607
767.176	0.0152106
767.254	0.0155966
767.332	0.0159737
767.410	0.0166508
767.488	0.0172325
767.567	0.0178527
767.645	0.0184089
767.723	0.0191066
767.801	0.0197523
767.879	0.0202589
767.957	0.0206763
768.035	0.0208719
768.113	0.0210851
768.192	0.0211044
768.270	0.0209841
768.348	0.0207167
768.426	0.0204201
768.504	0.0200484
768.582	0.0193079
768.660	0.0187047
768.738	0.0183226
768.817	0.0174979
768.895	0.0167678
768.973	0.0163186
769.051	0.0157558
769.129	0.0151513
769.207	0.0146788
769.285	0.0144879
769.363	0.0142692
769.442	0.0141264
769.520	0.0141892
769.598	0.0142899
769.676	0.0143918
769.754	0.0145229
769.832	0.0147542
769.910	0.0148860
769.988	0.0150248
770.067	0.0151546
770.145	0.0153187
770.223	0.0151799
770.301	0.0151577
770.379	0.0150323
770.457	0.0148734
770.535	0.0147263
770.613	0.0144283
770.692	0.0139123
770.770	0.0139593
770.848	0.0138898
770.926	0.0138563
771.004	0.0139717
771.082	0.0140541
771.160	0.0144699
771.238	0.0147538
771.317	0.0152773
771.395	0.0157269
771.473	0.0162580
771.551	0.0166353
771.629	0.0174728
771.707	0.0178598
771.785	0.0183329
771.863	0.0189480
771.942	0.0194156
772.020	0.0196844
772.098	0.0199410
772.176	0.0202979
772.254	0.0201584
772.332	0.0200719
772.410	0.0199978
772.488	0.0196406
772.567	0.0194174
772.645	0.0190176
772.723	0.0187562
772.801	0.0184311
772.879	0.0181445
772.957	0.0179346
773.035	0.0176772
773.113	0.0174996
773.192	0.0172427
773.270	0.0172659
773.348	0.0172937
773.426	0.0171858
773.504	0.0170820
773.582	0.0171159
773.660	0.0170127
773.738	0.0168437
773.817	0.0165508
773.895	0.0162709
773.973	0.0158242
774.051	0.0155650
774.129	0.0148977
774.207	0.0144794
774.285	0.0139445
774.363	0.0135910
774.442	0.0131458
774.520	0.0127679
774.598	0.0122518
774.676	0.0118998
774.754	0.0118018
774.832	0.0116277
774.910	0.0116685
774.988	0.0119250
775.067	0.0122627
775.145	0.0129025
775.223	0.0135040
775.301	0.0141019
775.379	0.0147573
775.457	0.0156409
775.535	0.0166138
775.613	0.0172230
775.692	0.0178474
775.770	0.0184174
775.848	0.0188319
775.926	0.0195290
776.004	0.0196177
776.082	0.0199684
776.160	0.0202309
776.238	0.0202585
776.317	0.0201968
776.395	0.0201672
776.473	0.0200553
776.551	0.0197981
776.629	0.0193952
776.707	0.0188798
776.785	0.0186036
776.863	0.0182946
776.942	0.0179929
777.020	0.0176190
777.098	0.0173879
777.176	0.0173810
777.254	0.0171659
777.332	0.0170654
777.410	0.0171558
777.488	0.0170157
777.567	0.0169865
777.645	0.0172036
777.723	0.0172000
777.801	0.0170735
777.879	0.0169254
777.957	0.0169482
778.035	0.0168475
778.113	0.0167580
778.192	0.0162897
778.270	0.0159552
778.348	0.0156653
778.426	0.0151967
778.504	0.0147046
778.582	0.0143210
778.660	0.0137339
778.738	0.0131431
778.817	0.0129459
778.895	0.0126134
778.973	0.0124875
779.051	0.0123850
779.129	0.0124475
779.207	0.0125295
779.285	0.0128485
779.363	0.0132483
779.442	0.0136472
779.520	0.0142298
779.598	0.0148875
779.676	0.0155819
779.754	0.0163618
779.832	0.0169471
779.910	0.0174506
779.988	0.0181818
780.067	0.0186903
780.145	0.0191541
780.223	0.0193341
780.301	0.0198228
780.379	0.0199374
780.457	0.0201149
780.535	0.0201592
780.613	0.0199557
780.692	0.0198183
780.770	0.0197464
780.848	0.0195533
780.926	0.0191626
781.004	0.0187696
781.082	0.0182820
781.160	0.0177837
781.238	0.0174239
781.317	0.0171033
781.395	0.0167331
781.473	0.0164104
781.551	0.0160896
781.629	0.0157817
781.707	0.0156519
781.785	0.0154404
781.863	0.0152202
781.942	0.0151469
782.020	0.0151276
782.098	0.0150117
782.176	0.0149528
782.254	0.0149117
782.332	0.0147433
782.410	0.0148164
782.488	0.0150722
782.567	0.0150012
782.645	0.0152249
782.723	0.0153712
782.801	0.0153990
782.879	0.0155827
782.957	0.0158169
783.035	0.0161163
783.113	0.0163714
783.192	0.0166260
783.270	0.0167789
783.348	0.0169113
783.426	0.0172384
783.504	0.0173907
783.582	0.0174882
783.660	0.0177808
783.738	0.0179969
783.817	0.0182021
783.895	0.0182720
783.973	0.0180989
784.051	0.0179945
784.129	0.0179871
784.207	0.0178841
784.285	0.0177940
784.363	0.0174290
784.442	0.0172052
784.520	0.0171629
784.598	0.0166457
784.676	0.0163040
784.754	0.0159600
784.832	0.0156381
784.910	0.0154889
784.988	0.0152856
785.067	0.0150782
785.145	0.0150435
785.223	0.0149479
785.301	0.0150372
785.379	0.0152721
785.457	0.0154218
785.535	0.0154378
785.613	0.0155422
785.692	0.0160044
785.770	0.0162831
785.848	0.0163333
785.926	0.0166309
786.004	0.0166063
786.082	0.0166731
786.160	0.0169122
786.238	0.0168789
786.317	0.0167314
786.395	0.0169563
786.473	0.0168721
786.551	0.0167622
786.629	0.0166629
786.707	0.0167613
786.785	0.0166632
786.863	0.0165134
786.942	0.0166133
787.020	0.0167011
787.098	0.0165567
787.176	0.0165114
787.254	0.0167741
787.332	0.0166454
787.410	0.0166821
787.488	0.0169087
787.567	0.0172163
787.645	0.0170316
787.723	0.0172143
787.801	0.0173415
787.879	0.0176131
787.957	0.0176089
788.035	0.0177328
788.113	0.0175745
788.192	0.0175556
788.270	0.0173801
788.348	0.0173185
788.426	0.0172126
788.504	0.0171745
788.582	0.0168275
788.660	0.0165968
788.738	0.0163808
788.817	0.0161415
788.895	0.0158353
788.973	0.0155939
789.051	0.0153635
789.129	0.0153030
789.207	0.0150909
789.285	0.0149020
789.363	0.0150298
789.442	0.0149828
789.520	0.0148235
789.598	0.0149411
789.676	0.0150213
789.754	0.0151259
789.832	0.0153666
789.910	0.0156016
789.988	0.0158655
790.067	0.0161439
790.145	0.0164336
790.223	0.0167143
790.301	0.0169678
790.379	0.0171650
790.457	0.0173158
790.535	0.0173197
790.613	0.0174506
790.692	0.0177370
790.770	0.0177947
790.848	0.0178752
790.926	0.0179248
791.004	0.0178184
791.082	0.0178793
791.160	0.0177200
791.238	0.0175912
791.317	0.0175693
791.395	0.0174084
791.473	0.0171137
791.551	0.0170364
791.629	0.0169034
791.707	0.0166252
791.785	0.0164494
791.863	0.0163057
791.942	0.0162519
792.020	0.0160719
792.098	0.0159205
792.176	0.0159197
792.254	0.0158604
792.332	0.0158825
792.410	0.0158817
792.488	0.0158254
792.567	0.0157490
792.645	0.0158485
792.723	0.0158530
792.801	0.0159083
792.879	0.0159811
792.957	0.0158807
793.035	0.0161991
793.113	0.0160962
793.192	0.0162169
793.270	0.0163159
793.348	0.0163979
793.426	0.0163100
793.504	0.0165276
793.582	0.0166415
793.660	0.0167493
793.738	0.0168986
793.817	0.0168768
793.895	0.0170480
793.973	0.0171274
794.051	0.0170784
794.129	0.0171317
794.207	0.0170549
794.285	0.0170795
794.363	0.0171931
794.442	0.0172031
794.520	0.0169570
794.598	0.0170566
794.676	0.0170657
794.754	0.0170243
794.832	0.0169222
794.910	0.0168549
794.988	0.0168727
795.067	0.0168616
795.145	0.0168501
795.223	0.0168427
795.301	0.0168353
795.379	0.0168563
795.457	0.0168176
795.535	0.0167432
795.613	0.0167342
795.692	0.0165421
795.770	0.0164133
795.848	0.0165784
795.926	0.0163454
796.004	0.0165334
796.082	0.0162223
796.160	0.0163071
796.238	0.0162807
796.317	0.0161446
796.395	0.0162318
796.473	0.0161529
796.551	0.0159693
796.629	0.0158273
796.707	0.0157778
796.785	0.0157293
796.863	0.0155637
796.942	0.0154299
797.020	0.0152131
797.098	0.0153956
797.176	0.0153412
797.254	0.0152851
797.332	0.0152934
797.410	0.0154842
797.488	0.0155411
797.567	0.0156891
797.645	0.0161082
797.723	0.0161747
797.801	0.0164639
797.879	0.0166795
797.957	0.0168452
798.035	0.0170817
798.113	0.0173225
798.192	0.0175363
798.270	0.0176382
798.348	0.0178384
798.426	0.0178465
798.504	0.0179151
798.582	0.0179697
798.660	0.0178766
798.738	0.0177763
798.817	0.0177986
798.895	0.0177042
798.973	0.0176539
799.051	0.0175732
799.129	0.0174163
799.207	0.0172358
799.285	0.0171121
799.363	0.0169196
799.442	0.0167429
799.520	0.0166518
799.598	0.0164207
799.676	0.0162569
799.754	0.0161153
799.832	0.0159138
799.910	0.0158624
799.988	0.0157049
800.067	0.0154765
800.145	0.0154055
800.223	0.0156373
800.301	0.0154755
800.379	0.0154543
800.457	0.0155556
800.535	0.0154379
800.613	0.0155759
800.692	0.0157253
800.770	0.0158910
800.848	0.0158931
800.926	0.0161108
801.004	0.0161112
801.082	0.0162225
801.160	0.0163355
801.238	0.0163983
801.317	0.0162928
801.395	0.0164609
801.473	0.0164755
801.551	0.0165166
801.629	0.0165215
801.707	0.0167754
801.785	0.0167219
801.863	0.0167995
801.942	0.0168642
802.020	0.0169552
802.098	0.0167785
802.176	0.0167180
802.254	0.0168337
802.332	0.0168388
802.410	0.0167973
802.488	0.0169835
802.567	0.0168413
802.645	0.0165502
802.723	0.0166898
802.801	0.0167361
802.879	0.0169661
802.957	0.0168701
803.035	0.0167824
803.113	0.0167110
803.192	0.0168550
803.270	0.0167201
803.348	0.0168683
803.426	0.0169277
803.504	0.0168312
803.582	0.0166888
803.660	0.0166245
803.738	0.0166634
803.817	0.0167406
803.895	0.0166500
803.973	0.0165613
804.051	0.0165672
804.129	0.0164874
804.207	0.0163528
804.285	0.0162698
804.363	0.0162156
804.442	0.0161218
804.520	0.0160814
804.598	0.0160060
804.676	0.0161211
804.754	0.0160960
804.832	0.0159063
804.910	0.0159607
804.988	0.0160522
805.067	0.0160751
805.145	0.0161809
805.223	0.0161095
805.301	0.0161441
805.379	0.0163940
805.457	0.0163771
805.535	0.0164769
805.613	0.0166977
805.692	0.0167998
805.770	0.0169416
805.848	0.0169805
805.926	0.0171599
806.004	0.0172576
806.082	0.0172566
806.160	0.0173174
806.238	0.0173676
806.317	0.0173531
806.395	0.0173279
806.473	0.0172602
806.551	0.0173519
806.629	0.0173042
806.707	0.0171198
806.785	0.0170310
806.863	0.0168905
806.942	0.0166769
807.020	0.0165980
807.098	0.0164843
807.176	0.0164997
807.254	0.0164463
807.332	0.0162427
807.410	0.0160819
807.488	0.0161527
807.567	0.0161873
807.645	0.0159853
807.723	0.0161200
807.801	0.0161143
807.879	0.0160738
807.957	0.0162114
808.035	0.0161285
808.113	0.0162485
808.192	0.0162595
808.270	0.0162978
808.348	0.0161501
808.426	0.0162012
808.504	0.0162581
808.582	0.0162644
808.660	0.0162338
808.738	0.0160123
808.817	0.0162906
808.895	0.0161506
808.973	0.0160835
809.051	0.0161433
809.129	0.0162586
809.207	0.0160624
809.285	0.0161018
809.363	0.0163232
809.442	0.0162286
809.520	0.0163873
809.598	0.0163078
809.676	0.0165431
809.754	0.0165004
809.832	0.0166231
809.910	0.0168126
809.988	0.0169175
810.067	0.0168201
810.145	0.0168182
810.223	0.0171476
810.301	0.0170951
810.379	0.0170018
810.457	0.0171788
810.535	0.0172262
810.613	0.0172112
810.692	0.0173141
810.770	0.0173929
810.848	0.0174254
810.926	0.0174167
811.004	0.0174454
811.082	0.0172641
811.160	0.0172064
811.238	0.0172137
811.317	0.0170272
811.395	0.0169127
811.473	0.0169995
811.551	0.0167892
811.629	0.0166582
811.707	0.0164162
811.785	0.0163754
811.863	0.0163309
811.942	0.0162117
812.020	0.0160748
812.098	0.0158566
812.176	0.0158375
812.254	0.0157838
812.332	0.0158775
812.410	0.0157147
812.488	0.0158855
812.567	0.0158672
812.645	0.0159904
812.723	0.0159394
812.801	0.0160393
812.879	0.0159879
812.957	0.0160420
813.035	0.0160316
813.113	0.0162002
813.192	0.0162682
813.270	0.0163909
813.348	0.0166297
813.426	0.0167094
813.504	0.0167834
813.582	0.0168214
813.660	0.0168644
813.738	0.0168777
813.817	0.0167712
813.895	0.0168394
813.973	0.0168006
814.051	0.0169104
814.129	0.0169111
814.207	0.0167201
814.285	0.0166999
814.363	0.0167061
814.442	0.0166843
814.520	0.0167284
814.598	0.0166380
814.676	0.0164697
814.754	0.0165282
814.832	0.0167439
814.910	0.0166483
814.988	0.0167231
815.067	0.0165942
815.145	0.0167804
815.223	0.0166756
815.301	0.0166589
815.379	0.0166664
815.457	0.0165735
815.535	0.0165783
815.613	0.0164056
815.692	0.0163972
815.770	0.0163704
815.848	0.0161969
815.926	0.0161635
816.004	0.0160574
816.082	0.0161005
816.160	0.0161359
816.238	0.0161170
816.317	0.0159875
816.395	0.0160472
816.473	0.0160925
816.551	0.0161979
816.629	0.0162177
816.707	0.0162895
816.785	0.0164611
816.863	0.0163649
816.942	0.0165131
817.020	0.0167213
817.098	0.0169086
817.176	0.0168925
817.254	0.0171564
817.332	0.0172493
817.410	0.0171874
817.488	0.0171836
817.567	0.0173653
817.645	0.0171554
817.723	0.0170274
817.801	0.0171325
817.879	0.0169871
817.957	0.0169742
818.035	0.0169876
818.113	0.0168904
818.192	0.0167035
818.270	0.0167743
818.348	0.0167795
818.426	0.0166083
818.504	0.0165383
818.582	0.0166766
818.660	0.0167081
818.738	0.0165519
818.817	0.0165965
818.895	0.0166335
818.973	0.0165820
819.051	0.0166227
819.129	0.0165553
819.207	0.0163736
819.285	0.0163202
819.363	0.0163445
819.442	0.0164056
819.520	0.0162715
819.598	0.0160851
819.676	0.0158932
819.754	0.0160636
819.832	0.0159370
819.910	0.0156922
819.988	0.0157662
820.067	0.0158252
820.145	0.0154592
820.223	0.0157046
820.301	0.0156615
820.379	0.0155962
820.457	0.0156092
820.535	0.0158001
820.613	0.0159811
820.692	0.0158166
820.770	0.0160604
820.848	0.0163255
820.926	0.0163159
821.004	0.0164383
821.082	0.0164116
821.160	0.0163248
821.238	0.0166104
821.317	0.0167150
821.395	0.0165829
821.473	0.0167194
821.551	0.0168333
821.629	0.0167867
821.707	0.0169260
821.785	0.0168116
821.863	0.0167316
821.942	0.0168906
822.020	0.0168476
822.098	0.0168450
822.176	0.0169019
822.254	0.0170192
822.332	0.0171417
822.410	0.0170356
822.488	0.0170152
822.567	0.0169908
822.645	0.0170908
822.723	0.0171465
822.801	0.0169908
822.879	0.0171752
822.957	0.0170433
823.035	0.0171647
823.113	0.0171283
823.192	0.0170138
823.270	0.0169746
823.348	0.0168339
823.426	0.0167830
823.504	0.0166911
823.582	0.0165427
823.660	0.0165004
823.738	0.0164558
823.817	0.0162494
823.895	0.0159863
823.973	0.0159560
824.051	0.0158472
824.129	0.0158652
824.207	0.0157658
824.285	0.0156200
824.363	0.0155794
824.442	0.0156785
824.520	0.0157160
824.598	0.0156857
824.676	0.0158378
824.754	0.0158320
824.832	0.0160474
824.910	0.0162009
824.988	0.0164164
825.067	0.0162506
825.145	0.0164665
825.223	0.0166283
825.301	0.0166270
825.379	0.0167844
825.457	0.0169040
825.535	0.0168472
825.613	0.0168062
825.692	0.0169070
825.770	0.0169861
825.848	0.0168037
825.926	0.0168210
826.004	0.0169051
826.082	0.0168224
826.160	0.0165852
826.238	0.0166521
826.317	0.0166852
826.395	0.0165929
826.473	0.0163063
826.551	0.0164051
826.629	0.0165298
826.707	0.0164722
826.785	0.0164291
826.863	0.0163256
826.942	0.0162776
827.020	0.0162065
827.098	0.0162212
827.176	0.0160966
827.254	0.0160941
827.332	0.0161437
827.410	0.0161807
827.488	0.0162356
827.567	0.0162266
827.645	0.0161300
827.723	0.0161559
827.801	0.0161488
827.879	0.0161973
827.957	0.0161765
828.035	0.0162804
828.113	0.0161190
828.192	0.0162112
828.270	0.0164397
828.348	0.0164162
828.426	0.0163837
828.504	0.0164227
828.582	0.0165176
828.660	0.0164927
828.738	0.0166164
828.817	0.0168019
828.895	0.0166618
828.973	0.0167615
829.051	0.0168896
829.129	0.0168653
829.207	0.0169054
829.285	0.0170066
829.363	0.0169415
829.442	0.0169869
829.520	0.0169418
829.598	0.0170296
829.676	0.0171917
829.754	0.0169765
829.832	0.0169767
829.910	0.0168803
829.988	0.0168785
830.067	0.0167470
830.145	0.0167458
830.223	0.0168344
830.301	0.0165763
830.379	0.0165429
830.457	0.0163913
830.535	0.0163857
830.613	0.0164487
830.692	0.0162516
830.770	0.0163093
830.848	0.0162918
830.926	0.0161983
831.004	0.0161919
831.082	0.0162809
831.160	0.0163143
831.238	0.0162710
831.317	0.0162877
831.395	0.0163791
831.473	0.0164044
831.551	0.0164765
831.629	0.0163821
831.707	0.0162814
831.785	0.0163724
831.863	0.0163349
831.942	0.0160853
832.020	0.0161530
832.098	0.0158359
832.176	0.0160998
832.254	0.0159519
832.332	0.0158579
832.410	0.0157864
832.488	0.0157300
832.567	0.0157866
832.645	0.0159299
832.723	0.0160025
832.801	0.0160201
832.879	0.0159845
832.957	0.0163257
833.035	0.0162745
833.113	0.0163758
833.192	0.0165508
833.270	0.0166662
833.348	0.0170499
833.426	0.0170904
833.504	0.0170210
833.582	0.0173077
833.660	0.0172065
833.738	0.0172479
833.817	0.0172585
833.895	0.0173015
833.973	0.0171093
834.051	0.0170866
834.129	0.0171183
834.207	0.0171291
834.285	0.0169032
834.363	0.0167604
834.442	0.0166362
834.520	0.0164738
834.598	0.0165507
834.676	0.0163770
834.754	0.0162538
834.832	0.0161571
834.910	0.0161839
834.988	0.0161517
835.067	0.0163320
835.145	0.0164486
835.223	0.0162602
835.301	0.0162048
835.379	0.0163576
835.457	0.0164155
835.535	0.0166343
835.613	0.0165777
835.692	0.0166039
835.770	0.0165825
835.848	0.0165425
835.926	0.0165648
836.004	0.0164494
836.082	0.0164021
836.160	0.0164660
836.238	0.0163630
836.317	0.0161587
836.395	0.0161234
836.473	0.0161153
836.551	0.0162154
836.629	0.0162156
836.707	0.0161230
836.785	0.0161944
836.863	0.0161797
836.942	0.0162585
837.020	0.0161886
837.098	0.0162350
837.176	0.0161733
837.254	0.0163218
837.332	0.0163286
837.410	0.0164885
837.488	0.0165611
837.567	0.0165319
837.645	0.0166763
837.723	0.0167637
837.801	0.0168288
837.879	0.0168726
837.957	0.0167334
838.035	0.0166998
838.113	0.0167766
838.192	0.0167370
838.270	0.0167067
838.348	0.0166939
838.426	0.0166512
838.504	0.0166885
838.582	0.0166301
838.660	0.0165604
838.738	0.0164993
838.817	0.0164982
838.895	0.0163023
838.973	0.0163066
839.051	0.0163059
839.129	0.0163287
839.207	0.0163950
839.285	0.0163231
839.363	0.0163069
839.442	0.0162177
839.520	0.0161686
839.598	0.0162334
839.676	0.0161951
839.754	0.0161890
839.832	0.0163992
839.910	0.0164300
839.988	0.0164184
840.067	0.0162982
840.145	0.0164822
840.223	0.0164519
840.301	0.0164435
840.379	0.0165578
840.457	0.0165398
840.535	0.0165801
840.613	0.0165821
840.692	0.0165543
840.770	0.0167030
840.848	0.0165922
840.926	0.0165739
841.004	0.0165675
841.082	0.0165101
841.160	0.0166592
841.238	0.0166345
841.317	0.0166072
841.395	0.0167986
841.473	0.0166834
841.551	0.0167747
841.629	0.0166502
841.707	0.0166772
841.785	0.0167740
841.863	0.0169630
841.942	0.0168836
842.020	0.0168261
842.098	0.0168994
842.176	0.0169299
842.254	0.0170629
842.332	0.0167942
842.410	0.0168902
842.488	0.0169480
842.567	0.0168211
842.645	0.0167869
842.723	0.0167605
842.801	0.0166621
842.879	0.0166223
842.957	0.0164524
843.035	0.0162206
843.113	0.0162201
843.192	0.0160930
843.270	0.0159601
843.348	0.0159293
843.426	0.0160461
843.504	0.0159081
843.582	0.0159506
843.660	0.0158864
843.738	0.0160062
843.817	0.0161642
843.895	0.0161729
843.973	0.0162431
844.051	0.0162887
844.129	0.0163183
844.207	0.0163394
844.285	0.0164256
844.363	0.0164532
844.442	0.0164663
844.520	0.0165369
844.598	0.0164975
844.676	0.0165802
844.754	0.0166217
844.832	0.0164880
844.910	0.0164155
844.988	0.0164335
845.067	0.0163435
845.145	0.0162682
845.223	0.0164621
845.301	0.0162571
845.379	0.0162885
845.457	0.0163065
845.535	0.0162576
845.613	0.0163335
845.692	0.0163327
845.770	0.0163683
845.848	0.0164853
845.926	0.0165704
846.004	0.0166011
846.082	0.0165444
846.160	0.0166754
846.238	0.0168462
846.317	0.0167439
846.395	0.0167542
846.473	0.0169005
846.551	0.0169373
846.629	0.0169955
846.707	0.0167723
846.785	0.0169626
846.863	0.0168311
846.942	0.0168143
847.020	0.0166453
847.098	0.0167146
847.176	0.0165189
847.254	0.0167004
847.332	0.0164593
847.410	0.0164005
847.488	0.0162533
847.567	0.0162948
847.645	0.0163700
847.723	0.0162168
847.801	0.0163619
847.879	0.0161932
847.957	0.0162701
848.035	0.0164086
848.113	0.0165215
848.192	0.0164084
848.270	0.0162716
848.348	0.0163705
848.426	0.0163498
848.504	0.0163717
848.582	0.0163081
848.660	0.0165042
848.738	0.0163932
848.817	0.0164483
848.895	0.0163636
848.973	0.0163716
849.051	0.0162906
849.129	0.0164332
849.207	0.0164970
849.285	0.0163028
849.363	0.0162024
849.442	0.0162638
849.520	0.0163162
849.598	0.0163116
849.676	0.0164475
849.754	0.0162356
849.832	0.0163594
849.910	0.0165496
849.988	0.0164866
850.067	0.0165702
850.145	0.0165718
850.223	0.0165360
850.301	0.0166728
850.379	0.0166412
850.457	0.0166608
850.535	0.0166774
850.613	0.0167670
850.692	0.0168796
850.770	0.0167937
850.848	0.0167583
850.926	0.0168485
851.004	0.0167429
851.082	0.0167084
851.160	0.0165720
851.238	0.0165473
851.317	0.0165492
851.395	0.0165684
851.473	0.0163785
851.551	0.0163670
851.629	0.0162477
851.707	0.0160567
851.785	0.0160736
851.863	0.0159864
851.942	0.0160741
852.020	0.0160744
852.098	0.0160661
852.176	0.0161416
852.254	0.0161671
852.332	0.0161581
852.410	0.0162769
852.488	0.0162844
852.567	0.0164077
852.645	0.0164922
852.723	0.0165983
852.801	0.0167098
852.879	0.0165659
852.957	0.0166999
853.035	0.0167976
853.113	0.0167010
853.192	0.0168894
853.270	0.0166924
853.348	0.0166572
853.426	0.0166798
853.504	0.0167445
853.582	0.0167596
853.660	0.0167503
853.738	0.0166904
853.817	0.0166055
853.895	0.0167263
853.973	0.0167959
854.051	0.0166003
854.129	0.0164214
854.207	0.0166003
854.285	0.0166006
854.363	0.0166194
854.442	0.0165559
854.520	0.0165178
854.598	0.0165375
854.676	0.0165536
854.754	0.0165470
854.832	0.0163844
854.910	0.0164616
854.988	0.0165435
855.067	0.0162923
855.145	0.0162400
855.223	0.0162978
855.301	0.0162302
855.379	0.0160819
855.457	0.0161440
855.535	0.0162223
855.613	0.0160173
855.692	0.0158810
855.770	0.0159425
855.848	0.0160596
855.926	0.0160590
856.004	0.0160109
856.082	0.0162042
856.160	0.0163419
856.238	0.0162753
856.317	0.0163464
856.395	0.0166129
856.473	0.0166994
856.551	0.0166712
856.629	0.0168520
856.707	0.0168518
856.785	0.0168552
856.863	0.0169563
856.942	0.0169402
857.020	0.0169769
857.098	0.0171098
857.176	0.0169935
857.254	0.0168329
857.332	0.0169577
857.410	0.0168727
857.488	0.0167024
857.567	0.0167051
857.645	0.0166207
857.723	0.0165583
857.801	0.0163505
857.879	0.0164513
857.957	0.0161702
858.035	0.0160754
858.113	0.0161773
858.192	0.0160204
858.270	0.0160892
858.348	0.0161149
858.426	0.0160377
858.504	0.0160231
858.582	0.0160095
858.660	0.0160789
858.738	0.0160428
858.817	0.0160150
858.895	0.0161082
858.973	0.0161723
859.051	0.0160896
859.129	0.0160419
859.207	0.0161771
859.285	0.0161108
859.363	0.0162228
859.442	0.0162447
859.520	0.0161941
859.598	0.0162341
859.676	0.0163886
859.754	0.0163281
859.832	0.0162885
859.910	0.0163721
859.988	0.0165018
860.067	0.0163889
860.145	0.0163965
860.223	0.0165121
860.301	0.0166264
860.379	0.0166250
860.457	0.0167603
860.535	0.0168440
860.613	0.0168889
860.692	0.0169713
860.770	0.0170641
860.848	0.0172207
860.926	0.0171888
861.004	0.0171867
861.082	0.0171759
861.160	0.0171841
861.238	0.0172505
861.317	0.0170992
861.395	0.0170094
861.473	0.0170379
861.551	0.0169832
861.629	0.0167773
861.707	0.0168192
861.785	0.0167326
861.863	0.0167471
861.942	0.0165910
862.020	0.0164832
862.098	0.0163100
862.176	0.0163239
862.254	0.0162486
862.332	0.0161501
862.410	0.0161832
862.488	0.0159989
862.567	0.0160519
862.645	0.0160478
862.723	0.0158628
862.801	0.0159566
862.879	0.0159432
862.957	0.0160569
863.035	0.0159760
863.113	0.0161760
863.192	0.0162074
863.270	0.0161425
863.348	0.0161983
863.426	0.0163064
863.504	0.0163077
863.582	0.0163383
863.660	0.0164574
863.738	0.0165382
863.817	0.0163344
863.895	0.0165051
863.973	0.0165694
864.051	0.0165382
864.129	0.0166701
864.207	0.0164071
864.285	0.0165688
864.363	0.0165675
864.442	0.0166296
864.520	0.0165041
864.598	0.0166824
864.676	0.0168309
864.754	0.0167834
864.832	0.0170312
864.910	0.0169917
864.988	0.0171658
865.067	0.0170993
865.145	0.0170818
865.223	0.0170360
865.301	0.0172538
865.379	0.0171902
865.457	0.0171251
865.535	0.0170696
865.613	0.0170747
865.692	0.0169960
865.770	0.0171234
865.848	0.0168582
865.926	0.0169218
866.004	0.0168239
866.082	0.0167738
866.160	0.0166489
866.238	0.0164397
866.317	0.0163951
866.395	0.0162290
866.473	0.0160933
866.551	0.0159787
866.629	0.0156035
866.707	0.0158187
866.785	0.0157442
866.863	0.0156322
866.942	0.0156273
867.020	0.0155151
867.098	0.0156021
867.176	0.0156902
867.254	0.0156260
867.332	0.0157792
867.410	0.0157133
867.488	0.0159160
867.567	0.0159835
867.645	0.0159911
867.723	0.0162614
867.801	0.0162849
867.879	0.0163873
867.957	0.0166260
868.035	0.0166698
868.113	0.0168219
868.192	0.0168889
868.270	0.0169775
868.348	0.0169519
868.426	0.0170099
868.504	0.0170583
868.582	0.0170355
868.660	0.0171912
868.738	0.0172278
868.817	0.0171517
868.895	0.0171477
868.973	0.0171397
869.051	0.0170256
869.129	0.0171561
869.207	0.0170601
869.285	0.0171393
869.363	0.0169178
869.442	0.0171349
869.520	0.0171371
869.598	0.0170815
869.676	0.0169859
869.754	0.0171028
869.832	0.0169801
869.910	0.0168208
869.988	0.0168739
870.067	0.0166656
870.145	0.0167014
870.223	0.0165917
870.301	0.0165285
870.379	0.0164310
870.457	0.0162612
870.535	0.0163676
870.613	0.0163007
870.692	0.0160053
870.770	0.0158219
870.848	0.0157816
870.926	0.0158920
871.004	0.0156749
871.082	0.0156873
871.160	0.0157585
871.238	0.0155630
871.317	0.0154665
871.395	0.0154763
871.473	0.0155036
871.551	0.0154505
871.629	0.0155560
871.707	0.0154568
871.785	0.0156723
871.863	0.0158083
871.942	0.0158077
872.020	0.0160076
872.098	0.0160970
872.176	0.0161323
872.254	0.0164014
872.332	0.0164069
872.410	0.0166017
872.488	0.0167580
872.567	0.0167466
872.645	0.0170499
872.723	0.0170196
872.801	0.0170906
872.879	0.0171915
872.957	0.0173275
873.035	0.0171383
873.113	0.0170827
873.192	0.0172118
873.270	0.0171970
873.348	0.0171426
873.426	0.0170609
873.504	0.0170567
873.582	0.0169398
873.660	0.0170181
873.738	0.0170362
873.817	0.0168441
873.895	0.0168011
873.973	0.0167496
874.051	0.0168129
874.129	0.0167097
874.207	0.0166322
874.285	0.0167563
874.363	0.0167756
874.442	0.0165012
874.520	0.0165494
874.598	0.0166221
874.676	0.0164928
874.754	0.0164902
874.832	0.0163863
874.910	0.0165259
874.988	0.0163999
875.067	0.0162167
875.145	0.0161937
875.223	0.0161209
875.301	0.0160841
875.379	0.0160334
875.457	0.0160139
875.535	0.0158520
875.613	0.0159045
875.692	0.0159958
875.770	0.0159196
875.848	0.0159294
875.926	0.0159995
876.004	0.0159390
876.082	0.0160477
876.160	0.0162098
876.238	0.0162044
876.317	0.0162592
876.395	0.0163791
876.473	0.0164762
876.551	0.0165960
876.629	0.0165668
876.707	0.0166409
876.785	0.0165847
876.863	0.0168119
876.942	0.0169184
877.020	0.0167771
877.098	0.0168812
877.176	0.0169167
877.254	0.0169228
877.332	0.0169257
877.410	0.0169942
877.488	0.0168667
877.567	0.0169051
877.645	0.0168235
877.723	0.0167145
877.801	0.0167162
877.879	0.0167390
877.957	0.0166126
878.035	0.0166164
878.113	0.0166142
878.192	0.0166647
878.270	0.0165577
878.348	0.0164747
878.426	0.0165494
878.504	0.0165100
878.582	0.0164362
878.660	0.0164607
878.738	0.0164826
878.817	0.0163486
878.895	0.0164468
878.973	0.0164790
879.051	0.0163875
879.129	0.0164849
879.207	0.0163704
879.285	0.0162862
879.363	0.0162578
879.442	0.0163738
879.520	0.0163105
879.598	0.0163082
879.676	0.0163313
879.754	0.0163197
879.832	0.0163285
879.910	0.0164181
879.988	0.0164175
880.067	0.0164065
880.145	0.0165640
880.223	0.0165655
880.301	0.0165754
880.379	0.0166042
880.457	0.0166701
880.535	0.0166614
880.613	0.0165704
880.692	0.0166170
880.770	0.0167355
880.848	0.0166182
880.926	0.0167252
881.004	0.0167767
881.082	0.0165960
881.160	0.0167110
881.238	0.0168643
881.317	0.0166520
881.395	0.0165280
881.473	0.0166527
881.551	0.0168124
881.629	0.0165878
881.707	0.0165224
881.785	0.0165838
881.863	0.0164729
881.942	0.0164700
882.020	0.0165431
882.098	0.0165022
882.176	0.0164941
882.254	0.0165024
882.332	0.0164917
882.410	0.0162733
882.488	0.0162540
882.567	0.0163410
882.645	0.0163330
882.723	0.0162211
882.801	0.0164810
882.879	0.0163574
882.957	0.0164047
883.035	0.0163226
883.113	0.0164958
883.192	0.0164038
883.270	0.0163528
883.348	0.0163935
883.426	0.0162453
883.504	0.0163449
883.582	0.0165797
883.660	0.0165964
883.738	0.0163353
883.817	0.0166322
883.895	0.0164344
883.973	0.0164958
884.051	0.0164843
884.129	0.0167763
884.207	0.0166817
884.285	0.0166809
884.363	0.0165518
884.442	0.0167268
884.520	0.0168182
884.598	0.0166423
884.676	0.0165881
884.754	0.0167567
884.832	0.0168490
884.910	0.0168583
884.988	0.0168063
885.067	0.0166063
885.145	0.0166378
885.223	0.0166420
885.301	0.0165835
885.379	0.0166175
885.457	0.0165439
885.535	0.0165057
885.613	0.0165035
885.692	0.0163850
885.770	0.0162810
885.848	0.0162238
885.926	0.0163073
886.004	0.0161938
886.082	0.0161358
886.160	0.0162295
886.238	0.0162730
886.317	0.0161446
886.395	0.0162479
886.473	0.0163864
886.551	0.0161250
886.629	0.0163229
886.707	0.0163657
886.785	0.0163518
886.863	0.0164877
886.942	0.0165914
887.020	0.0166425
887.098	0.0167366
887.176	0.0167784
887.254	0.0166277
887.332	0.0165520
887.410	0.0166236
887.488	0.0167538
887.567	0.0168932
887.645	0.0167812
887.723	0.0168632
887.801	0.0168360
887.879	0.0166833
887.957	0.0168336
888.035	0.0167664
888.113	0.0167305
888.192	0.0168165
888.270	0.0168948
888.348	0.0166879
888.426	0.0166322
888.504	0.0166094
888.582	0.0166098
888.660	0.0166125
888.738	0.0164883
888.817	0.0166063
888.895	0.0164906
888.973	0.0164356
889.051	0.0164234
889.129	0.0163748
889.207	0.0164104
889.285	0.0165318
889.363	0.0164383
889.442	0.0164968
889.520	0.0163795
889.598	0.0164192
889.676	0.0163200
889.754	0.0164056
889.832	0.0164021
889.910	0.0161612
889.988	0.0163127
890.067	0.0162380
890.145	0.0161336
890.223	0.0161220
890.301	0.0163555
890.379	0.0163685
890.457	0.0163258
890.535	0.0163999
890.613	0.0163204
890.692	0.0164362
890.770	0.0165416
890.848	0.0164076
890.926	0.0163121
891.004	0.0165141
891.082	0.0165062
891.160	0.0165958
891.238	0.0166904
891.317	0.0166374
891.395	0.0166402
891.473	0.0165774
891.551	0.0166801
891.629	0.0166434
891.707	0.0166650
891.785	0.0166310
891.863	0.0167043
891.942	0.0167649
892.020	0.0166280
892.098	0.0166668
892.176	0.0166181
892.254	0.0166393
892.332	0.0164724
892.410	0.0164678
892.488	0.0165450
892.567	0.0164809
892.645	0.0163982
892.723	0.0164015
892.801	0.0163222
892.879	0.0164041
892.957	0.0163834
893.035	0.0163428
893.113	0.0164474
893.192	0.0164039
893.270	0.0163461
893.348	0.0163169
893.426	0.0163481
893.504	0.0163289
893.582	0.0164971
893.660	0.0165434
893.738	0.0163608
893.817	0.0163947
893.895	0.0164196
893.973	0.0164552
894.051	0.0166338
894.129	0.0164082
894.207	0.0166550
894.285	0.0166749
894.363	0.0164457
894.442	0.0165188
894.520	0.0167064
894.598	0.0165407
894.676	0.0165799
894.754	0.0166422
894.832	0.0166875
894.910	0.0167240
894.988	0.0165915
895.067	0.0167982
895.145	0.0167174
895.223	0.0166766
895.301	0.0166084
895.379	0.0165792
895.457	0.0166629
895.535	0.0164955
895.613	0.0164673
895.692	0.0165234
895.770	0.0164545
895.848	0.0164023
895.926	0.0164869
896.004	0.0163663
896.082	0.0164131
896.160	0.0163034
896.238	0.0164191
896.317	0.0163297
896.395	0.0162980
896.473	0.0163824
896.551	0.0162527
896.629	0.0162690
896.707	0.0163383
896.785	0.0162389
896.863	0.0163950
896.942	0.0162515
897.020	0.0163052
897.098	0.0161172
897.176	0.0162532
897.254	0.0161629
897.332	0.0161855
897.410	0.0161927
897.488	0.0162462
897.567	0.0163042
897.645	0.0162572
897.723	0.0161128
897.801	0.0162679
897.879	0.0162991
897.957	0.0162265
898.035	0.0162202
898.113	0.0162494
898.192	0.0162498
898.270	0.0162564
898.348	0.0164272
898.426	0.0165052
898.504	0.0163268
898.582	0.0165115
898.660	0.0164738
898.738	0.0164131
898.817	0.0168009
898.895	0.0166057
898.973	0.0165739
899.051	0.0166476
899.129	0.0167548
899.207	0.0165915
899.285	0.0166592
899.363	0.0167031
899.442	0.0165397
899.520	0.0165366
899.598	0.0167757
899.676	0.0167243
899.754	0.0166056
899.832	0.0166999
899.910	0.0165040
899.988	0.0167062
900.067	0.0166095
900.145	0.0167210
900.223	0.0166590
900.301	0.0167071
900.379	0.0166988
900.457	0.0166322
900.535	0.0166539
900.613	0.0165981
900.692	0.0165749
900.770	0.0166531
900.848	0.0166082
900.926	0.0165340
901.004	0.0165242
901.082	0.0165578
901.160	0.0164830
901.238	0.0164652
901.317	0.0163074
901.395	0.0163591
901.473	0.0163100
901.551	0.0164032
901.629	0.0163821
901.707	0.0163689
901.785	0.0164613
901.863	0.0163936
901.942	0.0163413
902.020	0.0161989
902.098	0.0162600
902.176	0.0163823
902.254	0.0163201
902.332	0.0164840
902.410	0.0163638
902.488	0.0162990
902.567	0.0163745
902.645	0.0163330
902.723	0.0163457
902.801	0.0164195
902.879	0.0164207
902.957	0.0165201
903.035	0.0163786
903.113	0.0163654
903.192	0.0162803
903.270	0.0164377
903.348	0.0163917
903.426	0.0162975
903.504	0.0163588
903.582	0.0166079
903.660	0.0164582
903.738	0.0165150
903.817	0.0165036
903.895	0.0164406
903.973	0.0165511
904.051	0.0164827
904.129	0.0164536
904.207	0.0165520
904.285	0.0165142
904.363	0.0165352
904.442	0.0164983
904.520	0.0165861
904.598	0.0165338
904.676	0.0164885
904.754	0.0165978
904.832	0.0165450
904.910	0.0165028
904.988	0.0166089
905.067	0.0166007
905.145	0.0165440
905.223	0.0167010
905.301	0.0164451
905.379	0.0165762
905.457	0.0164873
905.535	0.0163149
905.613	0.0164837
905.692	0.0164122
905.770	0.0165140
905.848	0.0164304
905.926	0.0164475
906.004	0.0164089
906.082	0.0164343
906.160	0.0165428
906.238	0.0166542
906.317	0.0165861
906.395	0.0166311
906.473	0.0166635
906.551	0.0166706
906.629	0.0167081
906.707	0.0166747
906.785	0.0165092
906.863	0.0166136
906.942	0.0166964
907.020	0.0166795
907.098	0.0166850
907.176	0.0167472
907.254	0.0166568
907.332	0.0165281
907.410	0.0165180
907.488	0.0164858
907.567	0.0165594
907.645	0.0164768
907.723	0.0163072
907.801	0.0165041
907.879	0.0164665
907.957	0.0165372
908.035	0.0163454
908.113	0.0162774
908.192	0.0164967
908.270	0.0164406
908.348	0.0163882
908.426	0.0163681
908.504	0.0164926
908.582	0.0164417
908.660	0.0165356
908.738	0.0163155
908.817	0.0164885
908.895	0.0165814
908.973	0.0165118
909.051	0.0163902
909.129	0.0165106
909.207	0.0164283
909.285	0.0164336
909.363	0.0163428
909.442	0.0163987
909.520	0.0164425
909.598	0.0164777
909.676	0.0164466
909.754	0.0164661
909.832	0.0165698
909.910	0.0164926
909.988	0.0163964
910.067	0.0165246
910.145	0.0166145
910.223	0.0164889
910.301	0.0165861
910.379	0.0164964
910.457	0.0165430
910.535	0.0165251
910.613	0.0164928
910.692	0.0166518
910.770	0.0165220
910.848	0.0165515
910.926	0.0165542
911.004	0.0166667
911.082	0.0166177
911.160	0.0166373
911.238	0.0167142
911.317	0.0165798
911.395	0.0166007
911.473	0.0166269
911.551	0.0166315
911.629	0.0166732
911.707	0.0166956
911.785	0.0166203
911.863	0.0166428
911.942	0.0167496
912.020	0.0164408
912.098	0.0163947
912.176	0.0164172
912.254	0.0165037
912.332	0.0166470
912.410	0.0163319
912.488	0.0163097
912.567	0.0164031
912.645	0.0162418
912.723	0.0163351
912.801	0.0163872
912.879	0.0164291
912.957	0.0162387
913.035	0.0163036
913.113	0.0163438
913.192	0.0163181
913.270	0.0163947
913.348	0.0163173
913.426	0.0164463
913.504	0.0165604
913.582	0.0164077
913.660	0.0166212
913.738	0.0165112
913.817	0.0165099
913.895	0.0165018
913.973	0.0164009
914.051	0.0165036
914.129	0.0166374
914.207	0.0166032
914.285	0.0166965
914.363	0.0167231
914.442	0.0166842
914.520	0.0167995
914.598	0.0166405
914.676	0.0167428
914.754	0.0167152
914.832	0.0167114
914.910	0.0166621
914.988	0.0167026
915.067	0.0167038
915.145	0.0167272
915.223	0.0166535
915.301	0.0166188
915.379	0.0166486
915.457	0.0165997
915.535	0.0166530
915.613	0.0165450
915.692	0.0166402
915.770	0.0167033
915.848	0.0165746
915.926	0.0165431
916.004	0.0165465
916.082	0.0166094
916.160	0.0164376
916.238	0.0164083
916.317	0.0164102
916.395	0.0163763
916.473	0.0162714
916.551	0.0163796
916.629	0.0164918
916.707	0.0161715
916.785	0.0162712
916.863	0.0163471
916.942	0.0165221
917.020	0.0161929
917.098	0.0161752
917.176	0.0162624
917.254	0.0164152
917.332	0.0162575
917.410	0.0162303
917.488	0.0161742
917.567	0.0163353
917.645	0.0162023
917.723	0.0161136
917.801	0.0163641
917.879	0.0162821
917.957	0.0164339
918.035	0.0163950
918.113	0.0164088
918.192	0.0164084
918.270	0.0165418
918.348	0.0166064
918.426	0.0167542
918.504	0.0166090
918.582	0.0166544
918.660	0.0166312
918.738	0.0166990
918.817	0.0166897
918.895	0.0166525
918.973	0.0166425
919.051	0.0166656
919.129	0.0168425
919.207	0.0168224
919.285	0.0166763
919.363	0.0166635
919.442	0.0167001
919.520	0.0166157
919.598	0.0166671
919.676	0.0165295
919.754	0.0166808
919.832	0.0166325
919.910	0.0165527
