06/10/2022	16:19:17	Ver.	4.1	UNKNOWN
Optical Delay	599.988409	Delta X		0.078125	Sweeps	1	Scan Rate	0/0
Coordinates	Axis 1	NaN	Axis 2	NaN	Axis 3	NaN	Axis 4	NaN	Axis 5	NaN	Axis 6	0.000000
TX Power	0.000000	RX Power	0.000000

599.988	0.0165366
600.067	0.0165076
600.145	0.0165089
600.223	0.0164700
600.301	0.0166256
600.379	0.0164600
600.457	0.0164213
600.535	0.0165127
600.613	0.0165040
600.692	0.0166993
600.770	0.0165314
600.848	0.0165145
600.926	0.0164595
601.004	0.0163652
601.082	0.0163735
601.160	0.0165347
601.238	0.0163992
601.317	0.0164867
601.395	0.0165562
601.473	0.0164862
601.551	0.0164886
601.629	0.0164143
601.707	0.0165196
601.785	0.0164627
601.863	0.0165792
601.942	0.0165430
602.020	0.0163610
602.098	0.0166241
602.176	0.0165051
602.254	0.0165262
602.332	0.0165042
602.410	0.0164066
602.488	0.0165215
602.567	0.0165147
602.645	0.0165970
602.723	0.0166296
602.801	0.0165672
602.879	0.0165646
602.957	0.0164589
603.035	0.0165466
603.113	0.0165457
603.192	0.0165140
603.270	0.0165867
603.348	0.0165325
603.426	0.0165712
603.504	0.0164928
603.582	0.0164956
603.660	0.0165350
603.738	0.0164931
603.817	0.0165285
603.895	0.0165115
603.973	0.0165269
604.051	0.0165195
604.129	0.0164576
604.207	0.0165699
604.285	0.0165639
604.363	0.0165934
604.442	0.0166746
604.520	0.0165952
604.598	0.0165111
604.676	0.0165833
604.754	0.0164964
604.832	0.0164886
604.910	0.0165690
604.988	0.0164589
605.067	0.0164691
605.145	0.0165206
605.223	0.0163463
605.301	0.0164453
605.379	0.0164324
605.457	0.0164848
605.535	0.0165079
605.613	0.0164222
605.692	0.0163696
605.770	0.0163663
605.848	0.0165269
605.926	0.0165797
606.004	0.0164071
606.082	0.0164706
606.160	0.0164851
606.238	0.0165785
606.317	0.0165680
606.395	0.0165506
606.473	0.0165358
606.551	0.0164328
606.629	0.0164948
606.707	0.0165724
606.785	0.0164761
606.863	0.0164853
606.942	0.0166174
607.020	0.0164861
607.098	0.0165463
607.176	0.0164212
607.254	0.0165137
607.332	0.0164960
607.410	0.0166301
607.488	0.0165557
607.567	0.0166063
607.645	0.0165430
607.723	0.0164767
607.801	0.0164288
607.879	0.0165108
607.957	0.0165285
608.035	0.0164658
608.113	0.0167040
608.192	0.0165549
608.270	0.0164923
608.348	0.0166821
608.426	0.0163998
608.504	0.0164358
608.582	0.0166321
608.660	0.0165524
608.738	0.0165173
608.817	0.0164634
608.895	0.0164722
608.973	0.0164787
609.051	0.0165874
609.129	0.0166660
609.207	0.0166114
609.285	0.0164719
609.363	0.0165169
609.442	0.0165362
609.520	0.0164375
609.598	0.0166344
609.676	0.0164874
609.754	0.0165719
609.832	0.0164990
609.910	0.0165797
609.988	0.0165225
610.067	0.0164703
610.145	0.0165122
610.223	0.0165988
610.301	0.0165623
610.379	0.0165320
610.457	0.0166253
610.535	0.0165196
610.613	0.0165337
610.692	0.0166190
610.770	0.0165795
610.848	0.0165327
610.926	0.0164666
611.004	0.0165337
611.082	0.0165156
611.160	0.0164726
611.238	0.0165928
611.317	0.0165467
611.395	0.0166557
611.473	0.0166380
611.551	0.0165884
611.629	0.0167098
611.707	0.0165254
611.785	0.0165437
611.863	0.0164947
611.942	0.0164111
612.020	0.0165950
612.098	0.0165938
612.176	0.0165796
612.254	0.0164886
612.332	0.0166672
612.410	0.0166092
612.488	0.0165446
612.567	0.0164364
612.645	0.0164462
612.723	0.0164874
612.801	0.0165647
612.879	0.0165632
612.957	0.0165115
613.035	0.0165127
613.113	0.0165527
613.192	0.0163943
613.270	0.0164932
613.348	0.0165517
613.426	0.0165289
613.504	0.0165176
613.582	0.0165564
613.660	0.0164388
613.738	0.0165160
613.817	0.0164981
613.895	0.0166724
613.973	0.0165011
614.051	0.0164600
614.129	0.0166505
614.207	0.0167204
614.285	0.0165472
614.363	0.0165424
614.442	0.0164967
614.520	0.0165881
614.598	0.0165484
614.676	0.0164381
614.754	0.0165768
614.832	0.0165272
614.910	0.0165520
614.988	0.0165423
615.067	0.0165490
615.145	0.0166505
615.223	0.0165545
615.301	0.0165147
615.379	0.0165816
615.457	0.0165807
615.535	0.0165017
615.613	0.0164648
615.692	0.0165145
615.770	0.0165632
615.848	0.0165610
615.926	0.0165900
616.004	0.0164973
616.082	0.0165942
616.160	0.0166054
616.238	0.0165308
616.317	0.0164868
616.395	0.0164716
616.473	0.0165490
616.551	0.0164844
616.629	0.0164716
616.707	0.0165484
616.785	0.0166080
616.863	0.0165569
616.942	0.0165554
617.020	0.0166363
617.098	0.0164902
617.176	0.0164223
617.254	0.0166039
617.332	0.0165191
617.410	0.0165114
617.488	0.0164060
617.567	0.0164921
617.645	0.0166122
617.723	0.0165788
617.801	0.0166453
617.879	0.0165002
617.957	0.0166805
618.035	0.0166124
618.113	0.0165388
618.192	0.0166325
618.270	0.0166375
618.348	0.0164995
618.426	0.0165057
618.504	0.0164352
618.582	0.0165153
618.660	0.0164447
618.738	0.0165590
618.817	0.0165591
618.895	0.0164633
618.973	0.0165247
619.051	0.0164510
619.129	0.0165984
619.207	0.0164320
619.285	0.0165199
619.363	0.0164578
619.442	0.0165048
619.520	0.0166387
619.598	0.0166299
619.676	0.0165417
619.754	0.0165472
619.832	0.0164864
619.910	0.0165257
619.988	0.0164571
620.067	0.0164790
620.145	0.0166484
620.223	0.0165259
620.301	0.0165528
620.379	0.0164454
620.457	0.0165018
620.535	0.0165247
620.613	0.0164695
620.692	0.0164845
620.770	0.0165565
620.848	0.0165361
620.926	0.0166419
621.004	0.0164838
621.082	0.0165079
621.160	0.0165753
621.238	0.0165976
621.317	0.0164256
621.395	0.0164885
621.473	0.0165788
621.551	0.0164795
621.629	0.0162883
621.707	0.0165384
621.785	0.0165202
621.863	0.0164042
621.942	0.0165509
622.020	0.0164640
622.098	0.0165276
622.176	0.0164619
622.254	0.0165379
622.332	0.0164133
622.410	0.0164854
622.488	0.0165985
622.567	0.0164364
622.645	0.0164938
622.723	0.0165285
622.801	0.0164169
622.879	0.0165384
622.957	0.0166565
623.035	0.0165347
623.113	0.0165939
623.192	0.0165376
623.270	0.0164875
623.348	0.0165842
623.426	0.0164511
623.504	0.0164821
623.582	0.0164449
623.660	0.0165883
623.738	0.0166185
623.817	0.0166209
623.895	0.0165472
623.973	0.0165141
624.051	0.0164970
624.129	0.0164525
624.207	0.0165031
624.285	0.0165164
624.363	0.0165150
624.442	0.0164664
624.520	0.0165704
624.598	0.0163537
624.676	0.0164006
624.754	0.0166706
624.832	0.0164014
624.910	0.0164484
624.988	0.0163964
625.067	0.0164630
625.145	0.0166074
625.223	0.0164384
625.301	0.0164764
625.379	0.0163570
625.457	0.0165509
625.535	0.0165519
625.613	0.0164924
625.692	0.0166490
625.770	0.0164552
625.848	0.0164734
625.926	0.0165711
626.004	0.0165534
626.082	0.0164668
626.160	0.0164932
626.238	0.0164480
626.317	0.0164574
626.395	0.0164546
626.473	0.0165039
626.551	0.0165028
626.629	0.0165203
626.707	0.0166228
626.785	0.0165710
626.863	0.0163826
626.942	0.0164870
627.020	0.0164688
627.098	0.0165212
627.176	0.0164993
627.254	0.0164901
627.332	0.0164552
627.410	0.0164188
627.488	0.0164954
627.567	0.0165803
627.645	0.0166387
627.723	0.0165089
627.801	0.0164818
627.879	0.0165402
627.957	0.0165789
628.035	0.0166175
628.113	0.0164652
628.192	0.0165186
628.270	0.0164735
628.348	0.0164312
628.426	0.0163552
628.504	0.0165596
628.582	0.0164696
628.660	0.0164696
628.738	0.0164994
628.817	0.0165791
628.895	0.0165704
628.973	0.0164536
629.051	0.0165386
629.129	0.0165049
629.207	0.0164973
629.285	0.0165140
629.363	0.0165553
629.442	0.0165695
629.520	0.0166352
629.598	0.0164971
629.676	0.0165056
629.754	0.0165968
629.832	0.0164257
629.910	0.0164852
629.988	0.0165869
630.067	0.0165420
630.145	0.0164710
630.223	0.0165100
630.301	0.0166669
630.379	0.0166175
630.457	0.0165242
630.535	0.0165363
630.613	0.0165025
630.692	0.0165099
630.770	0.0165797
630.848	0.0165283
630.926	0.0165665
631.004	0.0165591
631.082	0.0165143
631.160	0.0164761
631.238	0.0165020
631.317	0.0165733
631.395	0.0165437
631.473	0.0165594
631.551	0.0165131
631.629	0.0165596
631.707	0.0165772
631.785	0.0164558
631.863	0.0164823
631.942	0.0165541
632.020	0.0165246
632.098	0.0166906
632.176	0.0167759
632.254	0.0164856
632.332	0.0166616
632.410	0.0165421
632.488	0.0165607
632.567	0.0165253
632.645	0.0165273
632.723	0.0164817
632.801	0.0165195
632.879	0.0165649
632.957	0.0166411
633.035	0.0167097
633.113	0.0165945
633.192	0.0165434
633.270	0.0165565
633.348	0.0164513
633.426	0.0165081
633.504	0.0165913
633.582	0.0163891
633.660	0.0164645
633.738	0.0166412
633.817	0.0165945
633.895	0.0165173
633.973	0.0164532
634.051	0.0166472
634.129	0.0166119
634.207	0.0166590
634.285	0.0166049
634.363	0.0165882
634.442	0.0164901
634.520	0.0165140
634.598	0.0166283
634.676	0.0166652
634.754	0.0164873
634.832	0.0165768
634.910	0.0166632
634.988	0.0164084
635.067	0.0164861
635.145	0.0164244
635.223	0.0166058
635.301	0.0165708
635.379	0.0164466
635.457	0.0165114
635.535	0.0166129
635.613	0.0165287
635.692	0.0165074
635.770	0.0164584
635.848	0.0166151
635.926	0.0163365
636.004	0.0166296
636.082	0.0165836
636.160	0.0163560
636.238	0.0164960
636.317	0.0164392
636.395	0.0166235
636.473	0.0166476
636.551	0.0164456
636.629	0.0166190
636.707	0.0164263
636.785	0.0165433
636.863	0.0163950
636.942	0.0165214
637.020	0.0166256
637.098	0.0165583
637.176	0.0166434
637.254	0.0164973
637.332	0.0166146
637.410	0.0164391
637.488	0.0166463
637.567	0.0166504
637.645	0.0165812
637.723	0.0165475
637.801	0.0166726
637.879	0.0166335
637.957	0.0166166
638.035	0.0165423
638.113	0.0164960
638.192	0.0165739
638.270	0.0164507
638.348	0.0166936
638.426	0.0167310
638.504	0.0165294
638.582	0.0166261
638.660	0.0166256
638.738	0.0165850
638.817	0.0165218
638.895	0.0165591
638.973	0.0165922
639.051	0.0165591
639.129	0.0163666
639.207	0.0166167
639.285	0.0166077
639.363	0.0164825
639.442	0.0166443
639.520	0.0165897
639.598	0.0164548
639.676	0.0164216
639.754	0.0164548
639.832	0.0165397
639.910	0.0165466
639.988	0.0166383
640.067	0.0165284
640.145	0.0165086
640.223	0.0164960
640.301	0.0165120
640.379	0.0166378
640.457	0.0165324
640.535	0.0166727
640.613	0.0165695
640.692	0.0165556
640.770	0.0165517
640.848	0.0165735
640.926	0.0164596
641.004	0.0164705
641.082	0.0165398
641.160	0.0166225
641.238	0.0163908
641.317	0.0166140
641.395	0.0165064
641.473	0.0165194
641.551	0.0164982
641.629	0.0165295
641.707	0.0164337
641.785	0.0165981
641.863	0.0165197
641.942	0.0165157
642.020	0.0165071
642.098	0.0165709
642.176	0.0165755
642.254	0.0165060
642.332	0.0164768
642.410	0.0163827
642.488	0.0165102
642.567	0.0165930
642.645	0.0166741
642.723	0.0164808
642.801	0.0165182
642.879	0.0165279
642.957	0.0165618
643.035	0.0166422
643.113	0.0165903
643.192	0.0165257
643.270	0.0164790
643.348	0.0166525
643.426	0.0163405
643.504	0.0165260
643.582	0.0164711
643.660	0.0166085
643.738	0.0165009
643.817	0.0165589
643.895	0.0166501
643.973	0.0165503
644.051	0.0163962
644.129	0.0164596
644.207	0.0165422
644.285	0.0165504
644.363	0.0166428
644.442	0.0165731
644.520	0.0165364
644.598	0.0165687
644.676	0.0165253
644.754	0.0165495
644.832	0.0164214
644.910	0.0166065
644.988	0.0166918
645.067	0.0165218
645.145	0.0165168
645.223	0.0164543
645.301	0.0163596
645.379	0.0165651
645.457	0.0167908
645.535	0.0165408
645.613	0.0164899
645.692	0.0164684
645.770	0.0166212
645.848	0.0166598
645.926	0.0164518
646.004	0.0165472
646.082	0.0165331
646.160	0.0164972
646.238	0.0164257
646.317	0.0165945
646.395	0.0165810
646.473	0.0164633
646.551	0.0166512
646.629	0.0166610
646.707	0.0165343
646.785	0.0165910
646.863	0.0164472
646.942	0.0164850
647.020	0.0165527
647.098	0.0166118
647.176	0.0164759
647.254	0.0165148
647.332	0.0165767
647.410	0.0166083
647.488	0.0165028
647.567	0.0164320
647.645	0.0164780
647.723	0.0165939
647.801	0.0165707
647.879	0.0164906
647.957	0.0164271
648.035	0.0165802
648.113	0.0165807
648.192	0.0164707
648.270	0.0165768
648.348	0.0165060
648.426	0.0164965
648.504	0.0165347
648.582	0.0164722
648.660	0.0165533
648.738	0.0166413
648.817	0.0165047
648.895	0.0165432
648.973	0.0166409
649.051	0.0163483
649.129	0.0164919
649.207	0.0165614
649.285	0.0164468
649.363	0.0165102
649.442	0.0165903
649.520	0.0164368
649.598	0.0164186
649.676	0.0164773
649.754	0.0165130
649.832	0.0164286
649.910	0.0165384
649.988	0.0165063
650.067	0.0163010
650.145	0.0163813
650.223	0.0164619
650.301	0.0164040
650.379	0.0165829
650.457	0.0165661
650.535	0.0165507
650.613	0.0164554
650.692	0.0164738
650.770	0.0166126
650.848	0.0165870
650.926	0.0165427
651.004	0.0165424
651.082	0.0165929
651.160	0.0165450
651.238	0.0163957
651.317	0.0166205
651.395	0.0165367
651.473	0.0164916
651.551	0.0165663
651.629	0.0165841
651.707	0.0166258
651.785	0.0166219
651.863	0.0165105
651.942	0.0166000
652.020	0.0166129
652.098	0.0164434
652.176	0.0166081
652.254	0.0165564
652.332	0.0164634
652.410	0.0164515
652.488	0.0165913
652.567	0.0165842
652.645	0.0165817
652.723	0.0164258
652.801	0.0165916
652.879	0.0166384
652.957	0.0165097
653.035	0.0164651
653.113	0.0166398
653.192	0.0165220
653.270	0.0165176
653.348	0.0164011
653.426	0.0164062
653.504	0.0164796
653.582	0.0164799
653.660	0.0165955
653.738	0.0163985
653.817	0.0165775
653.895	0.0165273
653.973	0.0166178
654.051	0.0164227
654.129	0.0164785
654.207	0.0165857
654.285	0.0164651
654.363	0.0164895
654.442	0.0165004
654.520	0.0164414
654.598	0.0165212
654.676	0.0165150
654.754	0.0164818
654.832	0.0165188
654.910	0.0166270
654.988	0.0165084
655.067	0.0165376
655.145	0.0164180
655.223	0.0164033
655.301	0.0165400
655.379	0.0166165
655.457	0.0165569
655.535	0.0165873
655.613	0.0165938
655.692	0.0164256
655.770	0.0165588
655.848	0.0164635
655.926	0.0165092
656.004	0.0165556
656.082	0.0165514
656.160	0.0164880
656.238	0.0162649
656.317	0.0165180
656.395	0.0165179
656.473	0.0165276
656.551	0.0166298
656.629	0.0165723
656.707	0.0165146
656.785	0.0165788
656.863	0.0165028
656.942	0.0165339
657.020	0.0166051
657.098	0.0165330
657.176	0.0165537
657.254	0.0166025
657.332	0.0165528
657.410	0.0165262
657.488	0.0164646
657.567	0.0165942
657.645	0.0165999
657.723	0.0164865
657.801	0.0164409
657.879	0.0165103
657.957	0.0164679
658.035	0.0164993
658.113	0.0165840
658.192	0.0166245
658.270	0.0163431
658.348	0.0165430
658.426	0.0165940
658.504	0.0165092
658.582	0.0166258
658.660	0.0166486
658.738	0.0165096
658.817	0.0164285
658.895	0.0164129
658.973	0.0166506
659.051	0.0165424
659.129	0.0165158
659.207	0.0165833
659.285	0.0164820
659.363	0.0164622
659.442	0.0165826
659.520	0.0165942
659.598	0.0165764
659.676	0.0164410
659.754	0.0164976
659.832	0.0163671
659.910	0.0165470
659.988	0.0165773
660.067	0.0164594
660.145	0.0164545
660.223	0.0165833
660.301	0.0164082
660.379	0.0165691
660.457	0.0165163
660.535	0.0164462
660.613	0.0166076
660.692	0.0166045
660.770	0.0164032
660.848	0.0165746
660.926	0.0165533
661.004	0.0165067
661.082	0.0163696
661.160	0.0163098
661.238	0.0164748
661.317	0.0164523
661.395	0.0165434
661.473	0.0165986
661.551	0.0165517
661.629	0.0163954
661.707	0.0164389
661.785	0.0164780
661.863	0.0165051
661.942	0.0164822
662.020	0.0164263
662.098	0.0164299
662.176	0.0165717
662.254	0.0164809
662.332	0.0165341
662.410	0.0164563
662.488	0.0165823
662.567	0.0164802
662.645	0.0165962
662.723	0.0163426
662.801	0.0164679
662.879	0.0165954
662.957	0.0165438
663.035	0.0165222
663.113	0.0164692
663.192	0.0163936
663.270	0.0164436
663.348	0.0164745
663.426	0.0165601
663.504	0.0164720
663.582	0.0166252
663.660	0.0166918
663.738	0.0164345
663.817	0.0164318
663.895	0.0164828
663.973	0.0165156
664.051	0.0167674
664.129	0.0165929
664.207	0.0164876
664.285	0.0164884
664.363	0.0165749
664.442	0.0165909
664.520	0.0164935
664.598	0.0164220
664.676	0.0166049
664.754	0.0165096
664.832	0.0165553
664.910	0.0165389
664.988	0.0166026
665.067	0.0165205
665.145	0.0165514
665.223	0.0165771
665.301	0.0166030
665.379	0.0165884
665.457	0.0164872
665.535	0.0166441
665.613	0.0165582
665.692	0.0164200
665.770	0.0164468
665.848	0.0166345
665.926	0.0166128
666.004	0.0165480
666.082	0.0165964
666.160	0.0164629
666.238	0.0165157
666.317	0.0165079
666.395	0.0165108
666.473	0.0164932
666.551	0.0165190
666.629	0.0167099
666.707	0.0165831
666.785	0.0166696
666.863	0.0166856
666.942	0.0165309
667.020	0.0164108
667.098	0.0165631
667.176	0.0164191
667.254	0.0164440
667.332	0.0166565
667.410	0.0163962
667.488	0.0163763
667.567	0.0164817
667.645	0.0167215
667.723	0.0165156
667.801	0.0164045
667.879	0.0166219
667.957	0.0165759
668.035	0.0164790
668.113	0.0165398
668.192	0.0165360
668.270	0.0165250
668.348	0.0164788
668.426	0.0165945
668.504	0.0166201
668.582	0.0165865
668.660	0.0164517
668.738	0.0164915
668.817	0.0165111
668.895	0.0165314
668.973	0.0165828
669.051	0.0165553
669.129	0.0165242
669.207	0.0164165
669.285	0.0165815
669.363	0.0166832
669.442	0.0165167
669.520	0.0164090
669.598	0.0165508
669.676	0.0166383
669.754	0.0166520
669.832	0.0165078
669.910	0.0165546
669.988	0.0164897
670.067	0.0164547
670.145	0.0165033
670.223	0.0162893
670.301	0.0164198
670.379	0.0166609
670.457	0.0165632
670.535	0.0163226
670.613	0.0165784
670.692	0.0165217
670.770	0.0164750
670.848	0.0164591
670.926	0.0164608
671.004	0.0165439
671.082	0.0165640
671.160	0.0165405
671.238	0.0166002
671.317	0.0164851
671.395	0.0164497
671.473	0.0165475
671.551	0.0164390
671.629	0.0164462
671.707	0.0165159
671.785	0.0164473
671.863	0.0165032
671.942	0.0165707
672.020	0.0164894
672.098	0.0164491
672.176	0.0165668
672.254	0.0163943
672.332	0.0164996
672.410	0.0165459
672.488	0.0164365
672.567	0.0165398
672.645	0.0163541
672.723	0.0164805
672.801	0.0165313
672.879	0.0165020
672.957	0.0165376
673.035	0.0164648
673.113	0.0165488
673.192	0.0165849
673.270	0.0165927
673.348	0.0164965
673.426	0.0165430
673.504	0.0166893
673.582	0.0164693
673.660	0.0164696
673.738	0.0164421
673.817	0.0164177
673.895	0.0165151
673.973	0.0166008
674.051	0.0165301
674.129	0.0165945
674.207	0.0167307
674.285	0.0165356
674.363	0.0165475
674.442	0.0166192
674.520	0.0165196
674.598	0.0164282
674.676	0.0164927
674.754	0.0165247
674.832	0.0165284
674.910	0.0165990
674.988	0.0165214
675.067	0.0164362
675.145	0.0164635
675.223	0.0164638
675.301	0.0164657
675.379	0.0165697
675.457	0.0166060
675.535	0.0165085
675.613	0.0164046
675.692	0.0165187
675.770	0.0164677
675.848	0.0164806
675.926	0.0165289
676.004	0.0164118
676.082	0.0163992
676.160	0.0164229
676.238	0.0164164
676.317	0.0165785
676.395	0.0166736
676.473	0.0165179
676.551	0.0164847
676.629	0.0166121
676.707	0.0164832
676.785	0.0165208
676.863	0.0165930
676.942	0.0164880
677.020	0.0165107
677.098	0.0165195
677.176	0.0165375
677.254	0.0165723
677.332	0.0166173
677.410	0.0165752
677.488	0.0166927
677.567	0.0165199
677.645	0.0164391
677.723	0.0165911
677.801	0.0165133
677.879	0.0164808
677.957	0.0165170
678.035	0.0164094
678.113	0.0165037
678.192	0.0162300
678.270	0.0165069
678.348	0.0166718
678.426	0.0165552
678.504	0.0163811
678.582	0.0164346
678.660	0.0163249
678.738	0.0165341
678.817	0.0165105
678.895	0.0164304
678.973	0.0164980
679.051	0.0165417
679.129	0.0163851
679.207	0.0164982
679.285	0.0164768
679.363	0.0164216
679.442	0.0164974
679.520	0.0164630
679.598	0.0164284
679.676	0.0165627
679.754	0.0163798
679.832	0.0164587
679.910	0.0165091
679.988	0.0165001
680.067	0.0165332
680.145	0.0165727
680.223	0.0164491
680.301	0.0164633
680.379	0.0164565
680.457	0.0165261
680.535	0.0164388
680.613	0.0165623
680.692	0.0165287
680.770	0.0164839
680.848	0.0163526
680.926	0.0164569
681.004	0.0165553
681.082	0.0166842
681.160	0.0165125
681.238	0.0164713
681.317	0.0163790
681.395	0.0165084
681.473	0.0165243
681.551	0.0165839
681.629	0.0165728
681.707	0.0166247
681.785	0.0165137
681.863	0.0165437
681.942	0.0165811
682.020	0.0166817
682.098	0.0164229
682.176	0.0164344
682.254	0.0165070
682.332	0.0164329
682.410	0.0164705
682.488	0.0164906
682.567	0.0164169
682.645	0.0165009
682.723	0.0163335
682.801	0.0164382
682.879	0.0165459
682.957	0.0163826
683.035	0.0164378
683.113	0.0164838
683.192	0.0165720
683.270	0.0165232
683.348	0.0163876
683.426	0.0165425
683.504	0.0165015
683.582	0.0163792
683.660	0.0163551
683.738	0.0164985
683.817	0.0164874
683.895	0.0164914
683.973	0.0163969
684.051	0.0164596
684.129	0.0165311
684.207	0.0165829
684.285	0.0165182
684.363	0.0164429
684.442	0.0164462
684.520	0.0165362
684.598	0.0165578
684.676	0.0165466
684.754	0.0163625
684.832	0.0164773
684.910	0.0165360
684.988	0.0165354
685.067	0.0164674
685.145	0.0164605
685.223	0.0165504
685.301	0.0166003
685.379	0.0165872
685.457	0.0164902
685.535	0.0165076
685.613	0.0164904
685.692	0.0164804
685.770	0.0163732
685.848	0.0165999
685.926	0.0164790
686.004	0.0164773
686.082	0.0165059
686.160	0.0165355
686.238	0.0163982
686.317	0.0166124
686.395	0.0165292
686.473	0.0165095
686.551	0.0164394
686.629	0.0163278
686.707	0.0165467
686.785	0.0164532
686.863	0.0165113
686.942	0.0167406
687.020	0.0165271
687.098	0.0163583
687.176	0.0165563
687.254	0.0166055
687.332	0.0166533
687.410	0.0166244
687.488	0.0164852
687.567	0.0164177
687.645	0.0165491
687.723	0.0165311
687.801	0.0165367
687.879	0.0165019
687.957	0.0166501
688.035	0.0166345
688.113	0.0164299
688.192	0.0164852
688.270	0.0165479
688.348	0.0166000
688.426	0.0165377
688.504	0.0165058
688.582	0.0164246
688.660	0.0165894
688.738	0.0164700
688.817	0.0164162
688.895	0.0165146
688.973	0.0165039
689.051	0.0165512
689.129	0.0164022
689.207	0.0164250
689.285	0.0164401
689.363	0.0166331
689.442	0.0164600
689.520	0.0164875
689.598	0.0165417
689.676	0.0164889
689.754	0.0166707
689.832	0.0165539
689.910	0.0165288
689.988	0.0165859
690.067	0.0166208
690.145	0.0164534
690.223	0.0163487
690.301	0.0166370
690.379	0.0164429
690.457	0.0165122
690.535	0.0166117
690.613	0.0165849
690.692	0.0164456
690.770	0.0166307
690.848	0.0166350
690.926	0.0165701
691.004	0.0165717
691.082	0.0163936
691.160	0.0164014
691.238	0.0164629
691.317	0.0164504
691.395	0.0165041
691.473	0.0163881
691.551	0.0166351
691.629	0.0166668
691.707	0.0164941
691.785	0.0165570
691.863	0.0164523
691.942	0.0164613
692.020	0.0165955
692.098	0.0164671
692.176	0.0164957
692.254	0.0165945
692.332	0.0165696
692.410	0.0165259
692.488	0.0164312
692.567	0.0165036
692.645	0.0165393
692.723	0.0164571
692.801	0.0163673
692.879	0.0164814
692.957	0.0164761
693.035	0.0164777
693.113	0.0164079
693.192	0.0165751
693.270	0.0165768
693.348	0.0165953
693.426	0.0165750
693.504	0.0165675
693.582	0.0164926
693.660	0.0163699
693.738	0.0165180
693.817	0.0166000
693.895	0.0166461
693.973	0.0166236
694.051	0.0164733
694.129	0.0165045
694.207	0.0165149
694.285	0.0164782
694.363	0.0164877
694.442	0.0165151
694.520	0.0164709
694.598	0.0164241
694.676	0.0165228
694.754	0.0166108
694.832	0.0165137
694.910	0.0164370
694.988	0.0165135
695.067	0.0167186
695.145	0.0166079
695.223	0.0165220
695.301	0.0164880
695.379	0.0166373
695.457	0.0164384
695.535	0.0165365
695.613	0.0165124
695.692	0.0164721
695.770	0.0164162
695.848	0.0165313
695.926	0.0165748
696.004	0.0164669
696.082	0.0163379
696.160	0.0164786
696.238	0.0164594
696.317	0.0165565
696.395	0.0164339
696.473	0.0164828
696.551	0.0164410
696.629	0.0164988
696.707	0.0165020
696.785	0.0165094
696.863	0.0165759
696.942	0.0165034
697.020	0.0165051
697.098	0.0166736
697.176	0.0164878
697.254	0.0166016
697.332	0.0165153
697.410	0.0164429
697.488	0.0164324
697.567	0.0164633
697.645	0.0164952
697.723	0.0165297
697.801	0.0164559
697.879	0.0164304
697.957	0.0165356
698.035	0.0165488
698.113	0.0165147
698.192	0.0165916
698.270	0.0165969
698.348	0.0164325
698.426	0.0164217
698.504	0.0165608
698.582	0.0166363
698.660	0.0164302
698.738	0.0164311
698.817	0.0163451
698.895	0.0165868
698.973	0.0164935
699.051	0.0165066
699.129	0.0164755
699.207	0.0164137
699.285	0.0163978
699.363	0.0163921
699.442	0.0164392
699.520	0.0165649
699.598	0.0164644
699.676	0.0164977
699.754	0.0166064
699.832	0.0163858
699.910	0.0164631
699.988	0.0164870
700.067	0.0165634
700.145	0.0164635
700.223	0.0164927
700.301	0.0165585
700.379	0.0165177
700.457	0.0164933
700.535	0.0164832
700.613	0.0164885
700.692	0.0165005
700.770	0.0164182
700.848	0.0163755
700.926	0.0165888
701.004	0.0165366
701.082	0.0164806
701.160	0.0164967
701.238	0.0164725
701.317	0.0165529
701.395	0.0163496
701.473	0.0164776
701.551	0.0164651
701.629	0.0164646
701.707	0.0164006
701.785	0.0166086
701.863	0.0164688
701.942	0.0164770
702.020	0.0163273
702.098	0.0163984
702.176	0.0166944
702.254	0.0166097
702.332	0.0164034
702.410	0.0163859
702.488	0.0165684
702.567	0.0165924
702.645	0.0165600
702.723	0.0165249
702.801	0.0164423
702.879	0.0164632
702.957	0.0165286
703.035	0.0166051
703.113	0.0164552
703.192	0.0165239
703.270	0.0164371
703.348	0.0164938
703.426	0.0164684
703.504	0.0165263
703.582	0.0164082
703.660	0.0165506
703.738	0.0165864
703.817	0.0164400
703.895	0.0164082
703.973	0.0163065
704.051	0.0166063
704.129	0.0164542
704.207	0.0164241
704.285	0.0164812
704.363	0.0163950
704.442	0.0164373
704.520	0.0164176
704.598	0.0164716
704.676	0.0163160
704.754	0.0165869
704.832	0.0166370
704.910	0.0163754
704.988	0.0164412
705.067	0.0166397
705.145	0.0165282
705.223	0.0165356
705.301	0.0165464
705.379	0.0165158
705.457	0.0164719
705.535	0.0164538
705.613	0.0163608
705.692	0.0164576
705.770	0.0165376
705.848	0.0164948
705.926	0.0165086
706.004	0.0164355
706.082	0.0165942
706.160	0.0166907
706.238	0.0164986
706.317	0.0164928
706.395	0.0164956
706.473	0.0165057
706.551	0.0164487
706.629	0.0166122
706.707	0.0164006
706.785	0.0164707
706.863	0.0165797
706.942	0.0165004
707.020	0.0163873
707.098	0.0165262
707.176	0.0164902
707.254	0.0165125
707.332	0.0165712
707.410	0.0165298
707.488	0.0164816
707.567	0.0165889
707.645	0.0165517
707.723	0.0165162
707.801	0.0163824
707.879	0.0166592
707.957	0.0166969
708.035	0.0164462
708.113	0.0164986
708.192	0.0165310
708.270	0.0164324
708.348	0.0164950
708.426	0.0166663
708.504	0.0163562
708.582	0.0165401
708.660	0.0166227
708.738	0.0165727
708.817	0.0164681
708.895	0.0165462
708.973	0.0165738
709.051	0.0164576
709.129	0.0164100
709.207	0.0164656
709.285	0.0165382
709.363	0.0165469
709.442	0.0164207
709.520	0.0164774
709.598	0.0164205
709.676	0.0164098
709.754	0.0165688
709.832	0.0166001
709.910	0.0164698
709.988	0.0165008
710.067	0.0165647
710.145	0.0166187
710.223	0.0165631
710.301	0.0165314
710.379	0.0165224
710.457	0.0166760
710.535	0.0165006
710.613	0.0165224
710.692	0.0165049
710.770	0.0165043
710.848	0.0165316
710.926	0.0164823
711.004	0.0164276
711.082	0.0166520
711.160	0.0164640
711.238	0.0164388
711.317	0.0165814
711.395	0.0165441
711.473	0.0163663
711.551	0.0164776
711.629	0.0164211
711.707	0.0165244
711.785	0.0165060
711.863	0.0164629
711.942	0.0165626
712.020	0.0164433
712.098	0.0165303
712.176	0.0165666
712.254	0.0164256
712.332	0.0165087
712.410	0.0165113
712.488	0.0164780
712.567	0.0164954
712.645	0.0166396
712.723	0.0165281
712.801	0.0163520
712.879	0.0165380
712.957	0.0164930
713.035	0.0164588
713.113	0.0165359
713.192	0.0165632
713.270	0.0165300
713.348	0.0164574
713.426	0.0165745
713.504	0.0165713
713.582	0.0164405
713.660	0.0165821
713.738	0.0165369
713.817	0.0165705
713.895	0.0165483
713.973	0.0164738
714.051	0.0164458
714.129	0.0163868
714.207	0.0163730
714.285	0.0165681
714.363	0.0164951
714.442	0.0165271
714.520	0.0166140
714.598	0.0165094
714.676	0.0164632
714.754	0.0165974
714.832	0.0165533
714.910	0.0163767
714.988	0.0165697
715.067	0.0165549
715.145	0.0165678
715.223	0.0164395
715.301	0.0164807
715.379	0.0165919
715.457	0.0164228
715.535	0.0165234
715.613	0.0164526
715.692	0.0165716
715.770	0.0164013
715.848	0.0164671
715.926	0.0166678
716.004	0.0164387
716.082	0.0164623
716.160	0.0164641
716.238	0.0165060
716.317	0.0164404
716.395	0.0164371
716.473	0.0165852
716.551	0.0165539
716.629	0.0163318
716.707	0.0164467
716.785	0.0165330
716.863	0.0165006
716.942	0.0164745
717.020	0.0165918
717.098	0.0165016
717.176	0.0164861
717.254	0.0164999
717.332	0.0164924
717.410	0.0164478
717.488	0.0164939
717.567	0.0164928
717.645	0.0165979
717.723	0.0166868
717.801	0.0164900
717.879	0.0164803
717.957	0.0165264
718.035	0.0165758
718.113	0.0165241
718.192	0.0165968
718.270	0.0164655
718.348	0.0164977
718.426	0.0166095
718.504	0.0166473
718.582	0.0165575
718.660	0.0164676
718.738	0.0164169
718.817	0.0164451
718.895	0.0165000
718.973	0.0165066
719.051	0.0165378
719.129	0.0164799
719.207	0.0164145
719.285	0.0165584
719.363	0.0163558
719.442	0.0164403
719.520	0.0165372
719.598	0.0165251
719.676	0.0163616
719.754	0.0163834
719.832	0.0165945
719.910	0.0164287
719.988	0.0165802
720.067	0.0165373
720.145	0.0163385
720.223	0.0165412
720.301	0.0165829
720.379	0.0163675
720.457	0.0165437
720.535	0.0163506
720.613	0.0165976
720.692	0.0165916
720.770	0.0164861
720.848	0.0163991
720.926	0.0164204
721.004	0.0164991
721.082	0.0164471
721.160	0.0165121
721.238	0.0165285
721.317	0.0165198
721.395	0.0165155
721.473	0.0165248
721.551	0.0164499
721.629	0.0166068
721.707	0.0164874
721.785	0.0165683
721.863	0.0164748
721.942	0.0164957
722.020	0.0163950
722.098	0.0164353
722.176	0.0165898
722.254	0.0165176
722.332	0.0164393
722.410	0.0164712
722.488	0.0164682
722.567	0.0164265
722.645	0.0164502
722.723	0.0164169
722.801	0.0164823
722.879	0.0165198
722.957	0.0164874
723.035	0.0164592
723.113	0.0165121
723.192	0.0165526
723.270	0.0165744
723.348	0.0164239
723.426	0.0165153
723.504	0.0165820
723.582	0.0163999
723.660	0.0164828
723.738	0.0166399
723.817	0.0164944
723.895	0.0164999
723.973	0.0164922
724.051	0.0164169
724.129	0.0164386
724.207	0.0164584
724.285	0.0164668
724.363	0.0164137
724.442	0.0164756
724.520	0.0164739
724.598	0.0164747
724.676	0.0166029
724.754	0.0164537
724.832	0.0165898
724.910	0.0166146
724.988	0.0165082
725.067	0.0165529
725.145	0.0165575
725.223	0.0163467
725.301	0.0165479
725.379	0.0164749
725.457	0.0164396
725.535	0.0164530
725.613	0.0164479
725.692	0.0164069
725.770	0.0166346
725.848	0.0166055
725.926	0.0165284
726.004	0.0164493
726.082	0.0165537
726.160	0.0165883
726.238	0.0164606
726.317	0.0165608
726.395	0.0165785
726.473	0.0165689
726.551	0.0165936
726.629	0.0165192
726.707	0.0165159
726.785	0.0165692
726.863	0.0165884
726.942	0.0165952
727.020	0.0165106
727.098	0.0164648
727.176	0.0165807
727.254	0.0166564
727.332	0.0164806
727.410	0.0165307
727.488	0.0166610
727.567	0.0164756
727.645	0.0164343
727.723	0.0164393
727.801	0.0165466
727.879	0.0164734
727.957	0.0165750
728.035	0.0164890
728.113	0.0164417
728.192	0.0165431
728.270	0.0163898
728.348	0.0164769
728.426	0.0166856
728.504	0.0165973
728.582	0.0164507
728.660	0.0165279
728.738	0.0165213
728.817	0.0165194
728.895	0.0165891
728.973	0.0166017
729.051	0.0165408
729.129	0.0164600
729.207	0.0165272
729.285	0.0166727
729.363	0.0164991
729.442	0.0165585
729.520	0.0164839
729.598	0.0165980
729.676	0.0166034
729.754	0.0165317
729.832	0.0164870
729.910	0.0165887
729.988	0.0165054
730.067	0.0166588
730.145	0.0165768
730.223	0.0164104
730.301	0.0164718
730.379	0.0165363
730.457	0.0164880
730.535	0.0165094
730.613	0.0165520
730.692	0.0165190
730.770	0.0164687
730.848	0.0165257
730.926	0.0165044
731.004	0.0165983
731.082	0.0164857
731.160	0.0165162
731.238	0.0164314
731.317	0.0164079
731.395	0.0164389
731.473	0.0165871
731.551	0.0165052
731.629	0.0164526
731.707	0.0165943
731.785	0.0163872
731.863	0.0165160
731.942	0.0165057
732.020	0.0165474
732.098	0.0166175
732.176	0.0163561
732.254	0.0166098
732.332	0.0165236
732.410	0.0165747
732.488	0.0165386
732.567	0.0164790
732.645	0.0163993
732.723	0.0164212
732.801	0.0165393
732.879	0.0165942
732.957	0.0163710
733.035	0.0165231
733.113	0.0164278
733.192	0.0164678
733.270	0.0164273
733.348	0.0162852
733.426	0.0164462
733.504	0.0164963
733.582	0.0164417
733.660	0.0165688
733.738	0.0165781
733.817	0.0164171
733.895	0.0163841
733.973	0.0163746
734.051	0.0164823
734.129	0.0165891
734.207	0.0164224
734.285	0.0165318
734.363	0.0165489
734.442	0.0164823
734.520	0.0164552
734.598	0.0163825
734.676	0.0165775
734.754	0.0166415
734.832	0.0165163
734.910	0.0163775
734.988	0.0165177
735.067	0.0164049
735.145	0.0164405
735.223	0.0165827
735.301	0.0164428
735.379	0.0164939
735.457	0.0165838
735.535	0.0165421
735.613	0.0165939
735.692	0.0164833
735.770	0.0164771
735.848	0.0165771
735.926	0.0165954
736.004	0.0165436
736.082	0.0164787
736.160	0.0165779
736.238	0.0166318
736.317	0.0165315
736.395	0.0164254
736.473	0.0166336
736.551	0.0164638
736.629	0.0164983
736.707	0.0165288
736.785	0.0164075
736.863	0.0165810
736.942	0.0163879
737.020	0.0164446
737.098	0.0163581
737.176	0.0164738
737.254	0.0164229
737.332	0.0165202
737.410	0.0164864
737.488	0.0163618
737.567	0.0164761
737.645	0.0164260
737.723	0.0166227
737.801	0.0165387
737.879	0.0166119
737.957	0.0163893
738.035	0.0164729
738.113	0.0165446
738.192	0.0163712
738.270	0.0164030
738.348	0.0165971
738.426	0.0163924
738.504	0.0164702
738.582	0.0165977
738.660	0.0163848
738.738	0.0162411
738.817	0.0164577
738.895	0.0165189
738.973	0.0165099
739.051	0.0165120
739.129	0.0164898
739.207	0.0164192
739.285	0.0165442
739.363	0.0165166
739.442	0.0165670
739.520	0.0165399
739.598	0.0163876
739.676	0.0165571
739.754	0.0166513
739.832	0.0165933
739.910	0.0166422
739.988	0.0167400
740.067	0.0167438
740.145	0.0166469
740.223	0.0165430
740.301	0.0165698
740.379	0.0164630
740.457	0.0163256
740.535	0.0164243
740.613	0.0164271
740.692	0.0161617
740.770	0.0161219
740.848	0.0160635
740.926	0.0160661
741.004	0.0161802
741.082	0.0160361
741.160	0.0162315
741.238	0.0164471
741.317	0.0166074
741.395	0.0167157
741.473	0.0170684
741.551	0.0171573
741.629	0.0172309
741.707	0.0174336
741.785	0.0174475
741.863	0.0173103
741.942	0.0172583
742.020	0.0171504
742.098	0.0170993
742.176	0.0167947
742.254	0.0166521
742.332	0.0163554
742.410	0.0161821
742.488	0.0159588
742.567	0.0155284
742.645	0.0155151
742.723	0.0154417
742.801	0.0149678
742.879	0.0149928
742.957	0.0149163
743.035	0.0149662
743.113	0.0152664
743.192	0.0155737
743.270	0.0161176
743.348	0.0167591
743.426	0.0174834
743.504	0.0179428
743.582	0.0185144
743.660	0.0189826
743.738	0.0190585
743.817	0.0189234
743.895	0.0184957
743.973	0.0179044
744.051	0.0171983
744.129	0.0166643
744.207	0.0162743
744.285	0.0158459
744.363	0.0154166
744.442	0.0152826
744.520	0.0153744
744.598	0.0153825
744.676	0.0156830
744.754	0.0159680
744.832	0.0159104
744.910	0.0160491
744.988	0.0161214
745.067	0.0159633
745.145	0.0156927
745.223	0.0153430
745.301	0.0152657
745.379	0.0150834
745.457	0.0151668
745.535	0.0153577
745.613	0.0156719
745.692	0.0161858
745.770	0.0170679
745.848	0.0178318
745.926	0.0186980
746.004	0.0190923
746.082	0.0194548
746.160	0.0193166
746.238	0.0192026
746.317	0.0186430
746.395	0.0180120
746.473	0.0172665
746.551	0.0167525
746.629	0.0161332
746.707	0.0155710
746.785	0.0152202
746.863	0.0149448
746.942	0.0147989
747.020	0.0146645
747.098	0.0146596
747.176	0.0147862
747.254	0.0148089
747.332	0.0147639
747.410	0.0149945
747.488	0.0150848
747.567	0.0153255
747.645	0.0155106
747.723	0.0158936
747.801	0.0162468
747.879	0.0166743
747.957	0.0171194
748.035	0.0174609
748.113	0.0179510
748.192	0.0183118
748.270	0.0186279
748.348	0.0189771
748.426	0.0191479
748.504	0.0192884
748.582	0.0191933
748.660	0.0189410
748.738	0.0183614
748.817	0.0175986
748.895	0.0168871
748.973	0.0160226
749.051	0.0151526
749.129	0.0144600
749.207	0.0141375
749.285	0.0140172
749.363	0.0139158
749.442	0.0140845
749.520	0.0143339
749.598	0.0146870
749.676	0.0152126
749.754	0.0154985
749.832	0.0160632
749.910	0.0164032
749.988	0.0167497
750.067	0.0170341
750.145	0.0172849
750.223	0.0174055
750.301	0.0173695
750.379	0.0174009
750.457	0.0174226
750.535	0.0173264
750.613	0.0173438
750.692	0.0173948
750.770	0.0173716
750.848	0.0174686
750.926	0.0175716
751.004	0.0175476
751.082	0.0174969
751.160	0.0173535
751.238	0.0173575
751.317	0.0171429
751.395	0.0168321
751.473	0.0164957
751.551	0.0161433
751.629	0.0158121
751.707	0.0154069
751.785	0.0152816
751.863	0.0149949
751.942	0.0149317
752.020	0.0148595
752.098	0.0149181
752.176	0.0150136
752.254	0.0152805
752.332	0.0156107
752.410	0.0160722
752.488	0.0165612
752.567	0.0169323
752.645	0.0172672
752.723	0.0175811
752.801	0.0175294
752.879	0.0175576
752.957	0.0176244
753.035	0.0175388
753.113	0.0176753
753.192	0.0174818
753.270	0.0174051
753.348	0.0173782
753.426	0.0171455
753.504	0.0170119
753.582	0.0165568
753.660	0.0164277
753.738	0.0162469
753.817	0.0159808
753.895	0.0159274
753.973	0.0158292
754.051	0.0156052
754.129	0.0156264
754.207	0.0157693
754.285	0.0156028
754.363	0.0156979
754.442	0.0157832
754.520	0.0159077
754.598	0.0160297
754.676	0.0161366
754.754	0.0161835
754.832	0.0164511
754.910	0.0166164
754.988	0.0167255
755.067	0.0169064
755.145	0.0169532
755.223	0.0172482
755.301	0.0173628
755.379	0.0175314
755.457	0.0175769
755.535	0.0176809
755.613	0.0174747
755.692	0.0175946
755.770	0.0173570
755.848	0.0170538
755.926	0.0169894
756.004	0.0168406
756.082	0.0165905
756.160	0.0163643
756.238	0.0163460
756.317	0.0162437
756.395	0.0159424
756.473	0.0158142
756.551	0.0155782
756.629	0.0154730
756.707	0.0153977
756.785	0.0152116
756.863	0.0151913
756.942	0.0153455
757.020	0.0152247
757.098	0.0151915
757.176	0.0155043
757.254	0.0154801
757.332	0.0157472
757.410	0.0158283
757.488	0.0161798
757.567	0.0162867
757.645	0.0165933
757.723	0.0168008
757.801	0.0170873
757.879	0.0171606
757.957	0.0176036
758.035	0.0177466
758.113	0.0179050
758.192	0.0181169
758.270	0.0183451
758.348	0.0187302
758.426	0.0188026
758.504	0.0188971
758.582	0.0190064
758.660	0.0190602
758.738	0.0186088
758.817	0.0185287
758.895	0.0181176
758.973	0.0175903
759.051	0.0169504
759.129	0.0163441
759.207	0.0158467
759.285	0.0151469
759.363	0.0147361
759.442	0.0141582
759.520	0.0139262
759.598	0.0135441
759.676	0.0134440
759.754	0.0133786
759.832	0.0133955
759.910	0.0135388
759.988	0.0140262
760.067	0.0140681
760.145	0.0145229
760.223	0.0149563
760.301	0.0153427
760.379	0.0156757
760.457	0.0158337
760.535	0.0159454
760.613	0.0163220
760.692	0.0165265
760.770	0.0168929
760.848	0.0172169
760.926	0.0175887
761.004	0.0180575
761.082	0.0184872
761.160	0.0188503
761.238	0.0193829
761.317	0.0195090
761.395	0.0197188
761.473	0.0197642
761.551	0.0197643
761.629	0.0197117
761.707	0.0194228
761.785	0.0189076
761.863	0.0186640
761.942	0.0181676
762.020	0.0176997
762.098	0.0170059
762.176	0.0165467
762.254	0.0160774
762.332	0.0156583
762.410	0.0152094
762.488	0.0149824
762.567	0.0147588
762.645	0.0146917
762.723	0.0145795
762.801	0.0144111
762.879	0.0145581
762.957	0.0145610
763.035	0.0145722
763.113	0.0146333
763.192	0.0146724
763.270	0.0149068
763.348	0.0149851
763.426	0.0152850
763.504	0.0155360
763.582	0.0157346
763.660	0.0159226
763.738	0.0160222
763.817	0.0160425
763.895	0.0159274
763.973	0.0159842
764.051	0.0161684
764.129	0.0158846
764.207	0.0158031
764.285	0.0159177
764.363	0.0161033
764.442	0.0162709
764.520	0.0166273
764.598	0.0168024
764.676	0.0171095
764.754	0.0174755
764.832	0.0177554
764.910	0.0180525
764.988	0.0182491
765.067	0.0184315
765.145	0.0186414
765.223	0.0187057
765.301	0.0188442
765.379	0.0187640
765.457	0.0186394
765.535	0.0184320
765.613	0.0182420
765.692	0.0179948
765.770	0.0176080
765.848	0.0172316
765.926	0.0168226
766.004	0.0166664
766.082	0.0165478
766.160	0.0162402
766.238	0.0159187
766.317	0.0158936
766.395	0.0158515
766.473	0.0157456
766.551	0.0156626
766.629	0.0157847
766.707	0.0160801
766.785	0.0162183
766.863	0.0165257
766.942	0.0167730
767.020	0.0170157
767.098	0.0172837
767.176	0.0173989
767.254	0.0173699
767.332	0.0172619
767.410	0.0169030
767.488	0.0163087
767.567	0.0160079
767.645	0.0153256
767.723	0.0146471
767.801	0.0139534
767.879	0.0134444
767.957	0.0131893
768.035	0.0127193
768.113	0.0125645
768.192	0.0124161
768.270	0.0123405
768.348	0.0126239
768.426	0.0128691
768.504	0.0130791
768.582	0.0136141
768.660	0.0142535
768.738	0.0150455
768.817	0.0156531
768.895	0.0162474
768.973	0.0173597
769.051	0.0181042
769.129	0.0189553
769.207	0.0198129
769.285	0.0204066
769.363	0.0210938
769.442	0.0215362
769.520	0.0219375
769.598	0.0221490
769.676	0.0221649
769.754	0.0217319
769.832	0.0216003
769.910	0.0211044
769.988	0.0203748
770.067	0.0197700
770.145	0.0190722
770.223	0.0184129
770.301	0.0175555
770.379	0.0169743
770.457	0.0162869
770.535	0.0158931
770.613	0.0153332
770.692	0.0150771
770.770	0.0148288
770.848	0.0146677
770.926	0.0147007
771.004	0.0147411
771.082	0.0148585
771.160	0.0149155
771.238	0.0148831
771.317	0.0150184
771.395	0.0149783
771.473	0.0149663
771.551	0.0147079
771.629	0.0144897
771.707	0.0142408
771.785	0.0138427
771.863	0.0133836
771.942	0.0132417
772.020	0.0128529
772.098	0.0126910
772.176	0.0125114
772.254	0.0125960
772.332	0.0125558
772.410	0.0126009
772.488	0.0129281
772.567	0.0132063
772.645	0.0137460
772.723	0.0141755
772.801	0.0148087
772.879	0.0155128
772.957	0.0160963
773.035	0.0169375
773.113	0.0175918
773.192	0.0183665
773.270	0.0192665
773.348	0.0197899
773.426	0.0202291
773.504	0.0207425
773.582	0.0210242
773.660	0.0214889
773.738	0.0217558
773.817	0.0217358
773.895	0.0218136
773.973	0.0217454
774.051	0.0213847
774.129	0.0212273
774.207	0.0210127
774.285	0.0204102
774.363	0.0198638
774.442	0.0196130
774.520	0.0188290
774.598	0.0182093
774.676	0.0178964
774.754	0.0169873
774.832	0.0164346
774.910	0.0159634
774.988	0.0154860
775.067	0.0147894
775.145	0.0145216
775.223	0.0141414
775.301	0.0138279
775.379	0.0136005
775.457	0.0133733
775.535	0.0134657
775.613	0.0133812
775.692	0.0130326
775.770	0.0130521
775.848	0.0130511
775.926	0.0129236
776.004	0.0129078
776.082	0.0128693
776.160	0.0127795
776.238	0.0128590
776.317	0.0131098
776.395	0.0130116
776.473	0.0132504
776.551	0.0136353
776.629	0.0138659
776.707	0.0143259
776.785	0.0144804
776.863	0.0148722
776.942	0.0151286
777.020	0.0156508
777.098	0.0160648
777.176	0.0166352
777.254	0.0172509
777.332	0.0178666
777.410	0.0184164
777.488	0.0189304
777.567	0.0194384
777.645	0.0198590
777.723	0.0200506
777.801	0.0201837
777.879	0.0203016
777.957	0.0203943
778.035	0.0202836
778.113	0.0203120
778.192	0.0201669
778.270	0.0201265
778.348	0.0197859
778.426	0.0195206
778.504	0.0194455
778.582	0.0189943
778.660	0.0188280
778.738	0.0185867
778.817	0.0183978
778.895	0.0181816
778.973	0.0178309
779.051	0.0176255
779.129	0.0174038
779.207	0.0173631
779.285	0.0171282
779.363	0.0169128
779.442	0.0167328
779.520	0.0164349
779.598	0.0162207
779.676	0.0159219
779.754	0.0153894
779.832	0.0151141
779.910	0.0145195
779.988	0.0140958
780.067	0.0137526
780.145	0.0133836
780.223	0.0130112
780.301	0.0126524
780.379	0.0123527
780.457	0.0120611
780.535	0.0120576
780.613	0.0121442
780.692	0.0122865
780.770	0.0124675
780.848	0.0128507
780.926	0.0130959
781.004	0.0134957
781.082	0.0140490
781.160	0.0145321
781.238	0.0150600
781.317	0.0156978
781.395	0.0162278
781.473	0.0167282
781.551	0.0172934
781.629	0.0178014
781.707	0.0180483
781.785	0.0187010
781.863	0.0188692
781.942	0.0192388
782.020	0.0196918
782.098	0.0197822
782.176	0.0198800
782.254	0.0200752
782.332	0.0201318
782.410	0.0199714
782.488	0.0200098
782.567	0.0197418
782.645	0.0195835
782.723	0.0192423
782.801	0.0190466
782.879	0.0186426
782.957	0.0184727
783.035	0.0180463
783.113	0.0177155
783.192	0.0173853
783.270	0.0170214
783.348	0.0168898
783.426	0.0165142
783.504	0.0162589
783.582	0.0160963
783.660	0.0159295
783.738	0.0157386
783.817	0.0156239
783.895	0.0156831
783.973	0.0154469
784.051	0.0151448
784.129	0.0152709
784.207	0.0153569
784.285	0.0152394
784.363	0.0153815
784.442	0.0152685
784.520	0.0154522
784.598	0.0154975
784.676	0.0156700
784.754	0.0156264
784.832	0.0157490
784.910	0.0159035
784.988	0.0158480
785.067	0.0159747
785.145	0.0160665
785.223	0.0158667
785.301	0.0158591
785.379	0.0156547
785.457	0.0157175
785.535	0.0157555
785.613	0.0155148
785.692	0.0155286
785.770	0.0154907
785.848	0.0155774
785.926	0.0155780
786.004	0.0156319
786.082	0.0156469
786.160	0.0158846
786.238	0.0158536
786.317	0.0158321
786.395	0.0160911
786.473	0.0162678
786.551	0.0163335
786.629	0.0164755
786.707	0.0168121
786.785	0.0169512
786.863	0.0171175
786.942	0.0172528
787.020	0.0173771
787.098	0.0176232
787.176	0.0178867
787.254	0.0179942
787.332	0.0181594
787.410	0.0182504
787.488	0.0181498
787.567	0.0183266
787.645	0.0184583
787.723	0.0185040
787.801	0.0182819
787.879	0.0180965
787.957	0.0178647
788.035	0.0177167
788.113	0.0174474
788.192	0.0171690
788.270	0.0168239
788.348	0.0165081
788.426	0.0163627
788.504	0.0160381
788.582	0.0157829
788.660	0.0155370
788.738	0.0154783
788.817	0.0153065
788.895	0.0154208
788.973	0.0155157
789.051	0.0156583
789.129	0.0156469
789.207	0.0158109
789.285	0.0160674
789.363	0.0163055
789.442	0.0163418
789.520	0.0166566
789.598	0.0167681
789.676	0.0167323
789.754	0.0167469
789.832	0.0169466
789.910	0.0168691
789.988	0.0168298
790.067	0.0167428
790.145	0.0165498
790.223	0.0165112
790.301	0.0163918
790.379	0.0162406
790.457	0.0159308
790.535	0.0158897
790.613	0.0156496
790.692	0.0155679
790.770	0.0153925
790.848	0.0155072
790.926	0.0153387
791.004	0.0152869
791.082	0.0153101
791.160	0.0153215
791.238	0.0154607
791.317	0.0154605
791.395	0.0155282
791.473	0.0157378
791.551	0.0157870
791.629	0.0160622
791.707	0.0162162
791.785	0.0162224
791.863	0.0165362
791.942	0.0167757
792.020	0.0170667
792.098	0.0171257
792.176	0.0174399
792.254	0.0176868
792.332	0.0178500
792.410	0.0180921
792.488	0.0182556
792.567	0.0181940
792.645	0.0182896
792.723	0.0184537
792.801	0.0183427
792.879	0.0185493
792.957	0.0181459
793.035	0.0181934
793.113	0.0178544
793.192	0.0177400
793.270	0.0173177
793.348	0.0170056
793.426	0.0167377
793.504	0.0164880
793.582	0.0162132
793.660	0.0159194
793.738	0.0157334
793.817	0.0154926
793.895	0.0152650
793.973	0.0151495
794.051	0.0150582
794.129	0.0150949
794.207	0.0152335
794.285	0.0153278
794.363	0.0154111
794.442	0.0155347
794.520	0.0156735
794.598	0.0157372
794.676	0.0159602
794.754	0.0159582
794.832	0.0163118
794.910	0.0161119
794.988	0.0162979
795.067	0.0164937
795.145	0.0164497
795.223	0.0164790
795.301	0.0165123
795.379	0.0165343
795.457	0.0165908
795.535	0.0166608
795.613	0.0166563
795.692	0.0166944
795.770	0.0167023
795.848	0.0168314
795.926	0.0165932
796.004	0.0167227
796.082	0.0167394
796.160	0.0168243
796.238	0.0168789
796.317	0.0168224
796.395	0.0168525
796.473	0.0169854
796.551	0.0169325
796.629	0.0171265
796.707	0.0169765
796.785	0.0170321
796.863	0.0170748
796.942	0.0170620
797.020	0.0168977
797.098	0.0168027
797.176	0.0167890
797.254	0.0166685
797.332	0.0166321
797.410	0.0165529
797.488	0.0164261
797.567	0.0164172
797.645	0.0163856
797.723	0.0163028
797.801	0.0162379
797.879	0.0162491
797.957	0.0162504
798.035	0.0161662
798.113	0.0162532
798.192	0.0162337
798.270	0.0161768
798.348	0.0162621
798.426	0.0162355
798.504	0.0162102
798.582	0.0161477
798.660	0.0161729
798.738	0.0160000
798.817	0.0160879
798.895	0.0159983
798.973	0.0158443
799.051	0.0158004
799.129	0.0157701
799.207	0.0157919
799.285	0.0157652
799.363	0.0157619
799.442	0.0159386
799.520	0.0158429
799.598	0.0159612
799.676	0.0162327
799.754	0.0162385
799.832	0.0164674
799.910	0.0166560
799.988	0.0167818
800.067	0.0170078
800.145	0.0172570
800.223	0.0173291
800.301	0.0174857
800.379	0.0177966
800.457	0.0177142
800.535	0.0179498
800.613	0.0178725
800.692	0.0177784
800.770	0.0178082
800.848	0.0178062
800.926	0.0176983
801.004	0.0174301
801.082	0.0172320
801.160	0.0169357
801.238	0.0169273
801.317	0.0165098
801.395	0.0162670
801.473	0.0159743
801.551	0.0157680
801.629	0.0157024
801.707	0.0154063
801.785	0.0155151
801.863	0.0154111
801.942	0.0153497
802.020	0.0154108
802.098	0.0154485
802.176	0.0154439
802.254	0.0155115
802.332	0.0155929
802.410	0.0157500
802.488	0.0158699
802.567	0.0157960
802.645	0.0158931
802.723	0.0160467
802.801	0.0161628
802.879	0.0162150
802.957	0.0163588
803.035	0.0163633
803.113	0.0164876
803.192	0.0167696
803.270	0.0166423
803.348	0.0168810
803.426	0.0168239
803.504	0.0171822
803.582	0.0171993
803.660	0.0172324
803.738	0.0172095
803.817	0.0174660
803.895	0.0174003
803.973	0.0172351
804.051	0.0172487
804.129	0.0169575
804.207	0.0167908
804.285	0.0168506
804.363	0.0167898
804.442	0.0165333
804.520	0.0165297
804.598	0.0163371
804.676	0.0163894
804.754	0.0161622
804.832	0.0163473
804.910	0.0164983
804.988	0.0164877
805.067	0.0165720
805.145	0.0164719
805.223	0.0164246
805.301	0.0165221
805.379	0.0166535
805.457	0.0166988
805.535	0.0165897
805.613	0.0165926
805.692	0.0167886
805.770	0.0167555
805.848	0.0169659
805.926	0.0167738
806.004	0.0168333
806.082	0.0167644
806.160	0.0168127
806.238	0.0167197
806.317	0.0165965
806.395	0.0165307
806.473	0.0163686
806.551	0.0163854
806.629	0.0161337
806.707	0.0160422
806.785	0.0160309
806.863	0.0159757
806.942	0.0158481
807.020	0.0162072
807.098	0.0161693
807.176	0.0162283
807.254	0.0162446
807.332	0.0164875
807.410	0.0166081
807.488	0.0166879
807.567	0.0167607
807.645	0.0169270
807.723	0.0171948
807.801	0.0174787
807.879	0.0173191
807.957	0.0173804
808.035	0.0173588
808.113	0.0174050
808.192	0.0172390
808.270	0.0170737
808.348	0.0169106
808.426	0.0168574
808.504	0.0166326
808.582	0.0166689
808.660	0.0163630
808.738	0.0163088
808.817	0.0162424
808.895	0.0162830
808.973	0.0163809
809.051	0.0163183
809.129	0.0163815
809.207	0.0164455
809.285	0.0163744
809.363	0.0162945
809.442	0.0164283
809.520	0.0163454
809.598	0.0163584
809.676	0.0162798
809.754	0.0161601
809.832	0.0161681
809.910	0.0161460
809.988	0.0161003
810.067	0.0161511
810.145	0.0160534
810.223	0.0161555
810.301	0.0161064
810.379	0.0161412
810.457	0.0161493
810.535	0.0162814
810.613	0.0161652
810.692	0.0161496
810.770	0.0164567
810.848	0.0163988
810.926	0.0164705
811.004	0.0165697
811.082	0.0167675
811.160	0.0168509
811.238	0.0168674
811.317	0.0169267
811.395	0.0169872
811.473	0.0171401
811.551	0.0171783
811.629	0.0172112
811.707	0.0173472
811.785	0.0172530
811.863	0.0173826
811.942	0.0173566
812.020	0.0172167
812.098	0.0172452
812.176	0.0173398
812.254	0.0169444
812.332	0.0169067
812.410	0.0169209
812.488	0.0168042
812.567	0.0167119
812.645	0.0166913
812.723	0.0165868
812.801	0.0166607
812.879	0.0166425
812.957	0.0164043
813.035	0.0164362
813.113	0.0163412
813.192	0.0163943
813.270	0.0163496
813.348	0.0163837
813.426	0.0162166
813.504	0.0162238
813.582	0.0164027
813.660	0.0163065
813.738	0.0163309
813.817	0.0160886
813.895	0.0162045
813.973	0.0161978
814.051	0.0162164
814.129	0.0162682
814.207	0.0162727
814.285	0.0162647
814.363	0.0162246
814.442	0.0162088
814.520	0.0163161
814.598	0.0163326
814.676	0.0162844
814.754	0.0163412
814.832	0.0164065
814.910	0.0164614
814.988	0.0166541
815.067	0.0166118
815.145	0.0165511
815.223	0.0165349
815.301	0.0168495
815.379	0.0166138
815.457	0.0166978
815.535	0.0165760
815.613	0.0166877
815.692	0.0166591
815.770	0.0166840
815.848	0.0166782
815.926	0.0166528
816.004	0.0165599
816.082	0.0166592
816.160	0.0166227
816.238	0.0166402
816.317	0.0166608
816.395	0.0164994
816.473	0.0164902
816.551	0.0165980
816.629	0.0166364
816.707	0.0166740
816.785	0.0166290
816.863	0.0165569
816.942	0.0167252
817.020	0.0165535
817.098	0.0165989
817.176	0.0166323
817.254	0.0165876
817.332	0.0165399
817.410	0.0167156
817.488	0.0165192
817.567	0.0166116
817.645	0.0164621
817.723	0.0163590
817.801	0.0165343
817.879	0.0163803
817.957	0.0163423
818.035	0.0163075
818.113	0.0163830
818.192	0.0162980
818.270	0.0164303
818.348	0.0164596
818.426	0.0165085
818.504	0.0165614
818.582	0.0164942
818.660	0.0165427
818.738	0.0166030
818.817	0.0165401
818.895	0.0167136
818.973	0.0167039
819.051	0.0167632
819.129	0.0168488
819.207	0.0169806
819.285	0.0170786
819.363	0.0167742
819.442	0.0168793
819.520	0.0170460
819.598	0.0169597
819.676	0.0169558
819.754	0.0169823
819.832	0.0169556
819.910	0.0169463
819.988	0.0168858
820.067	0.0169303
820.145	0.0167586
820.223	0.0167104
820.301	0.0167545
820.379	0.0166293
820.457	0.0164497
820.535	0.0164243
820.613	0.0162179
820.692	0.0160896
820.770	0.0160192
820.848	0.0160178
820.926	0.0159932
821.004	0.0159725
821.082	0.0160130
821.160	0.0158459
821.238	0.0157860
821.317	0.0158563
821.395	0.0157382
821.473	0.0158327
821.551	0.0158251
821.629	0.0160246
821.707	0.0159294
821.785	0.0159493
821.863	0.0160938
821.942	0.0161261
822.020	0.0160905
822.098	0.0162024
822.176	0.0164101
822.254	0.0163528
822.332	0.0163717
822.410	0.0165327
822.488	0.0166028
822.567	0.0165833
822.645	0.0167114
822.723	0.0168031
822.801	0.0167229
822.879	0.0167871
822.957	0.0168436
823.035	0.0169659
823.113	0.0167531
823.192	0.0166756
823.270	0.0168453
823.348	0.0169780
823.426	0.0169753
823.504	0.0169550
823.582	0.0168224
823.660	0.0170267
823.738	0.0170153
823.817	0.0170298
823.895	0.0170345
823.973	0.0172309
824.051	0.0171225
824.129	0.0170245
824.207	0.0171003
824.285	0.0170380
824.363	0.0170024
824.442	0.0169379
824.520	0.0171397
824.598	0.0169341
824.676	0.0168017
824.754	0.0168546
824.832	0.0169342
824.910	0.0167274
824.988	0.0165579
825.067	0.0166041
825.145	0.0164587
825.223	0.0164322
825.301	0.0162945
825.379	0.0162193
825.457	0.0161205
825.535	0.0159917
825.613	0.0159587
825.692	0.0158328
825.770	0.0159357
825.848	0.0158836
825.926	0.0158898
826.004	0.0158513
826.082	0.0158401
826.160	0.0158189
826.238	0.0158874
826.317	0.0160149
826.395	0.0161575
826.473	0.0161205
826.551	0.0161964
826.629	0.0161873
826.707	0.0163448
826.785	0.0163704
826.863	0.0164324
826.942	0.0165284
827.020	0.0165685
827.098	0.0166121
827.176	0.0167473
827.254	0.0166428
827.332	0.0168416
827.410	0.0169234
827.488	0.0170234
827.567	0.0169318
827.645	0.0170148
827.723	0.0169641
827.801	0.0169437
827.879	0.0168318
827.957	0.0167679
828.035	0.0167601
828.113	0.0166589
828.192	0.0166883
828.270	0.0166761
828.348	0.0167426
828.426	0.0166489
828.504	0.0164765
828.582	0.0164642
828.660	0.0163541
828.738	0.0163568
828.817	0.0163821
828.895	0.0164658
828.973	0.0163306
829.051	0.0162280
829.129	0.0162704
829.207	0.0162497
829.285	0.0163374
829.363	0.0163445
829.442	0.0162505
829.520	0.0161894
829.598	0.0162999
829.676	0.0163632
829.754	0.0162757
829.832	0.0162820
829.910	0.0163659
829.988	0.0163979
830.067	0.0163543
830.145	0.0164384
830.223	0.0165113
830.301	0.0165000
830.379	0.0165565
830.457	0.0165689
830.535	0.0168087
830.613	0.0167873
830.692	0.0167921
830.770	0.0169208
830.848	0.0170039
830.926	0.0170914
831.004	0.0169395
831.082	0.0169818
831.160	0.0172680
831.238	0.0170888
831.317	0.0168845
831.395	0.0170213
831.473	0.0169164
831.551	0.0169206
831.629	0.0168933
831.707	0.0167999
831.785	0.0167926
831.863	0.0166987
831.942	0.0165849
832.020	0.0165246
832.098	0.0165524
832.176	0.0165791
832.254	0.0163552
832.332	0.0163517
832.410	0.0163129
832.488	0.0162725
832.567	0.0163104
832.645	0.0163115
832.723	0.0162650
832.801	0.0164429
832.879	0.0161776
832.957	0.0163451
833.035	0.0163573
833.113	0.0162199
833.192	0.0161124
833.270	0.0162487
833.348	0.0161264
833.426	0.0161095
833.504	0.0161208
833.582	0.0161304
833.660	0.0159487
833.738	0.0159931
833.817	0.0160169
833.895	0.0160736
833.973	0.0161637
834.051	0.0160741
834.129	0.0162200
834.207	0.0163525
834.285	0.0164499
834.363	0.0164240
834.442	0.0165750
834.520	0.0166296
834.598	0.0166881
834.676	0.0167360
834.754	0.0169173
834.832	0.0168987
834.910	0.0168932
834.988	0.0168578
835.067	0.0170116
835.145	0.0170486
835.223	0.0169158
835.301	0.0169859
835.379	0.0168929
835.457	0.0169128
835.535	0.0169757
835.613	0.0170634
835.692	0.0168127
835.770	0.0167906
835.848	0.0168367
835.926	0.0166895
836.004	0.0166869
836.082	0.0166285
836.160	0.0167046
836.238	0.0165406
836.317	0.0165716
836.395	0.0164446
836.473	0.0164673
836.551	0.0165520
836.629	0.0165269
836.707	0.0164235
836.785	0.0164696
836.863	0.0164771
836.942	0.0165993
837.020	0.0166650
837.098	0.0165458
837.176	0.0166813
837.254	0.0164973
837.332	0.0166188
837.410	0.0164885
837.488	0.0164394
837.567	0.0165109
837.645	0.0164837
837.723	0.0164346
837.801	0.0163207
837.879	0.0163404
837.957	0.0163277
838.035	0.0163436
838.113	0.0161817
838.192	0.0160632
838.270	0.0160799
838.348	0.0163787
838.426	0.0161158
838.504	0.0161306
838.582	0.0162170
838.660	0.0163565
838.738	0.0163934
838.817	0.0164223
838.895	0.0164289
838.973	0.0165721
839.051	0.0166566
839.129	0.0167308
839.207	0.0168282
839.285	0.0169047
839.363	0.0167934
839.442	0.0169687
839.520	0.0170374
839.598	0.0169830
839.676	0.0169222
839.754	0.0168533
839.832	0.0169134
839.910	0.0169416
839.988	0.0166671
840.067	0.0166159
840.145	0.0164442
840.223	0.0164634
840.301	0.0164612
840.379	0.0165340
840.457	0.0165331
840.535	0.0164812
840.613	0.0163413
840.692	0.0164215
840.770	0.0163722
840.848	0.0163779
840.926	0.0164522
841.004	0.0163318
841.082	0.0162119
841.160	0.0164108
841.238	0.0165016
841.317	0.0164049
841.395	0.0166760
841.473	0.0164370
841.551	0.0165661
841.629	0.0165991
841.707	0.0165485
841.785	0.0166785
841.863	0.0165152
841.942	0.0164738
842.020	0.0164902
842.098	0.0164400
842.176	0.0165178
842.254	0.0163303
842.332	0.0163869
842.410	0.0164820
842.488	0.0164531
842.567	0.0164849
842.645	0.0165480
842.723	0.0167323
842.801	0.0166887
842.879	0.0166102
842.957	0.0167050
843.035	0.0168269
843.113	0.0168911
843.192	0.0170355
843.270	0.0170233
843.348	0.0168398
843.426	0.0170210
843.504	0.0170869
843.582	0.0169207
843.660	0.0169156
843.738	0.0170351
843.817	0.0168977
843.895	0.0169348
843.973	0.0167931
844.051	0.0167341
844.129	0.0166205
844.207	0.0165739
844.285	0.0165761
844.363	0.0164947
844.442	0.0164000
844.520	0.0162547
844.598	0.0162270
844.676	0.0161905
844.754	0.0160920
844.832	0.0159193
844.910	0.0160731
844.988	0.0160444
845.067	0.0160848
845.145	0.0161051
845.223	0.0162169
845.301	0.0160704
845.379	0.0162347
845.457	0.0162108
845.535	0.0161957
845.613	0.0163555
845.692	0.0164786
845.770	0.0164256
845.848	0.0164709
845.926	0.0163387
846.004	0.0163384
846.082	0.0164956
846.160	0.0163828
846.238	0.0163677
846.317	0.0162936
846.395	0.0163125
846.473	0.0162631
846.551	0.0162564
846.629	0.0163451
846.707	0.0163643
846.785	0.0163924
846.863	0.0164135
846.942	0.0164304
847.020	0.0163725
847.098	0.0164007
847.176	0.0166013
847.254	0.0164894
847.332	0.0167004
847.410	0.0167063
847.488	0.0167652
847.567	0.0167670
847.645	0.0168422
847.723	0.0167986
847.801	0.0168864
847.879	0.0169109
847.957	0.0169456
848.035	0.0167410
848.113	0.0167703
848.192	0.0169063
848.270	0.0168350
848.348	0.0168149
848.426	0.0168762
848.504	0.0166680
848.582	0.0166026
848.660	0.0168042
848.738	0.0168010
848.817	0.0165746
848.895	0.0164873
848.973	0.0165082
849.051	0.0164491
849.129	0.0164310
849.207	0.0165067
849.285	0.0161954
849.363	0.0163897
849.442	0.0165120
849.520	0.0164647
849.598	0.0163710
849.676	0.0163972
849.754	0.0166288
849.832	0.0163336
849.910	0.0164543
849.988	0.0165106
850.067	0.0165043
850.145	0.0165119
850.223	0.0165192
850.301	0.0165121
850.379	0.0166164
850.457	0.0164619
850.535	0.0163396
850.613	0.0164317
850.692	0.0164546
850.770	0.0163783
850.848	0.0162762
850.926	0.0161943
851.004	0.0163464
851.082	0.0164123
851.160	0.0161935
851.238	0.0162261
851.317	0.0163593
851.395	0.0164152
851.473	0.0163508
851.551	0.0164366
851.629	0.0164565
851.707	0.0165897
851.785	0.0166036
851.863	0.0166578
851.942	0.0167570
852.020	0.0167663
852.098	0.0167992
852.176	0.0168745
852.254	0.0169641
852.332	0.0167259
852.410	0.0166172
852.488	0.0167392
852.567	0.0168067
852.645	0.0164537
852.723	0.0165139
852.801	0.0165594
852.879	0.0162914
852.957	0.0162375
853.035	0.0162785
853.113	0.0163966
853.192	0.0163877
853.270	0.0162671
853.348	0.0161398
853.426	0.0161827
853.504	0.0163082
853.582	0.0161349
853.660	0.0161885
853.738	0.0161787
853.817	0.0162950
853.895	0.0163303
853.973	0.0164290
854.051	0.0165723
854.129	0.0164653
854.207	0.0166193
854.285	0.0166624
854.363	0.0166492
854.442	0.0167290
854.520	0.0167600
854.598	0.0169265
854.676	0.0167194
854.754	0.0168002
854.832	0.0168352
854.910	0.0167986
854.988	0.0168235
855.067	0.0167505
855.145	0.0169405
855.223	0.0167973
855.301	0.0166739
855.379	0.0168339
855.457	0.0167348
855.535	0.0166297
855.613	0.0165292
855.692	0.0166449
855.770	0.0165315
855.848	0.0164807
855.926	0.0165600
856.004	0.0165510
856.082	0.0164895
856.160	0.0163955
856.238	0.0162479
856.317	0.0163596
856.395	0.0163268
856.473	0.0162467
856.551	0.0162831
856.629	0.0162096
856.707	0.0162129
856.785	0.0161283
856.863	0.0163476
856.942	0.0161112
857.020	0.0161986
857.098	0.0161169
857.176	0.0162196
857.254	0.0160983
857.332	0.0161541
857.410	0.0162833
857.488	0.0164323
857.567	0.0164396
857.645	0.0163914
857.723	0.0164655
857.801	0.0166328
857.879	0.0167732
857.957	0.0166956
858.035	0.0167750
858.113	0.0168157
858.192	0.0170163
858.270	0.0169537
858.348	0.0167983
858.426	0.0169621
858.504	0.0170487
858.582	0.0169137
858.660	0.0167616
858.738	0.0165982
858.817	0.0167015
858.895	0.0165887
858.973	0.0165506
859.051	0.0163613
859.129	0.0163840
859.207	0.0163805
859.285	0.0162974
859.363	0.0162764
859.442	0.0161964
859.520	0.0163072
859.598	0.0162437
859.676	0.0162887
859.754	0.0162962
859.832	0.0164415
859.910	0.0163866
859.988	0.0164603
860.067	0.0165146
860.145	0.0165775
860.223	0.0164979
860.301	0.0164516
860.379	0.0165631
860.457	0.0166465
860.535	0.0166392
860.613	0.0167527
860.692	0.0165976
860.770	0.0166862
860.848	0.0166909
860.926	0.0166224
861.004	0.0167224
861.082	0.0167568
861.160	0.0167548
861.238	0.0168275
861.317	0.0166396
861.395	0.0166070
861.473	0.0165578
861.551	0.0166306
861.629	0.0165112
861.707	0.0166267
861.785	0.0166569
861.863	0.0167637
861.942	0.0167569
862.020	0.0166335
862.098	0.0166937
862.176	0.0168575
862.254	0.0167963
862.332	0.0168313
862.410	0.0169073
862.488	0.0168339
862.567	0.0169847
862.645	0.0170035
862.723	0.0169395
862.801	0.0169487
862.879	0.0169576
862.957	0.0169445
863.035	0.0168215
863.113	0.0167305
863.192	0.0166971
863.270	0.0167252
863.348	0.0165504
863.426	0.0164384
863.504	0.0163629
863.582	0.0162578
863.660	0.0163075
863.738	0.0160152
863.817	0.0161380
863.895	0.0160429
863.973	0.0161523
864.051	0.0160239
864.129	0.0159788
864.207	0.0160341
864.285	0.0159666
864.363	0.0159649
864.442	0.0158930
864.520	0.0160499
864.598	0.0161868
864.676	0.0161552
864.754	0.0161669
864.832	0.0161514
864.910	0.0162444
864.988	0.0163167
865.067	0.0163113
865.145	0.0163644
865.223	0.0165356
865.301	0.0165422
865.379	0.0165434
865.457	0.0166164
865.535	0.0166425
865.613	0.0167170
865.692	0.0168376
865.770	0.0169347
865.848	0.0169289
865.926	0.0169391
866.004	0.0170678
866.082	0.0172360
866.160	0.0172669
866.238	0.0173490
866.317	0.0175116
866.395	0.0173170
866.473	0.0172950
866.551	0.0174379
866.629	0.0173241
866.707	0.0173141
866.785	0.0174309
866.863	0.0173083
866.942	0.0170831
867.020	0.0170315
867.098	0.0167613
867.176	0.0167895
867.254	0.0167684
867.332	0.0167159
867.410	0.0166757
867.488	0.0164527
867.567	0.0165746
867.645	0.0162460
867.723	0.0162594
867.801	0.0161214
867.879	0.0160007
867.957	0.0159460
868.035	0.0158926
868.113	0.0157059
868.192	0.0157075
868.270	0.0156216
868.348	0.0156224
868.426	0.0155811
868.504	0.0156383
868.582	0.0155883
868.660	0.0155716
868.738	0.0156903
868.817	0.0156936
868.895	0.0157767
868.973	0.0158901
869.051	0.0158782
869.129	0.0160155
869.207	0.0160752
869.285	0.0162252
869.363	0.0163354
869.442	0.0163817
869.520	0.0164796
869.598	0.0164662
869.676	0.0166933
869.754	0.0167680
869.832	0.0168378
869.910	0.0168880
869.988	0.0168538
870.067	0.0170463
870.145	0.0171834
870.223	0.0173122
870.301	0.0172208
870.379	0.0174666
870.457	0.0175163
870.535	0.0175803
870.613	0.0174888
870.692	0.0176096
870.770	0.0175018
870.848	0.0174595
870.926	0.0173676
871.004	0.0174189
871.082	0.0172948
871.160	0.0172334
871.238	0.0171480
871.317	0.0170208
871.395	0.0171187
871.473	0.0169461
871.551	0.0168075
871.629	0.0166391
871.707	0.0164806
871.785	0.0165034
871.863	0.0163582
871.942	0.0162917
872.020	0.0162235
872.098	0.0161533
872.176	0.0159281
872.254	0.0160201
872.332	0.0160378
872.410	0.0159288
872.488	0.0157648
872.567	0.0158022
872.645	0.0157568
872.723	0.0156661
872.801	0.0156780
872.879	0.0157548
872.957	0.0156045
873.035	0.0156512
873.113	0.0157809
873.192	0.0156235
873.270	0.0157882
873.348	0.0158922
873.426	0.0159732
873.504	0.0161053
873.582	0.0161813
873.660	0.0162773
873.738	0.0163386
873.817	0.0164432
873.895	0.0166861
873.973	0.0166355
874.051	0.0168613
874.129	0.0168144
874.207	0.0168507
874.285	0.0169987
874.363	0.0169491
874.442	0.0171763
874.520	0.0171297
874.598	0.0170688
874.676	0.0168890
874.754	0.0171397
874.832	0.0171860
874.910	0.0171566
874.988	0.0172609
875.067	0.0169905
875.145	0.0170876
875.223	0.0170483
875.301	0.0170269
875.379	0.0170811
875.457	0.0170177
875.535	0.0169487
875.613	0.0170045
875.692	0.0169259
875.770	0.0168216
875.848	0.0168481
875.926	0.0168861
876.004	0.0169268
876.082	0.0167328
876.160	0.0165828
876.238	0.0163787
876.317	0.0164292
876.395	0.0163934
876.473	0.0162416
876.551	0.0162562
876.629	0.0161401
876.707	0.0162356
876.785	0.0162637
876.863	0.0159859
876.942	0.0160673
877.020	0.0159544
877.098	0.0158465
877.176	0.0159444
877.254	0.0159862
877.332	0.0159252
877.410	0.0158103
877.488	0.0159698
877.567	0.0158139
877.645	0.0160769
877.723	0.0161102
877.801	0.0161297
877.879	0.0162727
877.957	0.0164174
878.035	0.0165245
878.113	0.0165885
878.192	0.0166491
878.270	0.0168614
878.348	0.0168185
878.426	0.0168713
878.504	0.0168755
878.582	0.0169672
878.660	0.0170409
878.738	0.0170712
878.817	0.0170062
878.895	0.0170703
878.973	0.0171325
879.051	0.0169392
879.129	0.0169833
879.207	0.0170246
879.285	0.0169183
879.363	0.0168190
879.442	0.0168601
879.520	0.0167709
879.598	0.0168836
879.676	0.0167674
879.754	0.0166412
879.832	0.0166815
879.910	0.0166048
879.988	0.0166133
880.067	0.0165717
880.145	0.0165382
880.223	0.0166230
880.301	0.0164848
880.379	0.0164130
880.457	0.0165745
880.535	0.0164114
880.613	0.0164397
880.692	0.0163636
880.770	0.0164748
880.848	0.0164488
880.926	0.0163560
881.004	0.0163749
881.082	0.0162884
881.160	0.0163902
881.238	0.0163762
881.317	0.0162290
881.395	0.0162817
881.473	0.0162847
881.551	0.0163208
881.629	0.0162331
881.707	0.0161546
881.785	0.0162499
881.863	0.0163940
881.942	0.0163126
882.020	0.0164095
882.098	0.0163399
882.176	0.0163447
882.254	0.0163815
882.332	0.0164721
882.410	0.0164418
882.488	0.0165820
882.567	0.0166418
882.645	0.0167142
882.723	0.0167230
882.801	0.0166448
882.879	0.0166913
882.957	0.0167803
883.035	0.0166619
883.113	0.0168159
883.192	0.0168987
883.270	0.0167640
883.348	0.0167789
883.426	0.0168737
883.504	0.0169171
883.582	0.0166690
883.660	0.0167303
883.738	0.0169170
883.817	0.0169066
883.895	0.0169025
883.973	0.0168996
884.051	0.0169781
884.129	0.0168295
884.207	0.0168060
884.285	0.0167630
884.363	0.0168142
884.442	0.0167250
884.520	0.0167420
884.598	0.0166555
884.676	0.0165983
884.754	0.0166145
884.832	0.0166267
884.910	0.0166550
884.988	0.0166534
885.067	0.0166764
885.145	0.0166512
885.223	0.0165630
885.301	0.0166892
885.379	0.0166755
885.457	0.0165442
885.535	0.0166114
885.613	0.0165488
885.692	0.0165946
885.770	0.0164783
885.848	0.0164790
885.926	0.0165249
886.004	0.0165414
886.082	0.0164581
886.160	0.0164577
886.238	0.0163688
886.317	0.0165185
886.395	0.0164231
886.473	0.0164380
886.551	0.0163000
886.629	0.0162639
886.707	0.0163769
886.785	0.0162524
886.863	0.0162763
886.942	0.0162099
887.020	0.0161333
887.098	0.0162288
887.176	0.0163408
887.254	0.0161802
887.332	0.0161878
887.410	0.0161758
887.488	0.0161922
887.567	0.0161195
887.645	0.0162333
887.723	0.0162834
887.801	0.0161412
887.879	0.0163728
887.957	0.0164012
888.035	0.0164209
888.113	0.0164358
888.192	0.0164489
888.270	0.0164523
888.348	0.0166856
888.426	0.0165638
888.504	0.0166957
888.582	0.0169193
888.660	0.0167589
888.738	0.0170163
888.817	0.0170837
888.895	0.0170172
888.973	0.0170962
889.051	0.0171492
889.129	0.0170499
889.207	0.0170725
889.285	0.0171881
889.363	0.0170516
889.442	0.0169009
889.520	0.0171908
889.598	0.0172144
889.676	0.0169144
889.754	0.0168800
889.832	0.0170488
889.910	0.0168191
889.988	0.0167022
890.067	0.0168684
890.145	0.0167646
890.223	0.0166531
890.301	0.0166132
890.379	0.0165501
890.457	0.0164214
890.535	0.0164321
890.613	0.0165104
890.692	0.0164400
890.770	0.0162939
890.848	0.0164255
890.926	0.0163593
891.004	0.0162496
891.082	0.0161995
891.160	0.0163478
891.238	0.0162842
891.317	0.0162678
891.395	0.0162273
891.473	0.0161553
891.551	0.0162142
891.629	0.0161940
891.707	0.0161004
891.785	0.0162864
891.863	0.0162046
891.942	0.0161951
892.020	0.0164145
892.098	0.0163641
892.176	0.0163773
892.254	0.0163766
892.332	0.0164698
892.410	0.0165005
892.488	0.0164841
892.567	0.0164557
892.645	0.0165876
892.723	0.0165474
892.801	0.0164872
892.879	0.0164722
892.957	0.0166137
893.035	0.0166459
893.113	0.0164758
893.192	0.0164334
893.270	0.0165936
893.348	0.0164999
893.426	0.0165344
893.504	0.0165834
893.582	0.0164994
893.660	0.0166037
893.738	0.0164774
893.817	0.0164942
893.895	0.0164955
893.973	0.0165272
894.051	0.0166531
894.129	0.0165035
894.207	0.0163879
894.285	0.0164957
894.363	0.0165045
894.442	0.0165914
894.520	0.0165021
894.598	0.0165127
894.676	0.0165159
894.754	0.0163912
894.832	0.0164840
894.910	0.0164682
894.988	0.0163744
895.067	0.0165074
895.145	0.0165008
895.223	0.0164880
895.301	0.0164138
895.379	0.0164458
895.457	0.0165344
895.535	0.0164246
895.613	0.0164190
895.692	0.0164745
895.770	0.0163574
895.848	0.0164574
895.926	0.0166530
896.004	0.0167075
896.082	0.0165516
896.160	0.0166761
896.238	0.0166564
896.317	0.0166982
896.395	0.0166653
896.473	0.0167878
896.551	0.0167246
896.629	0.0167725
896.707	0.0167110
896.785	0.0168625
896.863	0.0165988
896.942	0.0166738
897.020	0.0165804
897.098	0.0165852
897.176	0.0165742
897.254	0.0165452
897.332	0.0166169
897.410	0.0166404
897.488	0.0165340
897.567	0.0165395
897.645	0.0165399
897.723	0.0165181
897.801	0.0165398
897.879	0.0163939
897.957	0.0164391
898.035	0.0163919
898.113	0.0164891
898.192	0.0164815
898.270	0.0163481
898.348	0.0164689
898.426	0.0163783
898.504	0.0163664
898.582	0.0163457
898.660	0.0162151
898.738	0.0162312
898.817	0.0162423
898.895	0.0164118
898.973	0.0162469
899.051	0.0161353
899.129	0.0160980
899.207	0.0162086
899.285	0.0161281
899.363	0.0161414
899.442	0.0162398
899.520	0.0162217
899.598	0.0162415
899.676	0.0162512
899.754	0.0162432
899.832	0.0162573
899.910	0.0164212
899.988	0.0163663
900.067	0.0164066
900.145	0.0163954
900.223	0.0165811
900.301	0.0166043
900.379	0.0164918
900.457	0.0166717
900.535	0.0167805
900.613	0.0167285
900.692	0.0165578
900.770	0.0166702
900.848	0.0166466
900.926	0.0167040
901.004	0.0167253
901.082	0.0167040
901.160	0.0167824
901.238	0.0167744
901.317	0.0169037
901.395	0.0166655
901.473	0.0167766
901.551	0.0166952
901.629	0.0167195
901.707	0.0167200
901.785	0.0167691
901.863	0.0168879
901.942	0.0167799
902.020	0.0165778
902.098	0.0166226
902.176	0.0167504
902.254	0.0167417
902.332	0.0166592
902.410	0.0165990
902.488	0.0166096
902.567	0.0164656
902.645	0.0165343
902.723	0.0165852
902.801	0.0164065
902.879	0.0163892
902.957	0.0164725
903.035	0.0164072
903.113	0.0165578
903.192	0.0164748
903.270	0.0165327
903.348	0.0164693
903.426	0.0163998
903.504	0.0164115
903.582	0.0163795
903.660	0.0165292
903.738	0.0163993
903.817	0.0163612
903.895	0.0163982
903.973	0.0163795
904.051	0.0164315
904.129	0.0164229
904.207	0.0164886
904.285	0.0164317
904.363	0.0162421
904.442	0.0164086
904.520	0.0164046
904.598	0.0165432
904.676	0.0165056
904.754	0.0164038
904.832	0.0162791
904.910	0.0164574
904.988	0.0163323
905.067	0.0162691
905.145	0.0163044
905.223	0.0163879
905.301	0.0163898
905.379	0.0163443
905.457	0.0163758
905.535	0.0164113
905.613	0.0164854
905.692	0.0164199
905.770	0.0164899
905.848	0.0164002
905.926	0.0165791
906.004	0.0166218
906.082	0.0165150
906.160	0.0164865
906.238	0.0166158
906.317	0.0165623
906.395	0.0164330
906.473	0.0165165
906.551	0.0167141
906.629	0.0165118
906.707	0.0166016
906.785	0.0164451
906.863	0.0166119
906.942	0.0165821
907.020	0.0165281
907.098	0.0165694
907.176	0.0165520
907.254	0.0165176
907.332	0.0165562
907.410	0.0167194
907.488	0.0166793
907.567	0.0166587
907.645	0.0166328
907.723	0.0166418
907.801	0.0166683
907.879	0.0165888
907.957	0.0166344
908.035	0.0167914
908.113	0.0167625
908.192	0.0167770
908.270	0.0166383
908.348	0.0167593
908.426	0.0169083
908.504	0.0167567
908.582	0.0167081
908.660	0.0166553
908.738	0.0166623
908.817	0.0167413
908.895	0.0166071
908.973	0.0165219
909.051	0.0166177
909.129	0.0166354
909.207	0.0165547
909.285	0.0164420
909.363	0.0164606
909.442	0.0164498
909.520	0.0164899
909.598	0.0164493
909.676	0.0164527
909.754	0.0163268
909.832	0.0164070
909.910	0.0163509
909.988	0.0163052
910.067	0.0161997
910.145	0.0163007
910.223	0.0163952
910.301	0.0162345
910.379	0.0164174
910.457	0.0164144
910.535	0.0162366
910.613	0.0163226
910.692	0.0163594
910.770	0.0164186
910.848	0.0164809
910.926	0.0164778
911.004	0.0164462
911.082	0.0164793
911.160	0.0166469
911.238	0.0165815
911.317	0.0165330
911.395	0.0165149
911.473	0.0168391
911.551	0.0168681
911.629	0.0166973
911.707	0.0166582
911.785	0.0166962
911.863	0.0165855
911.942	0.0165853
912.020	0.0166602
912.098	0.0165892
912.176	0.0167326
912.254	0.0165459
912.332	0.0166203
912.410	0.0165686
912.488	0.0165424
912.567	0.0164928
912.645	0.0166763
912.723	0.0166355
912.801	0.0164610
912.879	0.0166562
912.957	0.0165388
913.035	0.0165259
913.113	0.0165799
913.192	0.0166286
913.270	0.0165163
913.348	0.0165289
913.426	0.0164339
913.504	0.0164433
913.582	0.0163922
913.660	0.0164986
913.738	0.0164928
913.817	0.0164505
913.895	0.0166004
913.973	0.0163635
914.051	0.0164023
914.129	0.0165151
914.207	0.0163997
914.285	0.0163934
914.363	0.0163482
914.442	0.0162593
914.520	0.0163087
914.598	0.0162593
914.676	0.0162428
914.754	0.0163438
914.832	0.0164478
914.910	0.0163804
914.988	0.0164434
915.067	0.0163821
915.145	0.0164304
915.223	0.0165549
915.301	0.0165710
915.379	0.0165131
915.457	0.0165370
915.535	0.0166970
915.613	0.0166825
915.692	0.0167868
915.770	0.0167467
915.848	0.0168488
915.926	0.0169608
916.004	0.0167249
916.082	0.0167213
916.160	0.0168909
916.238	0.0168193
916.317	0.0169083
916.395	0.0168854
916.473	0.0168079
916.551	0.0167484
916.629	0.0168472
916.707	0.0167190
916.785	0.0166572
916.863	0.0165231
916.942	0.0165789
917.020	0.0165210
917.098	0.0165077
917.176	0.0163856
917.254	0.0163558
917.332	0.0163433
917.410	0.0161761
917.488	0.0162801
917.567	0.0163023
917.645	0.0162792
917.723	0.0163596
917.801	0.0163183
917.879	0.0163498
917.957	0.0163024
918.035	0.0162239
918.113	0.0161364
918.192	0.0161151
918.270	0.0162671
918.348	0.0163957
918.426	0.0162544
918.504	0.0161649
918.582	0.0162392
918.660	0.0163423
918.738	0.0161860
918.817	0.0161439
918.895	0.0162623
918.973	0.0163070
919.051	0.0163953
919.129	0.0164106
919.207	0.0163095
919.285	0.0164583
919.363	0.0165096
919.442	0.0166553
919.520	0.0166259
919.598	0.0166061
919.676	0.0165613
919.754	0.0166362
919.832	0.0167185
919.910	0.0166701
