06/10/2022	16:20:07	Ver.	4.1	UNKNOWN
Optical Delay	599.988409	Delta X		0.078125	Sweeps	1	Scan Rate	0/0
Coordinates	Axis 1	NaN	Axis 2	NaN	Axis 3	NaN	Axis 4	NaN	Axis 5	NaN	Axis 6	0.000000
TX Power	0.000000	RX Power	0.000000

599.988	0.0162660
600.067	0.0161779
600.145	0.0161870
600.223	0.0161372
600.301	0.0162314
600.379	0.0162650
600.457	0.0162280
600.535	0.0162243
600.613	0.0161736
600.692	0.0162606
600.770	0.0162182
600.848	0.0163120
600.926	0.0163129
601.004	0.0162561
601.082	0.0162478
601.160	0.0161975
601.238	0.0161287
601.317	0.0163094
601.395	0.0162933
601.473	0.0162176
601.551	0.0161543
601.629	0.0163239
601.707	0.0163425
601.785	0.0162113
601.863	0.0161787
601.942	0.0161790
602.020	0.0162149
602.098	0.0162458
602.176	0.0161131
602.254	0.0162938
602.332	0.0161572
602.410	0.0162302
602.488	0.0161800
602.567	0.0161562
602.645	0.0161373
602.723	0.0162186
602.801	0.0162402
602.879	0.0161645
602.957	0.0162708
603.035	0.0161328
603.113	0.0163258
603.192	0.0162498
603.270	0.0163229
603.348	0.0163120
603.426	0.0161499
603.504	0.0162163
603.582	0.0162106
603.660	0.0161183
603.738	0.0162825
603.817	0.0163058
603.895	0.0162543
603.973	0.0162390
604.051	0.0161570
604.129	0.0163116
604.207	0.0162316
604.285	0.0162054
604.363	0.0161515
604.442	0.0162196
604.520	0.0162255
604.598	0.0162588
604.676	0.0162347
604.754	0.0163129
604.832	0.0163678
604.910	0.0162979
604.988	0.0162478
605.067	0.0162112
605.145	0.0163188
605.223	0.0163636
605.301	0.0161482
605.379	0.0163034
605.457	0.0162437
605.535	0.0161898
605.613	0.0162616
605.692	0.0162701
605.770	0.0163238
605.848	0.0163158
605.926	0.0164301
606.004	0.0162700
606.082	0.0161858
606.160	0.0162854
606.238	0.0163672
606.317	0.0162993
606.395	0.0162283
606.473	0.0162003
606.551	0.0162681
606.629	0.0162071
606.707	0.0163275
606.785	0.0163549
606.863	0.0162821
606.942	0.0163692
607.020	0.0163246
607.098	0.0163953
607.176	0.0162604
607.254	0.0160557
607.332	0.0162793
607.410	0.0163694
607.488	0.0163067
607.567	0.0163197
607.645	0.0163068
607.723	0.0160859
607.801	0.0162642
607.879	0.0162931
607.957	0.0164162
608.035	0.0163538
608.113	0.0162318
608.192	0.0162500
608.270	0.0163380
608.348	0.0162966
608.426	0.0161555
608.504	0.0162124
608.582	0.0162746
608.660	0.0163486
608.738	0.0161789
608.817	0.0162783
608.895	0.0162967
608.973	0.0163650
609.051	0.0162926
609.129	0.0162213
609.207	0.0162846
609.285	0.0161262
609.363	0.0162897
609.442	0.0162280
609.520	0.0160860
609.598	0.0162627
609.676	0.0163017
609.754	0.0162508
609.832	0.0162043
609.910	0.0161973
609.988	0.0163472
610.067	0.0163413
610.145	0.0162714
610.223	0.0162199
610.301	0.0162537
610.379	0.0163097
610.457	0.0162284
610.535	0.0162053
610.613	0.0162820
610.692	0.0163641
610.770	0.0162785
610.848	0.0163251
610.926	0.0164190
611.004	0.0163244
611.082	0.0161733
611.160	0.0162656
611.238	0.0161961
611.317	0.0163223
611.395	0.0162245
611.473	0.0162515
611.551	0.0162707
611.629	0.0161792
611.707	0.0162812
611.785	0.0162533
611.863	0.0163725
611.942	0.0164322
612.020	0.0163480
612.098	0.0161800
612.176	0.0162910
612.254	0.0162910
612.332	0.0163629
612.410	0.0163627
612.488	0.0161806
612.567	0.0163316
612.645	0.0163012
612.723	0.0163304
612.801	0.0164069
612.879	0.0162645
612.957	0.0162173
613.035	0.0163428
613.113	0.0162852
613.192	0.0162823
613.270	0.0163482
613.348	0.0163289
613.426	0.0161091
613.504	0.0162072
613.582	0.0163311
613.660	0.0163599
613.738	0.0162817
613.817	0.0163383
613.895	0.0162532
613.973	0.0164074
614.051	0.0163059
614.129	0.0163445
614.207	0.0163764
614.285	0.0162585
614.363	0.0162914
614.442	0.0162883
614.520	0.0163335
614.598	0.0162540
614.676	0.0162443
614.754	0.0163097
614.832	0.0162929
614.910	0.0163472
614.988	0.0163409
615.067	0.0161824
615.145	0.0163767
615.223	0.0161377
615.301	0.0161674
615.379	0.0162331
615.457	0.0162681
615.535	0.0163881
615.613	0.0163388
615.692	0.0163000
615.770	0.0163226
615.848	0.0163506
615.926	0.0163480
616.004	0.0162952
616.082	0.0163460
616.160	0.0163194
616.238	0.0163181
616.317	0.0163076
616.395	0.0162463
616.473	0.0163073
616.551	0.0162430
616.629	0.0163753
616.707	0.0163622
616.785	0.0162648
616.863	0.0162530
616.942	0.0161495
617.020	0.0162994
617.098	0.0162887
617.176	0.0163900
617.254	0.0162480
617.332	0.0163531
617.410	0.0162409
617.488	0.0161996
617.567	0.0163531
617.645	0.0162822
617.723	0.0162663
617.801	0.0163915
617.879	0.0162914
617.957	0.0163573
618.035	0.0162000
618.113	0.0162450
618.192	0.0162865
618.270	0.0163291
618.348	0.0163863
618.426	0.0163590
618.504	0.0163417
618.582	0.0161275
618.660	0.0161916
618.738	0.0162887
618.817	0.0163113
618.895	0.0162193
618.973	0.0163066
619.051	0.0163524
619.129	0.0162500
619.207	0.0162344
619.285	0.0163522
619.363	0.0162733
619.442	0.0162740
619.520	0.0162752
619.598	0.0163015
619.676	0.0161790
619.754	0.0161813
619.832	0.0161852
619.910	0.0163937
619.988	0.0162189
620.067	0.0161369
620.145	0.0162829
620.223	0.0160680
620.301	0.0161544
620.379	0.0163810
620.457	0.0162834
620.535	0.0161295
620.613	0.0163475
620.692	0.0163499
620.770	0.0163084
620.848	0.0162360
620.926	0.0162890
621.004	0.0161083
621.082	0.0162586
621.160	0.0164294
621.238	0.0164141
621.317	0.0162903
621.395	0.0162697
621.473	0.0163330
621.551	0.0162537
621.629	0.0162984
621.707	0.0163364
621.785	0.0161034
621.863	0.0163113
621.942	0.0162408
622.020	0.0163255
622.098	0.0162260
622.176	0.0162038
622.254	0.0162860
622.332	0.0162922
622.410	0.0162572
622.488	0.0163570
622.567	0.0162231
622.645	0.0162830
622.723	0.0162571
622.801	0.0162222
622.879	0.0162232
622.957	0.0161694
623.035	0.0162534
623.113	0.0163372
623.192	0.0162482
623.270	0.0161348
623.348	0.0163319
623.426	0.0162827
623.504	0.0164213
623.582	0.0163940
623.660	0.0162208
623.738	0.0162151
623.817	0.0163419
623.895	0.0163362
623.973	0.0162038
624.051	0.0162724
624.129	0.0163522
624.207	0.0162390
624.285	0.0162370
624.363	0.0163422
624.442	0.0162521
624.520	0.0162280
624.598	0.0163787
624.676	0.0163255
624.754	0.0164009
624.832	0.0161792
624.910	0.0163607
624.988	0.0162082
625.067	0.0162505
625.145	0.0162615
625.223	0.0162976
625.301	0.0163445
625.379	0.0162867
625.457	0.0161520
625.535	0.0162511
625.613	0.0163581
625.692	0.0162579
625.770	0.0161555
625.848	0.0162342
625.926	0.0163121
626.004	0.0163768
626.082	0.0163319
626.160	0.0162643
626.238	0.0162667
626.317	0.0163205
626.395	0.0162340
626.473	0.0162217
626.551	0.0163346
626.629	0.0163371
626.707	0.0162024
626.785	0.0162460
626.863	0.0163095
626.942	0.0162560
627.020	0.0163704
627.098	0.0162906
627.176	0.0161902
627.254	0.0163007
627.332	0.0163392
627.410	0.0162859
627.488	0.0163039
627.567	0.0162767
627.645	0.0162621
627.723	0.0163820
627.801	0.0163266
627.879	0.0162898
627.957	0.0163071
628.035	0.0163339
628.113	0.0163187
628.192	0.0163493
628.270	0.0162902
628.348	0.0161682
628.426	0.0162521
628.504	0.0162501
628.582	0.0161827
628.660	0.0162473
628.738	0.0164021
628.817	0.0161876
628.895	0.0162857
628.973	0.0163184
629.051	0.0163614
629.129	0.0162875
629.207	0.0162725
629.285	0.0161825
629.363	0.0162419
629.442	0.0162894
629.520	0.0162047
629.598	0.0162901
629.676	0.0162132
629.754	0.0161903
629.832	0.0161862
629.910	0.0162954
629.988	0.0162443
630.067	0.0162788
630.145	0.0164337
630.223	0.0162220
630.301	0.0161480
630.379	0.0162252
630.457	0.0162917
630.535	0.0161723
630.613	0.0161984
630.692	0.0162140
630.770	0.0164289
630.848	0.0162577
630.926	0.0162783
631.004	0.0163326
631.082	0.0162994
631.160	0.0163283
631.238	0.0162066
631.317	0.0163089
631.395	0.0163505
631.473	0.0165139
631.551	0.0164104
631.629	0.0162704
631.707	0.0161647
631.785	0.0163840
631.863	0.0161887
631.942	0.0161559
632.020	0.0162717
632.098	0.0163068
632.176	0.0164617
632.254	0.0163723
632.332	0.0162313
632.410	0.0161120
632.488	0.0161871
632.567	0.0164166
632.645	0.0164051
632.723	0.0163212
632.801	0.0162575
632.879	0.0162482
632.957	0.0163232
633.035	0.0163116
633.113	0.0161633
633.192	0.0161523
633.270	0.0164079
633.348	0.0163011
633.426	0.0162566
633.504	0.0161812
633.582	0.0162923
633.660	0.0162966
633.738	0.0162912
633.817	0.0164078
633.895	0.0162598
633.973	0.0162543
634.051	0.0162666
634.129	0.0163162
634.207	0.0161669
634.285	0.0161726
634.363	0.0162301
634.442	0.0164004
634.520	0.0162846
634.598	0.0162888
634.676	0.0163726
634.754	0.0162325
634.832	0.0163031
634.910	0.0163305
634.988	0.0163237
635.067	0.0163448
635.145	0.0163602
635.223	0.0161763
635.301	0.0162210
635.379	0.0161864
635.457	0.0162209
635.535	0.0163071
635.613	0.0163036
635.692	0.0161438
635.770	0.0162411
635.848	0.0162309
635.926	0.0163182
636.004	0.0163403
636.082	0.0164312
636.160	0.0162654
636.238	0.0163187
636.317	0.0162936
636.395	0.0161782
636.473	0.0162804
636.551	0.0162572
636.629	0.0164269
636.707	0.0163796
636.785	0.0162852
636.863	0.0160846
636.942	0.0162333
637.020	0.0162138
637.098	0.0163194
637.176	0.0163388
637.254	0.0163625
637.332	0.0161851
637.410	0.0163062
637.488	0.0162615
637.567	0.0163763
637.645	0.0161665
637.723	0.0162743
637.801	0.0162799
637.879	0.0162000
637.957	0.0163774
638.035	0.0163672
638.113	0.0163223
638.192	0.0163425
638.270	0.0162249
638.348	0.0162452
638.426	0.0161520
638.504	0.0162071
638.582	0.0162377
638.660	0.0162457
638.738	0.0163444
638.817	0.0163450
638.895	0.0162260
638.973	0.0162207
639.051	0.0161969
639.129	0.0163116
639.207	0.0161898
639.285	0.0162450
639.363	0.0162592
639.442	0.0161629
639.520	0.0161965
639.598	0.0162820
639.676	0.0163080
639.754	0.0162289
639.832	0.0162348
639.910	0.0162517
639.988	0.0164182
640.067	0.0163463
640.145	0.0163020
640.223	0.0161343
640.301	0.0162390
640.379	0.0162198
640.457	0.0163440
640.535	0.0162575
640.613	0.0161578
640.692	0.0164288
640.770	0.0162194
640.848	0.0161324
640.926	0.0160768
641.004	0.0163043
641.082	0.0161943
641.160	0.0162173
641.238	0.0162902
641.317	0.0161680
641.395	0.0162741
641.473	0.0162505
641.551	0.0162903
641.629	0.0162583
641.707	0.0161979
641.785	0.0163514
641.863	0.0162535
641.942	0.0162939
642.020	0.0162794
642.098	0.0161501
642.176	0.0162802
642.254	0.0162582
642.332	0.0162943
642.410	0.0162477
642.488	0.0161592
642.567	0.0162539
642.645	0.0162041
642.723	0.0162936
642.801	0.0163612
642.879	0.0162867
642.957	0.0163888
643.035	0.0163276
643.113	0.0163062
643.192	0.0162514
643.270	0.0161619
643.348	0.0162939
643.426	0.0163708
643.504	0.0163027
643.582	0.0163119
643.660	0.0162370
643.738	0.0161263
643.817	0.0162540
643.895	0.0161778
643.973	0.0161681
644.051	0.0163828
644.129	0.0163099
644.207	0.0163459
644.285	0.0163378
644.363	0.0164201
644.442	0.0162158
644.520	0.0163215
644.598	0.0162988
644.676	0.0161390
644.754	0.0163033
644.832	0.0163159
644.910	0.0161945
644.988	0.0163529
645.067	0.0163840
645.145	0.0164295
645.223	0.0161865
645.301	0.0164114
645.379	0.0163160
645.457	0.0162700
645.535	0.0162682
645.613	0.0162679
645.692	0.0162594
645.770	0.0162362
645.848	0.0162191
645.926	0.0163373
646.004	0.0161505
646.082	0.0162618
646.160	0.0162646
646.238	0.0162263
646.317	0.0163007
646.395	0.0162885
646.473	0.0163671
646.551	0.0161959
646.629	0.0164088
646.707	0.0161647
646.785	0.0161774
646.863	0.0162301
646.942	0.0162035
647.020	0.0161317
647.098	0.0161926
647.176	0.0162289
647.254	0.0162539
647.332	0.0162126
647.410	0.0162269
647.488	0.0162621
647.567	0.0163452
647.645	0.0162909
647.723	0.0162789
647.801	0.0163068
647.879	0.0162664
647.957	0.0162649
648.035	0.0162363
648.113	0.0162279
648.192	0.0162138
648.270	0.0162977
648.348	0.0163838
648.426	0.0164428
648.504	0.0162902
648.582	0.0162839
648.660	0.0162516
648.738	0.0161312
648.817	0.0162115
648.895	0.0162569
648.973	0.0162415
649.051	0.0162084
649.129	0.0163940
649.207	0.0162103
649.285	0.0163380
649.363	0.0164211
649.442	0.0162124
649.520	0.0160415
649.598	0.0162745
649.676	0.0162355
649.754	0.0162626
649.832	0.0163180
649.910	0.0162816
649.988	0.0161946
650.067	0.0161511
650.145	0.0163007
650.223	0.0162965
650.301	0.0162167
650.379	0.0162860
650.457	0.0163158
650.535	0.0161977
650.613	0.0162873
650.692	0.0162162
650.770	0.0163293
650.848	0.0162640
650.926	0.0162875
651.004	0.0163123
651.082	0.0162766
651.160	0.0162137
651.238	0.0163297
651.317	0.0163134
651.395	0.0161345
651.473	0.0162514
651.551	0.0163186
651.629	0.0161443
651.707	0.0162514
651.785	0.0162614
651.863	0.0163531
651.942	0.0163252
652.020	0.0162432
652.098	0.0163890
652.176	0.0162492
652.254	0.0160981
652.332	0.0163785
652.410	0.0162177
652.488	0.0163871
652.567	0.0161686
652.645	0.0161917
652.723	0.0163708
652.801	0.0162801
652.879	0.0162512
652.957	0.0163300
653.035	0.0162479
653.113	0.0162526
653.192	0.0163430
653.270	0.0162359
653.348	0.0163144
653.426	0.0163997
653.504	0.0162238
653.582	0.0162447
653.660	0.0164911
653.738	0.0162643
653.817	0.0162525
653.895	0.0162725
653.973	0.0161250
654.051	0.0163821
654.129	0.0164231
654.207	0.0163292
654.285	0.0161454
654.363	0.0162905
654.442	0.0162579
654.520	0.0162311
654.598	0.0162141
654.676	0.0164513
654.754	0.0162567
654.832	0.0161320
654.910	0.0164333
654.988	0.0163209
655.067	0.0162032
655.145	0.0162000
655.223	0.0163007
655.301	0.0162784
655.379	0.0163081
655.457	0.0163329
655.535	0.0163358
655.613	0.0162550
655.692	0.0162435
655.770	0.0161720
655.848	0.0162668
655.926	0.0162637
656.004	0.0162418
656.082	0.0161371
656.160	0.0162561
656.238	0.0162498
656.317	0.0162830
656.395	0.0162078
656.473	0.0163396
656.551	0.0163245
656.629	0.0162679
656.707	0.0162830
656.785	0.0161867
656.863	0.0162816
656.942	0.0163039
657.020	0.0164058
657.098	0.0161784
657.176	0.0162392
657.254	0.0162933
657.332	0.0162089
657.410	0.0162067
657.488	0.0162507
657.567	0.0163022
657.645	0.0161488
657.723	0.0161900
657.801	0.0161974
657.879	0.0160715
657.957	0.0162338
658.035	0.0162142
658.113	0.0162952
658.192	0.0161673
658.270	0.0161874
658.348	0.0162862
658.426	0.0162819
658.504	0.0162569
658.582	0.0163848
658.660	0.0162525
658.738	0.0162383
658.817	0.0162224
658.895	0.0163079
658.973	0.0163000
659.051	0.0162206
659.129	0.0163439
659.207	0.0162337
659.285	0.0162600
659.363	0.0163058
659.442	0.0164217
659.520	0.0162405
659.598	0.0163184
659.676	0.0163341
659.754	0.0161778
659.832	0.0161591
659.910	0.0163490
659.988	0.0162627
660.067	0.0163071
660.145	0.0162921
660.223	0.0163612
660.301	0.0163195
660.379	0.0160928
660.457	0.0161645
660.535	0.0163074
660.613	0.0162315
660.692	0.0162315
660.770	0.0164684
660.848	0.0163647
660.926	0.0160931
661.004	0.0161723
661.082	0.0161906
661.160	0.0162222
661.238	0.0159930
661.317	0.0163084
661.395	0.0161905
661.473	0.0162938
661.551	0.0162519
661.629	0.0163094
661.707	0.0162873
661.785	0.0162678
661.863	0.0162514
661.942	0.0160622
662.020	0.0162984
662.098	0.0163440
662.176	0.0161662
662.254	0.0162159
662.332	0.0162524
662.410	0.0163077
662.488	0.0163359
662.567	0.0162717
662.645	0.0162948
662.723	0.0164806
662.801	0.0162595
662.879	0.0163456
662.957	0.0162601
663.035	0.0162757
663.113	0.0162453
663.192	0.0161990
663.270	0.0163367
663.348	0.0164262
663.426	0.0162823
663.504	0.0162479
663.582	0.0163108
663.660	0.0163357
663.738	0.0163703
663.817	0.0162767
663.895	0.0162307
663.973	0.0163282
664.051	0.0162746
664.129	0.0163898
664.207	0.0161938
664.285	0.0162936
664.363	0.0161932
664.442	0.0162918
664.520	0.0163550
664.598	0.0162873
664.676	0.0162714
664.754	0.0161539
664.832	0.0162465
664.910	0.0163301
664.988	0.0162878
665.067	0.0162730
665.145	0.0162685
665.223	0.0161938
665.301	0.0162614
665.379	0.0164111
665.457	0.0163834
665.535	0.0164628
665.613	0.0163043
665.692	0.0162640
665.770	0.0161986
665.848	0.0162316
665.926	0.0162627
666.004	0.0163745
666.082	0.0162355
666.160	0.0163203
666.238	0.0161862
666.317	0.0162151
666.395	0.0162291
666.473	0.0162988
666.551	0.0162048
666.629	0.0162196
666.707	0.0162501
666.785	0.0162457
666.863	0.0162424
666.942	0.0162837
667.020	0.0162828
667.098	0.0161583
667.176	0.0161674
667.254	0.0163515
667.332	0.0162469
667.410	0.0163246
667.488	0.0162527
667.567	0.0163019
667.645	0.0163034
667.723	0.0162897
667.801	0.0162099
667.879	0.0163783
667.957	0.0162486
668.035	0.0161960
668.113	0.0162332
668.192	0.0162433
668.270	0.0162468
668.348	0.0162644
668.426	0.0162805
668.504	0.0162525
668.582	0.0163351
668.660	0.0162418
668.738	0.0163003
668.817	0.0162211
668.895	0.0162511
668.973	0.0163062
669.051	0.0161450
669.129	0.0162514
669.207	0.0162864
669.285	0.0162929
669.363	0.0161572
669.442	0.0161994
669.520	0.0160761
669.598	0.0162321
669.676	0.0162323
669.754	0.0160986
669.832	0.0161605
669.910	0.0163998
669.988	0.0162679
670.067	0.0161951
670.145	0.0162651
670.223	0.0162215
670.301	0.0161921
670.379	0.0162914
670.457	0.0162385
670.535	0.0163439
670.613	0.0162599
670.692	0.0162416
670.770	0.0163107
670.848	0.0163287
670.926	0.0162316
671.004	0.0162730
671.082	0.0162995
671.160	0.0162086
671.238	0.0162743
671.317	0.0163258
671.395	0.0162823
671.473	0.0162173
671.551	0.0163410
671.629	0.0163267
671.707	0.0162188
671.785	0.0163199
671.863	0.0163693
671.942	0.0161246
672.020	0.0161507
672.098	0.0162016
672.176	0.0164479
672.254	0.0163071
672.332	0.0163626
672.410	0.0162167
672.488	0.0161816
672.567	0.0163541
672.645	0.0162991
672.723	0.0163004
672.801	0.0163676
672.879	0.0165062
672.957	0.0162600
673.035	0.0163349
673.113	0.0162299
673.192	0.0161234
673.270	0.0162766
673.348	0.0163643
673.426	0.0163548
673.504	0.0163285
673.582	0.0163499
673.660	0.0163266
673.738	0.0162051
673.817	0.0163187
673.895	0.0163161
673.973	0.0163592
674.051	0.0161386
674.129	0.0162312
674.207	0.0163798
674.285	0.0164082
674.363	0.0161961
674.442	0.0162351
674.520	0.0162727
674.598	0.0161802
674.676	0.0162520
674.754	0.0164204
674.832	0.0162404
674.910	0.0162288
674.988	0.0162112
675.067	0.0162340
675.145	0.0162651
675.223	0.0162621
675.301	0.0163972
675.379	0.0162124
675.457	0.0163821
675.535	0.0163099
675.613	0.0163845
675.692	0.0162187
675.770	0.0162627
675.848	0.0161765
675.926	0.0163310
676.004	0.0164234
676.082	0.0163346
676.160	0.0162371
676.238	0.0163393
676.317	0.0162476
676.395	0.0162291
676.473	0.0162146
676.551	0.0163131
676.629	0.0162605
676.707	0.0162897
676.785	0.0162832
676.863	0.0162206
676.942	0.0162569
677.020	0.0163296
677.098	0.0163912
677.176	0.0163503
677.254	0.0163152
677.332	0.0162043
677.410	0.0163715
677.488	0.0163499
677.567	0.0161264
677.645	0.0163889
677.723	0.0163965
677.801	0.0161819
677.879	0.0162835
677.957	0.0162928
678.035	0.0163156
678.113	0.0161748
678.192	0.0163046
678.270	0.0163223
678.348	0.0164381
678.426	0.0163196
678.504	0.0162143
678.582	0.0162712
678.660	0.0164238
678.738	0.0161954
678.817	0.0161971
678.895	0.0163319
678.973	0.0162656
679.051	0.0162408
679.129	0.0163099
679.207	0.0162197
679.285	0.0162459
679.363	0.0161857
679.442	0.0160787
679.520	0.0163357
679.598	0.0163046
679.676	0.0162015
679.754	0.0162088
679.832	0.0163391
679.910	0.0163229
679.988	0.0164482
680.067	0.0163713
680.145	0.0163194
680.223	0.0162992
680.301	0.0163664
680.379	0.0163624
680.457	0.0163171
680.535	0.0162550
680.613	0.0162711
680.692	0.0163499
680.770	0.0162714
680.848	0.0162316
680.926	0.0162836
681.004	0.0164048
681.082	0.0164590
681.160	0.0162858
681.238	0.0162118
681.317	0.0161824
681.395	0.0161755
681.473	0.0161719
681.551	0.0163833
681.629	0.0162752
681.707	0.0161797
681.785	0.0162592
681.863	0.0162372
681.942	0.0162582
682.020	0.0161871
682.098	0.0162617
682.176	0.0164574
682.254	0.0162086
682.332	0.0161531
682.410	0.0162765
682.488	0.0162559
682.567	0.0161699
682.645	0.0161627
682.723	0.0163684
682.801	0.0163208
682.879	0.0162101
682.957	0.0162341
683.035	0.0163722
683.113	0.0162790
683.192	0.0163522
683.270	0.0163371
683.348	0.0162044
683.426	0.0162089
683.504	0.0163846
683.582	0.0162024
683.660	0.0162753
683.738	0.0164493
683.817	0.0162124
683.895	0.0163396
683.973	0.0163086
684.051	0.0162182
684.129	0.0162926
684.207	0.0162968
684.285	0.0162777
684.363	0.0161832
684.442	0.0163583
684.520	0.0162015
684.598	0.0162799
684.676	0.0162000
684.754	0.0162514
684.832	0.0162052
684.910	0.0161453
684.988	0.0163689
685.067	0.0161755
685.145	0.0161249
685.223	0.0163639
685.301	0.0161991
685.379	0.0162599
685.457	0.0162194
685.535	0.0160756
685.613	0.0163660
685.692	0.0163902
685.770	0.0161758
685.848	0.0162322
685.926	0.0162498
686.004	0.0161464
686.082	0.0161634
686.160	0.0162320
686.238	0.0162402
686.317	0.0162794
686.395	0.0162008
686.473	0.0162576
686.551	0.0163658
686.629	0.0163327
686.707	0.0162478
686.785	0.0162588
686.863	0.0162887
686.942	0.0162324
687.020	0.0162688
687.098	0.0162888
687.176	0.0163969
687.254	0.0162661
687.332	0.0161997
687.410	0.0163023
687.488	0.0163194
687.567	0.0162696
687.645	0.0161706
687.723	0.0164174
687.801	0.0164737
687.879	0.0162964
687.957	0.0161486
688.035	0.0162458
688.113	0.0162529
688.192	0.0160831
688.270	0.0162456
688.348	0.0163187
688.426	0.0161986
688.504	0.0161204
688.582	0.0162294
688.660	0.0163437
688.738	0.0162992
688.817	0.0162309
688.895	0.0162685
688.973	0.0162633
689.051	0.0161696
689.129	0.0161896
689.207	0.0162667
689.285	0.0162921
689.363	0.0162711
689.442	0.0161562
689.520	0.0162922
689.598	0.0161757
689.676	0.0163102
689.754	0.0163162
689.832	0.0162368
689.910	0.0162524
689.988	0.0163500
690.067	0.0162257
690.145	0.0161071
690.223	0.0162731
690.301	0.0162307
690.379	0.0162234
690.457	0.0162478
690.535	0.0161382
690.613	0.0162055
690.692	0.0162952
690.770	0.0162395
690.848	0.0162131
690.926	0.0163515
691.004	0.0162815
691.082	0.0162940
691.160	0.0163398
691.238	0.0163830
691.317	0.0161624
691.395	0.0162995
691.473	0.0163219
691.551	0.0163734
691.629	0.0161962
691.707	0.0163345
691.785	0.0163393
691.863	0.0162615
691.942	0.0162100
692.020	0.0163879
692.098	0.0163473
692.176	0.0162913
692.254	0.0162601
692.332	0.0162199
692.410	0.0163082
692.488	0.0163009
692.567	0.0163948
692.645	0.0162359
692.723	0.0162038
692.801	0.0163364
692.879	0.0163224
692.957	0.0163459
693.035	0.0161824
693.113	0.0161432
693.192	0.0161340
693.270	0.0163062
693.348	0.0164146
693.426	0.0161653
693.504	0.0163779
693.582	0.0163861
693.660	0.0163452
693.738	0.0162855
693.817	0.0162280
693.895	0.0163972
693.973	0.0161896
694.051	0.0161810
694.129	0.0161172
694.207	0.0163815
694.285	0.0163515
694.363	0.0162527
694.442	0.0161373
694.520	0.0160862
694.598	0.0164463
694.676	0.0163885
694.754	0.0161433
694.832	0.0162177
694.910	0.0162250
694.988	0.0162112
695.067	0.0163155
695.145	0.0162278
695.223	0.0162659
695.301	0.0162778
695.379	0.0162451
695.457	0.0161890
695.535	0.0162714
695.613	0.0163247
695.692	0.0162921
695.770	0.0163906
695.848	0.0161804
695.926	0.0163790
696.004	0.0164131
696.082	0.0162776
696.160	0.0163501
696.238	0.0163537
696.317	0.0162412
696.395	0.0162701
696.473	0.0162453
696.551	0.0163976
696.629	0.0163977
696.707	0.0162356
696.785	0.0162370
696.863	0.0163393
696.942	0.0163258
697.020	0.0162041
697.098	0.0163293
697.176	0.0163514
697.254	0.0163230
697.332	0.0162983
697.410	0.0163026
697.488	0.0162944
697.567	0.0164156
697.645	0.0161797
697.723	0.0162154
697.801	0.0162991
697.879	0.0162966
697.957	0.0162450
698.035	0.0162283
698.113	0.0163605
698.192	0.0164627
698.270	0.0164336
698.348	0.0163343
698.426	0.0162467
698.504	0.0163367
698.582	0.0162831
698.660	0.0162914
698.738	0.0161794
698.817	0.0162820
698.895	0.0162192
698.973	0.0162492
699.051	0.0163493
699.129	0.0163456
699.207	0.0163664
699.285	0.0162080
699.363	0.0163167
699.442	0.0162668
699.520	0.0163136
699.598	0.0163266
699.676	0.0162115
699.754	0.0161685
699.832	0.0162527
699.910	0.0163949
699.988	0.0162314
700.067	0.0163295
700.145	0.0163477
700.223	0.0161746
700.301	0.0162878
700.379	0.0163668
700.457	0.0163103
700.535	0.0162941
700.613	0.0163288
700.692	0.0161872
700.770	0.0163316
700.848	0.0163628
700.926	0.0162743
701.004	0.0162872
701.082	0.0163615
701.160	0.0163482
701.238	0.0164431
701.317	0.0162865
701.395	0.0162280
701.473	0.0161848
701.551	0.0162741
701.629	0.0163396
701.707	0.0161262
701.785	0.0161820
701.863	0.0162979
701.942	0.0162408
702.020	0.0161710
702.098	0.0163975
702.176	0.0162724
702.254	0.0162576
702.332	0.0163460
702.410	0.0162983
702.488	0.0161678
702.567	0.0162365
702.645	0.0162154
702.723	0.0162383
702.801	0.0162653
702.879	0.0164393
702.957	0.0164391
703.035	0.0162816
703.113	0.0161932
703.192	0.0161320
703.270	0.0162647
703.348	0.0163816
703.426	0.0163080
703.504	0.0162672
703.582	0.0162679
703.660	0.0163065
703.738	0.0162092
703.817	0.0162577
703.895	0.0161603
703.973	0.0161798
704.051	0.0162312
704.129	0.0162350
704.207	0.0164687
704.285	0.0162994
704.363	0.0162456
704.442	0.0161958
704.520	0.0162064
704.598	0.0162698
704.676	0.0163950
704.754	0.0163155
704.832	0.0162917
704.910	0.0162865
704.988	0.0162772
705.067	0.0162668
705.145	0.0162244
705.223	0.0161530
705.301	0.0163110
705.379	0.0163828
705.457	0.0162440
705.535	0.0163736
705.613	0.0163181
705.692	0.0161946
705.770	0.0163281
705.848	0.0162706
705.926	0.0161652
706.004	0.0163055
706.082	0.0164478
706.160	0.0162907
706.238	0.0162724
706.317	0.0162596
706.395	0.0162804
706.473	0.0161566
706.551	0.0162138
706.629	0.0163152
706.707	0.0162731
706.785	0.0161427
706.863	0.0161562
706.942	0.0163510
707.020	0.0163479
707.098	0.0162980
707.176	0.0162207
707.254	0.0161456
707.332	0.0163107
707.410	0.0163229
707.488	0.0163232
707.567	0.0162229
707.645	0.0162467
707.723	0.0163143
707.801	0.0162631
707.879	0.0162203
707.957	0.0162595
708.035	0.0163316
708.113	0.0162467
708.192	0.0162421
708.270	0.0162316
708.348	0.0163049
708.426	0.0163612
708.504	0.0162537
708.582	0.0163589
708.660	0.0164072
708.738	0.0161813
708.817	0.0162711
708.895	0.0162832
708.973	0.0162836
709.051	0.0162994
709.129	0.0162848
709.207	0.0162727
709.285	0.0161704
709.363	0.0162195
709.442	0.0162721
709.520	0.0162156
709.598	0.0162619
709.676	0.0163206
709.754	0.0163490
709.832	0.0161916
709.910	0.0162611
709.988	0.0164643
710.067	0.0161871
710.145	0.0163787
710.223	0.0162810
710.301	0.0163285
710.379	0.0162675
710.457	0.0162577
710.535	0.0162827
710.613	0.0162467
710.692	0.0162717
710.770	0.0163287
710.848	0.0164041
710.926	0.0162811
711.004	0.0163301
711.082	0.0162189
711.160	0.0162341
711.238	0.0162443
711.317	0.0162981
711.395	0.0161870
711.473	0.0161147
711.551	0.0161679
711.629	0.0162856
711.707	0.0164113
711.785	0.0162084
711.863	0.0161661
711.942	0.0162112
712.020	0.0162742
712.098	0.0162781
712.176	0.0161138
712.254	0.0163369
712.332	0.0162092
712.410	0.0163125
712.488	0.0162418
712.567	0.0162720
712.645	0.0161895
712.723	0.0162428
712.801	0.0162151
712.879	0.0163136
712.957	0.0163099
713.035	0.0162140
713.113	0.0162044
713.192	0.0162927
713.270	0.0163053
713.348	0.0161010
713.426	0.0162659
713.504	0.0162541
713.582	0.0162889
713.660	0.0162436
713.738	0.0162571
713.817	0.0162537
713.895	0.0162041
713.973	0.0162848
714.051	0.0162228
714.129	0.0161438
714.207	0.0161185
714.285	0.0162112
714.363	0.0163017
714.442	0.0162712
714.520	0.0161640
714.598	0.0162843
714.676	0.0162855
714.754	0.0162283
714.832	0.0161907
714.910	0.0161987
714.988	0.0163666
715.067	0.0162689
715.145	0.0163571
715.223	0.0163340
715.301	0.0163114
715.379	0.0162235
715.457	0.0162502
715.535	0.0162759
715.613	0.0161989
715.692	0.0162935
715.770	0.0162625
715.848	0.0161898
715.926	0.0162508
716.004	0.0163757
716.082	0.0162299
716.160	0.0162665
716.238	0.0163102
716.317	0.0163044
716.395	0.0160686
716.473	0.0162717
716.551	0.0163624
716.629	0.0163735
716.707	0.0162679
716.785	0.0160662
716.863	0.0161184
716.942	0.0161450
717.020	0.0162804
717.098	0.0164223
717.176	0.0162949
717.254	0.0162405
717.332	0.0164359
717.410	0.0162502
717.488	0.0162233
717.567	0.0161279
717.645	0.0161672
717.723	0.0163964
717.801	0.0162210
717.879	0.0161336
717.957	0.0162682
718.035	0.0160873
718.113	0.0162643
718.192	0.0161929
718.270	0.0162433
718.348	0.0162988
718.426	0.0162488
718.504	0.0160870
718.582	0.0161828
718.660	0.0163219
718.738	0.0162830
718.817	0.0163071
718.895	0.0161578
718.973	0.0160806
719.051	0.0161827
719.129	0.0162274
719.207	0.0163752
719.285	0.0163046
719.363	0.0162737
719.442	0.0162128
719.520	0.0161991
719.598	0.0163105
719.676	0.0160548
719.754	0.0161911
719.832	0.0163828
719.910	0.0163333
719.988	0.0162711
720.067	0.0162846
720.145	0.0162508
720.223	0.0162508
720.301	0.0162595
720.379	0.0162669
720.457	0.0162987
720.535	0.0162677
720.613	0.0164232
720.692	0.0163146
720.770	0.0162769
720.848	0.0161417
720.926	0.0162512
721.004	0.0163292
721.082	0.0162493
721.160	0.0160870
721.238	0.0161726
721.317	0.0162112
721.395	0.0162440
721.473	0.0161412
721.551	0.0162029
721.629	0.0162511
721.707	0.0162819
721.785	0.0161870
721.863	0.0161227
721.942	0.0162877
722.020	0.0161823
722.098	0.0163136
722.176	0.0161138
722.254	0.0162147
722.332	0.0162688
722.410	0.0163056
722.488	0.0163544
722.567	0.0163206
722.645	0.0162801
722.723	0.0162587
722.801	0.0163734
722.879	0.0162536
722.957	0.0162146
723.035	0.0161935
723.113	0.0163448
723.192	0.0163396
723.270	0.0162489
723.348	0.0164328
723.426	0.0163073
723.504	0.0162945
723.582	0.0162554
723.660	0.0160990
723.738	0.0162296
723.817	0.0163488
723.895	0.0162148
723.973	0.0162140
724.051	0.0162739
724.129	0.0162476
724.207	0.0162623
724.285	0.0162040
724.363	0.0162663
724.442	0.0163416
724.520	0.0161788
724.598	0.0161226
724.676	0.0162811
724.754	0.0164080
724.832	0.0162884
724.910	0.0163778
724.988	0.0163302
725.067	0.0162524
725.145	0.0163242
725.223	0.0162575
725.301	0.0162248
725.379	0.0162466
725.457	0.0162611
725.535	0.0163543
725.613	0.0163042
725.692	0.0162457
725.770	0.0161270
725.848	0.0161533
725.926	0.0163062
726.004	0.0163147
726.082	0.0163430
726.160	0.0162885
726.238	0.0163733
726.317	0.0162889
726.395	0.0163705
726.473	0.0164237
726.551	0.0162566
726.629	0.0162775
726.707	0.0163706
726.785	0.0162724
726.863	0.0163431
726.942	0.0163245
727.020	0.0163656
727.098	0.0162611
727.176	0.0163097
727.254	0.0163873
727.332	0.0163140
727.410	0.0162717
727.488	0.0164106
727.567	0.0162547
727.645	0.0163326
727.723	0.0163834
727.801	0.0162920
727.879	0.0163193
727.957	0.0163414
728.035	0.0163498
728.113	0.0162806
728.192	0.0162994
728.270	0.0164066
728.348	0.0162785
728.426	0.0163055
728.504	0.0163682
728.582	0.0162933
728.660	0.0163726
728.738	0.0163495
728.817	0.0163305
728.895	0.0162777
728.973	0.0162597
729.051	0.0162859
729.129	0.0163396
729.207	0.0163107
729.285	0.0163308
729.363	0.0163077
729.442	0.0162770
729.520	0.0163177
729.598	0.0163344
729.676	0.0164487
729.754	0.0163070
729.832	0.0162942
729.910	0.0163623
729.988	0.0164700
730.067	0.0163377
730.145	0.0164589
730.223	0.0163612
730.301	0.0163190
730.379	0.0163268
730.457	0.0163797
730.535	0.0162681
730.613	0.0164150
730.692	0.0163441
730.770	0.0164232
730.848	0.0164089
730.926	0.0162507
731.004	0.0162685
731.082	0.0163578
731.160	0.0163100
731.238	0.0162234
731.317	0.0162965
731.395	0.0164322
731.473	0.0163407
731.551	0.0162633
731.629	0.0162735
731.707	0.0163093
731.785	0.0160674
731.863	0.0163242
731.942	0.0163293
732.020	0.0163804
732.098	0.0162840
732.176	0.0162400
732.254	0.0163395
732.332	0.0162239
732.410	0.0161720
732.488	0.0161962
732.567	0.0161855
732.645	0.0162522
732.723	0.0162502
732.801	0.0163416
732.879	0.0162500
732.957	0.0163406
733.035	0.0163116
733.113	0.0164143
733.192	0.0162554
733.270	0.0163222
733.348	0.0162695
733.426	0.0162082
733.504	0.0163996
733.582	0.0162574
733.660	0.0163889
733.738	0.0162623
733.817	0.0162198
733.895	0.0162157
733.973	0.0162518
734.051	0.0161729
734.129	0.0162694
734.207	0.0161919
734.285	0.0163403
734.363	0.0162322
734.442	0.0161854
734.520	0.0162875
734.598	0.0161813
734.676	0.0162009
734.754	0.0162546
734.832	0.0163998
734.910	0.0161945
734.988	0.0162549
735.067	0.0163356
735.145	0.0163165
735.223	0.0163925
735.301	0.0162922
735.379	0.0161960
735.457	0.0162776
735.535	0.0163353
735.613	0.0162207
735.692	0.0162785
735.770	0.0162645
735.848	0.0162621
735.926	0.0162305
736.004	0.0162270
736.082	0.0163384
736.160	0.0163452
736.238	0.0161536
736.317	0.0161872
736.395	0.0163808
736.473	0.0161605
736.551	0.0162338
736.629	0.0162642
736.707	0.0163648
736.785	0.0160783
736.863	0.0161436
736.942	0.0161891
737.020	0.0162637
737.098	0.0164367
737.176	0.0162447
737.254	0.0162539
737.332	0.0162643
737.410	0.0162266
737.488	0.0163382
737.567	0.0162092
737.645	0.0163009
737.723	0.0162102
737.801	0.0162447
737.879	0.0164248
737.957	0.0162650
738.035	0.0163483
738.113	0.0163185
738.192	0.0162065
738.270	0.0163174
738.348	0.0162523
738.426	0.0163116
738.504	0.0164472
738.582	0.0163382
738.660	0.0163297
738.738	0.0162237
738.817	0.0162090
738.895	0.0163835
738.973	0.0163096
739.051	0.0162682
739.129	0.0162061
739.207	0.0163015
739.285	0.0162212
739.363	0.0163415
739.442	0.0161539
739.520	0.0161559
739.598	0.0162424
739.676	0.0161671
739.754	0.0160110
739.832	0.0158821
739.910	0.0157554
739.988	0.0157421
740.067	0.0157961
740.145	0.0159233
740.223	0.0159953
740.301	0.0162106
740.379	0.0164864
740.457	0.0165713
740.535	0.0166747
740.613	0.0168526
740.692	0.0170558
740.770	0.0171471
740.848	0.0170871
740.926	0.0170806
741.004	0.0169168
741.082	0.0169021
741.160	0.0166527
741.238	0.0164987
741.317	0.0162650
741.395	0.0161282
741.473	0.0159813
741.551	0.0155720
741.629	0.0152657
741.707	0.0150619
741.785	0.0147061
741.863	0.0146584
741.942	0.0146738
742.020	0.0145961
742.098	0.0147304
742.176	0.0151414
742.254	0.0156148
742.332	0.0160934
742.410	0.0168014
742.488	0.0175491
742.567	0.0180564
742.645	0.0185290
742.723	0.0187020
742.801	0.0185550
742.879	0.0182879
742.957	0.0180476
743.035	0.0173376
743.113	0.0164832
743.192	0.0160764
743.270	0.0155173
743.348	0.0152505
743.426	0.0150320
743.504	0.0150944
743.582	0.0150043
743.660	0.0151750
743.738	0.0154630
743.817	0.0156364
743.895	0.0156435
743.973	0.0157013
744.051	0.0155968
744.129	0.0155611
744.207	0.0153455
744.285	0.0151807
744.363	0.0149408
744.442	0.0149409
744.520	0.0149232
744.598	0.0154169
744.676	0.0159804
744.754	0.0165991
744.832	0.0172366
744.910	0.0180534
744.988	0.0186026
745.067	0.0191916
745.145	0.0191466
745.223	0.0189432
745.301	0.0185585
745.379	0.0180014
745.457	0.0173816
745.535	0.0166425
745.613	0.0162154
745.692	0.0157522
745.770	0.0153662
745.848	0.0148934
745.926	0.0147590
746.004	0.0145293
746.082	0.0144320
746.160	0.0143277
746.238	0.0143035
746.317	0.0143022
746.395	0.0144607
746.473	0.0145925
746.551	0.0148190
746.629	0.0152070
746.707	0.0154752
746.785	0.0158775
746.863	0.0164215
746.942	0.0169014
747.020	0.0173915
747.098	0.0177834
747.176	0.0180753
747.254	0.0183562
747.332	0.0186266
747.410	0.0186676
747.488	0.0189030
747.567	0.0188610
747.645	0.0185237
747.723	0.0180819
747.801	0.0175477
747.879	0.0167353
747.957	0.0159280
748.035	0.0152469
748.113	0.0146525
748.192	0.0142471
748.270	0.0140531
748.348	0.0141114
748.426	0.0140630
748.504	0.0144653
748.582	0.0146603
748.660	0.0151387
748.738	0.0153950
748.817	0.0157078
748.895	0.0158466
748.973	0.0162342
749.051	0.0164998
749.129	0.0167899
749.207	0.0167313
749.285	0.0169092
749.363	0.0168930
749.442	0.0169527
749.520	0.0169656
749.598	0.0170485
749.676	0.0170325
749.754	0.0171599
749.832	0.0172099
749.910	0.0173722
749.988	0.0173402
750.067	0.0173386
750.145	0.0174241
750.223	0.0171693
750.301	0.0170656
750.379	0.0167475
750.457	0.0166978
750.535	0.0163596
750.613	0.0159460
750.692	0.0156824
750.770	0.0155303
750.848	0.0153790
750.926	0.0153511
751.004	0.0151228
751.082	0.0151012
751.160	0.0151917
751.238	0.0153162
751.317	0.0156232
751.395	0.0158315
751.473	0.0158643
751.551	0.0160873
751.629	0.0163726
751.707	0.0165877
751.785	0.0166021
751.863	0.0166262
751.942	0.0168312
752.020	0.0169072
752.098	0.0169044
752.176	0.0168787
752.254	0.0168997
752.332	0.0168927
752.410	0.0166978
752.488	0.0165894
752.567	0.0164587
752.645	0.0164548
752.723	0.0163588
752.801	0.0163506
752.879	0.0162164
752.957	0.0163403
753.035	0.0163423
753.113	0.0165302
753.192	0.0164850
753.270	0.0164396
753.348	0.0164401
753.426	0.0164472
753.504	0.0163165
753.582	0.0162072
753.660	0.0161581
753.738	0.0161267
753.817	0.0159978
753.895	0.0158493
753.973	0.0158817
754.051	0.0159165
754.129	0.0159045
754.207	0.0158618
754.285	0.0158450
754.363	0.0159441
754.442	0.0160406
754.520	0.0161401
754.598	0.0162254
754.676	0.0162872
754.754	0.0164752
754.832	0.0164814
754.910	0.0165620
754.988	0.0167807
755.067	0.0168472
755.145	0.0168539
755.223	0.0169598
755.301	0.0166618
755.379	0.0166469
755.457	0.0166695
755.535	0.0163641
755.613	0.0161562
755.692	0.0160065
755.770	0.0161077
755.848	0.0158902
755.926	0.0157247
756.004	0.0158823
756.082	0.0158881
756.160	0.0159727
756.238	0.0161470
756.317	0.0161874
756.395	0.0162807
756.473	0.0164198
756.551	0.0165290
756.629	0.0164928
756.707	0.0165410
756.785	0.0165682
756.863	0.0166849
756.942	0.0166573
757.020	0.0165684
757.098	0.0166725
757.176	0.0167348
757.254	0.0166982
757.332	0.0165875
757.410	0.0167210
757.488	0.0166013
757.567	0.0164633
757.645	0.0163988
757.723	0.0161662
757.801	0.0160523
757.879	0.0158034
757.957	0.0157366
758.035	0.0155821
758.113	0.0154530
758.192	0.0155660
758.270	0.0155251
758.348	0.0154007
758.426	0.0154882
758.504	0.0155573
758.582	0.0154420
758.660	0.0154917
758.738	0.0157330
758.817	0.0158778
758.895	0.0158829
758.973	0.0163161
759.051	0.0164545
759.129	0.0167837
759.207	0.0169601
759.285	0.0169974
759.363	0.0171785
759.442	0.0174470
759.520	0.0174579
759.598	0.0174020
759.676	0.0173276
759.754	0.0175103
759.832	0.0174052
759.910	0.0175027
759.988	0.0173853
760.067	0.0175171
760.145	0.0173839
760.223	0.0173851
760.301	0.0171608
760.379	0.0168946
760.457	0.0167233
760.535	0.0163842
760.613	0.0159624
760.692	0.0155127
760.770	0.0153049
760.848	0.0149081
760.926	0.0145961
761.004	0.0142534
761.082	0.0140125
761.160	0.0137940
761.238	0.0138068
761.317	0.0137409
761.395	0.0138013
761.473	0.0139707
761.551	0.0143329
761.629	0.0146295
761.707	0.0150499
761.785	0.0153909
761.863	0.0157877
761.942	0.0159668
762.020	0.0163737
762.098	0.0169642
762.176	0.0171203
762.254	0.0174014
762.332	0.0177074
762.410	0.0178970
762.488	0.0181217
762.567	0.0183455
762.645	0.0186635
762.723	0.0186161
762.801	0.0186343
762.879	0.0186429
762.957	0.0186072
763.035	0.0182757
763.113	0.0181736
763.192	0.0181047
763.270	0.0180198
763.348	0.0174954
763.426	0.0172097
763.504	0.0169653
763.582	0.0167467
763.660	0.0163277
763.738	0.0159734
763.817	0.0155643
763.895	0.0150274
763.973	0.0147725
764.051	0.0144387
764.129	0.0143358
764.207	0.0141857
764.285	0.0142722
764.363	0.0142832
764.442	0.0143451
764.520	0.0145691
764.598	0.0146814
764.676	0.0146187
764.754	0.0147974
764.832	0.0148026
764.910	0.0148810
764.988	0.0149152
765.067	0.0150239
765.145	0.0152055
765.223	0.0153313
765.301	0.0155621
765.379	0.0156326
765.457	0.0156166
765.535	0.0156681
765.613	0.0157411
765.692	0.0156912
765.770	0.0160061
765.848	0.0163095
765.926	0.0164563
766.004	0.0166796
766.082	0.0171708
766.160	0.0176517
766.238	0.0182680
766.317	0.0185751
766.395	0.0187590
766.473	0.0191126
766.551	0.0193795
766.629	0.0193716
766.707	0.0193620
766.785	0.0191212
766.863	0.0188410
766.942	0.0184676
767.020	0.0181171
767.098	0.0174627
767.176	0.0169505
767.254	0.0163602
767.332	0.0156756
767.410	0.0150534
767.488	0.0144820
767.567	0.0144366
767.645	0.0142892
767.723	0.0140153
767.801	0.0137640
767.879	0.0139611
767.957	0.0141787
768.035	0.0144095
768.113	0.0148454
768.192	0.0152682
768.270	0.0155689
768.348	0.0161701
768.426	0.0165442
768.504	0.0171039
768.582	0.0174000
768.660	0.0177116
768.738	0.0176969
768.817	0.0177657
768.895	0.0175047
768.973	0.0173145
769.051	0.0168459
769.129	0.0164655
769.207	0.0160337
769.285	0.0155679
769.363	0.0151307
769.442	0.0147885
769.520	0.0143584
769.598	0.0139834
769.676	0.0138352
769.754	0.0138022
769.832	0.0137087
769.910	0.0135840
769.988	0.0136777
770.067	0.0139048
770.145	0.0141269
770.223	0.0144247
770.301	0.0149210
770.379	0.0154489
770.457	0.0159459
770.535	0.0164747
770.613	0.0170774
770.692	0.0176321
770.770	0.0181717
770.848	0.0185380
770.926	0.0191193
771.004	0.0194844
771.082	0.0194398
771.160	0.0196434
771.238	0.0196967
771.317	0.0194023
771.395	0.0192289
771.473	0.0190595
771.551	0.0188712
771.629	0.0185501
771.707	0.0181646
771.785	0.0179836
771.863	0.0176591
771.942	0.0174924
772.020	0.0171667
772.098	0.0170094
772.176	0.0168020
772.254	0.0165057
772.332	0.0165351
772.410	0.0164204
772.488	0.0162925
772.567	0.0162309
772.645	0.0161420
772.723	0.0160343
772.801	0.0159047
772.879	0.0157693
772.957	0.0156084
773.035	0.0153789
773.113	0.0149847
773.192	0.0145222
773.270	0.0141070
773.348	0.0136311
773.426	0.0134306
773.504	0.0128691
773.582	0.0125429
773.660	0.0123221
773.738	0.0122063
773.817	0.0120509
773.895	0.0121662
773.973	0.0123809
774.051	0.0125267
774.129	0.0126384
774.207	0.0128043
774.285	0.0134765
774.363	0.0138294
774.442	0.0142536
774.520	0.0146967
774.598	0.0152818
774.676	0.0158698
774.754	0.0164489
774.832	0.0172198
774.910	0.0180106
774.988	0.0185856
775.067	0.0193420
775.145	0.0201660
775.223	0.0208331
775.301	0.0214572
775.379	0.0219839
775.457	0.0223679
775.535	0.0227218
775.613	0.0228030
775.692	0.0228937
775.770	0.0227305
775.848	0.0223430
775.926	0.0218114
776.004	0.0212557
776.082	0.0203000
776.160	0.0195450
776.238	0.0186185
776.317	0.0176590
776.395	0.0166316
776.473	0.0157344
776.551	0.0149607
776.629	0.0142522
776.707	0.0135075
776.785	0.0127409
776.863	0.0124879
776.942	0.0121282
777.020	0.0120222
777.098	0.0119736
777.176	0.0120319
777.254	0.0120229
777.332	0.0122339
777.410	0.0125941
777.488	0.0128439
777.567	0.0130437
777.645	0.0134558
777.723	0.0136203
777.801	0.0140151
777.879	0.0142762
777.957	0.0144225
778.035	0.0145708
778.113	0.0147509
778.192	0.0150596
778.270	0.0150861
778.348	0.0151435
778.426	0.0153459
778.504	0.0153362
778.582	0.0155166
778.660	0.0156548
778.738	0.0157787
778.817	0.0158554
778.895	0.0158818
778.973	0.0159907
779.051	0.0162852
779.129	0.0163339
779.207	0.0163496
779.285	0.0166431
779.363	0.0169682
779.442	0.0172280
779.520	0.0175041
779.598	0.0181141
779.676	0.0183604
779.754	0.0189642
779.832	0.0195809
779.910	0.0200143
779.988	0.0204200
780.067	0.0209005
780.145	0.0212518
780.223	0.0215239
780.301	0.0216386
780.379	0.0217751
780.457	0.0216199
780.535	0.0213161
780.613	0.0207139
780.692	0.0203221
780.770	0.0195398
780.848	0.0188879
780.926	0.0180962
781.004	0.0171334
781.082	0.0162450
781.160	0.0153748
781.238	0.0146068
781.317	0.0137026
781.395	0.0129240
781.473	0.0123882
781.551	0.0117252
781.629	0.0115469
781.707	0.0113095
781.785	0.0111962
781.863	0.0114130
781.942	0.0115356
782.020	0.0118563
782.098	0.0123013
782.176	0.0125593
782.254	0.0129918
782.332	0.0137116
782.410	0.0141488
782.488	0.0146883
782.567	0.0151977
782.645	0.0153205
782.723	0.0159114
782.801	0.0159822
782.879	0.0161294
782.957	0.0163338
783.035	0.0162835
783.113	0.0160968
783.192	0.0158484
783.270	0.0158416
783.348	0.0157066
783.426	0.0154953
783.504	0.0155203
783.582	0.0154314
783.660	0.0155952
783.738	0.0157482
783.817	0.0157491
783.895	0.0162016
783.973	0.0165900
784.051	0.0168085
784.129	0.0173177
784.207	0.0177419
784.285	0.0182190
784.363	0.0187103
784.442	0.0193304
784.520	0.0196232
784.598	0.0199879
784.676	0.0203339
784.754	0.0205140
784.832	0.0206009
784.910	0.0206409
784.988	0.0206028
785.067	0.0204858
785.145	0.0202739
785.223	0.0199178
785.301	0.0196875
785.379	0.0193316
785.457	0.0187547
785.535	0.0183484
785.613	0.0177478
785.692	0.0171474
785.770	0.0167049
785.848	0.0161726
785.926	0.0154564
786.004	0.0149624
786.082	0.0145538
786.160	0.0139021
786.238	0.0135693
786.317	0.0132399
786.395	0.0129717
786.473	0.0127670
786.551	0.0126090
786.629	0.0125690
786.707	0.0127695
786.785	0.0127501
786.863	0.0129393
786.942	0.0132644
787.020	0.0133648
787.098	0.0136958
787.176	0.0140649
787.254	0.0145042
787.332	0.0147086
787.410	0.0150518
787.488	0.0153223
787.567	0.0155202
787.645	0.0156921
787.723	0.0157120
787.801	0.0159508
787.879	0.0158643
787.957	0.0159286
788.035	0.0158908
788.113	0.0158334
788.192	0.0155830
788.270	0.0157167
788.348	0.0156219
788.426	0.0156403
788.504	0.0156013
788.582	0.0155981
788.660	0.0158920
788.738	0.0160455
788.817	0.0162173
788.895	0.0168377
788.973	0.0172320
789.051	0.0177203
789.129	0.0184271
789.207	0.0188770
789.285	0.0193977
789.363	0.0198958
789.442	0.0201570
789.520	0.0202747
789.598	0.0204501
789.676	0.0205312
789.754	0.0204864
789.832	0.0201360
789.910	0.0198100
789.988	0.0193240
790.067	0.0188200
790.145	0.0184019
790.223	0.0177311
790.301	0.0171521
790.379	0.0164333
790.457	0.0158542
790.535	0.0153851
790.613	0.0148521
790.692	0.0145940
790.770	0.0143588
790.848	0.0139809
790.926	0.0138045
791.004	0.0138138
791.082	0.0137592
791.160	0.0138176
791.238	0.0139813
791.317	0.0140726
791.395	0.0143105
791.473	0.0146041
791.551	0.0148368
791.629	0.0150033
791.707	0.0153904
791.785	0.0155172
791.863	0.0157260
791.942	0.0159172
792.020	0.0159455
792.098	0.0160454
792.176	0.0162741
792.254	0.0163844
792.332	0.0162222
792.410	0.0163511
792.488	0.0162204
792.567	0.0159924
792.645	0.0158388
792.723	0.0158300
792.801	0.0154157
792.879	0.0152744
792.957	0.0149139
793.035	0.0148827
793.113	0.0144823
793.192	0.0142900
793.270	0.0143975
793.348	0.0141518
793.426	0.0143604
793.504	0.0145763
793.582	0.0147992
793.660	0.0151833
793.738	0.0154808
793.817	0.0160268
793.895	0.0165495
793.973	0.0171010
794.051	0.0175217
794.129	0.0180838
794.207	0.0185892
794.285	0.0191936
794.363	0.0195113
794.442	0.0198463
794.520	0.0201297
794.598	0.0201334
794.676	0.0201929
794.754	0.0199007
794.832	0.0199147
794.910	0.0197052
794.988	0.0192012
795.067	0.0185391
795.145	0.0179084
795.223	0.0173739
795.301	0.0168248
795.379	0.0162382
795.457	0.0156877
795.535	0.0151990
795.613	0.0147748
795.692	0.0145361
795.770	0.0142334
795.848	0.0141218
795.926	0.0141113
796.004	0.0142295
796.082	0.0143634
796.160	0.0145299
796.238	0.0147520
796.317	0.0151335
796.395	0.0153425
796.473	0.0155796
796.551	0.0158440
796.629	0.0158620
796.707	0.0160440
796.785	0.0162000
796.863	0.0163536
796.942	0.0163948
797.020	0.0163216
797.098	0.0162074
797.176	0.0162225
797.254	0.0162237
797.332	0.0160998
797.410	0.0159855
797.488	0.0157951
797.567	0.0158731
797.645	0.0158760
797.723	0.0156992
797.801	0.0155253
797.879	0.0153822
797.957	0.0152244
798.035	0.0150257
798.113	0.0150862
798.192	0.0150779
798.270	0.0149861
798.348	0.0151710
798.426	0.0152722
798.504	0.0155804
798.582	0.0156821
798.660	0.0158409
798.738	0.0159914
798.817	0.0162849
798.895	0.0164705
798.973	0.0166920
799.051	0.0170071
799.129	0.0171609
799.207	0.0173098
799.285	0.0176748
799.363	0.0178057
799.442	0.0179111
799.520	0.0180476
799.598	0.0181327
799.676	0.0181651
799.754	0.0181683
799.832	0.0182271
799.910	0.0181580
799.988	0.0179251
800.067	0.0179649
800.145	0.0177856
800.223	0.0174433
800.301	0.0173467
800.379	0.0169189
800.457	0.0166868
800.535	0.0162122
800.613	0.0159116
800.692	0.0155981
800.770	0.0153978
800.848	0.0150204
800.926	0.0150052
801.004	0.0149735
801.082	0.0148634
801.160	0.0147260
801.238	0.0148097
801.317	0.0149919
801.395	0.0152093
801.473	0.0153652
801.551	0.0155768
801.629	0.0157658
801.707	0.0159037
801.785	0.0161102
801.863	0.0165234
801.942	0.0166969
802.020	0.0167813
802.098	0.0168304
802.176	0.0170143
802.254	0.0169531
802.332	0.0170734
802.410	0.0170023
802.488	0.0169295
802.567	0.0166991
802.645	0.0166560
802.723	0.0165634
802.801	0.0163523
802.879	0.0162322
802.957	0.0160634
803.035	0.0159334
803.113	0.0158672
803.192	0.0156691
803.270	0.0155846
803.348	0.0155824
803.426	0.0154865
803.504	0.0155102
803.582	0.0156503
803.660	0.0155686
803.738	0.0155889
803.817	0.0157212
803.895	0.0157685
803.973	0.0157284
804.051	0.0158468
804.129	0.0158625
804.207	0.0158913
804.285	0.0162335
804.363	0.0162144
804.442	0.0162377
804.520	0.0163142
804.598	0.0163536
804.676	0.0164215
804.754	0.0164986
804.832	0.0165608
804.910	0.0166190
804.988	0.0168069
805.067	0.0168868
805.145	0.0166402
805.223	0.0167970
805.301	0.0170126
805.379	0.0167984
805.457	0.0168547
805.535	0.0169093
805.613	0.0169496
805.692	0.0168871
805.770	0.0171227
805.848	0.0169197
805.926	0.0167718
806.004	0.0170504
806.082	0.0168539
806.160	0.0167596
806.238	0.0167796
806.317	0.0166644
806.395	0.0165502
806.473	0.0162463
806.551	0.0163908
806.629	0.0163280
806.707	0.0160858
806.785	0.0160384
806.863	0.0159541
806.942	0.0159931
807.020	0.0157764
807.098	0.0158488
807.176	0.0158280
807.254	0.0158391
807.332	0.0158132
807.410	0.0157265
807.488	0.0158292
807.567	0.0158427
807.645	0.0157893
807.723	0.0157871
807.801	0.0159686
807.879	0.0159041
807.957	0.0158817
808.035	0.0158286
808.113	0.0160452
808.192	0.0159445
808.270	0.0159713
808.348	0.0160053
808.426	0.0160679
808.504	0.0162395
808.582	0.0162236
808.660	0.0162542
808.738	0.0161211
808.817	0.0162825
808.895	0.0163542
808.973	0.0163701
809.051	0.0165974
809.129	0.0165439
809.207	0.0165720
809.285	0.0165245
809.363	0.0166212
809.442	0.0166049
809.520	0.0165713
809.598	0.0166719
809.676	0.0164445
809.754	0.0165650
809.832	0.0164867
809.910	0.0163061
809.988	0.0164592
810.067	0.0165743
810.145	0.0163514
810.223	0.0163454
810.301	0.0162030
810.379	0.0161674
810.457	0.0163107
810.535	0.0162022
810.613	0.0162011
810.692	0.0162392
810.770	0.0162234
810.848	0.0161649
810.926	0.0160737
811.004	0.0162915
811.082	0.0162739
811.160	0.0162409
811.238	0.0162379
811.317	0.0162378
811.395	0.0163573
811.473	0.0162949
811.551	0.0162560
811.629	0.0162263
811.707	0.0163242
811.785	0.0163275
811.863	0.0163376
811.942	0.0164111
812.020	0.0162948
812.098	0.0162574
812.176	0.0160537
812.254	0.0160147
812.332	0.0159316
812.410	0.0158582
812.488	0.0158086
812.567	0.0160251
812.645	0.0158626
812.723	0.0158459
812.801	0.0157333
812.879	0.0157175
812.957	0.0159562
813.035	0.0159416
813.113	0.0161873
813.192	0.0161343
813.270	0.0164613
813.348	0.0164568
813.426	0.0165900
813.504	0.0166206
813.582	0.0167805
813.660	0.0170317
813.738	0.0170785
813.817	0.0171014
813.895	0.0171477
813.973	0.0169985
814.051	0.0170476
814.129	0.0168428
814.207	0.0167838
814.285	0.0168330
814.363	0.0165607
814.442	0.0161826
814.520	0.0162464
814.598	0.0160387
814.676	0.0159412
814.754	0.0158150
814.832	0.0157024
814.910	0.0156384
814.988	0.0155550
815.067	0.0156937
815.145	0.0156168
815.223	0.0155676
815.301	0.0157807
815.379	0.0159104
815.457	0.0159962
815.535	0.0159884
815.613	0.0161520
815.692	0.0163087
815.770	0.0164104
815.848	0.0164536
815.926	0.0165059
816.004	0.0165746
816.082	0.0165594
816.160	0.0165861
816.238	0.0165437
816.317	0.0164859
816.395	0.0165852
816.473	0.0163155
816.551	0.0163508
816.629	0.0163664
816.707	0.0164456
816.785	0.0163203
816.863	0.0163380
816.942	0.0162830
817.020	0.0160480
817.098	0.0160466
817.176	0.0161631
817.254	0.0161488
817.332	0.0163306
817.410	0.0161813
817.488	0.0162360
817.567	0.0163209
817.645	0.0161809
817.723	0.0160995
817.801	0.0162476
817.879	0.0162466
817.957	0.0163593
818.035	0.0163262
818.113	0.0161196
818.192	0.0162244
818.270	0.0161604
818.348	0.0163108
818.426	0.0161069
818.504	0.0162306
818.582	0.0161715
818.660	0.0162453
818.738	0.0163839
818.817	0.0162000
818.895	0.0163427
818.973	0.0165543
819.051	0.0164723
819.129	0.0164431
819.207	0.0164503
819.285	0.0164640
819.363	0.0164654
819.442	0.0165343
819.520	0.0165326
819.598	0.0164639
819.676	0.0165152
819.754	0.0164768
819.832	0.0165234
819.910	0.0164780
819.988	0.0164714
820.067	0.0164957
820.145	0.0163122
820.223	0.0163545
820.301	0.0162929
820.379	0.0160959
820.457	0.0160536
820.535	0.0160252
820.613	0.0160350
820.692	0.0160845
820.770	0.0159418
820.848	0.0161256
820.926	0.0162148
821.004	0.0162890
821.082	0.0161919
821.160	0.0163328
821.238	0.0165204
821.317	0.0164852
821.395	0.0166144
821.473	0.0166611
821.551	0.0167511
821.629	0.0166814
821.707	0.0165966
821.785	0.0164485
821.863	0.0164127
821.942	0.0164139
822.020	0.0162576
822.098	0.0161741
822.176	0.0160697
822.254	0.0158324
822.332	0.0157452
822.410	0.0157270
822.488	0.0157540
822.567	0.0157260
822.645	0.0156294
822.723	0.0156277
822.801	0.0157275
822.879	0.0158182
822.957	0.0158096
823.035	0.0159140
823.113	0.0159898
823.192	0.0160551
823.270	0.0161552
823.348	0.0161452
823.426	0.0162541
823.504	0.0163846
823.582	0.0164114
823.660	0.0165144
823.738	0.0164050
823.817	0.0164300
823.895	0.0164079
823.973	0.0163966
824.051	0.0164772
824.129	0.0164786
824.207	0.0164613
824.285	0.0164605
824.363	0.0163222
824.442	0.0163768
824.520	0.0164497
824.598	0.0165108
824.676	0.0164804
824.754	0.0166132
824.832	0.0164250
824.910	0.0165189
824.988	0.0166528
825.067	0.0165773
825.145	0.0166928
825.223	0.0166051
825.301	0.0165669
825.379	0.0167582
825.457	0.0166799
825.535	0.0166199
825.613	0.0167654
825.692	0.0166998
825.770	0.0165281
825.848	0.0165786
825.926	0.0164561
826.004	0.0164986
826.082	0.0163718
826.160	0.0162892
826.238	0.0162405
826.317	0.0163068
826.395	0.0160947
826.473	0.0160052
826.551	0.0159852
826.629	0.0159834
826.707	0.0158616
826.785	0.0158909
826.863	0.0159447
826.942	0.0158642
827.020	0.0158309
827.098	0.0159895
827.176	0.0159480
827.254	0.0161004
827.332	0.0161996
827.410	0.0161504
827.488	0.0160523
827.567	0.0163908
827.645	0.0162855
827.723	0.0163074
827.801	0.0163042
827.879	0.0163440
827.957	0.0163126
828.035	0.0162377
828.113	0.0161223
828.192	0.0161524
828.270	0.0162212
828.348	0.0162043
828.426	0.0162181
828.504	0.0161049
828.582	0.0159933
828.660	0.0160717
828.738	0.0160140
828.817	0.0161737
828.895	0.0161758
828.973	0.0161508
829.051	0.0161759
829.129	0.0162062
829.207	0.0163738
829.285	0.0164207
829.363	0.0164279
829.442	0.0164572
829.520	0.0166082
829.598	0.0165370
829.676	0.0166547
829.754	0.0167007
829.832	0.0166383
829.910	0.0166637
829.988	0.0166420
830.067	0.0166103
830.145	0.0164772
830.223	0.0164092
830.301	0.0164079
830.379	0.0163893
830.457	0.0163673
830.535	0.0162389
830.613	0.0162597
830.692	0.0161803
830.770	0.0162155
830.848	0.0162827
830.926	0.0161936
831.004	0.0161581
831.082	0.0163084
831.160	0.0160796
831.238	0.0161051
831.317	0.0160777
831.395	0.0161116
831.473	0.0161696
831.551	0.0161483
831.629	0.0162683
831.707	0.0162341
831.785	0.0161836
831.863	0.0163583
831.942	0.0163408
832.020	0.0162216
832.098	0.0162663
832.176	0.0162650
832.254	0.0162860
832.332	0.0162370
832.410	0.0161864
832.488	0.0163306
832.567	0.0163438
832.645	0.0163763
832.723	0.0162920
832.801	0.0163345
832.879	0.0163785
832.957	0.0163165
833.035	0.0163272
833.113	0.0163628
833.192	0.0163322
833.270	0.0163195
833.348	0.0163682
833.426	0.0163993
833.504	0.0161823
833.582	0.0164515
833.660	0.0165291
833.738	0.0165752
833.817	0.0163746
833.895	0.0163962
833.973	0.0162932
834.051	0.0162548
834.129	0.0163184
834.207	0.0161452
834.285	0.0161685
834.363	0.0160822
834.442	0.0161639
834.520	0.0160445
834.598	0.0161919
834.676	0.0160607
834.754	0.0158202
834.832	0.0159426
834.910	0.0160065
834.988	0.0160124
835.067	0.0158316
835.145	0.0159375
835.223	0.0160633
835.301	0.0160759
835.379	0.0160358
835.457	0.0160984
835.535	0.0160368
835.613	0.0160262
835.692	0.0162047
835.770	0.0159837
835.848	0.0161653
835.926	0.0161953
836.004	0.0161993
836.082	0.0161769
836.160	0.0162864
836.238	0.0162732
836.317	0.0162897
836.395	0.0162987
836.473	0.0162990
836.551	0.0162771
836.629	0.0162708
836.707	0.0164131
836.785	0.0163128
836.863	0.0164891
836.942	0.0164693
837.020	0.0164491
837.098	0.0166315
837.176	0.0165659
837.254	0.0166259
837.332	0.0168116
837.410	0.0167252
837.488	0.0164796
837.567	0.0164664
837.645	0.0165484
837.723	0.0165266
837.801	0.0164939
837.879	0.0164278
837.957	0.0163616
838.035	0.0163359
838.113	0.0163898
838.192	0.0163702
838.270	0.0164359
838.348	0.0164019
838.426	0.0164727
838.504	0.0163327
838.582	0.0163059
838.660	0.0162663
838.738	0.0162711
838.817	0.0161881
838.895	0.0162597
838.973	0.0162221
839.051	0.0161405
839.129	0.0162039
839.207	0.0161324
839.285	0.0161250
839.363	0.0160062
839.442	0.0162027
839.520	0.0159594
839.598	0.0160046
839.676	0.0161185
839.754	0.0160146
839.832	0.0161366
839.910	0.0160681
839.988	0.0161565
840.067	0.0160538
840.145	0.0161230
840.223	0.0160806
840.301	0.0160216
840.379	0.0162096
840.457	0.0163332
840.535	0.0162481
840.613	0.0163708
840.692	0.0162745
840.770	0.0163715
840.848	0.0163320
840.926	0.0163264
841.004	0.0164799
841.082	0.0164325
841.160	0.0163149
841.238	0.0162354
841.317	0.0162099
841.395	0.0163078
841.473	0.0162138
841.551	0.0163157
841.629	0.0163020
841.707	0.0162539
841.785	0.0161108
841.863	0.0163033
841.942	0.0161719
842.020	0.0162801
842.098	0.0161994
842.176	0.0162510
842.254	0.0162341
842.332	0.0162297
842.410	0.0162752
842.488	0.0163432
842.567	0.0164072
842.645	0.0163920
842.723	0.0162939
842.801	0.0164170
842.879	0.0163834
842.957	0.0163976
843.035	0.0162994
843.113	0.0162726
843.192	0.0162176
843.270	0.0162453
843.348	0.0162112
843.426	0.0160459
843.504	0.0160991
843.582	0.0161495
843.660	0.0161464
843.738	0.0161758
843.817	0.0161363
843.895	0.0162836
843.973	0.0162255
844.051	0.0162252
844.129	0.0163082
844.207	0.0163305
844.285	0.0163987
844.363	0.0163908
844.442	0.0165829
844.520	0.0165529
844.598	0.0165097
844.676	0.0166441
844.754	0.0164509
844.832	0.0165136
844.910	0.0166926
844.988	0.0167141
845.067	0.0164987
845.145	0.0165586
845.223	0.0165327
845.301	0.0164571
845.379	0.0164493
845.457	0.0165315
845.535	0.0165167
845.613	0.0165200
845.692	0.0164457
845.770	0.0162474
845.848	0.0163459
845.926	0.0164136
846.004	0.0161571
846.082	0.0162374
846.160	0.0163074
846.238	0.0161552
846.317	0.0160691
846.395	0.0159877
846.473	0.0160902
846.551	0.0161768
846.629	0.0160072
846.707	0.0160222
846.785	0.0160793
846.863	0.0160200
846.942	0.0160210
847.020	0.0162241
847.098	0.0161137
847.176	0.0159325
847.254	0.0160323
847.332	0.0160051
847.410	0.0160416
847.488	0.0161219
847.567	0.0160609
847.645	0.0160375
847.723	0.0161680
847.801	0.0161060
847.879	0.0161008
847.957	0.0160802
848.035	0.0162325
848.113	0.0161420
848.192	0.0162255
848.270	0.0162183
848.348	0.0163757
848.426	0.0162350
848.504	0.0163277
848.582	0.0163280
848.660	0.0164111
848.738	0.0164444
848.817	0.0162926
848.895	0.0163596
848.973	0.0164368
849.051	0.0166671
849.129	0.0165860
849.207	0.0164335
849.285	0.0165302
849.363	0.0164779
849.442	0.0164524
849.520	0.0163235
849.598	0.0165088
849.676	0.0165657
849.754	0.0165499
849.832	0.0165041
849.910	0.0166734
849.988	0.0167420
850.067	0.0164773
850.145	0.0166329
850.223	0.0165842
850.301	0.0165742
850.379	0.0166162
850.457	0.0164728
850.535	0.0165844
850.613	0.0163728
850.692	0.0165595
850.770	0.0164149
850.848	0.0162811
850.926	0.0162434
851.004	0.0163268
851.082	0.0163692
851.160	0.0162148
851.238	0.0162136
851.317	0.0160629
851.395	0.0160755
851.473	0.0158952
851.551	0.0161039
851.629	0.0161369
851.707	0.0160123
851.785	0.0160220
851.863	0.0160833
851.942	0.0162239
852.020	0.0161723
852.098	0.0161229
852.176	0.0160883
852.254	0.0161865
852.332	0.0161564
852.410	0.0161950
852.488	0.0161138
852.567	0.0161637
852.645	0.0162869
852.723	0.0163376
852.801	0.0162569
852.879	0.0162777
852.957	0.0163860
853.035	0.0163750
853.113	0.0163499
853.192	0.0163058
853.270	0.0163609
853.348	0.0163152
853.426	0.0163537
853.504	0.0163641
853.582	0.0162508
853.660	0.0162494
853.738	0.0162177
853.817	0.0162709
853.895	0.0160806
853.973	0.0161711
854.051	0.0161365
854.129	0.0161582
854.207	0.0161724
854.285	0.0162636
854.363	0.0162516
854.442	0.0161724
854.520	0.0163038
854.598	0.0163918
854.676	0.0164590
854.754	0.0163932
854.832	0.0163520
854.910	0.0164073
854.988	0.0162971
855.067	0.0162679
855.145	0.0162790
855.223	0.0161749
855.301	0.0162318
855.379	0.0162833
855.457	0.0161131
855.535	0.0162206
855.613	0.0162150
855.692	0.0161887
855.770	0.0162643
855.848	0.0163278
855.926	0.0161800
856.004	0.0163184
856.082	0.0162528
856.160	0.0164533
856.238	0.0163457
856.317	0.0164693
856.395	0.0164207
856.473	0.0165144
856.551	0.0166897
856.629	0.0165550
856.707	0.0164117
856.785	0.0166959
856.863	0.0166924
856.942	0.0164862
857.020	0.0165691
857.098	0.0164870
857.176	0.0164268
857.254	0.0165266
857.332	0.0163611
857.410	0.0162970
857.488	0.0162454
857.567	0.0161585
857.645	0.0161169
857.723	0.0161019
857.801	0.0159256
857.879	0.0159989
857.957	0.0158103
858.035	0.0158272
858.113	0.0159180
858.192	0.0160082
858.270	0.0159092
858.348	0.0160130
858.426	0.0159525
858.504	0.0161036
858.582	0.0161489
858.660	0.0160678
858.738	0.0163723
858.817	0.0163541
858.895	0.0163225
858.973	0.0163383
859.051	0.0164364
859.129	0.0164483
859.207	0.0162201
859.285	0.0165794
859.363	0.0164952
859.442	0.0165092
859.520	0.0164735
859.598	0.0166013
859.676	0.0165556
859.754	0.0164237
859.832	0.0164507
859.910	0.0164101
859.988	0.0162614
860.067	0.0163994
860.145	0.0162217
860.223	0.0162789
860.301	0.0161436
860.379	0.0161411
860.457	0.0159922
860.535	0.0161170
860.613	0.0158964
860.692	0.0158975
860.770	0.0159577
860.848	0.0158856
860.926	0.0160532
861.004	0.0160626
861.082	0.0160308
861.160	0.0160550
861.238	0.0160567
861.317	0.0161274
861.395	0.0161102
861.473	0.0161962
861.551	0.0161237
861.629	0.0162797
861.707	0.0164117
861.785	0.0163309
861.863	0.0165331
861.942	0.0164817
862.020	0.0163192
862.098	0.0163242
862.176	0.0164515
862.254	0.0164918
862.332	0.0164097
862.410	0.0164688
862.488	0.0164998
862.567	0.0163806
862.645	0.0164664
862.723	0.0165224
862.801	0.0164133
862.879	0.0165175
862.957	0.0164889
863.035	0.0165949
863.113	0.0164967
863.192	0.0165575
863.270	0.0166525
863.348	0.0166005
863.426	0.0165382
863.504	0.0166670
863.582	0.0165043
863.660	0.0164769
863.738	0.0164281
863.817	0.0164963
863.895	0.0162701
863.973	0.0164304
864.051	0.0163751
864.129	0.0162299
864.207	0.0162036
864.285	0.0160881
864.363	0.0160748
864.442	0.0160166
864.520	0.0159769
864.598	0.0161078
864.676	0.0161361
864.754	0.0160372
864.832	0.0160056
864.910	0.0158442
864.988	0.0160381
865.067	0.0157809
865.145	0.0157931
865.223	0.0159145
865.301	0.0158398
865.379	0.0158589
865.457	0.0157965
865.535	0.0159094
865.613	0.0158910
865.692	0.0158445
865.770	0.0160002
865.848	0.0159887
865.926	0.0159164
866.004	0.0159175
866.082	0.0158511
866.160	0.0157948
866.238	0.0159869
866.317	0.0159554
866.395	0.0159766
866.473	0.0159868
866.551	0.0161024
866.629	0.0160224
866.707	0.0160506
866.785	0.0161020
866.863	0.0162115
866.942	0.0161916
867.020	0.0162267
867.098	0.0163068
867.176	0.0164366
867.254	0.0163036
867.332	0.0163539
867.410	0.0165161
867.488	0.0166437
867.567	0.0166797
867.645	0.0167259
867.723	0.0168753
867.801	0.0168821
867.879	0.0169490
867.957	0.0171116
868.035	0.0170673
868.113	0.0171392
868.192	0.0171893
868.270	0.0171663
868.348	0.0169854
868.426	0.0169913
868.504	0.0170278
868.582	0.0168259
868.660	0.0170313
868.738	0.0168669
868.817	0.0167713
868.895	0.0167164
868.973	0.0166402
869.051	0.0164619
869.129	0.0164590
869.207	0.0163917
869.285	0.0163122
869.363	0.0161092
869.442	0.0160204
869.520	0.0159881
869.598	0.0157985
869.676	0.0155653
869.754	0.0155979
869.832	0.0155062
869.910	0.0154449
869.988	0.0153663
870.067	0.0153180
870.145	0.0153552
870.223	0.0153173
870.301	0.0152854
870.379	0.0153551
870.457	0.0153333
870.535	0.0153284
870.613	0.0154658
870.692	0.0156025
870.770	0.0155541
870.848	0.0155892
870.926	0.0157173
871.004	0.0158123
871.082	0.0159141
871.160	0.0160434
871.238	0.0160896
871.317	0.0162115
871.395	0.0163017
871.473	0.0164297
871.551	0.0164530
871.629	0.0163613
871.707	0.0165944
871.785	0.0166286
871.863	0.0166888
871.942	0.0168314
872.020	0.0168725
872.098	0.0169572
872.176	0.0169279
872.254	0.0171590
872.332	0.0172821
872.410	0.0171986
872.488	0.0172951
872.567	0.0173207
872.645	0.0171920
872.723	0.0172291
872.801	0.0172631
872.879	0.0170519
872.957	0.0169597
873.035	0.0168314
873.113	0.0166894
873.192	0.0166393
873.270	0.0163114
873.348	0.0164007
873.426	0.0161306
873.504	0.0159711
873.582	0.0159653
873.660	0.0158900
873.738	0.0157983
873.817	0.0157153
873.895	0.0156963
873.973	0.0156542
874.051	0.0157227
874.129	0.0157996
874.207	0.0157227
874.285	0.0154729
874.363	0.0157160
874.442	0.0157267
874.520	0.0157334
874.598	0.0158904
874.676	0.0158972
874.754	0.0157680
874.832	0.0157877
874.910	0.0159565
874.988	0.0159609
875.067	0.0158111
875.145	0.0161176
875.223	0.0161550
875.301	0.0161924
875.379	0.0162998
875.457	0.0162101
875.535	0.0160500
875.613	0.0162266
875.692	0.0162766
875.770	0.0162820
875.848	0.0163840
875.926	0.0163446
876.004	0.0164425
876.082	0.0165369
876.160	0.0165016
876.238	0.0166492
876.317	0.0166052
876.395	0.0166013
876.473	0.0165856
876.551	0.0166994
876.629	0.0167118
876.707	0.0167338
876.785	0.0167619
876.863	0.0168645
876.942	0.0169748
877.020	0.0168233
877.098	0.0168904
877.176	0.0169405
877.254	0.0170773
877.332	0.0168668
877.410	0.0168138
877.488	0.0167606
877.567	0.0167017
877.645	0.0166819
877.723	0.0166515
877.801	0.0163630
877.879	0.0161916
877.957	0.0161286
878.035	0.0161785
878.113	0.0159325
878.192	0.0159745
878.270	0.0158389
878.348	0.0157714
878.426	0.0155926
878.504	0.0155621
878.582	0.0154741
878.660	0.0154849
878.738	0.0155132
878.817	0.0155836
878.895	0.0155307
878.973	0.0155901
879.051	0.0156707
879.129	0.0155318
879.207	0.0157599
879.285	0.0158018
879.363	0.0157818
879.442	0.0159545
879.520	0.0160084
879.598	0.0160129
879.676	0.0161024
879.754	0.0163688
879.832	0.0162423
879.910	0.0163678
879.988	0.0163560
880.067	0.0164609
880.145	0.0165723
880.223	0.0165820
880.301	0.0167604
880.379	0.0166900
880.457	0.0166763
880.535	0.0167075
880.613	0.0167210
880.692	0.0166846
880.770	0.0167036
880.848	0.0167848
880.926	0.0165778
881.004	0.0165154
881.082	0.0165704
881.160	0.0166595
881.238	0.0166399
881.317	0.0167384
881.395	0.0167446
881.473	0.0168676
881.551	0.0167813
881.629	0.0167673
881.707	0.0169016
881.785	0.0170272
881.863	0.0168287
881.942	0.0167636
882.020	0.0167342
882.098	0.0167362
882.176	0.0166891
882.254	0.0167841
882.332	0.0165795
882.410	0.0165752
882.488	0.0162874
882.567	0.0162845
882.645	0.0160680
882.723	0.0159164
882.801	0.0158501
882.879	0.0158454
882.957	0.0157976
883.035	0.0156338
883.113	0.0156663
883.192	0.0154355
883.270	0.0153912
883.348	0.0153487
883.426	0.0155460
883.504	0.0153966
883.582	0.0153558
883.660	0.0154110
883.738	0.0155046
883.817	0.0156979
883.895	0.0155988
883.973	0.0156738
884.051	0.0157219
884.129	0.0157980
884.207	0.0159168
884.285	0.0159413
884.363	0.0160010
884.442	0.0160682
884.520	0.0162208
884.598	0.0160803
884.676	0.0161350
884.754	0.0161882
884.832	0.0163204
884.910	0.0163557
884.988	0.0161954
885.067	0.0163602
885.145	0.0163841
885.223	0.0164775
885.301	0.0166892
885.379	0.0166109
885.457	0.0166638
885.535	0.0166227
885.613	0.0167098
885.692	0.0168451
885.770	0.0167911
885.848	0.0168995
885.926	0.0168898
886.004	0.0168987
886.082	0.0170108
886.160	0.0169201
886.238	0.0169289
886.317	0.0168791
886.395	0.0168478
886.473	0.0168131
886.551	0.0168114
886.629	0.0168508
886.707	0.0167320
886.785	0.0166663
886.863	0.0166402
886.942	0.0165903
887.020	0.0164407
887.098	0.0164589
887.176	0.0164078
887.254	0.0163583
887.332	0.0162962
887.410	0.0162839
887.488	0.0161486
887.567	0.0163040
887.645	0.0161384
887.723	0.0160749
887.801	0.0160380
887.879	0.0160609
887.957	0.0161433
888.035	0.0161076
888.113	0.0158734
888.192	0.0159132
888.270	0.0160349
888.348	0.0158799
888.426	0.0159442
888.504	0.0160017
888.582	0.0159522
888.660	0.0157332
888.738	0.0159203
888.817	0.0158659
888.895	0.0157661
888.973	0.0157480
889.051	0.0156969
889.129	0.0157177
889.207	0.0157689
889.285	0.0157838
889.363	0.0156997
889.442	0.0158354
889.520	0.0158981
889.598	0.0157627
889.676	0.0159646
889.754	0.0158079
889.832	0.0159618
889.910	0.0159452
889.988	0.0161217
890.067	0.0160995
890.145	0.0161522
890.223	0.0162968
890.301	0.0162443
890.379	0.0163839
890.457	0.0165860
890.535	0.0165438
890.613	0.0166344
890.692	0.0166606
890.770	0.0166578
890.848	0.0166335
890.926	0.0167614
891.004	0.0167491
891.082	0.0168670
891.160	0.0168458
891.238	0.0167645
891.317	0.0169367
891.395	0.0169356
891.473	0.0167851
891.551	0.0166953
891.629	0.0165485
891.707	0.0166679
891.785	0.0167556
891.863	0.0165462
891.942	0.0164977
892.020	0.0164811
892.098	0.0165069
892.176	0.0163264
892.254	0.0162273
892.332	0.0162862
892.410	0.0161021
892.488	0.0162025
892.567	0.0162518
892.645	0.0161771
892.723	0.0160698
892.801	0.0158910
892.879	0.0160757
892.957	0.0160215
893.035	0.0160543
893.113	0.0160852
893.192	0.0160138
893.270	0.0159894
893.348	0.0160158
893.426	0.0159373
893.504	0.0158679
893.582	0.0160990
893.660	0.0159452
893.738	0.0159174
893.817	0.0158805
893.895	0.0159193
893.973	0.0160061
894.051	0.0159989
894.129	0.0160514
894.207	0.0161957
894.285	0.0160628
894.363	0.0159850
894.442	0.0161014
894.520	0.0162096
894.598	0.0159330
894.676	0.0160240
894.754	0.0161745
894.832	0.0160921
894.910	0.0161823
894.988	0.0161363
895.067	0.0160146
895.145	0.0160309
895.223	0.0160534
895.301	0.0159568
895.379	0.0160339
895.457	0.0161418
895.535	0.0160537
895.613	0.0160870
895.692	0.0161039
895.770	0.0160923
895.848	0.0160552
895.926	0.0161396
896.004	0.0161845
896.082	0.0162982
896.160	0.0164456
896.238	0.0162993
896.317	0.0163214
896.395	0.0164128
896.473	0.0165188
896.551	0.0164873
896.629	0.0166525
896.707	0.0166005
896.785	0.0166180
896.863	0.0165907
896.942	0.0165388
897.020	0.0165073
897.098	0.0163596
897.176	0.0165640
897.254	0.0163587
897.332	0.0164230
897.410	0.0165921
897.488	0.0164606
897.567	0.0164222
897.645	0.0163238
897.723	0.0161733
897.801	0.0162251
897.879	0.0162343
897.957	0.0163079
898.035	0.0163084
898.113	0.0161244
898.192	0.0163561
898.270	0.0162840
898.348	0.0161572
898.426	0.0164375
898.504	0.0164187
898.582	0.0163159
898.660	0.0162445
898.738	0.0161150
898.817	0.0162916
898.895	0.0164007
898.973	0.0163529
899.051	0.0162672
899.129	0.0164000
899.207	0.0162225
899.285	0.0163563
899.363	0.0162898
899.442	0.0162621
899.520	0.0162984
899.598	0.0162720
899.676	0.0163585
899.754	0.0161989
899.832	0.0161544
899.910	0.0160559
899.988	0.0161131
900.067	0.0159558
900.145	0.0160598
900.223	0.0160020
900.301	0.0159348
900.379	0.0159296
900.457	0.0160085
900.535	0.0159789
900.613	0.0159660
900.692	0.0160333
900.770	0.0160872
900.848	0.0162339
900.926	0.0162722
901.004	0.0162585
901.082	0.0161239
901.160	0.0162027
901.238	0.0161938
901.317	0.0163126
901.395	0.0162004
901.473	0.0162680
901.551	0.0162845
901.629	0.0162843
901.707	0.0161740
901.785	0.0163778
901.863	0.0162679
901.942	0.0162341
902.020	0.0162961
902.098	0.0163853
902.176	0.0163023
902.254	0.0162066
902.332	0.0162750
902.410	0.0162991
902.488	0.0162070
902.567	0.0162399
902.645	0.0160879
902.723	0.0162383
902.801	0.0163691
902.879	0.0163258
902.957	0.0162954
903.035	0.0162907
903.113	0.0162818
903.192	0.0162463
903.270	0.0162704
903.348	0.0163439
903.426	0.0164314
903.504	0.0164650
903.582	0.0163962
903.660	0.0163178
903.738	0.0164945
903.817	0.0163672
903.895	0.0163380
903.973	0.0163852
904.051	0.0164324
904.129	0.0162338
904.207	0.0165293
904.285	0.0164076
904.363	0.0164415
904.442	0.0163496
904.520	0.0162791
904.598	0.0161449
904.676	0.0162990
904.754	0.0163931
904.832	0.0161962
904.910	0.0161884
904.988	0.0162471
905.067	0.0161540
905.145	0.0159576
905.223	0.0162247
905.301	0.0163807
905.379	0.0160781
905.457	0.0161609
905.535	0.0161637
905.613	0.0161874
905.692	0.0161948
905.770	0.0160846
905.848	0.0159692
905.926	0.0161612
906.004	0.0161653
906.082	0.0160906
906.160	0.0161913
906.238	0.0162259
906.317	0.0161519
906.395	0.0162083
906.473	0.0160465
906.551	0.0160836
906.629	0.0162164
906.707	0.0160629
906.785	0.0160858
906.863	0.0162361
906.942	0.0160625
907.020	0.0161230
907.098	0.0161502
907.176	0.0161439
907.254	0.0161416
907.332	0.0161597
907.410	0.0162270
907.488	0.0162566
907.567	0.0161663
907.645	0.0162286
907.723	0.0164509
907.801	0.0163350
907.879	0.0162251
907.957	0.0163610
908.035	0.0164353
908.113	0.0164173
908.192	0.0164095
908.270	0.0163636
908.348	0.0164301
908.426	0.0163592
908.504	0.0163319
908.582	0.0163103
908.660	0.0162113
908.738	0.0162366
908.817	0.0161787
908.895	0.0162537
908.973	0.0164253
909.051	0.0163268
909.129	0.0163491
909.207	0.0163470
909.285	0.0163599
909.363	0.0162717
909.442	0.0162171
909.520	0.0163859
909.598	0.0161755
909.676	0.0163693
909.754	0.0163646
909.832	0.0162785
909.910	0.0163262
909.988	0.0165317
910.067	0.0164854
910.145	0.0163179
910.223	0.0163718
910.301	0.0164127
910.379	0.0164402
910.457	0.0163941
910.535	0.0164009
910.613	0.0163366
910.692	0.0162988
910.770	0.0162399
910.848	0.0162664
910.926	0.0161687
911.004	0.0161954
911.082	0.0160816
911.160	0.0161298
911.238	0.0160519
911.317	0.0160534
911.395	0.0161019
911.473	0.0160490
911.551	0.0159305
911.629	0.0159140
911.707	0.0159988
911.785	0.0160436
911.863	0.0161041
911.942	0.0161481
912.020	0.0161224
912.098	0.0162602
912.176	0.0162527
912.254	0.0164377
912.332	0.0164157
912.410	0.0163833
912.488	0.0164080
912.567	0.0163645
912.645	0.0164376
912.723	0.0163857
912.801	0.0165086
912.879	0.0163771
912.957	0.0164217
913.035	0.0163792
913.113	0.0163646
913.192	0.0164893
913.270	0.0164469
913.348	0.0163121
913.426	0.0163443
913.504	0.0163729
913.582	0.0161612
913.660	0.0163078
913.738	0.0161401
913.817	0.0161827
913.895	0.0162300
913.973	0.0161337
914.051	0.0161946
914.129	0.0160802
914.207	0.0162315
914.285	0.0162341
914.363	0.0161988
914.442	0.0162513
914.520	0.0161816
914.598	0.0162153
914.676	0.0161785
914.754	0.0162833
914.832	0.0160416
914.910	0.0163441
914.988	0.0162607
915.067	0.0161475
915.145	0.0161657
915.223	0.0162164
915.301	0.0161375
915.379	0.0162086
915.457	0.0160604
915.535	0.0161712
915.613	0.0160706
915.692	0.0160046
915.770	0.0161211
915.848	0.0160542
915.926	0.0160365
916.004	0.0161466
916.082	0.0160863
916.160	0.0161420
916.238	0.0161249
916.317	0.0160522
916.395	0.0160437
916.473	0.0162450
916.551	0.0162477
916.629	0.0161813
916.707	0.0161185
916.785	0.0162382
916.863	0.0163682
916.942	0.0163031
917.020	0.0164117
917.098	0.0166690
917.176	0.0165144
917.254	0.0165316
917.332	0.0164513
917.410	0.0167073
917.488	0.0165067
917.567	0.0165862
917.645	0.0166606
917.723	0.0166206
917.801	0.0165762
917.879	0.0164764
917.957	0.0164906
918.035	0.0167028
918.113	0.0165893
918.192	0.0165667
918.270	0.0165242
918.348	0.0164634
918.426	0.0164278
918.504	0.0163893
918.582	0.0162574
918.660	0.0163822
918.738	0.0162997
918.817	0.0162324
918.895	0.0161718
918.973	0.0162259
919.051	0.0161245
919.129	0.0160066
919.207	0.0159873
919.285	0.0159420
919.363	0.0159708
919.442	0.0160047
919.520	0.0158620
919.598	0.0159705
919.676	0.0158124
919.754	0.0157952
919.832	0.0157632
919.910	0.0158165
