06/10/2022	16:20:37	Ver.	4.1	UNKNOWN
Optical Delay	599.995081	Delta X		0.078125	Sweeps	1	Scan Rate	0/0
Coordinates	Axis 1	NaN	Axis 2	NaN	Axis 3	NaN	Axis 4	NaN	Axis 5	NaN	Axis 6	0.000000
TX Power	0.000000	RX Power	0.000000

599.995	0.0162566
600.073	0.0163226
600.151	0.0163918
600.229	0.0162263
600.308	0.0162973
600.386	0.0162447
600.464	0.0162254
600.542	0.0161551
600.620	0.0163139
600.698	0.0164326
600.776	0.0161784
600.854	0.0162493
600.933	0.0160782
601.011	0.0161315
601.089	0.0162184
601.167	0.0163351
601.245	0.0162257
601.323	0.0160889
601.401	0.0162478
601.479	0.0163071
601.558	0.0162664
601.636	0.0162135
601.714	0.0162151
601.792	0.0162231
601.870	0.0162708
601.948	0.0162244
602.026	0.0162101
602.104	0.0163134
602.183	0.0162949
602.261	0.0160825
602.339	0.0162290
602.417	0.0162379
602.495	0.0161164
602.573	0.0162081
602.651	0.0163728
602.729	0.0161968
602.808	0.0162811
602.886	0.0161795
602.964	0.0163350
603.042	0.0163238
603.120	0.0163475
603.198	0.0162156
603.276	0.0162469
603.354	0.0163570
603.433	0.0160859
603.511	0.0162322
603.589	0.0161863
603.667	0.0162814
603.745	0.0161948
603.823	0.0162878
603.901	0.0162363
603.979	0.0163660
604.058	0.0162482
604.136	0.0162090
604.214	0.0161609
604.292	0.0162505
604.370	0.0162179
604.448	0.0162217
604.526	0.0162241
604.604	0.0162219
604.683	0.0162048
604.761	0.0161169
604.839	0.0162103
604.917	0.0162482
604.995	0.0162880
605.073	0.0162866
605.151	0.0162840
605.229	0.0163645
605.308	0.0163414
605.386	0.0162053
605.464	0.0163244
605.542	0.0161911
605.620	0.0163267
605.698	0.0162460
605.776	0.0161485
605.854	0.0162468
605.933	0.0162424
606.011	0.0164672
606.089	0.0162157
606.167	0.0161746
606.245	0.0163101
606.323	0.0164169
606.401	0.0162334
606.479	0.0162612
606.558	0.0161509
606.636	0.0162790
606.714	0.0162302
606.792	0.0162703
606.870	0.0161765
606.948	0.0163437
607.026	0.0162473
607.104	0.0162925
607.183	0.0162817
607.261	0.0162595
607.339	0.0162012
607.417	0.0162128
607.495	0.0162725
607.573	0.0163632
607.651	0.0161227
607.729	0.0162572
607.808	0.0163306
607.886	0.0162144
607.964	0.0163506
608.042	0.0163014
608.120	0.0162942
608.198	0.0162415
608.276	0.0163255
608.354	0.0161024
608.433	0.0161455
608.511	0.0162848
608.589	0.0162645
608.667	0.0162951
608.745	0.0162397
608.823	0.0161587
608.901	0.0162702
608.979	0.0162637
609.058	0.0161925
609.136	0.0163229
609.214	0.0163104
609.292	0.0161595
609.370	0.0162394
609.448	0.0164098
609.526	0.0162619
609.604	0.0161731
609.683	0.0162413
609.761	0.0162820
609.839	0.0162074
609.917	0.0161179
609.995	0.0162129
610.073	0.0163303
610.151	0.0163451
610.229	0.0162618
610.308	0.0162301
610.386	0.0161674
610.464	0.0163087
610.542	0.0163354
610.620	0.0162809
610.698	0.0161971
610.776	0.0162209
610.854	0.0161766
610.933	0.0163340
611.011	0.0163901
611.089	0.0162463
611.167	0.0162732
611.245	0.0162289
611.323	0.0161948
611.401	0.0163428
611.479	0.0163166
611.558	0.0162246
611.636	0.0163001
611.714	0.0163191
611.792	0.0161555
611.870	0.0163873
611.948	0.0162367
612.026	0.0161969
612.104	0.0162368
612.183	0.0162623
612.261	0.0162716
612.339	0.0163005
612.417	0.0163009
612.495	0.0162410
612.573	0.0163606
612.651	0.0162352
612.729	0.0160851
612.808	0.0162019
612.886	0.0162065
612.964	0.0160719
613.042	0.0162067
613.120	0.0163469
613.198	0.0163020
613.276	0.0161131
613.354	0.0162653
613.433	0.0162634
613.511	0.0162640
613.589	0.0162367
613.667	0.0161548
613.745	0.0163123
613.823	0.0163270
613.901	0.0162767
613.979	0.0162785
614.058	0.0163171
614.136	0.0162357
614.214	0.0162283
614.292	0.0163364
614.370	0.0161876
614.448	0.0161713
614.526	0.0164240
614.604	0.0163108
614.683	0.0162638
614.761	0.0160757
614.839	0.0162276
614.917	0.0162949
614.995	0.0162031
615.073	0.0163339
615.151	0.0163413
615.229	0.0163227
615.308	0.0163656
615.386	0.0162182
615.464	0.0162023
615.542	0.0161466
615.620	0.0162598
615.698	0.0162315
615.776	0.0162132
615.854	0.0162510
615.933	0.0161969
616.011	0.0161731
616.089	0.0162124
616.167	0.0162771
616.245	0.0161897
616.323	0.0163161
616.401	0.0163108
616.479	0.0163900
616.558	0.0163605
616.636	0.0162300
616.714	0.0161368
616.792	0.0161747
616.870	0.0163194
616.948	0.0161447
617.026	0.0162013
617.104	0.0162289
617.183	0.0163247
617.261	0.0163852
617.339	0.0161930
617.417	0.0161086
617.495	0.0162386
617.573	0.0164023
617.651	0.0162360
617.729	0.0162617
617.808	0.0162440
617.886	0.0161707
617.964	0.0162401
618.042	0.0162758
618.120	0.0163405
618.198	0.0162917
618.276	0.0163490
618.354	0.0161825
618.433	0.0162252
618.511	0.0162215
618.589	0.0163171
618.667	0.0164171
618.745	0.0163417
618.823	0.0162851
618.901	0.0163148
618.979	0.0163062
619.058	0.0164494
619.136	0.0162028
619.214	0.0161389
619.292	0.0163890
619.370	0.0163110
619.448	0.0162386
619.526	0.0161815
619.604	0.0161483
619.683	0.0162192
619.761	0.0162781
619.839	0.0162602
619.917	0.0162353
619.995	0.0161593
620.073	0.0161959
620.151	0.0163480
620.229	0.0163751
620.308	0.0162795
620.386	0.0163650
620.464	0.0162609
620.542	0.0161459
620.620	0.0163297
620.698	0.0164001
620.776	0.0162684
620.854	0.0162514
620.933	0.0161372
621.011	0.0161916
621.089	0.0162068
621.167	0.0162408
621.245	0.0163010
621.323	0.0162329
621.401	0.0162357
621.479	0.0162203
621.558	0.0161816
621.636	0.0163011
621.714	0.0161713
621.792	0.0162204
621.870	0.0162185
621.948	0.0161709
622.026	0.0162458
622.104	0.0162897
622.183	0.0164142
622.261	0.0163696
622.339	0.0162628
622.417	0.0162850
622.495	0.0161634
622.573	0.0163470
622.651	0.0163069
622.729	0.0162003
622.808	0.0162680
622.886	0.0162637
622.964	0.0162579
623.042	0.0162540
623.120	0.0161380
623.198	0.0163147
623.276	0.0161919
623.354	0.0162717
623.433	0.0162852
623.511	0.0163052
623.589	0.0162642
623.667	0.0161405
623.745	0.0163058
623.823	0.0161569
623.901	0.0162469
623.979	0.0163165
624.058	0.0162933
624.136	0.0163912
624.214	0.0162607
624.292	0.0162362
624.370	0.0161681
624.448	0.0163399
624.526	0.0163086
624.604	0.0162086
624.683	0.0162980
624.761	0.0162682
624.839	0.0161927
624.917	0.0162181
624.995	0.0161921
625.073	0.0161990
625.151	0.0163147
625.229	0.0163215
625.308	0.0163020
625.386	0.0162616
625.464	0.0162046
625.542	0.0163388
625.620	0.0162532
625.698	0.0160748
625.776	0.0162356
625.854	0.0162599
625.933	0.0163265
626.011	0.0162254
626.089	0.0163445
626.167	0.0162093
626.245	0.0162428
626.323	0.0162720
626.401	0.0162001
626.479	0.0162395
626.558	0.0161509
626.636	0.0162239
626.714	0.0163073
626.792	0.0162868
626.870	0.0163141
626.948	0.0161871
627.026	0.0162732
627.104	0.0162440
627.183	0.0161966
627.261	0.0162618
627.339	0.0161692
627.417	0.0163580
627.495	0.0161791
627.573	0.0162669
627.651	0.0161091
627.729	0.0162328
627.808	0.0162150
627.886	0.0161951
627.964	0.0162879
628.042	0.0161548
628.120	0.0161247
628.198	0.0163059
628.276	0.0163168
628.354	0.0163001
628.433	0.0162621
628.511	0.0161967
628.589	0.0161002
628.667	0.0163535
628.745	0.0162914
628.823	0.0162144
628.901	0.0164333
628.979	0.0163548
629.058	0.0162430
629.136	0.0162709
629.214	0.0162122
629.292	0.0162354
629.370	0.0162204
629.448	0.0162688
629.526	0.0161366
629.604	0.0163531
629.683	0.0163193
629.761	0.0163324
629.839	0.0162721
629.917	0.0162498
629.995	0.0163585
630.073	0.0162182
630.151	0.0162206
630.229	0.0162592
630.308	0.0163158
630.386	0.0163326
630.464	0.0162695
630.542	0.0162800
630.620	0.0163503
630.698	0.0162410
630.776	0.0162135
630.854	0.0161806
630.933	0.0163207
631.011	0.0161733
631.089	0.0160989
631.167	0.0163834
631.245	0.0163417
631.323	0.0161540
631.401	0.0164045
631.479	0.0164927
631.558	0.0162395
631.636	0.0160826
631.714	0.0161404
631.792	0.0162126
631.870	0.0162183
631.948	0.0163206
632.026	0.0162311
632.104	0.0162682
632.183	0.0162417
632.261	0.0162720
632.339	0.0162722
632.417	0.0162525
632.495	0.0162562
632.573	0.0162632
632.651	0.0163548
632.729	0.0162951
632.808	0.0163030
632.886	0.0162820
632.964	0.0162457
633.042	0.0162486
633.120	0.0164569
633.198	0.0163538
633.276	0.0162023
633.354	0.0162024
633.433	0.0161813
633.511	0.0161926
633.589	0.0162212
633.667	0.0161578
633.745	0.0161862
633.823	0.0162059
633.901	0.0162651
633.979	0.0162411
634.058	0.0162878
634.136	0.0161709
634.214	0.0161599
634.292	0.0163467
634.370	0.0163212
634.448	0.0162276
634.526	0.0162893
634.604	0.0162974
634.683	0.0161880
634.761	0.0162048
634.839	0.0162962
634.917	0.0162651
634.995	0.0161631
635.073	0.0161550
635.151	0.0162518
635.229	0.0162247
635.308	0.0163655
635.386	0.0161671
635.464	0.0163068
635.542	0.0162684
635.620	0.0161488
635.698	0.0161602
635.776	0.0162522
635.854	0.0162273
635.933	0.0163259
636.011	0.0163012
636.089	0.0163216
636.167	0.0162134
636.245	0.0162428
636.323	0.0162685
636.401	0.0162345
636.479	0.0163608
636.558	0.0163447
636.636	0.0162991
636.714	0.0162617
636.792	0.0162483
636.870	0.0161304
636.948	0.0162388
637.026	0.0162467
637.104	0.0161661
637.183	0.0163055
637.261	0.0162173
637.339	0.0162643
637.417	0.0163202
637.495	0.0162936
637.573	0.0162522
637.651	0.0162950
637.729	0.0161987
637.808	0.0162688
637.886	0.0161415
637.964	0.0162644
638.042	0.0163539
638.120	0.0160987
638.198	0.0160899
638.276	0.0162434
638.354	0.0162408
638.433	0.0162257
638.511	0.0162200
638.589	0.0161749
638.667	0.0162463
638.745	0.0163046
638.823	0.0162493
638.901	0.0160350
638.979	0.0161912
639.058	0.0162182
639.136	0.0162805
639.214	0.0163571
639.292	0.0161250
639.370	0.0162806
639.448	0.0162919
639.526	0.0163023
639.604	0.0163158
639.683	0.0161392
639.761	0.0162055
639.839	0.0160997
639.917	0.0163038
639.995	0.0163504
640.073	0.0162493
640.151	0.0162656
640.229	0.0162153
640.308	0.0162140
640.386	0.0163004
640.464	0.0162170
640.542	0.0162179
640.620	0.0162580
640.698	0.0163174
640.776	0.0162215
640.854	0.0162035
640.933	0.0162074
641.011	0.0163419
641.089	0.0162590
641.167	0.0162640
641.245	0.0161967
641.323	0.0162655
641.401	0.0161697
641.479	0.0161846
641.558	0.0163026
641.636	0.0163171
641.714	0.0161670
641.792	0.0162108
641.870	0.0163487
641.948	0.0161740
642.026	0.0162200
642.104	0.0162642
642.183	0.0161729
642.261	0.0163686
642.339	0.0162374
642.417	0.0161828
642.495	0.0161995
642.573	0.0162686
642.651	0.0163339
642.729	0.0162530
642.808	0.0162660
642.886	0.0162298
642.964	0.0161417
643.042	0.0163990
643.120	0.0162259
643.198	0.0161742
643.276	0.0162849
643.354	0.0163431
643.433	0.0161578
643.511	0.0162121
643.589	0.0162542
643.667	0.0161522
643.745	0.0162160
643.823	0.0163262
643.901	0.0161999
643.979	0.0162366
644.058	0.0162522
644.136	0.0162048
644.214	0.0164046
644.292	0.0163456
644.370	0.0162070
644.448	0.0162197
644.526	0.0161806
644.604	0.0161108
644.683	0.0161863
644.761	0.0162174
644.839	0.0162955
644.917	0.0162798
644.995	0.0163215
645.073	0.0163108
645.151	0.0163114
645.229	0.0163492
645.308	0.0162576
645.386	0.0162675
645.464	0.0161283
645.542	0.0161827
645.620	0.0163042
645.698	0.0163274
645.776	0.0162421
645.854	0.0163216
645.933	0.0163932
646.011	0.0162948
646.089	0.0161420
646.167	0.0161702
646.245	0.0161918
646.323	0.0162630
646.401	0.0162857
646.479	0.0162865
646.558	0.0162656
646.636	0.0163029
646.714	0.0161584
646.792	0.0161938
646.870	0.0163258
646.948	0.0162826
647.026	0.0162621
647.104	0.0161392
647.183	0.0161794
647.261	0.0163223
647.339	0.0162128
647.417	0.0162646
647.495	0.0162298
647.573	0.0163340
647.651	0.0162132
647.729	0.0162521
647.808	0.0163470
647.886	0.0161656
647.964	0.0162769
648.042	0.0161552
648.120	0.0161205
648.198	0.0162460
648.276	0.0163299
648.354	0.0162167
648.433	0.0162938
648.511	0.0162650
648.589	0.0162721
648.667	0.0163061
648.745	0.0161751
648.823	0.0162182
648.901	0.0161957
648.979	0.0161753
649.058	0.0162645
649.136	0.0163177
649.214	0.0163275
649.292	0.0162202
649.370	0.0162344
649.448	0.0162463
649.526	0.0162669
649.604	0.0163129
649.683	0.0161987
649.761	0.0162117
649.839	0.0163330
649.917	0.0162801
649.995	0.0162734
650.073	0.0163354
650.151	0.0162206
650.229	0.0163144
650.308	0.0162142
650.386	0.0161044
650.464	0.0162106
650.542	0.0162607
650.620	0.0163965
650.698	0.0162420
650.776	0.0163454
650.854	0.0162505
650.933	0.0163363
651.011	0.0163011
651.089	0.0161389
651.167	0.0163682
651.245	0.0162965
651.323	0.0163235
651.401	0.0162605
651.479	0.0163021
651.558	0.0162290
651.636	0.0163235
651.714	0.0162889
651.792	0.0161875
651.870	0.0163108
651.948	0.0162318
652.026	0.0162017
652.104	0.0162801
652.183	0.0162002
652.261	0.0162600
652.339	0.0162612
652.417	0.0162548
652.495	0.0161543
652.573	0.0162303
652.651	0.0162518
652.729	0.0162127
652.808	0.0162923
652.886	0.0162866
652.964	0.0163232
653.042	0.0162586
653.120	0.0161081
653.198	0.0161665
653.276	0.0163217
653.354	0.0163490
653.433	0.0162728
653.511	0.0162395
653.589	0.0161203
653.667	0.0160892
653.745	0.0162357
653.823	0.0162863
653.901	0.0162690
653.979	0.0163663
654.058	0.0162270
654.136	0.0162015
654.214	0.0162620
654.292	0.0163064
654.370	0.0162558
654.448	0.0161260
654.526	0.0162096
654.604	0.0162265
654.683	0.0163341
654.761	0.0163779
654.839	0.0162384
654.917	0.0160771
654.995	0.0162955
655.073	0.0162141
655.151	0.0162749
655.229	0.0163044
655.308	0.0163255
655.386	0.0162410
655.464	0.0162215
655.542	0.0163271
655.620	0.0162700
655.698	0.0161711
655.776	0.0162417
655.854	0.0163853
655.933	0.0161568
656.011	0.0161024
656.089	0.0162309
656.167	0.0161443
656.245	0.0163422
656.323	0.0162501
656.401	0.0161829
656.479	0.0161825
656.558	0.0162679
656.636	0.0163991
656.714	0.0161888
656.792	0.0162367
656.870	0.0161678
656.948	0.0163661
657.026	0.0161501
657.104	0.0163791
657.183	0.0162959
657.261	0.0161922
657.339	0.0162726
657.417	0.0162829
657.495	0.0162428
657.573	0.0161792
657.651	0.0162345
657.729	0.0162654
657.808	0.0162984
657.886	0.0162267
657.964	0.0163603
658.042	0.0162281
658.120	0.0161753
658.198	0.0162125
658.276	0.0164930
658.354	0.0162218
658.433	0.0161302
658.511	0.0161960
658.589	0.0162557
658.667	0.0162200
658.745	0.0162286
658.823	0.0161192
658.901	0.0162878
658.979	0.0162750
659.058	0.0161826
659.136	0.0162257
659.214	0.0162133
659.292	0.0161523
659.370	0.0163099
659.448	0.0162016
659.526	0.0161603
659.604	0.0161587
659.683	0.0163753
659.761	0.0161044
659.839	0.0161469
659.917	0.0163593
659.995	0.0162587
660.073	0.0161887
660.151	0.0161267
660.229	0.0163958
660.308	0.0163170
660.386	0.0162763
660.464	0.0160926
660.542	0.0162829
660.620	0.0161454
660.698	0.0162637
660.776	0.0162897
660.854	0.0161903
660.933	0.0161984
661.011	0.0162671
661.089	0.0162162
661.167	0.0162566
661.245	0.0161227
661.323	0.0163197
661.401	0.0162752
661.479	0.0162659
661.558	0.0161983
661.636	0.0161774
661.714	0.0162407
661.792	0.0160957
661.870	0.0162806
661.948	0.0162669
662.026	0.0161974
662.104	0.0163232
662.183	0.0162600
662.261	0.0163782
662.339	0.0161165
662.417	0.0163580
662.495	0.0162947
662.573	0.0162008
662.651	0.0161639
662.729	0.0162926
662.808	0.0163348
662.886	0.0163519
662.964	0.0161195
663.042	0.0161664
663.120	0.0162687
663.198	0.0161497
663.276	0.0163448
663.354	0.0162762
663.433	0.0162507
663.511	0.0160516
663.589	0.0162708
663.667	0.0162625
663.745	0.0161893
663.823	0.0160535
663.901	0.0162286
663.979	0.0162867
664.058	0.0161946
664.136	0.0160966
664.214	0.0161195
664.292	0.0161494
664.370	0.0163058
664.448	0.0161697
664.526	0.0162022
664.604	0.0162679
664.683	0.0161834
664.761	0.0162431
664.839	0.0163261
664.917	0.0161320
664.995	0.0161884
665.073	0.0161595
665.151	0.0163074
665.229	0.0162555
665.308	0.0162944
665.386	0.0161570
665.464	0.0161719
665.542	0.0162798
665.620	0.0161662
665.698	0.0163496
665.776	0.0163975
665.854	0.0160760
665.933	0.0161440
666.011	0.0162456
666.089	0.0162224
666.167	0.0161948
666.245	0.0161067
666.323	0.0162531
666.401	0.0162642
666.479	0.0161293
666.558	0.0162379
666.636	0.0162430
666.714	0.0163081
666.792	0.0162413
666.870	0.0161321
666.948	0.0162547
667.026	0.0161648
667.104	0.0161829
667.183	0.0162390
667.261	0.0162261
667.339	0.0163004
667.417	0.0162746
667.495	0.0161987
667.573	0.0162503
667.651	0.0163094
667.729	0.0161723
667.808	0.0161175
667.886	0.0161922
667.964	0.0163121
668.042	0.0162172
668.120	0.0161385
668.198	0.0162431
668.276	0.0163239
668.354	0.0162167
668.433	0.0160957
668.511	0.0161818
668.589	0.0162714
668.667	0.0162199
668.745	0.0161870
668.823	0.0162466
668.901	0.0162901
668.979	0.0162869
669.058	0.0161781
669.136	0.0162525
669.214	0.0163573
669.292	0.0162396
669.370	0.0161107
669.448	0.0163206
669.526	0.0162513
669.604	0.0162896
669.683	0.0162894
669.761	0.0162913
669.839	0.0163179
669.917	0.0162356
669.995	0.0161143
670.073	0.0161023
670.151	0.0160947
670.229	0.0162521
670.308	0.0161344
670.386	0.0162746
670.464	0.0162591
670.542	0.0160968
670.620	0.0163150
670.698	0.0163396
670.776	0.0161774
670.854	0.0162836
670.933	0.0161996
671.011	0.0161984
671.089	0.0162467
671.167	0.0161293
671.245	0.0161945
671.323	0.0161896
671.401	0.0163040
671.479	0.0162510
671.558	0.0162486
671.636	0.0162579
671.714	0.0164123
671.792	0.0164817
671.870	0.0163171
671.948	0.0162909
672.026	0.0161729
672.104	0.0163043
672.183	0.0163902
672.261	0.0162330
672.339	0.0162018
672.417	0.0162791
672.495	0.0163036
672.573	0.0163647
672.651	0.0163464
672.729	0.0162124
672.808	0.0161950
672.886	0.0162312
672.964	0.0163118
673.042	0.0162285
673.120	0.0162239
673.198	0.0163560
673.276	0.0163244
673.354	0.0162006
673.433	0.0163419
673.511	0.0162547
673.589	0.0163170
673.667	0.0161718
673.745	0.0162689
673.823	0.0160770
673.901	0.0161497
673.979	0.0163419
674.058	0.0161727
674.136	0.0162875
674.214	0.0163223
674.292	0.0163611
674.370	0.0161329
674.448	0.0162366
674.526	0.0164004
674.604	0.0162252
674.683	0.0162788
674.761	0.0160445
674.839	0.0162610
674.917	0.0162536
674.995	0.0163273
675.073	0.0161887
675.151	0.0160962
675.229	0.0161591
675.308	0.0162298
675.386	0.0162312
675.464	0.0162350
675.542	0.0163522
675.620	0.0162565
675.698	0.0162759
675.776	0.0162411
675.854	0.0162373
675.933	0.0162994
676.011	0.0161945
676.089	0.0162361
676.167	0.0163031
676.245	0.0161320
676.323	0.0162608
676.401	0.0162450
676.479	0.0162247
676.558	0.0163581
676.636	0.0163441
676.714	0.0163677
676.792	0.0162470
676.870	0.0162170
676.948	0.0163907
677.026	0.0160939
677.104	0.0161530
677.183	0.0161922
677.261	0.0163480
677.339	0.0161205
677.417	0.0163981
677.495	0.0161125
677.573	0.0161410
677.651	0.0162009
677.729	0.0161942
677.808	0.0160410
677.886	0.0163157
677.964	0.0160972
678.042	0.0162083
678.120	0.0162630
678.198	0.0163235
678.276	0.0162668
678.354	0.0161377
678.433	0.0162334
678.511	0.0162757
678.589	0.0162696
678.667	0.0162949
678.745	0.0163119
678.823	0.0162035
678.901	0.0161602
678.979	0.0160562
679.058	0.0162403
679.136	0.0161618
679.214	0.0162348
679.292	0.0161729
679.370	0.0162762
679.448	0.0162569
679.526	0.0161948
679.604	0.0163446
679.683	0.0162663
679.761	0.0162608
679.839	0.0164236
679.917	0.0162025
679.995	0.0163319
680.073	0.0161765
680.151	0.0162817
680.229	0.0163369
680.308	0.0161948
680.386	0.0162238
680.464	0.0161756
680.542	0.0163251
680.620	0.0161643
680.698	0.0162246
680.776	0.0161527
680.854	0.0161738
680.933	0.0163488
681.011	0.0161926
681.089	0.0161520
681.167	0.0162154
681.245	0.0163028
681.323	0.0163627
681.401	0.0162329
681.479	0.0163215
681.558	0.0161951
681.636	0.0163822
681.714	0.0162272
681.792	0.0162141
681.870	0.0162048
681.948	0.0162919
682.026	0.0163469
682.104	0.0161707
682.183	0.0161819
682.261	0.0162327
682.339	0.0161979
682.417	0.0161675
682.495	0.0162058
682.573	0.0161742
682.651	0.0160694
682.729	0.0162241
682.808	0.0163596
682.886	0.0162846
682.964	0.0161503
683.042	0.0162088
683.120	0.0163715
683.198	0.0162881
683.276	0.0162576
683.354	0.0162212
683.433	0.0163488
683.511	0.0164690
683.589	0.0161205
683.667	0.0162202
683.745	0.0162989
683.823	0.0161621
683.901	0.0161199
683.979	0.0162865
684.058	0.0162465
684.136	0.0163351
684.214	0.0162425
684.292	0.0162422
684.370	0.0162041
684.448	0.0162825
684.526	0.0163290
684.604	0.0163186
684.683	0.0163313
684.761	0.0161433
684.839	0.0161985
684.917	0.0161670
684.995	0.0161314
685.073	0.0163101
685.151	0.0162661
685.229	0.0162706
685.308	0.0162338
685.386	0.0162029
685.464	0.0162926
685.542	0.0162043
685.620	0.0163345
685.698	0.0161724
685.776	0.0163151
685.854	0.0162299
685.933	0.0161537
686.011	0.0161980
686.089	0.0161711
686.167	0.0162401
686.245	0.0160977
686.323	0.0163463
686.401	0.0162808
686.479	0.0162417
686.558	0.0163306
686.636	0.0161771
686.714	0.0162045
686.792	0.0161594
686.870	0.0162340
686.948	0.0161935
687.026	0.0162966
687.104	0.0162527
687.183	0.0162204
687.261	0.0163328
687.339	0.0163210
687.417	0.0163090
687.495	0.0162684
687.573	0.0160371
687.651	0.0162151
687.729	0.0162882
687.808	0.0162775
687.886	0.0163264
687.964	0.0162514
688.042	0.0162465
688.120	0.0163718
688.198	0.0162344
688.276	0.0162967
688.354	0.0162035
688.433	0.0162084
688.511	0.0161642
688.589	0.0163277
688.667	0.0163135
688.745	0.0163059
688.823	0.0162082
688.901	0.0162211
688.979	0.0161019
689.058	0.0161380
689.136	0.0162397
689.214	0.0162798
689.292	0.0162357
689.370	0.0161895
689.448	0.0162307
689.526	0.0163086
689.604	0.0163580
689.683	0.0163094
689.761	0.0161477
689.839	0.0163358
689.917	0.0163755
689.995	0.0162836
690.073	0.0162540
690.151	0.0162114
690.229	0.0163608
690.308	0.0163232
690.386	0.0162406
690.464	0.0161655
690.542	0.0162757
690.620	0.0164169
690.698	0.0163795
690.776	0.0163431
690.854	0.0161839
690.933	0.0161566
691.011	0.0161917
691.089	0.0162041
691.167	0.0162792
691.245	0.0163254
691.323	0.0162215
691.401	0.0162873
691.479	0.0163793
691.558	0.0161916
691.636	0.0162627
691.714	0.0162061
691.792	0.0162737
691.870	0.0163207
691.948	0.0163232
692.026	0.0163539
692.104	0.0161785
692.183	0.0163160
692.261	0.0163401
692.339	0.0162272
692.417	0.0162809
692.495	0.0162440
692.573	0.0162935
692.651	0.0162402
692.729	0.0161692
692.808	0.0161028
692.886	0.0162109
692.964	0.0162543
693.042	0.0162081
693.120	0.0161816
693.198	0.0162900
693.276	0.0163744
693.354	0.0163683
693.433	0.0163039
693.511	0.0162383
693.589	0.0161864
693.667	0.0162861
693.745	0.0161653
693.823	0.0162184
693.901	0.0162703
693.979	0.0163142
694.058	0.0162359
694.136	0.0161501
694.214	0.0163178
694.292	0.0162543
694.370	0.0161789
694.448	0.0163336
694.526	0.0161978
694.604	0.0162881
694.683	0.0162969
694.761	0.0161918
694.839	0.0162405
694.917	0.0162064
694.995	0.0161287
695.073	0.0161549
695.151	0.0162802
695.229	0.0162766
695.308	0.0160871
695.386	0.0162442
695.464	0.0161373
695.542	0.0161543
695.620	0.0162004
695.698	0.0162775
695.776	0.0161729
695.854	0.0161783
695.933	0.0161434
696.011	0.0161497
696.089	0.0161871
696.167	0.0162891
696.245	0.0162173
696.323	0.0162012
696.401	0.0163279
696.479	0.0161916
696.558	0.0163335
696.636	0.0162849
696.714	0.0162482
696.792	0.0162963
696.870	0.0161051
696.948	0.0161986
697.026	0.0163343
697.104	0.0163655
697.183	0.0160844
697.261	0.0162817
697.339	0.0163255
697.417	0.0162752
697.495	0.0162191
697.573	0.0162904
697.651	0.0162067
697.729	0.0162247
697.808	0.0162477
697.886	0.0162152
697.964	0.0161562
698.042	0.0162321
698.120	0.0162397
698.198	0.0162231
698.276	0.0160440
698.354	0.0161799
698.433	0.0162360
698.511	0.0162548
698.589	0.0162944
698.667	0.0164125
698.745	0.0162185
698.823	0.0162212
698.901	0.0162093
698.979	0.0162373
699.058	0.0161494
699.136	0.0163570
699.214	0.0161341
699.292	0.0162569
699.370	0.0162836
699.448	0.0162409
699.526	0.0161595
699.604	0.0163292
699.683	0.0162457
699.761	0.0162549
699.839	0.0162046
699.917	0.0161684
699.995	0.0162704
700.073	0.0161875
700.151	0.0160997
700.229	0.0161977
700.308	0.0162498
700.386	0.0162959
700.464	0.0161755
700.542	0.0160674
700.620	0.0163055
700.698	0.0162641
700.776	0.0162071
700.854	0.0161385
700.933	0.0162064
701.011	0.0162857
701.089	0.0161832
701.167	0.0162055
701.245	0.0162656
701.323	0.0161488
701.401	0.0163148
701.479	0.0162788
701.558	0.0163566
701.636	0.0163454
701.714	0.0162141
701.792	0.0161855
701.870	0.0163656
701.948	0.0161579
702.026	0.0162179
702.104	0.0163521
702.183	0.0161619
702.261	0.0161777
702.339	0.0161024
702.417	0.0162332
702.495	0.0161623
702.573	0.0161264
702.651	0.0162733
702.729	0.0161621
702.808	0.0161623
702.886	0.0161015
702.964	0.0161967
703.042	0.0161586
703.120	0.0161222
703.198	0.0162913
703.276	0.0161763
703.354	0.0161510
703.433	0.0162248
703.511	0.0162584
703.589	0.0162032
703.667	0.0162624
703.745	0.0161657
703.823	0.0162640
703.901	0.0162502
703.979	0.0162701
704.058	0.0162318
704.136	0.0162125
704.214	0.0163004
704.292	0.0162435
704.370	0.0162777
704.448	0.0162114
704.526	0.0162733
704.604	0.0161981
704.683	0.0161383
704.761	0.0161909
704.839	0.0161268
704.917	0.0161562
704.995	0.0162051
705.073	0.0161096
705.151	0.0161845
705.229	0.0162463
705.308	0.0162029
705.386	0.0162476
705.464	0.0162168
705.542	0.0163304
705.620	0.0162243
705.698	0.0161618
705.776	0.0161192
705.854	0.0162761
705.933	0.0161312
706.011	0.0161984
706.089	0.0163190
706.167	0.0162781
706.245	0.0161582
706.323	0.0162711
706.401	0.0162813
706.479	0.0162355
706.558	0.0161852
706.636	0.0161645
706.714	0.0162920
706.792	0.0162460
706.870	0.0163023
706.948	0.0162355
707.026	0.0162975
707.104	0.0163466
707.183	0.0164483
707.261	0.0162597
707.339	0.0162164
707.417	0.0163029
707.495	0.0161566
707.573	0.0161145
707.651	0.0161954
707.729	0.0161515
707.808	0.0161198
707.886	0.0161320
707.964	0.0162749
708.042	0.0162324
708.120	0.0162035
708.198	0.0161084
708.276	0.0161663
708.354	0.0161807
708.433	0.0161936
708.511	0.0161645
708.589	0.0163025
708.667	0.0163126
708.745	0.0160954
708.823	0.0161502
708.901	0.0164028
708.979	0.0162315
709.058	0.0162177
709.136	0.0162717
709.214	0.0161297
709.292	0.0163295
709.370	0.0162343
709.448	0.0163190
709.526	0.0162686
709.604	0.0161753
709.683	0.0162769
709.761	0.0163322
709.839	0.0162386
709.917	0.0162981
709.995	0.0161588
710.073	0.0161190
710.151	0.0161702
710.229	0.0161602
710.308	0.0162718
710.386	0.0162661
710.464	0.0163109
710.542	0.0161179
710.620	0.0162331
710.698	0.0162840
710.776	0.0162202
710.854	0.0162094
710.933	0.0162844
711.011	0.0162920
711.089	0.0163348
711.167	0.0161640
711.245	0.0161225
711.323	0.0163012
711.401	0.0162816
711.479	0.0163973
711.558	0.0162285
711.636	0.0162943
711.714	0.0162230
711.792	0.0163256
711.870	0.0162787
711.948	0.0162115
712.026	0.0162465
712.104	0.0162734
712.183	0.0162637
712.261	0.0163358
712.339	0.0161651
712.417	0.0160891
712.495	0.0162108
712.573	0.0161531
712.651	0.0161122
712.729	0.0161850
712.808	0.0162162
712.886	0.0161669
712.964	0.0161227
713.042	0.0161846
713.120	0.0160303
713.198	0.0162720
713.276	0.0162949
713.354	0.0160023
713.433	0.0161081
713.511	0.0161565
713.589	0.0162830
713.667	0.0162524
713.745	0.0161449
713.823	0.0161893
713.901	0.0161452
713.979	0.0162310
714.058	0.0162068
714.136	0.0162794
714.214	0.0162250
714.292	0.0161981
714.370	0.0162133
714.448	0.0163515
714.526	0.0162025
714.604	0.0162232
714.683	0.0162417
714.761	0.0162338
714.839	0.0162675
714.917	0.0161564
714.995	0.0162801
715.073	0.0162220
715.151	0.0162198
715.229	0.0162256
715.308	0.0162488
715.386	0.0162439
715.464	0.0161905
715.542	0.0161480
715.620	0.0163050
715.698	0.0162483
715.776	0.0163174
715.854	0.0163195
715.933	0.0162553
716.011	0.0160700
716.089	0.0163059
716.167	0.0162221
716.245	0.0161731
716.323	0.0161760
716.401	0.0161770
716.479	0.0163493
716.558	0.0162681
716.636	0.0163904
716.714	0.0162620
716.792	0.0161065
716.870	0.0163436
716.948	0.0163139
717.026	0.0163065
717.104	0.0162469
717.183	0.0160898
717.261	0.0161639
717.339	0.0161870
717.417	0.0162011
717.495	0.0161800
717.573	0.0161586
717.651	0.0161852
717.729	0.0163367
717.808	0.0162283
717.886	0.0162042
717.964	0.0160769
718.042	0.0163161
718.120	0.0163573
718.198	0.0162357
718.276	0.0161897
718.354	0.0162732
718.433	0.0163392
718.511	0.0161926
718.589	0.0162498
718.667	0.0162576
718.745	0.0162111
718.823	0.0161955
718.901	0.0160723
718.979	0.0160786
719.058	0.0161330
719.136	0.0162451
719.214	0.0161509
719.292	0.0162602
719.370	0.0161579
719.448	0.0162734
719.526	0.0161883
719.604	0.0163049
719.683	0.0163061
719.761	0.0161830
719.839	0.0162385
719.917	0.0162610
719.995	0.0161659
720.073	0.0161398
720.151	0.0162202
720.229	0.0162913
720.308	0.0163172
720.386	0.0163324
720.464	0.0162839
720.542	0.0161132
720.620	0.0162684
720.698	0.0162575
720.776	0.0163037
720.854	0.0161766
720.933	0.0162247
721.011	0.0163842
721.089	0.0162916
721.167	0.0165028
721.245	0.0163290
721.323	0.0162569
721.401	0.0162395
721.479	0.0163033
721.558	0.0162805
721.636	0.0163910
721.714	0.0161995
721.792	0.0161506
721.870	0.0163684
721.948	0.0163239
722.026	0.0162849
722.104	0.0161554
722.183	0.0162012
722.261	0.0163106
722.339	0.0161711
722.417	0.0162652
722.495	0.0162951
722.573	0.0162746
722.651	0.0162624
722.729	0.0161794
722.808	0.0162897
722.886	0.0162597
722.964	0.0162624
723.042	0.0164445
723.120	0.0162627
723.198	0.0162039
723.276	0.0162649
723.354	0.0162352
723.433	0.0162817
723.511	0.0163312
723.589	0.0162988
723.667	0.0162783
723.745	0.0162363
723.823	0.0163410
723.901	0.0160999
723.979	0.0161999
724.058	0.0161630
724.136	0.0164306
724.214	0.0162468
724.292	0.0161873
724.370	0.0163443
724.448	0.0162365
724.526	0.0162756
724.604	0.0162901
724.683	0.0163003
724.761	0.0162947
724.839	0.0161732
724.917	0.0163168
724.995	0.0163544
725.073	0.0162755
725.151	0.0163084
725.229	0.0163420
725.308	0.0164478
725.386	0.0163553
725.464	0.0164014
725.542	0.0162063
725.620	0.0161779
725.698	0.0163583
725.776	0.0162674
725.854	0.0163953
725.933	0.0163545
726.011	0.0163027
726.089	0.0162753
726.167	0.0163000
726.245	0.0162789
726.323	0.0162561
726.401	0.0162395
726.479	0.0162012
726.558	0.0163654
726.636	0.0161655
726.714	0.0163676
726.792	0.0162936
726.870	0.0163397
726.948	0.0161794
727.026	0.0163432
727.104	0.0163682
727.183	0.0161812
727.261	0.0163915
727.339	0.0163153
727.417	0.0162616
727.495	0.0162331
727.573	0.0163241
727.651	0.0160876
727.729	0.0163709
727.808	0.0162875
727.886	0.0161633
727.964	0.0163554
728.042	0.0163283
728.120	0.0161752
728.198	0.0163558
728.276	0.0162218
728.354	0.0162212
728.433	0.0164460
728.511	0.0162616
728.589	0.0160518
728.667	0.0161703
728.745	0.0162677
728.823	0.0163207
728.901	0.0164452
728.979	0.0162357
729.058	0.0162705
729.136	0.0163593
729.214	0.0162494
729.292	0.0162430
729.370	0.0162154
729.448	0.0163450
729.526	0.0161414
729.604	0.0163082
729.683	0.0163805
729.761	0.0164156
729.839	0.0162144
729.917	0.0163218
729.995	0.0163064
730.073	0.0161575
730.151	0.0163388
730.229	0.0161654
730.308	0.0161923
730.386	0.0163956
730.464	0.0162920
730.542	0.0161684
730.620	0.0161249
730.698	0.0163277
730.776	0.0161697
730.854	0.0162173
730.933	0.0162402
731.011	0.0162434
731.089	0.0163098
731.167	0.0162244
731.245	0.0161895
731.323	0.0162903
731.401	0.0163082
731.479	0.0162194
731.558	0.0161740
731.636	0.0162479
731.714	0.0162955
731.792	0.0161673
731.870	0.0161974
731.948	0.0162872
732.026	0.0161375
732.104	0.0161265
732.183	0.0163737
732.261	0.0161259
732.339	0.0161590
732.417	0.0161452
732.495	0.0162499
732.573	0.0163884
732.651	0.0161980
732.729	0.0160981
732.808	0.0162315
732.886	0.0162856
732.964	0.0163195
733.042	0.0161519
733.120	0.0162360
733.198	0.0162739
733.276	0.0162337
733.354	0.0162589
733.433	0.0161541
733.511	0.0162599
733.589	0.0162413
733.667	0.0162607
733.745	0.0163010
733.823	0.0161649
733.901	0.0162511
733.979	0.0161527
734.058	0.0161901
734.136	0.0162595
734.214	0.0162437
734.292	0.0163404
734.370	0.0162514
734.448	0.0161737
734.526	0.0163249
734.604	0.0162051
734.683	0.0162795
734.761	0.0161607
734.839	0.0161508
734.917	0.0161081
734.995	0.0162052
735.073	0.0162574
735.151	0.0161247
735.229	0.0161454
735.308	0.0162276
735.386	0.0161684
735.464	0.0160980
735.542	0.0162736
735.620	0.0161926
735.698	0.0162029
735.776	0.0161398
735.854	0.0161902
735.933	0.0160789
736.011	0.0160635
736.089	0.0162199
736.167	0.0162191
736.245	0.0161717
736.323	0.0162613
736.401	0.0161825
736.479	0.0161409
736.558	0.0161980
736.636	0.0162928
736.714	0.0161133
736.792	0.0161758
736.870	0.0161472
736.948	0.0161079
737.026	0.0162746
737.104	0.0161299
737.183	0.0162017
737.261	0.0161971
737.339	0.0160994
737.417	0.0161516
737.495	0.0162137
737.573	0.0162310
737.651	0.0162282
737.729	0.0161201
737.808	0.0161888
737.886	0.0162115
737.964	0.0162746
738.042	0.0161607
738.120	0.0161819
738.198	0.0163522
738.276	0.0164090
738.354	0.0162231
738.433	0.0162363
738.511	0.0164178
738.589	0.0163185
738.667	0.0162688
738.745	0.0162726
738.823	0.0161900
738.901	0.0162421
738.979	0.0162503
739.058	0.0161766
739.136	0.0159686
739.214	0.0157935
739.292	0.0158864
739.370	0.0157835
739.448	0.0157668
739.526	0.0157062
739.604	0.0158938
739.683	0.0161053
739.761	0.0162065
739.839	0.0163589
739.917	0.0165784
739.995	0.0166969
740.073	0.0167989
740.151	0.0170778
740.229	0.0170358
740.308	0.0171440
740.386	0.0170021
740.464	0.0169067
740.542	0.0166484
740.620	0.0166228
740.698	0.0164861
740.776	0.0162951
740.854	0.0159070
740.933	0.0158070
741.011	0.0156559
741.089	0.0154650
741.167	0.0150809
741.245	0.0148394
741.323	0.0147208
741.401	0.0146796
741.479	0.0147497
741.558	0.0148996
741.636	0.0152067
741.714	0.0156471
741.792	0.0162041
741.870	0.0169067
741.948	0.0175622
742.026	0.0183401
742.104	0.0185539
742.183	0.0185321
742.261	0.0184610
742.339	0.0182958
742.417	0.0177747
742.495	0.0170171
742.573	0.0164515
742.651	0.0159489
742.729	0.0155939
742.808	0.0151338
742.886	0.0151897
742.964	0.0151025
743.042	0.0152298
743.120	0.0153291
743.198	0.0155085
743.276	0.0155343
743.354	0.0154844
743.433	0.0157248
743.511	0.0155377
743.589	0.0153995
743.667	0.0153043
743.745	0.0151559
743.823	0.0149108
743.901	0.0150497
743.979	0.0150950
744.058	0.0154910
744.136	0.0160954
744.214	0.0168739
744.292	0.0175465
744.370	0.0182336
744.448	0.0186530
744.526	0.0188562
744.604	0.0189776
744.683	0.0187164
744.761	0.0181626
744.839	0.0176582
744.917	0.0172828
744.995	0.0167015
745.073	0.0161472
745.151	0.0157074
745.229	0.0153361
745.308	0.0151296
745.386	0.0147500
745.464	0.0146350
745.542	0.0144762
745.620	0.0144492
745.698	0.0144082
745.776	0.0144403
745.854	0.0146979
745.933	0.0147618
746.011	0.0149645
746.089	0.0151591
746.167	0.0154565
746.245	0.0160384
746.323	0.0164939
746.401	0.0167194
746.479	0.0171714
746.558	0.0176656
746.636	0.0179757
746.714	0.0182610
746.792	0.0185445
746.870	0.0185397
746.948	0.0186987
747.026	0.0184818
747.104	0.0182649
747.183	0.0178544
747.261	0.0172112
747.339	0.0165611
747.417	0.0158052
747.495	0.0151830
747.573	0.0146499
747.651	0.0143017
747.729	0.0141490
747.808	0.0142664
747.886	0.0144071
747.964	0.0145193
748.042	0.0147862
748.120	0.0150377
748.198	0.0154464
748.276	0.0156940
748.354	0.0160133
748.433	0.0162146
748.511	0.0165122
748.589	0.0165709
748.667	0.0168105
748.745	0.0167802
748.823	0.0166715
748.901	0.0167936
748.979	0.0168758
749.058	0.0168687
749.136	0.0169615
749.214	0.0170105
749.292	0.0170804
749.370	0.0170623
749.448	0.0170988
749.526	0.0169949
749.604	0.0171714
749.683	0.0172093
749.761	0.0169103
749.839	0.0166447
749.917	0.0164981
749.995	0.0162508
750.073	0.0160026
750.151	0.0158866
750.229	0.0157784
750.308	0.0155461
750.386	0.0154707
750.464	0.0153528
750.542	0.0154095
750.620	0.0154760
750.698	0.0153835
750.776	0.0156102
750.854	0.0157738
750.933	0.0158335
751.011	0.0159866
751.089	0.0160577
751.167	0.0162281
751.245	0.0163260
751.323	0.0163793
751.401	0.0164304
751.479	0.0165092
751.558	0.0166191
751.636	0.0166967
751.714	0.0168786
751.792	0.0167994
751.870	0.0166902
751.948	0.0166544
752.026	0.0165259
752.104	0.0166132
752.183	0.0166178
752.261	0.0165150
752.339	0.0166303
752.417	0.0166022
752.495	0.0166792
752.573	0.0164862
752.651	0.0165895
752.729	0.0165880
752.808	0.0165392
752.886	0.0162518
752.964	0.0162370
753.042	0.0160996
753.120	0.0159393
753.198	0.0157542
753.276	0.0158759
753.354	0.0156441
753.433	0.0155827
753.511	0.0154893
753.589	0.0155215
753.667	0.0156107
753.745	0.0155935
753.823	0.0158106
753.901	0.0157503
753.979	0.0157803
754.058	0.0160738
754.136	0.0160474
754.214	0.0162399
754.292	0.0162923
754.370	0.0163982
754.448	0.0167530
754.526	0.0167899
754.604	0.0168449
754.683	0.0171197
754.761	0.0170023
754.839	0.0170969
754.917	0.0171786
754.995	0.0168576
755.073	0.0169289
755.151	0.0168896
755.229	0.0166947
755.308	0.0164581
755.386	0.0163849
755.464	0.0162541
755.542	0.0159999
755.620	0.0159151
755.698	0.0158426
755.776	0.0156573
755.854	0.0154800
755.933	0.0154694
756.011	0.0153474
756.089	0.0151881
756.167	0.0150593
756.245	0.0152357
756.323	0.0151154
756.401	0.0151434
756.479	0.0153957
756.558	0.0156110
756.636	0.0158347
756.714	0.0162514
756.792	0.0165248
756.870	0.0169135
756.948	0.0171801
757.026	0.0174529
757.104	0.0175732
757.183	0.0175853
757.261	0.0174641
757.339	0.0173481
757.417	0.0173138
757.495	0.0171597
757.573	0.0169934
757.651	0.0168230
757.729	0.0166251
757.808	0.0163319
757.886	0.0161689
757.964	0.0161352
758.042	0.0159397
758.120	0.0157935
758.198	0.0157409
758.276	0.0156738
758.354	0.0155555
758.433	0.0154644
758.511	0.0155154
758.589	0.0154879
758.667	0.0155917
758.745	0.0154958
758.823	0.0155151
758.901	0.0153059
758.979	0.0151959
759.058	0.0151657
759.136	0.0152026
759.214	0.0152799
759.292	0.0152988
759.370	0.0154420
759.448	0.0157122
759.526	0.0159980
759.604	0.0164123
759.683	0.0167960
759.761	0.0171157
759.839	0.0173072
759.917	0.0176079
759.995	0.0177261
760.073	0.0178541
760.151	0.0180376
760.229	0.0178874
760.308	0.0179675
760.386	0.0178412
760.464	0.0176993
760.542	0.0174862
760.620	0.0172817
760.698	0.0170912
760.776	0.0168175
760.854	0.0164931
760.933	0.0164214
761.011	0.0160261
761.089	0.0158442
761.167	0.0156866
761.245	0.0152967
761.323	0.0149453
761.401	0.0146381
761.479	0.0144376
761.558	0.0143742
761.636	0.0140419
761.714	0.0137563
761.792	0.0140971
761.870	0.0140133
761.948	0.0141166
762.026	0.0142734
762.104	0.0144722
762.183	0.0146904
762.261	0.0150777
762.339	0.0152642
762.417	0.0155939
762.495	0.0158401
762.573	0.0162352
762.651	0.0167011
762.729	0.0171420
762.808	0.0176750
762.886	0.0179503
762.964	0.0184396
763.042	0.0186742
763.120	0.0187885
763.198	0.0187610
763.276	0.0187460
763.354	0.0187257
763.433	0.0185950
763.511	0.0182126
763.589	0.0180304
763.667	0.0176785
763.745	0.0174694
763.823	0.0173397
763.901	0.0170381
763.979	0.0165643
764.058	0.0162579
764.136	0.0158695
764.214	0.0157480
764.292	0.0154630
764.370	0.0151831
764.448	0.0149538
764.526	0.0150589
764.604	0.0148951
764.683	0.0149742
764.761	0.0147951
764.839	0.0148097
764.917	0.0150428
764.995	0.0149675
765.073	0.0150139
765.151	0.0149458
765.229	0.0151006
765.308	0.0152679
765.386	0.0151208
765.464	0.0152766
765.542	0.0152608
765.620	0.0152788
765.698	0.0153870
765.776	0.0151310
765.854	0.0153072
765.933	0.0153481
766.011	0.0152004
766.089	0.0152625
766.167	0.0153027
766.245	0.0154221
766.323	0.0158075
766.401	0.0159461
766.479	0.0161404
766.558	0.0166751
766.636	0.0170775
766.714	0.0174074
766.792	0.0179417
766.870	0.0184690
766.948	0.0187068
767.026	0.0190893
767.104	0.0192561
767.183	0.0193124
767.261	0.0192921
767.339	0.0191091
767.417	0.0188754
767.495	0.0184303
767.573	0.0179324
767.651	0.0174457
767.729	0.0171164
767.808	0.0166222
767.886	0.0160100
767.964	0.0156232
768.042	0.0150831
768.120	0.0148739
768.198	0.0146986
768.276	0.0144143
768.354	0.0144387
768.433	0.0143880
768.511	0.0143908
768.589	0.0146026
768.667	0.0146943
768.745	0.0149942
768.823	0.0153201
768.901	0.0156528
768.979	0.0156893
769.058	0.0159389
769.136	0.0161691
769.214	0.0163337
769.292	0.0163878
769.370	0.0165630
769.448	0.0165582
769.526	0.0164662
769.604	0.0162178
769.683	0.0159676
769.761	0.0157629
769.839	0.0156326
769.917	0.0155328
769.995	0.0154450
770.073	0.0150646
770.151	0.0150784
770.229	0.0149335
770.308	0.0147523
770.386	0.0146756
770.464	0.0148701
770.542	0.0149718
770.620	0.0151322
770.698	0.0152990
770.776	0.0154819
770.854	0.0156408
770.933	0.0161034
771.011	0.0165434
771.089	0.0167788
771.167	0.0173296
771.245	0.0176544
771.323	0.0180457
771.401	0.0181712
771.479	0.0185384
771.558	0.0187466
771.636	0.0186921
771.714	0.0184760
771.792	0.0181403
771.870	0.0182592
771.948	0.0180058
772.026	0.0177754
772.104	0.0174697
772.183	0.0171751
772.261	0.0170255
772.339	0.0166702
772.417	0.0163708
772.495	0.0162890
772.573	0.0162820
772.651	0.0161089
772.729	0.0161470
772.808	0.0161576
772.886	0.0161036
772.964	0.0163883
773.042	0.0163972
773.120	0.0166187
773.198	0.0166962
773.276	0.0167773
773.354	0.0167839
773.433	0.0167303
773.511	0.0166212
773.589	0.0162334
773.667	0.0162376
773.745	0.0159280
773.823	0.0156982
773.901	0.0154106
773.979	0.0150058
774.058	0.0146913
774.136	0.0141351
774.214	0.0140045
774.292	0.0137157
774.370	0.0133733
774.448	0.0130525
774.526	0.0127760
774.604	0.0127895
774.683	0.0127038
774.761	0.0127663
774.839	0.0128690
774.917	0.0126337
774.995	0.0129498
775.073	0.0132288
775.151	0.0137101
775.229	0.0139443
775.308	0.0145488
775.386	0.0152518
775.464	0.0158479
775.542	0.0163515
775.620	0.0173103
775.698	0.0180590
775.776	0.0191126
775.854	0.0201136
775.933	0.0208019
776.011	0.0214219
776.089	0.0221112
776.167	0.0225545
776.245	0.0231149
776.323	0.0231052
776.401	0.0230859
776.479	0.0230033
776.558	0.0226249
776.636	0.0218005
776.714	0.0209715
776.792	0.0201108
776.870	0.0191977
776.948	0.0182140
777.026	0.0171600
777.104	0.0160839
777.183	0.0152117
777.261	0.0143739
777.339	0.0135988
777.417	0.0129907
777.495	0.0124570
777.573	0.0120128
777.651	0.0116869
777.729	0.0115841
777.808	0.0117807
777.886	0.0119086
777.964	0.0121120
778.042	0.0123679
778.120	0.0125994
778.198	0.0129761
778.276	0.0133444
778.354	0.0137663
778.433	0.0140737
778.511	0.0143758
778.589	0.0148809
778.667	0.0150060
778.745	0.0153339
778.823	0.0155595
778.901	0.0158817
778.979	0.0159010
779.058	0.0161590
779.136	0.0161821
779.214	0.0162745
779.292	0.0164536
779.370	0.0163478
779.448	0.0163335
779.526	0.0161885
779.604	0.0162070
779.683	0.0160077
779.761	0.0158793
779.839	0.0157637
779.917	0.0157357
779.995	0.0156381
780.073	0.0158164
780.151	0.0160148
780.229	0.0162147
780.308	0.0163668
780.386	0.0170807
780.464	0.0175453
780.542	0.0183463
780.620	0.0188824
780.698	0.0197637
780.776	0.0202901
780.854	0.0208142
780.933	0.0213504
781.011	0.0216702
781.089	0.0219156
781.167	0.0220844
781.245	0.0218887
781.323	0.0215082
781.401	0.0209756
781.479	0.0202887
781.558	0.0196207
781.636	0.0186625
781.714	0.0176861
781.792	0.0166032
781.870	0.0154259
781.948	0.0143791
782.026	0.0135593
782.104	0.0126908
782.183	0.0118784
782.261	0.0114754
782.339	0.0110383
782.417	0.0107992
782.495	0.0106795
782.573	0.0108915
782.651	0.0111966
782.729	0.0116124
782.808	0.0121849
782.886	0.0127280
782.964	0.0133797
783.042	0.0141070
783.120	0.0147630
783.198	0.0150792
783.276	0.0156114
783.354	0.0160332
783.433	0.0163483
783.511	0.0165485
783.589	0.0164583
783.667	0.0165758
783.745	0.0165292
783.823	0.0164159
783.901	0.0163676
783.979	0.0160764
784.058	0.0159711
784.136	0.0158904
784.214	0.0157004
784.292	0.0154942
784.370	0.0153810
784.448	0.0153258
784.526	0.0152445
784.604	0.0152140
784.683	0.0152451
784.761	0.0155787
784.839	0.0157124
784.917	0.0160030
784.995	0.0163764
785.073	0.0168970
785.151	0.0174532
785.229	0.0179651
785.308	0.0185368
785.386	0.0191995
785.464	0.0196859
785.542	0.0202666
785.620	0.0206902
785.698	0.0212370
785.776	0.0213924
785.854	0.0214890
785.933	0.0217297
786.011	0.0216768
786.089	0.0213026
786.167	0.0211537
786.245	0.0205421
786.323	0.0199532
786.401	0.0194132
786.479	0.0184946
786.558	0.0176804
786.636	0.0166782
786.714	0.0156646
786.792	0.0147542
786.870	0.0138776
786.948	0.0132497
787.026	0.0123346
787.104	0.0117760
787.183	0.0114275
787.261	0.0109499
787.339	0.0107935
787.417	0.0109910
787.495	0.0110261
787.573	0.0113998
787.651	0.0117586
787.729	0.0122227
787.808	0.0126552
787.886	0.0133923
787.964	0.0139605
788.042	0.0145443
788.120	0.0149845
788.198	0.0154772
788.276	0.0159234
788.354	0.0160914
788.433	0.0162337
788.511	0.0165428
788.589	0.0166097
788.667	0.0164438
788.745	0.0163313
788.823	0.0163837
788.901	0.0162025
788.979	0.0160065
789.058	0.0160283
789.136	0.0157786
789.214	0.0156880
789.292	0.0157640
789.370	0.0157490
789.448	0.0158243
789.526	0.0159965
789.604	0.0162040
789.683	0.0165858
789.761	0.0170690
789.839	0.0174652
789.917	0.0179445
789.995	0.0184960
790.073	0.0190961
790.151	0.0195792
790.229	0.0198342
790.308	0.0201431
790.386	0.0203467
790.464	0.0205901
790.542	0.0206580
790.620	0.0205626
790.698	0.0202895
790.776	0.0201842
790.854	0.0198470
790.933	0.0192715
791.011	0.0189137
791.089	0.0182947
791.167	0.0176942
791.245	0.0171389
791.323	0.0164631
791.401	0.0160234
791.479	0.0153752
791.558	0.0146993
791.636	0.0141584
791.714	0.0138173
791.792	0.0134947
791.870	0.0131137
791.948	0.0129636
792.026	0.0128422
792.104	0.0129945
792.183	0.0131371
792.261	0.0131841
792.339	0.0133492
792.417	0.0136378
792.495	0.0139094
792.573	0.0144152
792.651	0.0146222
792.729	0.0148561
792.808	0.0153815
792.886	0.0158532
792.964	0.0160860
793.042	0.0163131
793.120	0.0165551
793.198	0.0168709
793.276	0.0168582
793.354	0.0168298
793.433	0.0167876
793.511	0.0165456
793.589	0.0162368
793.667	0.0160653
793.745	0.0159045
793.823	0.0156333
793.901	0.0152996
793.979	0.0150522
794.058	0.0149091
794.136	0.0145657
794.214	0.0144202
794.292	0.0142983
794.370	0.0143356
794.448	0.0144014
794.526	0.0146806
794.604	0.0150890
794.683	0.0152979
794.761	0.0159999
794.839	0.0165482
794.917	0.0170484
794.995	0.0177391
795.073	0.0183657
795.151	0.0188393
795.229	0.0196596
795.308	0.0200848
795.386	0.0202866
795.464	0.0205169
795.542	0.0205988
795.620	0.0206163
795.698	0.0205328
795.776	0.0203004
795.854	0.0197903
795.933	0.0193343
796.011	0.0188126
796.089	0.0182941
796.167	0.0176014
796.245	0.0168736
796.323	0.0161054
796.401	0.0156495
796.479	0.0151807
796.558	0.0147482
796.636	0.0143199
796.714	0.0140278
796.792	0.0138879
796.870	0.0139666
796.948	0.0140379
797.026	0.0139391
797.104	0.0141648
797.183	0.0141950
797.261	0.0144092
797.339	0.0145954
797.417	0.0147858
797.495	0.0151820
797.573	0.0153027
797.651	0.0155925
797.729	0.0156281
797.808	0.0159967
797.886	0.0161996
797.964	0.0162606
798.042	0.0162901
798.120	0.0163951
798.198	0.0164056
798.276	0.0163094
798.354	0.0163642
798.433	0.0163719
798.511	0.0161936
798.589	0.0161945
798.667	0.0158660
798.745	0.0156168
798.823	0.0154268
798.901	0.0153204
798.979	0.0150389
799.058	0.0146981
799.136	0.0145217
799.214	0.0144154
799.292	0.0143388
799.370	0.0145248
799.448	0.0143568
799.526	0.0146594
799.604	0.0149404
799.683	0.0150799
799.761	0.0153876
799.839	0.0157881
799.917	0.0163499
799.995	0.0167271
800.073	0.0172399
800.151	0.0178160
800.229	0.0181451
800.308	0.0184575
800.386	0.0187920
800.464	0.0191908
800.542	0.0192826
800.620	0.0193252
800.698	0.0194526
800.776	0.0194202
800.854	0.0193114
800.933	0.0189162
801.011	0.0185728
801.089	0.0181294
801.167	0.0176590
801.245	0.0172845
801.323	0.0168497
801.401	0.0163618
801.479	0.0158570
801.558	0.0153152
801.636	0.0150974
801.714	0.0149649
801.792	0.0145827
801.870	0.0145564
801.948	0.0142868
802.026	0.0142723
802.104	0.0143857
802.183	0.0144804
802.261	0.0146530
802.339	0.0150734
802.417	0.0150687
802.495	0.0155371
802.573	0.0157738
802.651	0.0159431
802.729	0.0161718
802.808	0.0163483
802.886	0.0164489
802.964	0.0165779
803.042	0.0166812
803.120	0.0166892
803.198	0.0166571
803.276	0.0166755
803.354	0.0165752
803.433	0.0164394
803.511	0.0162688
803.589	0.0161503
803.667	0.0159950
803.745	0.0158926
803.823	0.0157106
803.901	0.0155905
803.979	0.0154541
804.058	0.0154147
804.136	0.0152172
804.214	0.0150426
804.292	0.0150565
804.370	0.0151994
804.448	0.0150889
804.526	0.0149581
804.604	0.0150318
804.683	0.0150954
804.761	0.0152066
804.839	0.0153930
804.917	0.0156216
804.995	0.0157109
805.073	0.0158344
805.151	0.0161122
805.229	0.0163895
805.308	0.0164544
805.386	0.0166119
805.464	0.0170052
805.542	0.0170766
805.620	0.0173905
805.698	0.0174191
805.776	0.0176775
805.854	0.0173811
805.933	0.0176621
806.011	0.0177057
806.089	0.0176103
806.167	0.0173626
806.245	0.0173943
806.323	0.0174100
806.401	0.0171465
806.479	0.0171266
806.558	0.0170179
806.636	0.0168378
806.714	0.0167731
806.792	0.0165104
806.870	0.0165536
806.948	0.0163450
807.026	0.0162448
807.104	0.0161010
807.183	0.0160532
807.261	0.0160499
807.339	0.0159727
807.417	0.0159618
807.495	0.0159718
807.573	0.0159193
807.651	0.0160120
807.729	0.0159592
807.808	0.0159127
807.886	0.0159105
807.964	0.0160484
808.042	0.0159184
808.120	0.0159763
808.198	0.0158938
808.276	0.0160969
808.354	0.0160168
808.433	0.0160471
808.511	0.0159462
808.589	0.0160256
808.667	0.0160349
808.745	0.0159509
808.823	0.0158706
808.901	0.0157518
808.979	0.0158621
809.058	0.0155999
809.136	0.0154060
809.214	0.0154012
809.292	0.0153407
809.370	0.0152580
809.448	0.0153312
809.526	0.0153250
809.604	0.0154008
809.683	0.0154936
809.761	0.0157568
809.839	0.0158527
809.917	0.0160814
809.995	0.0161181
810.073	0.0162019
810.151	0.0163430
810.229	0.0166377
810.308	0.0165768
810.386	0.0165540
810.464	0.0166850
810.542	0.0168504
810.620	0.0168363
810.698	0.0168592
810.776	0.0166956
810.854	0.0168005
810.933	0.0166452
811.011	0.0165632
811.089	0.0166536
811.167	0.0165289
811.245	0.0165986
811.323	0.0165025
811.401	0.0165291
811.479	0.0163857
811.558	0.0163840
811.636	0.0163439
811.714	0.0163765
811.792	0.0165224
811.870	0.0164732
811.948	0.0164719
812.026	0.0163518
812.104	0.0165389
812.183	0.0167226
812.261	0.0166535
812.339	0.0166898
812.417	0.0165810
812.495	0.0165923
812.573	0.0167068
812.651	0.0166752
812.729	0.0166207
812.808	0.0164755
812.886	0.0163704
812.964	0.0162277
813.042	0.0162330
813.120	0.0162109
813.198	0.0158720
813.276	0.0158041
813.354	0.0157557
813.433	0.0157207
813.511	0.0157172
813.589	0.0156923
813.667	0.0156092
813.745	0.0155709
813.823	0.0156274
813.901	0.0156642
813.979	0.0157803
814.058	0.0158444
814.136	0.0160356
814.214	0.0159734
814.292	0.0161596
814.370	0.0162182
814.448	0.0164587
814.526	0.0164326
814.604	0.0165264
814.683	0.0166331
814.761	0.0166808
814.839	0.0166243
814.917	0.0165614
814.995	0.0165467
815.073	0.0164066
815.151	0.0163919
815.229	0.0164977
815.308	0.0164604
815.386	0.0163953
815.464	0.0163175
815.542	0.0162962
815.620	0.0162515
815.698	0.0161806
815.776	0.0161470
815.854	0.0161337
815.933	0.0159885
816.011	0.0159867
816.089	0.0159782
816.167	0.0159783
816.245	0.0159617
816.323	0.0160162
816.401	0.0160820
816.479	0.0160929
816.558	0.0161272
816.636	0.0161474
816.714	0.0162742
816.792	0.0162640
816.870	0.0163191
816.948	0.0164105
817.026	0.0163647
817.104	0.0163434
817.183	0.0163643
817.261	0.0164420
817.339	0.0164480
817.417	0.0165307
817.495	0.0165033
817.573	0.0165254
817.651	0.0164677
817.729	0.0165640
817.808	0.0166245
817.886	0.0165606
817.964	0.0166328
818.042	0.0166187
818.120	0.0166453
818.198	0.0165713
818.276	0.0164939
818.354	0.0163580
818.433	0.0163855
818.511	0.0163609
818.589	0.0161191
818.667	0.0161442
818.745	0.0160361
818.823	0.0159597
818.901	0.0160211
818.979	0.0159531
819.058	0.0158031
819.136	0.0156671
819.214	0.0157777
819.292	0.0158779
819.370	0.0158676
819.448	0.0159598
819.526	0.0160377
819.604	0.0159988
819.683	0.0158988
819.761	0.0160606
819.839	0.0164344
819.917	0.0163965
819.995	0.0164475
820.073	0.0164272
820.151	0.0164436
820.229	0.0165806
820.308	0.0167690
820.386	0.0165731
820.464	0.0165777
820.542	0.0165865
820.620	0.0166640
820.698	0.0166847
820.776	0.0165052
820.854	0.0164395
820.933	0.0163987
821.011	0.0161702
821.089	0.0162807
821.167	0.0162634
821.245	0.0161416
821.323	0.0160815
821.401	0.0160822
821.479	0.0160661
821.558	0.0160408
821.636	0.0159696
821.714	0.0160009
821.792	0.0161526
821.870	0.0159927
821.948	0.0161978
822.026	0.0161398
822.104	0.0162415
822.183	0.0162777
822.261	0.0163992
822.339	0.0164419
822.417	0.0164776
822.495	0.0165293
822.573	0.0165317
822.651	0.0165662
822.729	0.0164783
822.808	0.0165933
822.886	0.0165411
822.964	0.0164164
823.042	0.0161769
823.120	0.0160262
823.198	0.0162629
823.276	0.0160207
823.354	0.0159850
823.433	0.0158601
823.511	0.0158413
823.589	0.0157961
823.667	0.0156814
823.745	0.0155582
823.823	0.0157993
823.901	0.0158794
823.979	0.0157992
824.058	0.0157804
824.136	0.0157819
824.214	0.0158624
824.292	0.0159900
824.370	0.0160666
824.448	0.0162260
824.526	0.0163977
824.604	0.0165257
824.683	0.0165611
824.761	0.0166019
824.839	0.0166036
824.917	0.0167087
824.995	0.0165819
825.073	0.0165046
825.151	0.0166463
825.229	0.0166677
825.308	0.0165302
825.386	0.0165128
825.464	0.0163744
825.542	0.0163853
825.620	0.0162711
825.698	0.0163097
825.776	0.0161602
825.854	0.0162262
825.933	0.0163243
826.011	0.0162566
826.089	0.0161681
826.167	0.0163042
826.245	0.0164655
826.323	0.0163448
826.401	0.0163493
826.479	0.0162753
826.558	0.0164764
826.636	0.0164141
826.714	0.0164259
826.792	0.0163454
826.870	0.0163203
826.948	0.0164556
827.026	0.0164054
827.104	0.0163702
827.183	0.0162863
827.261	0.0161250
827.339	0.0160908
827.417	0.0161346
827.495	0.0159525
827.573	0.0160094
827.651	0.0159102
827.729	0.0159505
827.808	0.0158779
827.886	0.0158418
827.964	0.0159363
828.042	0.0160707
828.120	0.0160313
828.198	0.0160184
828.276	0.0159940
828.354	0.0161410
828.433	0.0162430
828.511	0.0162386
828.589	0.0163286
828.667	0.0161659
828.745	0.0161847
828.823	0.0162124
828.901	0.0160828
828.979	0.0160308
829.058	0.0159882
829.136	0.0159331
829.214	0.0160180
829.292	0.0159260
829.370	0.0158733
829.448	0.0159132
829.526	0.0159623
829.604	0.0160354
829.683	0.0158916
829.761	0.0158988
829.839	0.0160201
829.917	0.0161839
829.995	0.0161644
830.073	0.0163463
830.151	0.0163366
830.229	0.0164075
830.308	0.0165628
830.386	0.0166893
830.464	0.0165502
830.542	0.0166438
830.620	0.0167253
830.698	0.0166019
830.776	0.0164835
830.854	0.0164812
830.933	0.0164813
831.011	0.0163557
831.089	0.0161710
831.167	0.0162502
831.245	0.0160806
831.323	0.0160775
831.401	0.0160574
831.479	0.0159911
831.558	0.0160291
831.636	0.0158895
831.714	0.0158981
831.792	0.0160353
831.870	0.0161140
831.948	0.0160574
832.026	0.0160148
832.104	0.0161106
832.183	0.0161606
832.261	0.0162399
832.339	0.0161957
832.417	0.0163116
832.495	0.0165014
832.573	0.0164072
832.651	0.0163689
832.729	0.0163791
832.808	0.0163992
832.886	0.0163482
832.964	0.0163049
833.042	0.0163451
833.120	0.0163163
833.198	0.0161376
833.276	0.0161186
833.354	0.0162035
833.433	0.0161988
833.511	0.0159868
833.589	0.0160677
833.667	0.0161094
833.745	0.0161836
833.823	0.0161166
833.901	0.0162476
833.979	0.0162541
834.058	0.0161666
834.136	0.0163733
834.214	0.0163634
834.292	0.0163040
834.370	0.0163159
834.448	0.0165245
834.526	0.0163994
834.604	0.0163295
834.683	0.0164707
834.761	0.0164005
834.839	0.0163488
834.917	0.0162296
834.995	0.0163153
835.073	0.0160191
835.151	0.0160611
835.229	0.0161428
835.308	0.0158858
835.386	0.0159161
835.464	0.0157796
835.542	0.0157880
835.620	0.0157112
835.698	0.0158349
835.776	0.0158990
835.854	0.0159082
835.933	0.0157729
836.011	0.0158902
836.089	0.0160420
836.167	0.0160210
836.245	0.0160242
836.323	0.0160997
836.401	0.0161800
836.479	0.0162900
836.558	0.0163446
836.636	0.0163171
836.714	0.0162341
836.792	0.0162965
836.870	0.0163905
836.948	0.0163287
837.026	0.0162309
837.104	0.0163462
837.183	0.0163123
837.261	0.0164143
837.339	0.0163490
837.417	0.0162352
837.495	0.0164889
837.573	0.0164088
837.651	0.0163211
837.729	0.0163915
837.808	0.0164258
837.886	0.0164510
837.964	0.0163645
838.042	0.0163391
838.120	0.0163116
838.198	0.0164680
838.276	0.0165593
838.354	0.0163530
838.433	0.0163524
838.511	0.0163861
838.589	0.0162766
838.667	0.0162599
838.745	0.0163744
838.823	0.0163898
838.901	0.0165126
838.979	0.0162847
839.058	0.0163684
839.136	0.0164207
839.214	0.0163120
839.292	0.0164245
839.370	0.0163960
839.448	0.0163445
839.526	0.0162493
839.604	0.0160949
839.683	0.0162230
839.761	0.0161842
839.839	0.0161320
839.917	0.0162701
839.995	0.0161620
840.073	0.0159164
840.151	0.0160873
840.229	0.0161120
840.308	0.0159337
840.386	0.0160123
840.464	0.0160200
840.542	0.0160291
840.620	0.0159478
840.698	0.0161620
840.776	0.0161929
840.854	0.0159506
840.933	0.0160422
841.011	0.0161012
841.089	0.0162096
841.167	0.0162968
841.245	0.0162096
841.323	0.0163699
841.401	0.0163129
841.479	0.0163870
841.558	0.0162794
841.636	0.0162865
841.714	0.0161723
841.792	0.0163609
841.870	0.0163535
841.948	0.0163370
842.026	0.0162318
842.104	0.0163205
842.183	0.0162209
842.261	0.0164044
842.339	0.0162236
842.417	0.0162083
842.495	0.0162561
842.573	0.0164214
842.651	0.0163791
842.729	0.0162624
842.808	0.0162897
842.886	0.0163298
842.964	0.0164697
843.042	0.0163846
843.120	0.0163618
843.198	0.0162267
843.276	0.0162122
843.354	0.0162637
843.433	0.0163161
843.511	0.0163689
843.589	0.0163338
843.667	0.0161584
843.745	0.0161290
843.823	0.0162002
843.901	0.0161691
843.979	0.0161436
844.058	0.0160002
844.136	0.0160033
844.214	0.0160881
844.292	0.0160438
844.370	0.0162118
844.448	0.0162566
844.526	0.0163351
844.604	0.0163669
844.683	0.0164045
844.761	0.0163744
844.839	0.0165076
844.917	0.0166205
844.995	0.0165766
845.073	0.0165750
845.151	0.0167392
845.229	0.0166714
845.308	0.0167427
845.386	0.0166108
845.464	0.0165541
845.542	0.0164959
845.620	0.0164182
845.698	0.0164225
845.776	0.0164947
845.854	0.0163234
845.933	0.0163590
846.011	0.0162331
846.089	0.0162859
846.167	0.0162476
846.245	0.0161134
846.323	0.0162088
846.401	0.0161311
846.479	0.0159966
846.558	0.0162038
846.636	0.0160262
846.714	0.0162219
846.792	0.0160895
846.870	0.0160131
846.948	0.0162186
847.026	0.0162017
847.104	0.0160477
847.183	0.0161106
847.261	0.0161436
847.339	0.0162131
847.417	0.0161929
847.495	0.0161279
847.573	0.0160776
847.651	0.0160833
847.729	0.0160587
847.808	0.0159409
847.886	0.0161167
847.964	0.0160495
848.042	0.0159406
848.120	0.0158716
848.198	0.0157449
848.276	0.0158900
848.354	0.0159637
848.433	0.0160320
848.511	0.0159870
848.589	0.0160116
848.667	0.0159298
848.745	0.0160475
848.823	0.0161801
848.901	0.0160830
848.979	0.0162749
849.058	0.0161553
849.136	0.0164151
849.214	0.0164785
849.292	0.0165610
849.370	0.0163684
849.448	0.0164027
849.526	0.0165504
849.604	0.0164322
849.683	0.0165824
849.761	0.0164695
849.839	0.0164047
849.917	0.0164365
849.995	0.0164836
850.073	0.0165470
850.151	0.0165806
850.229	0.0165369
850.308	0.0164976
850.386	0.0165517
850.464	0.0164507
850.542	0.0164951
850.620	0.0164072
850.698	0.0164658
850.776	0.0164516
850.854	0.0163290
850.933	0.0163190
851.011	0.0163795
851.089	0.0164841
851.167	0.0164543
851.245	0.0164819
851.323	0.0164095
851.401	0.0162457
851.479	0.0162233
851.558	0.0165007
851.636	0.0163544
851.714	0.0163289
851.792	0.0164580
851.870	0.0162987
851.948	0.0163583
852.026	0.0161576
852.104	0.0160554
852.183	0.0160328
852.261	0.0160561
852.339	0.0160403
852.417	0.0160504
852.495	0.0159312
852.573	0.0159241
852.651	0.0159519
852.729	0.0160012
852.808	0.0159715
852.886	0.0160120
852.964	0.0158427
853.042	0.0160501
853.120	0.0160309
853.198	0.0159507
853.276	0.0160958
853.354	0.0161762
853.433	0.0162610
853.511	0.0161880
853.589	0.0161729
853.667	0.0164197
853.745	0.0163031
853.823	0.0163909
853.901	0.0165434
853.979	0.0165550
854.058	0.0164478
854.136	0.0164425
854.214	0.0165178
854.292	0.0165541
854.370	0.0164925
854.448	0.0164246
854.526	0.0162479
854.604	0.0161792
854.683	0.0162704
854.761	0.0161880
854.839	0.0159829
854.917	0.0159618
854.995	0.0158372
855.073	0.0159631
855.151	0.0160619
855.229	0.0160073
855.308	0.0162196
855.386	0.0160987
855.464	0.0161535
855.542	0.0162832
855.620	0.0163489
855.698	0.0162631
855.776	0.0162933
855.854	0.0162350
855.933	0.0163317
856.011	0.0164167
856.089	0.0163632
856.167	0.0163264
856.245	0.0162987
856.323	0.0164719
856.401	0.0164592
856.479	0.0161563
856.558	0.0162491
856.636	0.0163778
856.714	0.0164898
856.792	0.0164239
856.870	0.0165224
856.948	0.0163760
857.026	0.0165079
857.104	0.0164961
857.183	0.0164078
857.261	0.0164724
857.339	0.0165958
857.417	0.0164578
857.495	0.0164635
857.573	0.0164812
857.651	0.0163989
857.729	0.0164723
857.808	0.0163312
857.886	0.0163934
857.964	0.0161269
858.042	0.0161610
858.120	0.0162294
858.198	0.0161594
858.276	0.0160375
858.354	0.0159469
858.433	0.0158559
858.511	0.0159224
858.589	0.0159044
858.667	0.0159427
858.745	0.0158923
858.823	0.0159704
858.901	0.0160194
858.979	0.0160219
859.058	0.0160837
859.136	0.0162495
859.214	0.0162930
859.292	0.0162647
859.370	0.0162634
859.448	0.0162943
859.526	0.0163914
859.604	0.0165040
859.683	0.0165656
859.761	0.0164694
859.839	0.0166608
859.917	0.0163240
859.995	0.0166991
860.073	0.0166444
860.151	0.0164346
860.229	0.0164361
860.308	0.0165250
860.386	0.0162195
860.464	0.0162492
860.542	0.0161831
860.620	0.0160986
860.698	0.0162033
860.776	0.0161784
860.854	0.0161883
860.933	0.0160647
861.011	0.0159736
861.089	0.0160905
861.167	0.0162376
861.245	0.0160813
861.323	0.0162236
861.401	0.0161536
861.479	0.0160565
861.558	0.0162639
861.636	0.0163043
861.714	0.0162241
861.792	0.0162034
861.870	0.0161734
861.948	0.0160474
862.026	0.0162375
862.104	0.0160963
862.183	0.0160341
862.261	0.0160249
862.339	0.0161228
862.417	0.0160865
862.495	0.0160825
862.573	0.0159925
862.651	0.0159814
862.729	0.0159923
862.808	0.0161507
862.886	0.0162140
862.964	0.0161954
863.042	0.0162360
863.120	0.0163914
863.198	0.0164742
863.276	0.0164880
863.354	0.0164973
863.433	0.0165915
863.511	0.0166397
863.589	0.0167095
863.667	0.0168444
863.745	0.0167434
863.823	0.0169128
863.901	0.0170555
863.979	0.0169776
864.058	0.0169458
864.136	0.0168446
864.214	0.0169030
864.292	0.0168018
864.370	0.0165427
864.448	0.0165579
864.526	0.0164703
864.604	0.0162923
864.683	0.0161259
864.761	0.0161372
864.839	0.0160466
864.917	0.0158591
864.995	0.0158598
865.073	0.0156930
865.151	0.0158868
865.229	0.0159338
865.308	0.0156588
865.386	0.0158144
865.464	0.0157660
865.542	0.0159180
865.620	0.0160802
865.698	0.0159338
865.776	0.0160685
865.854	0.0161864
865.933	0.0161004
866.011	0.0162028
866.089	0.0160566
866.167	0.0161166
866.245	0.0161725
866.323	0.0161082
866.401	0.0160313
866.479	0.0157595
866.558	0.0159001
866.636	0.0158443
866.714	0.0159107
866.792	0.0156491
866.870	0.0155951
866.948	0.0156734
867.026	0.0155482
867.104	0.0155962
867.183	0.0157014
867.261	0.0157098
867.339	0.0157274
867.417	0.0157752
867.495	0.0160080
867.573	0.0160567
867.651	0.0161131
867.729	0.0164135
867.808	0.0164800
867.886	0.0165180
867.964	0.0168568
868.042	0.0169270
868.120	0.0169942
868.198	0.0171824
868.276	0.0170382
868.354	0.0171590
868.433	0.0172582
868.511	0.0172031
868.589	0.0172746
868.667	0.0172088
868.745	0.0170998
868.823	0.0169525
868.901	0.0167909
868.979	0.0169159
869.058	0.0168285
869.136	0.0167460
869.214	0.0165601
869.292	0.0164719
869.370	0.0165359
869.448	0.0163554
869.526	0.0163982
869.604	0.0163961
869.683	0.0163326
869.761	0.0163403
869.839	0.0161817
869.917	0.0161146
869.995	0.0162566
870.073	0.0161636
870.151	0.0159779
870.229	0.0160068
870.308	0.0160925
870.386	0.0160056
870.464	0.0158009
870.542	0.0159827
870.620	0.0157447
870.698	0.0157911
870.776	0.0157272
870.854	0.0156672
870.933	0.0154768
871.011	0.0155588
871.089	0.0155408
871.167	0.0153913
871.245	0.0154096
871.323	0.0153848
871.401	0.0151958
871.479	0.0153954
871.558	0.0155551
871.636	0.0155704
871.714	0.0155318
871.792	0.0155958
871.870	0.0156699
871.948	0.0159502
872.026	0.0160242
872.104	0.0161278
872.183	0.0164088
872.261	0.0164444
872.339	0.0166479
872.417	0.0167464
872.495	0.0168054
872.573	0.0168110
872.651	0.0168615
872.729	0.0170802
872.808	0.0171639
872.886	0.0172048
872.964	0.0171797
873.042	0.0170465
873.120	0.0171799
873.198	0.0171668
873.276	0.0170574
873.354	0.0169935
873.433	0.0169857
873.511	0.0169634
873.589	0.0167540
873.667	0.0167614
873.745	0.0166665
873.823	0.0163927
873.901	0.0163885
873.979	0.0162169
874.058	0.0161800
874.136	0.0161285
874.214	0.0161144
874.292	0.0160624
874.370	0.0158342
874.448	0.0158784
874.526	0.0157963
874.604	0.0157313
874.683	0.0157790
874.761	0.0156671
874.839	0.0156640
874.917	0.0158971
874.995	0.0158714
875.073	0.0158157
875.151	0.0159430
875.229	0.0158226
875.308	0.0158552
875.386	0.0159327
875.464	0.0159339
875.542	0.0159947
875.620	0.0159472
875.698	0.0161378
875.776	0.0160406
875.854	0.0161288
875.933	0.0159592
876.011	0.0161938
876.089	0.0160603
876.167	0.0161238
876.245	0.0162449
876.323	0.0161729
876.401	0.0162476
876.479	0.0162838
876.558	0.0162587
876.636	0.0163101
876.714	0.0164697
876.792	0.0164124
876.870	0.0164423
876.948	0.0165068
877.026	0.0165639
877.104	0.0165379
877.183	0.0166962
877.261	0.0165562
877.339	0.0166420
877.417	0.0167140
877.495	0.0167090
877.573	0.0169064
877.651	0.0169398
877.729	0.0168974
877.808	0.0168468
877.886	0.0167170
877.964	0.0166707
878.042	0.0168166
878.120	0.0166954
878.198	0.0166057
878.276	0.0164943
878.354	0.0164862
878.433	0.0164703
878.511	0.0161575
878.589	0.0161202
878.667	0.0161675
878.745	0.0160017
878.823	0.0159869
878.901	0.0158475
878.979	0.0156954
879.058	0.0156131
879.136	0.0156255
879.214	0.0155704
879.292	0.0154819
879.370	0.0154971
879.448	0.0154907
879.526	0.0154418
879.604	0.0155193
879.683	0.0155967
879.761	0.0156240
879.839	0.0156924
879.917	0.0158140
879.995	0.0158446
880.073	0.0158158
880.151	0.0160072
880.229	0.0160358
880.308	0.0160477
880.386	0.0161385
880.464	0.0162550
880.542	0.0163093
880.620	0.0164887
880.698	0.0165080
880.776	0.0164724
880.854	0.0164581
880.933	0.0166134
881.011	0.0165961
881.089	0.0167093
881.167	0.0165870
881.245	0.0166765
881.323	0.0165944
881.401	0.0165385
881.479	0.0167201
881.558	0.0166222
881.636	0.0166093
881.714	0.0165564
881.792	0.0166166
881.870	0.0165765
881.948	0.0166739
882.026	0.0166747
882.104	0.0166537
882.183	0.0168053
882.261	0.0168744
882.339	0.0167976
882.417	0.0170194
882.495	0.0169463
882.573	0.0169529
882.651	0.0170813
882.729	0.0169247
882.808	0.0169624
882.886	0.0168848
882.964	0.0167333
883.042	0.0166930
883.120	0.0165124
883.198	0.0164997
883.276	0.0162929
883.354	0.0161488
883.433	0.0161076
883.511	0.0159667
883.589	0.0157215
883.667	0.0157427
883.745	0.0154758
883.823	0.0155085
883.901	0.0153365
883.979	0.0153151
884.058	0.0153913
884.136	0.0154061
884.214	0.0153044
884.292	0.0153082
884.370	0.0153999
884.448	0.0153434
884.526	0.0154702
884.604	0.0155063
884.683	0.0156561
884.761	0.0158016
884.839	0.0158397
884.917	0.0159795
884.995	0.0160204
885.073	0.0160928
885.151	0.0161324
885.229	0.0162921
885.308	0.0161166
885.386	0.0161852
885.464	0.0163891
885.542	0.0163335
885.620	0.0164054
885.698	0.0164133
885.776	0.0165002
885.854	0.0164935
885.933	0.0164696
886.011	0.0164365
886.089	0.0165752
886.167	0.0165929
886.245	0.0167158
886.323	0.0165424
886.401	0.0165633
886.479	0.0166805
886.558	0.0166171
886.636	0.0167226
886.714	0.0168127
886.792	0.0168036
886.870	0.0169184
886.948	0.0167821
887.026	0.0168324
887.104	0.0168081
887.183	0.0169600
887.261	0.0168224
887.339	0.0169630
887.417	0.0169158
887.495	0.0168027
887.573	0.0168552
887.651	0.0168132
887.729	0.0167540
887.808	0.0167919
887.886	0.0166024
887.964	0.0164761
888.042	0.0163960
888.120	0.0164394
888.198	0.0163763
888.276	0.0162192
888.354	0.0161388
888.433	0.0159943
888.511	0.0160241
888.589	0.0159741
888.667	0.0159237
888.745	0.0157549
888.823	0.0158809
888.901	0.0158340
888.979	0.0157421
889.058	0.0156168
889.136	0.0156924
889.214	0.0158673
889.292	0.0156119
889.370	0.0156203
889.448	0.0157141
889.526	0.0156736
889.604	0.0157730
889.683	0.0158012
889.761	0.0159044
889.839	0.0158713
889.917	0.0157238
889.995	0.0158261
890.073	0.0158812
890.151	0.0159385
890.229	0.0159876
890.308	0.0159849
890.386	0.0160883
890.464	0.0159448
890.542	0.0159846
890.620	0.0161845
890.698	0.0162601
890.776	0.0162208
890.854	0.0163495
890.933	0.0163176
891.011	0.0163706
891.089	0.0163799
891.167	0.0164600
891.245	0.0165060
891.323	0.0166011
891.401	0.0165144
891.479	0.0166469
891.558	0.0167698
891.636	0.0167542
891.714	0.0166888
891.792	0.0167329
891.870	0.0168053
891.948	0.0167034
892.026	0.0166341
892.104	0.0167200
892.183	0.0167743
892.261	0.0166840
892.339	0.0165327
892.417	0.0165611
892.495	0.0166706
892.573	0.0165083
892.651	0.0166172
892.729	0.0165041
892.808	0.0164044
892.886	0.0164614
892.964	0.0164355
893.042	0.0165388
893.120	0.0164935
893.198	0.0163042
893.276	0.0163290
893.354	0.0162628
893.433	0.0161391
893.511	0.0162560
893.589	0.0163559
893.667	0.0160818
893.745	0.0162210
893.823	0.0161556
893.901	0.0161832
893.979	0.0160918
894.058	0.0160110
894.136	0.0159634
894.214	0.0160188
894.292	0.0161391
894.370	0.0158800
894.448	0.0160252
894.526	0.0159211
894.604	0.0159392
894.683	0.0159647
894.761	0.0159380
894.839	0.0158366
894.917	0.0158717
894.995	0.0159043
895.073	0.0159312
895.151	0.0158356
895.229	0.0158434
895.308	0.0158025
895.386	0.0158459
895.464	0.0158984
895.542	0.0159087
895.620	0.0158683
895.698	0.0159523
895.776	0.0160258
895.854	0.0159178
895.933	0.0159837
896.011	0.0160867
896.089	0.0160212
896.167	0.0160580
896.245	0.0161472
896.323	0.0161565
896.401	0.0161445
896.479	0.0162706
896.558	0.0162501
896.636	0.0162990
896.714	0.0162980
896.792	0.0164881
896.870	0.0165735
896.948	0.0165285
897.026	0.0165131
897.104	0.0165627
897.183	0.0167048
897.261	0.0166286
897.339	0.0166512
897.417	0.0166351
897.495	0.0167300
897.573	0.0166055
897.651	0.0166418
897.729	0.0165910
897.808	0.0166467
897.886	0.0166176
897.964	0.0165120
898.042	0.0163528
898.120	0.0165177
898.198	0.0165802
898.276	0.0163682
898.354	0.0163990
898.433	0.0162668
898.511	0.0161880
898.589	0.0162811
898.667	0.0163750
898.745	0.0161518
898.823	0.0160405
898.901	0.0161099
898.979	0.0161530
899.058	0.0161691
899.136	0.0162191
899.214	0.0160520
899.292	0.0160496
899.370	0.0161668
899.448	0.0162662
899.526	0.0161676
899.604	0.0160766
899.683	0.0162160
899.761	0.0162201
899.839	0.0162491
899.917	0.0161732
899.995	0.0161976
900.073	0.0161131
900.151	0.0162424
900.229	0.0162064
900.308	0.0162095
900.386	0.0161777
900.464	0.0161024
900.542	0.0161356
900.620	0.0160396
900.698	0.0159636
900.776	0.0160809
900.854	0.0160842
900.933	0.0160337
901.011	0.0161622
901.089	0.0160403
901.167	0.0159032
901.245	0.0159684
901.323	0.0160782
901.401	0.0159760
901.479	0.0160444
901.558	0.0160288
901.636	0.0161989
901.714	0.0160292
901.792	0.0162268
901.870	0.0162498
901.948	0.0161141
902.026	0.0161963
902.104	0.0164196
902.183	0.0162259
902.261	0.0162697
902.339	0.0163588
902.417	0.0163933
902.495	0.0163852
902.573	0.0163316
902.651	0.0164615
902.729	0.0163992
902.808	0.0166006
902.886	0.0165765
902.964	0.0163813
903.042	0.0166072
903.120	0.0164339
903.198	0.0165125
903.276	0.0165694
903.354	0.0164317
903.433	0.0162415
903.511	0.0163095
903.589	0.0164326
903.667	0.0163896
903.745	0.0162460
903.823	0.0162543
903.901	0.0162476
903.979	0.0164486
904.058	0.0163626
904.136	0.0162596
904.214	0.0163218
904.292	0.0163860
904.370	0.0162587
904.448	0.0162651
904.526	0.0162408
904.604	0.0163927
904.683	0.0163580
904.761	0.0162856
904.839	0.0163524
904.917	0.0162809
904.995	0.0163096
905.073	0.0163898
905.151	0.0161556
905.229	0.0161978
905.308	0.0163017
905.386	0.0162654
905.464	0.0163155
905.542	0.0161435
905.620	0.0162788
905.698	0.0162622
905.776	0.0162022
905.854	0.0161382
905.933	0.0161196
906.011	0.0161630
906.089	0.0160744
906.167	0.0160610
906.245	0.0161271
906.323	0.0161945
906.401	0.0161902
906.479	0.0161062
906.558	0.0159913
906.636	0.0161180
906.714	0.0161516
906.792	0.0161570
906.870	0.0161566
906.948	0.0160133
907.026	0.0160864
907.104	0.0161715
907.183	0.0164117
907.261	0.0163256
907.339	0.0162944
907.417	0.0163111
907.495	0.0163790
907.573	0.0164233
907.651	0.0163297
907.729	0.0164493
907.808	0.0163098
907.886	0.0163943
907.964	0.0163554
908.042	0.0163931
908.120	0.0163618
908.198	0.0163702
908.276	0.0164835
908.354	0.0163188
908.433	0.0162263
908.511	0.0163741
908.589	0.0161835
908.667	0.0163580
908.745	0.0163240
908.823	0.0162205
908.901	0.0161546
908.979	0.0163088
909.058	0.0162725
909.136	0.0162177
909.214	0.0164288
909.292	0.0163006
909.370	0.0163633
909.448	0.0164392
909.526	0.0164207
909.604	0.0164939
909.683	0.0165064
909.761	0.0163627
909.839	0.0162661
909.917	0.0164006
909.995	0.0163355
910.073	0.0162587
910.151	0.0163057
910.229	0.0162992
910.308	0.0162122
910.386	0.0163248
910.464	0.0161572
910.542	0.0162184
910.620	0.0161832
910.698	0.0161150
910.776	0.0159604
910.854	0.0159251
910.933	0.0159999
911.011	0.0160461
911.089	0.0161729
911.167	0.0161203
911.245	0.0160780
911.323	0.0160472
911.401	0.0162985
911.479	0.0162797
911.558	0.0161485
911.636	0.0162166
911.714	0.0162508
911.792	0.0162820
911.870	0.0163107
911.948	0.0164308
912.026	0.0162881
912.104	0.0163258
912.183	0.0163802
912.261	0.0164696
912.339	0.0163912
912.417	0.0163665
912.495	0.0163680
912.573	0.0163584
912.651	0.0164159
912.729	0.0163654
912.808	0.0164762
912.886	0.0163800
912.964	0.0163667
913.042	0.0164504
913.120	0.0164422
913.198	0.0163721
913.276	0.0164523
913.354	0.0163818
913.433	0.0164083
913.511	0.0163251
913.589	0.0162634
913.667	0.0162961
913.745	0.0164927
913.823	0.0162865
913.901	0.0162608
913.979	0.0163347
914.058	0.0164414
914.136	0.0162764
914.214	0.0162717
914.292	0.0164043
914.370	0.0162819
914.448	0.0163036
914.526	0.0163297
914.604	0.0162827
914.683	0.0163206
914.761	0.0163289
914.839	0.0162402
914.917	0.0163422
914.995	0.0163380
915.073	0.0162837
915.151	0.0163113
915.229	0.0161757
915.308	0.0162048
915.386	0.0162074
915.464	0.0162504
915.542	0.0162115
915.620	0.0159982
915.698	0.0160741
915.776	0.0160749
915.854	0.0160374
915.933	0.0160869
916.011	0.0160193
916.089	0.0160278
916.167	0.0159827
916.245	0.0159939
916.323	0.0160907
916.401	0.0159534
916.479	0.0161422
916.558	0.0160671
916.636	0.0161417
916.714	0.0161063
916.792	0.0160954
916.870	0.0159661
916.948	0.0160568
917.026	0.0160725
917.104	0.0161572
917.183	0.0162278
917.261	0.0163926
917.339	0.0163073
917.417	0.0163300
917.495	0.0163638
917.573	0.0163358
917.651	0.0164591
917.729	0.0165845
917.808	0.0166005
917.886	0.0166035
917.964	0.0165882
918.042	0.0166793
918.120	0.0166798
918.198	0.0166592
918.276	0.0166251
918.354	0.0166273
918.433	0.0165592
918.511	0.0165085
918.589	0.0166279
918.667	0.0164872
918.745	0.0164272
918.823	0.0165332
918.901	0.0164150
918.979	0.0163528
919.058	0.0163546
919.136	0.0164802
919.214	0.0163231
919.292	0.0162122
919.370	0.0161607
919.448	0.0160683
919.526	0.0162604
919.604	0.0162135
919.683	0.0162024
919.761	0.0161968
919.839	0.0161790
919.917	0.0160990
