06/10/2022	16:23:17	Ver.	4.1	UNKNOWN
Optical Delay	599.995081	Delta X		0.078125	Sweeps	1	Scan Rate	0/0
Coordinates	Axis 1	NaN	Axis 2	NaN	Axis 3	NaN	Axis 4	NaN	Axis 5	NaN	Axis 6	0.000000
TX Power	0.000000	RX Power	0.000000

599.995	0.0162273
600.073	0.0161737
600.151	0.0161050
600.229	0.0161430
600.308	0.0162178
600.386	0.0161972
600.464	0.0162167
600.542	0.0162875
600.620	0.0161449
600.698	0.0162970
600.776	0.0162883
600.854	0.0162579
600.933	0.0161015
601.011	0.0163151
601.089	0.0162761
601.167	0.0161668
601.245	0.0161745
601.323	0.0161442
601.401	0.0162669
601.479	0.0163377
601.558	0.0161860
601.636	0.0162984
601.714	0.0161800
601.792	0.0161622
601.870	0.0162460
601.948	0.0162704
602.026	0.0161687
602.104	0.0161405
602.183	0.0162564
602.261	0.0161482
602.339	0.0162708
602.417	0.0163137
602.495	0.0163307
602.573	0.0161373
602.651	0.0161476
602.729	0.0162199
602.808	0.0161864
602.886	0.0161172
602.964	0.0162404
603.042	0.0162486
603.120	0.0161922
603.198	0.0161821
603.276	0.0163184
603.354	0.0161481
603.433	0.0161835
603.511	0.0161301
603.589	0.0162458
603.667	0.0161696
603.745	0.0162440
603.823	0.0161806
603.901	0.0162319
603.979	0.0162868
604.058	0.0162027
604.136	0.0162917
604.214	0.0161471
604.292	0.0161537
604.370	0.0162782
604.448	0.0162223
604.526	0.0162038
604.604	0.0162298
604.683	0.0161400
604.761	0.0162306
604.839	0.0162218
604.917	0.0161389
604.995	0.0161794
605.073	0.0163157
605.151	0.0162056
605.229	0.0161145
605.308	0.0162420
605.386	0.0162312
605.464	0.0162296
605.542	0.0163608
605.620	0.0161372
605.698	0.0161942
605.776	0.0162276
605.854	0.0162302
605.933	0.0162272
606.011	0.0161507
606.089	0.0160906
606.167	0.0162477
606.245	0.0162840
606.323	0.0162327
606.401	0.0163065
606.479	0.0162618
606.558	0.0161132
606.636	0.0161476
606.714	0.0161491
606.792	0.0162830
606.870	0.0162622
606.948	0.0162381
607.026	0.0162181
607.104	0.0162534
607.183	0.0163531
607.261	0.0161998
607.339	0.0162922
607.417	0.0162230
607.495	0.0162375
607.573	0.0162006
607.651	0.0161167
607.729	0.0162717
607.808	0.0162567
607.886	0.0161489
607.964	0.0161217
608.042	0.0162348
608.120	0.0162837
608.198	0.0162196
608.276	0.0163100
608.354	0.0162486
608.433	0.0161935
608.511	0.0162468
608.589	0.0162066
608.667	0.0159813
608.745	0.0162046
608.823	0.0162317
608.901	0.0162657
608.979	0.0162146
609.058	0.0162127
609.136	0.0162231
609.214	0.0162553
609.292	0.0161648
609.370	0.0162650
609.448	0.0159619
609.526	0.0161620
609.604	0.0161539
609.683	0.0162938
609.761	0.0161612
609.839	0.0160974
609.917	0.0162599
609.995	0.0161946
610.073	0.0162041
610.151	0.0162201
610.229	0.0161068
610.308	0.0161797
610.386	0.0161535
610.464	0.0162309
610.542	0.0162422
610.620	0.0162322
610.698	0.0162640
610.776	0.0162385
610.854	0.0160879
610.933	0.0162428
611.011	0.0162216
611.089	0.0161203
611.167	0.0161742
611.245	0.0162183
611.323	0.0161526
611.401	0.0161293
611.479	0.0162771
611.558	0.0162663
611.636	0.0162688
611.714	0.0162910
611.792	0.0162277
611.870	0.0161267
611.948	0.0161581
612.026	0.0161288
612.104	0.0162321
612.183	0.0160944
612.261	0.0162379
612.339	0.0162101
612.417	0.0162251
612.495	0.0161624
612.573	0.0160753
612.651	0.0161759
612.729	0.0161903
612.808	0.0162445
612.886	0.0161797
612.964	0.0162730
613.042	0.0162432
613.120	0.0162442
613.198	0.0161916
613.276	0.0161037
613.354	0.0161381
613.433	0.0162101
613.511	0.0162559
613.589	0.0162888
613.667	0.0162921
613.745	0.0163135
613.823	0.0163338
613.901	0.0162708
613.979	0.0162486
614.058	0.0162201
614.136	0.0162611
614.214	0.0162631
614.292	0.0160838
614.370	0.0162801
614.448	0.0163550
614.526	0.0162901
614.604	0.0163358
614.683	0.0162438
614.761	0.0160423
614.839	0.0161669
614.917	0.0162448
614.995	0.0161540
615.073	0.0161601
615.151	0.0162514
615.229	0.0162685
615.308	0.0162595
615.386	0.0162563
615.464	0.0161150
615.542	0.0160870
615.620	0.0163051
615.698	0.0161952
615.776	0.0162290
615.854	0.0161906
615.933	0.0162044
616.011	0.0161240
616.089	0.0162215
616.167	0.0161289
616.245	0.0163013
616.323	0.0161816
616.401	0.0162538
616.479	0.0161320
616.558	0.0162078
616.636	0.0161839
616.714	0.0162402
616.792	0.0161575
616.870	0.0162500
616.948	0.0161685
617.026	0.0161240
617.104	0.0161578
617.183	0.0161787
617.261	0.0162754
617.339	0.0161503
617.417	0.0163168
617.495	0.0161256
617.573	0.0162309
617.651	0.0160651
617.729	0.0162650
617.808	0.0161129
617.886	0.0160902
617.964	0.0161800
618.042	0.0163457
618.120	0.0161852
618.198	0.0161659
618.276	0.0163223
618.354	0.0161727
618.433	0.0161322
618.511	0.0161833
618.589	0.0162463
618.667	0.0161719
618.745	0.0161279
618.823	0.0161696
618.901	0.0161598
618.979	0.0162519
619.058	0.0161945
619.136	0.0161186
619.214	0.0161978
619.292	0.0162706
619.370	0.0162243
619.448	0.0161664
619.526	0.0160805
619.604	0.0161057
619.683	0.0163231
619.761	0.0162632
619.839	0.0162765
619.917	0.0162399
619.995	0.0161242
620.073	0.0161850
620.151	0.0162816
620.229	0.0162067
620.308	0.0162162
620.386	0.0161114
620.464	0.0162600
620.542	0.0162520
620.620	0.0161106
620.698	0.0161716
620.776	0.0162215
620.854	0.0162402
620.933	0.0162121
621.011	0.0162682
621.089	0.0161885
621.167	0.0162943
621.245	0.0162357
621.323	0.0162516
621.401	0.0161037
621.479	0.0162099
621.558	0.0162598
621.636	0.0161007
621.714	0.0162672
621.792	0.0160601
621.870	0.0162153
621.948	0.0161653
622.026	0.0161082
622.104	0.0160904
622.183	0.0163131
622.261	0.0162978
622.339	0.0161706
622.417	0.0161598
622.495	0.0162997
622.573	0.0161352
622.651	0.0161594
622.729	0.0162251
622.808	0.0161846
622.886	0.0162099
622.964	0.0162754
623.042	0.0161292
623.120	0.0162628
623.198	0.0162367
623.276	0.0161737
623.354	0.0162705
623.433	0.0163143
623.511	0.0162603
623.589	0.0163087
623.667	0.0161268
623.745	0.0161877
623.823	0.0163107
623.901	0.0162823
623.979	0.0162888
624.058	0.0162183
624.136	0.0162561
624.214	0.0161797
624.292	0.0162641
624.370	0.0163183
624.448	0.0162783
624.526	0.0162403
624.604	0.0162500
624.683	0.0161423
624.761	0.0161653
624.839	0.0161336
624.917	0.0161942
624.995	0.0163596
625.073	0.0162290
625.151	0.0161063
625.229	0.0161946
625.308	0.0163038
625.386	0.0162837
625.464	0.0162116
625.542	0.0162115
625.620	0.0162271
625.698	0.0163831
625.776	0.0162975
625.854	0.0161447
625.933	0.0161987
626.011	0.0162301
626.089	0.0161826
626.167	0.0162553
626.245	0.0163316
626.323	0.0164082
626.401	0.0162914
626.479	0.0162283
626.558	0.0162312
626.636	0.0163881
626.714	0.0163085
626.792	0.0161789
626.870	0.0161183
626.948	0.0162698
627.026	0.0162442
627.104	0.0161308
627.183	0.0161867
627.261	0.0162713
627.339	0.0161027
627.417	0.0163490
627.495	0.0162990
627.573	0.0162331
627.651	0.0162940
627.729	0.0161393
627.808	0.0162000
627.886	0.0162133
627.964	0.0162287
628.042	0.0163259
628.120	0.0161746
628.198	0.0162637
628.276	0.0162395
628.354	0.0161266
628.433	0.0162189
628.511	0.0162875
628.589	0.0161526
628.667	0.0162017
628.745	0.0162795
628.823	0.0161665
628.901	0.0160989
628.979	0.0161233
629.058	0.0163074
629.136	0.0162325
629.214	0.0161806
629.292	0.0161951
629.370	0.0162254
629.448	0.0163205
629.526	0.0162404
629.604	0.0160731
629.683	0.0161512
629.761	0.0162756
629.839	0.0162852
629.917	0.0161557
629.995	0.0162487
630.073	0.0163414
630.151	0.0162835
630.229	0.0162047
630.308	0.0162443
630.386	0.0162547
630.464	0.0162074
630.542	0.0163824
630.620	0.0162244
630.698	0.0161583
630.776	0.0162856
630.854	0.0162143
630.933	0.0161422
631.011	0.0161832
631.089	0.0162518
631.167	0.0162797
631.245	0.0162357
631.323	0.0162608
631.401	0.0163277
631.479	0.0163667
631.558	0.0161422
631.636	0.0161923
631.714	0.0160313
631.792	0.0162533
631.870	0.0163045
631.948	0.0164381
632.026	0.0164091
632.104	0.0164280
632.183	0.0162316
632.261	0.0161976
632.339	0.0162834
632.417	0.0163447
632.495	0.0163054
632.573	0.0161691
632.651	0.0162448
632.729	0.0162177
632.808	0.0163268
632.886	0.0162612
632.964	0.0162534
633.042	0.0161645
633.120	0.0161597
633.198	0.0163026
633.276	0.0162434
633.354	0.0162833
633.433	0.0162016
633.511	0.0161272
633.589	0.0163468
633.667	0.0162745
633.745	0.0163274
633.823	0.0162995
633.901	0.0161521
633.979	0.0163094
634.058	0.0162392
634.136	0.0161875
634.214	0.0163384
634.292	0.0161804
634.370	0.0162663
634.448	0.0162078
634.526	0.0162147
634.604	0.0162679
634.683	0.0161415
634.761	0.0161452
634.839	0.0162939
634.917	0.0162682
634.995	0.0161764
635.073	0.0162716
635.151	0.0162856
635.229	0.0162804
635.308	0.0162405
635.386	0.0161273
635.464	0.0161793
635.542	0.0161871
635.620	0.0163013
635.698	0.0161551
635.776	0.0161857
635.854	0.0163182
635.933	0.0162753
636.011	0.0160843
636.089	0.0160683
636.167	0.0162451
636.245	0.0162510
636.323	0.0162826
636.401	0.0161526
636.479	0.0162744
636.558	0.0162364
636.636	0.0162965
636.714	0.0162630
636.792	0.0161246
636.870	0.0162557
636.948	0.0161946
637.026	0.0161848
637.104	0.0162367
637.183	0.0163172
637.261	0.0163541
637.339	0.0163390
637.417	0.0162231
637.495	0.0162697
637.573	0.0161959
637.651	0.0161993
637.729	0.0161895
637.808	0.0162296
637.886	0.0162048
637.964	0.0164344
638.042	0.0163075
638.120	0.0162354
638.198	0.0162809
638.276	0.0162880
638.354	0.0161717
638.433	0.0161648
638.511	0.0163067
638.589	0.0162634
638.667	0.0161984
638.745	0.0161425
638.823	0.0163233
638.901	0.0164262
638.979	0.0162867
639.058	0.0162359
639.136	0.0161211
639.214	0.0162492
639.292	0.0162505
639.370	0.0162318
639.448	0.0163779
639.526	0.0163258
639.604	0.0161634
639.683	0.0162216
639.761	0.0162331
639.839	0.0161425
639.917	0.0162901
639.995	0.0162613
640.073	0.0161453
640.151	0.0162984
640.229	0.0164415
640.308	0.0162382
640.386	0.0161463
640.464	0.0162409
640.542	0.0162213
640.620	0.0162276
640.698	0.0162314
640.776	0.0162290
640.854	0.0162631
640.933	0.0162697
641.011	0.0163702
641.089	0.0161839
641.167	0.0161320
641.245	0.0162165
641.323	0.0162917
641.401	0.0163911
641.479	0.0163624
641.558	0.0162543
641.636	0.0161257
641.714	0.0162463
641.792	0.0161874
641.870	0.0162314
641.948	0.0162991
642.026	0.0162614
642.104	0.0162106
642.183	0.0162800
642.261	0.0162634
642.339	0.0161462
642.417	0.0162076
642.495	0.0162226
642.573	0.0161377
642.651	0.0163052
642.729	0.0161297
642.808	0.0163145
642.886	0.0162823
642.964	0.0163142
643.042	0.0161617
643.120	0.0161710
643.198	0.0161432
643.276	0.0162833
643.354	0.0162023
643.433	0.0162866
643.511	0.0163926
643.589	0.0162239
643.667	0.0161757
643.745	0.0162222
643.823	0.0163516
643.901	0.0161949
643.979	0.0161338
644.058	0.0162859
644.136	0.0162949
644.214	0.0162067
644.292	0.0163209
644.370	0.0162127
644.448	0.0162649
644.526	0.0163069
644.604	0.0162486
644.683	0.0162257
644.761	0.0164380
644.839	0.0162688
644.917	0.0161307
644.995	0.0162228
645.073	0.0163650
645.151	0.0161526
645.229	0.0162447
645.308	0.0162990
645.386	0.0162709
645.464	0.0162252
645.542	0.0163013
645.620	0.0163113
645.698	0.0161579
645.776	0.0162654
645.854	0.0162708
645.933	0.0161460
646.011	0.0160921
646.089	0.0163009
646.167	0.0161935
646.245	0.0160259
646.323	0.0161260
646.401	0.0161943
646.479	0.0162473
646.558	0.0162751
646.636	0.0160081
646.714	0.0162724
646.792	0.0161507
646.870	0.0161872
646.948	0.0162859
647.026	0.0162991
647.104	0.0160831
647.183	0.0162298
647.261	0.0161270
647.339	0.0163343
647.417	0.0161900
647.495	0.0162740
647.573	0.0161877
647.651	0.0161938
647.729	0.0161543
647.808	0.0162699
647.886	0.0161830
647.964	0.0161709
648.042	0.0163026
648.120	0.0161391
648.198	0.0160513
648.276	0.0162617
648.354	0.0162656
648.433	0.0162291
648.511	0.0162207
648.589	0.0163840
648.667	0.0162246
648.745	0.0160465
648.823	0.0162581
648.901	0.0162093
648.979	0.0162822
649.058	0.0161440
649.136	0.0162169
649.214	0.0161903
649.292	0.0162434
649.370	0.0162434
649.448	0.0162263
649.526	0.0162000
649.604	0.0160836
649.683	0.0161867
649.761	0.0161527
649.839	0.0162738
649.917	0.0162595
649.995	0.0161934
650.073	0.0162799
650.151	0.0161169
650.229	0.0162363
650.308	0.0162442
650.386	0.0161923
650.464	0.0161905
650.542	0.0162404
650.620	0.0161388
650.698	0.0161895
650.776	0.0162173
650.854	0.0162480
650.933	0.0162705
651.011	0.0162173
651.089	0.0162748
651.167	0.0162543
651.245	0.0162379
651.323	0.0162273
651.401	0.0161054
651.479	0.0161116
651.558	0.0162891
651.636	0.0161910
651.714	0.0160088
651.792	0.0161160
651.870	0.0162465
651.948	0.0161929
652.026	0.0161973
652.104	0.0163804
652.183	0.0162084
652.261	0.0162067
652.339	0.0163052
652.417	0.0160593
652.495	0.0161616
652.573	0.0162022
652.651	0.0161847
652.729	0.0162045
652.808	0.0162530
652.886	0.0162234
652.964	0.0161227
653.042	0.0162425
653.120	0.0162110
653.198	0.0163051
653.276	0.0162722
653.354	0.0162654
653.433	0.0162479
653.511	0.0163969
653.589	0.0162276
653.667	0.0160801
653.745	0.0162425
653.823	0.0163406
653.901	0.0162681
653.979	0.0162021
654.058	0.0163003
654.136	0.0160523
654.214	0.0163252
654.292	0.0161748
654.370	0.0162115
654.448	0.0162426
654.526	0.0162121
654.604	0.0162220
654.683	0.0162731
654.761	0.0163467
654.839	0.0162061
654.917	0.0161808
654.995	0.0162814
655.073	0.0161479
655.151	0.0161627
655.229	0.0163198
655.308	0.0163858
655.386	0.0162805
655.464	0.0161885
655.542	0.0161154
655.620	0.0162533
655.698	0.0163722
655.776	0.0161765
655.854	0.0161448
655.933	0.0164309
656.011	0.0162327
656.089	0.0161993
656.167	0.0162187
656.245	0.0164155
656.323	0.0163258
656.401	0.0161330
656.479	0.0163017
656.558	0.0162460
656.636	0.0162444
656.714	0.0163168
656.792	0.0163615
656.870	0.0161179
656.948	0.0162466
657.026	0.0163002
657.104	0.0162386
657.183	0.0162244
657.261	0.0163987
657.339	0.0162716
657.417	0.0163852
657.495	0.0162255
657.573	0.0162442
657.651	0.0160899
657.729	0.0162411
657.808	0.0162972
657.886	0.0161446
657.964	0.0162146
658.042	0.0162473
658.120	0.0162691
658.198	0.0161026
658.276	0.0161772
658.354	0.0162369
658.433	0.0163107
658.511	0.0162141
658.589	0.0162083
658.667	0.0161423
658.745	0.0161991
658.823	0.0163872
658.901	0.0163277
658.979	0.0162093
659.058	0.0162447
659.136	0.0161913
659.214	0.0163044
659.292	0.0163940
659.370	0.0163892
659.448	0.0162911
659.526	0.0162341
659.604	0.0163286
659.683	0.0162154
659.761	0.0161607
659.839	0.0162915
659.917	0.0162750
659.995	0.0162925
660.073	0.0162363
660.151	0.0162185
660.229	0.0162099
660.308	0.0161747
660.386	0.0163374
660.464	0.0160863
660.542	0.0161073
660.620	0.0162630
660.698	0.0162099
660.776	0.0162543
660.854	0.0162302
660.933	0.0161945
661.011	0.0161968
661.089	0.0162970
661.167	0.0162360
661.245	0.0161357
661.323	0.0161710
661.401	0.0161864
661.479	0.0162331
661.558	0.0161848
661.636	0.0162056
661.714	0.0162551
661.792	0.0161811
661.870	0.0162499
661.948	0.0163708
662.026	0.0160739
662.104	0.0162701
662.183	0.0162780
662.261	0.0162679
662.339	0.0161123
662.417	0.0161926
662.495	0.0162150
662.573	0.0162397
662.651	0.0161562
662.729	0.0161498
662.808	0.0161127
662.886	0.0162411
662.964	0.0162498
663.042	0.0162577
663.120	0.0162366
663.198	0.0162520
663.276	0.0161555
663.354	0.0163271
663.433	0.0162621
663.511	0.0161346
663.589	0.0160918
663.667	0.0162067
663.745	0.0161211
663.823	0.0164693
663.901	0.0163787
663.979	0.0163781
664.058	0.0162653
664.136	0.0161165
664.214	0.0162597
664.292	0.0163696
664.370	0.0162467
664.448	0.0161864
664.526	0.0161976
664.604	0.0161972
664.683	0.0163062
664.761	0.0161814
664.839	0.0161798
664.917	0.0161362
664.995	0.0161843
665.073	0.0162639
665.151	0.0162947
665.229	0.0162736
665.308	0.0162056
665.386	0.0162421
665.464	0.0163148
665.542	0.0161469
665.620	0.0161156
665.698	0.0161585
665.776	0.0163013
665.854	0.0162784
665.933	0.0161961
666.011	0.0162392
666.089	0.0162527
666.167	0.0161825
666.245	0.0161745
666.323	0.0162595
666.401	0.0162171
666.479	0.0162080
666.558	0.0161526
666.636	0.0162323
666.714	0.0163225
666.792	0.0161864
666.870	0.0160873
666.948	0.0161352
667.026	0.0162330
667.104	0.0162158
667.183	0.0161869
667.261	0.0161819
667.339	0.0162212
667.417	0.0161531
667.495	0.0162122
667.573	0.0160784
667.651	0.0161987
667.729	0.0161575
667.808	0.0162509
667.886	0.0162025
667.964	0.0162011
668.042	0.0162807
668.120	0.0161394
668.198	0.0161619
668.276	0.0163457
668.354	0.0161159
668.433	0.0162939
668.511	0.0162691
668.589	0.0162614
668.667	0.0162766
668.745	0.0163689
668.823	0.0162044
668.901	0.0162450
668.979	0.0162041
669.058	0.0161109
669.136	0.0160864
669.214	0.0160956
669.292	0.0163625
669.370	0.0162052
669.448	0.0162828
669.526	0.0162048
669.604	0.0163095
669.683	0.0162424
669.761	0.0161589
669.839	0.0161884
669.917	0.0162257
669.995	0.0163073
670.073	0.0162372
670.151	0.0162349
670.229	0.0161920
670.308	0.0161376
670.386	0.0162591
670.464	0.0163739
670.542	0.0162376
670.620	0.0161491
670.698	0.0162759
670.776	0.0162389
670.854	0.0162104
670.933	0.0161488
671.011	0.0162719
671.089	0.0162103
671.167	0.0162387
671.245	0.0161757
671.323	0.0161826
671.401	0.0162000
671.479	0.0162206
671.558	0.0162863
671.636	0.0162801
671.714	0.0162313
671.792	0.0161853
671.870	0.0162165
671.948	0.0160275
672.026	0.0161505
672.104	0.0162353
672.183	0.0162711
672.261	0.0161937
672.339	0.0161924
672.417	0.0162761
672.495	0.0162589
672.573	0.0161508
672.651	0.0162607
672.729	0.0162920
672.808	0.0161664
672.886	0.0162063
672.964	0.0162357
673.042	0.0161253
673.120	0.0160870
673.198	0.0161062
673.276	0.0162095
673.354	0.0162855
673.433	0.0161360
673.511	0.0162571
673.589	0.0163144
673.667	0.0162677
673.745	0.0161998
673.823	0.0162617
673.901	0.0162291
673.979	0.0162666
674.058	0.0161590
674.136	0.0163641
674.214	0.0162965
674.292	0.0160187
674.370	0.0163558
674.448	0.0163062
674.526	0.0161432
674.604	0.0161815
674.683	0.0161649
674.761	0.0161543
674.839	0.0161774
674.917	0.0162589
674.995	0.0161845
675.073	0.0161823
675.151	0.0161469
675.229	0.0162680
675.308	0.0161900
675.386	0.0162238
675.464	0.0162664
675.542	0.0164032
675.620	0.0161902
675.698	0.0163235
675.776	0.0162280
675.854	0.0160899
675.933	0.0160551
676.011	0.0161963
676.089	0.0162139
676.167	0.0161270
676.245	0.0162047
676.323	0.0161803
676.401	0.0162230
676.479	0.0163438
676.558	0.0162546
676.636	0.0161572
676.714	0.0161803
676.792	0.0162206
676.870	0.0162363
676.948	0.0163671
677.026	0.0164143
677.104	0.0161263
677.183	0.0161507
677.261	0.0162003
677.339	0.0161483
677.417	0.0162144
677.495	0.0162735
677.573	0.0162554
677.651	0.0161649
677.729	0.0162915
677.808	0.0161308
677.886	0.0161169
677.964	0.0162400
678.042	0.0162199
678.120	0.0161427
678.198	0.0163384
678.276	0.0161993
678.354	0.0162101
678.433	0.0162516
678.511	0.0160521
678.589	0.0162451
678.667	0.0163876
678.745	0.0162437
678.823	0.0161698
678.901	0.0162218
678.979	0.0162185
679.058	0.0161638
679.136	0.0160926
679.214	0.0160748
679.292	0.0163225
679.370	0.0163944
679.448	0.0161756
679.526	0.0162318
679.604	0.0161640
679.683	0.0162368
679.761	0.0161758
679.839	0.0162991
679.917	0.0161937
679.995	0.0163123
680.073	0.0161514
680.151	0.0161492
680.229	0.0163265
680.308	0.0162437
680.386	0.0161646
680.464	0.0162374
680.542	0.0162777
680.620	0.0161512
680.698	0.0160906
680.776	0.0163883
680.854	0.0161639
680.933	0.0161805
681.011	0.0161597
681.089	0.0162400
681.167	0.0163776
681.245	0.0162814
681.323	0.0163931
681.401	0.0162331
681.479	0.0160883
681.558	0.0163121
681.636	0.0162486
681.714	0.0162785
681.792	0.0162723
681.870	0.0163079
681.948	0.0163342
682.026	0.0162727
682.104	0.0162071
682.183	0.0162498
682.261	0.0162807
682.339	0.0161726
682.417	0.0163481
682.495	0.0163452
682.573	0.0162461
682.651	0.0162045
682.729	0.0162241
682.808	0.0162527
682.886	0.0162227
682.964	0.0161819
683.042	0.0162540
683.120	0.0163313
683.198	0.0161356
683.276	0.0163165
683.354	0.0162103
683.433	0.0162121
683.511	0.0162420
683.589	0.0162222
683.667	0.0161800
683.745	0.0162648
683.823	0.0162714
683.901	0.0163998
683.979	0.0161620
684.058	0.0162611
684.136	0.0161945
684.214	0.0161212
684.292	0.0162225
684.370	0.0161485
684.448	0.0162902
684.526	0.0162444
684.604	0.0161445
684.683	0.0162604
684.761	0.0162032
684.839	0.0161794
684.917	0.0162166
684.995	0.0162074
685.073	0.0163338
685.151	0.0160664
685.229	0.0162107
685.308	0.0162945
685.386	0.0161868
685.464	0.0162154
685.542	0.0162400
685.620	0.0161849
685.698	0.0161981
685.776	0.0161868
685.854	0.0162316
685.933	0.0161890
686.011	0.0161766
686.089	0.0162096
686.167	0.0161514
686.245	0.0162961
686.323	0.0162923
686.401	0.0161432
686.479	0.0161850
686.558	0.0162025
686.636	0.0162137
686.714	0.0163927
686.792	0.0162972
686.870	0.0162119
686.948	0.0162708
687.026	0.0162259
687.104	0.0162686
687.183	0.0163925
687.261	0.0162127
687.339	0.0160754
687.417	0.0162518
687.495	0.0161475
687.573	0.0162649
687.651	0.0162867
687.729	0.0163774
687.808	0.0162102
687.886	0.0161906
687.964	0.0163467
688.042	0.0161666
688.120	0.0161716
688.198	0.0162612
688.276	0.0162299
688.354	0.0163370
688.433	0.0162202
688.511	0.0162990
688.589	0.0162197
688.667	0.0162709
688.745	0.0162744
688.823	0.0162710
688.901	0.0162298
688.979	0.0162373
689.058	0.0161784
689.136	0.0161581
689.214	0.0162150
689.292	0.0162936
689.370	0.0162103
689.448	0.0160934
689.526	0.0163423
689.604	0.0161409
689.683	0.0160303
689.761	0.0163868
689.839	0.0162431
689.917	0.0161895
689.995	0.0161738
690.073	0.0162376
690.151	0.0162220
690.229	0.0162355
690.308	0.0163077
690.386	0.0163541
690.464	0.0162833
690.542	0.0162807
690.620	0.0162306
690.698	0.0162475
690.776	0.0162085
690.854	0.0162483
690.933	0.0163070
691.011	0.0163331
691.089	0.0162089
691.167	0.0162774
691.245	0.0163150
691.323	0.0162750
691.401	0.0164133
691.479	0.0162801
691.558	0.0162927
691.636	0.0162868
691.714	0.0162534
691.792	0.0162561
691.870	0.0162550
691.948	0.0163377
692.026	0.0162776
692.104	0.0162383
692.183	0.0162807
692.261	0.0161903
692.339	0.0161783
692.417	0.0162453
692.495	0.0163415
692.573	0.0161353
692.651	0.0160693
692.729	0.0162212
692.808	0.0162320
692.886	0.0161893
692.964	0.0163520
693.042	0.0162663
693.120	0.0162819
693.198	0.0162481
693.276	0.0162961
693.354	0.0162402
693.433	0.0162933
693.511	0.0162893
693.589	0.0162408
693.667	0.0162296
693.745	0.0163573
693.823	0.0162440
693.901	0.0162843
693.979	0.0161777
694.058	0.0161891
694.136	0.0163851
694.214	0.0162191
694.292	0.0161282
694.370	0.0162579
694.448	0.0162666
694.526	0.0161123
694.604	0.0162545
694.683	0.0162689
694.761	0.0163155
694.839	0.0162820
694.917	0.0161887
694.995	0.0161552
695.073	0.0162430
695.151	0.0162557
695.229	0.0162188
695.308	0.0163204
695.386	0.0161230
695.464	0.0161951
695.542	0.0162658
695.620	0.0163195
695.698	0.0161484
695.776	0.0162448
695.854	0.0162334
695.933	0.0163396
696.011	0.0164217
696.089	0.0162796
696.167	0.0162043
696.245	0.0161518
696.323	0.0162164
696.401	0.0162979
696.479	0.0162703
696.558	0.0162670
696.636	0.0163636
696.714	0.0162661
696.792	0.0163003
696.870	0.0162492
696.948	0.0162705
697.026	0.0162756
697.104	0.0165338
697.183	0.0163914
697.261	0.0163104
697.339	0.0164038
697.417	0.0162917
697.495	0.0162029
697.573	0.0163594
697.651	0.0163305
697.729	0.0161223
697.808	0.0162527
697.886	0.0162334
697.964	0.0162902
698.042	0.0162759
698.120	0.0162549
698.198	0.0162423
698.276	0.0163337
698.354	0.0165353
698.433	0.0162020
698.511	0.0161761
698.589	0.0163277
698.667	0.0161773
698.745	0.0163094
698.823	0.0163505
698.901	0.0163048
698.979	0.0162732
699.058	0.0162697
699.136	0.0162735
699.214	0.0162409
699.292	0.0162074
699.370	0.0161921
699.448	0.0161935
699.526	0.0163252
699.604	0.0163928
699.683	0.0161433
699.761	0.0162280
699.839	0.0163592
699.917	0.0163662
699.995	0.0162489
700.073	0.0162386
700.151	0.0162736
700.229	0.0163176
700.308	0.0162364
700.386	0.0162549
700.464	0.0162646
700.542	0.0161962
700.620	0.0162457
700.698	0.0162792
700.776	0.0161500
700.854	0.0163212
700.933	0.0162132
701.011	0.0161357
701.089	0.0162794
701.167	0.0161298
701.245	0.0161687
701.323	0.0162624
701.401	0.0162123
701.479	0.0163506
701.558	0.0161430
701.636	0.0161690
701.714	0.0162332
701.792	0.0162608
701.870	0.0162502
701.948	0.0162721
702.026	0.0163407
702.104	0.0161452
702.183	0.0161842
702.261	0.0160940
702.339	0.0162691
702.417	0.0162007
702.495	0.0162665
702.573	0.0162607
702.651	0.0161656
702.729	0.0162817
702.808	0.0162512
702.886	0.0161809
702.964	0.0162656
703.042	0.0162032
703.120	0.0161250
703.198	0.0161231
703.276	0.0162167
703.354	0.0161784
703.433	0.0161543
703.511	0.0161828
703.589	0.0161369
703.667	0.0161838
703.745	0.0161481
703.823	0.0161397
703.901	0.0161407
703.979	0.0161387
704.058	0.0161266
704.136	0.0161561
704.214	0.0162070
704.292	0.0160772
704.370	0.0161091
704.448	0.0161564
704.526	0.0161568
704.604	0.0162411
704.683	0.0161616
704.761	0.0162930
704.839	0.0162466
704.917	0.0160717
704.995	0.0162304
705.073	0.0162173
705.151	0.0161640
705.229	0.0161398
705.308	0.0162043
705.386	0.0161733
705.464	0.0161834
705.542	0.0161810
705.620	0.0162464
705.698	0.0162566
705.776	0.0161751
705.854	0.0160214
705.933	0.0161098
706.011	0.0161720
706.089	0.0161153
706.167	0.0161147
706.245	0.0160842
706.323	0.0161763
706.401	0.0160807
706.479	0.0160137
706.558	0.0161652
706.636	0.0161804
706.714	0.0160057
706.792	0.0162561
706.870	0.0162327
706.948	0.0160629
707.026	0.0160937
707.104	0.0161765
707.183	0.0160999
707.261	0.0161292
707.339	0.0161810
707.417	0.0161705
707.495	0.0161108
707.573	0.0162091
707.651	0.0161157
707.729	0.0162586
707.808	0.0161491
707.886	0.0161922
707.964	0.0160491
708.042	0.0161014
708.120	0.0162804
708.198	0.0161446
708.276	0.0162311
708.354	0.0160727
708.433	0.0161006
708.511	0.0163150
708.589	0.0160331
708.667	0.0160813
708.745	0.0161845
708.823	0.0160551
708.901	0.0163000
708.979	0.0161814
709.058	0.0161450
709.136	0.0163243
709.214	0.0161306
709.292	0.0161913
709.370	0.0161232
709.448	0.0163469
709.526	0.0162955
709.604	0.0162401
709.683	0.0162130
709.761	0.0162579
709.839	0.0161046
709.917	0.0162132
709.995	0.0162396
710.073	0.0162879
710.151	0.0161725
710.229	0.0162843
710.308	0.0162012
710.386	0.0162149
710.464	0.0163330
710.542	0.0161073
710.620	0.0161053
710.698	0.0162075
710.776	0.0162221
710.854	0.0161243
710.933	0.0162076
711.011	0.0163393
711.089	0.0162843
711.167	0.0162061
711.245	0.0162744
711.323	0.0163012
711.401	0.0161724
711.479	0.0162505
711.558	0.0160932
711.636	0.0161800
711.714	0.0161455
711.792	0.0162132
711.870	0.0162139
711.948	0.0162933
712.026	0.0162350
712.104	0.0160787
712.183	0.0161369
712.261	0.0162933
712.339	0.0161324
712.417	0.0164133
712.495	0.0163259
712.573	0.0162292
712.651	0.0161572
712.729	0.0162456
712.808	0.0163122
712.886	0.0161929
712.964	0.0161266
713.042	0.0163174
713.120	0.0163581
713.198	0.0163516
713.276	0.0162816
713.354	0.0162035
713.433	0.0162421
713.511	0.0163923
713.589	0.0162608
713.667	0.0162225
713.745	0.0163198
713.823	0.0162524
713.901	0.0163666
713.979	0.0163556
714.058	0.0162370
714.136	0.0162252
714.214	0.0161694
714.292	0.0162716
714.370	0.0163184
714.448	0.0164824
714.526	0.0161906
714.604	0.0162917
714.683	0.0162318
714.761	0.0162331
714.839	0.0163022
714.917	0.0163406
714.995	0.0162631
715.073	0.0163273
715.151	0.0162296
715.229	0.0164014
715.308	0.0163839
715.386	0.0162827
715.464	0.0165209
715.542	0.0163805
715.620	0.0161807
715.698	0.0162856
715.776	0.0163655
715.854	0.0163535
715.933	0.0163956
716.011	0.0163716
716.089	0.0163705
716.167	0.0162018
716.245	0.0164380
716.323	0.0162470
716.401	0.0163134
716.479	0.0161977
716.558	0.0163090
716.636	0.0163325
716.714	0.0162289
716.792	0.0164854
716.870	0.0162207
716.948	0.0163421
717.026	0.0163428
717.104	0.0162882
717.183	0.0163311
717.261	0.0164443
717.339	0.0162164
717.417	0.0162103
717.495	0.0164076
717.573	0.0164029
717.651	0.0162818
717.729	0.0162432
717.808	0.0163297
717.886	0.0163055
717.964	0.0163750
718.042	0.0162846
718.120	0.0162965
718.198	0.0162834
718.276	0.0163652
718.354	0.0163351
718.433	0.0163004
718.511	0.0162703
718.589	0.0164799
718.667	0.0163419
718.745	0.0163175
718.823	0.0162897
718.901	0.0163857
718.979	0.0162704
719.058	0.0163212
719.136	0.0162703
719.214	0.0163317
719.292	0.0163451
719.370	0.0163464
719.448	0.0162362
719.526	0.0161861
719.604	0.0163592
719.683	0.0161501
719.761	0.0163078
719.839	0.0163459
719.917	0.0162557
719.995	0.0163065
720.073	0.0163391
720.151	0.0164517
720.229	0.0162336
720.308	0.0162347
720.386	0.0162581
720.464	0.0162422
720.542	0.0162844
720.620	0.0163383
720.698	0.0163361
720.776	0.0162661
720.854	0.0162726
720.933	0.0161862
721.011	0.0162439
721.089	0.0163326
721.167	0.0162096
721.245	0.0163123
721.323	0.0164162
721.401	0.0163334
721.479	0.0162895
721.558	0.0163153
721.636	0.0162418
721.714	0.0162966
721.792	0.0162476
721.870	0.0162469
721.948	0.0160843
722.026	0.0162300
722.104	0.0163303
722.183	0.0161256
722.261	0.0162348
722.339	0.0162525
722.417	0.0161361
722.495	0.0162830
722.573	0.0163298
722.651	0.0161393
722.729	0.0161397
722.808	0.0162097
722.886	0.0161575
722.964	0.0162110
723.042	0.0161920
723.120	0.0162425
723.198	0.0162932
723.276	0.0162328
723.354	0.0161423
723.433	0.0160062
723.511	0.0161623
723.589	0.0162158
723.667	0.0161077
723.745	0.0161584
723.823	0.0161539
723.901	0.0161947
723.979	0.0162032
724.058	0.0162592
724.136	0.0161715
724.214	0.0162133
724.292	0.0161738
724.370	0.0160858
724.448	0.0162367
724.526	0.0161683
724.604	0.0161709
724.683	0.0162094
724.761	0.0160630
724.839	0.0161855
724.917	0.0161714
724.995	0.0162212
725.073	0.0162198
725.151	0.0162621
725.229	0.0161317
725.308	0.0161903
725.386	0.0162006
725.464	0.0162431
725.542	0.0160957
725.620	0.0160921
725.698	0.0161549
725.776	0.0161378
725.854	0.0162235
725.933	0.0161010
726.011	0.0161994
726.089	0.0161305
726.167	0.0160393
726.245	0.0160519
726.323	0.0162565
726.401	0.0161259
726.479	0.0160528
726.558	0.0161071
726.636	0.0162933
726.714	0.0161656
726.792	0.0161989
726.870	0.0161535
726.948	0.0161972
727.026	0.0160632
727.104	0.0160866
727.183	0.0160249
727.261	0.0160172
727.339	0.0161333
727.417	0.0162191
727.495	0.0160831
727.573	0.0160727
727.651	0.0161295
727.729	0.0161157
727.808	0.0162474
727.886	0.0161520
727.964	0.0160466
728.042	0.0162306
728.120	0.0160774
728.198	0.0160474
728.276	0.0161965
728.354	0.0161339
728.433	0.0160200
728.511	0.0161131
728.589	0.0163424
728.667	0.0160445
728.745	0.0160189
728.823	0.0161134
728.901	0.0160833
728.979	0.0161504
729.058	0.0162395
729.136	0.0160867
729.214	0.0160371
729.292	0.0162025
729.370	0.0161792
729.448	0.0161815
729.526	0.0163043
729.604	0.0161594
729.683	0.0161909
729.761	0.0161569
729.839	0.0160838
729.917	0.0161452
729.995	0.0161994
730.073	0.0161511
730.151	0.0160815
730.229	0.0161580
730.308	0.0162229
730.386	0.0161207
730.464	0.0160978
730.542	0.0160082
730.620	0.0160763
730.698	0.0162806
730.776	0.0160234
730.854	0.0161320
730.933	0.0160840
731.011	0.0161791
731.089	0.0161202
731.167	0.0160688
731.245	0.0160606
731.323	0.0161636
731.401	0.0161906
731.479	0.0162099
731.558	0.0163431
731.636	0.0162392
731.714	0.0161476
731.792	0.0162424
731.870	0.0162280
731.948	0.0162257
732.026	0.0162674
732.104	0.0162093
732.183	0.0161462
732.261	0.0161525
732.339	0.0160899
732.417	0.0162556
732.495	0.0161365
732.573	0.0162251
732.651	0.0161590
732.729	0.0162375
732.808	0.0162040
732.886	0.0161163
732.964	0.0162538
733.042	0.0162324
733.120	0.0161786
733.198	0.0160488
733.276	0.0161716
733.354	0.0161716
733.433	0.0162550
733.511	0.0162631
733.589	0.0162405
733.667	0.0162656
733.745	0.0161823
733.823	0.0160950
733.901	0.0162447
733.979	0.0163060
734.058	0.0161350
734.136	0.0162390
734.214	0.0162679
734.292	0.0163374
734.370	0.0162863
734.448	0.0163113
734.526	0.0162634
734.604	0.0162459
734.683	0.0164191
734.761	0.0162926
734.839	0.0162920
734.917	0.0163692
734.995	0.0163543
735.073	0.0161210
735.151	0.0163817
735.229	0.0163596
735.308	0.0162984
735.386	0.0163551
735.464	0.0163738
735.542	0.0163557
735.620	0.0161446
735.698	0.0160205
735.776	0.0161191
735.854	0.0161406
735.933	0.0159319
736.011	0.0160487
736.089	0.0158781
736.167	0.0160043
736.245	0.0160439
736.323	0.0161282
736.401	0.0161916
736.479	0.0163831
736.558	0.0165939
736.636	0.0166431
736.714	0.0166954
736.792	0.0168797
736.870	0.0169326
736.948	0.0169381
737.026	0.0169441
737.104	0.0167605
737.183	0.0167638
737.261	0.0165728
737.339	0.0163631
737.417	0.0163165
737.495	0.0160941
737.573	0.0159170
737.651	0.0154808
737.729	0.0153306
737.808	0.0151304
737.886	0.0148682
737.964	0.0150187
738.042	0.0149083
738.120	0.0149297
738.198	0.0153807
738.276	0.0156429
738.354	0.0160525
738.433	0.0167114
738.511	0.0172681
738.589	0.0176865
738.667	0.0180547
738.745	0.0180376
738.823	0.0181954
738.901	0.0180554
738.979	0.0175117
739.058	0.0172762
739.136	0.0168748
739.214	0.0163917
739.292	0.0160773
739.370	0.0160306
739.448	0.0158524
739.526	0.0156454
739.604	0.0157234
739.683	0.0156773
739.761	0.0156510
739.839	0.0157571
739.917	0.0156152
739.995	0.0155311
740.073	0.0153577
740.151	0.0152263
740.229	0.0151224
740.308	0.0151325
740.386	0.0148921
740.464	0.0151430
740.542	0.0153581
740.620	0.0155375
740.698	0.0159753
740.776	0.0169131
740.854	0.0172144
740.933	0.0176330
741.011	0.0180276
741.089	0.0181838
741.167	0.0182501
741.245	0.0181863
741.323	0.0178612
741.401	0.0176514
741.479	0.0172241
741.558	0.0169020
741.636	0.0166936
741.714	0.0162431
741.792	0.0158331
741.870	0.0156237
741.948	0.0152926
742.026	0.0149715
742.104	0.0148481
742.183	0.0146438
742.261	0.0146484
742.339	0.0144690
742.417	0.0144798
742.495	0.0146132
742.573	0.0147415
742.651	0.0149663
742.729	0.0152528
742.808	0.0156997
742.886	0.0160420
742.964	0.0165736
743.042	0.0169260
743.120	0.0173158
743.198	0.0177983
743.276	0.0179804
743.354	0.0181029
743.433	0.0183552
743.511	0.0185107
743.589	0.0183173
743.667	0.0180450
743.745	0.0178128
743.823	0.0172749
743.901	0.0168089
743.979	0.0163579
744.058	0.0158572
744.136	0.0154108
744.214	0.0149155
744.292	0.0148946
744.370	0.0147600
744.448	0.0145779
744.526	0.0146455
744.604	0.0148359
744.683	0.0148665
744.761	0.0151742
744.839	0.0151781
744.917	0.0155140
744.995	0.0158466
745.073	0.0160107
745.151	0.0160999
745.229	0.0163978
745.308	0.0165331
745.386	0.0166376
745.464	0.0165102
745.542	0.0168403
745.620	0.0169387
745.698	0.0169466
745.776	0.0171078
745.854	0.0170612
745.933	0.0171567
746.011	0.0170412
746.089	0.0170836
746.167	0.0170250
746.245	0.0169330
746.323	0.0168694
746.401	0.0166002
746.479	0.0165832
746.558	0.0162172
746.636	0.0160493
746.714	0.0158936
746.792	0.0156495
746.870	0.0155853
746.948	0.0155504
747.026	0.0155901
747.104	0.0153377
747.183	0.0152119
747.261	0.0155058
747.339	0.0154619
747.417	0.0155197
747.495	0.0156657
747.573	0.0156581
747.651	0.0157233
747.729	0.0156902
747.808	0.0159460
747.886	0.0160462
747.964	0.0161013
748.042	0.0162211
748.120	0.0163182
748.198	0.0164909
748.276	0.0166557
748.354	0.0168954
748.433	0.0167773
748.511	0.0168922
748.589	0.0168440
748.667	0.0168606
748.745	0.0169446
748.823	0.0167147
748.901	0.0167384
748.979	0.0166906
749.058	0.0165434
749.136	0.0164507
749.214	0.0164128
749.292	0.0163923
749.370	0.0159767
749.448	0.0160986
749.526	0.0159384
749.604	0.0159504
749.683	0.0157323
749.761	0.0158295
749.839	0.0156439
749.917	0.0156358
749.995	0.0157465
750.073	0.0156203
750.151	0.0156241
750.229	0.0158324
750.308	0.0157635
750.386	0.0158912
750.464	0.0159693
750.542	0.0161121
750.620	0.0160078
750.698	0.0161484
750.776	0.0162283
750.854	0.0161867
750.933	0.0162529
751.011	0.0162905
751.089	0.0165880
751.167	0.0166176
751.245	0.0165586
751.323	0.0165850
751.401	0.0166907
751.479	0.0167687
751.558	0.0166968
751.636	0.0166815
751.714	0.0166462
751.792	0.0165725
751.870	0.0163528
751.948	0.0163602
752.026	0.0161376
752.104	0.0159878
752.183	0.0158775
752.261	0.0159261
752.339	0.0156751
752.417	0.0158440
752.495	0.0157112
752.573	0.0157782
752.651	0.0158975
752.729	0.0157350
752.808	0.0158756
752.886	0.0160113
752.964	0.0159374
753.042	0.0160977
753.120	0.0160690
753.198	0.0161360
753.276	0.0162280
753.354	0.0164467
753.433	0.0163159
753.511	0.0163325
753.589	0.0163856
753.667	0.0163582
753.745	0.0163833
753.823	0.0163553
753.901	0.0162403
753.979	0.0162131
754.058	0.0162186
754.136	0.0161471
754.214	0.0160941
754.292	0.0161050
754.370	0.0161578
754.448	0.0161839
754.526	0.0161041
754.604	0.0161239
754.683	0.0162188
754.761	0.0162159
754.839	0.0163307
754.917	0.0162244
754.995	0.0163391
755.073	0.0164294
755.151	0.0164020
755.229	0.0164527
755.308	0.0165540
755.386	0.0165107
755.464	0.0163914
755.542	0.0162195
755.620	0.0161863
755.698	0.0161678
755.776	0.0160303
755.854	0.0160397
755.933	0.0160155
756.011	0.0159695
756.089	0.0159142
756.167	0.0158504
756.245	0.0159567
756.323	0.0160014
756.401	0.0161580
756.479	0.0161739
756.558	0.0162791
756.636	0.0162274
756.714	0.0163470
756.792	0.0164729
756.870	0.0163530
756.948	0.0164447
757.026	0.0163820
757.104	0.0165709
757.183	0.0164421
757.261	0.0165780
757.339	0.0164983
757.417	0.0165321
757.495	0.0164304
757.573	0.0165662
757.651	0.0163860
757.729	0.0164703
757.808	0.0164154
757.886	0.0162287
757.964	0.0160770
758.042	0.0159563
758.120	0.0158352
758.198	0.0157296
758.276	0.0156818
758.354	0.0156487
758.433	0.0157690
758.511	0.0157483
758.589	0.0157925
758.667	0.0160094
758.745	0.0161992
758.823	0.0161028
758.901	0.0162471
758.979	0.0164091
759.058	0.0164313
759.136	0.0164884
759.214	0.0164997
759.292	0.0164420
759.370	0.0165600
759.448	0.0166949
759.526	0.0165697
759.604	0.0165303
759.683	0.0164661
759.761	0.0164888
759.839	0.0162773
759.917	0.0161333
759.995	0.0161108
760.073	0.0159409
760.151	0.0160423
760.229	0.0161467
760.308	0.0161710
760.386	0.0162299
760.464	0.0163719
760.542	0.0163751
760.620	0.0163509
760.698	0.0164283
760.776	0.0163777
760.854	0.0162938
760.933	0.0161486
761.011	0.0161388
761.089	0.0159373
761.167	0.0160331
761.245	0.0158999
761.323	0.0157286
761.401	0.0158464
761.479	0.0158632
761.558	0.0156860
761.636	0.0158361
761.714	0.0158917
761.792	0.0159895
761.870	0.0159818
761.948	0.0161565
762.026	0.0163953
762.104	0.0165246
762.183	0.0164010
762.261	0.0165171
762.339	0.0167117
762.417	0.0168092
762.495	0.0166075
762.573	0.0165079
762.651	0.0166191
762.729	0.0165542
762.808	0.0164674
762.886	0.0164568
762.964	0.0163892
763.042	0.0163882
763.120	0.0162168
763.198	0.0162176
763.276	0.0162868
763.354	0.0164772
763.433	0.0162466
763.511	0.0164901
763.589	0.0163547
763.667	0.0163564
763.745	0.0165417
763.823	0.0165664
763.901	0.0164554
763.979	0.0163824
764.058	0.0162682
764.136	0.0163975
764.214	0.0161263
764.292	0.0159047
764.370	0.0158060
764.448	0.0157205
764.526	0.0157049
764.604	0.0157258
764.683	0.0158483
764.761	0.0156732
764.839	0.0158479
764.917	0.0158553
764.995	0.0160345
765.073	0.0160507
765.151	0.0159473
765.229	0.0162490
765.308	0.0164437
765.386	0.0164141
765.464	0.0163431
765.542	0.0163856
765.620	0.0164532
765.698	0.0165037
765.776	0.0164772
765.854	0.0163701
765.933	0.0163932
766.011	0.0163882
766.089	0.0163330
766.167	0.0166209
766.245	0.0164690
766.323	0.0164034
766.401	0.0165585
766.479	0.0165078
766.558	0.0163015
766.636	0.0162476
766.714	0.0162807
766.792	0.0161888
766.870	0.0160404
766.948	0.0159937
767.026	0.0159253
767.104	0.0160401
767.183	0.0159953
767.261	0.0160783
767.339	0.0162082
767.417	0.0163650
767.495	0.0165105
767.573	0.0164494
767.651	0.0166306
767.729	0.0166283
767.808	0.0166420
767.886	0.0167011
767.964	0.0166496
768.042	0.0166137
768.120	0.0165246
768.198	0.0165161
768.276	0.0163286
768.354	0.0160548
768.433	0.0159158
768.511	0.0154934
768.589	0.0153949
768.667	0.0152269
768.745	0.0150311
768.823	0.0149279
768.901	0.0147297
768.979	0.0147292
769.058	0.0146703
769.136	0.0147512
769.214	0.0149625
769.292	0.0149469
769.370	0.0152284
769.448	0.0154593
769.526	0.0158587
769.604	0.0162854
769.683	0.0165268
769.761	0.0167214
769.839	0.0170817
769.917	0.0173219
769.995	0.0174966
770.073	0.0173368
770.151	0.0173460
770.229	0.0175255
770.308	0.0175089
770.386	0.0175329
770.464	0.0175545
770.542	0.0175110
770.620	0.0175808
770.698	0.0175632
770.776	0.0174839
770.854	0.0174137
770.933	0.0174561
771.011	0.0172869
771.089	0.0172106
771.167	0.0168578
771.245	0.0166928
771.323	0.0164314
771.401	0.0161652
771.479	0.0159471
771.558	0.0157066
771.636	0.0155579
771.714	0.0152425
771.792	0.0151368
771.870	0.0150584
771.948	0.0147720
772.026	0.0148138
772.104	0.0147440
772.183	0.0148176
772.261	0.0147124
772.339	0.0146564
772.417	0.0146842
772.495	0.0146275
772.573	0.0147248
772.651	0.0147153
772.729	0.0147352
772.808	0.0148690
772.886	0.0149710
772.964	0.0151884
773.042	0.0152565
773.120	0.0156030
773.198	0.0157500
773.276	0.0158646
773.354	0.0160566
773.433	0.0161191
773.511	0.0162382
773.589	0.0164609
773.667	0.0166766
773.745	0.0169128
773.823	0.0169994
773.901	0.0172732
773.979	0.0174162
774.058	0.0176183
774.136	0.0177658
774.214	0.0179071
774.292	0.0182013
774.370	0.0182520
774.448	0.0182993
774.526	0.0184359
774.604	0.0182706
774.683	0.0178819
774.761	0.0177000
774.839	0.0174270
774.917	0.0171530
774.995	0.0168129
775.073	0.0166337
775.151	0.0163663
775.229	0.0161342
775.308	0.0158231
775.386	0.0155975
775.464	0.0154439
775.542	0.0154086
775.620	0.0155023
775.698	0.0153786
775.776	0.0153271
775.854	0.0153992
775.933	0.0154936
776.011	0.0154050
776.089	0.0156147
776.167	0.0157003
776.245	0.0157983
776.323	0.0159185
776.401	0.0159583
776.479	0.0159246
776.558	0.0159322
776.636	0.0159848
776.714	0.0159140
776.792	0.0159608
776.870	0.0158147
776.948	0.0158202
777.026	0.0156505
777.104	0.0154953
777.183	0.0156516
777.261	0.0156323
777.339	0.0153674
777.417	0.0151672
777.495	0.0152193
777.573	0.0150352
777.651	0.0148518
777.729	0.0149348
777.808	0.0148716
777.886	0.0148561
777.964	0.0147325
778.042	0.0148473
778.120	0.0148946
778.198	0.0150467
778.276	0.0150676
778.354	0.0153115
778.433	0.0156958
778.511	0.0160937
778.589	0.0163704
778.667	0.0167206
778.745	0.0172754
778.823	0.0176289
778.901	0.0181191
778.979	0.0184380
779.058	0.0190318
779.136	0.0193269
779.214	0.0194248
779.292	0.0194534
779.370	0.0196515
779.448	0.0195936
779.526	0.0195693
779.604	0.0193214
779.683	0.0190377
779.761	0.0186540
779.839	0.0182931
779.917	0.0178275
779.995	0.0172798
780.073	0.0169234
780.151	0.0162134
780.229	0.0158608
780.308	0.0153797
780.386	0.0149968
780.464	0.0145799
780.542	0.0142211
780.620	0.0141840
780.698	0.0141034
780.776	0.0138453
780.854	0.0139193
780.933	0.0136327
781.011	0.0137496
781.089	0.0140690
781.167	0.0141454
781.245	0.0141400
781.323	0.0142450
781.401	0.0143652
781.479	0.0146134
781.558	0.0149914
781.636	0.0149561
781.714	0.0150442
781.792	0.0153248
781.870	0.0154968
781.948	0.0155074
782.026	0.0156538
782.104	0.0157635
782.183	0.0156864
782.261	0.0159125
782.339	0.0160796
782.417	0.0161750
782.495	0.0162362
782.573	0.0162910
782.651	0.0162893
782.729	0.0164197
782.808	0.0164703
782.886	0.0166152
782.964	0.0165835
783.042	0.0167300
783.120	0.0166127
783.198	0.0167994
783.276	0.0170678
783.354	0.0169624
783.433	0.0170519
783.511	0.0172762
783.589	0.0173412
783.667	0.0175150
783.745	0.0177821
783.823	0.0179544
783.901	0.0179984
783.979	0.0184286
784.058	0.0185577
784.136	0.0187498
784.214	0.0187556
784.292	0.0190009
784.370	0.0189005
784.448	0.0188747
784.526	0.0186856
784.604	0.0182098
784.683	0.0177501
784.761	0.0175797
784.839	0.0169109
784.917	0.0164093
784.995	0.0158213
785.073	0.0154109
785.151	0.0150601
785.229	0.0142576
785.308	0.0137669
785.386	0.0135297
785.464	0.0132928
785.542	0.0131211
785.620	0.0132143
785.698	0.0131060
785.776	0.0131837
785.854	0.0135014
785.933	0.0137259
786.011	0.0142254
786.089	0.0144865
786.167	0.0149520
786.245	0.0154444
786.323	0.0157637
786.401	0.0160792
786.479	0.0164648
786.558	0.0167329
786.636	0.0169917
786.714	0.0171293
786.792	0.0171578
786.870	0.0173075
786.948	0.0174339
787.026	0.0174447
787.104	0.0172894
787.183	0.0170699
787.261	0.0170431
787.339	0.0169022
787.417	0.0168517
787.495	0.0165940
787.573	0.0164143
787.651	0.0162746
787.729	0.0161894
787.808	0.0161247
787.886	0.0160376
787.964	0.0158415
788.042	0.0156448
788.120	0.0155361
788.198	0.0153860
788.276	0.0153481
788.354	0.0151425
788.433	0.0151404
788.511	0.0150331
788.589	0.0150928
788.667	0.0151831
788.745	0.0152652
788.823	0.0155199
788.901	0.0159413
788.979	0.0163549
789.058	0.0166992
789.136	0.0173977
789.214	0.0177923
789.292	0.0182323
789.370	0.0188240
789.448	0.0192241
789.526	0.0196885
789.604	0.0199056
789.683	0.0199636
789.761	0.0201898
789.839	0.0199166
789.917	0.0195148
789.995	0.0191913
790.073	0.0186031
790.151	0.0179205
790.229	0.0172922
790.308	0.0165700
790.386	0.0157577
790.464	0.0150968
790.542	0.0145021
790.620	0.0138571
790.698	0.0133867
790.776	0.0131079
790.854	0.0129941
790.933	0.0128179
791.011	0.0126836
791.089	0.0129566
791.167	0.0132095
791.245	0.0133103
791.323	0.0138058
791.401	0.0141138
791.479	0.0144866
791.558	0.0149389
791.636	0.0152259
791.714	0.0155350
791.792	0.0158137
791.870	0.0161217
791.948	0.0162173
792.026	0.0164466
792.104	0.0163223
792.183	0.0163077
792.261	0.0162378
792.339	0.0163311
792.417	0.0163158
792.495	0.0163264
792.573	0.0163336
792.651	0.0163622
792.729	0.0165379
792.808	0.0163486
792.886	0.0165559
792.964	0.0167148
793.042	0.0168027
793.120	0.0168490
793.198	0.0168684
793.276	0.0168845
793.354	0.0169640
793.433	0.0167648
793.511	0.0167120
793.589	0.0165929
793.667	0.0163197
793.745	0.0161224
793.823	0.0158950
793.901	0.0157541
793.979	0.0155531
794.058	0.0155269
794.136	0.0155081
794.214	0.0156911
794.292	0.0159180
794.370	0.0161993
794.448	0.0167172
794.526	0.0167805
794.604	0.0173225
794.683	0.0178369
794.761	0.0183500
794.839	0.0188770
794.917	0.0192662
794.995	0.0195612
795.073	0.0198598
795.151	0.0200036
795.229	0.0199856
795.308	0.0196542
795.386	0.0193458
795.464	0.0187971
795.542	0.0183943
795.620	0.0176192
795.698	0.0169095
795.776	0.0162811
795.854	0.0155809
795.933	0.0148197
796.011	0.0144112
796.089	0.0139317
796.167	0.0134660
796.245	0.0130827
796.323	0.0129465
796.401	0.0129781
796.479	0.0129356
796.558	0.0131011
796.636	0.0133101
796.714	0.0134065
796.792	0.0136727
796.870	0.0140124
796.948	0.0141991
797.026	0.0145865
797.104	0.0147306
797.183	0.0150877
797.261	0.0152439
797.339	0.0152132
797.417	0.0153577
797.495	0.0155294
797.573	0.0157299
797.651	0.0158765
797.729	0.0157050
797.808	0.0159077
797.886	0.0158875
797.964	0.0159033
798.042	0.0162500
798.120	0.0162268
798.198	0.0165208
798.276	0.0166193
798.354	0.0168957
798.433	0.0170460
798.511	0.0172874
798.589	0.0172854
798.667	0.0174548
798.745	0.0175220
798.823	0.0173920
798.901	0.0173579
798.979	0.0174468
799.058	0.0172855
799.136	0.0169978
799.214	0.0168106
799.292	0.0165392
799.370	0.0163213
799.448	0.0160732
799.526	0.0160346
799.604	0.0158681
799.683	0.0159137
799.761	0.0159451
799.839	0.0160046
799.917	0.0161909
799.995	0.0165257
800.073	0.0168557
800.151	0.0173327
800.229	0.0177402
800.308	0.0180199
800.386	0.0185133
800.464	0.0188750
800.542	0.0193217
800.620	0.0193007
800.698	0.0194516
800.776	0.0193867
800.854	0.0192429
800.933	0.0187594
801.011	0.0183929
801.089	0.0179544
801.167	0.0173064
801.245	0.0164651
801.323	0.0155772
801.401	0.0150791
801.479	0.0145138
801.558	0.0138153
801.636	0.0131824
801.714	0.0126406
801.792	0.0124345
801.870	0.0122913
801.948	0.0122400
802.026	0.0122475
802.104	0.0122797
802.183	0.0124706
802.261	0.0129668
802.339	0.0133344
802.417	0.0136307
802.495	0.0137930
802.573	0.0142536
802.651	0.0146684
802.729	0.0150907
802.808	0.0153589
802.886	0.0157355
802.964	0.0159472
803.042	0.0161904
803.120	0.0164443
803.198	0.0165340
803.276	0.0167689
803.354	0.0168199
803.433	0.0168614
803.511	0.0170616
803.589	0.0172093
803.667	0.0172490
803.745	0.0172706
803.823	0.0173579
803.901	0.0175132
803.979	0.0176963
804.058	0.0175839
804.136	0.0175546
804.214	0.0175040
804.292	0.0175002
804.370	0.0173006
804.448	0.0173013
804.526	0.0170755
804.604	0.0169841
804.683	0.0168187
804.761	0.0166399
804.839	0.0165198
804.917	0.0162611
804.995	0.0162507
805.073	0.0162479
805.151	0.0161015
805.229	0.0160921
805.308	0.0160690
805.386	0.0163145
805.464	0.0164825
805.542	0.0166409
805.620	0.0168162
805.698	0.0171394
805.776	0.0173036
805.854	0.0175607
805.933	0.0180109
806.011	0.0181561
806.089	0.0184299
806.167	0.0184130
806.245	0.0184509
806.323	0.0184869
806.401	0.0183945
806.479	0.0180665
806.558	0.0177682
806.636	0.0174109
806.714	0.0168030
806.792	0.0164088
806.870	0.0159466
806.948	0.0151466
807.026	0.0146384
807.104	0.0142264
807.183	0.0136714
807.261	0.0131673
807.339	0.0129727
807.417	0.0127934
807.495	0.0125419
807.573	0.0125046
807.651	0.0127757
807.729	0.0129398
807.808	0.0131869
807.886	0.0136001
807.964	0.0138276
808.042	0.0143068
808.120	0.0147479
808.198	0.0151308
808.276	0.0156229
808.354	0.0158398
808.433	0.0162531
808.511	0.0163876
808.589	0.0166262
808.667	0.0169768
808.745	0.0168175
808.823	0.0169550
808.901	0.0171172
808.979	0.0171842
809.058	0.0172140
809.136	0.0172242
809.214	0.0172501
809.292	0.0173309
809.370	0.0172992
809.448	0.0173202
809.526	0.0172721
809.604	0.0174216
809.683	0.0173740
809.761	0.0173524
809.839	0.0172626
809.917	0.0171281
809.995	0.0170162
810.073	0.0171009
810.151	0.0169275
810.229	0.0166140
810.308	0.0166425
810.386	0.0165808
810.464	0.0164834
810.542	0.0164610
810.620	0.0165146
810.698	0.0164748
810.776	0.0163305
810.854	0.0163572
810.933	0.0163932
811.011	0.0163943
811.089	0.0164592
811.167	0.0166827
811.245	0.0166377
811.323	0.0168570
811.401	0.0170308
811.479	0.0172546
811.558	0.0173434
811.636	0.0173878
811.714	0.0176205
811.792	0.0175529
811.870	0.0177743
811.948	0.0176420
812.026	0.0175232
812.104	0.0173121
812.183	0.0171919
812.261	0.0168956
812.339	0.0166558
812.417	0.0163643
812.495	0.0158286
812.573	0.0154517
812.651	0.0151223
812.729	0.0147346
812.808	0.0144228
812.886	0.0142433
812.964	0.0138171
813.042	0.0137189
813.120	0.0137685
813.198	0.0137128
813.276	0.0138323
813.354	0.0139248
813.433	0.0143379
813.511	0.0144305
813.589	0.0147712
813.667	0.0150825
813.745	0.0154021
813.823	0.0158968
813.901	0.0158797
813.979	0.0160549
814.058	0.0163250
814.136	0.0163958
814.214	0.0164784
814.292	0.0165726
814.370	0.0165910
814.448	0.0166695
814.526	0.0166557
814.604	0.0165126
814.683	0.0165086
814.761	0.0165565
814.839	0.0164501
814.917	0.0165210
814.995	0.0163999
815.073	0.0163964
815.151	0.0162498
815.229	0.0165028
815.308	0.0166927
815.386	0.0166421
815.464	0.0166075
815.542	0.0167454
815.620	0.0167838
815.698	0.0168647
815.776	0.0167737
815.854	0.0168414
815.933	0.0168054
816.011	0.0168518
816.089	0.0167966
816.167	0.0166757
816.245	0.0168172
816.323	0.0166583
816.401	0.0166798
816.479	0.0166249
816.558	0.0166377
816.636	0.0167274
816.714	0.0166656
816.792	0.0167564
816.870	0.0168146
816.948	0.0171307
817.026	0.0172942
817.104	0.0175872
817.183	0.0177108
817.261	0.0177801
817.339	0.0179067
817.417	0.0179475
817.495	0.0178987
817.573	0.0177665
817.651	0.0174707
817.729	0.0173226
817.808	0.0170255
817.886	0.0167295
817.964	0.0163657
818.042	0.0161098
818.120	0.0156342
818.198	0.0151230
818.276	0.0150365
818.354	0.0147225
818.433	0.0143843
818.511	0.0142216
818.589	0.0139597
818.667	0.0141148
818.745	0.0140909
818.823	0.0141077
818.901	0.0143118
818.979	0.0143165
819.058	0.0147140
819.136	0.0150173
819.214	0.0154159
819.292	0.0154461
819.370	0.0157334
819.448	0.0160318
819.526	0.0161883
819.604	0.0161893
819.683	0.0162475
819.761	0.0162766
819.839	0.0163660
819.917	0.0163566
819.995	0.0163116
820.073	0.0162549
820.151	0.0161819
820.229	0.0160989
820.308	0.0159742
820.386	0.0160715
820.464	0.0160927
820.542	0.0159251
820.620	0.0160207
820.698	0.0160699
820.776	0.0160432
820.854	0.0162734
820.933	0.0161976
821.011	0.0164919
821.089	0.0166521
821.167	0.0167005
821.245	0.0168008
821.323	0.0166171
821.401	0.0166100
821.479	0.0167878
821.558	0.0167693
821.636	0.0165652
821.714	0.0165478
821.792	0.0165953
821.870	0.0166024
821.948	0.0164745
822.026	0.0163869
822.104	0.0163290
822.183	0.0163812
822.261	0.0163361
822.339	0.0164231
822.417	0.0165791
822.495	0.0166503
822.573	0.0168325
822.651	0.0169854
822.729	0.0170857
822.808	0.0173868
822.886	0.0174645
822.964	0.0176826
823.042	0.0175430
823.120	0.0175128
823.198	0.0175182
823.276	0.0174817
823.354	0.0173314
823.433	0.0171029
823.511	0.0169475
823.589	0.0165878
823.667	0.0162374
823.745	0.0159686
823.823	0.0156921
823.901	0.0154467
823.979	0.0151842
824.058	0.0150523
824.136	0.0149739
824.214	0.0148187
824.292	0.0147968
824.370	0.0148164
824.448	0.0149545
824.526	0.0150092
824.604	0.0151954
824.683	0.0152562
824.761	0.0153201
824.839	0.0154714
824.917	0.0157123
824.995	0.0158039
825.073	0.0159215
825.151	0.0158555
825.229	0.0159750
825.308	0.0159981
825.386	0.0160040
825.464	0.0158459
825.542	0.0158072
825.620	0.0157674
825.698	0.0159345
825.776	0.0158717
825.854	0.0157252
825.933	0.0157998
826.011	0.0157055
826.089	0.0156586
826.167	0.0157635
826.245	0.0158054
826.323	0.0156863
826.401	0.0157713
826.479	0.0158652
826.558	0.0160522
826.636	0.0160313
826.714	0.0160878
826.792	0.0161356
826.870	0.0160034
826.948	0.0162054
827.026	0.0160796
827.104	0.0160970
827.183	0.0160557
827.261	0.0161056
827.339	0.0161060
827.417	0.0160931
827.495	0.0162474
827.573	0.0164094
827.651	0.0162875
827.729	0.0163850
827.808	0.0165370
827.886	0.0166589
827.964	0.0168681
828.042	0.0168895
828.120	0.0170367
828.198	0.0171499
828.276	0.0173178
828.354	0.0175301
828.433	0.0175225
828.511	0.0175005
828.589	0.0175710
828.667	0.0176005
828.745	0.0175042
828.823	0.0174555
828.901	0.0174026
828.979	0.0171974
829.058	0.0169365
829.136	0.0167633
829.214	0.0167046
829.292	0.0163944
829.370	0.0164913
829.448	0.0162811
829.526	0.0159776
829.604	0.0158631
829.683	0.0156718
829.761	0.0156163
829.839	0.0154639
829.917	0.0154322
829.995	0.0153784
830.073	0.0152005
830.151	0.0151960
830.229	0.0152481
830.308	0.0151869
830.386	0.0151752
830.464	0.0151821
830.542	0.0152724
830.620	0.0153399
830.698	0.0153101
830.776	0.0151991
830.854	0.0152874
830.933	0.0152383
831.011	0.0153567
831.089	0.0152111
831.167	0.0152934
831.245	0.0155049
831.323	0.0154546
831.401	0.0156881
831.479	0.0156751
831.558	0.0157199
831.636	0.0157690
831.714	0.0158250
831.792	0.0158018
831.870	0.0161874
831.948	0.0160453
832.026	0.0161229
832.104	0.0160721
832.183	0.0161700
832.261	0.0161161
832.339	0.0161862
832.417	0.0163172
832.495	0.0162301
832.573	0.0163598
832.651	0.0160929
832.729	0.0162531
832.808	0.0162364
832.886	0.0162251
832.964	0.0162358
833.042	0.0163517
833.120	0.0162563
833.198	0.0164681
833.276	0.0165389
833.354	0.0165192
833.433	0.0165995
833.511	0.0166827
833.589	0.0166525
833.667	0.0167256
833.745	0.0170470
833.823	0.0169083
833.901	0.0171000
833.979	0.0170041
834.058	0.0171086
834.136	0.0171233
834.214	0.0171233
834.292	0.0171759
834.370	0.0171935
834.448	0.0172165
834.526	0.0170105
834.604	0.0169167
834.683	0.0168108
834.761	0.0167413
834.839	0.0163830
834.917	0.0164289
834.995	0.0163638
835.073	0.0163246
835.151	0.0163924
835.229	0.0162933
835.308	0.0161829
835.386	0.0161740
835.464	0.0161565
835.542	0.0161075
835.620	0.0159602
835.698	0.0159332
835.776	0.0160585
835.854	0.0159576
835.933	0.0158839
836.011	0.0157887
836.089	0.0156711
836.167	0.0155273
836.245	0.0154720
836.323	0.0156242
836.401	0.0153796
836.479	0.0154501
836.558	0.0154633
836.636	0.0154362
836.714	0.0154796
836.792	0.0155380
836.870	0.0156971
836.948	0.0156724
837.026	0.0157634
837.104	0.0158087
837.183	0.0158350
837.261	0.0159633
837.339	0.0158158
837.417	0.0158950
837.495	0.0160873
837.573	0.0157984
837.651	0.0158226
837.729	0.0159758
837.808	0.0158210
837.886	0.0159301
837.964	0.0159041
838.042	0.0157990
838.120	0.0158084
838.198	0.0158633
838.276	0.0159702
838.354	0.0160158
838.433	0.0160801
838.511	0.0160273
838.589	0.0161238
838.667	0.0163487
838.745	0.0163305
838.823	0.0164887
838.901	0.0164882
838.979	0.0167162
839.058	0.0167938
839.136	0.0167516
839.214	0.0168673
839.292	0.0169287
839.370	0.0167620
839.448	0.0167635
839.526	0.0167329
839.604	0.0168238
839.683	0.0168109
839.761	0.0167499
839.839	0.0168253
839.917	0.0166758
839.995	0.0167017
840.073	0.0166228
840.151	0.0165012
840.229	0.0166067
840.308	0.0166203
840.386	0.0166363
840.464	0.0166953
840.542	0.0167811
840.620	0.0166494
840.698	0.0167536
840.776	0.0168097
840.854	0.0167406
840.933	0.0169949
841.011	0.0168679
841.089	0.0169433
841.167	0.0168754
841.245	0.0168832
841.323	0.0167790
841.401	0.0168011
841.479	0.0166217
841.558	0.0163686
841.636	0.0161156
841.714	0.0161116
841.792	0.0159016
841.870	0.0157451
841.948	0.0155715
842.026	0.0156533
842.104	0.0155328
842.183	0.0153386
842.261	0.0152649
842.339	0.0152352
842.417	0.0152944
842.495	0.0152135
842.573	0.0152338
842.651	0.0154066
842.729	0.0155401
842.808	0.0155389
842.886	0.0154723
842.964	0.0156929
843.042	0.0157495
843.120	0.0159303
843.198	0.0157945
843.276	0.0159951
843.354	0.0160486
843.433	0.0159512
843.511	0.0160909
843.589	0.0158932
843.667	0.0159122
843.745	0.0160786
843.823	0.0160311
843.901	0.0160824
843.979	0.0160137
844.058	0.0159950
844.136	0.0159680
844.214	0.0160184
844.292	0.0161532
844.370	0.0161570
844.448	0.0160848
844.526	0.0162987
844.604	0.0164880
844.683	0.0163771
844.761	0.0163658
844.839	0.0165677
844.917	0.0166682
844.995	0.0167032
845.073	0.0166503
845.151	0.0166125
845.229	0.0165031
845.308	0.0165884
845.386	0.0165733
845.464	0.0165523
845.542	0.0165627
845.620	0.0164971
845.698	0.0163876
845.776	0.0162552
845.854	0.0163673
845.933	0.0164871
846.011	0.0164386
846.089	0.0162541
846.167	0.0163052
846.245	0.0163689
846.323	0.0162714
846.401	0.0163601
846.479	0.0164175
846.558	0.0162897
846.636	0.0163890
846.714	0.0163612
846.792	0.0163385
846.870	0.0165873
846.948	0.0164363
847.026	0.0164146
847.104	0.0164491
847.183	0.0164074
847.261	0.0162192
847.339	0.0163268
847.417	0.0162431
847.495	0.0162260
847.573	0.0161509
847.651	0.0160910
847.729	0.0160770
847.808	0.0160030
847.886	0.0161133
847.964	0.0160452
848.042	0.0159679
848.120	0.0158759
848.198	0.0159073
848.276	0.0158791
848.354	0.0158343
848.433	0.0157916
848.511	0.0157803
848.589	0.0156606
848.667	0.0158276
848.745	0.0156589
848.823	0.0156073
848.901	0.0157127
848.979	0.0158557
849.058	0.0158451
849.136	0.0157808
849.214	0.0157375
849.292	0.0158278
849.370	0.0158567
849.448	0.0159472
849.526	0.0159343
849.604	0.0158125
849.683	0.0159946
849.761	0.0160084
849.839	0.0160071
849.917	0.0161494
849.995	0.0160791
850.073	0.0160590
850.151	0.0161686
850.229	0.0161485
850.308	0.0160106
850.386	0.0161420
850.464	0.0161716
850.542	0.0162441
850.620	0.0161462
850.698	0.0161186
850.776	0.0161578
850.854	0.0162002
850.933	0.0161987
851.011	0.0163480
851.089	0.0162235
851.167	0.0162502
851.245	0.0161491
851.323	0.0160880
851.401	0.0163869
851.479	0.0164958
851.558	0.0163976
851.636	0.0162486
851.714	0.0163375
851.792	0.0164407
851.870	0.0164241
851.948	0.0164199
852.026	0.0164511
852.104	0.0164422
852.183	0.0165324
852.261	0.0164308
852.339	0.0165306
852.417	0.0165127
852.495	0.0164952
852.573	0.0164240
852.651	0.0164491
852.729	0.0164152
852.808	0.0163623
852.886	0.0163419
852.964	0.0164116
853.042	0.0164823
853.120	0.0165008
853.198	0.0165190
853.276	0.0163792
853.354	0.0164522
853.433	0.0165921
853.511	0.0163689
853.589	0.0164668
853.667	0.0165334
853.745	0.0164083
853.823	0.0161811
853.901	0.0162824
853.979	0.0162534
854.058	0.0159595
854.136	0.0160082
854.214	0.0159879
854.292	0.0157623
854.370	0.0157736
854.448	0.0156480
854.526	0.0156677
854.604	0.0156154
854.683	0.0155319
854.761	0.0154714
854.839	0.0155219
854.917	0.0156109
854.995	0.0155974
855.073	0.0156574
855.151	0.0156511
855.229	0.0158376
855.308	0.0157943
855.386	0.0160639
855.464	0.0161323
855.542	0.0161289
855.620	0.0160515
855.698	0.0161351
855.776	0.0162377
855.854	0.0163444
855.933	0.0162700
856.011	0.0161976
856.089	0.0162569
856.167	0.0164835
856.245	0.0164326
856.323	0.0165172
856.401	0.0162826
856.479	0.0162348
856.558	0.0162708
856.636	0.0161900
856.714	0.0164308
856.792	0.0163723
856.870	0.0160468
856.948	0.0161626
857.026	0.0161971
857.104	0.0161769
857.183	0.0161719
857.261	0.0161113
857.339	0.0162078
857.417	0.0161497
857.495	0.0162558
857.573	0.0162967
857.651	0.0164140
857.729	0.0165135
857.808	0.0165061
857.886	0.0164396
857.964	0.0164264
858.042	0.0165726
858.120	0.0165587
858.198	0.0166106
858.276	0.0166658
858.354	0.0167577
858.433	0.0166625
858.511	0.0166399
858.589	0.0166039
858.667	0.0165170
858.745	0.0166727
858.823	0.0167094
858.901	0.0165156
858.979	0.0164526
859.058	0.0163139
859.136	0.0163498
859.214	0.0161390
859.292	0.0161325
859.370	0.0161210
859.448	0.0162975
859.526	0.0159785
859.604	0.0161819
859.683	0.0161319
859.761	0.0160153
859.839	0.0160454
859.917	0.0161459
859.995	0.0160782
860.073	0.0160574
860.151	0.0161105
860.229	0.0160741
860.308	0.0160348
860.386	0.0162909
860.464	0.0162453
860.542	0.0160982
860.620	0.0160564
860.698	0.0161471
860.776	0.0161309
860.854	0.0161115
860.933	0.0160125
861.011	0.0160561
861.089	0.0159727
861.167	0.0158786
861.245	0.0159354
861.323	0.0158649
861.401	0.0158582
861.479	0.0158727
861.558	0.0158353
861.636	0.0158200
861.714	0.0157970
861.792	0.0158366
861.870	0.0159142
861.948	0.0160529
862.026	0.0160225
862.104	0.0162482
862.183	0.0162312
862.261	0.0164372
862.339	0.0165216
862.417	0.0166272
862.495	0.0165656
862.573	0.0164926
862.651	0.0164654
862.729	0.0165062
862.808	0.0164915
862.886	0.0164713
862.964	0.0163840
863.042	0.0163132
863.120	0.0163786
863.198	0.0162164
863.276	0.0162550
863.354	0.0162670
863.433	0.0161190
863.511	0.0160454
863.589	0.0160903
863.667	0.0161709
863.745	0.0162740
863.823	0.0162480
863.901	0.0162598
863.979	0.0163303
864.058	0.0163564
864.136	0.0165948
864.214	0.0168227
864.292	0.0166310
864.370	0.0168272
864.448	0.0169755
864.526	0.0167875
864.604	0.0169079
864.683	0.0167851
864.761	0.0168494
864.839	0.0167436
864.917	0.0166847
864.995	0.0166106
865.073	0.0165946
865.151	0.0163185
865.229	0.0160553
865.308	0.0161456
865.386	0.0159553
865.464	0.0157894
865.542	0.0158256
865.620	0.0158022
865.698	0.0157047
865.776	0.0156748
865.854	0.0156588
865.933	0.0158051
866.011	0.0155575
866.089	0.0156963
866.167	0.0159489
866.245	0.0159470
866.323	0.0159110
866.401	0.0161227
866.479	0.0159911
866.558	0.0161617
866.636	0.0163908
866.714	0.0162447
866.792	0.0162381
866.870	0.0164866
866.948	0.0165072
867.026	0.0164928
867.104	0.0164739
867.183	0.0166128
867.261	0.0165638
867.339	0.0164845
867.417	0.0166992
867.495	0.0166290
867.573	0.0164185
867.651	0.0165661
867.729	0.0164686
867.808	0.0164568
867.886	0.0164266
867.964	0.0163486
868.042	0.0162900
868.120	0.0163411
868.198	0.0161951
868.276	0.0160719
868.354	0.0161073
868.433	0.0160339
868.511	0.0161635
868.589	0.0160403
868.667	0.0159237
868.745	0.0159280
868.823	0.0158119
868.901	0.0157478
868.979	0.0157304
869.058	0.0157933
869.136	0.0158029
869.214	0.0157166
869.292	0.0158141
869.370	0.0157873
869.448	0.0157856
869.526	0.0158887
869.604	0.0159553
869.683	0.0159282
869.761	0.0160542
869.839	0.0160340
869.917	0.0159842
869.995	0.0159535
870.073	0.0162590
870.151	0.0162693
870.229	0.0162846
870.308	0.0164051
870.386	0.0164300
870.464	0.0165832
870.542	0.0164089
870.620	0.0165553
870.698	0.0165576
870.776	0.0165835
870.854	0.0166107
870.933	0.0166186
871.011	0.0166685
871.089	0.0165552
871.167	0.0166083
871.245	0.0165864
871.323	0.0164875
871.401	0.0164623
871.479	0.0166169
871.558	0.0163917
871.636	0.0165240
871.714	0.0163707
871.792	0.0162798
871.870	0.0163010
871.948	0.0163086
872.026	0.0162614
872.104	0.0160424
872.183	0.0159312
872.261	0.0159298
872.339	0.0161016
872.417	0.0161604
872.495	0.0158025
872.573	0.0159093
872.651	0.0160421
872.729	0.0160699
872.808	0.0159785
872.886	0.0159753
872.964	0.0158686
873.042	0.0158374
873.120	0.0158981
873.198	0.0158727
873.276	0.0157458
873.354	0.0157902
873.433	0.0158727
873.511	0.0158370
873.589	0.0157825
873.667	0.0159011
873.745	0.0159346
873.823	0.0158221
873.901	0.0160346
873.979	0.0160050
874.058	0.0160457
874.136	0.0161178
874.214	0.0158237
874.292	0.0159024
874.370	0.0160384
874.448	0.0160918
874.526	0.0159969
874.604	0.0160902
874.683	0.0161166
874.761	0.0162331
874.839	0.0161696
874.917	0.0162688
874.995	0.0162198
875.073	0.0162560
875.151	0.0162287
875.229	0.0164186
875.308	0.0164957
875.386	0.0164815
875.464	0.0165767
875.542	0.0165591
875.620	0.0165836
875.698	0.0165624
875.776	0.0166920
875.854	0.0164806
875.933	0.0166750
876.011	0.0166149
876.089	0.0167306
876.167	0.0167124
876.245	0.0166713
876.323	0.0167367
876.401	0.0167813
876.479	0.0168391
876.558	0.0165361
876.636	0.0165759
876.714	0.0166104
876.792	0.0165816
876.870	0.0164618
876.948	0.0163738
877.026	0.0164879
877.104	0.0163184
877.183	0.0162585
877.261	0.0162045
877.339	0.0162147
877.417	0.0161659
877.495	0.0159818
877.573	0.0160033
877.651	0.0159895
877.729	0.0159085
877.808	0.0159036
877.886	0.0158165
877.964	0.0157875
878.042	0.0158402
878.120	0.0156938
878.198	0.0157020
878.276	0.0158659
878.354	0.0157661
878.433	0.0155773
878.511	0.0158698
878.589	0.0158939
878.667	0.0159371
878.745	0.0159515
878.823	0.0160184
878.901	0.0161275
878.979	0.0161493
879.058	0.0162026
879.136	0.0161249
879.214	0.0163108
879.292	0.0162971
879.370	0.0163995
879.448	0.0163834
879.526	0.0162788
879.604	0.0164322
879.683	0.0164835
879.761	0.0164196
879.839	0.0164237
879.917	0.0164647
879.995	0.0164474
880.073	0.0164188
880.151	0.0165406
880.229	0.0164026
880.308	0.0164439
880.386	0.0164306
880.464	0.0163857
880.542	0.0165099
880.620	0.0164767
880.698	0.0165302
880.776	0.0165788
880.854	0.0165381
880.933	0.0164960
881.011	0.0164248
881.089	0.0164723
881.167	0.0163373
881.245	0.0164965
881.323	0.0163441
881.401	0.0164547
881.479	0.0162761
881.558	0.0163703
881.636	0.0163664
881.714	0.0161398
881.792	0.0161811
881.870	0.0162939
881.948	0.0161741
882.026	0.0160394
882.104	0.0160999
882.183	0.0158009
882.261	0.0159242
882.339	0.0158718
882.417	0.0159562
882.495	0.0159592
882.573	0.0159505
882.651	0.0159125
882.729	0.0158846
882.808	0.0160143
882.886	0.0161132
882.964	0.0160920
883.042	0.0160760
883.120	0.0160147
883.198	0.0161406
883.276	0.0161815
883.354	0.0161432
883.433	0.0162248
883.511	0.0161471
883.589	0.0162843
883.667	0.0162434
883.745	0.0162439
883.823	0.0162709
883.901	0.0163195
883.979	0.0162128
884.058	0.0164386
884.136	0.0162254
884.214	0.0162144
884.292	0.0163348
884.370	0.0162876
884.448	0.0162685
884.526	0.0162536
884.604	0.0162827
884.683	0.0162236
884.761	0.0161287
884.839	0.0161895
884.917	0.0161189
884.995	0.0160813
885.073	0.0160901
885.151	0.0160894
885.229	0.0160424
885.308	0.0162060
885.386	0.0161147
885.464	0.0161459
885.542	0.0162421
885.620	0.0164525
885.698	0.0163908
885.776	0.0164297
885.854	0.0164738
885.933	0.0163955
886.011	0.0165884
886.089	0.0166653
886.167	0.0166673
886.245	0.0166250
886.323	0.0166573
886.401	0.0167803
886.479	0.0166933
886.558	0.0166476
886.636	0.0166546
886.714	0.0165443
886.792	0.0165920
886.870	0.0164565
886.948	0.0164250
887.026	0.0164744
887.104	0.0163161
887.183	0.0163540
887.261	0.0161790
887.339	0.0161320
887.417	0.0161668
887.495	0.0161565
887.573	0.0159659
887.651	0.0158980
887.729	0.0160361
887.808	0.0159111
887.886	0.0159258
887.964	0.0157552
888.042	0.0157944
888.120	0.0158501
888.198	0.0159428
888.276	0.0158212
888.354	0.0158052
888.433	0.0158222
888.511	0.0159794
888.589	0.0159232
888.667	0.0160401
888.745	0.0159916
888.823	0.0162208
888.901	0.0162099
888.979	0.0165245
889.058	0.0163132
889.136	0.0163673
889.214	0.0164783
889.292	0.0163958
889.370	0.0164739
889.448	0.0163588
889.526	0.0162576
889.604	0.0162451
889.683	0.0163423
889.761	0.0161275
889.839	0.0160870
889.917	0.0160725
889.995	0.0160045
890.073	0.0160513
890.151	0.0158572
890.229	0.0159242
890.308	0.0160310
890.386	0.0159084
890.464	0.0158909
890.542	0.0160528
890.620	0.0159930
890.698	0.0161949
890.776	0.0161711
890.854	0.0162286
890.933	0.0163496
891.011	0.0163862
891.089	0.0165172
891.167	0.0165421
891.245	0.0166451
891.323	0.0164775
891.401	0.0167060
891.479	0.0168307
891.558	0.0166292
891.636	0.0166664
891.714	0.0168040
891.792	0.0166801
891.870	0.0165242
891.948	0.0165882
892.026	0.0164008
892.104	0.0162743
892.183	0.0161843
892.261	0.0162115
892.339	0.0160674
892.417	0.0159970
892.495	0.0158989
892.573	0.0157572
892.651	0.0156465
892.729	0.0158352
892.808	0.0156412
892.886	0.0158254
892.964	0.0156386
893.042	0.0156207
893.120	0.0157510
893.198	0.0156255
893.276	0.0157571
893.354	0.0155684
893.433	0.0156604
893.511	0.0158617
893.589	0.0158115
893.667	0.0157182
893.745	0.0158294
893.823	0.0159334
893.901	0.0158858
893.979	0.0158808
894.058	0.0161731
894.136	0.0160848
894.214	0.0160500
894.292	0.0160810
894.370	0.0160227
894.448	0.0161397
894.526	0.0162226
894.604	0.0161457
894.683	0.0161958
894.761	0.0161047
894.839	0.0161790
894.917	0.0163110
894.995	0.0162734
895.073	0.0161799
895.151	0.0162006
895.229	0.0164852
895.308	0.0163532
895.386	0.0164005
895.464	0.0163660
895.542	0.0162597
895.620	0.0162869
895.698	0.0162136
895.776	0.0160712
895.854	0.0162134
895.933	0.0162181
896.011	0.0162720
896.089	0.0162171
896.167	0.0161877
896.245	0.0163268
896.323	0.0162679
896.401	0.0162121
896.479	0.0164093
896.558	0.0163824
896.636	0.0163315
896.714	0.0164072
896.792	0.0163692
896.870	0.0161909
896.948	0.0164564
897.026	0.0165711
897.104	0.0163508
897.183	0.0165384
897.261	0.0165016
897.339	0.0165797
897.417	0.0164562
897.495	0.0164014
897.573	0.0164961
897.651	0.0164706
897.729	0.0163718
897.808	0.0162115
897.886	0.0161445
897.964	0.0160116
898.042	0.0159666
898.120	0.0159216
898.198	0.0158626
898.276	0.0157436
898.354	0.0157462
898.433	0.0157771
898.511	0.0156405
898.589	0.0156785
898.667	0.0156062
898.745	0.0156520
898.823	0.0155472
898.901	0.0154971
898.979	0.0155958
899.058	0.0155721
899.136	0.0155195
899.214	0.0155882
899.292	0.0157362
899.370	0.0160034
899.448	0.0159430
899.526	0.0159499
899.604	0.0161378
899.683	0.0161262
899.761	0.0161027
899.839	0.0162005
899.917	0.0162540
899.995	0.0162658
900.073	0.0163552
900.151	0.0165170
900.229	0.0164349
900.308	0.0164498
900.386	0.0165092
900.464	0.0164124
900.542	0.0167159
900.620	0.0166803
900.698	0.0165495
900.776	0.0164851
900.854	0.0165526
900.933	0.0164727
901.011	0.0165295
901.089	0.0165211
901.167	0.0165002
901.245	0.0164236
901.323	0.0163725
901.401	0.0164582
901.479	0.0165089
901.558	0.0163814
901.636	0.0164901
901.714	0.0166614
901.792	0.0165427
901.870	0.0166191
901.948	0.0166300
902.026	0.0166122
902.104	0.0166367
902.183	0.0165697
902.261	0.0166714
902.339	0.0165742
902.417	0.0166183
902.495	0.0164201
902.573	0.0163194
902.651	0.0164510
902.729	0.0164885
902.808	0.0163969
902.886	0.0163041
902.964	0.0162405
903.042	0.0161160
903.120	0.0161512
903.198	0.0161478
903.276	0.0160937
903.354	0.0158640
903.433	0.0158872
903.511	0.0158389
903.589	0.0156672
903.667	0.0157199
903.745	0.0158410
903.823	0.0156955
903.901	0.0158471
903.979	0.0158202
904.058	0.0157266
904.136	0.0156902
904.214	0.0157280
904.292	0.0157552
904.370	0.0158454
904.448	0.0158119
904.526	0.0158318
904.604	0.0159461
904.683	0.0157051
904.761	0.0159055
904.839	0.0158488
904.917	0.0159789
904.995	0.0160550
905.073	0.0159009
905.151	0.0159023
905.229	0.0159423
905.308	0.0159824
905.386	0.0160792
905.464	0.0161958
905.542	0.0161211
905.620	0.0161819
905.698	0.0161626
905.776	0.0162044
905.854	0.0162778
905.933	0.0163510
906.011	0.0164872
906.089	0.0165495
906.167	0.0167372
906.245	0.0166823
906.323	0.0167294
906.401	0.0166732
906.479	0.0167043
906.558	0.0168087
906.636	0.0168142
906.714	0.0166727
906.792	0.0167653
906.870	0.0165931
906.948	0.0166647
907.026	0.0166106
907.104	0.0166035
907.183	0.0165472
907.261	0.0164252
907.339	0.0164111
907.417	0.0164839
907.495	0.0164985
907.573	0.0164816
907.651	0.0163013
907.729	0.0162700
907.808	0.0163379
907.886	0.0164755
907.964	0.0164702
908.042	0.0163799
908.120	0.0162153
908.198	0.0162051
908.276	0.0163223
908.354	0.0165078
908.433	0.0165484
908.511	0.0162745
908.589	0.0163228
908.667	0.0162724
908.745	0.0162991
908.823	0.0162843
908.901	0.0163081
908.979	0.0162236
909.058	0.0160903
909.136	0.0159706
909.214	0.0158887
909.292	0.0159562
909.370	0.0157867
909.448	0.0157492
909.526	0.0156843
909.604	0.0156071
909.683	0.0156419
909.761	0.0156158
909.839	0.0155148
909.917	0.0156055
909.995	0.0155717
910.073	0.0155576
910.151	0.0155926
910.229	0.0158522
910.308	0.0158611
910.386	0.0158652
910.464	0.0159297
910.542	0.0159837
910.620	0.0160503
910.698	0.0161810
910.776	0.0162819
910.854	0.0161739
910.933	0.0164752
911.011	0.0164708
911.089	0.0164381
911.167	0.0165240
911.245	0.0164854
911.323	0.0166176
911.401	0.0164839
911.479	0.0163774
911.558	0.0164396
911.636	0.0165341
911.714	0.0164326
911.792	0.0164130
911.870	0.0164279
911.948	0.0163084
912.026	0.0164381
912.104	0.0163474
912.183	0.0162935
912.261	0.0164075
912.339	0.0163541
912.417	0.0163941
912.495	0.0163126
912.573	0.0163345
912.651	0.0165425
912.729	0.0164146
912.808	0.0164680
912.886	0.0165498
912.964	0.0164030
913.042	0.0164358
913.120	0.0164960
913.198	0.0165291
913.276	0.0164443
913.354	0.0164017
913.433	0.0165237
913.511	0.0165476
913.589	0.0165237
913.667	0.0165067
913.745	0.0165460
913.823	0.0162398
913.901	0.0162710
913.979	0.0162307
914.058	0.0162441
914.136	0.0162546
914.214	0.0161636
914.292	0.0161466
914.370	0.0160990
914.448	0.0160487
914.526	0.0159286
914.604	0.0159460
914.683	0.0158627
914.761	0.0159724
914.839	0.0158691
914.917	0.0158033
914.995	0.0157315
915.073	0.0158441
915.151	0.0158169
915.229	0.0158929
915.308	0.0158021
915.386	0.0157186
915.464	0.0159024
915.542	0.0158689
915.620	0.0158002
915.698	0.0157896
915.776	0.0158974
915.854	0.0158005
915.933	0.0158768
916.011	0.0160843
916.089	0.0160168
916.167	0.0160873
916.245	0.0161285
916.323	0.0161661
916.401	0.0162798
916.479	0.0162054
916.558	0.0160020
916.636	0.0162267
916.714	0.0162732
916.792	0.0162809
916.870	0.0163062
916.948	0.0162407
917.026	0.0163138
917.104	0.0162959
917.183	0.0162839
917.261	0.0163054
917.339	0.0163999
917.417	0.0163714
917.495	0.0164065
917.573	0.0163052
917.651	0.0162929
917.729	0.0163613
917.808	0.0163811
917.886	0.0165771
917.964	0.0163985
918.042	0.0162415
918.120	0.0163533
918.198	0.0163436
918.276	0.0161333
918.354	0.0161430
918.433	0.0161475
918.511	0.0162873
918.589	0.0162535
918.667	0.0161751
918.745	0.0161193
918.823	0.0161769
918.901	0.0162072
918.979	0.0162032
919.058	0.0162422
919.136	0.0161395
919.214	0.0161538
919.292	0.0161929
919.370	0.0162192
919.448	0.0162001
919.526	0.0162873
919.604	0.0162292
919.683	0.0163588
919.761	0.0162732
919.839	0.0162762
919.917	0.0161942
