06/10/2022	16:23:52	Ver.	4.1	UNKNOWN
Optical Delay	599.988409	Delta X		0.078125	Sweeps	1	Scan Rate	0/0
Coordinates	Axis 1	NaN	Axis 2	NaN	Axis 3	NaN	Axis 4	NaN	Axis 5	NaN	Axis 6	0.000000
TX Power	0.000000	RX Power	0.000000

599.988	0.0165137
600.067	0.0163890
600.145	0.0165306
600.223	0.0164652
600.301	0.0164804
600.379	0.0164512
600.457	0.0166737
600.535	0.0166063
600.613	0.0165916
600.692	0.0165247
600.770	0.0164845
600.848	0.0164603
600.926	0.0165467
601.004	0.0165635
601.082	0.0164484
601.160	0.0164706
601.238	0.0164227
601.317	0.0164253
601.395	0.0165220
601.473	0.0165804
601.551	0.0165830
601.629	0.0165778
601.707	0.0165868
601.785	0.0164621
601.863	0.0164445
601.942	0.0164025
602.020	0.0164243
602.098	0.0164461
602.176	0.0164817
602.254	0.0166334
602.332	0.0164747
602.410	0.0165570
602.488	0.0165466
602.567	0.0165559
602.645	0.0165605
602.723	0.0164095
602.801	0.0165433
602.879	0.0164656
602.957	0.0165348
603.035	0.0165223
603.113	0.0165129
603.192	0.0164368
603.270	0.0163828
603.348	0.0164491
603.426	0.0166116
603.504	0.0165170
603.582	0.0165323
603.660	0.0166016
603.738	0.0165395
603.817	0.0164701
603.895	0.0165468
603.973	0.0164571
604.051	0.0164677
604.129	0.0164812
604.207	0.0163145
604.285	0.0165128
604.363	0.0165553
604.442	0.0165813
604.520	0.0165340
604.598	0.0164628
604.676	0.0165549
604.754	0.0165467
604.832	0.0164740
604.910	0.0164788
604.988	0.0164929
605.067	0.0165482
605.145	0.0165520
605.223	0.0165901
605.301	0.0164909
605.379	0.0165405
605.457	0.0163972
605.535	0.0164470
605.613	0.0165996
605.692	0.0166875
605.770	0.0165887
605.848	0.0164814
605.926	0.0165236
606.004	0.0165455
606.082	0.0166244
606.160	0.0164236
606.238	0.0164111
606.317	0.0166400
606.395	0.0164792
606.473	0.0164893
606.551	0.0165728
606.629	0.0165076
606.707	0.0165001
606.785	0.0165014
606.863	0.0165468
606.942	0.0164733
607.020	0.0166961
607.098	0.0164749
607.176	0.0164913
607.254	0.0165202
607.332	0.0165451
607.410	0.0166185
607.488	0.0163972
607.567	0.0165200
607.645	0.0165894
607.723	0.0165155
607.801	0.0165443
607.879	0.0165152
607.957	0.0163715
608.035	0.0165225
608.113	0.0164530
608.192	0.0164934
608.270	0.0166319
608.348	0.0165137
608.426	0.0164162
608.504	0.0165491
608.582	0.0164687
608.660	0.0165932
608.738	0.0163457
608.817	0.0163705
608.895	0.0165485
608.973	0.0164272
609.051	0.0165037
609.129	0.0165547
609.207	0.0164627
609.285	0.0165647
609.363	0.0166014
609.442	0.0165730
609.520	0.0164807
609.598	0.0165958
609.676	0.0165621
609.754	0.0165053
609.832	0.0165462
609.910	0.0164445
609.988	0.0164705
610.067	0.0164182
610.145	0.0165351
610.223	0.0165158
610.301	0.0165294
610.379	0.0165409
610.457	0.0164928
610.535	0.0164131
610.613	0.0165237
610.692	0.0164890
610.770	0.0166167
610.848	0.0164183
610.926	0.0164809
611.004	0.0166885
611.082	0.0165443
611.160	0.0164807
611.238	0.0164867
611.317	0.0163819
611.395	0.0166048
611.473	0.0164937
611.551	0.0164133
611.629	0.0164705
611.707	0.0164803
611.785	0.0165120
611.863	0.0165183
611.942	0.0164314
612.020	0.0164368
612.098	0.0165073
612.176	0.0164201
612.254	0.0163084
612.332	0.0165285
612.410	0.0166303
612.488	0.0165959
612.567	0.0164678
612.645	0.0164431
612.723	0.0165828
612.801	0.0164997
612.879	0.0165617
612.957	0.0165703
613.035	0.0165576
613.113	0.0165490
613.192	0.0166122
613.270	0.0164109
613.348	0.0163647
613.426	0.0163649
613.504	0.0165662
613.582	0.0166552
613.660	0.0165733
613.738	0.0164571
613.817	0.0165392
613.895	0.0165559
613.973	0.0165740
614.051	0.0165710
614.129	0.0164204
614.207	0.0166435
614.285	0.0164019
614.363	0.0165961
614.442	0.0165962
614.520	0.0167023
614.598	0.0165707
614.676	0.0164029
614.754	0.0164896
614.832	0.0164654
614.910	0.0165129
614.988	0.0165298
615.067	0.0165166
615.145	0.0164943
615.223	0.0164819
615.301	0.0164785
615.379	0.0164586
615.457	0.0164848
615.535	0.0165041
615.613	0.0165640
615.692	0.0164479
615.770	0.0164324
615.848	0.0165990
615.926	0.0165211
616.004	0.0164275
616.082	0.0165024
616.160	0.0165289
616.238	0.0165311
616.317	0.0165833
616.395	0.0165240
616.473	0.0165001
616.551	0.0164584
616.629	0.0166067
616.707	0.0167121
616.785	0.0164590
616.863	0.0165870
616.942	0.0165746
617.020	0.0165616
617.098	0.0165916
617.176	0.0165421
617.254	0.0164079
617.332	0.0165910
617.410	0.0164883
617.488	0.0164710
617.567	0.0164691
617.645	0.0164994
617.723	0.0165918
617.801	0.0165173
617.879	0.0165952
617.957	0.0165331
618.035	0.0165929
618.113	0.0164372
618.192	0.0164152
618.270	0.0165384
618.348	0.0165327
618.426	0.0165429
618.504	0.0165395
618.582	0.0164854
618.660	0.0164478
618.738	0.0165376
618.817	0.0164637
618.895	0.0164648
618.973	0.0164618
619.051	0.0165083
619.129	0.0166142
619.207	0.0165455
619.285	0.0165777
619.363	0.0164931
619.442	0.0165067
619.520	0.0166308
619.598	0.0165510
619.676	0.0166558
619.754	0.0166055
619.832	0.0166190
619.910	0.0164657
619.988	0.0164640
620.067	0.0166429
620.145	0.0165919
620.223	0.0164574
620.301	0.0166133
620.379	0.0165800
620.457	0.0164980
620.535	0.0164992
620.613	0.0165147
620.692	0.0165151
620.770	0.0164131
620.848	0.0165206
620.926	0.0165987
621.004	0.0166384
621.082	0.0164625
621.160	0.0164773
621.238	0.0165655
621.317	0.0164545
621.395	0.0165740
621.473	0.0164481
621.551	0.0165673
621.629	0.0166585
621.707	0.0165031
621.785	0.0164592
621.863	0.0164799
621.942	0.0165591
622.020	0.0165179
622.098	0.0164740
622.176	0.0166013
622.254	0.0165733
622.332	0.0164305
622.410	0.0163629
622.488	0.0166236
622.567	0.0165471
622.645	0.0164738
622.723	0.0164014
622.801	0.0164370
622.879	0.0165195
622.957	0.0164680
623.035	0.0164239
623.113	0.0164802
623.192	0.0165483
623.270	0.0166128
623.348	0.0165063
623.426	0.0164875
623.504	0.0164575
623.582	0.0164323
623.660	0.0164500
623.738	0.0165584
623.817	0.0166069
623.895	0.0164008
623.973	0.0164458
624.051	0.0165102
624.129	0.0165689
624.207	0.0166256
624.285	0.0164541
624.363	0.0164707
624.442	0.0165095
624.520	0.0164661
624.598	0.0164591
624.676	0.0166325
624.754	0.0164780
624.832	0.0163673
624.910	0.0165468
624.988	0.0164072
625.067	0.0164601
625.145	0.0167301
625.223	0.0165144
625.301	0.0164552
625.379	0.0165275
625.457	0.0164626
625.535	0.0165036
625.613	0.0163455
625.692	0.0165489
625.770	0.0165605
625.848	0.0165328
625.926	0.0164981
626.004	0.0164972
626.082	0.0166251
626.160	0.0166076
626.238	0.0165198
626.317	0.0164007
626.395	0.0166103
626.473	0.0164530
626.551	0.0165699
626.629	0.0166659
626.707	0.0165061
626.785	0.0165810
626.863	0.0165955
626.942	0.0164668
627.020	0.0165394
627.098	0.0165575
627.176	0.0166978
627.254	0.0165670
627.332	0.0164861
627.410	0.0163908
627.488	0.0165821
627.567	0.0165337
627.645	0.0164360
627.723	0.0163783
627.801	0.0166248
627.879	0.0164585
627.957	0.0164489
628.035	0.0165175
628.113	0.0164782
628.192	0.0166011
628.270	0.0166634
628.348	0.0163773
628.426	0.0165655
628.504	0.0166275
628.582	0.0166171
628.660	0.0164335
628.738	0.0164484
628.817	0.0164725
628.895	0.0164168
628.973	0.0164496
629.051	0.0165059
629.129	0.0165790
629.207	0.0166180
629.285	0.0164674
629.363	0.0165636
629.442	0.0165758
629.520	0.0166271
629.598	0.0164925
629.676	0.0164295
629.754	0.0165137
629.832	0.0165853
629.910	0.0164348
629.988	0.0163966
630.067	0.0163110
630.145	0.0164808
630.223	0.0166255
630.301	0.0164716
630.379	0.0165169
630.457	0.0165176
630.535	0.0165015
630.613	0.0166313
630.692	0.0164400
630.770	0.0163376
630.848	0.0165388
630.926	0.0164687
631.004	0.0164547
631.082	0.0165489
631.160	0.0164817
631.238	0.0164491
631.317	0.0165179
631.395	0.0166150
631.473	0.0165830
631.551	0.0165040
631.629	0.0165752
631.707	0.0165589
631.785	0.0165614
631.863	0.0164733
631.942	0.0165354
632.020	0.0165958
632.098	0.0165060
632.176	0.0165229
632.254	0.0165171
632.332	0.0164324
632.410	0.0165308
632.488	0.0165007
632.567	0.0166052
632.645	0.0165063
632.723	0.0164098
632.801	0.0165049
632.879	0.0164281
632.957	0.0165152
633.035	0.0166147
633.113	0.0164258
633.192	0.0164766
633.270	0.0164999
633.348	0.0164681
633.426	0.0164319
633.504	0.0164265
633.582	0.0165596
633.660	0.0165568
633.738	0.0166194
633.817	0.0165657
633.895	0.0165386
633.973	0.0164914
634.051	0.0166017
634.129	0.0165220
634.207	0.0165737
634.285	0.0166112
634.363	0.0165043
634.442	0.0164520
634.520	0.0165666
634.598	0.0166627
634.676	0.0164751
634.754	0.0166484
634.832	0.0164994
634.910	0.0165549
634.988	0.0165476
635.067	0.0164319
635.145	0.0165710
635.223	0.0165965
635.301	0.0164376
635.379	0.0165298
635.457	0.0166077
635.535	0.0165816
635.613	0.0163792
635.692	0.0164625
635.770	0.0166797
635.848	0.0165310
635.926	0.0164629
636.004	0.0164136
636.082	0.0164878
636.160	0.0165184
636.238	0.0165405
636.317	0.0165018
636.395	0.0164596
636.473	0.0163506
636.551	0.0165347
636.629	0.0165742
636.707	0.0163665
636.785	0.0164858
636.863	0.0166633
636.942	0.0164285
637.020	0.0165894
637.098	0.0164783
637.176	0.0163953
637.254	0.0164736
637.332	0.0164713
637.410	0.0164363
637.488	0.0164795
637.567	0.0165231
637.645	0.0164689
637.723	0.0165458
637.801	0.0166728
637.879	0.0165610
637.957	0.0165052
638.035	0.0165446
638.113	0.0165627
638.192	0.0163663
638.270	0.0165038
638.348	0.0165045
638.426	0.0165440
638.504	0.0164357
638.582	0.0166079
638.660	0.0165732
638.738	0.0164093
638.817	0.0165829
638.895	0.0165266
638.973	0.0163468
639.051	0.0166135
639.129	0.0166544
639.207	0.0164803
639.285	0.0163950
639.363	0.0165369
639.442	0.0164135
639.520	0.0164717
639.598	0.0165991
639.676	0.0165427
639.754	0.0165366
639.832	0.0164121
639.910	0.0165194
639.988	0.0165694
640.067	0.0165974
640.145	0.0164415
640.223	0.0165456
640.301	0.0164776
640.379	0.0165031
640.457	0.0163989
640.535	0.0162965
640.613	0.0164637
640.692	0.0164783
640.770	0.0164976
640.848	0.0164453
640.926	0.0165321
641.004	0.0163786
641.082	0.0164583
641.160	0.0164635
641.238	0.0165418
641.317	0.0165282
641.395	0.0164581
641.473	0.0164131
641.551	0.0163952
641.629	0.0165572
641.707	0.0165451
641.785	0.0165199
641.863	0.0163860
641.942	0.0165234
642.020	0.0165486
642.098	0.0165608
642.176	0.0164794
642.254	0.0164574
642.332	0.0164793
642.410	0.0165788
642.488	0.0163522
642.567	0.0165292
642.645	0.0165238
642.723	0.0164233
642.801	0.0165090
642.879	0.0164981
642.957	0.0165447
643.035	0.0164490
643.113	0.0165404
643.192	0.0164330
643.270	0.0163337
643.348	0.0164993
643.426	0.0164815
643.504	0.0164374
643.582	0.0165038
643.660	0.0164751
643.738	0.0166016
643.817	0.0164306
643.895	0.0164463
643.973	0.0164330
644.051	0.0165047
644.129	0.0164384
644.207	0.0164516
644.285	0.0163565
644.363	0.0164729
644.442	0.0166319
644.520	0.0164725
644.598	0.0164265
644.676	0.0164882
644.754	0.0162740
644.832	0.0165589
644.910	0.0165054
644.988	0.0163772
645.067	0.0164063
645.145	0.0165704
645.223	0.0166181
645.301	0.0165290
645.379	0.0164298
645.457	0.0165011
645.535	0.0165622
645.613	0.0165395
645.692	0.0163953
645.770	0.0164550
645.848	0.0164811
645.926	0.0165720
646.004	0.0164214
646.082	0.0163900
646.160	0.0164277
646.238	0.0165729
646.317	0.0163628
646.395	0.0164240
646.473	0.0165417
646.551	0.0164748
646.629	0.0164652
646.707	0.0165343
646.785	0.0164760
646.863	0.0165697
646.942	0.0164719
647.020	0.0164783
647.098	0.0164651
647.176	0.0164672
647.254	0.0163932
647.332	0.0164640
647.410	0.0163712
647.488	0.0165198
647.567	0.0164085
647.645	0.0164377
647.723	0.0164590
647.801	0.0164419
647.879	0.0165408
647.957	0.0164876
648.035	0.0164574
648.113	0.0164037
648.192	0.0163611
648.270	0.0165161
648.348	0.0165728
648.426	0.0165736
648.504	0.0164501
648.582	0.0164108
648.660	0.0164484
648.738	0.0165654
648.817	0.0165062
648.895	0.0165205
648.973	0.0164923
649.051	0.0164941
649.129	0.0165174
649.207	0.0164294
649.285	0.0164487
649.363	0.0164005
649.442	0.0164948
649.520	0.0164551
649.598	0.0165031
649.676	0.0165564
649.754	0.0164412
649.832	0.0165899
649.910	0.0164705
649.988	0.0164858
650.067	0.0163395
650.145	0.0165434
650.223	0.0165540
650.301	0.0165478
650.379	0.0167233
650.457	0.0166092
650.535	0.0164967
650.613	0.0165956
650.692	0.0165247
650.770	0.0164738
650.848	0.0165028
650.926	0.0164172
651.004	0.0164077
651.082	0.0165060
651.160	0.0166599
651.238	0.0165185
651.317	0.0165264
651.395	0.0165924
651.473	0.0165138
651.551	0.0165174
651.629	0.0166082
651.707	0.0166174
651.785	0.0165227
651.863	0.0166541
651.942	0.0166142
652.020	0.0164984
652.098	0.0164809
652.176	0.0165971
652.254	0.0164426
652.332	0.0164136
652.410	0.0163463
652.488	0.0165221
652.567	0.0166892
652.645	0.0165584
652.723	0.0164303
652.801	0.0165428
652.879	0.0164941
652.957	0.0165766
653.035	0.0166569
653.113	0.0165173
653.192	0.0164725
653.270	0.0164869
653.348	0.0165127
653.426	0.0165102
653.504	0.0165863
653.582	0.0164872
653.660	0.0166293
653.738	0.0165415
653.817	0.0166821
653.895	0.0164928
653.973	0.0165327
654.051	0.0166120
654.129	0.0166662
654.207	0.0165653
654.285	0.0164816
654.363	0.0164464
654.442	0.0165656
654.520	0.0165271
654.598	0.0165436
654.676	0.0164463
654.754	0.0165093
654.832	0.0164337
654.910	0.0165153
654.988	0.0165486
655.067	0.0165059
655.145	0.0165131
655.223	0.0163956
655.301	0.0166289
655.379	0.0165041
655.457	0.0164511
655.535	0.0165816
655.613	0.0165589
655.692	0.0166154
655.770	0.0165926
655.848	0.0164778
655.926	0.0163754
656.004	0.0165012
656.082	0.0163986
656.160	0.0164836
656.238	0.0164426
656.317	0.0165446
656.395	0.0163520
656.473	0.0164174
656.551	0.0164552
656.629	0.0164286
656.707	0.0165289
656.785	0.0163923
656.863	0.0164981
656.942	0.0165482
657.020	0.0165317
657.098	0.0165566
657.176	0.0164333
657.254	0.0165001
657.332	0.0165099
657.410	0.0165854
657.488	0.0164854
657.567	0.0165970
657.645	0.0165479
657.723	0.0163786
657.801	0.0164088
657.879	0.0164642
657.957	0.0164944
658.035	0.0163850
658.113	0.0165161
658.192	0.0164409
658.270	0.0165289
658.348	0.0164002
658.426	0.0165146
658.504	0.0165350
658.582	0.0164061
658.660	0.0163200
658.738	0.0165333
658.817	0.0164650
658.895	0.0165746
658.973	0.0165347
659.051	0.0163081
659.129	0.0165602
659.207	0.0164367
659.285	0.0164262
659.363	0.0165379
659.442	0.0164571
659.520	0.0165076
659.598	0.0164370
659.676	0.0164687
659.754	0.0165886
659.832	0.0165231
659.910	0.0165002
659.988	0.0165570
660.067	0.0164886
660.145	0.0165367
660.223	0.0165189
660.301	0.0164213
660.379	0.0164735
660.457	0.0164852
660.535	0.0165633
660.613	0.0165527
660.692	0.0165216
660.770	0.0165961
660.848	0.0164234
660.926	0.0163376
661.004	0.0165868
661.082	0.0164905
661.160	0.0165610
661.238	0.0164043
661.317	0.0164370
661.395	0.0166419
661.473	0.0165121
661.551	0.0164967
661.629	0.0164482
661.707	0.0165170
661.785	0.0166023
661.863	0.0164861
661.942	0.0163031
662.020	0.0166037
662.098	0.0164832
662.176	0.0165473
662.254	0.0165337
662.332	0.0163739
662.410	0.0163810
662.488	0.0164122
662.567	0.0165739
662.645	0.0165366
662.723	0.0165449
662.801	0.0165192
662.879	0.0165182
662.957	0.0164294
663.035	0.0164973
663.113	0.0166203
663.192	0.0163998
663.270	0.0165560
663.348	0.0164537
663.426	0.0165006
663.504	0.0164577
663.582	0.0164508
663.660	0.0164953
663.738	0.0165725
663.817	0.0165374
663.895	0.0164992
663.973	0.0164779
664.051	0.0163893
664.129	0.0164386
664.207	0.0164716
664.285	0.0164723
664.363	0.0165298
664.442	0.0165264
664.520	0.0166011
664.598	0.0164629
664.676	0.0164900
664.754	0.0164628
664.832	0.0164956
664.910	0.0166422
664.988	0.0164380
665.067	0.0164745
665.145	0.0163531
665.223	0.0164298
665.301	0.0164547
665.379	0.0165718
665.457	0.0164535
665.535	0.0163971
665.613	0.0164385
665.692	0.0164159
665.770	0.0164150
665.848	0.0165127
665.926	0.0164516
666.004	0.0166215
666.082	0.0164656
666.160	0.0163636
666.238	0.0165389
666.317	0.0164221
666.395	0.0165111
666.473	0.0164850
666.551	0.0165714
666.629	0.0166338
666.707	0.0165322
666.785	0.0163912
666.863	0.0164852
666.942	0.0164760
667.020	0.0164966
667.098	0.0165401
667.176	0.0165398
667.254	0.0165117
667.332	0.0165091
667.410	0.0164163
667.488	0.0166180
667.567	0.0165912
667.645	0.0165487
667.723	0.0165924
667.801	0.0166236
667.879	0.0165118
667.957	0.0164245
668.035	0.0164006
668.113	0.0164380
668.192	0.0164056
668.270	0.0165569
668.348	0.0165241
668.426	0.0164445
668.504	0.0165703
668.582	0.0165108
668.660	0.0165106
668.738	0.0165461
668.817	0.0165128
668.895	0.0166359
668.973	0.0165075
669.051	0.0164542
669.129	0.0164253
669.207	0.0164899
669.285	0.0164470
669.363	0.0164481
669.442	0.0164397
669.520	0.0163084
669.598	0.0165666
669.676	0.0165013
669.754	0.0164128
669.832	0.0163717
669.910	0.0165813
669.988	0.0163292
670.067	0.0164482
670.145	0.0164874
670.223	0.0165530
670.301	0.0164735
670.379	0.0166228
670.457	0.0165381
670.535	0.0163813
670.613	0.0164626
670.692	0.0164348
670.770	0.0164274
670.848	0.0165154
670.926	0.0164339
671.004	0.0164448
671.082	0.0165765
671.160	0.0164650
671.238	0.0165996
671.317	0.0165425
671.395	0.0164685
671.473	0.0163976
671.551	0.0167049
671.629	0.0165569
671.707	0.0165649
671.785	0.0166281
671.863	0.0163918
671.942	0.0164517
672.020	0.0165540
672.098	0.0166610
672.176	0.0165597
672.254	0.0164647
672.332	0.0164626
672.410	0.0164521
672.488	0.0164322
672.567	0.0166073
672.645	0.0165959
672.723	0.0165136
672.801	0.0164859
672.879	0.0164636
672.957	0.0163876
673.035	0.0164290
673.113	0.0165271
673.192	0.0165179
673.270	0.0164651
673.348	0.0164587
673.426	0.0163902
673.504	0.0164188
673.582	0.0164551
673.660	0.0165307
673.738	0.0164500
673.817	0.0165068
673.895	0.0164378
673.973	0.0164115
674.051	0.0164500
674.129	0.0164476
674.207	0.0165675
674.285	0.0164996
674.363	0.0163908
674.442	0.0163801
674.520	0.0164617
674.598	0.0166123
674.676	0.0164742
674.754	0.0164567
674.832	0.0163731
674.910	0.0164732
674.988	0.0165147
675.067	0.0164767
675.145	0.0165043
675.223	0.0165461
675.301	0.0164703
675.379	0.0163560
675.457	0.0165289
675.535	0.0166289
675.613	0.0165781
675.692	0.0166087
675.770	0.0164439
675.848	0.0164281
675.926	0.0164565
676.004	0.0165970
676.082	0.0164804
676.160	0.0165082
676.238	0.0163319
676.317	0.0165324
676.395	0.0165466
676.473	0.0164896
676.551	0.0163821
676.629	0.0164760
676.707	0.0165579
676.785	0.0165194
676.863	0.0165304
676.942	0.0164771
677.020	0.0164697
677.098	0.0163237
677.176	0.0164827
677.254	0.0165182
677.332	0.0164094
677.410	0.0165456
677.488	0.0166444
677.567	0.0165434
677.645	0.0165544
677.723	0.0166438
677.801	0.0164801
677.879	0.0166084
677.957	0.0164204
678.035	0.0164630
678.113	0.0164939
678.192	0.0164655
678.270	0.0165246
678.348	0.0164884
678.426	0.0164681
678.504	0.0164925
678.582	0.0164463
678.660	0.0165099
678.738	0.0165973
678.817	0.0164350
678.895	0.0164447
678.973	0.0165421
679.051	0.0164550
679.129	0.0164842
679.207	0.0165546
679.285	0.0164795
679.363	0.0165305
679.442	0.0165331
679.520	0.0164516
679.598	0.0164909
679.676	0.0165191
679.754	0.0165128
679.832	0.0164545
679.910	0.0164554
679.988	0.0165109
680.067	0.0164997
680.145	0.0165119
680.223	0.0164426
680.301	0.0165467
680.379	0.0165251
680.457	0.0164803
680.535	0.0165129
680.613	0.0165584
680.692	0.0164384
680.770	0.0164943
680.848	0.0165878
680.926	0.0165030
681.004	0.0165108
681.082	0.0164792
681.160	0.0166151
681.238	0.0163382
681.317	0.0163593
681.395	0.0164642
681.473	0.0166171
681.551	0.0165677
681.629	0.0163874
681.707	0.0164560
681.785	0.0164505
681.863	0.0164246
681.942	0.0165467
682.020	0.0165089
682.098	0.0164152
682.176	0.0165567
682.254	0.0164890
682.332	0.0163451
682.410	0.0166090
682.488	0.0165067
682.567	0.0165517
682.645	0.0165448
682.723	0.0164412
682.801	0.0165285
682.879	0.0163978
682.957	0.0165820
683.035	0.0165852
683.113	0.0166718
683.192	0.0164210
683.270	0.0163822
683.348	0.0164764
683.426	0.0165118
683.504	0.0164569
683.582	0.0166575
683.660	0.0164447
683.738	0.0164144
683.817	0.0165549
683.895	0.0165604
683.973	0.0166016
684.051	0.0165765
684.129	0.0165194
684.207	0.0164889
684.285	0.0164127
684.363	0.0165726
684.442	0.0164297
684.520	0.0164758
684.598	0.0164657
684.676	0.0165631
684.754	0.0164388
684.832	0.0165784
684.910	0.0165073
684.988	0.0165151
685.067	0.0165981
685.145	0.0166110
685.223	0.0165387
685.301	0.0164359
685.379	0.0165321
685.457	0.0165300
685.535	0.0165347
685.613	0.0165961
685.692	0.0164867
685.770	0.0164692
685.848	0.0165932
685.926	0.0165273
686.004	0.0165536
686.082	0.0164880
686.160	0.0165321
686.238	0.0165082
686.317	0.0165322
686.395	0.0164864
686.473	0.0165729
686.551	0.0165396
686.629	0.0165174
686.707	0.0164927
686.785	0.0165795
686.863	0.0166379
686.942	0.0165851
687.020	0.0164898
687.098	0.0164050
687.176	0.0166368
687.254	0.0166253
687.332	0.0164944
687.410	0.0164216
687.488	0.0166749
687.567	0.0165391
687.645	0.0166315
687.723	0.0165619
687.801	0.0164727
687.879	0.0166270
687.957	0.0164602
688.035	0.0164146
688.113	0.0165047
688.192	0.0165262
688.270	0.0165658
688.348	0.0165784
688.426	0.0165281
688.504	0.0166472
688.582	0.0165469
688.660	0.0166119
688.738	0.0165891
688.817	0.0165932
688.895	0.0165389
688.973	0.0165647
689.051	0.0164927
689.129	0.0165072
689.207	0.0165725
689.285	0.0165665
689.363	0.0165892
689.442	0.0164503
689.520	0.0165960
689.598	0.0166071
689.676	0.0166107
689.754	0.0166345
689.832	0.0165898
689.910	0.0166508
689.988	0.0165918
690.067	0.0165698
690.145	0.0165997
690.223	0.0163996
690.301	0.0165596
690.379	0.0167200
690.457	0.0165932
690.535	0.0164940
690.613	0.0165678
690.692	0.0165809
690.770	0.0166564
690.848	0.0164215
690.926	0.0165657
691.004	0.0165831
691.082	0.0166890
691.160	0.0165917
691.238	0.0165935
691.317	0.0166463
691.395	0.0165514
691.473	0.0165715
691.551	0.0164874
691.629	0.0166317
691.707	0.0166010
691.785	0.0166379
691.863	0.0165332
691.942	0.0166297
692.020	0.0166737
692.098	0.0165106
692.176	0.0164944
692.254	0.0166318
692.332	0.0167023
692.410	0.0164737
692.488	0.0165628
692.567	0.0166160
692.645	0.0165813
692.723	0.0164692
692.801	0.0165536
692.879	0.0165427
692.957	0.0165543
693.035	0.0166095
693.113	0.0163503
693.192	0.0165271
693.270	0.0166024
693.348	0.0166110
693.426	0.0165600
693.504	0.0165319
693.582	0.0164272
693.660	0.0164339
693.738	0.0164324
693.817	0.0164753
693.895	0.0164751
693.973	0.0164803
694.051	0.0165617
694.129	0.0163296
694.207	0.0164722
694.285	0.0163920
694.363	0.0163797
694.442	0.0165916
694.520	0.0165118
694.598	0.0164590
694.676	0.0163167
694.754	0.0164571
694.832	0.0165371
694.910	0.0165839
694.988	0.0165051
695.067	0.0164865
695.145	0.0163971
695.223	0.0165319
695.301	0.0165017
695.379	0.0165072
695.457	0.0165299
695.535	0.0164433
695.613	0.0166171
695.692	0.0165446
695.770	0.0165115
695.848	0.0164577
695.926	0.0164438
696.004	0.0164587
696.082	0.0163414
696.160	0.0164083
696.238	0.0165240
696.317	0.0164280
696.395	0.0165133
696.473	0.0164774
696.551	0.0163184
696.629	0.0164169
696.707	0.0163618
696.785	0.0163455
696.863	0.0165491
696.942	0.0163928
697.020	0.0162962
697.098	0.0162419
697.176	0.0164494
697.254	0.0164567
697.332	0.0164841
697.410	0.0164400
697.488	0.0164456
697.567	0.0165047
697.645	0.0164712
697.723	0.0164851
697.801	0.0164030
697.879	0.0164629
697.957	0.0163814
698.035	0.0164798
698.113	0.0165313
698.192	0.0163554
698.270	0.0162781
698.348	0.0165370
698.426	0.0164445
698.504	0.0162743
698.582	0.0164834
698.660	0.0163892
698.738	0.0164223
698.817	0.0164767
698.895	0.0164955
698.973	0.0164774
699.051	0.0164075
699.129	0.0162542
699.207	0.0164471
699.285	0.0163840
699.363	0.0164129
699.442	0.0163335
699.520	0.0163422
699.598	0.0164739
699.676	0.0164458
699.754	0.0164375
699.832	0.0163458
699.910	0.0163406
699.988	0.0164113
700.067	0.0164230
700.145	0.0164548
700.223	0.0162904
700.301	0.0164565
700.379	0.0165763
700.457	0.0163828
700.535	0.0164198
700.613	0.0163902
700.692	0.0162421
700.770	0.0163546
700.848	0.0164632
700.926	0.0164531
701.004	0.0164174
701.082	0.0162418
701.160	0.0164728
701.238	0.0165130
701.317	0.0164671
701.395	0.0163695
701.473	0.0165131
701.551	0.0165038
701.629	0.0163893
701.707	0.0164037
701.785	0.0164666
701.863	0.0164623
701.942	0.0164017
702.020	0.0165205
702.098	0.0164645
702.176	0.0163789
702.254	0.0164008
702.332	0.0164644
702.410	0.0164469
702.488	0.0165149
702.567	0.0164492
702.645	0.0163941
702.723	0.0165041
702.801	0.0164763
702.879	0.0165027
702.957	0.0165015
703.035	0.0165825
703.113	0.0164396
703.192	0.0165324
703.270	0.0165131
703.348	0.0164135
703.426	0.0163771
703.504	0.0165231
703.582	0.0163862
703.660	0.0165199
703.738	0.0164938
703.817	0.0164837
703.895	0.0164072
703.973	0.0165573
704.051	0.0165404
704.129	0.0165246
704.207	0.0164149
704.285	0.0164790
704.363	0.0164851
704.442	0.0163822
704.520	0.0165324
704.598	0.0164682
704.676	0.0164864
704.754	0.0165079
704.832	0.0165592
704.910	0.0164742
704.988	0.0164057
705.067	0.0165202
705.145	0.0164175
705.223	0.0164668
705.301	0.0165244
705.379	0.0164732
705.457	0.0163573
705.535	0.0163622
705.613	0.0164391
705.692	0.0164353
705.770	0.0164391
705.848	0.0165618
705.926	0.0167002
706.004	0.0165787
706.082	0.0164321
706.160	0.0164241
706.238	0.0165587
706.317	0.0165778
706.395	0.0164836
706.473	0.0163898
706.551	0.0164796
706.629	0.0164558
706.707	0.0164465
706.785	0.0164673
706.863	0.0163911
706.942	0.0165213
707.020	0.0165837
707.098	0.0164385
707.176	0.0164557
707.254	0.0165561
707.332	0.0166556
707.410	0.0165379
707.488	0.0163617
707.567	0.0165264
707.645	0.0164230
707.723	0.0165587
707.801	0.0165206
707.879	0.0165154
707.957	0.0165457
708.035	0.0166501
708.113	0.0165228
708.192	0.0165694
708.270	0.0165833
708.348	0.0165186
708.426	0.0164913
708.504	0.0167207
708.582	0.0165643
708.660	0.0166069
708.738	0.0165805
708.817	0.0166304
708.895	0.0166292
708.973	0.0166218
709.051	0.0165437
709.129	0.0165272
709.207	0.0166886
709.285	0.0166612
709.363	0.0166480
709.442	0.0165446
709.520	0.0166438
709.598	0.0166725
709.676	0.0166167
709.754	0.0166374
709.832	0.0167345
709.910	0.0166308
709.988	0.0164744
710.067	0.0164997
710.145	0.0165908
710.223	0.0166178
710.301	0.0164021
710.379	0.0165287
710.457	0.0166596
710.535	0.0166528
710.613	0.0165903
710.692	0.0166921
710.770	0.0167001
710.848	0.0166214
710.926	0.0166206
711.004	0.0166621
711.082	0.0165467
711.160	0.0166646
711.238	0.0166163
711.317	0.0164767
711.395	0.0165356
711.473	0.0166535
711.551	0.0165575
711.629	0.0166515
711.707	0.0166562
711.785	0.0165820
711.863	0.0166447
711.942	0.0165209
712.020	0.0165147
712.098	0.0166931
712.176	0.0166238
712.254	0.0165903
712.332	0.0163686
712.410	0.0165727
712.488	0.0166485
712.567	0.0166015
712.645	0.0166357
712.723	0.0166768
712.801	0.0165551
712.879	0.0166496
712.957	0.0164891
713.035	0.0165892
713.113	0.0165654
713.192	0.0165272
713.270	0.0164835
713.348	0.0165981
713.426	0.0165903
713.504	0.0164354
713.582	0.0165105
713.660	0.0165127
713.738	0.0165479
713.817	0.0165189
713.895	0.0165077
713.973	0.0167580
714.051	0.0164896
714.129	0.0165981
714.207	0.0167149
714.285	0.0164892
714.363	0.0164548
714.442	0.0164188
714.520	0.0166620
714.598	0.0165813
714.676	0.0162921
714.754	0.0164977
714.832	0.0162920
714.910	0.0164471
714.988	0.0165702
715.067	0.0165067
715.145	0.0165217
715.223	0.0164750
715.301	0.0165844
715.379	0.0166167
715.457	0.0164701
715.535	0.0164219
715.613	0.0165456
715.692	0.0163937
715.770	0.0163706
715.848	0.0165157
715.926	0.0162534
716.004	0.0164159
716.082	0.0165725
716.160	0.0163825
716.238	0.0164165
716.317	0.0165382
716.395	0.0164387
716.473	0.0163955
716.551	0.0163704
716.629	0.0165504
716.707	0.0164858
716.785	0.0163592
716.863	0.0164658
716.942	0.0164570
717.020	0.0164145
717.098	0.0165109
717.176	0.0163335
717.254	0.0163226
717.332	0.0165060
717.410	0.0164108
717.488	0.0162259
717.567	0.0163887
717.645	0.0164404
717.723	0.0162906
717.801	0.0164519
717.879	0.0164549
717.957	0.0163650
718.035	0.0163776
718.113	0.0164684
718.192	0.0165063
718.270	0.0164471
718.348	0.0163238
718.426	0.0163029
718.504	0.0163821
718.582	0.0163457
718.660	0.0163047
718.738	0.0162563
718.817	0.0165199
718.895	0.0162289
718.973	0.0163434
719.051	0.0165607
719.129	0.0164345
719.207	0.0163061
719.285	0.0164713
719.363	0.0163701
719.442	0.0162777
719.520	0.0163280
719.598	0.0164283
719.676	0.0164087
719.754	0.0165054
719.832	0.0163350
719.910	0.0162928
719.988	0.0164705
720.067	0.0165288
720.145	0.0163938
720.223	0.0163458
720.301	0.0164868
720.379	0.0164886
720.457	0.0165282
720.535	0.0164293
720.613	0.0163470
720.692	0.0163622
720.770	0.0164854
720.848	0.0165639
720.926	0.0164594
721.004	0.0164677
721.082	0.0163546
721.160	0.0165134
721.238	0.0163425
721.317	0.0164247
721.395	0.0164227
721.473	0.0164281
721.551	0.0164657
721.629	0.0164472
721.707	0.0164713
721.785	0.0164664
721.863	0.0164862
721.942	0.0165545
722.020	0.0163562
722.098	0.0162248
722.176	0.0164075
722.254	0.0165116
722.332	0.0163880
722.410	0.0164269
722.488	0.0165112
722.567	0.0166268
722.645	0.0163367
722.723	0.0163937
722.801	0.0165224
722.879	0.0164840
722.957	0.0165401
723.035	0.0165107
723.113	0.0165688
723.192	0.0164824
723.270	0.0163602
723.348	0.0162856
723.426	0.0164053
723.504	0.0164786
723.582	0.0165477
723.660	0.0164698
723.738	0.0164709
723.817	0.0164691
723.895	0.0163736
723.973	0.0165036
724.051	0.0163918
724.129	0.0163874
724.207	0.0166070
724.285	0.0164599
724.363	0.0165155
724.442	0.0164477
724.520	0.0165350
724.598	0.0165273
724.676	0.0165468
724.754	0.0166056
724.832	0.0165267
724.910	0.0164980
724.988	0.0165292
725.067	0.0165964
725.145	0.0165019
725.223	0.0165659
725.301	0.0165664
725.379	0.0163841
725.457	0.0164982
725.535	0.0164837
725.613	0.0164466
725.692	0.0165289
725.770	0.0165651
725.848	0.0165370
725.926	0.0164848
726.004	0.0165093
726.082	0.0166032
726.160	0.0165356
726.238	0.0164886
726.317	0.0164376
726.395	0.0165441
726.473	0.0165851
726.551	0.0165894
726.629	0.0164974
726.707	0.0165073
726.785	0.0165078
726.863	0.0164303
726.942	0.0165328
727.020	0.0165583
727.098	0.0166075
727.176	0.0165602
727.254	0.0165031
727.332	0.0165740
727.410	0.0166998
727.488	0.0166193
727.567	0.0164936
727.645	0.0165384
727.723	0.0165531
727.801	0.0165334
727.879	0.0166323
727.957	0.0166270
728.035	0.0166562
728.113	0.0165617
728.192	0.0165924
728.270	0.0166451
728.348	0.0165846
728.426	0.0165725
728.504	0.0164857
728.582	0.0164980
728.660	0.0165427
728.738	0.0165319
728.817	0.0163307
728.895	0.0164496
728.973	0.0165491
729.051	0.0164890
729.129	0.0166673
729.207	0.0164533
729.285	0.0164117
729.363	0.0165337
729.442	0.0165575
729.520	0.0165194
729.598	0.0165465
729.676	0.0164931
729.754	0.0165312
729.832	0.0163718
729.910	0.0165771
729.988	0.0165474
730.067	0.0166558
730.145	0.0165087
730.223	0.0164608
730.301	0.0165319
730.379	0.0165381
730.457	0.0166264
730.535	0.0164622
730.613	0.0164948
730.692	0.0164868
730.770	0.0164870
730.848	0.0166246
730.926	0.0165372
731.004	0.0166435
731.082	0.0166385
731.160	0.0166046
731.238	0.0165205
731.317	0.0165855
731.395	0.0166174
731.473	0.0165262
731.551	0.0164748
731.629	0.0166046
731.707	0.0166573
731.785	0.0165244
731.863	0.0164436
731.942	0.0164767
732.020	0.0166789
732.098	0.0165926
732.176	0.0165295
732.254	0.0166792
732.332	0.0165003
732.410	0.0166164
732.488	0.0164986
732.567	0.0165762
732.645	0.0166529
732.723	0.0166422
732.801	0.0165344
732.879	0.0166604
732.957	0.0165732
733.035	0.0165115
733.113	0.0165501
733.192	0.0165364
733.270	0.0163822
733.348	0.0166839
733.426	0.0165697
733.504	0.0163802
733.582	0.0166515
733.660	0.0166885
733.738	0.0166132
733.817	0.0164246
733.895	0.0165585
733.973	0.0165762
734.051	0.0165732
734.129	0.0166432
734.207	0.0166693
734.285	0.0165814
734.363	0.0165446
734.442	0.0165424
734.520	0.0166227
734.598	0.0166128
734.676	0.0165141
734.754	0.0165594
734.832	0.0166236
734.910	0.0164483
734.988	0.0164532
735.067	0.0163545
735.145	0.0164827
735.223	0.0164075
735.301	0.0162220
735.379	0.0162424
735.457	0.0162734
735.535	0.0161702
735.613	0.0162315
735.692	0.0162687
735.770	0.0162903
735.848	0.0163915
735.926	0.0165854
736.004	0.0166907
736.082	0.0168449
736.160	0.0169063
736.238	0.0170025
736.317	0.0171034
736.395	0.0172437
736.473	0.0171942
736.551	0.0171192
736.629	0.0169873
736.707	0.0168937
736.785	0.0167570
736.863	0.0165849
736.942	0.0162907
737.020	0.0162218
737.098	0.0159161
737.176	0.0155897
737.254	0.0154745
737.332	0.0153610
737.410	0.0152328
737.488	0.0151880
737.567	0.0151778
737.645	0.0156448
737.723	0.0159097
737.801	0.0162306
737.879	0.0166605
737.957	0.0171117
738.035	0.0176443
738.113	0.0179926
738.192	0.0181283
738.270	0.0182745
738.348	0.0181054
738.426	0.0178518
738.504	0.0174803
738.582	0.0173307
738.660	0.0168140
738.738	0.0164127
738.817	0.0164252
738.895	0.0161715
738.973	0.0158878
739.051	0.0160016
739.129	0.0160460
739.207	0.0158976
739.285	0.0157378
739.363	0.0157941
739.442	0.0157457
739.520	0.0156808
739.598	0.0155643
739.676	0.0155476
739.754	0.0154272
739.832	0.0154134
739.910	0.0153830
739.988	0.0155962
740.067	0.0158890
740.145	0.0164440
740.223	0.0168612
740.301	0.0171989
740.379	0.0176818
740.457	0.0179621
740.535	0.0182964
740.613	0.0183374
740.692	0.0182039
740.770	0.0180025
740.848	0.0178221
740.926	0.0176101
741.004	0.0171420
741.082	0.0168990
741.160	0.0165810
741.238	0.0162410
741.317	0.0159594
741.395	0.0156167
741.473	0.0154515
741.551	0.0152646
741.629	0.0151167
741.707	0.0149971
741.785	0.0148888
741.863	0.0150297
741.942	0.0150085
742.020	0.0150377
742.098	0.0152683
742.176	0.0155344
742.254	0.0160091
742.332	0.0163406
742.410	0.0166248
742.488	0.0170138
742.567	0.0175150
742.645	0.0177985
742.723	0.0181275
742.801	0.0182420
742.879	0.0183506
742.957	0.0183694
743.035	0.0183544
743.113	0.0179985
743.192	0.0177806
743.270	0.0174307
743.348	0.0169321
743.426	0.0165913
743.504	0.0161842
743.582	0.0157345
743.660	0.0153599
743.738	0.0151729
743.817	0.0150264
743.895	0.0148859
743.973	0.0151601
744.051	0.0150510
744.129	0.0152419
744.207	0.0154975
744.285	0.0155132
744.363	0.0158593
744.442	0.0159587
744.520	0.0162871
744.598	0.0162668
744.676	0.0165294
744.754	0.0164861
744.832	0.0168062
744.910	0.0170330
744.988	0.0168618
745.067	0.0168584
745.145	0.0170795
745.223	0.0171740
745.301	0.0171055
745.379	0.0169642
745.457	0.0172250
745.535	0.0170056
745.613	0.0169583
745.692	0.0168555
745.770	0.0168433
745.848	0.0168582
745.926	0.0166996
746.004	0.0164426
746.082	0.0163393
746.160	0.0161882
746.238	0.0161842
746.317	0.0161077
746.395	0.0158808
746.473	0.0159429
746.551	0.0160092
746.629	0.0159059
746.707	0.0158647
746.785	0.0160036
746.863	0.0160507
746.942	0.0161316
747.020	0.0160498
747.098	0.0161484
747.176	0.0161285
747.254	0.0161902
747.332	0.0161497
747.410	0.0161896
747.488	0.0162348
747.567	0.0162835
747.645	0.0165080
747.723	0.0164972
747.801	0.0166723
747.879	0.0167959
747.957	0.0167945
748.035	0.0167819
748.113	0.0169056
748.192	0.0170943
748.270	0.0168701
748.348	0.0171465
748.426	0.0170709
748.504	0.0171403
748.582	0.0170342
748.660	0.0171170
748.738	0.0169556
748.817	0.0168487
748.895	0.0167108
748.973	0.0166555
749.051	0.0164772
749.129	0.0163157
749.207	0.0162612
749.285	0.0161000
749.363	0.0159800
749.442	0.0159248
749.520	0.0157516
749.598	0.0156963
749.676	0.0157922
749.754	0.0158276
749.832	0.0158880
749.910	0.0160176
749.988	0.0160555
750.067	0.0161691
750.145	0.0162251
750.223	0.0162626
750.301	0.0165266
750.379	0.0166680
750.457	0.0167197
750.535	0.0168579
750.613	0.0169339
750.692	0.0170432
750.770	0.0170104
750.848	0.0170391
750.926	0.0172641
751.004	0.0172140
751.082	0.0171135
751.160	0.0171316
751.238	0.0170120
751.317	0.0169236
751.395	0.0168556
751.473	0.0166830
751.551	0.0165251
751.629	0.0163424
751.707	0.0162191
751.785	0.0161172
751.863	0.0161815
751.942	0.0159915
752.020	0.0158965
752.098	0.0157876
752.176	0.0157492
752.254	0.0158521
752.332	0.0159949
752.410	0.0162200
752.488	0.0163333
752.567	0.0163440
752.645	0.0166423
752.723	0.0166924
752.801	0.0169634
752.879	0.0168648
752.957	0.0169941
753.035	0.0170633
753.113	0.0170787
753.192	0.0169968
753.270	0.0168372
753.348	0.0168423
753.426	0.0168355
753.504	0.0168587
753.582	0.0167989
753.660	0.0166085
753.738	0.0165047
753.817	0.0165054
753.895	0.0163613
753.973	0.0163116
754.051	0.0164609
754.129	0.0163942
754.207	0.0161867
754.285	0.0163822
754.363	0.0164035
754.442	0.0165311
754.520	0.0165969
754.598	0.0165482
754.676	0.0166618
754.754	0.0168472
754.832	0.0167755
754.910	0.0169441
754.988	0.0169370
755.067	0.0167463
755.145	0.0167356
755.223	0.0166502
755.301	0.0166455
755.379	0.0165047
755.457	0.0165134
755.535	0.0164154
755.613	0.0163364
755.692	0.0164070
755.770	0.0164358
755.848	0.0163403
755.926	0.0163687
756.004	0.0164123
756.082	0.0165006
756.160	0.0165840
756.238	0.0165769
756.317	0.0167456
756.395	0.0166792
756.473	0.0167799
756.551	0.0167889
756.629	0.0168471
756.707	0.0168624
756.785	0.0169064
756.863	0.0168846
756.942	0.0169035
757.020	0.0169460
757.098	0.0168481
757.176	0.0168906
757.254	0.0166379
757.332	0.0166483
757.410	0.0163821
757.488	0.0164301
757.567	0.0165355
757.645	0.0163423
757.723	0.0163053
757.801	0.0162545
757.879	0.0162415
757.957	0.0161925
758.035	0.0162251
758.113	0.0163308
758.192	0.0163762
758.270	0.0164012
758.348	0.0165150
758.426	0.0164767
758.504	0.0164425
758.582	0.0165074
758.660	0.0167176
758.738	0.0166384
758.817	0.0166840
758.895	0.0167644
758.973	0.0168243
759.051	0.0166944
759.129	0.0166500
759.207	0.0166046
759.285	0.0164998
759.363	0.0164224
759.442	0.0164536
759.520	0.0165465
759.598	0.0164452
759.676	0.0164821
759.754	0.0164597
759.832	0.0165968
759.910	0.0165784
759.988	0.0165974
760.067	0.0167328
760.145	0.0165046
760.223	0.0164905
760.301	0.0163403
760.379	0.0162725
760.457	0.0164095
760.535	0.0163111
760.613	0.0164257
760.692	0.0164090
760.770	0.0165747
760.848	0.0165764
760.926	0.0164390
761.004	0.0164606
761.082	0.0163985
761.160	0.0165372
761.238	0.0164795
761.317	0.0165051
761.395	0.0164848
761.473	0.0164889
761.551	0.0165358
761.629	0.0165925
761.707	0.0166608
761.785	0.0166892
761.863	0.0166827
761.942	0.0166730
762.020	0.0166827
762.098	0.0165992
762.176	0.0165030
762.254	0.0163973
762.332	0.0163046
762.410	0.0160747
762.488	0.0160828
762.567	0.0161470
762.645	0.0161996
762.723	0.0161382
762.801	0.0161516
762.879	0.0160642
762.957	0.0161335
763.035	0.0162730
763.113	0.0162735
763.192	0.0161811
763.270	0.0162714
763.348	0.0163728
763.426	0.0165121
763.504	0.0165829
763.582	0.0167385
763.660	0.0169711
763.738	0.0171371
763.817	0.0170637
763.895	0.0171537
763.973	0.0171390
764.051	0.0172216
764.129	0.0169735
764.207	0.0169511
764.285	0.0168950
764.363	0.0167150
764.442	0.0165897
764.520	0.0165025
764.598	0.0163534
764.676	0.0163511
764.754	0.0163060
764.832	0.0162762
764.910	0.0161757
764.988	0.0162068
765.067	0.0161480
765.145	0.0161469
765.223	0.0161318
765.301	0.0160224
765.379	0.0160811
765.457	0.0160589
765.535	0.0161505
765.613	0.0159541
765.692	0.0161134
765.770	0.0160178
765.848	0.0161425
765.926	0.0161333
766.004	0.0162186
766.082	0.0162901
766.160	0.0161914
766.238	0.0163895
766.317	0.0164056
766.395	0.0164296
766.473	0.0163788
766.551	0.0164497
766.629	0.0165430
766.707	0.0166698
766.785	0.0166479
766.863	0.0167075
766.942	0.0167249
767.020	0.0167445
767.098	0.0168502
767.176	0.0167547
767.254	0.0169910
767.332	0.0169821
767.410	0.0169463
767.488	0.0169652
767.567	0.0168098
767.645	0.0168147
767.723	0.0168456
767.801	0.0167161
767.879	0.0165498
767.957	0.0163371
768.035	0.0161427
768.113	0.0160195
768.192	0.0160766
768.270	0.0158939
768.348	0.0158801
768.426	0.0160715
768.504	0.0160132
768.582	0.0159641
768.660	0.0162012
768.738	0.0161926
768.817	0.0162720
768.895	0.0165378
768.973	0.0167141
769.051	0.0168781
769.129	0.0168956
769.207	0.0168360
769.285	0.0170092
769.363	0.0170313
769.442	0.0170293
769.520	0.0169935
769.598	0.0167906
769.676	0.0167310
769.754	0.0165507
769.832	0.0163062
769.910	0.0161024
769.988	0.0160112
770.067	0.0158152
770.145	0.0157866
770.223	0.0156463
770.301	0.0156451
770.379	0.0157872
770.457	0.0158076
770.535	0.0158804
770.613	0.0159516
770.692	0.0162295
770.770	0.0161847
770.848	0.0164421
770.926	0.0164924
771.004	0.0166203
771.082	0.0166044
771.160	0.0168220
771.238	0.0168504
771.317	0.0168759
771.395	0.0168018
771.473	0.0168476
771.551	0.0169308
771.629	0.0169155
771.707	0.0171181
771.785	0.0170541
771.863	0.0171386
771.942	0.0171944
772.020	0.0172364
772.098	0.0172998
772.176	0.0175548
772.254	0.0175468
772.332	0.0175668
772.410	0.0176544
772.488	0.0175510
772.567	0.0173306
772.645	0.0172903
772.723	0.0171660
772.801	0.0168562
772.879	0.0167382
772.957	0.0165547
773.035	0.0163950
773.113	0.0161227
773.192	0.0157434
773.270	0.0156097
773.348	0.0154944
773.426	0.0152422
773.504	0.0149612
773.582	0.0149991
773.660	0.0147878
773.738	0.0148005
773.817	0.0145768
773.895	0.0148031
773.973	0.0147083
774.051	0.0147256
774.129	0.0150704
774.207	0.0151392
774.285	0.0152210
774.363	0.0153626
774.442	0.0155558
774.520	0.0157257
774.598	0.0159620
774.676	0.0162984
774.754	0.0163960
774.832	0.0166897
774.910	0.0170310
774.988	0.0173218
775.067	0.0176888
775.145	0.0178018
775.223	0.0180827
775.301	0.0185153
775.379	0.0187642
775.457	0.0187711
775.535	0.0189197
775.613	0.0189085
775.692	0.0187231
775.770	0.0187109
775.848	0.0185672
775.926	0.0183331
776.004	0.0180740
776.082	0.0177379
776.160	0.0174770
776.238	0.0170926
776.317	0.0168259
776.395	0.0167190
776.473	0.0163031
776.551	0.0162761
776.629	0.0159982
776.707	0.0156920
776.785	0.0154993
776.863	0.0154615
776.942	0.0153768
777.020	0.0152817
777.098	0.0151051
777.176	0.0149694
777.254	0.0150558
777.332	0.0150397
777.410	0.0150489
777.488	0.0148646
777.567	0.0151426
777.645	0.0153083
777.723	0.0154626
777.801	0.0154581
777.879	0.0157056
777.957	0.0159524
778.035	0.0160867
778.113	0.0162516
778.192	0.0164153
778.270	0.0163631
778.348	0.0165686
778.426	0.0166374
778.504	0.0165381
778.582	0.0164853
778.660	0.0163822
778.738	0.0163449
778.817	0.0161161
778.895	0.0159364
778.973	0.0159495
779.051	0.0158469
779.129	0.0156506
779.207	0.0156601
779.285	0.0157592
779.363	0.0159769
779.442	0.0160119
779.520	0.0164406
779.598	0.0166348
779.676	0.0169920
779.754	0.0172566
779.832	0.0175134
779.910	0.0176163
779.988	0.0179113
780.067	0.0181044
780.145	0.0183882
780.223	0.0184688
780.301	0.0185941
780.379	0.0186473
780.457	0.0185867
780.535	0.0185825
780.613	0.0185575
780.692	0.0184186
780.770	0.0181999
780.848	0.0180602
780.926	0.0178108
781.004	0.0175275
781.082	0.0176041
781.160	0.0172593
781.238	0.0169776
781.317	0.0166257
781.395	0.0164328
781.473	0.0162299
781.551	0.0157683
781.629	0.0154395
781.707	0.0153748
781.785	0.0150304
781.863	0.0148196
781.942	0.0147899
782.020	0.0146603
782.098	0.0146407
782.176	0.0145971
782.254	0.0146843
782.332	0.0148093
782.410	0.0149940
782.488	0.0151339
782.567	0.0151933
782.645	0.0154754
782.723	0.0157555
782.801	0.0157382
782.879	0.0158807
782.957	0.0160254
783.035	0.0162917
783.113	0.0164383
783.192	0.0166996
783.270	0.0167751
783.348	0.0167676
783.426	0.0166675
783.504	0.0166640
783.582	0.0164963
783.660	0.0164365
783.738	0.0163686
783.817	0.0162395
783.895	0.0161062
783.973	0.0160728
784.051	0.0159396
784.129	0.0159471
784.207	0.0159764
784.285	0.0161455
784.363	0.0162256
784.442	0.0164954
784.520	0.0165913
784.598	0.0170023
784.676	0.0175501
784.754	0.0177480
784.832	0.0178829
784.910	0.0183985
784.988	0.0187344
785.067	0.0190046
785.145	0.0191154
785.223	0.0194566
785.301	0.0196776
785.379	0.0197000
785.457	0.0197543
785.535	0.0197050
785.613	0.0193594
785.692	0.0191936
785.770	0.0188609
785.848	0.0183924
785.926	0.0180173
786.004	0.0174385
786.082	0.0169054
786.160	0.0165354
786.238	0.0158713
786.317	0.0152446
786.395	0.0146623
786.473	0.0142705
786.551	0.0138484
786.629	0.0135741
786.707	0.0134219
786.785	0.0131620
786.863	0.0131995
786.942	0.0132333
787.020	0.0134908
787.098	0.0137181
787.176	0.0139481
787.254	0.0143222
787.332	0.0148357
787.410	0.0153145
787.488	0.0156647
787.567	0.0160960
787.645	0.0164854
787.723	0.0166621
787.801	0.0169441
787.879	0.0170196
787.957	0.0171942
788.035	0.0173464
788.113	0.0174124
788.192	0.0174059
788.270	0.0171990
788.348	0.0173620
788.426	0.0173175
788.504	0.0172437
788.582	0.0171783
788.660	0.0171070
788.738	0.0172321
788.817	0.0171465
788.895	0.0170023
788.973	0.0170656
789.051	0.0170787
789.129	0.0170222
789.207	0.0167480
789.285	0.0167073
789.363	0.0165411
789.442	0.0163479
789.520	0.0162732
789.598	0.0161665
789.676	0.0160110
789.754	0.0160407
789.832	0.0160186
789.910	0.0161992
789.988	0.0162663
790.067	0.0163352
790.145	0.0166801
790.223	0.0170306
790.301	0.0173547
790.379	0.0177368
790.457	0.0181327
790.535	0.0183701
790.613	0.0188829
790.692	0.0190578
790.770	0.0193316
790.848	0.0193424
790.926	0.0191430
791.004	0.0187981
791.082	0.0186754
791.160	0.0181374
791.238	0.0176707
791.317	0.0170901
791.395	0.0165466
791.473	0.0160371
791.551	0.0155495
791.629	0.0149973
791.707	0.0144942
791.785	0.0142040
791.863	0.0140771
791.942	0.0139165
792.020	0.0137174
792.098	0.0138474
792.176	0.0138905
792.254	0.0140336
792.332	0.0142587
792.410	0.0145788
792.488	0.0147797
792.567	0.0149843
792.645	0.0153575
792.723	0.0156098
792.801	0.0159765
792.879	0.0161864
792.957	0.0163089
793.035	0.0163506
793.113	0.0164536
793.192	0.0165070
793.270	0.0163084
793.348	0.0164925
793.426	0.0164115
793.504	0.0163189
793.582	0.0163133
793.660	0.0162807
793.738	0.0164703
793.817	0.0166409
793.895	0.0168208
793.973	0.0167458
794.051	0.0169356
794.129	0.0172949
794.207	0.0174633
794.285	0.0174913
794.363	0.0175404
794.442	0.0177303
794.520	0.0177303
794.598	0.0176865
794.676	0.0176556
794.754	0.0173150
794.832	0.0172091
794.910	0.0169163
794.988	0.0167892
795.067	0.0165843
795.145	0.0164227
795.223	0.0164334
795.301	0.0162991
795.379	0.0163763
795.457	0.0163493
795.535	0.0165019
795.613	0.0166241
795.692	0.0169517
795.770	0.0170535
795.848	0.0172787
795.926	0.0175763
796.004	0.0180450
796.082	0.0182456
796.160	0.0184406
796.238	0.0186522
796.317	0.0185287
796.395	0.0185066
796.473	0.0183577
796.551	0.0180941
796.629	0.0178150
796.707	0.0175650
796.785	0.0170052
796.863	0.0163770
796.942	0.0159882
797.020	0.0156047
797.098	0.0150195
797.176	0.0148717
797.254	0.0145632
797.332	0.0143273
797.410	0.0142984
797.488	0.0142531
797.567	0.0142515
797.645	0.0143932
797.723	0.0145840
797.801	0.0147377
797.879	0.0149905
797.957	0.0153316
798.035	0.0155267
798.113	0.0156864
798.192	0.0159585
798.270	0.0161686
798.348	0.0162557
798.426	0.0163644
798.504	0.0165521
798.582	0.0164853
798.660	0.0164317
798.738	0.0164690
798.817	0.0163491
798.895	0.0162881
798.973	0.0162794
799.051	0.0161259
799.129	0.0160836
799.207	0.0161817
799.285	0.0161298
799.363	0.0160693
799.442	0.0163240
799.520	0.0163351
799.598	0.0164726
799.676	0.0164997
799.754	0.0167919
799.832	0.0169582
799.910	0.0171028
799.988	0.0172004
800.067	0.0172573
800.145	0.0174001
800.223	0.0172790
800.301	0.0171923
800.379	0.0169940
800.457	0.0168008
800.535	0.0165736
800.613	0.0164184
800.692	0.0162549
800.770	0.0160900
800.848	0.0160092
800.926	0.0160780
801.004	0.0160203
801.082	0.0161852
801.160	0.0162798
801.238	0.0166177
801.317	0.0168505
801.395	0.0172970
801.473	0.0175996
801.551	0.0179974
801.629	0.0185365
801.707	0.0189331
801.785	0.0192212
801.863	0.0194310
801.942	0.0194082
802.020	0.0194129
802.098	0.0195432
802.176	0.0191915
802.254	0.0187567
802.332	0.0182121
802.410	0.0177839
802.488	0.0171148
802.567	0.0165871
802.645	0.0159489
802.723	0.0153508
802.801	0.0148319
802.879	0.0142404
802.957	0.0139583
803.035	0.0136815
803.113	0.0133008
803.192	0.0132729
803.270	0.0132209
803.348	0.0132886
803.426	0.0132977
803.504	0.0136508
803.582	0.0138602
803.660	0.0140011
803.738	0.0143615
803.817	0.0147636
803.895	0.0150517
803.973	0.0153181
804.051	0.0154942
804.129	0.0159648
804.207	0.0160136
804.285	0.0161790
804.363	0.0163743
804.442	0.0164138
804.520	0.0165886
804.598	0.0166500
804.676	0.0167737
804.754	0.0170113
804.832	0.0169582
804.910	0.0170695
804.988	0.0171735
805.067	0.0172942
805.145	0.0173698
805.223	0.0175022
805.301	0.0176024
805.379	0.0177656
805.457	0.0179329
805.535	0.0177709
805.613	0.0179626
805.692	0.0180566
805.770	0.0181851
805.848	0.0179831
805.926	0.0177791
806.004	0.0178025
806.082	0.0176685
806.160	0.0173816
806.238	0.0173245
806.317	0.0168858
806.395	0.0166892
806.473	0.0165556
806.551	0.0164091
806.629	0.0163854
806.707	0.0162478
806.785	0.0161919
806.863	0.0163229
806.942	0.0164577
807.020	0.0165939
807.098	0.0169282
807.176	0.0171040
807.254	0.0173387
807.332	0.0178439
807.410	0.0180255
807.488	0.0182790
807.567	0.0183356
807.645	0.0184632
807.723	0.0185324
807.801	0.0184103
807.879	0.0182978
807.957	0.0179475
808.035	0.0176176
808.113	0.0172330
808.192	0.0168205
808.270	0.0162141
808.348	0.0156229
808.426	0.0152695
808.504	0.0148234
808.582	0.0142747
808.660	0.0139824
808.738	0.0137484
808.817	0.0135346
808.895	0.0133850
808.973	0.0133611
809.051	0.0133708
809.129	0.0135170
809.207	0.0137773
809.285	0.0140985
809.363	0.0143873
809.442	0.0148872
809.520	0.0151483
809.598	0.0157214
809.676	0.0160418
809.754	0.0161246
809.832	0.0165446
809.910	0.0167651
809.988	0.0170448
810.067	0.0171991
810.145	0.0173917
810.223	0.0174098
810.301	0.0173759
810.379	0.0175343
810.457	0.0176031
810.535	0.0176105
810.613	0.0176005
810.692	0.0176383
810.770	0.0174895
810.848	0.0174835
810.926	0.0174805
811.004	0.0173927
811.082	0.0172876
811.160	0.0172606
811.238	0.0172897
811.317	0.0173138
811.395	0.0173170
811.473	0.0172573
811.551	0.0173432
811.629	0.0172903
811.707	0.0171703
811.785	0.0171129
811.863	0.0170556
811.942	0.0169123
812.020	0.0167300
812.098	0.0167499
812.176	0.0166678
812.254	0.0165379
812.332	0.0164349
812.410	0.0166229
812.488	0.0164815
812.567	0.0163958
812.645	0.0165212
812.723	0.0165461
812.801	0.0168863
812.879	0.0170732
812.957	0.0171425
813.035	0.0174260
813.113	0.0175846
813.192	0.0178195
813.270	0.0180695
813.348	0.0180416
813.426	0.0180878
813.504	0.0180006
813.582	0.0178660
813.660	0.0176048
813.738	0.0173889
813.817	0.0170536
813.895	0.0166405
813.973	0.0162874
814.051	0.0159003
814.129	0.0153920
814.207	0.0150871
814.285	0.0147852
814.363	0.0144070
814.442	0.0140250
814.520	0.0139967
814.598	0.0138968
814.676	0.0138096
814.754	0.0139330
814.832	0.0140464
814.910	0.0141553
814.988	0.0144294
815.067	0.0147737
815.145	0.0150341
815.223	0.0154039
815.301	0.0155477
815.379	0.0158782
815.457	0.0162270
815.535	0.0163401
815.613	0.0166426
815.692	0.0167456
815.770	0.0168283
815.848	0.0169055
815.926	0.0169945
816.004	0.0170464
816.082	0.0171898
816.160	0.0172426
816.238	0.0173026
816.317	0.0172506
816.395	0.0174009
816.473	0.0172871
816.551	0.0175359
816.629	0.0174784
816.707	0.0173547
816.785	0.0174415
816.863	0.0174047
816.942	0.0175142
817.020	0.0174795
817.098	0.0173535
817.176	0.0173829
817.254	0.0172503
817.332	0.0171877
817.410	0.0171062
817.488	0.0171732
817.567	0.0171783
817.645	0.0168895
817.723	0.0169213
817.801	0.0169427
817.879	0.0167921
817.957	0.0167048
818.035	0.0167979
818.113	0.0167794
818.192	0.0166241
818.270	0.0167456
818.348	0.0168278
818.426	0.0167330
818.504	0.0168427
818.582	0.0168697
818.660	0.0169881
818.738	0.0171356
818.817	0.0170930
818.895	0.0171847
818.973	0.0171408
819.051	0.0173669
819.129	0.0172826
819.207	0.0171588
819.285	0.0171928
819.363	0.0169775
819.442	0.0168430
819.520	0.0165715
819.598	0.0164331
819.676	0.0161969
819.754	0.0160118
819.832	0.0157980
819.910	0.0155189
819.988	0.0151922
820.067	0.0151380
820.145	0.0150095
820.223	0.0148153
820.301	0.0147262
820.379	0.0148006
820.457	0.0147442
820.535	0.0148938
820.613	0.0150842
820.692	0.0152517
820.770	0.0153281
820.848	0.0155270
820.926	0.0155350
821.004	0.0158514
821.082	0.0158176
821.160	0.0160107
821.238	0.0162656
821.317	0.0163380
821.395	0.0163927
821.473	0.0165549
821.551	0.0166476
821.629	0.0166627
821.707	0.0167622
821.785	0.0167590
821.863	0.0168640
821.942	0.0168129
822.020	0.0168347
822.098	0.0168779
822.176	0.0169479
822.254	0.0168909
822.332	0.0169600
822.410	0.0168941
822.488	0.0168864
822.567	0.0169015
822.645	0.0169486
822.723	0.0170818
822.801	0.0169865
822.879	0.0168612
822.957	0.0169193
823.035	0.0170566
823.113	0.0169231
823.192	0.0169055
823.270	0.0169135
823.348	0.0169712
823.426	0.0169106
823.504	0.0167958
823.582	0.0167444
823.660	0.0168212
823.738	0.0167473
823.817	0.0166784
823.895	0.0166706
823.973	0.0165992
824.051	0.0165666
824.129	0.0166165
824.207	0.0166220
824.285	0.0166939
824.363	0.0168036
824.442	0.0167841
824.520	0.0169482
824.598	0.0170381
824.676	0.0172384
824.754	0.0171605
824.832	0.0173551
824.910	0.0173437
824.988	0.0173821
825.067	0.0172913
825.145	0.0172379
825.223	0.0172258
825.301	0.0169695
825.379	0.0167293
825.457	0.0167354
825.535	0.0164775
825.613	0.0163146
825.692	0.0160319
825.770	0.0159949
825.848	0.0157784
825.926	0.0155592
826.004	0.0153729
826.082	0.0153140
826.160	0.0151874
826.238	0.0152197
826.317	0.0150547
826.395	0.0149389
826.473	0.0149935
826.551	0.0150924
826.629	0.0152701
826.707	0.0153115
826.785	0.0154932
826.863	0.0155478
826.942	0.0156589
827.020	0.0158588
827.098	0.0160340
827.176	0.0162522
827.254	0.0163268
827.332	0.0163125
827.410	0.0164867
827.488	0.0166507
827.567	0.0166109
827.645	0.0165217
827.723	0.0166068
827.801	0.0165551
827.879	0.0165283
827.957	0.0164287
828.035	0.0163223
828.113	0.0163746
828.192	0.0164537
828.270	0.0164667
828.348	0.0163643
828.426	0.0166512
828.504	0.0166000
828.582	0.0166402
828.660	0.0168179
828.738	0.0168303
828.817	0.0169563
828.895	0.0172286
828.973	0.0171710
829.051	0.0173443
829.129	0.0173489
829.207	0.0174445
829.285	0.0174769
829.363	0.0174390
829.442	0.0173646
829.520	0.0172667
829.598	0.0172823
829.676	0.0171532
829.754	0.0169871
829.832	0.0168841
829.910	0.0166351
829.988	0.0167765
830.067	0.0168176
830.145	0.0166504
830.223	0.0167605
830.301	0.0166285
830.379	0.0167091
830.457	0.0168461
830.535	0.0170397
830.613	0.0171281
830.692	0.0172326
830.770	0.0171700
830.848	0.0171089
830.926	0.0170953
831.004	0.0172305
831.082	0.0171378
831.160	0.0171143
831.238	0.0167508
831.317	0.0166931
831.395	0.0165025
831.473	0.0163319
831.551	0.0160606
831.629	0.0158462
831.707	0.0157849
831.785	0.0155605
831.863	0.0155007
831.942	0.0152822
832.020	0.0151093
832.098	0.0151471
832.176	0.0151862
832.254	0.0151448
832.332	0.0154295
832.410	0.0153876
832.488	0.0155637
832.567	0.0157838
832.645	0.0159570
832.723	0.0162226
832.801	0.0163051
832.879	0.0163621
832.957	0.0163210
833.035	0.0165466
833.113	0.0166694
833.192	0.0167085
833.270	0.0167770
833.348	0.0164917
833.426	0.0165617
833.504	0.0165005
833.582	0.0163830
833.660	0.0165306
833.738	0.0163359
833.817	0.0161668
833.895	0.0161974
833.973	0.0161942
834.051	0.0162794
834.129	0.0162157
834.207	0.0163850
834.285	0.0163654
834.363	0.0167126
834.442	0.0166680
834.520	0.0166795
834.598	0.0169981
834.676	0.0172266
834.754	0.0173830
834.832	0.0174909
834.910	0.0175655
834.988	0.0175914
835.067	0.0177898
835.145	0.0177772
835.223	0.0177249
835.301	0.0175626
835.379	0.0174623
835.457	0.0173757
835.535	0.0171847
835.613	0.0169431
835.692	0.0167291
835.770	0.0165757
835.848	0.0165945
835.926	0.0167093
836.004	0.0164289
836.082	0.0165699
836.160	0.0165623
836.238	0.0167273
836.317	0.0167516
836.395	0.0169312
836.473	0.0169110
836.551	0.0169879
836.629	0.0172881
836.707	0.0172828
836.785	0.0171442
836.863	0.0171890
836.942	0.0173405
837.020	0.0173149
837.098	0.0170669
837.176	0.0167882
837.254	0.0167346
837.332	0.0165315
837.410	0.0163090
837.488	0.0161211
837.567	0.0158800
837.645	0.0156221
837.723	0.0154636
837.801	0.0154385
837.879	0.0154969
837.957	0.0153522
838.035	0.0153844
838.113	0.0155556
838.192	0.0155544
838.270	0.0155792
838.348	0.0156427
838.426	0.0158291
838.504	0.0160241
838.582	0.0160145
838.660	0.0162052
838.738	0.0163477
838.817	0.0162009
838.895	0.0161606
838.973	0.0162952
839.051	0.0163664
839.129	0.0162570
839.207	0.0162577
839.285	0.0161961
839.363	0.0161639
839.442	0.0161944
839.520	0.0163204
839.598	0.0162773
839.676	0.0162257
839.754	0.0161881
839.832	0.0161534
839.910	0.0163322
839.988	0.0164816
840.067	0.0164576
840.145	0.0165976
840.223	0.0167635
840.301	0.0168266
840.379	0.0170145
840.457	0.0170657
840.535	0.0172623
840.613	0.0173376
840.692	0.0174487
840.770	0.0174207
840.848	0.0174787
840.926	0.0173103
841.004	0.0173672
841.082	0.0173268
841.160	0.0171686
841.238	0.0170177
841.317	0.0169843
841.395	0.0167990
841.473	0.0166898
841.551	0.0166314
841.629	0.0166173
841.707	0.0164976
841.785	0.0164527
841.863	0.0163777
841.942	0.0163622
842.020	0.0164288
842.098	0.0163896
842.176	0.0166631
842.254	0.0166786
842.332	0.0168519
842.410	0.0169193
842.488	0.0170276
842.567	0.0171947
842.645	0.0171819
842.723	0.0171921
842.801	0.0171690
842.879	0.0171568
842.957	0.0169682
843.035	0.0170459
843.113	0.0168549
843.192	0.0168523
843.270	0.0167896
843.348	0.0164710
843.426	0.0164367
843.504	0.0164138
843.582	0.0159925
843.660	0.0158466
843.738	0.0158012
843.817	0.0158351
843.895	0.0155672
843.973	0.0155169
844.051	0.0156527
844.129	0.0155164
844.207	0.0154376
844.285	0.0153969
844.363	0.0154528
844.442	0.0156123
844.520	0.0155910
844.598	0.0158002
844.676	0.0158775
844.754	0.0158743
844.832	0.0161592
844.910	0.0159704
844.988	0.0160149
845.067	0.0161240
845.145	0.0161476
845.223	0.0161912
845.301	0.0162938
845.379	0.0164232
845.457	0.0163438
845.535	0.0164890
845.613	0.0162775
845.692	0.0163733
845.770	0.0163885
845.848	0.0165692
845.926	0.0165107
846.004	0.0166568
846.082	0.0166162
846.160	0.0166119
846.238	0.0165623
846.317	0.0167577
846.395	0.0168301
846.473	0.0168532
846.551	0.0168483
846.629	0.0169712
846.707	0.0168974
846.785	0.0169608
846.863	0.0171189
846.942	0.0170885
847.020	0.0170207
847.098	0.0169870
847.176	0.0169092
847.254	0.0167854
847.332	0.0167979
847.410	0.0166819
847.488	0.0166751
847.567	0.0165353
847.645	0.0165299
847.723	0.0166610
847.801	0.0166489
847.879	0.0165332
847.957	0.0165974
848.035	0.0166674
848.113	0.0167048
848.192	0.0165380
848.270	0.0165485
848.348	0.0168938
848.426	0.0168289
848.504	0.0169916
848.582	0.0170011
848.660	0.0169093
848.738	0.0170457
848.817	0.0170467
848.895	0.0172256
848.973	0.0171173
849.051	0.0171516
849.129	0.0172050
849.207	0.0170035
849.285	0.0168417
849.363	0.0167517
849.442	0.0165535
849.520	0.0166058
849.598	0.0165134
849.676	0.0163525
849.754	0.0161089
849.832	0.0159826
849.910	0.0160522
849.988	0.0157676
850.067	0.0158492
850.145	0.0157941
850.223	0.0157710
850.301	0.0157215
850.379	0.0158031
850.457	0.0157459
850.535	0.0157435
850.613	0.0158398
850.692	0.0158478
850.770	0.0160112
850.848	0.0160854
850.926	0.0161703
851.004	0.0160924
851.082	0.0163348
851.160	0.0163175
851.238	0.0163451
851.317	0.0163503
851.395	0.0164984
851.473	0.0163957
851.551	0.0163275
851.629	0.0163725
851.707	0.0164140
851.785	0.0165080
851.863	0.0163531
851.942	0.0166149
852.020	0.0164967
852.098	0.0165479
852.176	0.0166167
852.254	0.0166486
852.332	0.0168401
852.410	0.0166147
852.488	0.0168697
852.567	0.0168937
852.645	0.0169019
852.723	0.0167995
852.801	0.0168980
852.879	0.0167039
852.957	0.0169174
853.035	0.0168244
853.113	0.0166070
853.192	0.0167333
853.270	0.0166729
853.348	0.0164366
853.426	0.0165086
853.504	0.0165835
853.582	0.0165005
853.660	0.0165156
853.738	0.0166124
853.817	0.0166338
853.895	0.0166313
853.973	0.0166779
854.051	0.0167925
854.129	0.0168390
854.207	0.0168014
854.285	0.0169524
854.363	0.0170982
854.442	0.0171812
854.520	0.0172046
854.598	0.0172567
854.676	0.0174158
854.754	0.0173462
854.832	0.0174068
854.910	0.0173953
854.988	0.0172759
855.067	0.0173416
855.145	0.0170102
855.223	0.0169168
855.301	0.0168323
855.379	0.0167048
855.457	0.0164631
855.535	0.0162936
855.613	0.0163067
855.692	0.0160812
855.770	0.0162982
855.848	0.0161029
855.926	0.0158402
856.004	0.0158703
856.082	0.0159904
856.160	0.0158246
856.238	0.0159634
856.317	0.0159206
856.395	0.0157852
856.473	0.0157009
856.551	0.0157850
856.629	0.0157813
856.707	0.0157971
856.785	0.0157604
856.863	0.0158772
856.942	0.0159571
857.020	0.0159679
857.098	0.0160989
857.176	0.0161014
857.254	0.0161653
857.332	0.0162302
857.410	0.0163651
857.488	0.0162742
857.567	0.0162724
857.645	0.0165427
857.723	0.0167517
857.801	0.0166756
857.879	0.0168138
857.957	0.0168211
858.035	0.0169589
858.113	0.0169053
858.192	0.0168057
858.270	0.0167684
858.348	0.0168034
858.426	0.0170163
858.504	0.0168681
858.582	0.0167221
858.660	0.0167831
858.738	0.0167246
858.817	0.0165995
858.895	0.0165371
858.973	0.0165746
859.051	0.0163593
859.129	0.0163971
859.207	0.0164108
859.285	0.0164792
859.363	0.0164558
859.442	0.0165418
859.520	0.0166531
859.598	0.0166349
859.676	0.0167419
859.754	0.0167829
859.832	0.0168185
859.910	0.0168736
859.988	0.0170684
860.067	0.0170154
860.145	0.0169700
860.223	0.0169919
860.301	0.0171054
860.379	0.0172289
860.457	0.0170552
860.535	0.0169098
860.613	0.0169737
860.692	0.0169340
860.770	0.0168047
860.848	0.0166582
860.926	0.0167403
861.004	0.0166246
861.082	0.0165423
861.160	0.0164413
861.238	0.0164093
861.317	0.0162743
861.395	0.0163244
861.473	0.0161458
861.551	0.0160489
861.629	0.0162112
861.707	0.0162410
861.785	0.0163398
861.863	0.0163322
861.942	0.0164552
862.020	0.0165005
862.098	0.0161775
862.176	0.0162187
862.254	0.0163257
862.332	0.0163071
862.410	0.0162446
862.488	0.0162907
862.567	0.0162753
862.645	0.0162186
862.723	0.0161607
862.801	0.0161454
862.879	0.0159313
862.957	0.0160656
863.035	0.0160261
863.113	0.0159595
863.192	0.0160184
863.270	0.0161246
863.348	0.0160293
863.426	0.0160586
863.504	0.0161704
863.582	0.0162860
863.660	0.0162979
863.738	0.0163517
863.817	0.0165933
863.895	0.0167005
863.973	0.0166241
864.051	0.0167606
864.129	0.0168395
864.207	0.0168613
864.285	0.0167836
864.363	0.0168778
864.442	0.0169909
864.520	0.0169224
864.598	0.0167417
864.676	0.0167872
864.754	0.0166982
864.832	0.0166806
864.910	0.0166721
864.988	0.0164439
865.067	0.0163935
865.145	0.0163680
865.223	0.0162331
865.301	0.0163353
865.379	0.0163673
865.457	0.0164233
865.535	0.0164820
865.613	0.0167072
865.692	0.0167116
865.770	0.0167693
865.848	0.0166798
865.926	0.0168787
866.004	0.0170085
866.082	0.0166576
866.160	0.0167118
866.238	0.0166508
866.317	0.0167514
866.395	0.0168540
866.473	0.0167201
866.551	0.0167455
866.629	0.0166980
866.707	0.0166914
866.785	0.0168193
866.863	0.0166491
866.942	0.0166233
867.020	0.0165649
867.098	0.0165369
867.176	0.0165250
867.254	0.0163629
867.332	0.0163233
867.410	0.0163812
867.488	0.0163003
867.567	0.0163237
867.645	0.0161943
867.723	0.0163729
867.801	0.0164022
867.879	0.0163778
867.957	0.0163686
868.035	0.0164982
868.113	0.0164964
868.192	0.0163979
868.270	0.0166670
868.348	0.0165747
868.426	0.0165770
868.504	0.0165714
868.582	0.0166660
868.660	0.0167104
868.738	0.0166194
868.817	0.0166951
868.895	0.0163919
868.973	0.0165012
869.051	0.0164523
869.129	0.0165571
869.207	0.0162902
869.285	0.0162845
869.363	0.0164696
869.442	0.0163783
869.520	0.0163290
869.598	0.0162118
869.676	0.0162131
869.754	0.0162020
869.832	0.0161652
869.910	0.0161260
869.988	0.0162722
870.067	0.0162228
870.145	0.0162408
870.223	0.0161456
870.301	0.0161752
870.379	0.0162460
870.457	0.0163599
870.535	0.0163905
870.613	0.0163055
870.692	0.0162836
870.770	0.0162326
870.848	0.0162985
870.926	0.0162179
871.004	0.0163137
871.082	0.0163023
871.160	0.0163349
871.238	0.0162127
871.317	0.0162106
871.395	0.0163883
871.473	0.0164411
871.551	0.0165484
871.629	0.0165511
871.707	0.0166705
871.785	0.0166783
871.863	0.0167574
871.942	0.0171197
872.020	0.0170711
872.098	0.0170052
872.176	0.0170737
872.254	0.0171237
872.332	0.0172279
872.410	0.0172523
872.488	0.0172601
872.567	0.0171683
872.645	0.0172891
872.723	0.0172328
872.801	0.0170258
872.879	0.0169051
872.957	0.0170149
873.035	0.0168704
873.113	0.0168067
873.192	0.0167721
873.270	0.0166386
873.348	0.0166561
873.426	0.0166019
873.504	0.0165474
873.582	0.0164140
873.660	0.0163966
873.738	0.0164561
873.817	0.0162414
873.895	0.0163034
873.973	0.0162915
874.051	0.0162251
874.129	0.0161225
874.207	0.0162475
874.285	0.0163138
874.363	0.0160562
874.442	0.0160838
874.520	0.0161391
874.598	0.0161829
874.676	0.0162421
874.754	0.0162262
874.832	0.0162035
874.910	0.0161225
874.988	0.0161722
875.067	0.0160864
875.145	0.0161495
875.223	0.0162325
875.301	0.0162838
875.379	0.0163331
875.457	0.0162444
875.535	0.0163081
875.613	0.0163390
875.692	0.0164628
875.770	0.0165235
875.848	0.0163223
875.926	0.0163708
876.004	0.0163008
876.082	0.0165164
876.160	0.0165904
876.238	0.0163957
876.317	0.0164541
876.395	0.0165395
876.473	0.0167292
876.551	0.0165984
876.629	0.0167411
876.707	0.0167609
876.785	0.0166732
876.863	0.0166914
876.942	0.0168643
877.020	0.0168919
877.098	0.0168921
877.176	0.0168867
877.254	0.0168258
877.332	0.0167864
877.410	0.0169040
877.488	0.0168735
877.567	0.0168372
877.645	0.0168262
877.723	0.0167616
877.801	0.0168509
877.879	0.0168642
877.957	0.0169030
878.035	0.0168768
878.113	0.0168498
878.192	0.0168019
878.270	0.0167619
878.348	0.0166602
878.426	0.0167661
878.504	0.0166600
878.582	0.0166241
878.660	0.0166163
878.738	0.0165339
878.817	0.0164344
878.895	0.0163696
878.973	0.0164036
879.051	0.0163952
879.129	0.0165105
879.207	0.0163322
879.285	0.0161380
879.363	0.0161997
879.442	0.0163042
879.520	0.0160942
879.598	0.0162598
879.676	0.0162775
879.754	0.0161491
879.832	0.0161922
879.910	0.0162862
879.988	0.0162788
880.067	0.0163197
880.145	0.0163465
880.223	0.0163760
880.301	0.0162048
880.379	0.0162653
880.457	0.0163190
880.535	0.0162949
880.613	0.0164141
880.692	0.0163272
880.770	0.0164254
880.848	0.0163482
880.926	0.0164221
881.004	0.0164996
881.082	0.0165927
881.160	0.0166808
881.238	0.0167070
881.317	0.0166059
881.395	0.0166667
881.473	0.0168181
881.551	0.0167893
881.629	0.0167692
881.707	0.0166582
881.785	0.0167532
881.863	0.0167856
881.942	0.0168046
882.020	0.0169089
882.098	0.0168685
882.176	0.0167999
882.254	0.0166220
882.332	0.0166297
882.410	0.0165957
882.488	0.0165797
882.567	0.0165776
882.645	0.0164124
882.723	0.0163129
882.801	0.0162975
882.879	0.0163277
882.957	0.0163674
883.035	0.0162183
883.113	0.0162658
883.192	0.0161844
883.270	0.0161848
883.348	0.0161453
883.426	0.0161450
883.504	0.0159884
883.582	0.0159581
883.660	0.0162254
883.738	0.0159871
883.817	0.0159572
883.895	0.0162145
883.973	0.0162266
884.051	0.0161803
884.129	0.0163407
884.207	0.0164065
884.285	0.0164674
884.363	0.0163076
884.442	0.0165034
884.520	0.0166541
884.598	0.0166160
884.676	0.0167074
884.754	0.0166962
884.832	0.0167914
884.910	0.0167381
884.988	0.0168978
885.067	0.0169299
885.145	0.0169135
885.223	0.0167904
885.301	0.0167513
885.379	0.0170747
885.457	0.0168504
885.535	0.0168253
885.613	0.0167072
885.692	0.0166983
885.770	0.0168293
885.848	0.0166470
885.926	0.0166744
886.004	0.0163968
886.082	0.0166605
886.160	0.0164253
886.238	0.0162856
886.317	0.0162967
886.395	0.0162963
886.473	0.0164577
886.551	0.0163472
886.629	0.0163274
886.707	0.0164736
886.785	0.0165046
886.863	0.0165677
886.942	0.0165023
887.020	0.0166568
887.098	0.0166911
887.176	0.0168342
887.254	0.0167018
887.332	0.0168850
887.410	0.0168933
887.488	0.0168314
887.567	0.0168394
887.645	0.0167429
887.723	0.0167202
887.801	0.0167767
887.879	0.0167042
887.957	0.0166753
888.035	0.0165961
888.113	0.0164278
888.192	0.0165083
888.270	0.0164930
888.348	0.0163141
888.426	0.0163406
888.504	0.0162677
888.582	0.0162417
888.660	0.0161327
888.738	0.0161539
888.817	0.0161710
888.895	0.0161774
888.973	0.0159442
889.051	0.0160840
889.129	0.0161690
889.207	0.0162289
889.285	0.0163104
889.363	0.0161263
889.442	0.0161974
889.520	0.0160887
889.598	0.0162113
889.676	0.0162673
889.754	0.0162437
889.832	0.0163486
889.910	0.0163538
889.988	0.0165063
890.067	0.0165993
890.145	0.0167215
890.223	0.0166312
890.301	0.0166959
890.379	0.0166440
890.457	0.0168874
890.535	0.0169114
890.613	0.0168285
890.692	0.0168013
890.770	0.0166817
890.848	0.0167325
890.926	0.0166939
891.004	0.0168050
891.082	0.0165961
891.160	0.0167044
891.238	0.0166696
891.317	0.0166024
891.395	0.0166479
891.473	0.0164188
891.551	0.0165060
891.629	0.0165636
891.707	0.0165446
891.785	0.0165548
891.863	0.0165498
891.942	0.0164424
892.020	0.0163612
892.098	0.0164005
892.176	0.0166184
892.254	0.0166026
892.332	0.0164777
892.410	0.0164225
892.488	0.0165013
892.567	0.0166727
892.645	0.0168667
892.723	0.0165821
892.801	0.0167308
892.879	0.0166203
892.957	0.0165195
893.035	0.0165385
893.113	0.0166240
893.192	0.0166896
893.270	0.0166322
893.348	0.0163902
893.426	0.0165102
893.504	0.0164769
893.582	0.0163904
893.660	0.0163651
893.738	0.0162174
893.817	0.0160513
893.895	0.0161574
893.973	0.0159800
894.051	0.0161755
894.129	0.0160950
894.207	0.0159676
894.285	0.0158295
894.363	0.0159312
894.442	0.0159344
894.520	0.0160600
894.598	0.0161044
894.676	0.0160219
894.754	0.0160985
894.832	0.0161716
894.910	0.0162349
894.988	0.0162407
895.067	0.0163469
895.145	0.0163474
895.223	0.0164526
895.301	0.0164594
895.379	0.0166871
895.457	0.0166034
895.535	0.0166854
895.613	0.0167390
895.692	0.0168050
895.770	0.0168508
895.848	0.0167472
895.926	0.0167573
896.004	0.0167465
896.082	0.0168286
896.160	0.0167332
896.238	0.0166469
896.317	0.0166121
896.395	0.0166901
896.473	0.0166354
896.551	0.0166454
896.629	0.0165807
896.707	0.0166262
896.785	0.0165140
896.863	0.0166388
896.942	0.0165598
897.020	0.0165464
897.098	0.0165991
897.176	0.0165844
897.254	0.0167816
897.332	0.0167685
897.410	0.0166151
897.488	0.0167506
897.567	0.0168207
897.645	0.0167844
897.723	0.0168214
897.801	0.0168654
897.879	0.0168900
897.957	0.0168856
898.035	0.0167272
898.113	0.0166710
898.192	0.0167686
898.270	0.0166885
898.348	0.0166634
898.426	0.0166192
898.504	0.0166359
898.582	0.0166773
898.660	0.0166480
898.738	0.0165530
898.817	0.0166125
898.895	0.0164705
898.973	0.0164977
899.051	0.0164838
899.129	0.0164488
899.207	0.0163232
899.285	0.0163788
899.363	0.0162608
899.442	0.0161288
899.520	0.0161972
899.598	0.0162224
899.676	0.0161021
899.754	0.0161979
899.832	0.0160282
899.910	0.0161074
899.988	0.0160606
900.067	0.0161574
900.145	0.0160446
900.223	0.0160867
900.301	0.0159827
900.379	0.0159904
900.457	0.0159717
900.535	0.0159833
900.613	0.0159715
900.692	0.0159827
900.770	0.0161522
900.848	0.0160934
900.926	0.0161797
901.004	0.0161683
901.082	0.0163929
901.160	0.0164165
901.238	0.0163794
901.317	0.0164534
901.395	0.0166322
901.473	0.0166077
901.551	0.0166749
901.629	0.0167941
901.707	0.0167965
901.785	0.0168326
901.863	0.0169367
901.942	0.0168745
902.020	0.0169582
902.098	0.0168686
902.176	0.0168924
902.254	0.0171631
902.332	0.0170492
902.410	0.0170016
902.488	0.0169282
902.567	0.0171509
902.645	0.0168825
902.723	0.0167959
902.801	0.0168833
902.879	0.0168333
902.957	0.0167404
903.035	0.0168806
903.113	0.0166518
903.192	0.0166270
903.270	0.0167888
903.348	0.0167983
903.426	0.0166767
903.504	0.0167331
903.582	0.0166375
903.660	0.0166528
903.738	0.0168118
903.817	0.0167169
903.895	0.0167018
903.973	0.0167680
904.051	0.0166260
904.129	0.0167902
904.207	0.0166188
904.285	0.0166782
904.363	0.0166025
904.442	0.0166984
904.520	0.0166035
904.598	0.0165446
904.676	0.0164310
904.754	0.0163708
904.832	0.0163679
904.910	0.0162641
904.988	0.0162577
905.067	0.0158955
905.145	0.0159386
905.223	0.0159932
905.301	0.0159398
905.379	0.0157865
905.457	0.0158234
905.535	0.0158334
905.613	0.0158582
905.692	0.0159131
905.770	0.0159939
905.848	0.0159831
905.926	0.0159783
906.004	0.0160460
906.082	0.0160474
906.160	0.0161356
906.238	0.0162718
906.317	0.0163628
906.395	0.0162924
906.473	0.0165327
906.551	0.0164671
906.629	0.0163555
906.707	0.0166389
906.785	0.0164767
906.863	0.0164391
906.942	0.0165953
907.020	0.0165601
907.098	0.0167139
907.176	0.0167990
907.254	0.0167549
907.332	0.0165948
907.410	0.0166228
907.488	0.0166180
907.567	0.0166096
907.645	0.0166523
907.723	0.0167532
907.801	0.0168038
907.879	0.0169335
907.957	0.0169224
908.035	0.0168475
908.113	0.0171104
908.192	0.0170882
908.270	0.0169252
908.348	0.0169545
908.426	0.0170505
908.504	0.0171136
908.582	0.0169561
908.660	0.0169759
908.738	0.0169322
908.817	0.0169848
908.895	0.0168428
908.973	0.0167312
909.051	0.0168461
909.129	0.0167616
909.207	0.0166919
909.285	0.0164741
909.363	0.0165793
909.442	0.0165594
909.520	0.0165098
909.598	0.0165011
909.676	0.0164695
909.754	0.0164451
909.832	0.0165682
909.910	0.0164771
909.988	0.0164580
910.067	0.0164398
910.145	0.0164080
910.223	0.0165285
910.301	0.0165509
910.379	0.0163921
910.457	0.0164289
910.535	0.0164940
910.613	0.0162917
910.692	0.0162853
910.770	0.0162933
910.848	0.0163188
910.926	0.0162165
911.004	0.0161777
911.082	0.0161999
911.160	0.0161798
911.238	0.0160905
911.317	0.0160126
911.395	0.0159643
911.473	0.0162462
911.551	0.0160587
911.629	0.0160251
911.707	0.0160792
911.785	0.0161332
911.863	0.0160891
911.942	0.0161121
912.020	0.0162891
912.098	0.0162553
912.176	0.0163914
912.254	0.0163406
912.332	0.0164082
912.410	0.0165168
912.488	0.0165473
912.567	0.0165017
912.645	0.0167851
912.723	0.0167040
912.801	0.0165917
912.879	0.0168675
912.957	0.0168449
913.035	0.0167567
913.113	0.0168208
913.192	0.0169911
913.270	0.0168811
913.348	0.0168378
913.426	0.0168282
913.504	0.0167800
913.582	0.0168154
913.660	0.0166345
913.738	0.0165866
913.817	0.0167190
913.895	0.0166308
913.973	0.0167879
914.051	0.0167038
914.129	0.0167736
914.207	0.0168214
914.285	0.0166171
914.363	0.0167975
914.442	0.0168880
914.520	0.0167654
914.598	0.0167752
914.676	0.0167722
914.754	0.0166227
914.832	0.0166660
914.910	0.0169106
914.988	0.0166638
915.067	0.0165948
915.145	0.0164305
915.223	0.0165466
915.301	0.0166055
915.379	0.0165758
915.457	0.0164091
915.535	0.0164214
915.613	0.0165110
915.692	0.0165009
915.770	0.0162434
915.848	0.0164365
915.926	0.0164247
916.004	0.0162743
916.082	0.0162767
916.160	0.0163557
916.238	0.0163467
916.317	0.0163377
916.395	0.0161599
916.473	0.0162285
916.551	0.0163181
916.629	0.0162083
916.707	0.0162080
916.785	0.0161815
916.863	0.0162248
916.942	0.0161805
917.020	0.0162543
917.098	0.0164771
917.176	0.0162737
917.254	0.0162117
917.332	0.0164020
917.410	0.0164783
917.488	0.0164510
917.567	0.0163622
917.645	0.0164795
917.723	0.0164375
917.801	0.0164134
917.879	0.0163333
917.957	0.0163099
918.035	0.0165049
918.113	0.0165733
918.192	0.0165955
918.270	0.0164653
918.348	0.0165476
918.426	0.0164541
918.504	0.0166392
918.582	0.0166657
918.660	0.0166253
918.738	0.0166215
918.817	0.0165251
918.895	0.0166175
918.973	0.0166467
919.051	0.0167300
919.129	0.0166488
919.207	0.0167155
919.285	0.0167258
919.363	0.0167398
919.442	0.0166901
919.520	0.0166510
919.598	0.0165981
919.676	0.0166044
919.754	0.0164424
919.832	0.0164124
919.910	0.0165094
