06/10/2022	16:25:57	Ver.	4.1	UNKNOWN
Optical Delay	599.988409	Delta X		0.078125	Sweeps	1	Scan Rate	0/0
Coordinates	Axis 1	NaN	Axis 2	NaN	Axis 3	NaN	Axis 4	NaN	Axis 5	NaN	Axis 6	0.000000
TX Power	0.000000	RX Power	0.000000

599.988	0.0171275
600.067	0.0170951
600.145	0.0170393
600.223	0.0172159
600.301	0.0171381
600.379	0.0171545
600.457	0.0170507
600.535	0.0169827
600.613	0.0171124
600.692	0.0171480
600.770	0.0171235
600.848	0.0171712
600.926	0.0170592
601.004	0.0171893
601.082	0.0171558
601.160	0.0171174
601.238	0.0171596
601.317	0.0171303
601.395	0.0171090
601.473	0.0171306
601.551	0.0169711
601.629	0.0171033
601.707	0.0171416
601.785	0.0170496
601.863	0.0171152
601.942	0.0170050
602.020	0.0170580
602.098	0.0170772
602.176	0.0171890
602.254	0.0172020
602.332	0.0171947
602.410	0.0170808
602.488	0.0171426
602.567	0.0170930
602.645	0.0170456
602.723	0.0171053
602.801	0.0170306
602.879	0.0172047
602.957	0.0172054
603.035	0.0171548
603.113	0.0172208
603.192	0.0171498
603.270	0.0170767
603.348	0.0171532
603.426	0.0170835
603.504	0.0170705
603.582	0.0170448
603.660	0.0171336
603.738	0.0169691
603.817	0.0170245
603.895	0.0170837
603.973	0.0170353
604.051	0.0170702
604.129	0.0170765
604.207	0.0170950
604.285	0.0169874
604.363	0.0171953
604.442	0.0172340
604.520	0.0171124
604.598	0.0170985
604.676	0.0169765
604.754	0.0172684
604.832	0.0170419
604.910	0.0169472
604.988	0.0171442
605.067	0.0171391
605.145	0.0171491
605.223	0.0171239
605.301	0.0170618
605.379	0.0171552
605.457	0.0172244
605.535	0.0170731
605.613	0.0171465
605.692	0.0170845
605.770	0.0171368
605.848	0.0170726
605.926	0.0171874
606.004	0.0170549
606.082	0.0170617
606.160	0.0171219
606.238	0.0170343
606.317	0.0171303
606.395	0.0171037
606.473	0.0170006
606.551	0.0171471
606.629	0.0171665
606.707	0.0170351
606.785	0.0170360
606.863	0.0171563
606.942	0.0170222
607.020	0.0170656
607.098	0.0171276
607.176	0.0171963
607.254	0.0171599
607.332	0.0172041
607.410	0.0171091
607.488	0.0168539
607.567	0.0172075
607.645	0.0171764
607.723	0.0171916
607.801	0.0170136
607.879	0.0172172
607.957	0.0170840
608.035	0.0171418
608.113	0.0171526
608.192	0.0170966
608.270	0.0172157
608.348	0.0171149
608.426	0.0171558
608.504	0.0171924
608.582	0.0172374
608.660	0.0170486
608.738	0.0170271
608.817	0.0171546
608.895	0.0170512
608.973	0.0172167
609.051	0.0171869
609.129	0.0170911
609.207	0.0171620
609.285	0.0170998
609.363	0.0170887
609.442	0.0170061
609.520	0.0170811
609.598	0.0170236
609.676	0.0171297
609.754	0.0169924
609.832	0.0170375
609.910	0.0171589
609.988	0.0171026
610.067	0.0169882
610.145	0.0170586
610.223	0.0170879
610.301	0.0170268
610.379	0.0170058
610.457	0.0169997
610.535	0.0170142
610.613	0.0171295
610.692	0.0170950
610.770	0.0170366
610.848	0.0170197
610.926	0.0170088
611.004	0.0171559
611.082	0.0171510
611.160	0.0171064
611.238	0.0170551
611.317	0.0171447
611.395	0.0171442
611.473	0.0170211
611.551	0.0171059
611.629	0.0170273
611.707	0.0169398
611.785	0.0171779
611.863	0.0170718
611.942	0.0171272
612.020	0.0171373
612.098	0.0171015
612.176	0.0172090
612.254	0.0172155
612.332	0.0171117
612.410	0.0171268
612.488	0.0172546
612.567	0.0170277
612.645	0.0170119
612.723	0.0172068
612.801	0.0171000
612.879	0.0171803
612.957	0.0170139
613.035	0.0170918
613.113	0.0170261
613.192	0.0170329
613.270	0.0171354
613.348	0.0170577
613.426	0.0169121
613.504	0.0169425
613.582	0.0170435
613.660	0.0169314
613.738	0.0170906
613.817	0.0172427
613.895	0.0170516
613.973	0.0169255
614.051	0.0170906
614.129	0.0169310
614.207	0.0170598
614.285	0.0169743
614.363	0.0171394
614.442	0.0170786
614.520	0.0171420
614.598	0.0170716
614.676	0.0170734
614.754	0.0171213
614.832	0.0171144
614.910	0.0170028
614.988	0.0170161
615.067	0.0170625
615.145	0.0169697
615.223	0.0170296
615.301	0.0171343
615.379	0.0171577
615.457	0.0170343
615.535	0.0170856
615.613	0.0170081
615.692	0.0170237
615.770	0.0169194
615.848	0.0170567
615.926	0.0170821
616.004	0.0170258
616.082	0.0169296
616.160	0.0170268
616.238	0.0170578
616.317	0.0170100
616.395	0.0171728
616.473	0.0171261
616.551	0.0169620
616.629	0.0169120
616.707	0.0169838
616.785	0.0170428
616.863	0.0171148
616.942	0.0170485
617.020	0.0169864
617.098	0.0169233
617.176	0.0170960
617.254	0.0170583
617.332	0.0170205
617.410	0.0170404
617.488	0.0171416
617.567	0.0172363
617.645	0.0171729
617.723	0.0171027
617.801	0.0172141
617.879	0.0171201
617.957	0.0171296
618.035	0.0171307
618.113	0.0171645
618.192	0.0169196
618.270	0.0170947
618.348	0.0171053
618.426	0.0171580
618.504	0.0171812
618.582	0.0171301
618.660	0.0170548
618.738	0.0170766
618.817	0.0172043
618.895	0.0170683
618.973	0.0170256
619.051	0.0171472
619.129	0.0170976
619.207	0.0171309
619.285	0.0170246
619.363	0.0171059
619.442	0.0171003
619.520	0.0171743
619.598	0.0172342
619.676	0.0171246
619.754	0.0170992
619.832	0.0171390
619.910	0.0172018
619.988	0.0170410
620.067	0.0170860
620.145	0.0169933
620.223	0.0171635
620.301	0.0171784
620.379	0.0171294
620.457	0.0170470
620.535	0.0169936
620.613	0.0170733
620.692	0.0172508
620.770	0.0170609
620.848	0.0170374
620.926	0.0171208
621.004	0.0169308
621.082	0.0170593
621.160	0.0171484
621.238	0.0171612
621.317	0.0171511
621.395	0.0172380
621.473	0.0171326
621.551	0.0172541
621.629	0.0173178
621.707	0.0170454
621.785	0.0173077
621.863	0.0170554
621.942	0.0170730
622.020	0.0171602
622.098	0.0172477
622.176	0.0171254
622.254	0.0172374
622.332	0.0170192
622.410	0.0171552
622.488	0.0171613
622.567	0.0172473
622.645	0.0170629
622.723	0.0171143
622.801	0.0172841
622.879	0.0171693
622.957	0.0170585
623.035	0.0173287
623.113	0.0171255
623.192	0.0172585
623.270	0.0171030
623.348	0.0171872
623.426	0.0172377
623.504	0.0171978
623.582	0.0171686
623.660	0.0170326
623.738	0.0170893
623.817	0.0171786
623.895	0.0171198
623.973	0.0171603
624.051	0.0172034
624.129	0.0171812
624.207	0.0170451
624.285	0.0170657
624.363	0.0172026
624.442	0.0171237
624.520	0.0171156
624.598	0.0172222
624.676	0.0170644
624.754	0.0172235
624.832	0.0171329
624.910	0.0171487
624.988	0.0171298
625.067	0.0171111
625.145	0.0172002
625.223	0.0171518
625.301	0.0171008
625.379	0.0171742
625.457	0.0172378
625.535	0.0171711
625.613	0.0171955
625.692	0.0171142
625.770	0.0172253
625.848	0.0171420
625.926	0.0171638
626.004	0.0171201
626.082	0.0170650
626.160	0.0171339
626.238	0.0171850
626.317	0.0172345
626.395	0.0170995
626.473	0.0170749
626.551	0.0171507
626.629	0.0170170
626.707	0.0171095
626.785	0.0171562
626.863	0.0170988
626.942	0.0172675
627.020	0.0170448
627.098	0.0170451
627.176	0.0170289
627.254	0.0170629
627.332	0.0169695
627.410	0.0171104
627.488	0.0171354
627.567	0.0171419
627.645	0.0170746
627.723	0.0171130
627.801	0.0171995
627.879	0.0172345
627.957	0.0172654
628.035	0.0170179
628.113	0.0169594
628.192	0.0170108
628.270	0.0170058
628.348	0.0170715
628.426	0.0169953
628.504	0.0170924
628.582	0.0171259
628.660	0.0172838
628.738	0.0171261
628.817	0.0171217
628.895	0.0170673
628.973	0.0170698
629.051	0.0171382
629.129	0.0170214
629.207	0.0172059
629.285	0.0170300
629.363	0.0170427
629.442	0.0171388
629.520	0.0171105
629.598	0.0171738
629.676	0.0170483
629.754	0.0171133
629.832	0.0171532
629.910	0.0172299
629.988	0.0169646
630.067	0.0171526
630.145	0.0170172
630.223	0.0170067
630.301	0.0170821
630.379	0.0172462
630.457	0.0170020
630.535	0.0169756
630.613	0.0168814
630.692	0.0171195
630.770	0.0171189
630.848	0.0170852
630.926	0.0169961
631.004	0.0170058
631.082	0.0170415
631.160	0.0172045
631.238	0.0171009
631.317	0.0170846
631.395	0.0170448
631.473	0.0171140
631.551	0.0172222
631.629	0.0170717
631.707	0.0170264
631.785	0.0171677
631.863	0.0170572
631.942	0.0170197
632.020	0.0171945
632.098	0.0171292
632.176	0.0170491
632.254	0.0170904
632.332	0.0171539
632.410	0.0171807
632.488	0.0169995
632.567	0.0171220
632.645	0.0171333
632.723	0.0171325
632.801	0.0171548
632.879	0.0170667
632.957	0.0171202
633.035	0.0171823
633.113	0.0170211
633.192	0.0170790
633.270	0.0170988
633.348	0.0170564
633.426	0.0171068
633.504	0.0171646
633.582	0.0169756
633.660	0.0171957
633.738	0.0170261
633.817	0.0171137
633.895	0.0171778
633.973	0.0169950
634.051	0.0171125
634.129	0.0171779
634.207	0.0171439
634.285	0.0170908
634.363	0.0171659
634.442	0.0171316
634.520	0.0170502
634.598	0.0170002
634.676	0.0169945
634.754	0.0170651
634.832	0.0170671
634.910	0.0170644
634.988	0.0170686
635.067	0.0170393
635.145	0.0172462
635.223	0.0169924
635.301	0.0170335
635.379	0.0171095
635.457	0.0170882
635.535	0.0170168
635.613	0.0171954
635.692	0.0171913
635.770	0.0172218
635.848	0.0171434
635.926	0.0171138
636.004	0.0170832
636.082	0.0172038
636.160	0.0170860
636.238	0.0171130
636.317	0.0171676
636.395	0.0171166
636.473	0.0170649
636.551	0.0170408
636.629	0.0171948
636.707	0.0171002
636.785	0.0170172
636.863	0.0171624
636.942	0.0172022
637.020	0.0171413
637.098	0.0170282
637.176	0.0169760
637.254	0.0171156
637.332	0.0170794
637.410	0.0169778
637.488	0.0170274
637.567	0.0171038
637.645	0.0170850
637.723	0.0172059
637.801	0.0172306
637.879	0.0170698
637.957	0.0171412
638.035	0.0169759
638.113	0.0169564
638.192	0.0171170
638.270	0.0171515
638.348	0.0170478
638.426	0.0170616
638.504	0.0171419
638.582	0.0170083
638.660	0.0170468
638.738	0.0170869
638.817	0.0171355
638.895	0.0170638
638.973	0.0171342
639.051	0.0170293
639.129	0.0170552
639.207	0.0171896
639.285	0.0170873
639.363	0.0171503
639.442	0.0170881
639.520	0.0172666
639.598	0.0172075
639.676	0.0171513
639.754	0.0169893
639.832	0.0171057
639.910	0.0171736
639.988	0.0170554
640.067	0.0170944
640.145	0.0170801
640.223	0.0171333
640.301	0.0170979
640.379	0.0172469
640.457	0.0171294
640.535	0.0170088
640.613	0.0171632
640.692	0.0170944
640.770	0.0170283
640.848	0.0171782
640.926	0.0170511
641.004	0.0171318
641.082	0.0170229
641.160	0.0171799
641.238	0.0171622
641.317	0.0170508
641.395	0.0170965
641.473	0.0171372
641.551	0.0170951
641.629	0.0170726
641.707	0.0170945
641.785	0.0170419
641.863	0.0170582
641.942	0.0170189
642.020	0.0170765
642.098	0.0170156
642.176	0.0170831
642.254	0.0171218
642.332	0.0172264
642.410	0.0170412
642.488	0.0170834
642.567	0.0172272
642.645	0.0169690
642.723	0.0170805
642.801	0.0170201
642.879	0.0171214
642.957	0.0170132
643.035	0.0170994
643.113	0.0171553
643.192	0.0172753
643.270	0.0171219
643.348	0.0172097
643.426	0.0171437
643.504	0.0171437
643.582	0.0171130
643.660	0.0171208
643.738	0.0171085
643.817	0.0171071
643.895	0.0170489
643.973	0.0170818
644.051	0.0170303
644.129	0.0171285
644.207	0.0170683
644.285	0.0170238
644.363	0.0170916
644.442	0.0171930
644.520	0.0171613
644.598	0.0169753
644.676	0.0169484
644.754	0.0170818
644.832	0.0171577
644.910	0.0170319
644.988	0.0171544
645.067	0.0172116
645.145	0.0170992
645.223	0.0171648
645.301	0.0171766
645.379	0.0171729
645.457	0.0170203
645.535	0.0171906
645.613	0.0170446
645.692	0.0169996
645.770	0.0172403
645.848	0.0171808
645.926	0.0171695
646.004	0.0169949
646.082	0.0170103
646.160	0.0169875
646.238	0.0171103
646.317	0.0173540
646.395	0.0170908
646.473	0.0170805
646.551	0.0170652
646.629	0.0171336
646.707	0.0170364
646.785	0.0171091
646.863	0.0171819
646.942	0.0171326
647.020	0.0171104
647.098	0.0170952
647.176	0.0170418
647.254	0.0170558
647.332	0.0170132
647.410	0.0171215
647.488	0.0171175
647.567	0.0171319
647.645	0.0171304
647.723	0.0169275
647.801	0.0170802
647.879	0.0171210
647.957	0.0170834
648.035	0.0169832
648.113	0.0170570
648.192	0.0172437
648.270	0.0170106
648.348	0.0170937
648.426	0.0170426
648.504	0.0171475
648.582	0.0171151
648.660	0.0171331
648.738	0.0171590
648.817	0.0171278
648.895	0.0171490
648.973	0.0171122
649.051	0.0170580
649.129	0.0171926
649.207	0.0170110
649.285	0.0170522
649.363	0.0171542
649.442	0.0170853
649.520	0.0171235
649.598	0.0171519
649.676	0.0169272
649.754	0.0170843
649.832	0.0171791
649.910	0.0170833
649.988	0.0169923
650.067	0.0169286
650.145	0.0171510
650.223	0.0170777
650.301	0.0169640
650.379	0.0171377
650.457	0.0170508
650.535	0.0168966
650.613	0.0171105
650.692	0.0170855
650.770	0.0169800
650.848	0.0170553
650.926	0.0171894
651.004	0.0170650
651.082	0.0171055
651.160	0.0171768
651.238	0.0171016
651.317	0.0170757
651.395	0.0170576
651.473	0.0170037
651.551	0.0170100
651.629	0.0171191
651.707	0.0172342
651.785	0.0170528
651.863	0.0171619
651.942	0.0170038
652.020	0.0168798
652.098	0.0171015
652.176	0.0171047
652.254	0.0172430
652.332	0.0170662
652.410	0.0170873
652.488	0.0171373
652.567	0.0170023
652.645	0.0170975
652.723	0.0170970
652.801	0.0171024
652.879	0.0170358
652.957	0.0170868
653.035	0.0170850
653.113	0.0172494
653.192	0.0171230
653.270	0.0169818
653.348	0.0170477
653.426	0.0170831
653.504	0.0170686
653.582	0.0171297
653.660	0.0170268
653.738	0.0170201
653.817	0.0171230
653.895	0.0170760
653.973	0.0168827
654.051	0.0169589
654.129	0.0171562
654.207	0.0172588
654.285	0.0171494
654.363	0.0171384
654.442	0.0169411
654.520	0.0170736
654.598	0.0171120
654.676	0.0171779
654.754	0.0170940
654.832	0.0170824
654.910	0.0169699
654.988	0.0170782
655.067	0.0171288
655.145	0.0171906
655.223	0.0171404
655.301	0.0171283
655.379	0.0171735
655.457	0.0171973
655.535	0.0171267
655.613	0.0171436
655.692	0.0171548
655.770	0.0171259
655.848	0.0172180
655.926	0.0171613
656.004	0.0171203
656.082	0.0171599
656.160	0.0172076
656.238	0.0170812
656.317	0.0171801
656.395	0.0170594
656.473	0.0170022
656.551	0.0170390
656.629	0.0171694
656.707	0.0172215
656.785	0.0169498
656.863	0.0171155
656.942	0.0171657
657.020	0.0170779
657.098	0.0171535
657.176	0.0171252
657.254	0.0170380
657.332	0.0169984
657.410	0.0171566
657.488	0.0171481
657.567	0.0171870
657.645	0.0172576
657.723	0.0169571
657.801	0.0171584
657.879	0.0170068
657.957	0.0170233
658.035	0.0171489
658.113	0.0170947
658.192	0.0171975
658.270	0.0170909
658.348	0.0170686
658.426	0.0172698
658.504	0.0171340
658.582	0.0170615
658.660	0.0171686
658.738	0.0171201
658.817	0.0171466
658.895	0.0172063
658.973	0.0170267
659.051	0.0171043
659.129	0.0171545
659.207	0.0171301
659.285	0.0170216
659.363	0.0171519
659.442	0.0171691
659.520	0.0172209
659.598	0.0172343
659.676	0.0171803
659.754	0.0173001
659.832	0.0171072
659.910	0.0170846
659.988	0.0172863
660.067	0.0171049
660.145	0.0171796
660.223	0.0171720
660.301	0.0171768
660.379	0.0172813
660.457	0.0171517
660.535	0.0172264
660.613	0.0172734
660.692	0.0172561
660.770	0.0171453
660.848	0.0171479
660.926	0.0173497
661.004	0.0172487
661.082	0.0171761
661.160	0.0170557
661.238	0.0171349
661.317	0.0172885
661.395	0.0171754
661.473	0.0171350
661.551	0.0172827
661.629	0.0173135
661.707	0.0172970
661.785	0.0171260
661.863	0.0172763
661.942	0.0171172
662.020	0.0171015
662.098	0.0171773
662.176	0.0172543
662.254	0.0173893
662.332	0.0170959
662.410	0.0170863
662.488	0.0171597
662.567	0.0172151
662.645	0.0170776
662.723	0.0171519
662.801	0.0173014
662.879	0.0171432
662.957	0.0171227
663.035	0.0171971
663.113	0.0172211
663.192	0.0171606
663.270	0.0172080
663.348	0.0171957
663.426	0.0172078
663.504	0.0172486
663.582	0.0171159
663.660	0.0170779
663.738	0.0172184
663.817	0.0173041
663.895	0.0172204
663.973	0.0170814
664.051	0.0172993
664.129	0.0171721
664.207	0.0171970
664.285	0.0170452
664.363	0.0170708
664.442	0.0171159
664.520	0.0170712
664.598	0.0172486
664.676	0.0171573
664.754	0.0170811
664.832	0.0171229
664.910	0.0171375
664.988	0.0170818
665.067	0.0172580
665.145	0.0170355
665.223	0.0171572
665.301	0.0171667
665.379	0.0170679
665.457	0.0171243
665.535	0.0171763
665.613	0.0170469
665.692	0.0171410
665.770	0.0170813
665.848	0.0170625
665.926	0.0171056
666.004	0.0170997
666.082	0.0171154
666.160	0.0171011
666.238	0.0172737
666.317	0.0171234
666.395	0.0170751
666.473	0.0170226
666.551	0.0170283
666.629	0.0171928
666.707	0.0169985
666.785	0.0171768
666.863	0.0170457
666.942	0.0170913
667.020	0.0171191
667.098	0.0171360
667.176	0.0170718
667.254	0.0169250
667.332	0.0170673
667.410	0.0170270
667.488	0.0170566
667.567	0.0171951
667.645	0.0171780
667.723	0.0170590
667.801	0.0170029
667.879	0.0170069
667.957	0.0170811
668.035	0.0170067
668.113	0.0171392
668.192	0.0171371
668.270	0.0170717
668.348	0.0171432
668.426	0.0170288
668.504	0.0170394
668.582	0.0170319
668.660	0.0170182
668.738	0.0171104
668.817	0.0170161
668.895	0.0169791
668.973	0.0170499
669.051	0.0170466
669.129	0.0170138
669.207	0.0170116
669.285	0.0170758
669.363	0.0171459
669.442	0.0170336
669.520	0.0170546
669.598	0.0171164
669.676	0.0170111
669.754	0.0170800
669.832	0.0168873
669.910	0.0171042
669.988	0.0171151
670.067	0.0170451
670.145	0.0170567
670.223	0.0169691
670.301	0.0170431
670.379	0.0170151
670.457	0.0170535
670.535	0.0170426
670.613	0.0169057
670.692	0.0168998
670.770	0.0170043
670.848	0.0169515
670.926	0.0168559
671.004	0.0168564
671.082	0.0170545
671.160	0.0170447
671.238	0.0170256
671.317	0.0168518
671.395	0.0170389
671.473	0.0171185
671.551	0.0170111
671.629	0.0171278
671.707	0.0171224
671.785	0.0168224
671.863	0.0168615
671.942	0.0170081
672.020	0.0171034
672.098	0.0170590
672.176	0.0169367
672.254	0.0168736
672.332	0.0169267
672.410	0.0170368
672.488	0.0169429
672.567	0.0169548
672.645	0.0169527
672.723	0.0170477
672.801	0.0169320
672.879	0.0169234
672.957	0.0169607
673.035	0.0170514
673.113	0.0169576
673.192	0.0169775
673.270	0.0170599
673.348	0.0169748
673.426	0.0170491
673.504	0.0169906
673.582	0.0169243
673.660	0.0171773
673.738	0.0171581
673.817	0.0170843
673.895	0.0169599
673.973	0.0170168
674.051	0.0170779
674.129	0.0171324
674.207	0.0170728
674.285	0.0170275
674.363	0.0170432
674.442	0.0169962
674.520	0.0169611
674.598	0.0170654
674.676	0.0170663
674.754	0.0169978
674.832	0.0171352
674.910	0.0171290
674.988	0.0170393
675.067	0.0171726
675.145	0.0169143
675.223	0.0170012
675.301	0.0170129
675.379	0.0169727
675.457	0.0170543
675.535	0.0170806
675.613	0.0170274
675.692	0.0170992
675.770	0.0172421
675.848	0.0171844
675.926	0.0170717
676.004	0.0171249
676.082	0.0170421
676.160	0.0170225
676.238	0.0170146
676.317	0.0171114
676.395	0.0170332
676.473	0.0172054
676.551	0.0170905
676.629	0.0171109
676.707	0.0170819
676.785	0.0172282
676.863	0.0171467
676.942	0.0170789
677.020	0.0171229
677.098	0.0170720
677.176	0.0171123
677.254	0.0171116
677.332	0.0170792
677.410	0.0171745
677.488	0.0169882
677.567	0.0170979
677.645	0.0171639
677.723	0.0173243
677.801	0.0171519
677.879	0.0171455
677.957	0.0171243
678.035	0.0171808
678.113	0.0171194
678.192	0.0172019
678.270	0.0171958
678.348	0.0171315
678.426	0.0171787
678.504	0.0170356
678.582	0.0171149
678.660	0.0172830
678.738	0.0170711
678.817	0.0171852
678.895	0.0171227
678.973	0.0171358
679.051	0.0172385
679.129	0.0172112
679.207	0.0171535
679.285	0.0170644
679.363	0.0172295
679.442	0.0173235
679.520	0.0172144
679.598	0.0171836
679.676	0.0172591
679.754	0.0171404
679.832	0.0171609
679.910	0.0171626
679.988	0.0171920
680.067	0.0172147
680.145	0.0172967
680.223	0.0172241
680.301	0.0171584
680.379	0.0172130
680.457	0.0172162
680.535	0.0172057
680.613	0.0171821
680.692	0.0172182
680.770	0.0172016
680.848	0.0172427
680.926	0.0172198
681.004	0.0171073
681.082	0.0172258
681.160	0.0172906
681.238	0.0171486
681.317	0.0172582
681.395	0.0171398
681.473	0.0171590
681.551	0.0171421
681.629	0.0172677
681.707	0.0173270
681.785	0.0171871
681.863	0.0172913
681.942	0.0172025
682.020	0.0172758
682.098	0.0172636
682.176	0.0171187
682.254	0.0170910
682.332	0.0171462
682.410	0.0171734
682.488	0.0172189
682.567	0.0172208
682.645	0.0171140
682.723	0.0171104
682.801	0.0173621
682.879	0.0171976
682.957	0.0170790
683.035	0.0172227
683.113	0.0172395
683.192	0.0172878
683.270	0.0171463
683.348	0.0171960
683.426	0.0170883
683.504	0.0172100
683.582	0.0171128
683.660	0.0172066
683.738	0.0173178
683.817	0.0171280
683.895	0.0171742
683.973	0.0172762
684.051	0.0171066
684.129	0.0172441
684.207	0.0173279
684.285	0.0170783
684.363	0.0171467
684.442	0.0173045
684.520	0.0171308
684.598	0.0170615
684.676	0.0173219
684.754	0.0172663
684.832	0.0171933
684.910	0.0171777
684.988	0.0171040
685.067	0.0170811
685.145	0.0171470
685.223	0.0171757
685.301	0.0171550
685.379	0.0172446
685.457	0.0172395
685.535	0.0172087
685.613	0.0171239
685.692	0.0170565
685.770	0.0172428
685.848	0.0170898
685.926	0.0172742
686.004	0.0171040
686.082	0.0171423
686.160	0.0171697
686.238	0.0170731
686.317	0.0171693
686.395	0.0171843
686.473	0.0170827
686.551	0.0171632
686.629	0.0172041
686.707	0.0171161
686.785	0.0172092
686.863	0.0172504
686.942	0.0171884
687.020	0.0171133
687.098	0.0171297
687.176	0.0170829
687.254	0.0171896
687.332	0.0170110
687.410	0.0169900
687.488	0.0170623
687.567	0.0171603
687.645	0.0171654
687.723	0.0171063
687.801	0.0170965
687.879	0.0171002
687.957	0.0170724
688.035	0.0171014
688.113	0.0171493
688.192	0.0171035
688.270	0.0170644
688.348	0.0170435
688.426	0.0169749
688.504	0.0171170
688.582	0.0171384
688.660	0.0170627
688.738	0.0170271
688.817	0.0171049
688.895	0.0170840
688.973	0.0170787
689.051	0.0171174
689.129	0.0172205
689.207	0.0170742
689.285	0.0170091
689.363	0.0170517
689.442	0.0170793
689.520	0.0169691
689.598	0.0170098
689.676	0.0169926
689.754	0.0169752
689.832	0.0169958
689.910	0.0170791
689.988	0.0171008
690.067	0.0170795
690.145	0.0170732
690.223	0.0171337
690.301	0.0170237
690.379	0.0169364
690.457	0.0171453
690.535	0.0170485
690.613	0.0170423
690.692	0.0170443
690.770	0.0170779
690.848	0.0170733
690.926	0.0170322
691.004	0.0170589
691.082	0.0169828
691.160	0.0168916
691.238	0.0170473
691.317	0.0170448
691.395	0.0170557
691.473	0.0168790
691.551	0.0170621
691.629	0.0169640
691.707	0.0169130
691.785	0.0168851
691.863	0.0171817
691.942	0.0169874
692.020	0.0168943
692.098	0.0170663
692.176	0.0169241
692.254	0.0169656
692.332	0.0171117
692.410	0.0170908
692.488	0.0169696
692.567	0.0169733
692.645	0.0169440
692.723	0.0169838
692.801	0.0169901
692.879	0.0170756
692.957	0.0168959
693.035	0.0170723
693.113	0.0169811
693.192	0.0169675
693.270	0.0170471
693.348	0.0169918
693.426	0.0170477
693.504	0.0169611
693.582	0.0169848
693.660	0.0170305
693.738	0.0170096
693.817	0.0169978
693.895	0.0170770
693.973	0.0171237
694.051	0.0169530
694.129	0.0171049
694.207	0.0170351
694.285	0.0169274
694.363	0.0169724
694.442	0.0169809
694.520	0.0171334
694.598	0.0171927
694.676	0.0169952
694.754	0.0170330
694.832	0.0171519
694.910	0.0171002
694.988	0.0170039
695.067	0.0169997
695.145	0.0171401
695.223	0.0170251
695.301	0.0171299
695.379	0.0170593
695.457	0.0170397
695.535	0.0170644
695.613	0.0170848
695.692	0.0170973
695.770	0.0170808
695.848	0.0170939
695.926	0.0170940
696.004	0.0169319
696.082	0.0170522
696.160	0.0171004
696.238	0.0170129
696.317	0.0170496
696.395	0.0169544
696.473	0.0172143
696.551	0.0168910
696.629	0.0169924
696.707	0.0172302
696.785	0.0171008
696.863	0.0170872
696.942	0.0170850
697.020	0.0171182
697.098	0.0169701
697.176	0.0170934
697.254	0.0170761
697.332	0.0170734
697.410	0.0170564
697.488	0.0169979
697.567	0.0172005
697.645	0.0172071
697.723	0.0169819
697.801	0.0170331
697.879	0.0170626
697.957	0.0171056
698.035	0.0171363
698.113	0.0169632
698.192	0.0170624
698.270	0.0170644
698.348	0.0171341
698.426	0.0170263
698.504	0.0170291
698.582	0.0170076
698.660	0.0169646
698.738	0.0171792
698.817	0.0171145
698.895	0.0171889
698.973	0.0171437
699.051	0.0170397
699.129	0.0172363
699.207	0.0171013
699.285	0.0171716
699.363	0.0171010
699.442	0.0172176
699.520	0.0172283
699.598	0.0171567
699.676	0.0170581
699.754	0.0172020
699.832	0.0171303
699.910	0.0170852
699.988	0.0171850
700.067	0.0171683
700.145	0.0171010
700.223	0.0171300
700.301	0.0171991
700.379	0.0170432
700.457	0.0170257
700.535	0.0173106
700.613	0.0171530
700.692	0.0170404
700.770	0.0171867
700.848	0.0171661
700.926	0.0172060
701.004	0.0171534
701.082	0.0172350
701.160	0.0172177
701.238	0.0172833
701.317	0.0172523
701.395	0.0172091
701.473	0.0171726
701.551	0.0172514
701.629	0.0171745
701.707	0.0171027
701.785	0.0172459
701.863	0.0171854
701.942	0.0171508
702.020	0.0171305
702.098	0.0173084
702.176	0.0170911
702.254	0.0171579
702.332	0.0172034
702.410	0.0171803
702.488	0.0171938
702.567	0.0172507
702.645	0.0172047
702.723	0.0172536
702.801	0.0171163
702.879	0.0172485
702.957	0.0173922
703.035	0.0171423
703.113	0.0171475
703.192	0.0172363
703.270	0.0172372
703.348	0.0171851
703.426	0.0170686
703.504	0.0171368
703.582	0.0171742
703.660	0.0173235
703.738	0.0172421
703.817	0.0171890
703.895	0.0171992
703.973	0.0172063
704.051	0.0171049
704.129	0.0172381
704.207	0.0172646
704.285	0.0171898
704.363	0.0172079
704.442	0.0172441
704.520	0.0171179
704.598	0.0171936
704.676	0.0171332
704.754	0.0171915
704.832	0.0170624
704.910	0.0172200
704.988	0.0172308
705.067	0.0171948
705.145	0.0170737
705.223	0.0172009
705.301	0.0172610
705.379	0.0170683
705.457	0.0172106
705.535	0.0172791
705.613	0.0172366
705.692	0.0172306
705.770	0.0170514
705.848	0.0171803
705.926	0.0172801
706.004	0.0172089
706.082	0.0171114
706.160	0.0171183
706.238	0.0173396
706.317	0.0172053
706.395	0.0171538
706.473	0.0170280
706.551	0.0170361
706.629	0.0171270
706.707	0.0171661
706.785	0.0171880
706.863	0.0172827
706.942	0.0171503
707.020	0.0171146
707.098	0.0171047
707.176	0.0171640
707.254	0.0170113
707.332	0.0171747
707.410	0.0172107
707.488	0.0172421
707.567	0.0170370
707.645	0.0171622
707.723	0.0171445
707.801	0.0171253
707.879	0.0170104
707.957	0.0170933
708.035	0.0171712
708.113	0.0172089
708.192	0.0171465
708.270	0.0171526
708.348	0.0171263
708.426	0.0170876
708.504	0.0171584
708.582	0.0170839
708.660	0.0170718
708.738	0.0171935
708.817	0.0170322
708.895	0.0172057
708.973	0.0171181
709.051	0.0171050
709.129	0.0171372
709.207	0.0170936
709.285	0.0170991
709.363	0.0171882
709.442	0.0170702
709.520	0.0170763
709.598	0.0171211
709.676	0.0171909
709.754	0.0171532
709.832	0.0172005
709.910	0.0171122
709.988	0.0172221
710.067	0.0172012
710.145	0.0171486
710.223	0.0171481
710.301	0.0171225
710.379	0.0172911
710.457	0.0171753
710.535	0.0171664
710.613	0.0172039
710.692	0.0170895
710.770	0.0170196
710.848	0.0170436
710.926	0.0172728
711.004	0.0170715
711.082	0.0171563
711.160	0.0170951
711.238	0.0171319
711.317	0.0170899
711.395	0.0171057
711.473	0.0170960
711.551	0.0171452
711.629	0.0170335
711.707	0.0170802
711.785	0.0170932
711.863	0.0172757
711.942	0.0172278
712.020	0.0171464
712.098	0.0171227
712.176	0.0171668
712.254	0.0170805
712.332	0.0170797
712.410	0.0171548
712.488	0.0171754
712.567	0.0171980
712.645	0.0171097
712.723	0.0172275
712.801	0.0171153
712.879	0.0172304
712.957	0.0171343
713.035	0.0171715
713.113	0.0170967
713.192	0.0170628
713.270	0.0171190
713.348	0.0170322
713.426	0.0170872
713.504	0.0171269
713.582	0.0171710
713.660	0.0171378
713.738	0.0170307
713.817	0.0170885
713.895	0.0170729
713.973	0.0170775
714.051	0.0169618
714.129	0.0171078
714.207	0.0170734
714.285	0.0169962
714.363	0.0171420
714.442	0.0170052
714.520	0.0170010
714.598	0.0170710
714.676	0.0172369
714.754	0.0171772
714.832	0.0171156
714.910	0.0171800
714.988	0.0169906
715.067	0.0170655
715.145	0.0172064
715.223	0.0171426
715.301	0.0171615
715.379	0.0169508
715.457	0.0171259
715.535	0.0171151
715.613	0.0170583
715.692	0.0171737
715.770	0.0169798
715.848	0.0168958
715.926	0.0172303
716.004	0.0171250
716.082	0.0169992
716.160	0.0171911
716.238	0.0171367
716.317	0.0170469
716.395	0.0169563
716.473	0.0170346
716.551	0.0170755
716.629	0.0170337
716.707	0.0170953
716.785	0.0172031
716.863	0.0172105
716.942	0.0170149
717.020	0.0170430
717.098	0.0170465
717.176	0.0170610
717.254	0.0169920
717.332	0.0170061
717.410	0.0170673
717.488	0.0171634
717.567	0.0170967
717.645	0.0170679
717.723	0.0170724
717.801	0.0170372
717.879	0.0170507
717.957	0.0170931
718.035	0.0170930
718.113	0.0170932
718.192	0.0170551
718.270	0.0170412
718.348	0.0172318
718.426	0.0170574
718.504	0.0171192
718.582	0.0171445
718.660	0.0171419
718.738	0.0171701
718.817	0.0169861
718.895	0.0170991
718.973	0.0169856
719.051	0.0172136
719.129	0.0169791
719.207	0.0169308
719.285	0.0169863
719.363	0.0170757
719.442	0.0171387
719.520	0.0171072
719.598	0.0171415
719.676	0.0171811
719.754	0.0170866
719.832	0.0170436
719.910	0.0170432
719.988	0.0170618
720.067	0.0170697
720.145	0.0170551
720.223	0.0170022
720.301	0.0169752
720.379	0.0172475
720.457	0.0171204
720.535	0.0170567
720.613	0.0170130
720.692	0.0168752
720.770	0.0171671
720.848	0.0171264
720.926	0.0170046
721.004	0.0169747
721.082	0.0171745
721.160	0.0170337
721.238	0.0170403
721.317	0.0170713
721.395	0.0170248
721.473	0.0171046
721.551	0.0171891
721.629	0.0171932
721.707	0.0172021
721.785	0.0170074
721.863	0.0170306
721.942	0.0171568
722.020	0.0170690
722.098	0.0170393
722.176	0.0171655
722.254	0.0172414
722.332	0.0171797
722.410	0.0169767
722.488	0.0170313
722.567	0.0171506
722.645	0.0170542
722.723	0.0170618
722.801	0.0171725
722.879	0.0171646
722.957	0.0171938
723.035	0.0171011
723.113	0.0171461
723.192	0.0171142
723.270	0.0170480
723.348	0.0170864
723.426	0.0171553
723.504	0.0170099
723.582	0.0170332
723.660	0.0171145
723.738	0.0172371
723.817	0.0170841
723.895	0.0170675
723.973	0.0171300
724.051	0.0171597
724.129	0.0171632
724.207	0.0172207
724.285	0.0172689
724.363	0.0171525
724.442	0.0170864
724.520	0.0170697
724.598	0.0171464
724.676	0.0172132
724.754	0.0172151
724.832	0.0171284
724.910	0.0171577
724.988	0.0171214
725.067	0.0173029
725.145	0.0170648
725.223	0.0170724
725.301	0.0171656
725.379	0.0170551
725.457	0.0171908
725.535	0.0170132
725.613	0.0171352
725.692	0.0173508
725.770	0.0170611
725.848	0.0171568
725.926	0.0171661
726.004	0.0171740
726.082	0.0171284
726.160	0.0170014
726.238	0.0170966
726.317	0.0171413
726.395	0.0171981
726.473	0.0170238
726.551	0.0171896
726.629	0.0171407
726.707	0.0171306
726.785	0.0170175
726.863	0.0171735
726.942	0.0172034
727.020	0.0171880
727.098	0.0172444
727.176	0.0170293
727.254	0.0172448
727.332	0.0172099
727.410	0.0171734
727.488	0.0171082
727.567	0.0172555
727.645	0.0170217
727.723	0.0170994
727.801	0.0171817
727.879	0.0170544
727.957	0.0171821
728.035	0.0172163
728.113	0.0171478
728.192	0.0172250
728.270	0.0171217
728.348	0.0172321
728.426	0.0171078
728.504	0.0170554
728.582	0.0171552
728.660	0.0172576
728.738	0.0172456
728.817	0.0171693
728.895	0.0171342
728.973	0.0172301
729.051	0.0170720
729.129	0.0171846
729.207	0.0171223
729.285	0.0170228
729.363	0.0172017
729.442	0.0171411
729.520	0.0170876
729.598	0.0172575
729.676	0.0172428
729.754	0.0172038
729.832	0.0172672
729.910	0.0172129
729.988	0.0172220
730.067	0.0173042
730.145	0.0172240
730.223	0.0171975
730.301	0.0172537
730.379	0.0172238
730.457	0.0171894
730.535	0.0172086
730.613	0.0171104
730.692	0.0170269
730.770	0.0169877
730.848	0.0171183
730.926	0.0170585
731.004	0.0169642
731.082	0.0169682
731.160	0.0172725
731.238	0.0170135
731.317	0.0170261
731.395	0.0171836
731.473	0.0171303
731.551	0.0170892
731.629	0.0170623
731.707	0.0172163
731.785	0.0172482
731.863	0.0174777
731.942	0.0174168
732.020	0.0174317
732.098	0.0174742
732.176	0.0174862
732.254	0.0173988
732.332	0.0173228
732.410	0.0173615
732.488	0.0173287
732.567	0.0172070
732.645	0.0169980
732.723	0.0169595
732.801	0.0168211
732.879	0.0166926
732.957	0.0165501
733.035	0.0166508
733.113	0.0165665
733.192	0.0166275
733.270	0.0166607
733.348	0.0168802
733.426	0.0169794
733.504	0.0170204
733.582	0.0170755
733.660	0.0173294
733.738	0.0176163
733.817	0.0174953
733.895	0.0174611
733.973	0.0175565
734.051	0.0176427
734.129	0.0175170
734.207	0.0175807
734.285	0.0174792
734.363	0.0174364
734.442	0.0174480
734.520	0.0172849
734.598	0.0171519
734.676	0.0169302
734.754	0.0170499
734.832	0.0169349
734.910	0.0168719
734.988	0.0166737
735.067	0.0165881
735.145	0.0164811
735.223	0.0164697
735.301	0.0164559
735.379	0.0164342
735.457	0.0164939
735.535	0.0165672
735.613	0.0165749
735.692	0.0167130
735.770	0.0168061
735.848	0.0169548
735.926	0.0169363
736.004	0.0173352
736.082	0.0174136
736.160	0.0175012
736.238	0.0176463
736.317	0.0177935
736.395	0.0179197
736.473	0.0179424
736.551	0.0179018
736.629	0.0178127
736.707	0.0177545
736.785	0.0175881
736.863	0.0173378
736.942	0.0172253
737.020	0.0169203
737.098	0.0167683
737.176	0.0165271
737.254	0.0162817
737.332	0.0162042
737.410	0.0162688
737.488	0.0160609
737.567	0.0162170
737.645	0.0161607
737.723	0.0162630
737.801	0.0164925
737.879	0.0165205
737.957	0.0167862
738.035	0.0170103
738.113	0.0172086
738.192	0.0173128
738.270	0.0175317
738.348	0.0177291
738.426	0.0179037
738.504	0.0179708
738.582	0.0178980
738.660	0.0178718
738.738	0.0179408
738.817	0.0178060
738.895	0.0177002
738.973	0.0176480
739.051	0.0173347
739.129	0.0173039
739.207	0.0172165
739.285	0.0168310
739.363	0.0166330
739.442	0.0166465
739.520	0.0165463
739.598	0.0165466
739.676	0.0165826
739.754	0.0164798
739.832	0.0163657
739.910	0.0165207
739.988	0.0165151
740.067	0.0167102
740.145	0.0166171
740.223	0.0167238
740.301	0.0167992
740.379	0.0169076
740.457	0.0170735
740.535	0.0171706
740.613	0.0172672
740.692	0.0173036
740.770	0.0174387
740.848	0.0173937
740.926	0.0176492
741.004	0.0175742
741.082	0.0174045
741.160	0.0174913
741.238	0.0174061
741.317	0.0173713
741.395	0.0174454
741.473	0.0171858
741.551	0.0172314
741.629	0.0171607
741.707	0.0170245
741.785	0.0169788
741.863	0.0169001
741.942	0.0170214
742.020	0.0167447
742.098	0.0167953
742.176	0.0167989
742.254	0.0167202
742.332	0.0169358
742.410	0.0170216
742.488	0.0168664
742.567	0.0169170
742.645	0.0170644
742.723	0.0169632
742.801	0.0170482
742.879	0.0170260
742.957	0.0171042
743.035	0.0172363
743.113	0.0171733
743.192	0.0172178
743.270	0.0171004
743.348	0.0171021
743.426	0.0171317
743.504	0.0170586
743.582	0.0169646
743.660	0.0171862
743.738	0.0172688
743.817	0.0171150
743.895	0.0170685
743.973	0.0172131
744.051	0.0172667
744.129	0.0173557
744.207	0.0173885
744.285	0.0173299
744.363	0.0172643
744.442	0.0172074
744.520	0.0174458
744.598	0.0173936
744.676	0.0173349
744.754	0.0172247
744.832	0.0173735
744.910	0.0171984
744.988	0.0170270
745.067	0.0170300
745.145	0.0170471
745.223	0.0169264
745.301	0.0167405
745.379	0.0168421
745.457	0.0167609
745.535	0.0170426
745.613	0.0167931
745.692	0.0169157
745.770	0.0169521
745.848	0.0169749
745.926	0.0170179
746.004	0.0171314
746.082	0.0170517
746.160	0.0170315
746.238	0.0170546
746.317	0.0171422
746.395	0.0172115
746.473	0.0172151
746.551	0.0170221
746.629	0.0170981
746.707	0.0171762
746.785	0.0173489
746.863	0.0172643
746.942	0.0171612
747.020	0.0170031
747.098	0.0172942
747.176	0.0172543
747.254	0.0171503
747.332	0.0170668
747.410	0.0170478
747.488	0.0170438
747.567	0.0171734
747.645	0.0172147
747.723	0.0171397
747.801	0.0172731
747.879	0.0171465
747.957	0.0170978
748.035	0.0170184
748.113	0.0171070
748.192	0.0170570
748.270	0.0172385
748.348	0.0172540
748.426	0.0170438
748.504	0.0171562
748.582	0.0170219
748.660	0.0170762
748.738	0.0171573
748.817	0.0171023
748.895	0.0170141
748.973	0.0170439
749.051	0.0170140
749.129	0.0170390
749.207	0.0171172
749.285	0.0170668
749.363	0.0170765
749.442	0.0170733
749.520	0.0169611
749.598	0.0169529
749.676	0.0169125
749.754	0.0171771
749.832	0.0171494
749.910	0.0171272
749.988	0.0172020
750.067	0.0172163
750.145	0.0174160
750.223	0.0174360
750.301	0.0173870
750.379	0.0172707
750.457	0.0172958
750.535	0.0174369
750.613	0.0173484
750.692	0.0173129
750.770	0.0171792
750.848	0.0170822
750.926	0.0171259
751.004	0.0172504
751.082	0.0171007
751.160	0.0170889
751.238	0.0168687
751.317	0.0169111
751.395	0.0168723
751.473	0.0168726
751.551	0.0168301
751.629	0.0167187
751.707	0.0168781
751.785	0.0167464
751.863	0.0169041
751.942	0.0169207
752.020	0.0169576
752.098	0.0171176
752.176	0.0170864
752.254	0.0170509
752.332	0.0172039
752.410	0.0172506
752.488	0.0173203
752.567	0.0174080
752.645	0.0174410
752.723	0.0174628
752.801	0.0174417
752.879	0.0172794
752.957	0.0171796
753.035	0.0172579
753.113	0.0172092
753.192	0.0171569
753.270	0.0171324
753.348	0.0169455
753.426	0.0170264
753.504	0.0169119
753.582	0.0170979
753.660	0.0169544
753.738	0.0169315
753.817	0.0170625
753.895	0.0168900
753.973	0.0169952
754.051	0.0169746
754.129	0.0169218
754.207	0.0170469
754.285	0.0169249
754.363	0.0171027
754.442	0.0169807
754.520	0.0170953
754.598	0.0171610
754.676	0.0170142
754.754	0.0171146
754.832	0.0171619
754.910	0.0172345
754.988	0.0172488
755.067	0.0170879
755.145	0.0173018
755.223	0.0173380
755.301	0.0172661
755.379	0.0173946
755.457	0.0170660
755.535	0.0173020
755.613	0.0172836
755.692	0.0173705
755.770	0.0172321
755.848	0.0171994
755.926	0.0171017
756.004	0.0171874
756.082	0.0171626
756.160	0.0171650
756.238	0.0170902
756.317	0.0172110
756.395	0.0171694
756.473	0.0172026
756.551	0.0171438
756.629	0.0170699
756.707	0.0171691
756.785	0.0171162
756.863	0.0170517
756.942	0.0170202
757.020	0.0171413
757.098	0.0172231
757.176	0.0169871
757.254	0.0170079
757.332	0.0170739
757.410	0.0170729
757.488	0.0170470
757.567	0.0170986
757.645	0.0170710
757.723	0.0171806
757.801	0.0172221
757.879	0.0171376
757.957	0.0171246
758.035	0.0170742
758.113	0.0170972
758.192	0.0172671
758.270	0.0172409
758.348	0.0172787
758.426	0.0174175
758.504	0.0173859
758.582	0.0174564
758.660	0.0173407
758.738	0.0172361
758.817	0.0172283
758.895	0.0172737
758.973	0.0173069
759.051	0.0172388
759.129	0.0172011
759.207	0.0170796
759.285	0.0171754
759.363	0.0171523
759.442	0.0171271
759.520	0.0170938
759.598	0.0171021
759.676	0.0170020
759.754	0.0169937
759.832	0.0171394
759.910	0.0170527
759.988	0.0169887
760.067	0.0171210
760.145	0.0170718
760.223	0.0170217
760.301	0.0170506
760.379	0.0170026
760.457	0.0169960
760.535	0.0170972
760.613	0.0171393
760.692	0.0171223
760.770	0.0172836
760.848	0.0173357
760.926	0.0172137
761.004	0.0172602
761.082	0.0171838
761.160	0.0172266
761.238	0.0172458
761.317	0.0173163
761.395	0.0172082
761.473	0.0172260
761.551	0.0171873
761.629	0.0171954
761.707	0.0169846
761.785	0.0171106
761.863	0.0169547
761.942	0.0168247
762.020	0.0169434
762.098	0.0168192
762.176	0.0168793
762.254	0.0169723
762.332	0.0168633
762.410	0.0167599
762.488	0.0168063
762.567	0.0167808
762.645	0.0168674
762.723	0.0168414
762.801	0.0170399
762.879	0.0170248
762.957	0.0170744
763.035	0.0171325
763.113	0.0172233
763.192	0.0173051
763.270	0.0174339
763.348	0.0175054
763.426	0.0174901
763.504	0.0175245
763.582	0.0176286
763.660	0.0175001
763.738	0.0174319
763.817	0.0174310
763.895	0.0175715
763.973	0.0174026
764.051	0.0173132
764.129	0.0172021
764.207	0.0171477
764.285	0.0169930
764.363	0.0168538
764.442	0.0169092
764.520	0.0165560
764.598	0.0167264
764.676	0.0167560
764.754	0.0166945
764.832	0.0166579
764.910	0.0166280
764.988	0.0168127
765.067	0.0167428
765.145	0.0168742
765.223	0.0170408
765.301	0.0169568
765.379	0.0169515
765.457	0.0169849
765.535	0.0172963
765.613	0.0172392
765.692	0.0173833
765.770	0.0172322
765.848	0.0175642
765.926	0.0175438
766.004	0.0176034
766.082	0.0175773
766.160	0.0175867
766.238	0.0175758
766.317	0.0176334
766.395	0.0176168
766.473	0.0175652
766.551	0.0172907
766.629	0.0173843
766.707	0.0171890
766.785	0.0170478
766.863	0.0170206
766.942	0.0169467
767.020	0.0167615
767.098	0.0166476
767.176	0.0168334
767.254	0.0165339
767.332	0.0164771
767.410	0.0164661
767.488	0.0165096
767.567	0.0164879
767.645	0.0166048
767.723	0.0166357
767.801	0.0169195
767.879	0.0168266
767.957	0.0168888
768.035	0.0170824
768.113	0.0171474
768.192	0.0173193
768.270	0.0175593
768.348	0.0175127
768.426	0.0176148
768.504	0.0176283
768.582	0.0177137
768.660	0.0176449
768.738	0.0175857
768.817	0.0178090
768.895	0.0177739
768.973	0.0178007
769.051	0.0176691
769.129	0.0177056
769.207	0.0175545
769.285	0.0172990
769.363	0.0173563
769.442	0.0172208
769.520	0.0171837
769.598	0.0171369
769.676	0.0170022
769.754	0.0168660
769.832	0.0168110
769.910	0.0168694
769.988	0.0167083
770.067	0.0165589
770.145	0.0166864
770.223	0.0167215
770.301	0.0167030
770.379	0.0169228
770.457	0.0168074
770.535	0.0168153
770.613	0.0167969
770.692	0.0168142
770.770	0.0168279
770.848	0.0167774
770.926	0.0167555
771.004	0.0166296
771.082	0.0167145
771.160	0.0168150
771.238	0.0167202
771.317	0.0167912
771.395	0.0169482
771.473	0.0168526
771.551	0.0169290
771.629	0.0171041
771.707	0.0170313
771.785	0.0171742
771.863	0.0173299
771.942	0.0172320
772.020	0.0174534
772.098	0.0174809
772.176	0.0175217
772.254	0.0175798
772.332	0.0175865
772.410	0.0175989
772.488	0.0175430
772.567	0.0175651
772.645	0.0176925
772.723	0.0176659
772.801	0.0175723
772.879	0.0173823
772.957	0.0174953
773.035	0.0173248
773.113	0.0172279
773.192	0.0171791
773.270	0.0169628
773.348	0.0168764
773.426	0.0169470
773.504	0.0168354
773.582	0.0166371
773.660	0.0166892
773.738	0.0167649
773.817	0.0166378
773.895	0.0167920
773.973	0.0167190
774.051	0.0168778
774.129	0.0168151
774.207	0.0170084
774.285	0.0171466
774.363	0.0169147
774.442	0.0171028
774.520	0.0170420
774.598	0.0173119
774.676	0.0171786
774.754	0.0172183
774.832	0.0172498
774.910	0.0173151
774.988	0.0171678
775.067	0.0171001
775.145	0.0171957
775.223	0.0169199
775.301	0.0169097
775.379	0.0170029
775.457	0.0169070
775.535	0.0168396
775.613	0.0168470
775.692	0.0168420
775.770	0.0167880
775.848	0.0169180
775.926	0.0169625
776.004	0.0169224
776.082	0.0169724
776.160	0.0168224
776.238	0.0169012
776.317	0.0169954
776.395	0.0171197
776.473	0.0170872
776.551	0.0171640
776.629	0.0174622
776.707	0.0174330
776.785	0.0175525
776.863	0.0175296
776.942	0.0176502
777.020	0.0178104
777.098	0.0176545
777.176	0.0177306
777.254	0.0175688
777.332	0.0174962
777.410	0.0173697
777.488	0.0174112
777.567	0.0173052
777.645	0.0171169
777.723	0.0170426
777.801	0.0168469
777.879	0.0169311
777.957	0.0168077
778.035	0.0166064
778.113	0.0167070
778.192	0.0167296
778.270	0.0167682
778.348	0.0167696
778.426	0.0169675
778.504	0.0170806
778.582	0.0173777
778.660	0.0172755
778.738	0.0174543
778.817	0.0176955
778.895	0.0177536
778.973	0.0177053
779.051	0.0176952
779.129	0.0177131
779.207	0.0176268
779.285	0.0174887
779.363	0.0175283
779.442	0.0173971
779.520	0.0173213
779.598	0.0171809
779.676	0.0171568
779.754	0.0169884
779.832	0.0169207
779.910	0.0167555
779.988	0.0168264
780.067	0.0167352
780.145	0.0167142
780.223	0.0168043
780.301	0.0166628
780.379	0.0166792
780.457	0.0166634
780.535	0.0166832
780.613	0.0166557
780.692	0.0168159
780.770	0.0167506
780.848	0.0167533
780.926	0.0167550
781.004	0.0168150
781.082	0.0167267
781.160	0.0168108
781.238	0.0168042
781.317	0.0168763
781.395	0.0169144
781.473	0.0168760
781.551	0.0171208
781.629	0.0171719
781.707	0.0173085
781.785	0.0172108
781.863	0.0173354
781.942	0.0176186
782.020	0.0175688
782.098	0.0175794
782.176	0.0177962
782.254	0.0177910
782.332	0.0179531
782.410	0.0180793
782.488	0.0179698
782.567	0.0179015
782.645	0.0178922
782.723	0.0179366
782.801	0.0178582
782.879	0.0178170
782.957	0.0177976
783.035	0.0177000
783.113	0.0175964
783.192	0.0176987
783.270	0.0173959
783.348	0.0173335
783.426	0.0171932
783.504	0.0171375
783.582	0.0168501
783.660	0.0168930
783.738	0.0168690
783.817	0.0168752
783.895	0.0168829
783.973	0.0168642
784.051	0.0168090
784.129	0.0169382
784.207	0.0167340
784.285	0.0166445
784.363	0.0167731
784.442	0.0167941
784.520	0.0167014
784.598	0.0167963
784.676	0.0166091
784.754	0.0164593
784.832	0.0162530
784.910	0.0163385
784.988	0.0162702
785.067	0.0161505
785.145	0.0160502
785.223	0.0160934
785.301	0.0161253
785.379	0.0162440
785.457	0.0163278
785.535	0.0161944
785.613	0.0161555
785.692	0.0164117
785.770	0.0165447
785.848	0.0166593
785.926	0.0168478
786.004	0.0168620
786.082	0.0170078
786.160	0.0171027
786.238	0.0173683
786.317	0.0174104
786.395	0.0176180
786.473	0.0176807
786.551	0.0178735
786.629	0.0180785
786.707	0.0182601
786.785	0.0183450
786.863	0.0184760
786.942	0.0184401
787.020	0.0184660
787.098	0.0185484
787.176	0.0185162
787.254	0.0184663
787.332	0.0184072
787.410	0.0182417
787.488	0.0182243
787.567	0.0180644
787.645	0.0178172
787.723	0.0177381
787.801	0.0175625
787.879	0.0173169
787.957	0.0172401
788.035	0.0170718
788.113	0.0170063
788.192	0.0167462
788.270	0.0167590
788.348	0.0167303
788.426	0.0165702
788.504	0.0165145
788.582	0.0165842
788.660	0.0165695
788.738	0.0164639
788.817	0.0164076
788.895	0.0162713
788.973	0.0163660
789.051	0.0162774
789.129	0.0163032
789.207	0.0162567
789.285	0.0162087
789.363	0.0162595
789.442	0.0163718
789.520	0.0162037
789.598	0.0161437
789.676	0.0161443
789.754	0.0163629
789.832	0.0163969
789.910	0.0163744
789.988	0.0163677
790.067	0.0163490
790.145	0.0163319
790.223	0.0164622
790.301	0.0164593
790.379	0.0165317
790.457	0.0164372
790.535	0.0164549
790.613	0.0165428
790.692	0.0165320
790.770	0.0166732
790.848	0.0167908
790.926	0.0168239
791.004	0.0168574
791.082	0.0171451
791.160	0.0175085
791.238	0.0174123
791.317	0.0175543
791.395	0.0177244
791.473	0.0179422
791.551	0.0180039
791.629	0.0182178
791.707	0.0184340
791.785	0.0183683
791.863	0.0185754
791.942	0.0186588
792.020	0.0186956
792.098	0.0186740
792.176	0.0186294
792.254	0.0189105
792.332	0.0186977
792.410	0.0186311
792.488	0.0186575
792.567	0.0184502
792.645	0.0181953
792.723	0.0180568
792.801	0.0178133
792.879	0.0177480
792.957	0.0174991
793.035	0.0171669
793.113	0.0168153
793.192	0.0167789
793.270	0.0166182
793.348	0.0163622
793.426	0.0161981
793.504	0.0159023
793.582	0.0158601
793.660	0.0158219
793.738	0.0156757
793.817	0.0155589
793.895	0.0157106
793.973	0.0156724
794.051	0.0156942
794.129	0.0156049
794.207	0.0156091
794.285	0.0158141
794.363	0.0157594
794.442	0.0157229
794.520	0.0159017
794.598	0.0159039
794.676	0.0160411
794.754	0.0161047
794.832	0.0161348
794.910	0.0163206
794.988	0.0163160
795.067	0.0164526
795.145	0.0165337
795.223	0.0167424
795.301	0.0170838
795.379	0.0171212
795.457	0.0171751
795.535	0.0174370
795.613	0.0175966
795.692	0.0176361
795.770	0.0176863
795.848	0.0177956
795.926	0.0179309
796.004	0.0180228
796.082	0.0180450
796.160	0.0179554
796.238	0.0179928
796.317	0.0179649
796.395	0.0178142
796.473	0.0178265
796.551	0.0175756
796.629	0.0175511
796.707	0.0175130
796.785	0.0175204
796.863	0.0172670
796.942	0.0170983
797.020	0.0171828
797.098	0.0172633
797.176	0.0171899
797.254	0.0169917
797.332	0.0170757
797.410	0.0169781
797.488	0.0171727
797.567	0.0174082
797.645	0.0174670
797.723	0.0175155
797.801	0.0175450
797.879	0.0175726
797.957	0.0177607
798.035	0.0177514
798.113	0.0177582
798.192	0.0180128
798.270	0.0179087
798.348	0.0179443
798.426	0.0178879
798.504	0.0176772
798.582	0.0175610
798.660	0.0174895
798.738	0.0173731
798.817	0.0170843
798.895	0.0168471
798.973	0.0166982
799.051	0.0166817
799.129	0.0164746
799.207	0.0162283
799.285	0.0159230
799.363	0.0157595
799.442	0.0156853
799.520	0.0155968
799.598	0.0153972
799.676	0.0152596
799.754	0.0154030
799.832	0.0154634
799.910	0.0154417
799.988	0.0154074
800.067	0.0155014
800.145	0.0157169
800.223	0.0159529
800.301	0.0162939
800.379	0.0164571
800.457	0.0164912
800.535	0.0168550
800.613	0.0168358
800.692	0.0170961
800.770	0.0173637
800.848	0.0174741
800.926	0.0177129
801.004	0.0177740
801.082	0.0178018
801.160	0.0178381
801.238	0.0180943
801.317	0.0180682
801.395	0.0179398
801.473	0.0180434
801.551	0.0179697
801.629	0.0179665
801.707	0.0177553
801.785	0.0177261
801.863	0.0177290
801.942	0.0177749
802.020	0.0176812
802.098	0.0174587
802.176	0.0173212
802.254	0.0173187
802.332	0.0173641
802.410	0.0171001
802.488	0.0172173
802.567	0.0172055
802.645	0.0172601
802.723	0.0173592
802.801	0.0173240
802.879	0.0173647
802.957	0.0175683
803.035	0.0176836
803.113	0.0178185
803.192	0.0180049
803.270	0.0178902
803.348	0.0179847
803.426	0.0181487
803.504	0.0180785
803.582	0.0180365
803.660	0.0183675
803.738	0.0181657
803.817	0.0180236
803.895	0.0179848
803.973	0.0179000
804.051	0.0176402
804.129	0.0173381
804.207	0.0171520
804.285	0.0169509
804.363	0.0166019
804.442	0.0164189
804.520	0.0160503
804.598	0.0159527
804.676	0.0156448
804.754	0.0153468
804.832	0.0151612
804.910	0.0150338
804.988	0.0150403
805.067	0.0150640
805.145	0.0151414
805.223	0.0153026
805.301	0.0155051
805.379	0.0156500
805.457	0.0159840
805.535	0.0161015
805.613	0.0164407
805.692	0.0168270
805.770	0.0169965
805.848	0.0172174
805.926	0.0176321
806.004	0.0177110
806.082	0.0180972
806.160	0.0181522
806.238	0.0181620
806.317	0.0181474
806.395	0.0182449
806.473	0.0181091
806.551	0.0179794
806.629	0.0178899
806.707	0.0177489
806.785	0.0175996
806.863	0.0174774
806.942	0.0172151
807.020	0.0172144
807.098	0.0172524
807.176	0.0170724
807.254	0.0169714
807.332	0.0169823
807.410	0.0171302
807.488	0.0171635
807.567	0.0171421
807.645	0.0173112
807.723	0.0174886
807.801	0.0176014
807.879	0.0177005
807.957	0.0178014
808.035	0.0179591
808.113	0.0178357
808.192	0.0178088
808.270	0.0178233
808.348	0.0176613
808.426	0.0176753
808.504	0.0177536
808.582	0.0175317
808.660	0.0174944
808.738	0.0174159
808.817	0.0173242
808.895	0.0174183
808.973	0.0172866
809.051	0.0172794
809.129	0.0172198
809.207	0.0171284
809.285	0.0172063
809.363	0.0172371
809.442	0.0173284
809.520	0.0174058
809.598	0.0173606
809.676	0.0173598
809.754	0.0174638
809.832	0.0176565
809.910	0.0175125
809.988	0.0174574
810.067	0.0173107
810.145	0.0172754
810.223	0.0171223
810.301	0.0169636
810.379	0.0169096
810.457	0.0165320
810.535	0.0164079
810.613	0.0163774
810.692	0.0162958
810.770	0.0162154
810.848	0.0160466
810.926	0.0160596
811.004	0.0159315
811.082	0.0158924
811.160	0.0159884
811.238	0.0161802
811.317	0.0161964
811.395	0.0162312
811.473	0.0164170
811.551	0.0165381
811.629	0.0166662
811.707	0.0168405
811.785	0.0167857
811.863	0.0168657
811.942	0.0169389
812.020	0.0170437
812.098	0.0169463
812.176	0.0170386
812.254	0.0171224
812.332	0.0171587
812.410	0.0169531
812.488	0.0170113
812.567	0.0171468
812.645	0.0170950
812.723	0.0170567
812.801	0.0173740
812.879	0.0174023
812.957	0.0173725
813.035	0.0175404
813.113	0.0176172
813.192	0.0176878
813.270	0.0177158
813.348	0.0179742
813.426	0.0181361
813.504	0.0181792
813.582	0.0180897
813.660	0.0182595
813.738	0.0181277
813.817	0.0183360
813.895	0.0182393
813.973	0.0179504
814.051	0.0178740
814.129	0.0176645
814.207	0.0175291
814.285	0.0173623
814.363	0.0172499
814.442	0.0171213
814.520	0.0169539
814.598	0.0167251
814.676	0.0165246
814.754	0.0163953
814.832	0.0165070
814.910	0.0164362
814.988	0.0165281
815.067	0.0165273
815.145	0.0165501
815.223	0.0165540
815.301	0.0168153
815.379	0.0169870
815.457	0.0169794
815.535	0.0169873
815.613	0.0171335
815.692	0.0174371
815.770	0.0173884
815.848	0.0172391
815.926	0.0173957
816.004	0.0172733
816.082	0.0172424
816.160	0.0170701
816.238	0.0168768
816.317	0.0168249
816.395	0.0165672
816.473	0.0165319
816.551	0.0164314
816.629	0.0161654
816.707	0.0161144
816.785	0.0161372
816.863	0.0159057
816.942	0.0160667
817.020	0.0161926
817.098	0.0160988
817.176	0.0160839
817.254	0.0163871
817.332	0.0163065
817.410	0.0165208
817.488	0.0166952
817.567	0.0167467
817.645	0.0170295
817.723	0.0169186
817.801	0.0171915
817.879	0.0174226
817.957	0.0174534
818.035	0.0175929
818.113	0.0175687
818.192	0.0177322
818.270	0.0178159
818.348	0.0176439
818.426	0.0176696
818.504	0.0177692
818.582	0.0177386
818.660	0.0176854
818.738	0.0175774
818.817	0.0175597
818.895	0.0175532
818.973	0.0174029
819.051	0.0173887
819.129	0.0174634
819.207	0.0173747
819.285	0.0172674
819.363	0.0173038
819.442	0.0172612
819.520	0.0172065
819.598	0.0173395
819.676	0.0173595
819.754	0.0172932
819.832	0.0172991
819.910	0.0174288
819.988	0.0172863
820.067	0.0171657
820.145	0.0172733
820.223	0.0171497
820.301	0.0170196
820.379	0.0170847
820.457	0.0170268
820.535	0.0171511
820.613	0.0169642
820.692	0.0168204
820.770	0.0169008
820.848	0.0168099
820.926	0.0169859
821.004	0.0170371
821.082	0.0168858
821.160	0.0169823
821.238	0.0170369
821.317	0.0172163
821.395	0.0172086
821.473	0.0172740
821.551	0.0173475
821.629	0.0174886
821.707	0.0175242
821.785	0.0175037
821.863	0.0174598
821.942	0.0176850
822.020	0.0176581
822.098	0.0174213
822.176	0.0173669
822.254	0.0173116
822.332	0.0172496
822.410	0.0168890
822.488	0.0169843
822.567	0.0169123
822.645	0.0167145
822.723	0.0163846
822.801	0.0164744
822.879	0.0163551
822.957	0.0161742
823.035	0.0160224
823.113	0.0160420
823.192	0.0158926
823.270	0.0159242
823.348	0.0162263
823.426	0.0160450
823.504	0.0161253
823.582	0.0163653
823.660	0.0164114
823.738	0.0166217
823.817	0.0167047
823.895	0.0168450
823.973	0.0170042
824.051	0.0172755
824.129	0.0174156
824.207	0.0175947
824.285	0.0176204
824.363	0.0175929
824.442	0.0178057
824.520	0.0180066
824.598	0.0178175
824.676	0.0177342
824.754	0.0180373
824.832	0.0179353
824.910	0.0177524
824.988	0.0178377
825.067	0.0176646
825.145	0.0176707
825.223	0.0175504
825.301	0.0176811
825.379	0.0174667
825.457	0.0175416
825.535	0.0175092
825.613	0.0175307
825.692	0.0176437
825.770	0.0176094
825.848	0.0176258
825.926	0.0176555
826.004	0.0175864
826.082	0.0174135
826.160	0.0174661
826.238	0.0175483
826.317	0.0173641
826.395	0.0173389
826.473	0.0173571
826.551	0.0172753
826.629	0.0171577
826.707	0.0168806
826.785	0.0167686
826.863	0.0166489
826.942	0.0166893
827.020	0.0166264
827.098	0.0165305
827.176	0.0164997
827.254	0.0163922
827.332	0.0164846
827.410	0.0166336
827.488	0.0167806
827.567	0.0168290
827.645	0.0168427
827.723	0.0171396
827.801	0.0171994
827.879	0.0173692
827.957	0.0173193
828.035	0.0175523
828.113	0.0175014
828.192	0.0176498
828.270	0.0175637
828.348	0.0176684
828.426	0.0175509
828.504	0.0174689
828.582	0.0173537
828.660	0.0172052
828.738	0.0171413
828.817	0.0169588
828.895	0.0169038
828.973	0.0167291
829.051	0.0166469
829.129	0.0164228
829.207	0.0163584
829.285	0.0162542
829.363	0.0161928
829.442	0.0162548
829.520	0.0163000
829.598	0.0161920
829.676	0.0162370
829.754	0.0164274
829.832	0.0165995
829.910	0.0166217
829.988	0.0167641
830.067	0.0169608
830.145	0.0170132
830.223	0.0174181
830.301	0.0174058
830.379	0.0175350
830.457	0.0176018
830.535	0.0176487
830.613	0.0177470
830.692	0.0177738
830.770	0.0177623
830.848	0.0177058
830.926	0.0176098
831.004	0.0176303
831.082	0.0175748
831.160	0.0174032
831.238	0.0175079
831.317	0.0174361
831.395	0.0171529
831.473	0.0173058
831.551	0.0172987
831.629	0.0172874
831.707	0.0172424
831.785	0.0173706
831.863	0.0172742
831.942	0.0172552
832.020	0.0173459
832.098	0.0174987
832.176	0.0173750
832.254	0.0174776
832.332	0.0175022
832.410	0.0175405
832.488	0.0175893
832.567	0.0173905
832.645	0.0173588
832.723	0.0173439
832.801	0.0173309
832.879	0.0171729
832.957	0.0171526
833.035	0.0170905
833.113	0.0170074
833.192	0.0168486
833.270	0.0169314
833.348	0.0168203
833.426	0.0166870
833.504	0.0168272
833.582	0.0166782
833.660	0.0168191
833.738	0.0167288
833.817	0.0168706
833.895	0.0168633
833.973	0.0170022
834.051	0.0171320
834.129	0.0171962
834.207	0.0172021
834.285	0.0172244
834.363	0.0174011
834.442	0.0173730
834.520	0.0174213
834.598	0.0172543
834.676	0.0171581
834.754	0.0171164
834.832	0.0169451
834.910	0.0169860
834.988	0.0167242
835.067	0.0166553
835.145	0.0166090
835.223	0.0163991
835.301	0.0163422
835.379	0.0163316
835.457	0.0162363
835.535	0.0161929
835.613	0.0161055
835.692	0.0161073
835.770	0.0161719
835.848	0.0164486
835.926	0.0164691
836.004	0.0164963
836.082	0.0165675
836.160	0.0168301
836.238	0.0169433
836.317	0.0170255
836.395	0.0171712
836.473	0.0173804
836.551	0.0176646
836.629	0.0176453
836.707	0.0176409
836.785	0.0177958
836.863	0.0176294
836.942	0.0178543
837.020	0.0178208
837.098	0.0176319
837.176	0.0177181
837.254	0.0177019
837.332	0.0175335
837.410	0.0172535
837.488	0.0171775
837.567	0.0172475
837.645	0.0171393
837.723	0.0170927
837.801	0.0171017
837.879	0.0171323
837.957	0.0170525
838.035	0.0170492
838.113	0.0171570
838.192	0.0172801
838.270	0.0171391
838.348	0.0173631
838.426	0.0173755
838.504	0.0175352
838.582	0.0174837
838.660	0.0176642
838.738	0.0176318
838.817	0.0174462
838.895	0.0173962
838.973	0.0175694
839.051	0.0174491
839.129	0.0174508
839.207	0.0172445
839.285	0.0171442
839.363	0.0171131
839.442	0.0168455
839.520	0.0168535
839.598	0.0167337
839.676	0.0164383
839.754	0.0166334
839.832	0.0166069
839.910	0.0164598
839.988	0.0164178
840.067	0.0166521
840.145	0.0167719
840.223	0.0169080
840.301	0.0168201
840.379	0.0170052
840.457	0.0171592
840.535	0.0173878
840.613	0.0172868
840.692	0.0173886
840.770	0.0174268
840.848	0.0174799
840.926	0.0175078
841.004	0.0174120
841.082	0.0172519
841.160	0.0173692
841.238	0.0170850
841.317	0.0170101
841.395	0.0169944
841.473	0.0169218
841.551	0.0168114
841.629	0.0166958
841.707	0.0165784
841.785	0.0165559
841.863	0.0163630
841.942	0.0163314
842.020	0.0163967
842.098	0.0162853
842.176	0.0164156
842.254	0.0165480
842.332	0.0166344
842.410	0.0168153
842.488	0.0168700
842.567	0.0169766
842.645	0.0171574
842.723	0.0174038
842.801	0.0174005
842.879	0.0175226
842.957	0.0177698
843.035	0.0177515
843.113	0.0176093
843.192	0.0178241
843.270	0.0178890
843.348	0.0177016
843.426	0.0175735
843.504	0.0176578
843.582	0.0174835
843.660	0.0176222
843.738	0.0173234
843.817	0.0173598
843.895	0.0172840
843.973	0.0173139
844.051	0.0172591
844.129	0.0171826
844.207	0.0172162
844.285	0.0173186
844.363	0.0173918
844.442	0.0172776
844.520	0.0174351
844.598	0.0172765
844.676	0.0174936
844.754	0.0175975
844.832	0.0176009
844.910	0.0175274
844.988	0.0175624
845.067	0.0176811
845.145	0.0175153
845.223	0.0174312
845.301	0.0174705
845.379	0.0171943
845.457	0.0170923
845.535	0.0170377
845.613	0.0171504
845.692	0.0168219
845.770	0.0167800
845.848	0.0168010
845.926	0.0165914
846.004	0.0164542
846.082	0.0164782
846.160	0.0166358
846.238	0.0166711
846.317	0.0165888
846.395	0.0166914
846.473	0.0168266
846.551	0.0170409
846.629	0.0170596
846.707	0.0170401
846.785	0.0171730
846.863	0.0172652
846.942	0.0174692
847.020	0.0174877
847.098	0.0174136
847.176	0.0173302
847.254	0.0173395
847.332	0.0172298
847.410	0.0171439
847.488	0.0170165
847.567	0.0169555
847.645	0.0168286
847.723	0.0168963
847.801	0.0166460
847.879	0.0163879
847.957	0.0164892
848.035	0.0165219
848.113	0.0165016
848.192	0.0164884
848.270	0.0166204
848.348	0.0166415
848.426	0.0167353
848.504	0.0168502
848.582	0.0168640
848.660	0.0169595
848.738	0.0172231
848.817	0.0172752
848.895	0.0172658
848.973	0.0173574
849.051	0.0176395
849.129	0.0175742
849.207	0.0175455
849.285	0.0176963
849.363	0.0176256
849.442	0.0175894
849.520	0.0175153
849.598	0.0174722
849.676	0.0174270
849.754	0.0173734
849.832	0.0172509
849.910	0.0170872
849.988	0.0169994
850.067	0.0170868
850.145	0.0169963
850.223	0.0170286
850.301	0.0168011
850.379	0.0168204
850.457	0.0168642
850.535	0.0168560
850.613	0.0169698
850.692	0.0171074
850.770	0.0171527
850.848	0.0173190
850.926	0.0173404
851.004	0.0172473
851.082	0.0175561
851.160	0.0176802
851.238	0.0176378
851.317	0.0176660
851.395	0.0176394
851.473	0.0175785
851.551	0.0176456
851.629	0.0175246
851.707	0.0173746
851.785	0.0171323
851.863	0.0171648
851.942	0.0171053
852.020	0.0169986
852.098	0.0168521
852.176	0.0167177
852.254	0.0164296
852.332	0.0166003
852.410	0.0165698
852.488	0.0165354
852.567	0.0164335
852.645	0.0165689
852.723	0.0165802
852.801	0.0168987
852.879	0.0166991
852.957	0.0169274
853.035	0.0172346
853.113	0.0172344
853.192	0.0172240
853.270	0.0174824
853.348	0.0174210
853.426	0.0174229
853.504	0.0174866
853.582	0.0176315
853.660	0.0174621
853.738	0.0173827
853.817	0.0172256
853.895	0.0173061
853.973	0.0170852
854.051	0.0170748
854.129	0.0168376
854.207	0.0167801
854.285	0.0165929
854.363	0.0164759
854.442	0.0165237
854.520	0.0164417
854.598	0.0163754
854.676	0.0163281
854.754	0.0164702
854.832	0.0165083
854.910	0.0164528
854.988	0.0167771
855.067	0.0169090
855.145	0.0169548
855.223	0.0171840
855.301	0.0173338
855.379	0.0174604
855.457	0.0175443
855.535	0.0176170
855.613	0.0175962
855.692	0.0177354
855.770	0.0176904
855.848	0.0177094
855.926	0.0177513
856.004	0.0176300
856.082	0.0175214
856.160	0.0174538
856.238	0.0171508
856.317	0.0171240
856.395	0.0171011
856.473	0.0170959
856.551	0.0169412
856.629	0.0168658
856.707	0.0169061
856.785	0.0168118
856.863	0.0168359
856.942	0.0169034
857.020	0.0169187
857.098	0.0170431
857.176	0.0170567
857.254	0.0173083
857.332	0.0174838
857.410	0.0173833
857.488	0.0174613
857.567	0.0176249
857.645	0.0176109
857.723	0.0176732
857.801	0.0177250
857.879	0.0176238
857.957	0.0173802
858.035	0.0175333
858.113	0.0175294
858.192	0.0173051
858.270	0.0172220
858.348	0.0170598
858.426	0.0169054
858.504	0.0167949
858.582	0.0166585
858.660	0.0166146
858.738	0.0165566
858.817	0.0163475
858.895	0.0164111
858.973	0.0165755
859.051	0.0164871
859.129	0.0164048
859.207	0.0166754
859.285	0.0166360
859.363	0.0168438
859.442	0.0170661
859.520	0.0171261
859.598	0.0171080
859.676	0.0173392
859.754	0.0173338
859.832	0.0173622
859.910	0.0175301
859.988	0.0175687
860.067	0.0174967
860.145	0.0174487
860.223	0.0174782
860.301	0.0174092
860.379	0.0173264
860.457	0.0171315
860.535	0.0170439
860.613	0.0170173
860.692	0.0168494
860.770	0.0167490
860.848	0.0167095
860.926	0.0166255
861.004	0.0167021
861.082	0.0167261
861.160	0.0167748
861.238	0.0166132
861.317	0.0166521
861.395	0.0169279
861.473	0.0168655
861.551	0.0170163
861.629	0.0170327
861.707	0.0172433
861.785	0.0173587
861.863	0.0172568
861.942	0.0173764
862.020	0.0174346
862.098	0.0175084
862.176	0.0175777
862.254	0.0175464
862.332	0.0174058
862.410	0.0173917
862.488	0.0173282
862.567	0.0172742
862.645	0.0174335
862.723	0.0172177
862.801	0.0172110
862.879	0.0171330
862.957	0.0171707
863.035	0.0172123
863.113	0.0172638
863.192	0.0172446
863.270	0.0171642
863.348	0.0172829
863.426	0.0173716
863.504	0.0172085
863.582	0.0172047
863.660	0.0174705
863.738	0.0173746
863.817	0.0174984
863.895	0.0174879
863.973	0.0174683
864.051	0.0175228
864.129	0.0175981
864.207	0.0174868
864.285	0.0174429
864.363	0.0173891
864.442	0.0173394
864.520	0.0173000
864.598	0.0172493
864.676	0.0171802
864.754	0.0170602
864.832	0.0170283
864.910	0.0167736
864.988	0.0168410
865.067	0.0168098
865.145	0.0167278
865.223	0.0167685
865.301	0.0168481
865.379	0.0167493
865.457	0.0167584
865.535	0.0168027
865.613	0.0168212
865.692	0.0168902
865.770	0.0170273
865.848	0.0171657
865.926	0.0171938
866.004	0.0173341
866.082	0.0173333
866.160	0.0173044
866.238	0.0174660
866.317	0.0173400
866.395	0.0173017
866.473	0.0173527
866.551	0.0172549
866.629	0.0171989
866.707	0.0172078
866.785	0.0170414
866.863	0.0169241
866.942	0.0168449
867.020	0.0167880
867.098	0.0166271
867.176	0.0166018
867.254	0.0167912
867.332	0.0167626
867.410	0.0165621
867.488	0.0166297
867.567	0.0168435
867.645	0.0168143
867.723	0.0168909
867.801	0.0169402
867.879	0.0170425
867.957	0.0171547
868.035	0.0172341
868.113	0.0172023
868.192	0.0173213
868.270	0.0173548
868.348	0.0174792
868.426	0.0173067
868.504	0.0172984
868.582	0.0174203
868.660	0.0173651
868.738	0.0174261
868.817	0.0172269
868.895	0.0172831
868.973	0.0172811
869.051	0.0170902
869.129	0.0170943
869.207	0.0171408
869.285	0.0171443
869.363	0.0172246
869.442	0.0171854
869.520	0.0171233
869.598	0.0171468
869.676	0.0172128
869.754	0.0172463
869.832	0.0174257
869.910	0.0174937
869.988	0.0175534
870.067	0.0174211
870.145	0.0175602
870.223	0.0176533
870.301	0.0175143
870.379	0.0175518
870.457	0.0175642
870.535	0.0175068
870.613	0.0175025
870.692	0.0172728
870.770	0.0172936
870.848	0.0172099
870.926	0.0171066
871.004	0.0169756
871.082	0.0167818
871.160	0.0169361
871.238	0.0168093
871.317	0.0167686
871.395	0.0167310
871.473	0.0166164
871.551	0.0166093
871.629	0.0166632
871.707	0.0165756
871.785	0.0166750
871.863	0.0166570
871.942	0.0166525
872.020	0.0166416
872.098	0.0168333
872.176	0.0168867
872.254	0.0169392
872.332	0.0168740
872.410	0.0170077
872.488	0.0172015
872.567	0.0170560
872.645	0.0168629
872.723	0.0171275
872.801	0.0171595
872.879	0.0170469
872.957	0.0170131
873.035	0.0171299
873.113	0.0170120
873.192	0.0169863
873.270	0.0169411
873.348	0.0168709
873.426	0.0169246
873.504	0.0168689
873.582	0.0168409
873.660	0.0168596
873.738	0.0169660
873.817	0.0168380
873.895	0.0170643
873.973	0.0169987
874.051	0.0170107
874.129	0.0170396
874.207	0.0171102
874.285	0.0172690
874.363	0.0173582
874.442	0.0173158
874.520	0.0173811
874.598	0.0172987
874.676	0.0173918
874.754	0.0174349
874.832	0.0174525
874.910	0.0172212
874.988	0.0174491
875.067	0.0174388
875.145	0.0174733
875.223	0.0173302
875.301	0.0172425
875.379	0.0173439
875.457	0.0173933
875.535	0.0172162
875.613	0.0173375
875.692	0.0173950
875.770	0.0173113
875.848	0.0173743
875.926	0.0172923
876.004	0.0173325
876.082	0.0172121
876.160	0.0173777
876.238	0.0173099
876.317	0.0172351
876.395	0.0172205
876.473	0.0173843
876.551	0.0173930
876.629	0.0174174
876.707	0.0173406
876.785	0.0171554
876.863	0.0172883
876.942	0.0171535
877.020	0.0171188
877.098	0.0169603
877.176	0.0171011
877.254	0.0169138
877.332	0.0169103
877.410	0.0169153
877.488	0.0168298
877.567	0.0166254
877.645	0.0166251
877.723	0.0167498
877.801	0.0165452
877.879	0.0165845
877.957	0.0165128
878.035	0.0166252
878.113	0.0166088
878.192	0.0165051
878.270	0.0167064
878.348	0.0166022
878.426	0.0166856
878.504	0.0168835
878.582	0.0167950
878.660	0.0169782
878.738	0.0169621
878.817	0.0169324
878.895	0.0170316
878.973	0.0171233
879.051	0.0171332
879.129	0.0171436
879.207	0.0171711
879.285	0.0171979
879.363	0.0172659
879.442	0.0171510
879.520	0.0171487
879.598	0.0172405
879.676	0.0173145
879.754	0.0171835
879.832	0.0172032
879.910	0.0172758
879.988	0.0172480
880.067	0.0171004
880.145	0.0172590
880.223	0.0171267
880.301	0.0172911
880.379	0.0173424
880.457	0.0173017
880.535	0.0172549
880.613	0.0174609
880.692	0.0173686
880.770	0.0173629
880.848	0.0173306
880.926	0.0172730
881.004	0.0171790
881.082	0.0173351
881.160	0.0171764
881.238	0.0171661
881.317	0.0171414
881.395	0.0170796
881.473	0.0170609
881.551	0.0170193
881.629	0.0169659
881.707	0.0170596
881.785	0.0169946
881.863	0.0169345
881.942	0.0170502
882.020	0.0168360
882.098	0.0169478
882.176	0.0169678
882.254	0.0171521
882.332	0.0170819
882.410	0.0170849
882.488	0.0171704
882.567	0.0171302
882.645	0.0172406
882.723	0.0172863
882.801	0.0174144
882.879	0.0174110
882.957	0.0173656
883.035	0.0171693
883.113	0.0173869
883.192	0.0173052
883.270	0.0173474
883.348	0.0174754
883.426	0.0173603
883.504	0.0171503
883.582	0.0171750
883.660	0.0171461
883.738	0.0170711
883.817	0.0171391
883.895	0.0171530
883.973	0.0169440
884.051	0.0169933
884.129	0.0170523
884.207	0.0169265
884.285	0.0168937
884.363	0.0169556
884.442	0.0169027
884.520	0.0170602
884.598	0.0170400
884.676	0.0169267
884.754	0.0168764
884.832	0.0170393
884.910	0.0170622
884.988	0.0170219
885.067	0.0170793
885.145	0.0170182
885.223	0.0170164
885.301	0.0172171
885.379	0.0171760
885.457	0.0171635
885.535	0.0171764
885.613	0.0170779
885.692	0.0170742
885.770	0.0170251
885.848	0.0170079
885.926	0.0169301
886.004	0.0169709
886.082	0.0170351
886.160	0.0169811
886.238	0.0171102
886.317	0.0170200
886.395	0.0168650
886.473	0.0171316
886.551	0.0169664
886.629	0.0168969
886.707	0.0170024
886.785	0.0171397
886.863	0.0170695
886.942	0.0172016
887.020	0.0171340
887.098	0.0171204
887.176	0.0172120
887.254	0.0173904
887.332	0.0173188
887.410	0.0171657
887.488	0.0172127
887.567	0.0173699
887.645	0.0172742
887.723	0.0172573
887.801	0.0171532
887.879	0.0172694
887.957	0.0173246
888.035	0.0171454
888.113	0.0172911
888.192	0.0172873
888.270	0.0171381
888.348	0.0172221
888.426	0.0171133
888.504	0.0171334
888.582	0.0171033
888.660	0.0171242
888.738	0.0171284
888.817	0.0171161
888.895	0.0171088
888.973	0.0171259
889.051	0.0172443
889.129	0.0171759
889.207	0.0171582
889.285	0.0172296
889.363	0.0172266
889.442	0.0172836
889.520	0.0173317
889.598	0.0171503
889.676	0.0172626
889.754	0.0171632
889.832	0.0171725
889.910	0.0171001
889.988	0.0169582
890.067	0.0170345
890.145	0.0169861
890.223	0.0169469
890.301	0.0168604
890.379	0.0167482
890.457	0.0168084
890.535	0.0168489
890.613	0.0167530
890.692	0.0166491
890.770	0.0166100
890.848	0.0166978
890.926	0.0166787
891.004	0.0166286
891.082	0.0167000
891.160	0.0167229
891.238	0.0166664
891.317	0.0168124
891.395	0.0167770
891.473	0.0167902
891.551	0.0168440
891.629	0.0168134
891.707	0.0169507
891.785	0.0169943
891.863	0.0169196
891.942	0.0169476
892.020	0.0172068
892.098	0.0171005
892.176	0.0170610
892.254	0.0170170
892.332	0.0171024
892.410	0.0172742
892.488	0.0171697
892.567	0.0171632
892.645	0.0172405
892.723	0.0171577
892.801	0.0171841
892.879	0.0173378
892.957	0.0172688
893.035	0.0172646
893.113	0.0171733
893.192	0.0172742
893.270	0.0174336
893.348	0.0172910
893.426	0.0174279
893.504	0.0173691
893.582	0.0173582
893.660	0.0173015
893.738	0.0173027
893.817	0.0174300
893.895	0.0172378
893.973	0.0170710
894.051	0.0171567
894.129	0.0171963
894.207	0.0171282
894.285	0.0171022
894.363	0.0171081
894.442	0.0169388
894.520	0.0169714
894.598	0.0168752
894.676	0.0170436
894.754	0.0168737
894.832	0.0168628
894.910	0.0169176
894.988	0.0168508
895.067	0.0168507
895.145	0.0170029
895.223	0.0169694
895.301	0.0169275
895.379	0.0168752
895.457	0.0169685
895.535	0.0169086
895.613	0.0170297
895.692	0.0169820
895.770	0.0170645
895.848	0.0170836
895.926	0.0169968
896.004	0.0171696
896.082	0.0170367
896.160	0.0170411
896.238	0.0169322
896.317	0.0168127
896.395	0.0168513
896.473	0.0169359
896.551	0.0169132
896.629	0.0168774
896.707	0.0168251
896.785	0.0167971
896.863	0.0166830
896.942	0.0168652
897.020	0.0167583
897.098	0.0167130
897.176	0.0167836
897.254	0.0168029
897.332	0.0169240
897.410	0.0169766
897.488	0.0169632
897.567	0.0170774
897.645	0.0172231
897.723	0.0172276
897.801	0.0172838
897.879	0.0172778
897.957	0.0173916
898.035	0.0173152
898.113	0.0173922
898.192	0.0174326
898.270	0.0175281
898.348	0.0174440
898.426	0.0173810
898.504	0.0173677
898.582	0.0174977
898.660	0.0173767
898.738	0.0172813
898.817	0.0171793
898.895	0.0172514
898.973	0.0170936
899.051	0.0170599
899.129	0.0171188
899.207	0.0171047
899.285	0.0171680
899.363	0.0171024
899.442	0.0171096
899.520	0.0170603
899.598	0.0169659
899.676	0.0170013
899.754	0.0171214
899.832	0.0171979
899.910	0.0171117
899.988	0.0171371
900.067	0.0171951
900.145	0.0172601
900.223	0.0172403
900.301	0.0171777
900.379	0.0172308
900.457	0.0171404
900.535	0.0171999
900.613	0.0172149
900.692	0.0172058
900.770	0.0170955
900.848	0.0169147
900.926	0.0170253
901.004	0.0169428
901.082	0.0168830
901.160	0.0167030
901.238	0.0165970
901.317	0.0166183
901.395	0.0166943
901.473	0.0166708
901.551	0.0165527
901.629	0.0166228
901.707	0.0165015
901.785	0.0166556
901.863	0.0167094
901.942	0.0167414
902.020	0.0167988
902.098	0.0169209
902.176	0.0170319
902.254	0.0169639
902.332	0.0169878
902.410	0.0170564
902.488	0.0171717
902.567	0.0172076
902.645	0.0173090
902.723	0.0171993
902.801	0.0172218
902.879	0.0173492
902.957	0.0172591
903.035	0.0172218
903.113	0.0172288
903.192	0.0171917
903.270	0.0172128
903.348	0.0172504
903.426	0.0172855
903.504	0.0172514
903.582	0.0171224
903.660	0.0172768
903.738	0.0171418
903.817	0.0171115
903.895	0.0170866
903.973	0.0172319
904.051	0.0174375
904.129	0.0173804
904.207	0.0171638
904.285	0.0173002
904.363	0.0173632
904.442	0.0173468
904.520	0.0172684
904.598	0.0174841
904.676	0.0173593
904.754	0.0173866
904.832	0.0174048
904.910	0.0173220
904.988	0.0173798
905.067	0.0173438
905.145	0.0173515
905.223	0.0172416
905.301	0.0171426
905.379	0.0172367
905.457	0.0171013
905.535	0.0169875
905.613	0.0171272
905.692	0.0171021
905.770	0.0170889
905.848	0.0170776
905.926	0.0169267
906.004	0.0168838
906.082	0.0170697
906.160	0.0170960
906.238	0.0171631
906.317	0.0169350
906.395	0.0171136
906.473	0.0170096
906.551	0.0171202
906.629	0.0170557
906.707	0.0171050
906.785	0.0169710
906.863	0.0171775
906.942	0.0171805
907.020	0.0170856
907.098	0.0171470
907.176	0.0169958
907.254	0.0169872
907.332	0.0169193
907.410	0.0169254
907.488	0.0167422
907.567	0.0167982
907.645	0.0168909
907.723	0.0169061
907.801	0.0167915
907.879	0.0166328
907.957	0.0166995
908.035	0.0167555
908.113	0.0166610
908.192	0.0167729
908.270	0.0167619
908.348	0.0168148
908.426	0.0168837
908.504	0.0170246
908.582	0.0170421
908.660	0.0170767
908.738	0.0172929
908.817	0.0172074
908.895	0.0172516
908.973	0.0172916
909.051	0.0173282
909.129	0.0172458
909.207	0.0174400
909.285	0.0174266
909.363	0.0173883
909.442	0.0174742
909.520	0.0174430
909.598	0.0174504
909.676	0.0173324
909.754	0.0173442
909.832	0.0173568
909.910	0.0174200
909.988	0.0173569
910.067	0.0172271
910.145	0.0172298
910.223	0.0173318
910.301	0.0172346
910.379	0.0173679
910.457	0.0172420
910.535	0.0173193
910.613	0.0172988
910.692	0.0172609
910.770	0.0172700
910.848	0.0173042
910.926	0.0172629
911.004	0.0170953
911.082	0.0170948
911.160	0.0170216
911.238	0.0170901
911.317	0.0171269
911.395	0.0170944
911.473	0.0171638
911.551	0.0170251
911.629	0.0170485
911.707	0.0169952
911.785	0.0168881
911.863	0.0168857
911.942	0.0169808
912.020	0.0170929
912.098	0.0169347
912.176	0.0169919
912.254	0.0168532
912.332	0.0168996
912.410	0.0167919
912.488	0.0167220
912.567	0.0168353
912.645	0.0167620
912.723	0.0167670
912.801	0.0168639
912.879	0.0168367
912.957	0.0168063
913.035	0.0168262
913.113	0.0169009
913.192	0.0168826
913.270	0.0168721
913.348	0.0169283
913.426	0.0169147
913.504	0.0169421
913.582	0.0169035
913.660	0.0170369
913.738	0.0170048
913.817	0.0169262
913.895	0.0169558
913.973	0.0168471
914.051	0.0168731
914.129	0.0169273
914.207	0.0169606
914.285	0.0168645
914.363	0.0168814
914.442	0.0169389
914.520	0.0168855
914.598	0.0169646
914.676	0.0169100
914.754	0.0169485
914.832	0.0170360
914.910	0.0169792
914.988	0.0170671
915.067	0.0171637
915.145	0.0171207
915.223	0.0170924
915.301	0.0172176
915.379	0.0172479
915.457	0.0172309
915.535	0.0173434
915.613	0.0173714
915.692	0.0173382
915.770	0.0172396
915.848	0.0172037
915.926	0.0173123
916.004	0.0173287
916.082	0.0172178
916.160	0.0171975
916.238	0.0172449
916.317	0.0171696
916.395	0.0172083
916.473	0.0172022
916.551	0.0171405
916.629	0.0172002
916.707	0.0172469
916.785	0.0170705
916.863	0.0171448
916.942	0.0172021
917.020	0.0172298
917.098	0.0169981
917.176	0.0172666
917.254	0.0171958
917.332	0.0170691
917.410	0.0171121
917.488	0.0171331
917.567	0.0172758
917.645	0.0171255
917.723	0.0171187
917.801	0.0171467
917.879	0.0171174
917.957	0.0171687
918.035	0.0173241
918.113	0.0171496
918.192	0.0170692
918.270	0.0171416
918.348	0.0171618
918.426	0.0171735
918.504	0.0171825
918.582	0.0172422
918.660	0.0171478
918.738	0.0169705
918.817	0.0171019
918.895	0.0173450
918.973	0.0171018
919.051	0.0170114
919.129	0.0171654
919.207	0.0169891
919.285	0.0170256
919.363	0.0170335
919.442	0.0171355
919.520	0.0171105
919.598	0.0170444
919.676	0.0171294
919.754	0.0171561
919.832	0.0171883
919.910	0.0171597
