06/10/2022	16:26:17	Ver.	4.1	UNKNOWN
Optical Delay	599.988409	Delta X		0.078125	Sweeps	1	Scan Rate	0/0
Coordinates	Axis 1	NaN	Axis 2	NaN	Axis 3	NaN	Axis 4	NaN	Axis 5	NaN	Axis 6	0.000000
TX Power	0.000000	RX Power	0.000000

599.988	0.0167093
600.067	0.0167571
600.145	0.0166611
600.223	0.0165534
600.301	0.0166153
600.379	0.0166644
600.457	0.0166877
600.535	0.0166737
600.613	0.0165700
600.692	0.0167284
600.770	0.0166063
600.848	0.0166248
600.926	0.0165703
601.004	0.0166750
601.082	0.0166913
601.160	0.0166956
601.238	0.0167759
601.317	0.0166869
601.395	0.0165375
601.473	0.0166191
601.551	0.0168234
601.629	0.0165661
601.707	0.0166515
601.785	0.0166705
601.863	0.0166071
601.942	0.0167034
602.020	0.0167332
602.098	0.0166324
602.176	0.0166887
602.254	0.0166080
602.332	0.0166930
602.410	0.0166758
602.488	0.0167509
602.567	0.0167667
602.645	0.0165985
602.723	0.0166548
602.801	0.0166245
602.879	0.0166694
602.957	0.0165652
603.035	0.0166249
603.113	0.0165529
603.192	0.0166093
603.270	0.0166807
603.348	0.0166896
603.426	0.0166758
603.504	0.0166090
603.582	0.0167046
603.660	0.0166492
603.738	0.0166634
603.817	0.0166985
603.895	0.0166984
603.973	0.0166692
604.051	0.0167117
604.129	0.0167770
604.207	0.0168221
604.285	0.0166788
604.363	0.0165849
604.442	0.0166234
604.520	0.0167271
604.598	0.0166428
604.676	0.0167245
604.754	0.0167219
604.832	0.0165645
604.910	0.0166814
604.988	0.0167699
605.067	0.0167217
605.145	0.0167207
605.223	0.0166783
605.301	0.0167360
605.379	0.0166644
605.457	0.0166938
605.535	0.0166059
605.613	0.0165486
605.692	0.0166653
605.770	0.0166257
605.848	0.0166465
605.926	0.0166862
606.004	0.0167172
606.082	0.0166511
606.160	0.0165493
606.238	0.0167226
606.317	0.0166539
606.395	0.0165955
606.473	0.0167046
606.551	0.0165639
606.629	0.0166476
606.707	0.0166286
606.785	0.0166676
606.863	0.0165995
606.942	0.0165720
607.020	0.0165915
607.098	0.0166759
607.176	0.0167353
607.254	0.0166662
607.332	0.0167061
607.410	0.0167126
607.488	0.0166899
607.567	0.0166315
607.645	0.0167952
607.723	0.0164738
607.801	0.0165551
607.879	0.0165710
607.957	0.0166477
608.035	0.0166029
608.113	0.0166228
608.192	0.0165750
608.270	0.0164822
608.348	0.0165911
608.426	0.0166364
608.504	0.0165675
608.582	0.0167464
608.660	0.0165926
608.738	0.0167075
608.817	0.0165570
608.895	0.0167377
608.973	0.0167037
609.051	0.0165788
609.129	0.0166762
609.207	0.0165871
609.285	0.0165837
609.363	0.0166422
609.442	0.0165696
609.520	0.0166374
609.598	0.0166217
609.676	0.0165577
609.754	0.0167461
609.832	0.0166515
609.910	0.0165404
609.988	0.0166607
610.067	0.0166075
610.145	0.0164410
610.223	0.0166294
610.301	0.0165936
610.379	0.0165989
610.457	0.0166997
610.535	0.0167001
610.613	0.0165367
610.692	0.0167087
610.770	0.0167669
610.848	0.0165225
610.926	0.0165726
611.004	0.0167519
611.082	0.0166019
611.160	0.0166379
611.238	0.0165279
611.317	0.0166639
611.395	0.0167084
611.473	0.0166831
611.551	0.0166772
611.629	0.0166939
611.707	0.0166568
611.785	0.0166039
611.863	0.0167625
611.942	0.0167825
612.020	0.0166412
612.098	0.0167011
612.176	0.0166011
612.254	0.0166885
612.332	0.0167173
612.410	0.0166540
612.488	0.0165614
612.567	0.0167002
612.645	0.0167294
612.723	0.0167079
612.801	0.0166483
612.879	0.0168707
612.957	0.0167795
613.035	0.0166674
613.113	0.0165561
613.192	0.0166910
613.270	0.0168624
613.348	0.0167220
613.426	0.0167196
613.504	0.0167518
613.582	0.0166782
613.660	0.0166760
613.738	0.0167800
613.817	0.0167074
613.895	0.0166106
613.973	0.0167061
614.051	0.0167468
614.129	0.0166547
614.207	0.0167702
614.285	0.0167022
614.363	0.0166618
614.442	0.0166989
614.520	0.0167299
614.598	0.0167141
614.676	0.0167264
614.754	0.0165150
614.832	0.0167664
614.910	0.0167504
614.988	0.0166479
615.067	0.0168699
615.145	0.0166222
615.223	0.0167610
615.301	0.0167811
615.379	0.0167841
615.457	0.0167141
615.535	0.0167216
615.613	0.0167012
615.692	0.0167451
615.770	0.0168030
615.848	0.0167476
615.926	0.0167004
616.004	0.0167570
616.082	0.0168114
616.160	0.0167459
616.238	0.0167159
616.317	0.0167039
616.395	0.0168358
616.473	0.0167004
616.551	0.0167251
616.629	0.0166702
616.707	0.0166637
616.785	0.0168119
616.863	0.0168521
616.942	0.0168066
617.020	0.0166328
617.098	0.0166106
617.176	0.0167888
617.254	0.0167628
617.332	0.0167369
617.410	0.0165761
617.488	0.0166125
617.567	0.0167182
617.645	0.0167197
617.723	0.0168012
617.801	0.0166628
617.879	0.0166416
617.957	0.0167422
618.035	0.0167301
618.113	0.0167101
618.192	0.0168455
618.270	0.0167245
618.348	0.0167813
618.426	0.0165228
618.504	0.0167455
618.582	0.0167226
618.660	0.0167455
618.738	0.0167639
618.817	0.0167034
618.895	0.0166023
618.973	0.0166508
619.051	0.0166717
619.129	0.0166938
619.207	0.0167443
619.285	0.0167705
619.363	0.0166744
619.442	0.0166606
619.520	0.0165948
619.598	0.0165701
619.676	0.0166256
619.754	0.0167572
619.832	0.0166460
619.910	0.0166874
619.988	0.0166576
620.067	0.0167705
620.145	0.0167407
620.223	0.0166181
620.301	0.0166420
620.379	0.0167070
620.457	0.0165293
620.535	0.0167097
620.613	0.0166125
620.692	0.0167726
620.770	0.0165796
620.848	0.0166086
620.926	0.0167046
621.004	0.0166608
621.082	0.0168636
621.160	0.0166063
621.238	0.0164132
621.317	0.0167191
621.395	0.0166902
621.473	0.0166443
621.551	0.0166265
621.629	0.0166850
621.707	0.0166423
621.785	0.0165578
621.863	0.0166150
621.942	0.0166754
622.020	0.0167311
622.098	0.0166467
622.176	0.0166592
622.254	0.0166109
622.332	0.0167950
622.410	0.0166486
622.488	0.0165253
622.567	0.0166247
622.645	0.0167245
622.723	0.0166650
622.801	0.0167041
622.879	0.0167661
622.957	0.0166763
623.035	0.0165347
623.113	0.0165876
623.192	0.0167957
623.270	0.0165276
623.348	0.0166158
623.426	0.0165935
623.504	0.0166801
623.582	0.0166847
623.660	0.0166074
623.738	0.0166502
623.817	0.0166792
623.895	0.0166821
623.973	0.0166710
624.051	0.0167986
624.129	0.0166610
624.207	0.0166563
624.285	0.0166088
624.363	0.0167351
624.442	0.0166132
624.520	0.0167535
624.598	0.0167486
624.676	0.0166611
624.754	0.0166051
624.832	0.0167915
624.910	0.0166543
624.988	0.0166440
625.067	0.0165250
625.145	0.0166415
625.223	0.0166747
625.301	0.0166776
625.379	0.0166048
625.457	0.0166631
625.535	0.0167140
625.613	0.0166927
625.692	0.0167149
625.770	0.0166761
625.848	0.0166507
625.926	0.0167192
626.004	0.0167198
626.082	0.0165842
626.160	0.0167398
626.238	0.0166683
626.317	0.0166334
626.395	0.0166452
626.473	0.0166953
626.551	0.0166412
626.629	0.0166397
626.707	0.0165720
626.785	0.0167160
626.863	0.0166496
626.942	0.0165958
627.020	0.0166445
627.098	0.0167316
627.176	0.0166280
627.254	0.0167598
627.332	0.0167731
627.410	0.0166911
627.488	0.0166730
627.567	0.0166205
627.645	0.0167101
627.723	0.0166481
627.801	0.0166200
627.879	0.0166094
627.957	0.0166550
628.035	0.0167085
628.113	0.0167444
628.192	0.0165783
628.270	0.0166950
628.348	0.0166789
628.426	0.0166489
628.504	0.0166248
628.582	0.0166405
628.660	0.0166742
628.738	0.0166081
628.817	0.0167296
628.895	0.0166870
628.973	0.0166293
629.051	0.0167616
629.129	0.0166026
629.207	0.0166582
629.285	0.0166132
629.363	0.0166408
629.442	0.0166129
629.520	0.0165965
629.598	0.0167043
629.676	0.0166961
629.754	0.0166946
629.832	0.0166125
629.910	0.0166209
629.988	0.0167838
630.067	0.0166289
630.145	0.0166324
630.223	0.0166385
630.301	0.0167777
630.379	0.0167525
630.457	0.0166061
630.535	0.0165761
630.613	0.0168372
630.692	0.0168437
630.770	0.0166221
630.848	0.0166850
630.926	0.0167734
631.004	0.0165920
631.082	0.0167753
631.160	0.0166557
631.238	0.0166228
631.317	0.0166016
631.395	0.0167204
631.473	0.0166225
631.551	0.0165952
631.629	0.0168147
631.707	0.0167241
631.785	0.0165765
631.863	0.0166716
631.942	0.0166127
632.020	0.0167422
632.098	0.0166650
632.176	0.0165945
632.254	0.0166142
632.332	0.0166536
632.410	0.0166881
632.488	0.0167747
632.567	0.0166826
632.645	0.0166726
632.723	0.0164657
632.801	0.0166294
632.879	0.0166510
632.957	0.0165861
633.035	0.0166721
633.113	0.0167223
633.192	0.0165813
633.270	0.0166468
633.348	0.0166141
633.426	0.0167556
633.504	0.0166682
633.582	0.0167522
633.660	0.0166915
633.738	0.0167131
633.817	0.0165958
633.895	0.0167136
633.973	0.0168031
634.051	0.0167764
634.129	0.0167294
634.207	0.0166638
634.285	0.0166165
634.363	0.0167362
634.442	0.0167182
634.520	0.0165775
634.598	0.0166173
634.676	0.0167960
634.754	0.0165775
634.832	0.0166151
634.910	0.0167442
634.988	0.0165021
635.067	0.0166570
635.145	0.0165889
635.223	0.0165868
635.301	0.0165984
635.379	0.0165422
635.457	0.0166553
635.535	0.0167501
635.613	0.0165334
635.692	0.0166718
635.770	0.0166560
635.848	0.0165675
635.926	0.0165781
636.004	0.0166835
636.082	0.0165385
636.160	0.0166534
636.238	0.0166129
636.317	0.0167432
636.395	0.0166689
636.473	0.0167057
636.551	0.0167363
636.629	0.0166191
636.707	0.0165765
636.785	0.0168197
636.863	0.0166392
636.942	0.0166693
637.020	0.0166556
637.098	0.0166331
637.176	0.0167021
637.254	0.0165845
637.332	0.0166766
637.410	0.0166790
637.488	0.0166503
637.567	0.0166833
637.645	0.0166528
637.723	0.0166345
637.801	0.0167130
637.879	0.0166246
637.957	0.0166193
638.035	0.0167427
638.113	0.0165728
638.192	0.0166594
638.270	0.0166854
638.348	0.0166989
638.426	0.0166412
638.504	0.0166164
638.582	0.0166897
638.660	0.0166678
638.738	0.0166315
638.817	0.0166632
638.895	0.0167545
638.973	0.0166473
639.051	0.0166355
639.129	0.0166566
639.207	0.0167285
639.285	0.0167896
639.363	0.0167480
639.442	0.0166714
639.520	0.0167030
639.598	0.0166953
639.676	0.0167493
639.754	0.0166293
639.832	0.0167327
639.910	0.0166763
639.988	0.0167687
640.067	0.0166299
640.145	0.0167384
640.223	0.0166072
640.301	0.0167204
640.379	0.0166313
640.457	0.0167734
640.535	0.0166843
640.613	0.0166763
640.692	0.0166451
640.770	0.0168395
640.848	0.0167186
640.926	0.0166903
641.004	0.0167346
641.082	0.0168150
641.160	0.0166583
641.238	0.0167191
641.317	0.0167251
641.395	0.0167940
641.473	0.0166489
641.551	0.0167209
641.629	0.0167260
641.707	0.0167731
641.785	0.0166525
641.863	0.0167358
641.942	0.0167217
642.020	0.0167560
642.098	0.0166602
642.176	0.0166553
642.254	0.0167929
642.332	0.0167290
642.410	0.0166558
642.488	0.0166717
642.567	0.0167799
642.645	0.0167844
642.723	0.0166499
642.801	0.0167473
642.879	0.0165617
642.957	0.0167902
643.035	0.0167358
643.113	0.0166964
643.192	0.0165871
643.270	0.0166391
643.348	0.0167891
643.426	0.0167776
643.504	0.0166216
643.582	0.0166133
643.660	0.0166403
643.738	0.0166145
643.817	0.0167525
643.895	0.0167776
643.973	0.0166829
644.051	0.0166241
644.129	0.0166921
644.207	0.0165971
644.285	0.0167435
644.363	0.0167253
644.442	0.0167812
644.520	0.0167340
644.598	0.0166172
644.676	0.0165871
644.754	0.0167721
644.832	0.0168542
644.910	0.0166562
644.988	0.0167091
645.067	0.0167947
645.145	0.0167864
645.223	0.0165278
645.301	0.0166485
645.379	0.0166811
645.457	0.0165903
645.535	0.0166480
645.613	0.0166529
645.692	0.0166792
645.770	0.0167593
645.848	0.0167274
645.926	0.0167003
646.004	0.0167144
646.082	0.0166018
646.160	0.0166105
646.238	0.0167284
646.317	0.0166385
646.395	0.0166614
646.473	0.0166993
646.551	0.0167362
646.629	0.0166419
646.707	0.0165034
646.785	0.0166371
646.863	0.0167690
646.942	0.0166492
647.020	0.0166780
647.098	0.0167122
647.176	0.0167342
647.254	0.0167318
647.332	0.0166441
647.410	0.0166446
647.488	0.0167659
647.567	0.0167084
647.645	0.0166648
647.723	0.0166128
647.801	0.0166814
647.879	0.0167500
647.957	0.0167104
648.035	0.0165623
648.113	0.0166151
648.192	0.0166026
648.270	0.0165707
648.348	0.0166747
648.426	0.0168726
648.504	0.0166648
648.582	0.0165992
648.660	0.0165837
648.738	0.0167305
648.817	0.0167369
648.895	0.0166334
648.973	0.0167033
649.051	0.0165604
649.129	0.0166978
649.207	0.0168686
649.285	0.0167520
649.363	0.0166739
649.442	0.0168060
649.520	0.0167472
649.598	0.0168835
649.676	0.0166704
649.754	0.0166875
649.832	0.0167117
649.910	0.0166471
649.988	0.0167557
650.067	0.0166570
650.145	0.0167632
650.223	0.0167829
650.301	0.0167509
650.379	0.0166002
650.457	0.0166493
650.535	0.0166270
650.613	0.0167543
650.692	0.0168757
650.770	0.0168748
650.848	0.0165824
650.926	0.0166564
651.004	0.0168259
651.082	0.0167556
651.160	0.0165891
651.238	0.0167288
651.317	0.0166032
651.395	0.0165209
651.473	0.0167382
651.551	0.0166750
651.629	0.0167846
651.707	0.0167528
651.785	0.0166727
651.863	0.0167326
651.942	0.0166747
652.020	0.0166695
652.098	0.0166380
652.176	0.0166124
652.254	0.0166268
652.332	0.0166706
652.410	0.0166858
652.488	0.0166781
652.567	0.0166928
652.645	0.0166699
652.723	0.0166074
652.801	0.0166721
652.879	0.0165885
652.957	0.0167312
653.035	0.0166825
653.113	0.0166428
653.192	0.0167168
653.270	0.0166718
653.348	0.0166216
653.426	0.0168146
653.504	0.0167114
653.582	0.0166859
653.660	0.0166725
653.738	0.0166982
653.817	0.0164964
653.895	0.0167976
653.973	0.0168314
654.051	0.0167142
654.129	0.0166077
654.207	0.0166810
654.285	0.0166354
654.363	0.0167038
654.442	0.0167401
654.520	0.0166380
654.598	0.0168142
654.676	0.0166674
654.754	0.0167171
654.832	0.0167718
654.910	0.0168488
654.988	0.0167306
655.067	0.0166988
655.145	0.0167113
655.223	0.0166659
655.301	0.0166708
655.379	0.0167662
655.457	0.0167287
655.535	0.0167029
655.613	0.0167929
655.692	0.0167013
655.770	0.0168105
655.848	0.0168275
655.926	0.0168334
656.004	0.0166574
656.082	0.0168891
656.160	0.0168439
656.238	0.0168123
656.317	0.0168280
656.395	0.0167249
656.473	0.0168304
656.551	0.0167436
656.629	0.0168885
656.707	0.0168189
656.785	0.0168082
656.863	0.0168569
656.942	0.0168758
657.020	0.0167874
657.098	0.0167876
657.176	0.0168292
657.254	0.0167266
657.332	0.0167611
657.410	0.0168478
657.488	0.0168188
657.567	0.0167384
657.645	0.0168317
657.723	0.0169981
657.801	0.0168362
657.879	0.0167891
657.957	0.0167941
658.035	0.0168894
658.113	0.0168171
658.192	0.0168197
658.270	0.0166508
658.348	0.0167232
658.426	0.0167243
658.504	0.0168577
658.582	0.0167589
658.660	0.0167213
658.738	0.0167613
658.817	0.0167325
658.895	0.0165591
658.973	0.0167193
659.051	0.0166796
659.129	0.0165131
659.207	0.0166417
659.285	0.0166894
659.363	0.0167473
659.442	0.0166727
659.520	0.0166071
659.598	0.0164942
659.676	0.0165981
659.754	0.0166174
659.832	0.0165276
659.910	0.0164936
659.988	0.0166281
660.067	0.0165787
660.145	0.0166574
660.223	0.0165688
660.301	0.0163752
660.379	0.0165324
660.457	0.0165957
660.535	0.0166379
660.613	0.0165748
660.692	0.0164200
660.770	0.0165577
660.848	0.0164746
660.926	0.0164931
661.004	0.0165791
661.082	0.0164425
661.160	0.0166110
661.238	0.0166291
661.317	0.0165044
661.395	0.0165746
661.473	0.0165089
661.551	0.0166569
661.629	0.0166324
661.707	0.0164999
661.785	0.0165708
661.863	0.0164252
661.942	0.0164737
662.020	0.0164406
662.098	0.0165321
662.176	0.0165193
662.254	0.0164220
662.332	0.0166145
662.410	0.0165683
662.488	0.0166036
662.567	0.0165419
662.645	0.0165668
662.723	0.0164136
662.801	0.0165052
662.879	0.0164960
662.957	0.0165043
663.035	0.0165433
663.113	0.0164956
663.192	0.0163331
663.270	0.0165503
663.348	0.0164630
663.426	0.0164508
663.504	0.0165692
663.582	0.0165308
663.660	0.0166242
663.738	0.0166158
663.817	0.0165275
663.895	0.0165221
663.973	0.0164820
664.051	0.0166229
664.129	0.0165408
664.207	0.0165736
664.285	0.0166105
664.363	0.0165928
664.442	0.0166041
664.520	0.0166361
664.598	0.0166785
664.676	0.0166288
664.754	0.0165562
664.832	0.0166209
664.910	0.0165537
664.988	0.0165736
665.067	0.0166600
665.145	0.0165802
665.223	0.0165719
665.301	0.0165041
665.379	0.0165823
665.457	0.0166136
665.535	0.0165743
665.613	0.0165575
665.692	0.0166827
665.770	0.0165484
665.848	0.0167236
665.926	0.0165710
666.004	0.0165001
666.082	0.0166087
666.160	0.0165695
666.238	0.0165887
666.317	0.0165625
666.395	0.0166729
666.473	0.0165813
666.551	0.0165115
666.629	0.0165461
666.707	0.0165922
666.785	0.0165938
666.863	0.0166390
666.942	0.0163776
667.020	0.0164841
667.098	0.0165641
667.176	0.0165229
667.254	0.0164841
667.332	0.0165380
667.410	0.0167235
667.488	0.0165451
667.567	0.0166167
667.645	0.0165522
667.723	0.0167014
667.801	0.0164996
667.879	0.0164982
667.957	0.0165685
668.035	0.0165579
668.113	0.0165141
668.192	0.0164183
668.270	0.0166380
668.348	0.0165469
668.426	0.0166376
668.504	0.0166672
668.582	0.0166489
668.660	0.0164789
668.738	0.0165836
668.817	0.0167120
668.895	0.0166533
668.973	0.0166695
669.051	0.0165721
669.129	0.0167232
669.207	0.0166673
669.285	0.0166338
669.363	0.0166183
669.442	0.0166158
669.520	0.0165810
669.598	0.0165649
669.676	0.0166898
669.754	0.0166592
669.832	0.0166724
669.910	0.0166969
669.988	0.0167609
670.067	0.0166174
670.145	0.0167294
670.223	0.0167447
670.301	0.0166723
670.379	0.0167649
670.457	0.0166631
670.535	0.0166972
670.613	0.0167321
670.692	0.0167968
670.770	0.0167253
670.848	0.0165718
670.926	0.0166611
671.004	0.0167295
671.082	0.0167957
671.160	0.0168416
671.238	0.0167866
671.317	0.0167432
671.395	0.0169173
671.473	0.0166769
671.551	0.0167193
671.629	0.0166994
671.707	0.0168710
671.785	0.0169061
671.863	0.0168851
671.942	0.0167759
672.020	0.0168348
672.098	0.0167723
672.176	0.0169468
672.254	0.0169357
672.332	0.0167651
672.410	0.0168446
672.488	0.0168644
672.567	0.0169006
672.645	0.0167889
672.723	0.0167926
672.801	0.0168375
672.879	0.0167973
672.957	0.0168661
673.035	0.0170464
673.113	0.0167999
673.192	0.0168805
673.270	0.0168934
673.348	0.0169413
673.426	0.0167630
673.504	0.0168484
673.582	0.0169183
673.660	0.0168626
673.738	0.0167693
673.817	0.0170850
673.895	0.0169032
673.973	0.0169434
674.051	0.0169614
674.129	0.0169046
674.207	0.0168962
674.285	0.0168756
674.363	0.0168467
674.442	0.0168695
674.520	0.0169200
674.598	0.0168541
674.676	0.0169004
674.754	0.0167606
674.832	0.0167709
674.910	0.0168620
674.988	0.0168023
675.067	0.0169104
675.145	0.0168086
675.223	0.0168870
675.301	0.0168160
675.379	0.0167060
675.457	0.0167786
675.535	0.0169267
675.613	0.0167371
675.692	0.0168159
675.770	0.0168822
675.848	0.0168623
675.926	0.0167519
676.004	0.0167604
676.082	0.0167878
676.160	0.0168159
676.238	0.0167659
676.317	0.0167635
676.395	0.0168143
676.473	0.0167038
676.551	0.0167500
676.629	0.0166825
676.707	0.0168496
676.785	0.0167502
676.863	0.0168202
676.942	0.0167221
677.020	0.0168769
677.098	0.0168665
677.176	0.0167514
677.254	0.0167179
677.332	0.0167440
677.410	0.0167868
677.488	0.0168353
677.567	0.0168958
677.645	0.0166215
677.723	0.0167491
677.801	0.0166233
677.879	0.0167479
677.957	0.0166898
678.035	0.0167052
678.113	0.0166726
678.192	0.0166180
678.270	0.0167407
678.348	0.0166453
678.426	0.0167303
678.504	0.0166655
678.582	0.0166551
678.660	0.0167257
678.738	0.0167165
678.817	0.0167376
678.895	0.0168165
678.973	0.0167176
679.051	0.0166101
679.129	0.0167987
679.207	0.0167536
679.285	0.0167020
679.363	0.0166950
679.442	0.0167506
679.520	0.0167902
679.598	0.0167119
679.676	0.0166869
679.754	0.0166811
679.832	0.0167658
679.910	0.0166592
679.988	0.0167935
680.067	0.0168452
680.145	0.0167028
680.223	0.0166978
680.301	0.0166299
680.379	0.0166537
680.457	0.0165519
680.535	0.0165247
680.613	0.0166512
680.692	0.0166880
680.770	0.0166399
680.848	0.0166317
680.926	0.0166430
681.004	0.0165707
681.082	0.0165535
681.160	0.0167060
681.238	0.0167939
681.317	0.0164989
681.395	0.0165589
681.473	0.0165909
681.551	0.0165574
681.629	0.0164978
681.707	0.0165343
681.785	0.0164893
681.863	0.0165154
681.942	0.0165253
682.020	0.0166121
682.098	0.0165438
682.176	0.0165071
682.254	0.0166508
682.332	0.0165146
682.410	0.0164689
682.488	0.0165189
682.567	0.0165411
682.645	0.0165273
682.723	0.0164325
682.801	0.0166383
682.879	0.0165801
682.957	0.0165073
683.035	0.0164837
683.113	0.0165464
683.192	0.0165847
683.270	0.0164735
683.348	0.0166633
683.426	0.0165289
683.504	0.0164470
683.582	0.0166197
683.660	0.0165334
683.738	0.0164827
683.817	0.0165935
683.895	0.0165455
683.973	0.0165010
684.051	0.0165823
684.129	0.0165801
684.207	0.0165524
684.285	0.0164243
684.363	0.0165031
684.442	0.0164915
684.520	0.0164868
684.598	0.0165364
684.676	0.0165485
684.754	0.0163822
684.832	0.0165687
684.910	0.0166354
684.988	0.0165874
685.067	0.0165428
685.145	0.0165932
685.223	0.0166206
685.301	0.0164196
685.379	0.0164619
685.457	0.0165332
685.535	0.0164749
685.613	0.0164588
685.692	0.0165451
685.770	0.0165411
685.848	0.0164882
685.926	0.0165646
686.004	0.0164680
686.082	0.0165857
686.160	0.0164282
686.238	0.0165195
686.317	0.0165775
686.395	0.0164377
686.473	0.0165149
686.551	0.0165592
686.629	0.0165061
686.707	0.0164936
686.785	0.0164223
686.863	0.0167027
686.942	0.0167057
687.020	0.0166642
687.098	0.0164162
687.176	0.0165672
687.254	0.0165794
687.332	0.0165114
687.410	0.0165997
687.488	0.0166344
687.567	0.0165025
687.645	0.0165221
687.723	0.0165810
687.801	0.0165296
687.879	0.0166652
687.957	0.0165505
688.035	0.0166389
688.113	0.0165810
688.192	0.0165804
688.270	0.0165772
688.348	0.0165955
688.426	0.0165852
688.504	0.0166546
688.582	0.0165749
688.660	0.0165554
688.738	0.0165611
688.817	0.0165971
688.895	0.0165694
688.973	0.0166807
689.051	0.0165260
689.129	0.0165063
689.207	0.0166895
689.285	0.0165737
689.363	0.0166252
689.442	0.0166319
689.520	0.0166076
689.598	0.0165871
689.676	0.0165865
689.754	0.0165482
689.832	0.0166961
689.910	0.0165670
689.988	0.0165986
690.067	0.0165545
690.145	0.0166378
690.223	0.0167234
690.301	0.0165202
690.379	0.0166380
690.457	0.0166212
690.535	0.0165358
690.613	0.0166763
690.692	0.0166714
690.770	0.0166442
690.848	0.0165437
690.926	0.0166773
691.004	0.0166795
691.082	0.0165818
691.160	0.0166431
691.238	0.0166288
691.317	0.0165869
691.395	0.0166588
691.473	0.0166359
691.551	0.0166039
691.629	0.0167031
691.707	0.0167218
691.785	0.0166890
691.863	0.0166428
691.942	0.0167808
692.020	0.0167502
692.098	0.0167001
692.176	0.0167401
692.254	0.0165932
692.332	0.0166134
692.410	0.0166522
692.488	0.0168224
692.567	0.0168339
692.645	0.0166933
692.723	0.0165059
692.801	0.0167911
692.879	0.0167813
692.957	0.0166923
693.035	0.0167193
693.113	0.0167075
693.192	0.0167220
693.270	0.0166776
693.348	0.0166868
693.426	0.0168188
693.504	0.0167232
693.582	0.0167203
693.660	0.0167089
693.738	0.0167146
693.817	0.0166656
693.895	0.0167229
693.973	0.0166190
694.051	0.0167652
694.129	0.0167654
694.207	0.0166273
694.285	0.0167160
694.363	0.0168330
694.442	0.0168573
694.520	0.0168662
694.598	0.0167242
694.676	0.0167762
694.754	0.0167691
694.832	0.0167831
694.910	0.0167425
694.988	0.0167655
695.067	0.0168116
695.145	0.0168079
695.223	0.0168009
695.301	0.0167812
695.379	0.0166523
695.457	0.0166391
695.535	0.0167561
695.613	0.0165619
695.692	0.0167558
695.770	0.0169173
695.848	0.0167902
695.926	0.0166373
696.004	0.0167506
696.082	0.0166597
696.160	0.0168074
696.238	0.0168713
696.317	0.0167220
696.395	0.0167935
696.473	0.0167390
696.551	0.0167110
696.629	0.0168622
696.707	0.0167744
696.785	0.0167428
696.863	0.0167202
696.942	0.0167611
697.020	0.0167728
697.098	0.0167546
697.176	0.0167313
697.254	0.0166512
697.332	0.0167411
697.410	0.0166366
697.488	0.0166344
697.567	0.0167081
697.645	0.0166985
697.723	0.0167390
697.801	0.0166237
697.879	0.0165983
697.957	0.0166637
698.035	0.0167364
698.113	0.0167068
698.192	0.0167225
698.270	0.0167140
698.348	0.0166671
698.426	0.0164827
698.504	0.0165550
698.582	0.0167280
698.660	0.0167839
698.738	0.0166635
698.817	0.0166075
698.895	0.0167290
698.973	0.0167660
699.051	0.0166995
699.129	0.0166249
699.207	0.0166148
699.285	0.0166399
699.363	0.0166245
699.442	0.0166044
699.520	0.0166562
699.598	0.0165806
699.676	0.0167690
699.754	0.0165710
699.832	0.0166727
699.910	0.0167399
699.988	0.0165863
700.067	0.0166006
700.145	0.0167268
700.223	0.0167162
700.301	0.0166270
700.379	0.0165650
700.457	0.0166062
700.535	0.0166725
700.613	0.0167920
700.692	0.0167371
700.770	0.0166161
700.848	0.0166158
700.926	0.0166299
701.004	0.0167673
701.082	0.0166231
701.160	0.0165758
701.238	0.0168481
701.317	0.0167210
701.395	0.0166208
701.473	0.0166282
701.551	0.0167197
701.629	0.0166441
701.707	0.0166904
701.785	0.0166995
701.863	0.0166379
701.942	0.0166605
702.020	0.0166865
702.098	0.0166367
702.176	0.0167320
702.254	0.0166037
702.332	0.0167707
702.410	0.0166862
702.488	0.0167528
702.567	0.0167262
702.645	0.0167496
702.723	0.0166699
702.801	0.0167046
702.879	0.0166566
702.957	0.0167290
703.035	0.0167246
703.113	0.0166763
703.192	0.0167828
703.270	0.0166967
703.348	0.0167392
703.426	0.0167276
703.504	0.0167852
703.582	0.0166476
703.660	0.0165150
703.738	0.0166222
703.817	0.0166892
703.895	0.0166415
703.973	0.0167347
704.051	0.0165921
704.129	0.0167645
704.207	0.0167806
704.285	0.0166861
704.363	0.0166760
704.442	0.0166405
704.520	0.0167312
704.598	0.0168505
704.676	0.0166300
704.754	0.0166221
704.832	0.0166154
704.910	0.0166177
704.988	0.0167010
705.067	0.0165861
705.145	0.0166960
705.223	0.0166501
705.301	0.0166272
705.379	0.0166537
705.457	0.0166401
705.535	0.0167706
705.613	0.0166835
705.692	0.0166636
705.770	0.0166286
705.848	0.0166693
705.926	0.0167034
706.004	0.0165916
706.082	0.0166617
706.160	0.0166462
706.238	0.0165923
706.317	0.0166631
706.395	0.0166540
706.473	0.0165683
706.551	0.0166196
706.629	0.0165701
706.707	0.0167278
706.785	0.0164647
706.863	0.0166891
706.942	0.0167381
707.020	0.0166105
707.098	0.0165987
707.176	0.0167323
707.254	0.0165912
707.332	0.0166601
707.410	0.0166531
707.488	0.0165910
707.567	0.0166418
707.645	0.0167181
707.723	0.0167817
707.801	0.0166566
707.879	0.0166073
707.957	0.0166521
708.035	0.0166615
708.113	0.0165043
708.192	0.0167142
708.270	0.0165804
708.348	0.0167011
708.426	0.0166880
708.504	0.0166875
708.582	0.0165772
708.660	0.0166947
708.738	0.0166999
708.817	0.0167131
708.895	0.0166331
708.973	0.0165690
709.051	0.0166127
709.129	0.0167076
709.207	0.0166376
709.285	0.0166107
709.363	0.0166516
709.442	0.0166845
709.520	0.0165140
709.598	0.0166224
709.676	0.0166053
709.754	0.0166311
709.832	0.0166356
709.910	0.0164978
709.988	0.0166048
710.067	0.0166602
710.145	0.0166144
710.223	0.0164619
710.301	0.0165227
710.379	0.0165765
710.457	0.0165274
710.535	0.0165698
710.613	0.0165123
710.692	0.0165405
710.770	0.0166379
710.848	0.0163789
710.926	0.0165905
711.004	0.0166515
711.082	0.0165261
711.160	0.0166690
711.238	0.0166139
711.317	0.0166013
711.395	0.0165516
711.473	0.0165474
711.551	0.0165651
711.629	0.0167406
711.707	0.0167070
711.785	0.0166709
711.863	0.0166886
711.942	0.0165410
712.020	0.0165544
712.098	0.0165865
712.176	0.0165385
712.254	0.0166568
712.332	0.0166713
712.410	0.0164228
712.488	0.0166414
712.567	0.0167121
712.645	0.0165846
712.723	0.0165565
712.801	0.0167457
712.879	0.0165810
712.957	0.0165612
713.035	0.0166253
713.113	0.0164963
713.192	0.0165094
713.270	0.0165388
713.348	0.0166503
713.426	0.0166409
713.504	0.0165864
713.582	0.0165896
713.660	0.0166087
713.738	0.0167117
713.817	0.0165171
713.895	0.0165672
713.973	0.0167309
714.051	0.0166924
714.129	0.0165943
714.207	0.0165424
714.285	0.0165105
714.363	0.0165989
714.442	0.0165216
714.520	0.0165919
714.598	0.0165608
714.676	0.0165282
714.754	0.0165968
714.832	0.0165046
714.910	0.0165414
714.988	0.0166203
715.067	0.0164892
715.145	0.0166489
715.223	0.0164896
715.301	0.0165121
715.379	0.0165444
715.457	0.0164530
715.535	0.0165754
715.613	0.0166620
715.692	0.0166042
715.770	0.0166422
715.848	0.0166286
715.926	0.0165441
716.004	0.0166370
716.082	0.0167530
716.160	0.0166197
716.238	0.0165513
716.317	0.0166380
716.395	0.0165858
716.473	0.0165799
716.551	0.0166155
716.629	0.0165688
716.707	0.0166023
716.785	0.0166043
716.863	0.0165549
716.942	0.0166323
717.020	0.0167320
717.098	0.0166734
717.176	0.0166553
717.254	0.0166931
717.332	0.0166183
717.410	0.0165652
717.488	0.0166544
717.567	0.0167065
717.645	0.0166348
717.723	0.0167539
717.801	0.0167746
717.879	0.0167219
717.957	0.0166277
718.035	0.0167415
718.113	0.0166286
718.192	0.0166802
718.270	0.0168126
718.348	0.0167883
718.426	0.0167983
718.504	0.0167046
718.582	0.0166689
718.660	0.0166608
718.738	0.0167966
718.817	0.0168550
718.895	0.0167641
718.973	0.0168007
719.051	0.0166411
719.129	0.0166348
719.207	0.0166834
719.285	0.0167886
719.363	0.0167525
719.442	0.0167325
719.520	0.0167494
719.598	0.0166889
719.676	0.0166790
719.754	0.0167836
719.832	0.0168438
719.910	0.0166978
719.988	0.0166989
720.067	0.0165444
720.145	0.0166688
720.223	0.0168072
720.301	0.0166824
720.379	0.0167026
720.457	0.0167099
720.535	0.0167142
720.613	0.0166186
720.692	0.0167340
720.770	0.0167734
720.848	0.0167071
720.926	0.0167136
721.004	0.0167490
721.082	0.0166640
721.160	0.0165814
721.238	0.0166632
721.317	0.0166846
721.395	0.0167367
721.473	0.0166785
721.551	0.0166307
721.629	0.0167645
721.707	0.0166382
721.785	0.0167677
721.863	0.0167201
721.942	0.0167010
722.020	0.0167576
722.098	0.0168063
722.176	0.0166874
722.254	0.0165685
722.332	0.0166420
722.410	0.0166812
722.488	0.0165720
722.567	0.0166522
722.645	0.0166695
722.723	0.0166730
722.801	0.0167197
722.879	0.0166711
722.957	0.0167479
723.035	0.0168924
723.113	0.0166898
723.192	0.0167114
723.270	0.0167080
723.348	0.0167757
723.426	0.0166279
723.504	0.0167760
723.582	0.0167016
723.660	0.0167471
723.738	0.0166228
723.817	0.0166972
723.895	0.0167313
723.973	0.0165488
724.051	0.0165999
724.129	0.0165979
724.207	0.0166878
724.285	0.0166759
724.363	0.0166593
724.442	0.0166505
724.520	0.0166531
724.598	0.0166776
724.676	0.0166556
724.754	0.0167177
724.832	0.0167960
724.910	0.0168048
724.988	0.0164451
725.067	0.0165942
725.145	0.0165745
725.223	0.0167820
725.301	0.0167075
725.379	0.0166116
725.457	0.0166204
725.535	0.0165947
725.613	0.0167990
725.692	0.0166299
725.770	0.0167288
725.848	0.0166448
725.926	0.0165702
726.004	0.0166253
726.082	0.0166801
726.160	0.0166501
726.238	0.0166377
726.317	0.0166401
726.395	0.0166139
726.473	0.0167547
726.551	0.0168053
726.629	0.0165235
726.707	0.0165815
726.785	0.0165072
726.863	0.0165806
726.942	0.0165896
727.020	0.0166648
727.098	0.0166783
727.176	0.0167740
727.254	0.0165674
727.332	0.0166411
727.410	0.0165686
727.488	0.0166374
727.567	0.0166274
727.645	0.0165935
727.723	0.0166282
727.801	0.0165844
727.879	0.0167045
727.957	0.0166288
728.035	0.0165790
728.113	0.0165516
728.192	0.0165571
728.270	0.0165028
728.348	0.0166415
728.426	0.0166200
728.504	0.0166850
728.582	0.0165440
728.660	0.0165705
728.738	0.0166424
728.817	0.0165931
728.895	0.0165760
728.973	0.0165845
729.051	0.0166651
729.129	0.0165613
729.207	0.0166287
729.285	0.0167226
729.363	0.0166102
729.442	0.0165709
729.520	0.0166434
729.598	0.0166922
729.676	0.0165779
729.754	0.0165552
729.832	0.0164542
729.910	0.0165108
729.988	0.0162683
730.067	0.0162997
730.145	0.0163631
730.223	0.0163289
730.301	0.0163973
730.379	0.0164459
730.457	0.0164095
730.535	0.0165559
730.613	0.0167116
730.692	0.0166376
730.770	0.0168591
730.848	0.0168748
730.926	0.0169978
731.004	0.0170768
731.082	0.0172351
731.160	0.0171661
731.238	0.0170326
731.317	0.0170421
731.395	0.0168674
731.473	0.0167066
731.551	0.0168183
731.629	0.0163258
731.707	0.0161452
731.785	0.0160464
731.863	0.0157897
731.942	0.0157034
732.020	0.0158456
732.098	0.0157141
732.176	0.0157647
732.254	0.0158999
732.332	0.0161013
732.410	0.0163014
732.488	0.0166455
732.567	0.0170151
732.645	0.0173018
732.723	0.0173993
732.801	0.0174915
732.879	0.0175874
732.957	0.0174498
733.035	0.0174583
733.113	0.0173435
733.192	0.0172221
733.270	0.0169488
733.348	0.0167384
733.426	0.0168238
733.504	0.0167068
733.582	0.0165602
733.660	0.0165336
733.738	0.0165764
733.817	0.0164194
733.895	0.0165181
733.973	0.0163733
734.051	0.0162191
734.129	0.0162364
734.207	0.0159901
734.285	0.0158541
734.363	0.0158979
734.442	0.0158048
734.520	0.0157806
734.598	0.0157671
734.676	0.0159476
734.754	0.0161877
734.832	0.0164608
734.910	0.0167839
734.988	0.0169637
735.067	0.0171519
735.145	0.0175314
735.223	0.0176456
735.301	0.0177359
735.379	0.0179118
735.457	0.0179131
735.535	0.0177733
735.613	0.0176739
735.692	0.0173663
735.770	0.0171909
735.848	0.0168781
735.926	0.0166933
736.004	0.0163170
736.082	0.0160213
736.160	0.0158620
736.238	0.0156199
736.317	0.0154977
736.395	0.0153368
736.473	0.0152487
736.551	0.0152833
736.629	0.0155049
736.707	0.0156258
736.785	0.0156821
736.863	0.0160326
736.942	0.0164495
737.020	0.0166221
737.098	0.0169592
737.176	0.0172376
737.254	0.0174548
737.332	0.0176832
737.410	0.0177045
737.488	0.0180308
737.567	0.0179897
737.645	0.0178975
737.723	0.0177991
737.801	0.0175573
737.879	0.0174620
737.957	0.0172342
738.035	0.0168043
738.113	0.0165878
738.192	0.0163212
738.270	0.0161959
738.348	0.0160177
738.426	0.0159824
738.504	0.0159817
738.582	0.0159164
738.660	0.0158117
738.738	0.0159432
738.817	0.0159478
738.895	0.0160152
738.973	0.0159818
739.051	0.0161213
739.129	0.0162377
739.207	0.0164114
739.285	0.0165715
739.363	0.0165128
739.442	0.0166104
739.520	0.0168109
739.598	0.0168639
739.676	0.0171907
739.754	0.0171115
739.832	0.0173650
739.910	0.0174096
739.988	0.0173816
740.067	0.0173490
740.145	0.0173206
740.223	0.0171669
740.301	0.0170282
740.379	0.0168567
740.457	0.0168849
740.535	0.0167161
740.613	0.0165674
740.692	0.0165287
740.770	0.0164313
740.848	0.0162455
740.926	0.0161860
741.004	0.0162217
741.082	0.0162724
741.160	0.0163133
741.238	0.0162779
741.317	0.0162324
741.395	0.0163948
741.473	0.0165160
741.551	0.0166187
741.629	0.0165608
741.707	0.0166292
741.785	0.0166192
741.863	0.0168238
741.942	0.0167731
742.020	0.0166467
742.098	0.0167142
742.176	0.0166851
742.254	0.0167654
742.332	0.0165639
742.410	0.0166093
742.488	0.0166053
742.567	0.0166108
742.645	0.0166834
742.723	0.0165885
742.801	0.0167079
742.879	0.0165024
742.957	0.0165884
743.035	0.0166613
743.113	0.0166792
743.192	0.0167872
743.270	0.0167265
743.348	0.0168259
743.426	0.0170261
743.504	0.0169648
743.582	0.0168430
743.660	0.0166761
743.738	0.0168888
743.817	0.0166873
743.895	0.0166993
743.973	0.0166306
744.051	0.0165951
744.129	0.0164120
744.207	0.0163550
744.285	0.0162922
744.363	0.0162557
744.442	0.0161231
744.520	0.0161802
744.598	0.0163251
744.676	0.0163695
744.754	0.0164537
744.832	0.0163991
744.910	0.0163998
744.988	0.0164854
745.067	0.0166451
745.145	0.0168246
745.223	0.0167439
745.301	0.0167448
745.379	0.0168697
745.457	0.0169765
745.535	0.0169019
745.613	0.0167293
745.692	0.0168616
745.770	0.0166856
745.848	0.0167165
745.926	0.0166777
746.004	0.0166928
746.082	0.0166360
746.160	0.0166402
746.238	0.0167457
746.317	0.0168002
746.395	0.0166148
746.473	0.0167073
746.551	0.0167627
746.629	0.0167508
746.707	0.0167321
746.785	0.0165983
746.863	0.0165231
746.942	0.0165096
747.020	0.0165289
747.098	0.0164886
747.176	0.0166540
747.254	0.0166247
747.332	0.0165034
747.410	0.0166249
747.488	0.0166465
747.567	0.0167815
747.645	0.0166705
747.723	0.0166746
747.801	0.0166441
747.879	0.0167475
747.957	0.0166560
748.035	0.0166164
748.113	0.0167281
748.192	0.0166855
748.270	0.0165621
748.348	0.0164602
748.426	0.0166072
748.504	0.0164040
748.582	0.0164056
748.660	0.0165640
748.738	0.0167458
748.817	0.0166440
748.895	0.0165430
748.973	0.0166836
749.051	0.0169122
749.129	0.0168501
749.207	0.0170179
749.285	0.0170695
749.363	0.0169687
749.442	0.0170733
749.520	0.0169528
749.598	0.0170599
749.676	0.0169408
749.754	0.0169621
749.832	0.0170225
749.910	0.0168755
749.988	0.0167559
750.067	0.0166315
750.145	0.0165120
750.223	0.0163994
750.301	0.0164330
750.379	0.0162692
750.457	0.0163284
750.535	0.0163540
750.613	0.0162962
750.692	0.0161899
750.770	0.0163657
750.848	0.0164619
750.926	0.0163262
751.004	0.0163467
751.082	0.0166103
751.160	0.0167049
751.238	0.0166498
751.317	0.0169468
751.395	0.0169054
751.473	0.0170373
751.551	0.0171236
751.629	0.0170461
751.707	0.0170312
751.785	0.0170216
751.863	0.0171040
751.942	0.0169317
752.020	0.0168051
752.098	0.0168348
752.176	0.0167999
752.254	0.0167187
752.332	0.0166148
752.410	0.0166414
752.488	0.0164771
752.567	0.0164161
752.645	0.0164372
752.723	0.0164563
752.801	0.0164124
752.879	0.0164617
752.957	0.0164053
753.035	0.0164058
753.113	0.0164690
753.192	0.0165532
753.270	0.0163357
753.348	0.0164771
753.426	0.0165857
753.504	0.0167122
753.582	0.0166368
753.660	0.0167070
753.738	0.0167657
753.817	0.0167074
753.895	0.0168209
753.973	0.0168703
754.051	0.0168555
754.129	0.0168427
754.207	0.0168604
754.285	0.0168272
754.363	0.0169055
754.442	0.0168299
754.520	0.0168113
754.598	0.0166958
754.676	0.0168025
754.754	0.0167393
754.832	0.0167325
754.910	0.0167535
754.988	0.0167257
755.067	0.0167131
755.145	0.0165002
755.223	0.0164993
755.301	0.0166580
755.379	0.0167094
755.457	0.0165498
755.535	0.0165162
755.613	0.0166157
755.692	0.0166824
755.770	0.0166560
755.848	0.0165989
755.926	0.0165884
756.004	0.0167103
756.082	0.0166911
756.160	0.0167353
756.238	0.0167946
756.317	0.0167735
756.395	0.0168186
756.473	0.0168687
756.551	0.0168188
756.629	0.0168375
756.707	0.0167229
756.785	0.0166719
756.863	0.0167735
756.942	0.0167062
757.020	0.0165742
757.098	0.0166071
757.176	0.0164797
757.254	0.0164312
757.332	0.0164883
757.410	0.0165850
757.488	0.0166522
757.567	0.0166293
757.645	0.0165988
757.723	0.0167351
757.801	0.0165855
757.879	0.0166856
757.957	0.0168107
758.035	0.0168597
758.113	0.0168471
758.192	0.0167950
758.270	0.0168912
758.348	0.0169639
758.426	0.0167357
758.504	0.0168538
758.582	0.0168337
758.660	0.0167722
758.738	0.0168015
758.817	0.0168681
758.895	0.0167411
758.973	0.0167207
759.051	0.0166683
759.129	0.0169123
759.207	0.0166101
759.285	0.0166815
759.363	0.0165475
759.442	0.0165446
759.520	0.0166531
759.598	0.0166290
759.676	0.0165437
759.754	0.0165745
759.832	0.0165155
759.910	0.0164599
759.988	0.0165367
760.067	0.0166003
760.145	0.0165467
760.223	0.0166619
760.301	0.0166586
760.379	0.0165995
760.457	0.0165945
760.535	0.0166589
760.613	0.0166997
760.692	0.0166830
760.770	0.0167579
760.848	0.0167345
760.926	0.0167789
761.004	0.0168539
761.082	0.0167888
761.160	0.0169034
761.238	0.0169561
761.317	0.0169592
761.395	0.0168565
761.473	0.0168824
761.551	0.0169369
761.629	0.0169002
761.707	0.0167918
761.785	0.0167294
761.863	0.0166972
761.942	0.0166399
762.020	0.0165661
762.098	0.0166014
762.176	0.0165382
762.254	0.0162116
762.332	0.0163625
762.410	0.0164056
762.488	0.0163652
762.567	0.0162363
762.645	0.0162396
762.723	0.0163218
762.801	0.0163095
762.879	0.0165144
762.957	0.0164811
763.035	0.0164702
763.113	0.0165766
763.192	0.0165981
763.270	0.0166628
763.348	0.0165938
763.426	0.0165558
763.504	0.0169101
763.582	0.0169514
763.660	0.0170764
763.738	0.0170791
763.817	0.0171119
763.895	0.0171075
763.973	0.0170221
764.051	0.0170058
764.129	0.0170252
764.207	0.0169331
764.285	0.0169379
764.363	0.0167879
764.442	0.0166408
764.520	0.0165063
764.598	0.0163155
764.676	0.0162773
764.754	0.0161787
764.832	0.0161237
764.910	0.0161259
764.988	0.0158742
765.067	0.0159492
765.145	0.0159133
765.223	0.0159916
765.301	0.0161820
765.379	0.0161835
765.457	0.0161825
765.535	0.0162054
765.613	0.0164957
765.692	0.0165745
765.770	0.0166041
765.848	0.0167879
765.926	0.0168029
766.004	0.0168280
766.082	0.0169559
766.160	0.0171187
766.238	0.0172254
766.317	0.0173029
766.395	0.0171313
766.473	0.0172208
766.551	0.0171225
766.629	0.0172138
766.707	0.0172620
766.785	0.0171337
766.863	0.0167909
766.942	0.0169308
767.020	0.0168047
767.098	0.0167172
767.176	0.0165143
767.254	0.0164372
767.332	0.0162944
767.410	0.0162939
767.488	0.0161369
767.567	0.0162302
767.645	0.0161781
767.723	0.0162533
767.801	0.0162814
767.879	0.0162180
767.957	0.0162047
768.035	0.0163500
768.113	0.0163226
768.192	0.0163484
768.270	0.0164606
768.348	0.0163959
768.426	0.0164067
768.504	0.0163857
768.582	0.0165495
768.660	0.0166742
768.738	0.0168706
768.817	0.0167868
768.895	0.0169072
768.973	0.0170483
769.051	0.0171944
769.129	0.0172258
769.207	0.0173354
769.285	0.0174772
769.363	0.0174988
769.442	0.0174890
769.520	0.0174255
769.598	0.0174537
769.676	0.0172968
769.754	0.0172247
769.832	0.0173181
769.910	0.0171376
769.988	0.0168561
770.067	0.0167249
770.145	0.0165093
770.223	0.0163293
770.301	0.0162991
770.379	0.0163345
770.457	0.0161037
770.535	0.0160073
770.613	0.0159950
770.692	0.0159940
770.770	0.0159723
770.848	0.0160031
770.926	0.0162782
771.004	0.0164497
771.082	0.0164130
771.160	0.0165186
771.238	0.0166962
771.317	0.0168339
771.395	0.0168191
771.473	0.0167033
771.551	0.0168345
771.629	0.0167861
771.707	0.0166780
771.785	0.0166809
771.863	0.0166283
771.942	0.0164809
772.020	0.0166221
772.098	0.0166051
772.176	0.0167969
772.254	0.0167706
772.332	0.0166187
772.410	0.0166700
772.488	0.0167133
772.567	0.0168282
772.645	0.0170046
772.723	0.0168661
772.801	0.0169933
772.879	0.0170219
772.957	0.0172482
773.035	0.0172385
773.113	0.0174492
773.192	0.0172727
773.270	0.0173567
773.348	0.0173857
773.426	0.0171889
773.504	0.0170184
773.582	0.0168920
773.660	0.0168646
773.738	0.0165973
773.817	0.0164721
773.895	0.0163396
773.973	0.0160941
774.051	0.0159924
774.129	0.0160383
774.207	0.0160696
774.285	0.0162450
774.363	0.0161990
774.442	0.0164144
774.520	0.0163668
774.598	0.0164513
774.676	0.0165456
774.754	0.0166513
774.832	0.0167309
774.910	0.0168591
774.988	0.0167307
775.067	0.0168394
775.145	0.0167323
775.223	0.0166567
775.301	0.0167232
775.379	0.0168391
775.457	0.0165204
775.535	0.0166975
775.613	0.0168102
775.692	0.0166679
775.770	0.0164697
775.848	0.0164280
775.926	0.0164120
776.004	0.0164233
776.082	0.0164165
776.160	0.0165072
776.238	0.0165398
776.317	0.0163969
776.395	0.0164913
776.473	0.0165115
776.551	0.0165853
776.629	0.0165312
776.707	0.0166621
776.785	0.0168001
776.863	0.0166663
776.942	0.0168348
777.020	0.0169538
777.098	0.0169040
777.176	0.0169367
777.254	0.0170104
777.332	0.0171024
777.410	0.0173638
777.488	0.0172065
777.567	0.0172942
777.645	0.0173822
777.723	0.0173407
777.801	0.0173081
777.879	0.0172861
777.957	0.0171527
778.035	0.0170133
778.113	0.0169655
778.192	0.0167342
778.270	0.0165594
778.348	0.0164500
778.426	0.0164364
778.504	0.0162552
778.582	0.0161532
778.660	0.0161393
778.738	0.0161491
778.817	0.0161295
778.895	0.0162418
778.973	0.0162575
779.051	0.0163895
779.129	0.0165644
779.207	0.0165893
779.285	0.0167603
779.363	0.0168456
779.442	0.0168342
779.520	0.0170139
779.598	0.0170294
779.676	0.0169201
779.754	0.0170468
779.832	0.0170190
779.910	0.0169673
779.988	0.0167194
780.067	0.0167000
780.145	0.0166155
780.223	0.0164841
780.301	0.0162390
780.379	0.0161892
780.457	0.0161282
780.535	0.0160582
780.613	0.0161132
780.692	0.0162469
780.770	0.0164160
780.848	0.0165108
780.926	0.0166329
781.004	0.0166957
781.082	0.0168793
781.160	0.0169267
781.238	0.0171329
781.317	0.0172377
781.395	0.0171214
781.473	0.0171130
781.551	0.0170145
781.629	0.0168227
781.707	0.0168563
781.785	0.0165737
781.863	0.0165948
781.942	0.0162709
782.020	0.0161457
782.098	0.0161760
782.176	0.0158926
782.254	0.0158427
782.332	0.0160311
782.410	0.0160074
782.488	0.0161407
782.567	0.0161496
782.645	0.0163150
782.723	0.0163256
782.801	0.0165701
782.879	0.0166821
782.957	0.0168360
783.035	0.0169923
783.113	0.0170047
783.192	0.0170631
783.270	0.0174169
783.348	0.0173825
783.426	0.0175535
783.504	0.0175998
783.582	0.0175285
783.660	0.0174429
783.738	0.0173359
783.817	0.0172863
783.895	0.0170753
783.973	0.0169893
784.051	0.0168533
784.129	0.0165974
784.207	0.0163976
784.285	0.0164298
784.363	0.0163989
784.442	0.0164083
784.520	0.0164414
784.598	0.0166497
784.676	0.0165129
784.754	0.0166990
784.832	0.0168324
784.910	0.0169004
784.988	0.0167979
785.067	0.0167982
785.145	0.0166883
785.223	0.0166671
785.301	0.0165216
785.379	0.0165655
785.457	0.0163381
785.535	0.0162903
785.613	0.0161255
785.692	0.0158937
785.770	0.0156953
785.848	0.0156136
785.926	0.0155859
786.004	0.0154885
786.082	0.0155334
786.160	0.0155173
786.238	0.0156052
786.317	0.0156487
786.395	0.0157548
786.473	0.0159466
786.551	0.0160961
786.629	0.0163110
786.707	0.0164834
786.785	0.0167262
786.863	0.0168647
786.942	0.0170503
787.020	0.0170963
787.098	0.0171471
787.176	0.0173238
787.254	0.0173537
787.332	0.0172829
787.410	0.0174491
787.488	0.0173143
787.567	0.0176361
787.645	0.0175775
787.723	0.0175282
787.801	0.0175634
787.879	0.0175545
787.957	0.0176498
788.035	0.0175144
788.113	0.0175597
788.192	0.0175065
788.270	0.0173662
788.348	0.0174577
788.426	0.0174518
788.504	0.0173582
788.582	0.0172349
788.660	0.0171808
788.738	0.0171842
788.817	0.0171533
788.895	0.0169103
788.973	0.0168552
789.051	0.0166267
789.129	0.0163097
789.207	0.0163327
789.285	0.0161897
789.363	0.0159995
789.442	0.0158650
789.520	0.0158036
789.598	0.0157524
789.676	0.0156860
789.754	0.0154055
789.832	0.0155110
789.910	0.0154418
789.988	0.0153338
790.067	0.0153690
790.145	0.0153334
790.223	0.0155523
790.301	0.0156346
790.379	0.0155675
790.457	0.0156358
790.535	0.0157542
790.613	0.0158381
790.692	0.0160504
790.770	0.0160243
790.848	0.0160629
790.926	0.0161607
791.004	0.0160889
791.082	0.0161623
791.160	0.0161899
791.238	0.0164028
791.317	0.0163473
791.395	0.0163115
791.473	0.0166742
791.551	0.0167026
791.629	0.0167610
791.707	0.0168873
791.785	0.0170129
791.863	0.0171707
791.942	0.0176108
792.020	0.0175677
792.098	0.0178587
792.176	0.0180070
792.254	0.0180519
792.332	0.0182736
792.410	0.0183261
792.488	0.0184452
792.567	0.0184753
792.645	0.0184341
792.723	0.0182993
792.801	0.0181881
792.879	0.0181203
792.957	0.0181594
793.035	0.0180362
793.113	0.0176389
793.192	0.0176843
793.270	0.0176341
793.348	0.0172871
793.426	0.0170110
793.504	0.0169193
793.582	0.0167245
793.660	0.0165632
793.738	0.0163687
793.817	0.0162987
793.895	0.0160513
793.973	0.0158014
794.051	0.0157166
794.129	0.0155910
794.207	0.0154226
794.285	0.0153230
794.363	0.0153872
794.442	0.0152793
794.520	0.0153229
794.598	0.0153723
794.676	0.0153963
794.754	0.0154046
794.832	0.0153088
794.910	0.0154397
794.988	0.0156768
795.067	0.0157527
795.145	0.0157487
795.223	0.0157616
795.301	0.0159964
795.379	0.0158096
795.457	0.0158806
795.535	0.0159164
795.613	0.0160002
795.692	0.0160458
795.770	0.0160318
795.848	0.0159254
795.926	0.0161420
796.004	0.0161645
796.082	0.0164204
796.160	0.0164874
796.238	0.0166678
796.317	0.0169036
796.395	0.0169270
796.473	0.0170137
796.551	0.0172733
796.629	0.0174448
796.707	0.0175153
796.785	0.0177905
796.863	0.0177426
796.942	0.0178898
797.020	0.0181572
797.098	0.0181792
797.176	0.0181467
797.254	0.0181928
797.332	0.0182997
797.410	0.0182763
797.488	0.0181448
797.567	0.0182355
797.645	0.0180299
797.723	0.0178688
797.801	0.0177194
797.879	0.0175590
797.957	0.0174583
798.035	0.0173013
798.113	0.0170125
798.192	0.0168163
798.270	0.0166574
798.348	0.0165732
798.426	0.0163091
798.504	0.0163340
798.582	0.0162601
798.660	0.0162137
798.738	0.0162367
798.817	0.0162133
798.895	0.0161514
798.973	0.0161399
799.051	0.0163538
799.129	0.0164858
799.207	0.0164823
799.285	0.0164645
799.363	0.0166248
799.442	0.0164577
799.520	0.0166315
799.598	0.0164390
799.676	0.0162860
799.754	0.0163097
799.832	0.0162219
799.910	0.0161869
799.988	0.0161854
800.067	0.0158822
800.145	0.0158193
800.223	0.0157784
800.301	0.0157413
800.379	0.0156588
800.457	0.0155170
800.535	0.0156658
800.613	0.0155416
800.692	0.0155390
800.770	0.0155346
800.848	0.0157305
800.926	0.0156612
801.004	0.0157815
801.082	0.0158607
801.160	0.0161201
801.238	0.0164211
801.317	0.0162395
801.395	0.0164750
801.473	0.0166977
801.551	0.0168963
801.629	0.0171255
801.707	0.0172590
801.785	0.0174396
801.863	0.0175860
801.942	0.0178290
802.020	0.0179155
802.098	0.0180318
802.176	0.0179997
802.254	0.0180440
802.332	0.0179688
802.410	0.0180467
802.488	0.0178523
802.567	0.0177618
802.645	0.0175798
802.723	0.0174157
802.801	0.0172987
802.879	0.0171343
802.957	0.0169579
803.035	0.0167793
803.113	0.0166730
803.192	0.0164420
803.270	0.0166045
803.348	0.0166302
803.426	0.0166135
803.504	0.0165698
803.582	0.0166813
803.660	0.0169068
803.738	0.0170274
803.817	0.0170654
803.895	0.0173196
803.973	0.0173438
804.051	0.0175329
804.129	0.0176035
804.207	0.0176740
804.285	0.0177298
804.363	0.0177092
804.442	0.0175783
804.520	0.0174184
804.598	0.0173197
804.676	0.0170885
804.754	0.0169047
804.832	0.0167432
804.910	0.0162825
804.988	0.0159954
805.067	0.0155779
805.145	0.0152953
805.223	0.0151383
805.301	0.0150048
805.379	0.0146117
805.457	0.0143271
805.535	0.0144456
805.613	0.0141861
805.692	0.0142046
805.770	0.0142384
805.848	0.0143478
805.926	0.0144713
806.004	0.0146794
806.082	0.0150158
806.160	0.0151949
806.238	0.0158208
806.317	0.0160974
806.395	0.0165687
806.473	0.0168659
806.551	0.0173430
806.629	0.0177155
806.707	0.0178685
806.785	0.0182597
806.863	0.0183869
806.942	0.0186646
807.020	0.0185731
807.098	0.0185937
807.176	0.0184187
807.254	0.0181107
807.332	0.0180653
807.410	0.0178214
807.488	0.0174886
807.567	0.0173748
807.645	0.0170587
807.723	0.0167349
807.801	0.0165142
807.879	0.0163157
807.957	0.0161568
808.035	0.0160596
808.113	0.0160403
808.192	0.0158456
808.270	0.0159437
808.348	0.0159762
808.426	0.0161261
808.504	0.0162056
808.582	0.0162937
808.660	0.0163673
808.738	0.0165266
808.817	0.0166255
808.895	0.0169394
808.973	0.0169930
809.051	0.0171658
809.129	0.0171226
809.207	0.0172200
809.285	0.0175030
809.363	0.0173560
809.442	0.0174303
809.520	0.0175490
809.598	0.0172515
809.676	0.0172493
809.754	0.0173264
809.832	0.0171783
809.910	0.0171606
809.988	0.0170466
810.067	0.0168709
810.145	0.0169386
810.223	0.0167580
810.301	0.0167422
810.379	0.0166380
810.457	0.0165469
810.535	0.0164196
810.613	0.0161358
810.692	0.0162345
810.770	0.0160672
810.848	0.0158363
810.926	0.0155880
811.004	0.0155963
811.082	0.0154353
811.160	0.0152060
811.238	0.0153351
811.317	0.0153722
811.395	0.0152753
811.473	0.0153005
811.551	0.0154262
811.629	0.0155998
811.707	0.0158233
811.785	0.0159874
811.863	0.0163409
811.942	0.0165433
812.020	0.0169541
812.098	0.0170948
812.176	0.0173227
812.254	0.0173643
812.332	0.0175293
812.410	0.0173951
812.488	0.0173781
812.567	0.0174924
812.645	0.0173687
812.723	0.0171203
812.801	0.0171366
812.879	0.0167530
812.957	0.0164476
813.035	0.0163678
813.113	0.0159533
813.192	0.0159194
813.270	0.0158674
813.348	0.0156162
813.426	0.0157346
813.504	0.0159147
813.582	0.0160470
813.660	0.0163223
813.738	0.0164559
813.817	0.0167978
813.895	0.0171058
813.973	0.0174637
814.051	0.0177157
814.129	0.0179298
814.207	0.0181821
814.285	0.0183823
814.363	0.0184846
814.442	0.0185422
814.520	0.0184014
814.598	0.0181619
814.676	0.0180447
814.754	0.0179099
814.832	0.0175085
814.910	0.0171922
814.988	0.0171274
815.067	0.0166807
815.145	0.0165769
815.223	0.0164646
815.301	0.0160295
815.379	0.0160584
815.457	0.0160914
815.535	0.0159003
815.613	0.0160688
815.692	0.0160065
815.770	0.0160126
815.848	0.0162142
815.926	0.0163090
816.004	0.0165120
816.082	0.0166479
816.160	0.0169147
816.238	0.0168888
816.317	0.0168909
816.395	0.0167824
816.473	0.0168960
816.551	0.0167325
816.629	0.0166543
816.707	0.0164288
816.785	0.0161856
816.863	0.0161290
816.942	0.0159464
817.020	0.0156476
817.098	0.0154539
817.176	0.0153236
817.254	0.0154007
817.332	0.0153683
817.410	0.0155485
817.488	0.0154573
817.567	0.0155846
817.645	0.0157554
817.723	0.0157914
817.801	0.0160875
817.879	0.0162872
817.957	0.0165990
818.035	0.0167429
818.113	0.0167636
818.192	0.0169017
818.270	0.0170246
818.348	0.0171734
818.426	0.0173990
818.504	0.0172572
818.582	0.0170865
818.660	0.0173108
818.738	0.0173348
818.817	0.0172653
818.895	0.0170939
818.973	0.0169545
819.051	0.0170466
819.129	0.0171183
819.207	0.0170763
819.285	0.0170885
819.363	0.0170436
819.442	0.0170274
819.520	0.0173643
819.598	0.0174191
819.676	0.0172797
819.754	0.0172679
819.832	0.0174268
819.910	0.0176358
819.988	0.0176904
820.067	0.0175926
820.145	0.0174521
820.223	0.0173767
820.301	0.0172665
820.379	0.0173209
820.457	0.0169298
820.535	0.0167171
820.613	0.0166223
820.692	0.0165784
820.770	0.0163172
820.848	0.0160355
820.926	0.0159392
821.004	0.0158261
821.082	0.0157813
821.160	0.0157858
821.238	0.0158082
821.317	0.0158665
821.395	0.0159194
821.473	0.0159587
821.551	0.0161844
821.629	0.0163535
821.707	0.0165888
821.785	0.0167388
821.863	0.0168617
821.942	0.0170150
822.020	0.0173011
822.098	0.0174521
822.176	0.0174697
822.254	0.0174979
822.332	0.0173025
822.410	0.0175431
822.488	0.0173284
822.567	0.0171309
822.645	0.0170495
822.723	0.0167102
822.801	0.0166988
822.879	0.0166528
822.957	0.0163084
823.035	0.0161856
823.113	0.0160688
823.192	0.0158675
823.270	0.0158179
823.348	0.0156910
823.426	0.0157471
823.504	0.0156876
823.582	0.0157565
823.660	0.0157782
823.738	0.0157485
823.817	0.0158341
823.895	0.0159165
823.973	0.0159998
824.051	0.0160243
824.129	0.0161594
824.207	0.0163924
824.285	0.0163477
824.363	0.0165487
824.442	0.0165690
824.520	0.0167093
824.598	0.0167436
824.676	0.0169711
824.754	0.0169869
824.832	0.0170211
824.910	0.0170817
824.988	0.0171034
825.067	0.0171432
825.145	0.0170555
825.223	0.0170569
825.301	0.0171979
825.379	0.0170211
825.457	0.0169987
825.535	0.0170367
825.613	0.0170527
825.692	0.0171057
825.770	0.0169524
825.848	0.0169781
825.926	0.0169290
826.004	0.0170621
826.082	0.0171646
826.160	0.0170384
826.238	0.0171146
826.317	0.0170595
826.395	0.0171178
826.473	0.0172240
826.551	0.0171639
826.629	0.0171974
826.707	0.0171417
826.785	0.0170661
826.863	0.0169154
826.942	0.0169069
827.020	0.0167808
827.098	0.0167216
827.176	0.0167160
827.254	0.0164288
827.332	0.0163276
827.410	0.0162247
827.488	0.0159629
827.567	0.0159127
827.645	0.0158072
827.723	0.0158879
827.801	0.0157303
827.879	0.0157568
827.957	0.0157557
828.035	0.0158858
828.113	0.0161253
828.192	0.0160384
828.270	0.0161966
828.348	0.0163457
828.426	0.0166174
828.504	0.0166267
828.582	0.0168224
828.660	0.0167645
828.738	0.0167701
828.817	0.0171293
828.895	0.0171405
828.973	0.0170506
829.051	0.0169052
829.129	0.0169923
829.207	0.0169060
829.285	0.0167650
829.363	0.0164539
829.442	0.0163723
829.520	0.0163594
829.598	0.0163866
829.676	0.0160857
829.754	0.0160249
829.832	0.0159798
829.910	0.0159728
829.988	0.0158008
830.067	0.0157791
830.145	0.0158652
830.223	0.0160510
830.301	0.0160844
830.379	0.0163814
830.457	0.0165703
830.535	0.0165575
830.613	0.0168563
830.692	0.0170260
830.770	0.0172856
830.848	0.0174257
830.926	0.0175359
831.004	0.0176426
831.082	0.0175784
831.160	0.0177008
831.238	0.0175362
831.317	0.0174873
831.395	0.0173803
831.473	0.0172948
831.551	0.0172921
831.629	0.0168596
831.707	0.0169302
831.785	0.0167134
831.863	0.0165165
831.942	0.0165243
832.020	0.0164205
832.098	0.0164230
832.176	0.0163560
832.254	0.0165601
832.332	0.0164928
832.410	0.0166161
832.488	0.0168578
832.567	0.0167153
832.645	0.0168206
832.723	0.0168913
832.801	0.0169011
832.879	0.0169107
832.957	0.0171255
833.035	0.0172397
833.113	0.0171218
833.192	0.0168806
833.270	0.0170706
833.348	0.0168821
833.426	0.0166341
833.504	0.0165813
833.582	0.0165806
833.660	0.0164669
833.738	0.0163801
833.817	0.0163682
833.895	0.0163471
833.973	0.0162971
834.051	0.0163834
834.129	0.0163632
834.207	0.0165115
834.285	0.0166107
834.363	0.0167757
834.442	0.0167969
834.520	0.0167860
834.598	0.0169311
834.676	0.0170461
834.754	0.0169888
834.832	0.0170430
834.910	0.0169252
834.988	0.0169370
835.067	0.0170076
835.145	0.0168938
835.223	0.0168137
835.301	0.0166519
835.379	0.0165643
835.457	0.0164606
835.535	0.0162012
835.613	0.0160473
835.692	0.0159235
835.770	0.0160423
835.848	0.0159002
835.926	0.0158204
836.004	0.0158971
836.082	0.0158917
836.160	0.0159180
836.238	0.0158959
836.317	0.0160731
836.395	0.0163323
836.473	0.0163748
836.551	0.0164007
836.629	0.0166608
836.707	0.0168799
836.785	0.0170915
836.863	0.0171465
836.942	0.0172376
837.020	0.0172654
837.098	0.0173218
837.176	0.0173869
837.254	0.0174495
837.332	0.0174274
837.410	0.0172356
837.488	0.0172102
837.567	0.0171824
837.645	0.0171362
837.723	0.0169908
837.801	0.0168759
837.879	0.0168761
837.957	0.0167059
838.035	0.0167308
838.113	0.0165815
838.192	0.0165008
838.270	0.0165894
838.348	0.0165599
838.426	0.0165215
838.504	0.0164767
838.582	0.0165942
838.660	0.0166663
838.738	0.0167210
838.817	0.0168556
838.895	0.0170255
838.973	0.0169212
839.051	0.0170727
839.129	0.0171242
839.207	0.0171776
839.285	0.0172481
839.363	0.0173521
839.442	0.0171777
839.520	0.0170760
839.598	0.0169483
839.676	0.0169431
839.754	0.0167325
839.832	0.0166318
839.910	0.0164273
839.988	0.0161800
840.067	0.0162022
840.145	0.0160248
840.223	0.0161520
840.301	0.0159708
840.379	0.0159076
840.457	0.0160406
840.535	0.0160492
840.613	0.0161555
840.692	0.0162016
840.770	0.0163169
840.848	0.0165887
840.926	0.0167538
841.004	0.0168145
841.082	0.0167974
841.160	0.0168402
841.238	0.0168433
841.317	0.0169740
841.395	0.0170181
841.473	0.0169041
841.551	0.0169261
841.629	0.0167851
841.707	0.0167233
841.785	0.0165935
841.863	0.0164300
841.942	0.0164416
842.020	0.0160710
842.098	0.0159422
842.176	0.0159796
842.254	0.0158510
842.332	0.0158049
842.410	0.0157561
842.488	0.0156618
842.567	0.0158876
842.645	0.0159264
842.723	0.0158726
842.801	0.0161034
842.879	0.0163103
842.957	0.0163940
843.035	0.0165852
843.113	0.0167110
843.192	0.0168193
843.270	0.0170747
843.348	0.0172498
843.426	0.0172965
843.504	0.0174010
843.582	0.0172978
843.660	0.0173234
843.738	0.0172787
843.817	0.0171367
843.895	0.0171802
843.973	0.0170429
844.051	0.0168305
844.129	0.0166949
844.207	0.0165756
844.285	0.0165204
844.363	0.0162186
844.442	0.0163340
844.520	0.0163260
844.598	0.0163207
844.676	0.0163042
844.754	0.0164487
844.832	0.0164705
844.910	0.0165733
844.988	0.0167689
845.067	0.0169669
845.145	0.0170152
845.223	0.0171011
845.301	0.0173185
845.379	0.0172993
845.457	0.0174409
845.535	0.0174947
845.613	0.0173528
845.692	0.0173463
845.770	0.0171362
845.848	0.0171696
845.926	0.0170082
846.004	0.0166547
846.082	0.0165940
846.160	0.0164011
846.238	0.0160949
846.317	0.0160229
846.395	0.0158247
846.473	0.0157039
846.551	0.0155441
846.629	0.0155910
846.707	0.0155073
846.785	0.0155647
846.863	0.0158688
846.942	0.0159368
847.020	0.0161346
847.098	0.0163713
847.176	0.0165967
847.254	0.0166650
847.332	0.0169735
847.410	0.0171458
847.488	0.0172690
847.567	0.0173202
847.645	0.0172430
847.723	0.0173357
847.801	0.0172231
847.879	0.0172999
847.957	0.0171098
848.035	0.0168060
848.113	0.0165984
848.192	0.0165811
848.270	0.0165844
848.348	0.0162804
848.426	0.0160967
848.504	0.0159949
848.582	0.0157726
848.660	0.0159579
848.738	0.0159151
848.817	0.0159126
848.895	0.0160006
848.973	0.0160651
849.051	0.0162725
849.129	0.0164390
849.207	0.0165825
849.285	0.0166765
849.363	0.0168172
849.442	0.0169904
849.520	0.0171513
849.598	0.0172422
849.676	0.0173651
849.754	0.0172985
849.832	0.0173872
849.910	0.0173823
849.988	0.0173781
850.067	0.0171706
850.145	0.0171038
850.223	0.0170598
850.301	0.0167747
850.379	0.0168691
850.457	0.0167255
850.535	0.0164574
850.613	0.0163750
850.692	0.0163129
850.770	0.0163656
850.848	0.0162579
850.926	0.0163376
851.004	0.0163125
851.082	0.0162807
851.160	0.0164487
851.238	0.0164622
851.317	0.0164009
851.395	0.0165630
851.473	0.0166051
851.551	0.0168160
851.629	0.0168961
851.707	0.0169160
851.785	0.0170758
851.863	0.0170324
851.942	0.0170993
852.020	0.0170900
852.098	0.0171282
852.176	0.0169358
852.254	0.0169114
852.332	0.0166798
852.410	0.0167014
852.488	0.0167772
852.567	0.0166058
852.645	0.0164526
852.723	0.0163150
852.801	0.0162584
852.879	0.0161790
852.957	0.0161518
853.035	0.0161121
853.113	0.0160329
853.192	0.0161216
853.270	0.0161005
853.348	0.0161026
853.426	0.0163232
853.504	0.0164590
853.582	0.0163873
853.660	0.0167572
853.738	0.0167931
853.817	0.0168633
853.895	0.0170277
853.973	0.0171656
854.051	0.0172865
854.129	0.0172876
854.207	0.0172752
854.285	0.0172445
854.363	0.0171364
854.442	0.0171663
854.520	0.0170013
854.598	0.0170514
854.676	0.0167950
854.754	0.0167615
854.832	0.0166355
854.910	0.0164207
854.988	0.0163094
855.067	0.0161880
855.145	0.0159749
855.223	0.0161451
855.301	0.0161580
855.379	0.0160469
855.457	0.0162723
855.535	0.0162111
855.613	0.0162504
855.692	0.0165387
855.770	0.0165850
855.848	0.0167314
855.926	0.0168944
856.004	0.0169908
856.082	0.0170383
856.160	0.0171417
856.238	0.0171075
856.317	0.0173336
856.395	0.0171100
856.473	0.0170933
856.551	0.0172798
856.629	0.0171395
856.707	0.0170343
856.785	0.0170881
856.863	0.0168869
856.942	0.0168006
857.020	0.0167876
857.098	0.0166829
857.176	0.0165768
857.254	0.0166710
857.332	0.0164863
857.410	0.0165588
857.488	0.0165878
857.567	0.0165641
857.645	0.0165472
857.723	0.0165187
857.801	0.0168389
857.879	0.0167734
857.957	0.0169312
858.035	0.0169259
858.113	0.0170807
858.192	0.0171940
858.270	0.0170493
858.348	0.0170232
858.426	0.0169817
858.504	0.0171069
858.582	0.0171165
858.660	0.0170604
858.738	0.0167886
858.817	0.0168563
858.895	0.0166515
858.973	0.0164333
859.051	0.0162495
859.129	0.0163252
859.207	0.0162456
859.285	0.0160677
859.363	0.0161282
859.442	0.0161076
859.520	0.0160159
859.598	0.0161464
859.676	0.0163046
859.754	0.0162574
859.832	0.0164629
859.910	0.0165903
859.988	0.0167422
860.067	0.0168050
860.145	0.0169995
860.223	0.0170838
860.301	0.0170959
860.379	0.0171249
860.457	0.0173001
860.535	0.0171815
860.613	0.0172846
860.692	0.0172926
860.770	0.0172272
860.848	0.0170475
860.926	0.0169560
861.004	0.0168146
861.082	0.0167001
861.160	0.0163813
861.238	0.0162719
861.317	0.0162332
861.395	0.0161977
861.473	0.0160815
861.551	0.0162117
861.629	0.0162526
861.707	0.0162405
861.785	0.0162159
861.863	0.0163564
861.942	0.0164484
862.020	0.0164928
862.098	0.0166006
862.176	0.0168272
862.254	0.0167453
862.332	0.0169431
862.410	0.0170615
862.488	0.0171973
862.567	0.0172929
862.645	0.0171235
862.723	0.0171861
862.801	0.0172149
862.879	0.0171936
862.957	0.0171004
863.035	0.0167770
863.113	0.0167334
863.192	0.0166582
863.270	0.0167360
863.348	0.0164898
863.426	0.0163906
863.504	0.0163892
863.582	0.0163541
863.660	0.0163545
863.738	0.0163360
863.817	0.0164257
863.895	0.0164279
863.973	0.0163501
864.051	0.0166244
864.129	0.0166506
864.207	0.0167851
864.285	0.0168544
864.363	0.0169245
864.442	0.0168888
864.520	0.0168782
864.598	0.0171725
864.676	0.0171970
864.754	0.0171101
864.832	0.0171786
864.910	0.0170473
864.988	0.0170084
865.067	0.0168004
865.145	0.0168456
865.223	0.0167849
865.301	0.0167525
865.379	0.0164961
865.457	0.0162249
865.535	0.0162200
865.613	0.0161630
865.692	0.0161478
865.770	0.0159266
865.848	0.0160635
865.926	0.0159420
866.004	0.0159766
866.082	0.0160606
866.160	0.0161436
866.238	0.0161154
866.317	0.0162962
866.395	0.0164512
866.473	0.0165953
866.551	0.0166735
866.629	0.0168214
866.707	0.0168897
866.785	0.0170588
866.863	0.0169786
866.942	0.0170583
867.020	0.0170781
867.098	0.0170980
867.176	0.0169158
867.254	0.0167665
867.332	0.0167496
867.410	0.0166684
867.488	0.0165079
867.567	0.0164030
867.645	0.0161861
867.723	0.0163637
867.801	0.0161445
867.879	0.0160792
867.957	0.0160400
868.035	0.0159881
868.113	0.0159703
868.192	0.0161031
868.270	0.0161875
868.348	0.0161534
868.426	0.0162554
868.504	0.0164694
868.582	0.0165528
868.660	0.0166309
868.738	0.0168742
868.817	0.0169392
868.895	0.0168816
868.973	0.0171067
869.051	0.0169420
869.129	0.0170057
869.207	0.0170397
869.285	0.0169598
869.363	0.0170460
869.442	0.0168408
869.520	0.0168798
869.598	0.0169338
869.676	0.0167527
869.754	0.0165856
869.832	0.0167030
869.910	0.0165683
869.988	0.0167701
870.067	0.0166722
870.145	0.0167467
870.223	0.0168191
870.301	0.0168398
870.379	0.0170496
870.457	0.0170918
870.535	0.0169620
870.613	0.0171816
870.692	0.0172080
870.770	0.0171661
870.848	0.0172565
870.926	0.0172589
871.004	0.0173737
871.082	0.0173447
871.160	0.0172848
871.238	0.0172490
871.317	0.0171040
871.395	0.0170115
871.473	0.0168301
871.551	0.0168211
871.629	0.0166355
871.707	0.0164727
871.785	0.0164442
871.863	0.0163567
871.942	0.0162202
872.020	0.0161180
872.098	0.0159892
872.176	0.0158986
872.254	0.0160347
872.332	0.0159721
872.410	0.0159406
872.488	0.0159494
872.567	0.0159942
872.645	0.0162182
872.723	0.0161578
872.801	0.0162072
872.879	0.0164556
872.957	0.0166039
873.035	0.0165206
873.113	0.0167338
873.192	0.0167832
873.270	0.0167715
873.348	0.0167608
873.426	0.0166863
873.504	0.0167983
873.582	0.0167985
873.660	0.0167162
873.738	0.0165952
873.817	0.0165267
873.895	0.0166022
873.973	0.0164455
874.051	0.0164597
874.129	0.0164659
874.207	0.0164103
874.285	0.0163427
874.363	0.0164215
874.442	0.0163528
874.520	0.0162798
874.598	0.0164597
874.676	0.0165847
874.754	0.0164890
874.832	0.0167204
874.910	0.0166548
874.988	0.0167268
875.067	0.0168662
875.145	0.0168954
875.223	0.0168415
875.301	0.0169579
875.379	0.0170767
875.457	0.0171305
875.535	0.0170719
875.613	0.0170258
875.692	0.0171164
875.770	0.0170028
875.848	0.0169511
875.926	0.0169984
876.004	0.0170456
876.082	0.0167188
876.160	0.0168049
876.238	0.0167905
876.317	0.0167681
876.395	0.0168531
876.473	0.0167758
876.551	0.0167644
876.629	0.0167358
876.707	0.0168857
876.785	0.0169340
876.863	0.0168402
876.942	0.0169943
877.020	0.0169266
877.098	0.0169912
877.176	0.0170747
877.254	0.0170012
877.332	0.0170731
877.410	0.0170225
877.488	0.0170448
877.567	0.0169534
877.645	0.0167455
877.723	0.0168074
877.801	0.0166962
877.879	0.0165929
877.957	0.0166378
878.035	0.0166011
878.113	0.0163502
878.192	0.0161697
878.270	0.0161885
878.348	0.0160685
878.426	0.0158964
878.504	0.0158365
878.582	0.0159320
878.660	0.0158698
878.738	0.0158437
878.817	0.0157786
878.895	0.0159476
878.973	0.0160007
879.051	0.0159621
879.129	0.0161665
879.207	0.0164493
879.285	0.0163606
879.363	0.0165359
879.442	0.0166220
879.520	0.0166109
879.598	0.0168173
879.676	0.0168267
879.754	0.0167679
879.832	0.0168858
879.910	0.0169445
879.988	0.0168975
880.067	0.0169379
880.145	0.0168369
880.223	0.0166296
880.301	0.0166180
880.379	0.0167919
880.457	0.0167109
880.535	0.0166242
880.613	0.0164951
880.692	0.0166354
880.770	0.0165122
880.848	0.0165561
880.926	0.0167380
881.004	0.0167374
881.082	0.0167114
881.160	0.0167521
881.238	0.0168191
881.317	0.0167977
881.395	0.0168427
881.473	0.0167188
881.551	0.0169584
881.629	0.0169801
881.707	0.0169188
881.785	0.0170432
881.863	0.0168861
881.942	0.0170495
882.020	0.0168459
882.098	0.0168476
882.176	0.0167966
882.254	0.0167097
882.332	0.0165985
882.410	0.0165508
882.488	0.0165309
882.567	0.0164811
882.645	0.0164041
882.723	0.0163549
882.801	0.0163385
882.879	0.0163266
882.957	0.0164027
883.035	0.0164731
883.113	0.0163874
883.192	0.0166019
883.270	0.0166405
883.348	0.0167398
883.426	0.0169789
883.504	0.0168448
883.582	0.0169688
883.660	0.0169571
883.738	0.0170473
883.817	0.0169847
883.895	0.0171152
883.973	0.0170290
884.051	0.0169929
884.129	0.0169981
884.207	0.0169372
884.285	0.0167890
884.363	0.0167872
884.442	0.0166934
884.520	0.0164679
884.598	0.0164917
884.676	0.0164965
884.754	0.0164020
884.832	0.0163383
884.910	0.0162371
884.988	0.0161513
885.067	0.0161931
885.145	0.0159940
885.223	0.0161653
885.301	0.0162105
885.379	0.0162695
885.457	0.0161313
885.535	0.0162745
885.613	0.0164484
885.692	0.0164841
885.770	0.0165485
885.848	0.0165392
885.926	0.0166646
886.004	0.0165690
886.082	0.0167599
886.160	0.0168165
886.238	0.0166493
886.317	0.0167094
886.395	0.0167345
886.473	0.0167690
886.551	0.0166348
886.629	0.0165609
886.707	0.0165562
886.785	0.0164056
886.863	0.0165509
886.942	0.0164821
887.020	0.0163609
887.098	0.0163043
887.176	0.0163517
887.254	0.0162785
887.332	0.0162833
887.410	0.0163107
887.488	0.0165444
887.567	0.0164465
887.645	0.0164889
887.723	0.0165695
887.801	0.0166129
887.879	0.0166442
887.957	0.0167074
888.035	0.0167508
888.113	0.0168495
888.192	0.0169653
888.270	0.0169586
888.348	0.0170274
888.426	0.0168920
888.504	0.0170061
888.582	0.0169892
888.660	0.0170171
888.738	0.0170247
888.817	0.0168501
888.895	0.0170204
888.973	0.0168624
889.051	0.0168453
889.129	0.0168556
889.207	0.0169295
889.285	0.0168812
889.363	0.0166866
889.442	0.0167944
889.520	0.0167201
889.598	0.0167802
889.676	0.0167905
889.754	0.0167562
889.832	0.0168192
889.910	0.0167892
889.988	0.0169540
890.067	0.0169653
890.145	0.0167567
890.223	0.0168455
890.301	0.0168824
890.379	0.0168301
890.457	0.0168073
890.535	0.0166288
890.613	0.0165980
890.692	0.0165624
890.770	0.0164552
890.848	0.0164863
890.926	0.0163454
891.004	0.0162244
891.082	0.0161931
891.160	0.0161758
891.238	0.0160824
891.317	0.0161425
891.395	0.0160319
891.473	0.0159894
891.551	0.0161085
891.629	0.0161108
891.707	0.0160437
891.785	0.0160460
891.863	0.0160392
891.942	0.0162062
892.020	0.0160821
892.098	0.0163170
892.176	0.0164386
892.254	0.0163622
892.332	0.0165912
892.410	0.0165517
892.488	0.0167645
892.567	0.0169609
892.645	0.0168368
892.723	0.0169154
892.801	0.0170478
892.879	0.0168631
892.957	0.0168575
893.035	0.0168731
893.113	0.0169322
893.192	0.0170179
893.270	0.0168951
893.348	0.0168066
893.426	0.0166612
893.504	0.0170168
893.582	0.0168592
893.660	0.0169656
893.738	0.0167900
893.817	0.0168494
893.895	0.0169653
893.973	0.0167829
894.051	0.0169263
894.129	0.0169407
894.207	0.0169878
894.285	0.0170281
894.363	0.0170491
894.442	0.0169254
894.520	0.0168977
894.598	0.0170041
894.676	0.0170435
894.754	0.0170476
894.832	0.0168088
894.910	0.0169244
894.988	0.0168334
895.067	0.0168934
895.145	0.0167101
895.223	0.0166066
895.301	0.0165678
895.379	0.0164814
895.457	0.0166095
895.535	0.0164191
895.613	0.0163230
895.692	0.0164415
895.770	0.0163660
895.848	0.0161304
895.926	0.0162723
896.004	0.0163066
896.082	0.0163899
896.160	0.0164359
896.238	0.0163932
896.317	0.0164539
896.395	0.0165204
896.473	0.0166589
896.551	0.0164949
896.629	0.0167331
896.707	0.0166534
896.785	0.0166124
896.863	0.0167493
896.942	0.0168563
897.020	0.0168670
897.098	0.0167679
897.176	0.0167997
897.254	0.0167598
897.332	0.0165807
897.410	0.0166749
897.488	0.0165555
897.567	0.0164276
897.645	0.0165118
897.723	0.0163766
897.801	0.0162642
897.879	0.0163345
897.957	0.0161620
898.035	0.0161444
898.113	0.0163616
898.192	0.0163319
898.270	0.0163031
898.348	0.0162473
898.426	0.0163926
898.504	0.0164633
898.582	0.0166802
898.660	0.0167486
898.738	0.0167274
898.817	0.0167319
898.895	0.0169174
898.973	0.0170200
899.051	0.0169615
899.129	0.0171684
899.207	0.0172491
899.285	0.0173096
899.363	0.0171796
899.442	0.0172519
899.520	0.0171216
899.598	0.0172788
899.676	0.0171347
899.754	0.0169535
899.832	0.0170234
899.910	0.0167789
899.988	0.0167503
900.067	0.0168750
900.145	0.0167941
900.223	0.0166138
900.301	0.0165833
900.379	0.0167495
900.457	0.0165752
900.535	0.0167102
900.613	0.0167372
900.692	0.0167145
900.770	0.0167883
900.848	0.0167532
900.926	0.0167506
901.004	0.0167683
901.082	0.0167076
901.160	0.0167266
901.238	0.0168510
901.317	0.0168382
901.395	0.0166344
901.473	0.0167069
901.551	0.0166771
901.629	0.0166772
901.707	0.0164722
901.785	0.0165434
901.863	0.0164404
901.942	0.0163544
902.020	0.0162881
902.098	0.0162217
902.176	0.0161549
902.254	0.0159978
902.332	0.0159759
902.410	0.0160145
902.488	0.0161076
902.567	0.0159958
902.645	0.0160475
902.723	0.0162205
902.801	0.0161730
902.879	0.0163867
902.957	0.0164145
903.035	0.0165905
903.113	0.0166927
903.192	0.0166729
903.270	0.0166988
903.348	0.0169226
903.426	0.0169067
903.504	0.0169547
903.582	0.0168802
903.660	0.0169818
903.738	0.0169413
903.817	0.0169276
903.895	0.0168921
903.973	0.0169253
904.051	0.0167878
904.129	0.0166102
904.207	0.0165105
904.285	0.0166335
904.363	0.0166893
904.442	0.0164413
904.520	0.0164675
904.598	0.0165176
904.676	0.0162609
904.754	0.0163691
904.832	0.0163139
904.910	0.0164339
904.988	0.0164924
905.067	0.0164001
905.145	0.0165286
905.223	0.0165868
905.301	0.0165797
905.379	0.0167921
905.457	0.0167516
905.535	0.0166790
905.613	0.0166994
905.692	0.0168991
905.770	0.0167824
905.848	0.0169543
905.926	0.0168840
906.004	0.0169518
906.082	0.0167828
906.160	0.0167038
906.238	0.0169339
906.317	0.0168047
906.395	0.0167583
906.473	0.0167134
906.551	0.0165743
906.629	0.0166875
906.707	0.0166262
906.785	0.0166064
906.863	0.0165194
906.942	0.0165190
907.020	0.0165482
907.098	0.0163700
907.176	0.0163378
907.254	0.0164034
907.332	0.0164075
907.410	0.0163813
907.488	0.0164078
907.567	0.0164787
907.645	0.0165446
907.723	0.0166074
907.801	0.0165930
907.879	0.0165556
907.957	0.0165844
908.035	0.0166679
908.113	0.0164962
908.192	0.0164957
908.270	0.0166077
908.348	0.0164877
908.426	0.0164056
908.504	0.0163732
908.582	0.0162032
908.660	0.0163751
908.738	0.0161461
908.817	0.0162148
908.895	0.0162849
908.973	0.0162547
909.051	0.0162936
909.129	0.0163802
909.207	0.0162947
909.285	0.0162971
909.363	0.0164624
909.442	0.0165141
909.520	0.0166514
909.598	0.0167560
909.676	0.0166886
909.754	0.0167355
909.832	0.0169506
909.910	0.0167964
909.988	0.0168254
910.067	0.0169662
910.145	0.0171587
910.223	0.0169804
910.301	0.0169415
910.379	0.0170341
910.457	0.0170985
910.535	0.0170305
910.613	0.0169094
910.692	0.0170519
910.770	0.0170725
910.848	0.0170213
910.926	0.0169251
911.004	0.0168605
911.082	0.0168420
911.160	0.0168159
911.238	0.0165977
911.317	0.0168330
911.395	0.0166302
911.473	0.0167228
911.551	0.0166831
911.629	0.0166520
911.707	0.0166502
911.785	0.0165384
911.863	0.0167426
911.942	0.0167809
912.020	0.0167149
912.098	0.0165785
912.176	0.0167535
912.254	0.0167003
912.332	0.0167315
912.410	0.0168403
912.488	0.0166896
912.567	0.0167345
912.645	0.0168366
912.723	0.0166386
912.801	0.0167535
912.879	0.0166263
912.957	0.0165874
913.035	0.0166420
913.113	0.0165666
913.192	0.0164482
913.270	0.0164364
913.348	0.0164321
913.426	0.0165522
913.504	0.0165213
913.582	0.0164961
913.660	0.0163908
913.738	0.0165177
913.817	0.0164186
913.895	0.0164897
913.973	0.0164793
914.051	0.0166045
914.129	0.0166579
914.207	0.0166878
914.285	0.0165873
914.363	0.0168023
914.442	0.0167290
914.520	0.0167470
914.598	0.0166466
914.676	0.0166618
914.754	0.0167164
914.832	0.0166644
914.910	0.0167154
914.988	0.0165850
915.067	0.0166557
915.145	0.0165692
915.223	0.0165017
915.301	0.0164178
915.379	0.0165678
915.457	0.0166561
915.535	0.0165605
915.613	0.0166609
915.692	0.0166358
915.770	0.0166251
915.848	0.0167484
915.926	0.0166185
916.004	0.0168809
916.082	0.0167709
916.160	0.0168356
916.238	0.0168592
916.317	0.0168489
916.395	0.0170069
916.473	0.0170847
916.551	0.0170947
916.629	0.0171732
916.707	0.0169720
916.785	0.0170361
916.863	0.0169100
916.942	0.0170512
917.020	0.0169161
917.098	0.0169197
917.176	0.0167883
917.254	0.0166934
917.332	0.0166055
917.410	0.0166467
917.488	0.0164845
917.567	0.0166032
917.645	0.0164264
917.723	0.0163190
917.801	0.0164185
917.879	0.0164125
917.957	0.0164948
918.035	0.0164615
918.113	0.0163683
918.192	0.0164413
918.270	0.0164983
918.348	0.0167863
918.426	0.0167510
918.504	0.0167622
918.582	0.0168232
918.660	0.0169571
918.738	0.0168551
918.817	0.0167492
918.895	0.0169587
918.973	0.0170412
919.051	0.0169272
919.129	0.0168352
919.207	0.0168365
919.285	0.0168790
919.363	0.0167698
919.442	0.0166644
919.520	0.0166347
919.598	0.0167550
919.676	0.0165678
919.754	0.0164308
919.832	0.0164297
919.910	0.0163546
