06/10/2022	16:26:47	Ver.	4.1	UNKNOWN
Optical Delay	599.988409	Delta X		0.078125	Sweeps	1	Scan Rate	0/0
Coordinates	Axis 1	NaN	Axis 2	NaN	Axis 3	NaN	Axis 4	NaN	Axis 5	NaN	Axis 6	0.000000
TX Power	0.000000	RX Power	0.000000

599.988	0.0166329
600.067	0.0166209
600.145	0.0164968
600.223	0.0167062
600.301	0.0166785
600.379	0.0167493
600.457	0.0166367
600.535	0.0165794
600.613	0.0166689
600.692	0.0167101
600.770	0.0167036
600.848	0.0167094
600.926	0.0165491
601.004	0.0166542
601.082	0.0166856
601.160	0.0166810
601.238	0.0166436
601.317	0.0166096
601.395	0.0165812
601.473	0.0167463
601.551	0.0167563
601.629	0.0167306
601.707	0.0167763
601.785	0.0166856
601.863	0.0166959
601.942	0.0167268
602.020	0.0167950
602.098	0.0166480
602.176	0.0167477
602.254	0.0166553
602.332	0.0165707
602.410	0.0167328
602.488	0.0167010
602.567	0.0166215
602.645	0.0168265
602.723	0.0165890
602.801	0.0166410
602.879	0.0167089
602.957	0.0166250
603.035	0.0166745
603.113	0.0167649
603.192	0.0166383
603.270	0.0167961
603.348	0.0168045
603.426	0.0166719
603.504	0.0167523
603.582	0.0167255
603.660	0.0166860
603.738	0.0167470
603.817	0.0166483
603.895	0.0166885
603.973	0.0168304
604.051	0.0166698
604.129	0.0167225
604.207	0.0168513
604.285	0.0168228
604.363	0.0168034
604.442	0.0169480
604.520	0.0167075
604.598	0.0167192
604.676	0.0168076
604.754	0.0167821
604.832	0.0167576
604.910	0.0166560
604.988	0.0167676
605.067	0.0167439
605.145	0.0167847
605.223	0.0167252
605.301	0.0167226
605.379	0.0167547
605.457	0.0167385
605.535	0.0166508
605.613	0.0167302
605.692	0.0167014
605.770	0.0168011
605.848	0.0166787
605.926	0.0166909
606.004	0.0166761
606.082	0.0167142
606.160	0.0168625
606.238	0.0167206
606.317	0.0165518
606.395	0.0167273
606.473	0.0167324
606.551	0.0167178
606.629	0.0167973
606.707	0.0168025
606.785	0.0168855
606.863	0.0167452
606.942	0.0166985
607.020	0.0167940
607.098	0.0166301
607.176	0.0167323
607.254	0.0167743
607.332	0.0167789
607.410	0.0167402
607.488	0.0165802
607.567	0.0166862
607.645	0.0167670
607.723	0.0167093
607.801	0.0169208
607.879	0.0168251
607.957	0.0166070
608.035	0.0166921
608.113	0.0168536
608.192	0.0168701
608.270	0.0166640
608.348	0.0167566
608.426	0.0166582
608.504	0.0166891
608.582	0.0167332
608.660	0.0167049
608.738	0.0167160
608.817	0.0168283
608.895	0.0167935
608.973	0.0168321
609.051	0.0164869
609.129	0.0167179
609.207	0.0167593
609.285	0.0167356
609.363	0.0168771
609.442	0.0167427
609.520	0.0166624
609.598	0.0167162
609.676	0.0168399
609.754	0.0166959
609.832	0.0167409
609.910	0.0167466
609.988	0.0167393
610.067	0.0166514
610.145	0.0167353
610.223	0.0166737
610.301	0.0167748
610.379	0.0166573
610.457	0.0167407
610.535	0.0166158
610.613	0.0166978
610.692	0.0166116
610.770	0.0167828
610.848	0.0168749
610.926	0.0166938
611.004	0.0164992
611.082	0.0166480
611.160	0.0167701
611.238	0.0165831
611.317	0.0166693
611.395	0.0165839
611.473	0.0166750
611.551	0.0166030
611.629	0.0167165
611.707	0.0167403
611.785	0.0166928
611.863	0.0166730
611.942	0.0168127
612.020	0.0167905
612.098	0.0167004
612.176	0.0165862
612.254	0.0166978
612.332	0.0166925
612.410	0.0166225
612.488	0.0167173
612.567	0.0165838
612.645	0.0167148
612.723	0.0167850
612.801	0.0167361
612.879	0.0166241
612.957	0.0166709
613.035	0.0166763
613.113	0.0164431
613.192	0.0166907
613.270	0.0167229
613.348	0.0165567
613.426	0.0166676
613.504	0.0166678
613.582	0.0165017
613.660	0.0166624
613.738	0.0165810
613.817	0.0167850
613.895	0.0167170
613.973	0.0166778
614.051	0.0167850
614.129	0.0166254
614.207	0.0167753
614.285	0.0167230
614.363	0.0167311
614.442	0.0166994
614.520	0.0167294
614.598	0.0165633
614.676	0.0166792
614.754	0.0167081
614.832	0.0166657
614.910	0.0167049
614.988	0.0166324
615.067	0.0167245
615.145	0.0166681
615.223	0.0166365
615.301	0.0167046
615.379	0.0166491
615.457	0.0167346
615.535	0.0168440
615.613	0.0167091
615.692	0.0166853
615.770	0.0165884
615.848	0.0167202
615.926	0.0168279
616.004	0.0165289
616.082	0.0167713
616.160	0.0165937
616.238	0.0167307
616.317	0.0165949
616.395	0.0167150
616.473	0.0167013
616.551	0.0166203
616.629	0.0167274
616.707	0.0166999
616.785	0.0166845
616.863	0.0166024
616.942	0.0166567
617.020	0.0166752
617.098	0.0165607
617.176	0.0167818
617.254	0.0167893
617.332	0.0168279
617.410	0.0167881
617.488	0.0164927
617.567	0.0165974
617.645	0.0167571
617.723	0.0167151
617.801	0.0166423
617.879	0.0167370
617.957	0.0165945
618.035	0.0165514
618.113	0.0167197
618.192	0.0166357
618.270	0.0165247
618.348	0.0166122
618.426	0.0166859
618.504	0.0167307
618.582	0.0166666
618.660	0.0167067
618.738	0.0167963
618.817	0.0166689
618.895	0.0165730
618.973	0.0166814
619.051	0.0167794
619.129	0.0167142
619.207	0.0166724
619.285	0.0165828
619.363	0.0166952
619.442	0.0165647
619.520	0.0167390
619.598	0.0167178
619.676	0.0167490
619.754	0.0166840
619.832	0.0167835
619.910	0.0166992
619.988	0.0166537
620.067	0.0166783
620.145	0.0167100
620.223	0.0166787
620.301	0.0167220
620.379	0.0165624
620.457	0.0167150
620.535	0.0166815
620.613	0.0166444
620.692	0.0166422
620.770	0.0166734
620.848	0.0166412
620.926	0.0166429
621.004	0.0167408
621.082	0.0165443
621.160	0.0167921
621.238	0.0167339
621.317	0.0165382
621.395	0.0166645
621.473	0.0168935
621.551	0.0166620
621.629	0.0167365
621.707	0.0165759
621.785	0.0168062
621.863	0.0168295
621.942	0.0167233
622.020	0.0167876
622.098	0.0165894
622.176	0.0165837
622.254	0.0166343
622.332	0.0166594
622.410	0.0166286
622.488	0.0168931
622.567	0.0166980
622.645	0.0166821
622.723	0.0165894
622.801	0.0165150
622.879	0.0166279
622.957	0.0167786
623.035	0.0167910
623.113	0.0168041
623.192	0.0167332
623.270	0.0166444
623.348	0.0167738
623.426	0.0167957
623.504	0.0166299
623.582	0.0166977
623.660	0.0167675
623.738	0.0167456
623.817	0.0166073
623.895	0.0167233
623.973	0.0167866
624.051	0.0167629
624.129	0.0167274
624.207	0.0166954
624.285	0.0165799
624.363	0.0167236
624.442	0.0166769
624.520	0.0166490
624.598	0.0167046
624.676	0.0167071
624.754	0.0166740
624.832	0.0166219
624.910	0.0166987
624.988	0.0166950
625.067	0.0168011
625.145	0.0167761
625.223	0.0167480
625.301	0.0166560
625.379	0.0167100
625.457	0.0167485
625.535	0.0167827
625.613	0.0167533
625.692	0.0167136
625.770	0.0166978
625.848	0.0168102
625.926	0.0167881
626.004	0.0167279
626.082	0.0166022
626.160	0.0165878
626.238	0.0166966
626.317	0.0167122
626.395	0.0166151
626.473	0.0167231
626.551	0.0166914
626.629	0.0167052
626.707	0.0167672
626.785	0.0167189
626.863	0.0166969
626.942	0.0167010
627.020	0.0165109
627.098	0.0167062
627.176	0.0168208
627.254	0.0167779
627.332	0.0165817
627.410	0.0166464
627.488	0.0166951
627.567	0.0167053
627.645	0.0167085
627.723	0.0167461
627.801	0.0167956
627.879	0.0166220
627.957	0.0166018
628.035	0.0166645
628.113	0.0166061
628.192	0.0167089
628.270	0.0167728
628.348	0.0166795
628.426	0.0166541
628.504	0.0167297
628.582	0.0165922
628.660	0.0166422
628.738	0.0167274
628.817	0.0166743
628.895	0.0166187
628.973	0.0166846
629.051	0.0166581
629.129	0.0166810
629.207	0.0166509
629.285	0.0167348
629.363	0.0166472
629.442	0.0167080
629.520	0.0167401
629.598	0.0166985
629.676	0.0167385
629.754	0.0165301
629.832	0.0167333
629.910	0.0166754
629.988	0.0165826
630.067	0.0167915
630.145	0.0167278
630.223	0.0167227
630.301	0.0167685
630.379	0.0166943
630.457	0.0165794
630.535	0.0167385
630.613	0.0166613
630.692	0.0167358
630.770	0.0166637
630.848	0.0167190
630.926	0.0164690
631.004	0.0167937
631.082	0.0167638
631.160	0.0167519
631.238	0.0166613
631.317	0.0167597
631.395	0.0167374
631.473	0.0166463
631.551	0.0167370
631.629	0.0166364
631.707	0.0166782
631.785	0.0166830
631.863	0.0166646
631.942	0.0167773
632.020	0.0167133
632.098	0.0167197
632.176	0.0167239
632.254	0.0167485
632.332	0.0165852
632.410	0.0166405
632.488	0.0168302
632.567	0.0166235
632.645	0.0166980
632.723	0.0166180
632.801	0.0166666
632.879	0.0168337
632.957	0.0166640
633.035	0.0167000
633.113	0.0166543
633.192	0.0168600
633.270	0.0166590
633.348	0.0166664
633.426	0.0167024
633.504	0.0168002
633.582	0.0167528
633.660	0.0167754
633.738	0.0167661
633.817	0.0167933
633.895	0.0166861
633.973	0.0166207
634.051	0.0166910
634.129	0.0167069
634.207	0.0166876
634.285	0.0167032
634.363	0.0167700
634.442	0.0166856
634.520	0.0168113
634.598	0.0166366
634.676	0.0168740
634.754	0.0166121
634.832	0.0166488
634.910	0.0166648
634.988	0.0166689
635.067	0.0166805
635.145	0.0166635
635.223	0.0167369
635.301	0.0166562
635.379	0.0168307
635.457	0.0167953
635.535	0.0166380
635.613	0.0166143
635.692	0.0167798
635.770	0.0167830
635.848	0.0168134
635.926	0.0166846
636.004	0.0167581
636.082	0.0166209
636.160	0.0166936
636.238	0.0167020
636.317	0.0168208
636.395	0.0168070
636.473	0.0165945
636.551	0.0166256
636.629	0.0166439
636.707	0.0168427
636.785	0.0167033
636.863	0.0166840
636.942	0.0167770
637.020	0.0167305
637.098	0.0168344
637.176	0.0166475
637.254	0.0166717
637.332	0.0168414
637.410	0.0168208
637.488	0.0166731
637.567	0.0165648
637.645	0.0168440
637.723	0.0167658
637.801	0.0166928
637.879	0.0167406
637.957	0.0168230
638.035	0.0165889
638.113	0.0167007
638.192	0.0166613
638.270	0.0168023
638.348	0.0167379
638.426	0.0167494
638.504	0.0167003
638.582	0.0167298
638.660	0.0166929
638.738	0.0167225
638.817	0.0168050
638.895	0.0167822
638.973	0.0165120
639.051	0.0168013
639.129	0.0167392
639.207	0.0167292
639.285	0.0167300
639.363	0.0168167
639.442	0.0167885
639.520	0.0167318
639.598	0.0167634
639.676	0.0166855
639.754	0.0166594
639.832	0.0166354
639.910	0.0166253
639.988	0.0167919
640.067	0.0166000
640.145	0.0166367
640.223	0.0167738
640.301	0.0167542
640.379	0.0166688
640.457	0.0166421
640.535	0.0168117
640.613	0.0167607
640.692	0.0167143
640.770	0.0166309
640.848	0.0166795
640.926	0.0166942
641.004	0.0167482
641.082	0.0167487
641.160	0.0166100
641.238	0.0167048
641.317	0.0168127
641.395	0.0167817
641.473	0.0168034
641.551	0.0168382
641.629	0.0168469
641.707	0.0167479
641.785	0.0165913
641.863	0.0167571
641.942	0.0167815
642.020	0.0168394
642.098	0.0167633
642.176	0.0167925
642.254	0.0167899
642.332	0.0168124
642.410	0.0167325
642.488	0.0168278
642.567	0.0168494
642.645	0.0167870
642.723	0.0166666
642.801	0.0166618
642.879	0.0167948
642.957	0.0168121
643.035	0.0167542
643.113	0.0166912
643.192	0.0166519
643.270	0.0167604
643.348	0.0169066
643.426	0.0168552
643.504	0.0167973
643.582	0.0167147
643.660	0.0167816
643.738	0.0167265
643.817	0.0166975
643.895	0.0166719
643.973	0.0167339
644.051	0.0166525
644.129	0.0166478
644.207	0.0167618
644.285	0.0166655
644.363	0.0166060
644.442	0.0166920
644.520	0.0166909
644.598	0.0168217
644.676	0.0167951
644.754	0.0167708
644.832	0.0168526
644.910	0.0168285
644.988	0.0167892
645.067	0.0166702
645.145	0.0166186
645.223	0.0167610
645.301	0.0167426
645.379	0.0167367
645.457	0.0167027
645.535	0.0167348
645.613	0.0166371
645.692	0.0167181
645.770	0.0168237
645.848	0.0167697
645.926	0.0167370
646.004	0.0169108
646.082	0.0168924
646.160	0.0167314
646.238	0.0167519
646.317	0.0168171
646.395	0.0168588
646.473	0.0168490
646.551	0.0167375
646.629	0.0167442
646.707	0.0168868
646.785	0.0168543
646.863	0.0168512
646.942	0.0168699
647.020	0.0167285
647.098	0.0169013
647.176	0.0167838
647.254	0.0168252
647.332	0.0168393
647.410	0.0168446
647.488	0.0168545
647.567	0.0167941
647.645	0.0168542
647.723	0.0169299
647.801	0.0169004
647.879	0.0168139
647.957	0.0168092
648.035	0.0169463
648.113	0.0169124
648.192	0.0168362
648.270	0.0167766
648.348	0.0167945
648.426	0.0168449
648.504	0.0167950
648.582	0.0167608
648.660	0.0168633
648.738	0.0167220
648.817	0.0168446
648.895	0.0168891
648.973	0.0167916
649.051	0.0168083
649.129	0.0168447
649.207	0.0166705
649.285	0.0167274
649.363	0.0168156
649.442	0.0167594
649.520	0.0168134
649.598	0.0168502
649.676	0.0167224
649.754	0.0167358
649.832	0.0166743
649.910	0.0166705
649.988	0.0167001
650.067	0.0166083
650.145	0.0166355
650.223	0.0164461
650.301	0.0167419
650.379	0.0166414
650.457	0.0167085
650.535	0.0167180
650.613	0.0165161
650.692	0.0165448
650.770	0.0166081
650.848	0.0165130
650.926	0.0165395
651.004	0.0166955
651.082	0.0167043
651.160	0.0165401
651.238	0.0166280
651.317	0.0165062
651.395	0.0166116
651.473	0.0165620
651.551	0.0166277
651.629	0.0165445
651.707	0.0165540
651.785	0.0163895
651.863	0.0164966
651.942	0.0166222
652.020	0.0166018
652.098	0.0166431
652.176	0.0164503
652.254	0.0166129
652.332	0.0165051
652.410	0.0165325
652.488	0.0165405
652.567	0.0163773
652.645	0.0164742
652.723	0.0165382
652.801	0.0164619
652.879	0.0165845
652.957	0.0166735
653.035	0.0165640
653.113	0.0165539
653.192	0.0165295
653.270	0.0166705
653.348	0.0166026
653.426	0.0164829
653.504	0.0165986
653.582	0.0167394
653.660	0.0166618
653.738	0.0166853
653.817	0.0165990
653.895	0.0166421
653.973	0.0166603
654.051	0.0166480
654.129	0.0166933
654.207	0.0165985
654.285	0.0166785
654.363	0.0167410
654.442	0.0166393
654.520	0.0167039
654.598	0.0165895
654.676	0.0165166
654.754	0.0165554
654.832	0.0167063
654.910	0.0165972
654.988	0.0166541
655.067	0.0165730
655.145	0.0165424
655.223	0.0164916
655.301	0.0167200
655.379	0.0166273
655.457	0.0165389
655.535	0.0166489
655.613	0.0166901
655.692	0.0165358
655.770	0.0165417
655.848	0.0166350
655.926	0.0168123
656.004	0.0165952
656.082	0.0165816
656.160	0.0166772
656.238	0.0166365
656.317	0.0165993
656.395	0.0165426
656.473	0.0165944
656.551	0.0165401
656.629	0.0165964
656.707	0.0166172
656.785	0.0165768
656.863	0.0165777
656.942	0.0166137
657.020	0.0164602
657.098	0.0165395
657.176	0.0165196
657.254	0.0164373
657.332	0.0165284
657.410	0.0165110
657.488	0.0167014
657.567	0.0166241
657.645	0.0165163
657.723	0.0165281
657.801	0.0165696
657.879	0.0165782
657.957	0.0165498
658.035	0.0165833
658.113	0.0165472
658.192	0.0165118
658.270	0.0165575
658.348	0.0165173
658.426	0.0165054
658.504	0.0167380
658.582	0.0167458
658.660	0.0166236
658.738	0.0167356
658.817	0.0165187
658.895	0.0166615
658.973	0.0165846
659.051	0.0165826
659.129	0.0165806
659.207	0.0167049
659.285	0.0166558
659.363	0.0165883
659.442	0.0165884
659.520	0.0166694
659.598	0.0166551
659.676	0.0165263
659.754	0.0166203
659.832	0.0166980
659.910	0.0166772
659.988	0.0166545
660.067	0.0167373
660.145	0.0167157
660.223	0.0167765
660.301	0.0167551
660.379	0.0165926
660.457	0.0166766
660.535	0.0166547
660.613	0.0166618
660.692	0.0167288
660.770	0.0168998
660.848	0.0167868
660.926	0.0167798
661.004	0.0167139
661.082	0.0166724
661.160	0.0166625
661.238	0.0167336
661.317	0.0169285
661.395	0.0169080
661.473	0.0167477
661.551	0.0167834
661.629	0.0168221
661.707	0.0168554
661.785	0.0167915
661.863	0.0167107
661.942	0.0168033
662.020	0.0166582
662.098	0.0168431
662.176	0.0168809
662.254	0.0168592
662.332	0.0168183
662.410	0.0167999
662.488	0.0168569
662.567	0.0169157
662.645	0.0169175
662.723	0.0168553
662.801	0.0169021
662.879	0.0169844
662.957	0.0169060
663.035	0.0168030
663.113	0.0169592
663.192	0.0169352
663.270	0.0168357
663.348	0.0168020
663.426	0.0168010
663.504	0.0169057
663.582	0.0169965
663.660	0.0168899
663.738	0.0168487
663.817	0.0169024
663.895	0.0168972
663.973	0.0169014
664.051	0.0169460
664.129	0.0169067
664.207	0.0168865
664.285	0.0168820
664.363	0.0168291
664.442	0.0168855
664.520	0.0169883
664.598	0.0169751
664.676	0.0167793
664.754	0.0168294
664.832	0.0168960
664.910	0.0167959
664.988	0.0169803
665.067	0.0168549
665.145	0.0169296
665.223	0.0168551
665.301	0.0168470
665.379	0.0168801
665.457	0.0169362
665.535	0.0168459
665.613	0.0168391
665.692	0.0168703
665.770	0.0168280
665.848	0.0168040
665.926	0.0168570
666.004	0.0167528
666.082	0.0167914
666.160	0.0166505
666.238	0.0169576
666.317	0.0168346
666.395	0.0167963
666.473	0.0168731
666.551	0.0168320
666.629	0.0168278
666.707	0.0168456
666.785	0.0168273
666.863	0.0168465
666.942	0.0167046
667.020	0.0167146
667.098	0.0168233
667.176	0.0166994
667.254	0.0168019
667.332	0.0166811
667.410	0.0166249
667.488	0.0166125
667.567	0.0168070
667.645	0.0167234
667.723	0.0166707
667.801	0.0166273
667.879	0.0167401
667.957	0.0167977
668.035	0.0167292
668.113	0.0167407
668.192	0.0166557
668.270	0.0167644
668.348	0.0167567
668.426	0.0167518
668.504	0.0166403
668.582	0.0166292
668.660	0.0167053
668.738	0.0166896
668.817	0.0167608
668.895	0.0167487
668.973	0.0167088
669.051	0.0166080
669.129	0.0167654
669.207	0.0166470
669.285	0.0168119
669.363	0.0167606
669.442	0.0167344
669.520	0.0167753
669.598	0.0166857
669.676	0.0166994
669.754	0.0166727
669.832	0.0166857
669.910	0.0165987
669.988	0.0168033
670.067	0.0166940
670.145	0.0167229
670.223	0.0167935
670.301	0.0167258
670.379	0.0167345
670.457	0.0166340
670.535	0.0168131
670.613	0.0166997
670.692	0.0166034
670.770	0.0167072
670.848	0.0166901
670.926	0.0167750
671.004	0.0165871
671.082	0.0165955
671.160	0.0167670
671.238	0.0166064
671.317	0.0165544
671.395	0.0165519
671.473	0.0166980
671.551	0.0167901
671.629	0.0166806
671.707	0.0166039
671.785	0.0165520
671.863	0.0166698
671.942	0.0166354
672.020	0.0164916
672.098	0.0167103
672.176	0.0165645
672.254	0.0164440
672.332	0.0165076
672.410	0.0165620
672.488	0.0166190
672.567	0.0165574
672.645	0.0165349
672.723	0.0165159
672.801	0.0164803
672.879	0.0165115
672.957	0.0165718
673.035	0.0165448
673.113	0.0165007
673.192	0.0166867
673.270	0.0165965
673.348	0.0164292
673.426	0.0165103
673.504	0.0165270
673.582	0.0165152
673.660	0.0165414
673.738	0.0165247
673.817	0.0165164
673.895	0.0167208
673.973	0.0164210
674.051	0.0165589
674.129	0.0165778
674.207	0.0165558
674.285	0.0165329
674.363	0.0164406
674.442	0.0165307
674.520	0.0166045
674.598	0.0165769
674.676	0.0166033
674.754	0.0166210
674.832	0.0165960
674.910	0.0166623
674.988	0.0165804
675.067	0.0165428
675.145	0.0165714
675.223	0.0164582
675.301	0.0165843
675.379	0.0164529
675.457	0.0166206
675.535	0.0166662
675.613	0.0165504
675.692	0.0166062
675.770	0.0166095
675.848	0.0166593
675.926	0.0166416
676.004	0.0165596
676.082	0.0165722
676.160	0.0165820
676.238	0.0165509
676.317	0.0164335
676.395	0.0167403
676.473	0.0165729
676.551	0.0165484
676.629	0.0166464
676.707	0.0166118
676.785	0.0165291
676.863	0.0165723
676.942	0.0167181
677.020	0.0165202
677.098	0.0166205
677.176	0.0165634
677.254	0.0166139
677.332	0.0165456
677.410	0.0164362
677.488	0.0166553
677.567	0.0166866
677.645	0.0166808
677.723	0.0166805
677.801	0.0166123
677.879	0.0165438
677.957	0.0166294
678.035	0.0165351
678.113	0.0164846
678.192	0.0166299
678.270	0.0165688
678.348	0.0166376
678.426	0.0167332
678.504	0.0166506
678.582	0.0164288
678.660	0.0166063
678.738	0.0165648
678.817	0.0166071
678.895	0.0166488
678.973	0.0165726
679.051	0.0166366
679.129	0.0166843
679.207	0.0166723
679.285	0.0166179
679.363	0.0166140
679.442	0.0164854
679.520	0.0165380
679.598	0.0167015
679.676	0.0165439
679.754	0.0165025
679.832	0.0165521
679.910	0.0166326
679.988	0.0165465
680.067	0.0166583
680.145	0.0165379
680.223	0.0165549
680.301	0.0167714
680.379	0.0166181
680.457	0.0165521
680.535	0.0166820
680.613	0.0166541
680.692	0.0164899
680.770	0.0165804
680.848	0.0165437
680.926	0.0166768
681.004	0.0165423
681.082	0.0166016
681.160	0.0167297
681.238	0.0166894
681.317	0.0166410
681.395	0.0166447
681.473	0.0166418
681.551	0.0167104
681.629	0.0167563
681.707	0.0167066
681.785	0.0166740
681.863	0.0166959
681.942	0.0166814
682.020	0.0166586
682.098	0.0166721
682.176	0.0165561
682.254	0.0168642
682.332	0.0166380
682.410	0.0165959
682.488	0.0167690
682.567	0.0167122
682.645	0.0167149
682.723	0.0166830
682.801	0.0166811
682.879	0.0166764
682.957	0.0165848
683.035	0.0167091
683.113	0.0169579
683.192	0.0167507
683.270	0.0167908
683.348	0.0166927
683.426	0.0166917
683.504	0.0166383
683.582	0.0166703
683.660	0.0166772
683.738	0.0166724
683.817	0.0165715
683.895	0.0168140
683.973	0.0166889
684.051	0.0167312
684.129	0.0167847
684.207	0.0167256
684.285	0.0167850
684.363	0.0166517
684.442	0.0167544
684.520	0.0167837
684.598	0.0167673
684.676	0.0167233
684.754	0.0167500
684.832	0.0166104
684.910	0.0167076
684.988	0.0169372
685.067	0.0169028
685.145	0.0166560
685.223	0.0167618
685.301	0.0167927
685.379	0.0168062
685.457	0.0168174
685.535	0.0167357
685.613	0.0167130
685.692	0.0167234
685.770	0.0168065
685.848	0.0166730
685.926	0.0167467
686.004	0.0167509
686.082	0.0168221
686.160	0.0167937
686.238	0.0167542
686.317	0.0167807
686.395	0.0168269
686.473	0.0168288
686.551	0.0168145
686.629	0.0167685
686.707	0.0168171
686.785	0.0167249
686.863	0.0167326
686.942	0.0167067
687.020	0.0166061
687.098	0.0166697
687.176	0.0167315
687.254	0.0166862
687.332	0.0167950
687.410	0.0166311
687.488	0.0166763
687.567	0.0167620
687.645	0.0167290
687.723	0.0166614
687.801	0.0167229
687.879	0.0167155
687.957	0.0166124
688.035	0.0166767
688.113	0.0166685
688.192	0.0166948
688.270	0.0167160
688.348	0.0166658
688.426	0.0166207
688.504	0.0167509
688.582	0.0166682
688.660	0.0167413
688.738	0.0166610
688.817	0.0166817
688.895	0.0166555
688.973	0.0167162
689.051	0.0166865
689.129	0.0167613
689.207	0.0167817
689.285	0.0165999
689.363	0.0167133
689.442	0.0167109
689.520	0.0167211
689.598	0.0168021
689.676	0.0167681
689.754	0.0166492
689.832	0.0167584
689.910	0.0166752
689.988	0.0166298
690.067	0.0167959
690.145	0.0166404
690.223	0.0166913
690.301	0.0167856
690.379	0.0166788
690.457	0.0166618
690.535	0.0167453
690.613	0.0166649
690.692	0.0169011
690.770	0.0166920
690.848	0.0166300
690.926	0.0166795
691.004	0.0166534
691.082	0.0167585
691.160	0.0167928
691.238	0.0166457
691.317	0.0166586
691.395	0.0168058
691.473	0.0166018
691.551	0.0166248
691.629	0.0166331
691.707	0.0166402
691.785	0.0167399
691.863	0.0167778
691.942	0.0167035
692.020	0.0167225
692.098	0.0166516
692.176	0.0167439
692.254	0.0167166
692.332	0.0168134
692.410	0.0166567
692.488	0.0166357
692.567	0.0168349
692.645	0.0167780
692.723	0.0166532
692.801	0.0167645
692.879	0.0167005
692.957	0.0166051
693.035	0.0166753
693.113	0.0166749
693.192	0.0166383
693.270	0.0167615
693.348	0.0166918
693.426	0.0166845
693.504	0.0166785
693.582	0.0166699
693.660	0.0167162
693.738	0.0165984
693.817	0.0166167
693.895	0.0165871
693.973	0.0167222
694.051	0.0167389
694.129	0.0167027
694.207	0.0166331
694.285	0.0168330
694.363	0.0165638
694.442	0.0166099
694.520	0.0166303
694.598	0.0165707
694.676	0.0165630
694.754	0.0166650
694.832	0.0167080
694.910	0.0167616
694.988	0.0167032
695.067	0.0166395
695.145	0.0166779
695.223	0.0166630
695.301	0.0166510
695.379	0.0167931
695.457	0.0166640
695.535	0.0166460
695.613	0.0168068
695.692	0.0167481
695.770	0.0166270
695.848	0.0166280
695.926	0.0167577
696.004	0.0167291
696.082	0.0167663
696.160	0.0166953
696.238	0.0165893
696.317	0.0166546
696.395	0.0166433
696.473	0.0167237
696.551	0.0167880
696.629	0.0165681
696.707	0.0166560
696.785	0.0167522
696.863	0.0166008
696.942	0.0166735
697.020	0.0166923
697.098	0.0167570
697.176	0.0166701
697.254	0.0166479
697.332	0.0165721
697.410	0.0165899
697.488	0.0166122
697.567	0.0166531
697.645	0.0166327
697.723	0.0166372
697.801	0.0165755
697.879	0.0165107
697.957	0.0166338
698.035	0.0166510
698.113	0.0166686
698.192	0.0166887
698.270	0.0166467
698.348	0.0165213
698.426	0.0166128
698.504	0.0166885
698.582	0.0167031
698.660	0.0166615
698.738	0.0166122
698.817	0.0166130
698.895	0.0165691
698.973	0.0165691
699.051	0.0166498
699.129	0.0165440
699.207	0.0167805
699.285	0.0166074
699.363	0.0166548
699.442	0.0165943
699.520	0.0165804
699.598	0.0165866
699.676	0.0164257
699.754	0.0165524
699.832	0.0167278
699.910	0.0166761
699.988	0.0165862
700.067	0.0166029
700.145	0.0164923
700.223	0.0165686
700.301	0.0166650
700.379	0.0166854
700.457	0.0165741
700.535	0.0165529
700.613	0.0165701
700.692	0.0166759
700.770	0.0165859
700.848	0.0165839
700.926	0.0165331
701.004	0.0165369
701.082	0.0166223
701.160	0.0165594
701.238	0.0165549
701.317	0.0166283
701.395	0.0164021
701.473	0.0165546
701.551	0.0165687
701.629	0.0166251
701.707	0.0165083
701.785	0.0166422
701.863	0.0165504
701.942	0.0164452
702.020	0.0164627
702.098	0.0165683
702.176	0.0166516
702.254	0.0164194
702.332	0.0166730
702.410	0.0166679
702.488	0.0164862
702.567	0.0165503
702.645	0.0165907
702.723	0.0165656
702.801	0.0166475
702.879	0.0165929
702.957	0.0165720
703.035	0.0164267
703.113	0.0166582
703.192	0.0165999
703.270	0.0166138
703.348	0.0167265
703.426	0.0166002
703.504	0.0166069
703.582	0.0165816
703.660	0.0167591
703.738	0.0166228
703.817	0.0165662
703.895	0.0165253
703.973	0.0164950
704.051	0.0166650
704.129	0.0165073
704.207	0.0165874
704.285	0.0166171
704.363	0.0165203
704.442	0.0166724
704.520	0.0165884
704.598	0.0163844
704.676	0.0166116
704.754	0.0166698
704.832	0.0164682
704.910	0.0166172
704.988	0.0167660
705.067	0.0166988
705.145	0.0166940
705.223	0.0165678
705.301	0.0166344
705.379	0.0166770
705.457	0.0166524
705.535	0.0166560
705.613	0.0167009
705.692	0.0165454
705.770	0.0165071
705.848	0.0166586
705.926	0.0167838
706.004	0.0166708
706.082	0.0166416
706.160	0.0166014
706.238	0.0166814
706.317	0.0167204
706.395	0.0167297
706.473	0.0167065
706.551	0.0166083
706.629	0.0166596
706.707	0.0168271
706.785	0.0167772
706.863	0.0165784
706.942	0.0167175
707.020	0.0167908
707.098	0.0167471
707.176	0.0166334
707.254	0.0167537
707.332	0.0167197
707.410	0.0167335
707.488	0.0166786
707.567	0.0167062
707.645	0.0168175
707.723	0.0167667
707.801	0.0167776
707.879	0.0168365
707.957	0.0166711
708.035	0.0167377
708.113	0.0167300
708.192	0.0167522
708.270	0.0167485
708.348	0.0166600
708.426	0.0167573
708.504	0.0167075
708.582	0.0167853
708.660	0.0168176
708.738	0.0166325
708.817	0.0167421
708.895	0.0167086
708.973	0.0166542
709.051	0.0167922
709.129	0.0167354
709.207	0.0167833
709.285	0.0168493
709.363	0.0167545
709.442	0.0167012
709.520	0.0168024
709.598	0.0168541
709.676	0.0168041
709.754	0.0167419
709.832	0.0167060
709.910	0.0168391
709.988	0.0169848
710.067	0.0167782
710.145	0.0168066
710.223	0.0167474
710.301	0.0167220
710.379	0.0168360
710.457	0.0168720
710.535	0.0168192
710.613	0.0166969
710.692	0.0167638
710.770	0.0168755
710.848	0.0168701
710.926	0.0167553
711.004	0.0169157
711.082	0.0168550
711.160	0.0166753
711.238	0.0168807
711.317	0.0167805
711.395	0.0166783
711.473	0.0168633
711.551	0.0168365
711.629	0.0167812
711.707	0.0168821
711.785	0.0167953
711.863	0.0167760
711.942	0.0168499
712.020	0.0167397
712.098	0.0166969
712.176	0.0168124
712.254	0.0166996
712.332	0.0167168
712.410	0.0166102
712.488	0.0168435
712.567	0.0167952
712.645	0.0166944
712.723	0.0167416
712.801	0.0167507
712.879	0.0167747
712.957	0.0166859
713.035	0.0167685
713.113	0.0166128
713.192	0.0167546
713.270	0.0167869
713.348	0.0166520
713.426	0.0167268
713.504	0.0167011
713.582	0.0166923
713.660	0.0167725
713.738	0.0167856
713.817	0.0167638
713.895	0.0167269
713.973	0.0166333
714.051	0.0165313
714.129	0.0167126
714.207	0.0167193
714.285	0.0166633
714.363	0.0167406
714.442	0.0166730
714.520	0.0166740
714.598	0.0168356
714.676	0.0166818
714.754	0.0166689
714.832	0.0165919
714.910	0.0167056
714.988	0.0167194
715.067	0.0166283
715.145	0.0167027
715.223	0.0166154
715.301	0.0166343
715.379	0.0166830
715.457	0.0166904
715.535	0.0166504
715.613	0.0167564
715.692	0.0167242
715.770	0.0166959
715.848	0.0167091
715.926	0.0167500
716.004	0.0167787
716.082	0.0167838
716.160	0.0167366
716.238	0.0167349
716.317	0.0166405
716.395	0.0168726
716.473	0.0168072
716.551	0.0166035
716.629	0.0167951
716.707	0.0167954
716.785	0.0167860
716.863	0.0166882
716.942	0.0165820
717.020	0.0166843
717.098	0.0167663
717.176	0.0167173
717.254	0.0167497
717.332	0.0166708
717.410	0.0166801
717.488	0.0166537
717.567	0.0168199
717.645	0.0167484
717.723	0.0166176
717.801	0.0168173
717.879	0.0166927
717.957	0.0167588
718.035	0.0166151
718.113	0.0167033
718.192	0.0166726
718.270	0.0166333
718.348	0.0167729
718.426	0.0166674
718.504	0.0166560
718.582	0.0166959
718.660	0.0166763
718.738	0.0166807
718.817	0.0167010
718.895	0.0166176
718.973	0.0165672
719.051	0.0167376
719.129	0.0167600
719.207	0.0166219
719.285	0.0167004
719.363	0.0166296
719.442	0.0166512
719.520	0.0167052
719.598	0.0166713
719.676	0.0166158
719.754	0.0166018
719.832	0.0166189
719.910	0.0165387
719.988	0.0166300
720.067	0.0166396
720.145	0.0166074
720.223	0.0167593
720.301	0.0166076
720.379	0.0166485
720.457	0.0167353
720.535	0.0165909
720.613	0.0166468
720.692	0.0166958
720.770	0.0165823
720.848	0.0165957
720.926	0.0166862
721.004	0.0167027
721.082	0.0165891
721.160	0.0166195
721.238	0.0166453
721.317	0.0166052
721.395	0.0167053
721.473	0.0167809
721.551	0.0165118
721.629	0.0166218
721.707	0.0166401
721.785	0.0166440
721.863	0.0166683
721.942	0.0165850
722.020	0.0165791
722.098	0.0167736
722.176	0.0167220
722.254	0.0166906
722.332	0.0166527
722.410	0.0164664
722.488	0.0166552
722.567	0.0167462
722.645	0.0165637
722.723	0.0166747
722.801	0.0167731
722.879	0.0165738
722.957	0.0167257
723.035	0.0166910
723.113	0.0166480
723.192	0.0168282
723.270	0.0166770
723.348	0.0166221
723.426	0.0166300
723.504	0.0168133
723.582	0.0165868
723.660	0.0166646
723.738	0.0167227
723.817	0.0167104
723.895	0.0167072
723.973	0.0167215
724.051	0.0167165
724.129	0.0165426
724.207	0.0165936
724.285	0.0166915
724.363	0.0166797
724.442	0.0166343
724.520	0.0166882
724.598	0.0167241
724.676	0.0166832
724.754	0.0167677
724.832	0.0166420
724.910	0.0166019
724.988	0.0168082
725.067	0.0167651
725.145	0.0167382
725.223	0.0166199
725.301	0.0167507
725.379	0.0166601
725.457	0.0165403
725.535	0.0167343
725.613	0.0167255
725.692	0.0167158
725.770	0.0166441
725.848	0.0167666
725.926	0.0166261
726.004	0.0166103
726.082	0.0167320
726.160	0.0166969
726.238	0.0165795
726.317	0.0166309
726.395	0.0166843
726.473	0.0166977
726.551	0.0166874
726.629	0.0168462
726.707	0.0167050
726.785	0.0166701
726.863	0.0168102
726.942	0.0167884
727.020	0.0167686
727.098	0.0165312
727.176	0.0166795
727.254	0.0167422
727.332	0.0166722
727.410	0.0167233
727.488	0.0168453
727.567	0.0168134
727.645	0.0167829
727.723	0.0169720
727.801	0.0166854
727.879	0.0167060
727.957	0.0165764
728.035	0.0167164
728.113	0.0167091
728.192	0.0165820
728.270	0.0164181
728.348	0.0165926
728.426	0.0165726
728.504	0.0162803
728.582	0.0164745
728.660	0.0164629
728.738	0.0164657
728.817	0.0166478
728.895	0.0165931
728.973	0.0169090
729.051	0.0168877
729.129	0.0169836
729.207	0.0169445
729.285	0.0170446
729.363	0.0171411
729.442	0.0171851
729.520	0.0171022
729.598	0.0170224
729.676	0.0169137
729.754	0.0166692
729.832	0.0166764
729.910	0.0166750
729.988	0.0162801
730.067	0.0161138
730.145	0.0158515
730.223	0.0158603
730.301	0.0158984
730.379	0.0158504
730.457	0.0157615
730.535	0.0160403
730.613	0.0160735
730.692	0.0163747
730.770	0.0167271
730.848	0.0168997
730.926	0.0172369
731.004	0.0174033
731.082	0.0174876
731.160	0.0174367
731.238	0.0174873
731.317	0.0173272
731.395	0.0174664
731.473	0.0171101
731.551	0.0170151
731.629	0.0169218
731.707	0.0167649
731.785	0.0166879
731.863	0.0167571
731.942	0.0166119
732.020	0.0166203
732.098	0.0164407
732.176	0.0165415
732.254	0.0165051
732.332	0.0163617
732.410	0.0163355
732.488	0.0161153
732.567	0.0160288
732.645	0.0159037
732.723	0.0159550
732.801	0.0159586
732.879	0.0158828
732.957	0.0160479
733.035	0.0162748
733.113	0.0163671
733.192	0.0165536
733.270	0.0169081
733.348	0.0171545
733.426	0.0172392
733.504	0.0174670
733.582	0.0178219
733.660	0.0178772
733.738	0.0178532
733.817	0.0177149
733.895	0.0177010
733.973	0.0175065
734.051	0.0174237
734.129	0.0171456
734.207	0.0167686
734.285	0.0165764
734.363	0.0162917
734.442	0.0159662
734.520	0.0158488
734.598	0.0155228
734.676	0.0154430
734.754	0.0152666
734.832	0.0153948
734.910	0.0155059
734.988	0.0156479
735.067	0.0157229
735.145	0.0159319
735.223	0.0162752
735.301	0.0166135
735.379	0.0168790
735.457	0.0172043
735.535	0.0174668
735.613	0.0177950
735.692	0.0179716
735.770	0.0180958
735.848	0.0179663
735.926	0.0180739
736.004	0.0178369
736.082	0.0177324
736.160	0.0175745
736.238	0.0171570
736.317	0.0168763
736.395	0.0166679
736.473	0.0165489
736.551	0.0164320
736.629	0.0160990
736.707	0.0159612
736.785	0.0159738
736.863	0.0159134
736.942	0.0157983
737.020	0.0160780
737.098	0.0159740
737.176	0.0160370
737.254	0.0161430
737.332	0.0162608
737.410	0.0162877
737.488	0.0164376
737.567	0.0165143
737.645	0.0165855
737.723	0.0166288
737.801	0.0167358
737.879	0.0169048
737.957	0.0170947
738.035	0.0172347
738.113	0.0172696
738.192	0.0174530
738.270	0.0175030
738.348	0.0173882
738.426	0.0172673
738.504	0.0172018
738.582	0.0172633
738.660	0.0170361
738.738	0.0170107
738.817	0.0167760
738.895	0.0166875
738.973	0.0165464
739.051	0.0165079
739.129	0.0162781
739.207	0.0162077
739.285	0.0160549
739.363	0.0162576
739.442	0.0162093
739.520	0.0162334
739.598	0.0163787
739.676	0.0165927
739.754	0.0165872
739.832	0.0166799
739.910	0.0166627
739.988	0.0168330
740.067	0.0168678
740.145	0.0169254
740.223	0.0169111
740.301	0.0169118
740.379	0.0169312
740.457	0.0169261
740.535	0.0169999
740.613	0.0168379
740.692	0.0168481
740.770	0.0168645
740.848	0.0166888
740.926	0.0165834
741.004	0.0166048
741.082	0.0166896
741.160	0.0165649
741.238	0.0166428
741.317	0.0168316
741.395	0.0165919
741.473	0.0167162
741.551	0.0167018
741.629	0.0168021
741.707	0.0169743
741.785	0.0167250
741.863	0.0169070
741.942	0.0169727
742.020	0.0169228
742.098	0.0169778
742.176	0.0170650
742.254	0.0169881
742.332	0.0167480
742.410	0.0166955
742.488	0.0167294
742.567	0.0166778
742.645	0.0165752
742.723	0.0164834
742.801	0.0162334
742.879	0.0163244
742.957	0.0161979
743.035	0.0162277
743.113	0.0162983
743.192	0.0163078
743.270	0.0164745
743.348	0.0166045
743.426	0.0166013
743.504	0.0167349
743.582	0.0169157
743.660	0.0170097
743.738	0.0170876
743.817	0.0169957
743.895	0.0171632
743.973	0.0171667
744.051	0.0170127
744.129	0.0170879
744.207	0.0169115
744.285	0.0168569
744.363	0.0167265
744.442	0.0167558
744.520	0.0168767
744.598	0.0167936
744.676	0.0165468
744.754	0.0165778
744.832	0.0165946
744.910	0.0164202
744.988	0.0163752
745.067	0.0164726
745.145	0.0162986
745.223	0.0162978
745.301	0.0163938
745.379	0.0165363
745.457	0.0165270
745.535	0.0166189
745.613	0.0165379
745.692	0.0167381
745.770	0.0169137
745.848	0.0169699
745.926	0.0169475
746.004	0.0170401
746.082	0.0170286
746.160	0.0169435
746.238	0.0169395
746.317	0.0169501
746.395	0.0167973
746.473	0.0168484
746.551	0.0168339
746.629	0.0166502
746.707	0.0165730
746.785	0.0166090
746.863	0.0164123
746.942	0.0166561
747.020	0.0165923
747.098	0.0164018
747.176	0.0166282
747.254	0.0165830
747.332	0.0164481
747.410	0.0164748
747.488	0.0166165
747.567	0.0165250
747.645	0.0168224
747.723	0.0168544
747.801	0.0168835
747.879	0.0169270
747.957	0.0168970
748.035	0.0170595
748.113	0.0171352
748.192	0.0170914
748.270	0.0170578
748.348	0.0169924
748.426	0.0170364
748.504	0.0169994
748.582	0.0169673
748.660	0.0168405
748.738	0.0168587
748.817	0.0168417
748.895	0.0167329
748.973	0.0166125
749.051	0.0164778
749.129	0.0163679
749.207	0.0162498
749.285	0.0164404
749.363	0.0164191
749.442	0.0162929
749.520	0.0164711
749.598	0.0164162
749.676	0.0164773
749.754	0.0166187
749.832	0.0167169
749.910	0.0167690
749.988	0.0168694
750.067	0.0169341
750.145	0.0168813
750.223	0.0170940
750.301	0.0171161
750.379	0.0170571
750.457	0.0170469
750.535	0.0169426
750.613	0.0168587
750.692	0.0168610
750.770	0.0168385
750.848	0.0168769
750.926	0.0167027
751.004	0.0165563
751.082	0.0165355
751.160	0.0165190
751.238	0.0164796
751.317	0.0164339
751.395	0.0164540
751.473	0.0163328
751.551	0.0164593
751.629	0.0164180
751.707	0.0165803
751.785	0.0165166
751.863	0.0165337
751.942	0.0165791
752.020	0.0166264
752.098	0.0167253
752.176	0.0167722
752.254	0.0168085
752.332	0.0167410
752.410	0.0167326
752.488	0.0167217
752.567	0.0167266
752.645	0.0168819
752.723	0.0167448
752.801	0.0165802
752.879	0.0166838
752.957	0.0168011
753.035	0.0168088
753.113	0.0166968
753.192	0.0166563
753.270	0.0167986
753.348	0.0167697
753.426	0.0165282
753.504	0.0166591
753.582	0.0165251
753.660	0.0166747
753.738	0.0166598
753.817	0.0164915
753.895	0.0166630
753.973	0.0165690
754.051	0.0165528
754.129	0.0166085
754.207	0.0167634
754.285	0.0166861
754.363	0.0165393
754.442	0.0164353
754.520	0.0166631
754.598	0.0166863
754.676	0.0168707
754.754	0.0168054
754.832	0.0166196
754.910	0.0167152
754.988	0.0167107
755.067	0.0165893
755.145	0.0165416
755.223	0.0167282
755.301	0.0164429
755.379	0.0166261
755.457	0.0165036
755.535	0.0166093
755.613	0.0165842
755.692	0.0164920
755.770	0.0165821
755.848	0.0165874
755.926	0.0164317
756.004	0.0166381
756.082	0.0166172
756.160	0.0166728
756.238	0.0167652
756.317	0.0169026
756.395	0.0166093
756.473	0.0168966
756.551	0.0170523
756.629	0.0169666
756.707	0.0170687
756.785	0.0169306
756.863	0.0168469
756.942	0.0170020
757.020	0.0168611
757.098	0.0167381
757.176	0.0165775
757.254	0.0166623
757.332	0.0166312
757.410	0.0165882
757.488	0.0164925
757.567	0.0164597
757.645	0.0163785
757.723	0.0164223
757.801	0.0164507
757.879	0.0164853
757.957	0.0163931
758.035	0.0164509
758.113	0.0166364
758.192	0.0165029
758.270	0.0166181
758.348	0.0166639
758.426	0.0167348
758.504	0.0166879
758.582	0.0168896
758.660	0.0168253
758.738	0.0169173
758.817	0.0169986
758.895	0.0168909
758.973	0.0169749
759.051	0.0171174
759.129	0.0168337
759.207	0.0169970
759.285	0.0169296
759.363	0.0169160
759.442	0.0169601
759.520	0.0168713
759.598	0.0166983
759.676	0.0166482
759.754	0.0167861
759.832	0.0166174
759.910	0.0165434
759.988	0.0167382
760.067	0.0166477
760.145	0.0164160
760.223	0.0165875
760.301	0.0165956
760.379	0.0165308
760.457	0.0166096
760.535	0.0164835
760.613	0.0165440
760.692	0.0165827
760.770	0.0167356
760.848	0.0167635
760.926	0.0167311
761.004	0.0167432
761.082	0.0167789
761.160	0.0169064
761.238	0.0168983
761.317	0.0170557
761.395	0.0169768
761.473	0.0170849
761.551	0.0172203
761.629	0.0171862
761.707	0.0170740
761.785	0.0170782
761.863	0.0170168
761.942	0.0169279
762.020	0.0168135
762.098	0.0167026
762.176	0.0166335
762.254	0.0166525
762.332	0.0165730
762.410	0.0166162
762.488	0.0163370
762.567	0.0163686
762.645	0.0163062
762.723	0.0162418
762.801	0.0162549
762.879	0.0164045
762.957	0.0163119
763.035	0.0164419
763.113	0.0164468
763.192	0.0164767
763.270	0.0165965
763.348	0.0165408
763.426	0.0166019
763.504	0.0167361
763.582	0.0168111
763.660	0.0169464
763.738	0.0169704
763.817	0.0171384
763.895	0.0171677
763.973	0.0173470
764.051	0.0174394
764.129	0.0174339
764.207	0.0172566
764.285	0.0173476
764.363	0.0175387
764.442	0.0174067
764.520	0.0173247
764.598	0.0172339
764.676	0.0169949
764.754	0.0170589
764.832	0.0168389
764.910	0.0167451
764.988	0.0164323
765.067	0.0162016
765.145	0.0160098
765.223	0.0159702
765.301	0.0158901
765.379	0.0157392
765.457	0.0159058
765.535	0.0159377
765.613	0.0159882
765.692	0.0159589
765.770	0.0162216
765.848	0.0162494
765.926	0.0164262
766.004	0.0164935
766.082	0.0165228
766.160	0.0166925
766.238	0.0168162
766.317	0.0169562
766.395	0.0171136
766.473	0.0171526
766.551	0.0174007
766.629	0.0174654
766.707	0.0174332
766.785	0.0175433
766.863	0.0177387
766.942	0.0176338
767.020	0.0176490
767.098	0.0174627
767.176	0.0173544
767.254	0.0173151
767.332	0.0171983
767.410	0.0170404
767.488	0.0168456
767.567	0.0166823
767.645	0.0163229
767.723	0.0162251
767.801	0.0162407
767.879	0.0160327
767.957	0.0159898
768.035	0.0159531
768.113	0.0159570
768.192	0.0160678
768.270	0.0160628
768.348	0.0161110
768.426	0.0161446
768.504	0.0161837
768.582	0.0163724
768.660	0.0163795
768.738	0.0164623
768.817	0.0164472
768.895	0.0167247
768.973	0.0166270
769.051	0.0168197
769.129	0.0170137
769.207	0.0171928
769.285	0.0171066
769.363	0.0172314
769.442	0.0173553
769.520	0.0174026
769.598	0.0175813
769.676	0.0176467
769.754	0.0175121
769.832	0.0176728
769.910	0.0175696
769.988	0.0175873
770.067	0.0175117
770.145	0.0172707
770.223	0.0171735
770.301	0.0170680
770.379	0.0169268
770.457	0.0167396
770.535	0.0165020
770.613	0.0161161
770.692	0.0160289
770.770	0.0157276
770.848	0.0155921
770.926	0.0155968
771.004	0.0153645
771.082	0.0153952
771.160	0.0154030
771.238	0.0154962
771.317	0.0154762
771.395	0.0155299
771.473	0.0158578
771.551	0.0161144
771.629	0.0164624
771.707	0.0164310
771.785	0.0166220
771.863	0.0169913
771.942	0.0170033
772.020	0.0172188
772.098	0.0173012
772.176	0.0174306
772.254	0.0174315
772.332	0.0173899
772.410	0.0173107
772.488	0.0172860
772.567	0.0172388
772.645	0.0170524
772.723	0.0168813
772.801	0.0167435
772.879	0.0167519
772.957	0.0166376
773.035	0.0165294
773.113	0.0165231
773.192	0.0163174
773.270	0.0164036
773.348	0.0163852
773.426	0.0164591
773.504	0.0165685
773.582	0.0164941
773.660	0.0166429
773.738	0.0167040
773.817	0.0167699
773.895	0.0168996
773.973	0.0168623
774.051	0.0170686
774.129	0.0168470
774.207	0.0168122
774.285	0.0167945
774.363	0.0166238
774.442	0.0165891
774.520	0.0165900
774.598	0.0164378
774.676	0.0163039
774.754	0.0162653
774.832	0.0162312
774.910	0.0162719
774.988	0.0164967
775.067	0.0163765
775.145	0.0166805
775.223	0.0167272
775.301	0.0166144
775.379	0.0168898
775.457	0.0169225
775.535	0.0167773
775.613	0.0168164
775.692	0.0168439
775.770	0.0167084
775.848	0.0166463
775.926	0.0167472
776.004	0.0167757
776.082	0.0165588
776.160	0.0165814
776.238	0.0165925
776.317	0.0165585
776.395	0.0165921
776.473	0.0165879
776.551	0.0164581
776.629	0.0163988
776.707	0.0164278
776.785	0.0163789
776.863	0.0162350
776.942	0.0164202
777.020	0.0163226
777.098	0.0165099
777.176	0.0164955
777.254	0.0166880
777.332	0.0166750
777.410	0.0166499
777.488	0.0167108
777.567	0.0168008
777.645	0.0166901
777.723	0.0170172
777.801	0.0169690
777.879	0.0169567
777.957	0.0170384
778.035	0.0170256
778.113	0.0168485
778.192	0.0169588
778.270	0.0167815
778.348	0.0167896
778.426	0.0167023
778.504	0.0166892
778.582	0.0165497
778.660	0.0163776
778.738	0.0163438
778.817	0.0164935
778.895	0.0163390
778.973	0.0162302
779.051	0.0163799
779.129	0.0163373
779.207	0.0163200
779.285	0.0163834
779.363	0.0163580
779.442	0.0165246
779.520	0.0166647
779.598	0.0166856
779.676	0.0168443
779.754	0.0167650
779.832	0.0168484
779.910	0.0170638
779.988	0.0170963
780.067	0.0169572
780.145	0.0168723
780.223	0.0167986
780.301	0.0166561
780.379	0.0165804
780.457	0.0163828
780.535	0.0163421
780.613	0.0161430
780.692	0.0160127
780.770	0.0160406
780.848	0.0158395
780.926	0.0158903
781.004	0.0159340
781.082	0.0161161
781.160	0.0161449
781.238	0.0164010
781.317	0.0165949
781.395	0.0167168
781.473	0.0168159
781.551	0.0172495
781.629	0.0172712
781.707	0.0173778
781.785	0.0175130
781.863	0.0176115
781.942	0.0177457
782.020	0.0176110
782.098	0.0175518
782.176	0.0173959
782.254	0.0174295
782.332	0.0170702
782.410	0.0171014
782.488	0.0170016
782.567	0.0167346
782.645	0.0166716
782.723	0.0165266
782.801	0.0163825
782.879	0.0160971
782.957	0.0159785
783.035	0.0157911
783.113	0.0156982
783.192	0.0156654
783.270	0.0157354
783.348	0.0157488
783.426	0.0158543
783.504	0.0159313
783.582	0.0161723
783.660	0.0163973
783.738	0.0164594
783.817	0.0165037
783.895	0.0168867
783.973	0.0169267
784.051	0.0173409
784.129	0.0173464
784.207	0.0173236
784.285	0.0173709
784.363	0.0174883
784.442	0.0176165
784.520	0.0174753
784.598	0.0174342
784.676	0.0172318
784.754	0.0170927
784.832	0.0169846
784.910	0.0169746
784.988	0.0167720
785.067	0.0165089
785.145	0.0165156
785.223	0.0163733
785.301	0.0163688
785.379	0.0165166
785.457	0.0164212
785.535	0.0164168
785.613	0.0165710
785.692	0.0164465
785.770	0.0166170
785.848	0.0166399
785.926	0.0165979
786.004	0.0166186
786.082	0.0166191
786.160	0.0166774
786.238	0.0166227
786.317	0.0165377
786.395	0.0164674
786.473	0.0163894
786.551	0.0162810
786.629	0.0164088
786.707	0.0161341
786.785	0.0162527
786.863	0.0161803
786.942	0.0162131
787.020	0.0163552
787.098	0.0164660
787.176	0.0165401
787.254	0.0166910
787.332	0.0167605
787.410	0.0168053
787.488	0.0167747
787.567	0.0169424
787.645	0.0170134
787.723	0.0170254
787.801	0.0171764
787.879	0.0172379
787.957	0.0170288
788.035	0.0171111
788.113	0.0170267
788.192	0.0167922
788.270	0.0167973
788.348	0.0167066
788.426	0.0167735
788.504	0.0167830
788.582	0.0166325
788.660	0.0165142
788.738	0.0166138
788.817	0.0166396
788.895	0.0167753
788.973	0.0167401
789.051	0.0168985
789.129	0.0169112
789.207	0.0172077
789.285	0.0172775
789.363	0.0176146
789.442	0.0176385
789.520	0.0177203
789.598	0.0178766
789.676	0.0178493
789.754	0.0178438
789.832	0.0178115
789.910	0.0178623
789.988	0.0173729
790.067	0.0174505
790.145	0.0171706
790.223	0.0168741
790.301	0.0166556
790.379	0.0164638
790.457	0.0160780
790.535	0.0159589
790.613	0.0159190
790.692	0.0158527
790.770	0.0156886
790.848	0.0155739
790.926	0.0156377
791.004	0.0155449
791.082	0.0155463
791.160	0.0154243
791.238	0.0154345
791.317	0.0156030
791.395	0.0154449
791.473	0.0154818
791.551	0.0154907
791.629	0.0154202
791.707	0.0156561
791.785	0.0157880
791.863	0.0158768
791.942	0.0159815
792.020	0.0163078
792.098	0.0163402
792.176	0.0165668
792.254	0.0168144
792.332	0.0169922
792.410	0.0171239
792.488	0.0174799
792.567	0.0177003
792.645	0.0176753
792.723	0.0179832
792.801	0.0181007
792.879	0.0182014
792.957	0.0181750
793.035	0.0182545
793.113	0.0183031
793.192	0.0183807
793.270	0.0183485
793.348	0.0181421
793.426	0.0179446
793.504	0.0180059
793.582	0.0178861
793.660	0.0178210
793.738	0.0177504
793.817	0.0175426
793.895	0.0174175
793.973	0.0172798
794.051	0.0171689
794.129	0.0171301
794.207	0.0170785
794.285	0.0167870
794.363	0.0165305
794.442	0.0164111
794.520	0.0162344
794.598	0.0160937
794.676	0.0158072
794.754	0.0157054
794.832	0.0154817
794.910	0.0155009
794.988	0.0153047
795.067	0.0150200
795.145	0.0150665
795.223	0.0150588
795.301	0.0151540
795.379	0.0150915
795.457	0.0152955
795.535	0.0154055
795.613	0.0156152
795.692	0.0158075
795.770	0.0157941
795.848	0.0159897
795.926	0.0160088
796.004	0.0161056
796.082	0.0161639
796.160	0.0163055
796.238	0.0163586
796.317	0.0163705
796.395	0.0163573
796.473	0.0162885
796.551	0.0161975
796.629	0.0164756
796.707	0.0163937
796.785	0.0164220
796.863	0.0163808
796.942	0.0164246
797.020	0.0163702
797.098	0.0163216
797.176	0.0165337
797.254	0.0166653
797.332	0.0168931
797.410	0.0169044
797.488	0.0169450
797.567	0.0171390
797.645	0.0174043
797.723	0.0175325
797.801	0.0177544
797.879	0.0178294
797.957	0.0180531
798.035	0.0181717
798.113	0.0182492
798.192	0.0185014
798.270	0.0185262
798.348	0.0183801
798.426	0.0183015
798.504	0.0182545
798.582	0.0180141
798.660	0.0178360
798.738	0.0176054
798.817	0.0173586
798.895	0.0172095
798.973	0.0168021
799.051	0.0165206
799.129	0.0162738
799.207	0.0160972
799.285	0.0159473
799.363	0.0157309
799.442	0.0156386
799.520	0.0154275
799.598	0.0152894
799.676	0.0155276
799.754	0.0153698
799.832	0.0154217
799.910	0.0154163
799.988	0.0154927
800.067	0.0156815
800.145	0.0156824
800.223	0.0156916
800.301	0.0159074
800.379	0.0158208
800.457	0.0158394
800.535	0.0159188
800.613	0.0160217
800.692	0.0159486
800.770	0.0158358
800.848	0.0159145
800.926	0.0161082
801.004	0.0159935
801.082	0.0161281
801.160	0.0162183
801.238	0.0161768
801.317	0.0163060
801.395	0.0162644
801.473	0.0161844
801.551	0.0163590
801.629	0.0164669
801.707	0.0164622
801.785	0.0164608
801.863	0.0165945
801.942	0.0166532
802.020	0.0165487
802.098	0.0168453
802.176	0.0168093
802.254	0.0168133
802.332	0.0170893
802.410	0.0172484
802.488	0.0170673
802.567	0.0173067
802.645	0.0174419
802.723	0.0174670
802.801	0.0176636
802.879	0.0177522
802.957	0.0178851
803.035	0.0180557
803.113	0.0180929
803.192	0.0180685
803.270	0.0180977
803.348	0.0180185
803.426	0.0180441
803.504	0.0179182
803.582	0.0179527
803.660	0.0178358
803.738	0.0176389
803.817	0.0174335
803.895	0.0172643
803.973	0.0170506
804.051	0.0170225
804.129	0.0168433
804.207	0.0166839
804.285	0.0165203
804.363	0.0165395
804.442	0.0165406
804.520	0.0163963
804.598	0.0163982
804.676	0.0163402
804.754	0.0163406
804.832	0.0164365
804.910	0.0163696
804.988	0.0164278
805.067	0.0164360
805.145	0.0164695
805.223	0.0163731
805.301	0.0166092
805.379	0.0166397
805.457	0.0163067
805.535	0.0166056
805.613	0.0162264
805.692	0.0162907
805.770	0.0162428
805.848	0.0162032
805.926	0.0158569
806.004	0.0157269
806.082	0.0157511
806.160	0.0155625
806.238	0.0154470
806.317	0.0154161
806.395	0.0153982
806.473	0.0153567
806.551	0.0153715
806.629	0.0156220
806.707	0.0155259
806.785	0.0158376
806.863	0.0158691
806.942	0.0159896
807.020	0.0160877
807.098	0.0163804
807.176	0.0165829
807.254	0.0168263
807.332	0.0170555
807.410	0.0172960
807.488	0.0175088
807.567	0.0176842
807.645	0.0180022
807.723	0.0179976
807.801	0.0181010
807.879	0.0183929
807.957	0.0185956
808.035	0.0185453
808.113	0.0183477
808.192	0.0184371
808.270	0.0184550
808.348	0.0183411
808.426	0.0182231
808.504	0.0178709
808.582	0.0177000
808.660	0.0173759
808.738	0.0170607
808.817	0.0168732
808.895	0.0166139
808.973	0.0164951
809.051	0.0162688
809.129	0.0160681
809.207	0.0160716
809.285	0.0159098
809.363	0.0159069
809.442	0.0160006
809.520	0.0160512
809.598	0.0161372
809.676	0.0162497
809.754	0.0164676
809.832	0.0166483
809.910	0.0167934
809.988	0.0169286
810.067	0.0170554
810.145	0.0172176
810.223	0.0171103
810.301	0.0171205
810.379	0.0172480
810.457	0.0173373
810.535	0.0170958
810.613	0.0169962
810.692	0.0169061
810.770	0.0169968
810.848	0.0167238
810.926	0.0166228
811.004	0.0166107
811.082	0.0164735
811.160	0.0162438
811.238	0.0161320
811.317	0.0161840
811.395	0.0160028
811.473	0.0159175
811.551	0.0157822
811.629	0.0157447
811.707	0.0156921
811.785	0.0155543
811.863	0.0155402
811.942	0.0154784
812.020	0.0155829
812.098	0.0156037
812.176	0.0157921
812.254	0.0158939
812.332	0.0159333
812.410	0.0160678
812.488	0.0165069
812.567	0.0165962
812.645	0.0168479
812.723	0.0168985
812.801	0.0171799
812.879	0.0174631
812.957	0.0175930
813.035	0.0178069
813.113	0.0178875
813.192	0.0177799
813.270	0.0177407
813.348	0.0177081
813.426	0.0177454
813.504	0.0175469
813.582	0.0174245
813.660	0.0173981
813.738	0.0171840
813.817	0.0171142
813.895	0.0170516
813.973	0.0167659
814.051	0.0165945
814.129	0.0164087
814.207	0.0162885
814.285	0.0163637
814.363	0.0161296
814.442	0.0162035
814.520	0.0160815
814.598	0.0162069
814.676	0.0162090
814.754	0.0162207
814.832	0.0162040
814.910	0.0164300
814.988	0.0165386
815.067	0.0167458
815.145	0.0168843
815.223	0.0170574
815.301	0.0171236
815.379	0.0171405
815.457	0.0171550
815.535	0.0172706
815.613	0.0172418
815.692	0.0173112
815.770	0.0173954
815.848	0.0172225
815.926	0.0172072
816.004	0.0170605
816.082	0.0170019
816.160	0.0169999
816.238	0.0169293
816.317	0.0168741
816.395	0.0168265
816.473	0.0169653
816.551	0.0168079
816.629	0.0167883
816.707	0.0168029
816.785	0.0166991
816.863	0.0165651
816.942	0.0165318
817.020	0.0164256
817.098	0.0163605
817.176	0.0161465
817.254	0.0158593
817.332	0.0157084
817.410	0.0155682
817.488	0.0155122
817.567	0.0153593
817.645	0.0152082
817.723	0.0151437
817.801	0.0150761
817.879	0.0152365
817.957	0.0153027
818.035	0.0154035
818.113	0.0155635
818.192	0.0155929
818.270	0.0160718
818.348	0.0162438
818.426	0.0165917
818.504	0.0167426
818.582	0.0169225
818.660	0.0171229
818.738	0.0173473
818.817	0.0175293
818.895	0.0176392
818.973	0.0176975
819.051	0.0176903
819.129	0.0176008
819.207	0.0174651
819.285	0.0172415
819.363	0.0173663
819.442	0.0171498
819.520	0.0169141
819.598	0.0167091
819.676	0.0166468
819.754	0.0164696
819.832	0.0164834
819.910	0.0164874
819.988	0.0164327
820.067	0.0164043
820.145	0.0165778
820.223	0.0166148
820.301	0.0167988
820.379	0.0169226
820.457	0.0170657
820.535	0.0173006
820.613	0.0173734
820.692	0.0175948
820.770	0.0175755
820.848	0.0176427
820.926	0.0176059
821.004	0.0176653
821.082	0.0175243
821.160	0.0172301
821.238	0.0170907
821.317	0.0169759
821.395	0.0168269
821.473	0.0165978
821.551	0.0164568
821.629	0.0163962
821.707	0.0162791
821.785	0.0159843
821.863	0.0160348
821.942	0.0160513
822.020	0.0160014
822.098	0.0160822
822.176	0.0159416
822.254	0.0160432
822.332	0.0162875
822.410	0.0163282
822.488	0.0163421
822.567	0.0165511
822.645	0.0167083
822.723	0.0167730
822.801	0.0167867
822.879	0.0167397
822.957	0.0168134
823.035	0.0168143
823.113	0.0169159
823.192	0.0168172
823.270	0.0167855
823.348	0.0168227
823.426	0.0165723
823.504	0.0165388
823.582	0.0163879
823.660	0.0164909
823.738	0.0163470
823.817	0.0161649
823.895	0.0161655
823.973	0.0161036
824.051	0.0161566
824.129	0.0162274
824.207	0.0163749
824.285	0.0161479
824.363	0.0163287
824.442	0.0164331
824.520	0.0166235
824.598	0.0167259
824.676	0.0167204
824.754	0.0170296
824.832	0.0169720
824.910	0.0170078
824.988	0.0170947
825.067	0.0171107
825.145	0.0169416
825.223	0.0169446
825.301	0.0167735
825.379	0.0167323
825.457	0.0167811
825.535	0.0166340
825.613	0.0165500
825.692	0.0165369
825.770	0.0164365
825.848	0.0165418
825.926	0.0166499
826.004	0.0167467
826.082	0.0168571
826.160	0.0169566
826.238	0.0170634
826.317	0.0171010
826.395	0.0173894
826.473	0.0175698
826.551	0.0176766
826.629	0.0177580
826.707	0.0178038
826.785	0.0178546
826.863	0.0178656
826.942	0.0177213
827.020	0.0177335
827.098	0.0174683
827.176	0.0173226
827.254	0.0171509
827.332	0.0168891
827.410	0.0166578
827.488	0.0164764
827.567	0.0164957
827.645	0.0162184
827.723	0.0161359
827.801	0.0160991
827.879	0.0161134
827.957	0.0160396
828.035	0.0162983
828.113	0.0161797
828.192	0.0164162
828.270	0.0163717
828.348	0.0165384
828.426	0.0167412
828.504	0.0167864
828.582	0.0168398
828.660	0.0170123
828.738	0.0170589
828.817	0.0170168
828.895	0.0170768
828.973	0.0171453
829.051	0.0168522
829.129	0.0166776
829.207	0.0166321
829.285	0.0163671
829.363	0.0163702
829.442	0.0161758
829.520	0.0160892
829.598	0.0160498
829.676	0.0158528
829.754	0.0157988
829.832	0.0157430
829.910	0.0157731
829.988	0.0157652
830.067	0.0158793
830.145	0.0160254
830.223	0.0160551
830.301	0.0162074
830.379	0.0163173
830.457	0.0164673
830.535	0.0165123
830.613	0.0166585
830.692	0.0168713
830.770	0.0170145
830.848	0.0170497
830.926	0.0171610
831.004	0.0171555
831.082	0.0174211
831.160	0.0173907
831.238	0.0174330
831.317	0.0174426
831.395	0.0174460
831.473	0.0173015
831.551	0.0175117
831.629	0.0174233
831.707	0.0171449
831.785	0.0171211
831.863	0.0170759
831.942	0.0171616
832.020	0.0171072
832.098	0.0170514
832.176	0.0170621
832.254	0.0170492
832.332	0.0168899
832.410	0.0169007
832.488	0.0167795
832.567	0.0169112
832.645	0.0167862
832.723	0.0168254
832.801	0.0169268
832.879	0.0167228
832.957	0.0166482
833.035	0.0167437
833.113	0.0167913
833.192	0.0167655
833.270	0.0165917
833.348	0.0166737
833.426	0.0165576
833.504	0.0166480
833.582	0.0163940
833.660	0.0162844
833.738	0.0162011
833.817	0.0162186
833.895	0.0161019
833.973	0.0160281
834.051	0.0160936
834.129	0.0159163
834.207	0.0160272
834.285	0.0160246
834.363	0.0160569
834.442	0.0162971
834.520	0.0161583
834.598	0.0163371
834.676	0.0164200
834.754	0.0165605
834.832	0.0166287
834.910	0.0167123
834.988	0.0166943
835.067	0.0169501
835.145	0.0169370
835.223	0.0169660
835.301	0.0168680
835.379	0.0169194
835.457	0.0168346
835.535	0.0167786
835.613	0.0167708
835.692	0.0167152
835.770	0.0165912
835.848	0.0165321
835.926	0.0164031
836.004	0.0164061
836.082	0.0162797
836.160	0.0162012
836.238	0.0159826
836.317	0.0160841
836.395	0.0160238
836.473	0.0158793
836.551	0.0160114
836.629	0.0161753
836.707	0.0161488
836.785	0.0161156
836.863	0.0162317
836.942	0.0164103
837.020	0.0165879
837.098	0.0167065
837.176	0.0168210
837.254	0.0170115
837.332	0.0170637
837.410	0.0172186
837.488	0.0172922
837.567	0.0172974
837.645	0.0173322
837.723	0.0173393
837.801	0.0174496
837.879	0.0173029
837.957	0.0172356
838.035	0.0172070
838.113	0.0171160
838.192	0.0170958
838.270	0.0169815
838.348	0.0167907
838.426	0.0167039
838.504	0.0167678
838.582	0.0167709
838.660	0.0166756
838.738	0.0166393
838.817	0.0166191
838.895	0.0167348
838.973	0.0168237
839.051	0.0168094
839.129	0.0167358
839.207	0.0168978
839.285	0.0170710
839.363	0.0169212
839.442	0.0168918
839.520	0.0169699
839.598	0.0169059
839.676	0.0167725
839.754	0.0167333
839.832	0.0167725
839.910	0.0167886
839.988	0.0166133
840.067	0.0165149
840.145	0.0163235
840.223	0.0161817
840.301	0.0160555
840.379	0.0161497
840.457	0.0159167
840.535	0.0159660
840.613	0.0161279
840.692	0.0160764
840.770	0.0160906
840.848	0.0158892
840.926	0.0160139
841.004	0.0161420
841.082	0.0162527
841.160	0.0164076
841.238	0.0164126
841.317	0.0164828
841.395	0.0165765
841.473	0.0167176
841.551	0.0168285
841.629	0.0168483
841.707	0.0167617
841.785	0.0168294
841.863	0.0168610
841.942	0.0168504
842.020	0.0168964
842.098	0.0165945
842.176	0.0166955
842.254	0.0165208
842.332	0.0165304
842.410	0.0164819
842.488	0.0164581
842.567	0.0163683
842.645	0.0161457
842.723	0.0161407
842.801	0.0161560
842.879	0.0160061
842.957	0.0163177
843.035	0.0162902
843.113	0.0162553
843.192	0.0164911
843.270	0.0164571
843.348	0.0166408
843.426	0.0169109
843.504	0.0168882
843.582	0.0169532
843.660	0.0174138
843.738	0.0173003
843.817	0.0173779
843.895	0.0174263
843.973	0.0174100
844.051	0.0173800
844.129	0.0174096
844.207	0.0173109
844.285	0.0172203
844.363	0.0171199
844.442	0.0168515
844.520	0.0168950
844.598	0.0168999
844.676	0.0166569
844.754	0.0166329
844.832	0.0165962
844.910	0.0164809
844.988	0.0164767
845.067	0.0164275
845.145	0.0164769
845.223	0.0165099
845.301	0.0165596
845.379	0.0167166
845.457	0.0167744
845.535	0.0167301
845.613	0.0169205
845.692	0.0169132
845.770	0.0170762
845.848	0.0171273
845.926	0.0170361
846.004	0.0170388
846.082	0.0171990
846.160	0.0172440
846.238	0.0169464
846.317	0.0170721
846.395	0.0169984
846.473	0.0166446
846.551	0.0166264
846.629	0.0165939
846.707	0.0164676
846.785	0.0163364
846.863	0.0162874
846.942	0.0162159
847.020	0.0161259
847.098	0.0162176
847.176	0.0161774
847.254	0.0162147
847.332	0.0162328
847.410	0.0161631
847.488	0.0164845
847.567	0.0165476
847.645	0.0164702
847.723	0.0164282
847.801	0.0167942
847.879	0.0169571
847.957	0.0170855
848.035	0.0170919
848.113	0.0171093
848.192	0.0170990
848.270	0.0172559
848.348	0.0170332
848.426	0.0169623
848.504	0.0169995
848.582	0.0168943
848.660	0.0168233
848.738	0.0167170
848.817	0.0164603
848.895	0.0163112
848.973	0.0162919
849.051	0.0161231
849.129	0.0161502
849.207	0.0160393
849.285	0.0161491
849.363	0.0161893
849.442	0.0163867
849.520	0.0163386
849.598	0.0163888
849.676	0.0166053
849.754	0.0166544
849.832	0.0166831
849.910	0.0168301
849.988	0.0170673
850.067	0.0169920
850.145	0.0171222
850.223	0.0172671
850.301	0.0173871
850.379	0.0172919
850.457	0.0172749
850.535	0.0174122
850.613	0.0172200
850.692	0.0171329
850.770	0.0170271
850.848	0.0169326
850.926	0.0169715
851.004	0.0168913
851.082	0.0168183
851.160	0.0166465
851.238	0.0165778
851.317	0.0164673
851.395	0.0165873
851.473	0.0164628
851.551	0.0164368
851.629	0.0165025
851.707	0.0165901
851.785	0.0166369
851.863	0.0167409
851.942	0.0167889
852.020	0.0169539
852.098	0.0169442
852.176	0.0170721
852.254	0.0171489
852.332	0.0170093
852.410	0.0170326
852.488	0.0171185
852.567	0.0170647
852.645	0.0171299
852.723	0.0169678
852.801	0.0169280
852.879	0.0168764
852.957	0.0167015
853.035	0.0166294
853.113	0.0164143
853.192	0.0163847
853.270	0.0162378
853.348	0.0162797
853.426	0.0160071
853.504	0.0161038
853.582	0.0162154
853.660	0.0161967
853.738	0.0162625
853.817	0.0162650
853.895	0.0164838
853.973	0.0166168
854.051	0.0167006
854.129	0.0168696
854.207	0.0170673
854.285	0.0170033
854.363	0.0171947
854.442	0.0170743
854.520	0.0171190
854.598	0.0170267
854.676	0.0171050
854.754	0.0171845
854.832	0.0170237
854.910	0.0169123
854.988	0.0169364
855.067	0.0167556
855.145	0.0164542
855.223	0.0165402
855.301	0.0165532
855.379	0.0163105
855.457	0.0164162
855.535	0.0163791
855.613	0.0163692
855.692	0.0162817
855.770	0.0163091
855.848	0.0164369
855.926	0.0165721
856.004	0.0164965
856.082	0.0164930
856.160	0.0164973
856.238	0.0166621
856.317	0.0165933
856.395	0.0167067
856.473	0.0168008
856.551	0.0168984
856.629	0.0166908
856.707	0.0167801
856.785	0.0167033
856.863	0.0167027
856.942	0.0166882
857.020	0.0166138
857.098	0.0166894
857.176	0.0166268
857.254	0.0164707
857.332	0.0163918
857.410	0.0165463
857.488	0.0165438
857.567	0.0164865
857.645	0.0164917
857.723	0.0166940
857.801	0.0166348
857.879	0.0166201
857.957	0.0167213
858.035	0.0166945
858.113	0.0167959
858.192	0.0167528
858.270	0.0169495
858.348	0.0171177
858.426	0.0170379
858.504	0.0170118
858.582	0.0172457
858.660	0.0171671
858.738	0.0170531
858.817	0.0169335
858.895	0.0171596
858.973	0.0170470
859.051	0.0168290
859.129	0.0166734
859.207	0.0166861
859.285	0.0166620
859.363	0.0165363
859.442	0.0163114
859.520	0.0162461
859.598	0.0162812
859.676	0.0161975
859.754	0.0161399
859.832	0.0160722
859.910	0.0163429
859.988	0.0162609
860.067	0.0163856
860.145	0.0164380
860.223	0.0167326
860.301	0.0166291
860.379	0.0166582
860.457	0.0169370
860.535	0.0169402
860.613	0.0170412
860.692	0.0172527
860.770	0.0172408
860.848	0.0172497
860.926	0.0172538
861.004	0.0171620
861.082	0.0172153
861.160	0.0170486
861.238	0.0170350
861.317	0.0168790
861.395	0.0169202
861.473	0.0167447
861.551	0.0166351
861.629	0.0166563
861.707	0.0164089
861.785	0.0163941
861.863	0.0163559
861.942	0.0163335
862.020	0.0163037
862.098	0.0162923
862.176	0.0162294
862.254	0.0162629
862.332	0.0163803
862.410	0.0164379
862.488	0.0166167
862.567	0.0165734
862.645	0.0166734
862.723	0.0167197
862.801	0.0168253
862.879	0.0168188
862.957	0.0168936
863.035	0.0168863
863.113	0.0169193
863.192	0.0168765
863.270	0.0167682
863.348	0.0167533
863.426	0.0168491
863.504	0.0167925
863.582	0.0166492
863.660	0.0166978
863.738	0.0167985
863.817	0.0165716
863.895	0.0165449
863.973	0.0165524
864.051	0.0163548
864.129	0.0164920
864.207	0.0164872
864.285	0.0163985
864.363	0.0165381
864.442	0.0165320
864.520	0.0164899
864.598	0.0166795
864.676	0.0164896
864.754	0.0165910
864.832	0.0168464
864.910	0.0169194
864.988	0.0167184
865.067	0.0167232
865.145	0.0168624
865.223	0.0168567
865.301	0.0169370
865.379	0.0169836
865.457	0.0168655
865.535	0.0168558
865.613	0.0167256
865.692	0.0165778
865.770	0.0166082
865.848	0.0165659
865.926	0.0164423
866.004	0.0164757
866.082	0.0164985
866.160	0.0162656
866.238	0.0162688
866.317	0.0164422
866.395	0.0162260
866.473	0.0164844
866.551	0.0165388
866.629	0.0165576
866.707	0.0166074
866.785	0.0166514
866.863	0.0167803
866.942	0.0168368
867.020	0.0169273
867.098	0.0169711
867.176	0.0169016
867.254	0.0169839
867.332	0.0169039
867.410	0.0170379
867.488	0.0168978
867.567	0.0169749
867.645	0.0168414
867.723	0.0168689
867.801	0.0166925
867.879	0.0168002
867.957	0.0167492
868.035	0.0166473
868.113	0.0165672
868.192	0.0165109
868.270	0.0165115
868.348	0.0164955
868.426	0.0165066
868.504	0.0165253
868.582	0.0166298
868.660	0.0164996
868.738	0.0165273
868.817	0.0165587
868.895	0.0165639
868.973	0.0166287
869.051	0.0165884
869.129	0.0167239
869.207	0.0165913
869.285	0.0167318
869.363	0.0167886
869.442	0.0167139
869.520	0.0166975
869.598	0.0167965
869.676	0.0166739
869.754	0.0166032
869.832	0.0166614
869.910	0.0166730
869.988	0.0165677
870.067	0.0165357
870.145	0.0165891
870.223	0.0164787
870.301	0.0164673
870.379	0.0164923
870.457	0.0165189
870.535	0.0164948
870.613	0.0167254
870.692	0.0167039
870.770	0.0166538
870.848	0.0167537
870.926	0.0168979
871.004	0.0167662
871.082	0.0169158
871.160	0.0169662
871.238	0.0171349
871.317	0.0170428
871.395	0.0171010
871.473	0.0172449
871.551	0.0171552
871.629	0.0171226
871.707	0.0172533
871.785	0.0171836
871.863	0.0170034
871.942	0.0170314
872.020	0.0170399
872.098	0.0169794
872.176	0.0168527
872.254	0.0165562
872.332	0.0164394
872.410	0.0164503
872.488	0.0163646
872.567	0.0161939
872.645	0.0161314
872.723	0.0162803
872.801	0.0162461
872.879	0.0163419
872.957	0.0163679
873.035	0.0162911
873.113	0.0163812
873.192	0.0163524
873.270	0.0166670
873.348	0.0166696
873.426	0.0167594
873.504	0.0167665
873.582	0.0168707
873.660	0.0169921
873.738	0.0169250
873.817	0.0169577
873.895	0.0169707
873.973	0.0169839
874.051	0.0169570
874.129	0.0170325
874.207	0.0168787
874.285	0.0167035
874.363	0.0167825
874.442	0.0168040
874.520	0.0165607
874.598	0.0165199
874.676	0.0166047
874.754	0.0164359
874.832	0.0163638
874.910	0.0163930
874.988	0.0163487
875.067	0.0163846
875.145	0.0162832
875.223	0.0162151
875.301	0.0163384
875.379	0.0164438
875.457	0.0165987
875.535	0.0164948
875.613	0.0165902
875.692	0.0166690
875.770	0.0165849
875.848	0.0167226
875.926	0.0169228
876.004	0.0168272
876.082	0.0168393
876.160	0.0168556
876.238	0.0169391
876.317	0.0169681
876.395	0.0169281
876.473	0.0168603
876.551	0.0168051
876.629	0.0167626
876.707	0.0169020
876.785	0.0168228
876.863	0.0166762
876.942	0.0166386
877.020	0.0167171
877.098	0.0167822
877.176	0.0167947
877.254	0.0169460
877.332	0.0169797
877.410	0.0168970
877.488	0.0170111
877.567	0.0170767
877.645	0.0169639
877.723	0.0170728
877.801	0.0171968
877.879	0.0170930
877.957	0.0170325
878.035	0.0171249
878.113	0.0171036
878.192	0.0169121
878.270	0.0169189
878.348	0.0170412
878.426	0.0168003
878.504	0.0168832
878.582	0.0167100
878.660	0.0167282
878.738	0.0165845
878.817	0.0164236
878.895	0.0163004
878.973	0.0163462
879.051	0.0162880
879.129	0.0162189
879.207	0.0161983
879.285	0.0161441
879.363	0.0161880
879.442	0.0161917
879.520	0.0163087
879.598	0.0161706
879.676	0.0163830
879.754	0.0163758
879.832	0.0163512
879.910	0.0164474
879.988	0.0164147
880.067	0.0164922
880.145	0.0165128
880.223	0.0167085
880.301	0.0167154
880.379	0.0167201
880.457	0.0166500
880.535	0.0167356
880.613	0.0168825
880.692	0.0168243
880.770	0.0168060
880.848	0.0168076
880.926	0.0168574
881.004	0.0167080
881.082	0.0168695
881.160	0.0170042
881.238	0.0169360
881.317	0.0166875
881.395	0.0168056
881.473	0.0167475
881.551	0.0166437
881.629	0.0166334
881.707	0.0167709
881.785	0.0167525
881.863	0.0168117
881.942	0.0168446
882.020	0.0168283
882.098	0.0168394
882.176	0.0167815
882.254	0.0167605
882.332	0.0168526
882.410	0.0167350
882.488	0.0168294
882.567	0.0167583
882.645	0.0168634
882.723	0.0168200
882.801	0.0168631
882.879	0.0168997
882.957	0.0169440
883.035	0.0168638
883.113	0.0168388
883.192	0.0168369
883.270	0.0168520
883.348	0.0168382
883.426	0.0167741
883.504	0.0168938
883.582	0.0168682
883.660	0.0168809
883.738	0.0168659
883.817	0.0169735
883.895	0.0169966
883.973	0.0168459
884.051	0.0168788
884.129	0.0170219
884.207	0.0170580
884.285	0.0169738
884.363	0.0170251
884.442	0.0171246
884.520	0.0169598
884.598	0.0169657
884.676	0.0168996
884.754	0.0171203
884.832	0.0170278
884.910	0.0168469
884.988	0.0167582
885.067	0.0167886
885.145	0.0166300
885.223	0.0167281
885.301	0.0165462
885.379	0.0166032
885.457	0.0165549
885.535	0.0164910
885.613	0.0164845
885.692	0.0164457
885.770	0.0163389
885.848	0.0162782
885.926	0.0164766
886.004	0.0162643
886.082	0.0165340
886.160	0.0165430
886.238	0.0165657
886.317	0.0167028
886.395	0.0165446
886.473	0.0166582
886.551	0.0166338
886.629	0.0165414
886.707	0.0166532
886.785	0.0167190
886.863	0.0166022
886.942	0.0165500
887.020	0.0166345
887.098	0.0168261
887.176	0.0166525
887.254	0.0167774
887.332	0.0166428
887.410	0.0166290
887.488	0.0167711
887.567	0.0165398
887.645	0.0165829
887.723	0.0166343
887.801	0.0164941
887.879	0.0165224
887.957	0.0165581
888.035	0.0165337
888.113	0.0165965
888.192	0.0165482
888.270	0.0165910
888.348	0.0167107
888.426	0.0164798
888.504	0.0165273
888.582	0.0166617
888.660	0.0167336
888.738	0.0165926
888.817	0.0167224
888.895	0.0167667
888.973	0.0167269
889.051	0.0168108
889.129	0.0169324
889.207	0.0170229
889.285	0.0170361
889.363	0.0169872
889.442	0.0169047
889.520	0.0170953
889.598	0.0170547
889.676	0.0170416
889.754	0.0170264
889.832	0.0172094
889.910	0.0172643
889.988	0.0171009
890.067	0.0172887
890.145	0.0172331
890.223	0.0172620
890.301	0.0171917
890.379	0.0172269
890.457	0.0172310
890.535	0.0172266
890.613	0.0171819
890.692	0.0172050
890.770	0.0171706
890.848	0.0172775
890.926	0.0170583
891.004	0.0170975
891.082	0.0172163
891.160	0.0169107
891.238	0.0169919
891.317	0.0168618
891.395	0.0168147
891.473	0.0167904
891.551	0.0166075
891.629	0.0166128
891.707	0.0163912
891.785	0.0162746
891.863	0.0160888
891.942	0.0161275
892.020	0.0160252
892.098	0.0160432
892.176	0.0159874
892.254	0.0160129
892.332	0.0158873
892.410	0.0159968
892.488	0.0159210
892.567	0.0159556
892.645	0.0160524
892.723	0.0160240
892.801	0.0161400
892.879	0.0163232
892.957	0.0161808
893.035	0.0162482
893.113	0.0163570
893.192	0.0163850
893.270	0.0165106
893.348	0.0164821
893.426	0.0166021
893.504	0.0165741
893.582	0.0166027
893.660	0.0165282
893.738	0.0166047
893.817	0.0165107
893.895	0.0165685
893.973	0.0165759
894.051	0.0166776
894.129	0.0167752
894.207	0.0167259
894.285	0.0165833
894.363	0.0165913
894.442	0.0166492
894.520	0.0166341
894.598	0.0167152
894.676	0.0167402
894.754	0.0166299
894.832	0.0167371
894.910	0.0168323
894.988	0.0168374
895.067	0.0169261
895.145	0.0168372
895.223	0.0169382
895.301	0.0169985
895.379	0.0169804
895.457	0.0169109
895.535	0.0169821
895.613	0.0170142
895.692	0.0169804
895.770	0.0169957
895.848	0.0169077
895.926	0.0169209
896.004	0.0167173
896.082	0.0166396
896.160	0.0167497
896.238	0.0165801
896.317	0.0165849
896.395	0.0166077
896.473	0.0165324
896.551	0.0165249
896.629	0.0164896
896.707	0.0164373
896.785	0.0165198
896.863	0.0165058
896.942	0.0166541
897.020	0.0167338
897.098	0.0165783
897.176	0.0167299
897.254	0.0167813
897.332	0.0167461
897.410	0.0168069
897.488	0.0168249
897.567	0.0167732
897.645	0.0167564
897.723	0.0168176
897.801	0.0167023
897.879	0.0168214
897.957	0.0166792
898.035	0.0165853
898.113	0.0165650
898.192	0.0164281
898.270	0.0164315
898.348	0.0162977
898.426	0.0163171
898.504	0.0163976
898.582	0.0161300
898.660	0.0162004
898.738	0.0163183
898.817	0.0163120
898.895	0.0163721
898.973	0.0161567
899.051	0.0162286
899.129	0.0164378
899.207	0.0163599
899.285	0.0165302
899.363	0.0164818
899.442	0.0167619
899.520	0.0166736
899.598	0.0167307
899.676	0.0166640
899.754	0.0168272
899.832	0.0168623
899.910	0.0168909
899.988	0.0169539
900.067	0.0171733
900.145	0.0170704
900.223	0.0169194
900.301	0.0168623
900.379	0.0168132
900.457	0.0168865
900.535	0.0167615
900.613	0.0168386
900.692	0.0166810
900.770	0.0167606
900.848	0.0167580
900.926	0.0167859
901.004	0.0167529
901.082	0.0166273
901.160	0.0167148
901.238	0.0168056
901.317	0.0168913
901.395	0.0166812
901.473	0.0167969
901.551	0.0168306
901.629	0.0166817
901.707	0.0166625
901.785	0.0168402
901.863	0.0167973
901.942	0.0166742
902.020	0.0166630
902.098	0.0167573
902.176	0.0165659
902.254	0.0166936
902.332	0.0168344
902.410	0.0167762
902.488	0.0166043
902.567	0.0165118
902.645	0.0165739
902.723	0.0165399
902.801	0.0165641
902.879	0.0166112
902.957	0.0163986
903.035	0.0164367
903.113	0.0164806
903.192	0.0165250
903.270	0.0165049
903.348	0.0166116
903.426	0.0166656
903.504	0.0165517
903.582	0.0167876
903.660	0.0167678
903.738	0.0167822
903.817	0.0168853
903.895	0.0169151
903.973	0.0170184
904.051	0.0170078
904.129	0.0169541
904.207	0.0169322
904.285	0.0170948
904.363	0.0170938
904.442	0.0170271
904.520	0.0171469
904.598	0.0171709
904.676	0.0170294
904.754	0.0170973
904.832	0.0170968
904.910	0.0168655
904.988	0.0169338
905.067	0.0169411
905.145	0.0167404
905.223	0.0166905
905.301	0.0167231
905.379	0.0166755
905.457	0.0165215
905.535	0.0165932
905.613	0.0164563
905.692	0.0164603
905.770	0.0164767
905.848	0.0163988
905.926	0.0165720
906.004	0.0165277
906.082	0.0165126
906.160	0.0165225
906.238	0.0166556
906.317	0.0166177
906.395	0.0166058
906.473	0.0166612
906.551	0.0167951
906.629	0.0168004
906.707	0.0168285
906.785	0.0167820
906.863	0.0166895
906.942	0.0167560
907.020	0.0169018
907.098	0.0168525
907.176	0.0168108
907.254	0.0166738
907.332	0.0167398
907.410	0.0168067
907.488	0.0168011
907.567	0.0166161
907.645	0.0166390
907.723	0.0167362
907.801	0.0166071
907.879	0.0166824
907.957	0.0166586
908.035	0.0167207
908.113	0.0166796
908.192	0.0166396
908.270	0.0164841
908.348	0.0165017
908.426	0.0164264
908.504	0.0164555
908.582	0.0164614
908.660	0.0163983
908.738	0.0164024
908.817	0.0165054
908.895	0.0165642
908.973	0.0166312
909.051	0.0166875
909.129	0.0166854
909.207	0.0167544
909.285	0.0168079
909.363	0.0167971
909.442	0.0167957
909.520	0.0168607
909.598	0.0168360
909.676	0.0168017
909.754	0.0169289
909.832	0.0168979
909.910	0.0168387
909.988	0.0168665
910.067	0.0168271
910.145	0.0169001
910.223	0.0169100
910.301	0.0168070
910.379	0.0168383
910.457	0.0168936
910.535	0.0167511
910.613	0.0168051
910.692	0.0167138
910.770	0.0168227
910.848	0.0167262
910.926	0.0168287
911.004	0.0167813
911.082	0.0168675
911.160	0.0166730
911.238	0.0166821
911.317	0.0167968
911.395	0.0166620
911.473	0.0166962
911.551	0.0166830
911.629	0.0166880
911.707	0.0166587
911.785	0.0164462
911.863	0.0165287
911.942	0.0165824
912.020	0.0164418
912.098	0.0164070
912.176	0.0165270
912.254	0.0165059
912.332	0.0164833
912.410	0.0164970
912.488	0.0164868
912.567	0.0164953
912.645	0.0164453
912.723	0.0166407
912.801	0.0164552
912.879	0.0167255
912.957	0.0164869
913.035	0.0166019
913.113	0.0166695
913.192	0.0166465
913.270	0.0166129
913.348	0.0166463
913.426	0.0166270
913.504	0.0166455
913.582	0.0167010
913.660	0.0167448
913.738	0.0167388
913.817	0.0167818
913.895	0.0166514
913.973	0.0168068
914.051	0.0168085
914.129	0.0167671
914.207	0.0166831
914.285	0.0167169
914.363	0.0167499
914.442	0.0166957
914.520	0.0167440
914.598	0.0167446
914.676	0.0167089
914.754	0.0166323
914.832	0.0167317
914.910	0.0167074
914.988	0.0166247
915.067	0.0166125
915.145	0.0167673
915.223	0.0167338
915.301	0.0167941
915.379	0.0166895
915.457	0.0166921
915.535	0.0167941
915.613	0.0167926
915.692	0.0168480
915.770	0.0167279
915.848	0.0169688
915.926	0.0168822
916.004	0.0166156
916.082	0.0167100
916.160	0.0168135
916.238	0.0168176
916.317	0.0166721
916.395	0.0166235
916.473	0.0167903
916.551	0.0167066
916.629	0.0167393
916.707	0.0168022
916.785	0.0168021
916.863	0.0167510
916.942	0.0168864
917.020	0.0169122
917.098	0.0168300
917.176	0.0168463
917.254	0.0169358
917.332	0.0167814
917.410	0.0167580
917.488	0.0168699
917.567	0.0167657
917.645	0.0167755
917.723	0.0168050
917.801	0.0167529
917.879	0.0167914
917.957	0.0165981
918.035	0.0166635
918.113	0.0165031
918.192	0.0163538
918.270	0.0163266
918.348	0.0165119
918.426	0.0163470
918.504	0.0163466
918.582	0.0162840
918.660	0.0162902
918.738	0.0161900
918.817	0.0162370
918.895	0.0162630
918.973	0.0163407
919.051	0.0161664
919.129	0.0163363
919.207	0.0163867
919.285	0.0163744
919.363	0.0163937
919.442	0.0165424
919.520	0.0164814
919.598	0.0165842
919.676	0.0167423
919.754	0.0166869
919.832	0.0166210
919.910	0.0166718
