06/10/2022	16:28:22	Ver.	4.1	UNKNOWN
Optical Delay	650.009681	Delta X		0.078125	Sweeps	1	Scan Rate	0/0
Coordinates	Axis 1	NaN	Axis 2	NaN	Axis 3	NaN	Axis 4	NaN	Axis 5	NaN	Axis 6	0.000000
TX Power	0.000000	RX Power	0.000000

650.010	0.0163300
650.088	0.0163338
650.166	0.0161833
650.244	0.0162580
650.322	0.0162358
650.400	0.0163244
650.478	0.0161988
650.557	0.0162652
650.635	0.0163686
650.713	0.0163279
650.791	0.0163654
650.869	0.0162123
650.947	0.0162114
651.025	0.0162943
651.103	0.0163063
651.182	0.0162692
651.260	0.0162275
651.338	0.0163092
651.416	0.0162355
651.494	0.0162344
651.572	0.0163140
651.650	0.0163120
651.728	0.0162504
651.807	0.0162729
651.885	0.0163749
651.963	0.0162278
652.041	0.0162414
652.119	0.0162815
652.197	0.0163164
652.275	0.0162627
652.353	0.0164040
652.432	0.0162772
652.510	0.0163139
652.588	0.0162646
652.666	0.0162188
652.744	0.0162659
652.822	0.0162524
652.900	0.0163766
652.978	0.0162363
653.057	0.0162997
653.135	0.0163180
653.213	0.0163795
653.291	0.0163219
653.369	0.0162827
653.447	0.0161536
653.525	0.0161526
653.603	0.0163175
653.682	0.0162522
653.760	0.0161839
653.838	0.0161942
653.916	0.0161113
653.994	0.0161223
654.072	0.0163369
654.150	0.0161543
654.228	0.0160822
654.307	0.0162376
654.385	0.0161242
654.463	0.0161998
654.541	0.0162229
654.619	0.0160828
654.697	0.0162212
654.775	0.0161864
654.853	0.0162209
654.932	0.0162888
655.010	0.0160789
655.088	0.0161047
655.166	0.0160711
655.244	0.0158916
655.322	0.0160465
655.400	0.0160291
655.478	0.0161148
655.557	0.0160618
655.635	0.0160958
655.713	0.0161241
655.791	0.0162315
655.869	0.0160663
655.947	0.0161787
656.025	0.0161699
656.103	0.0161842
656.182	0.0160498
656.260	0.0160374
656.338	0.0159987
656.416	0.0160941
656.494	0.0161771
656.572	0.0161465
656.650	0.0160936
656.728	0.0159344
656.807	0.0159964
656.885	0.0162049
656.963	0.0161168
657.041	0.0160896
657.119	0.0162687
657.197	0.0160527
657.275	0.0161076
657.353	0.0160989
657.432	0.0160142
657.510	0.0161360
657.588	0.0161268
657.666	0.0161725
657.744	0.0160570
657.822	0.0160368
657.900	0.0161430
657.978	0.0162077
658.057	0.0162349
658.135	0.0161489
658.213	0.0161091
658.291	0.0161703
658.369	0.0162115
658.447	0.0160693
658.525	0.0161305
658.603	0.0161123
658.682	0.0159897
658.760	0.0161106
658.838	0.0163512
658.916	0.0161237
658.994	0.0160989
659.072	0.0161575
659.150	0.0161467
659.228	0.0160994
659.307	0.0160989
659.385	0.0160972
659.463	0.0159394
659.541	0.0162370
659.619	0.0161620
659.697	0.0161643
659.775	0.0160610
659.853	0.0161143
659.932	0.0161526
660.010	0.0161611
660.088	0.0161774
660.166	0.0161345
660.244	0.0161114
660.322	0.0160426
660.400	0.0161039
660.478	0.0161909
660.557	0.0161597
660.635	0.0161710
660.713	0.0162817
660.791	0.0161047
660.869	0.0161787
660.947	0.0161784
661.025	0.0161392
661.103	0.0162076
661.182	0.0161994
661.260	0.0161500
661.338	0.0161378
661.416	0.0162276
661.494	0.0161131
661.572	0.0162160
661.650	0.0161112
661.728	0.0161448
661.807	0.0162017
661.885	0.0162157
661.963	0.0161193
662.041	0.0161047
662.119	0.0162001
662.197	0.0160647
662.275	0.0161889
662.353	0.0162857
662.432	0.0161091
662.510	0.0161045
662.588	0.0161625
662.666	0.0161487
662.744	0.0161541
662.822	0.0161440
662.900	0.0161837
662.978	0.0162583
663.057	0.0163551
663.135	0.0160970
663.213	0.0161732
663.291	0.0162673
663.369	0.0162329
663.447	0.0162076
663.525	0.0163078
663.603	0.0162910
663.682	0.0161550
663.760	0.0162277
663.838	0.0161982
663.916	0.0161665
663.994	0.0162995
664.072	0.0162248
664.150	0.0163068
664.228	0.0162937
664.307	0.0162299
664.385	0.0163780
664.463	0.0163474
664.541	0.0162164
664.619	0.0162650
664.697	0.0162733
664.775	0.0164712
664.853	0.0163520
664.932	0.0163055
665.010	0.0162936
665.088	0.0161564
665.166	0.0163781
665.244	0.0163477
665.322	0.0164491
665.400	0.0163235
665.478	0.0163019
665.557	0.0163219
665.635	0.0164778
665.713	0.0163774
665.791	0.0162791
665.869	0.0162609
665.947	0.0163587
666.025	0.0164310
666.103	0.0162312
666.182	0.0163218
666.260	0.0164569
666.338	0.0162994
666.416	0.0163985
666.494	0.0163849
666.572	0.0164642
666.650	0.0163474
666.728	0.0164467
666.807	0.0164731
666.885	0.0162786
666.963	0.0163883
667.041	0.0163712
667.119	0.0163306
667.197	0.0165016
667.275	0.0164217
667.353	0.0162742
667.432	0.0163668
667.510	0.0164309
667.588	0.0163824
667.666	0.0163036
667.744	0.0164591
667.822	0.0163249
667.900	0.0163036
667.978	0.0163819
668.057	0.0162727
668.135	0.0162763
668.213	0.0163198
668.291	0.0162534
668.369	0.0162170
668.447	0.0161305
668.525	0.0162939
668.603	0.0163349
668.682	0.0162825
668.760	0.0162756
668.838	0.0162745
668.916	0.0163517
668.994	0.0163540
669.072	0.0163532
669.150	0.0162064
669.228	0.0162135
669.307	0.0163708
669.385	0.0162948
669.463	0.0161419
669.541	0.0162409
669.619	0.0162998
669.697	0.0162798
669.775	0.0162108
669.853	0.0162086
669.932	0.0163616
670.010	0.0162223
670.088	0.0161419
670.166	0.0162253
670.244	0.0163829
670.322	0.0162945
670.400	0.0162096
670.478	0.0161935
670.557	0.0163290
670.635	0.0162611
670.713	0.0160995
670.791	0.0163277
670.869	0.0163508
670.947	0.0163784
671.025	0.0161738
671.103	0.0163596
671.182	0.0163074
671.260	0.0164821
671.338	0.0162616
671.416	0.0162654
671.494	0.0163158
671.572	0.0162288
671.650	0.0163247
671.728	0.0162999
671.807	0.0163647
671.885	0.0162139
671.963	0.0163153
672.041	0.0161843
672.119	0.0161781
672.197	0.0163625
672.275	0.0162654
672.353	0.0163188
672.432	0.0161657
672.510	0.0164130
672.588	0.0163221
672.666	0.0163229
672.744	0.0163882
672.822	0.0161795
672.900	0.0162862
672.978	0.0161600
673.057	0.0161555
673.135	0.0163208
673.213	0.0163638
673.291	0.0163259
673.369	0.0162722
673.447	0.0163597
673.525	0.0164152
673.603	0.0163908
673.682	0.0161963
673.760	0.0162154
673.838	0.0162574
673.916	0.0163058
673.994	0.0161106
674.072	0.0162717
674.150	0.0163528
674.228	0.0164509
674.307	0.0162049
674.385	0.0162119
674.463	0.0162939
674.541	0.0163167
674.619	0.0162526
674.697	0.0163260
674.775	0.0162303
674.853	0.0161874
674.932	0.0163005
675.010	0.0162751
675.088	0.0161459
675.166	0.0162804
675.244	0.0162767
675.322	0.0161637
675.400	0.0162263
675.478	0.0162817
675.557	0.0163353
675.635	0.0162076
675.713	0.0163499
675.791	0.0164008
675.869	0.0161804
675.947	0.0162874
676.025	0.0161666
676.103	0.0161475
676.182	0.0163656
676.260	0.0163650
676.338	0.0163268
676.416	0.0162573
676.494	0.0161854
676.572	0.0162991
676.650	0.0163003
676.728	0.0163345
676.807	0.0162196
676.885	0.0162527
676.963	0.0162349
677.041	0.0162476
677.119	0.0162028
677.197	0.0162299
677.275	0.0162233
677.353	0.0162667
677.432	0.0161905
677.510	0.0162665
677.588	0.0161779
677.666	0.0163663
677.744	0.0162878
677.822	0.0160706
677.900	0.0161368
677.978	0.0161650
678.057	0.0162216
678.135	0.0162894
678.213	0.0163453
678.291	0.0162652
678.369	0.0162919
678.447	0.0163380
678.525	0.0161994
678.603	0.0162359
678.682	0.0161814
678.760	0.0160288
678.838	0.0161832
678.916	0.0163155
678.994	0.0160531
679.072	0.0163699
679.150	0.0162961
679.228	0.0161832
679.307	0.0162156
679.385	0.0161509
679.463	0.0162282
679.541	0.0162373
679.619	0.0160093
679.697	0.0161214
679.775	0.0161956
679.853	0.0160600
679.932	0.0161046
680.010	0.0162094
680.088	0.0162072
680.166	0.0161193
680.244	0.0161416
680.322	0.0160735
680.400	0.0163110
680.478	0.0161941
680.557	0.0161906
680.635	0.0162641
680.713	0.0162016
680.791	0.0161016
680.869	0.0161550
680.947	0.0162550
681.025	0.0163204
681.103	0.0162296
681.182	0.0162144
681.260	0.0161454
681.338	0.0161188
681.416	0.0161588
681.494	0.0160930
681.572	0.0161176
681.650	0.0160588
681.728	0.0161739
681.807	0.0160847
681.885	0.0162920
681.963	0.0162710
682.041	0.0160965
682.119	0.0162101
682.197	0.0162399
682.275	0.0162315
682.353	0.0161584
682.432	0.0163071
682.510	0.0162026
682.588	0.0163235
682.666	0.0162438
682.744	0.0162730
682.822	0.0161622
682.900	0.0161624
682.978	0.0162286
683.057	0.0162842
683.135	0.0162067
683.213	0.0162350
683.291	0.0161483
683.369	0.0162219
683.447	0.0161806
683.525	0.0161325
683.603	0.0161639
683.682	0.0162003
683.760	0.0162057
683.838	0.0161637
683.916	0.0160305
683.994	0.0161639
684.072	0.0160643
684.150	0.0160657
684.228	0.0162906
684.307	0.0161855
684.385	0.0162119
684.463	0.0161760
684.541	0.0162114
684.619	0.0162114
684.697	0.0161427
684.775	0.0162194
684.853	0.0161303
684.932	0.0161768
685.010	0.0163302
685.088	0.0161622
685.166	0.0160188
685.244	0.0161097
685.322	0.0162791
685.400	0.0161875
685.478	0.0160578
685.557	0.0162815
685.635	0.0163287
685.713	0.0161042
685.791	0.0161686
685.869	0.0161221
685.947	0.0160516
686.025	0.0162096
686.103	0.0163012
686.182	0.0163212
686.260	0.0162527
686.338	0.0162844
686.416	0.0162460
686.494	0.0163657
686.572	0.0162238
686.650	0.0161628
686.728	0.0161617
686.807	0.0162579
686.885	0.0161946
686.963	0.0162246
687.041	0.0161923
687.119	0.0162698
687.197	0.0162320
687.275	0.0163380
687.353	0.0161514
687.432	0.0162599
687.510	0.0163284
687.588	0.0162000
687.666	0.0162217
687.744	0.0161421
687.822	0.0162814
687.900	0.0162053
687.978	0.0162415
688.057	0.0163260
688.135	0.0162201
688.213	0.0161569
688.291	0.0162328
688.369	0.0162992
688.447	0.0161839
688.525	0.0163002
688.603	0.0162141
688.682	0.0162290
688.760	0.0163667
688.838	0.0162664
688.916	0.0162914
688.994	0.0163354
689.072	0.0163795
689.150	0.0163183
689.228	0.0161172
689.307	0.0161914
689.385	0.0163403
689.463	0.0163274
689.541	0.0161518
689.619	0.0163337
689.697	0.0164010
689.775	0.0162053
689.853	0.0162565
689.932	0.0162163
690.010	0.0161042
690.088	0.0162547
690.166	0.0163461
690.244	0.0163297
690.322	0.0163392
690.400	0.0163339
690.478	0.0162476
690.557	0.0162273
690.635	0.0161905
690.713	0.0162866
690.791	0.0162153
690.869	0.0163382
690.947	0.0162125
691.025	0.0163139
691.103	0.0163260
691.182	0.0160863
691.260	0.0162666
691.338	0.0163916
691.416	0.0163403
691.494	0.0163190
691.572	0.0164065
691.650	0.0163197
691.728	0.0162633
691.807	0.0162998
691.885	0.0161754
691.963	0.0164829
692.041	0.0162996
692.119	0.0164774
692.197	0.0163470
692.275	0.0163887
692.353	0.0163419
692.432	0.0162530
692.510	0.0162411
692.588	0.0162587
692.666	0.0163541
692.744	0.0163284
692.822	0.0164470
692.900	0.0165037
692.978	0.0162883
693.057	0.0163580
693.135	0.0164001
693.213	0.0163123
693.291	0.0164401
693.369	0.0162379
693.447	0.0163529
693.525	0.0163956
693.603	0.0162498
693.682	0.0162962
693.760	0.0163581
693.838	0.0163526
693.916	0.0164471
693.994	0.0162960
694.072	0.0163847
694.150	0.0163612
694.228	0.0163008
694.307	0.0163412
694.385	0.0164285
694.463	0.0163446
694.541	0.0163854
694.619	0.0161739
694.697	0.0161936
694.775	0.0162378
694.853	0.0162705
694.932	0.0162685
695.010	0.0163557
695.088	0.0162765
695.166	0.0162516
695.244	0.0163335
695.322	0.0161783
695.400	0.0163027
695.478	0.0161802
695.557	0.0162733
695.635	0.0163818
695.713	0.0161788
695.791	0.0161819
695.869	0.0162774
695.947	0.0160642
696.025	0.0161981
696.103	0.0163155
696.182	0.0161270
696.260	0.0161738
696.338	0.0161670
696.416	0.0163061
696.494	0.0162763
696.572	0.0162366
696.650	0.0163213
696.728	0.0161365
696.807	0.0161641
696.885	0.0162776
696.963	0.0162991
697.041	0.0163239
697.119	0.0163557
697.197	0.0163138
697.275	0.0162740
697.353	0.0162496
697.432	0.0162016
697.510	0.0163138
697.588	0.0161406
697.666	0.0162228
697.744	0.0162756
697.822	0.0161707
697.900	0.0162959
697.978	0.0163897
698.057	0.0163192
698.135	0.0162706
698.213	0.0162852
698.291	0.0163600
698.369	0.0162785
698.447	0.0162775
698.525	0.0162526
698.603	0.0162685
698.682	0.0163416
698.760	0.0163652
698.838	0.0161244
698.916	0.0162405
698.994	0.0162347
699.072	0.0162390
699.150	0.0163015
699.228	0.0162474
699.307	0.0162727
699.385	0.0162399
699.463	0.0163070
699.541	0.0161933
699.619	0.0161427
699.697	0.0163079
699.775	0.0162355
699.853	0.0163214
699.932	0.0162644
700.010	0.0163094
700.088	0.0163227
700.166	0.0162975
700.244	0.0161892
700.322	0.0162205
700.400	0.0162452
700.478	0.0162289
700.557	0.0163058
700.635	0.0163479
700.713	0.0162773
700.791	0.0162778
700.869	0.0161519
700.947	0.0162318
701.025	0.0160627
701.103	0.0161969
701.182	0.0160912
701.260	0.0162478
701.338	0.0162067
701.416	0.0161551
701.494	0.0162036
701.572	0.0161919
701.650	0.0162981
701.728	0.0163090
701.807	0.0162988
701.885	0.0164294
701.963	0.0162902
702.041	0.0162553
702.119	0.0161820
702.197	0.0160898
702.275	0.0162017
702.353	0.0162275
702.432	0.0162266
702.510	0.0162369
702.588	0.0161870
702.666	0.0162391
702.744	0.0163084
702.822	0.0161914
702.900	0.0162522
702.978	0.0161821
703.057	0.0161335
703.135	0.0160042
703.213	0.0162763
703.291	0.0163548
703.369	0.0161675
703.447	0.0161762
703.525	0.0162279
703.603	0.0162151
703.682	0.0163833
703.760	0.0161691
703.838	0.0162523
703.916	0.0163159
703.994	0.0162370
704.072	0.0162603
704.150	0.0162901
704.228	0.0163232
704.307	0.0161520
704.385	0.0161344
704.463	0.0161793
704.541	0.0162555
704.619	0.0162965
704.697	0.0162080
704.775	0.0163277
704.853	0.0162897
704.932	0.0163612
705.010	0.0162135
705.088	0.0161981
705.166	0.0162735
705.244	0.0164398
705.322	0.0162789
705.400	0.0162606
705.478	0.0161939
705.557	0.0163495
705.635	0.0162069
705.713	0.0162284
705.791	0.0163638
705.869	0.0161607
705.947	0.0162488
706.025	0.0163277
706.103	0.0163262
706.182	0.0163140
706.260	0.0162657
706.338	0.0162971
706.416	0.0161887
706.494	0.0162429
706.572	0.0162001
706.650	0.0163741
706.728	0.0163589
706.807	0.0163505
706.885	0.0162517
706.963	0.0163174
707.041	0.0164297
707.119	0.0164600
707.197	0.0163723
707.275	0.0165144
707.353	0.0163318
707.432	0.0163227
707.510	0.0164000
707.588	0.0163679
707.666	0.0163802
707.744	0.0163046
707.822	0.0162169
707.900	0.0163296
707.978	0.0163038
708.057	0.0162882
708.135	0.0163773
708.213	0.0163467
708.291	0.0163431
708.369	0.0162942
708.447	0.0162331
708.525	0.0163370
708.603	0.0161812
708.682	0.0164397
708.760	0.0163512
708.838	0.0162350
708.916	0.0162526
708.994	0.0162306
709.072	0.0164235
709.150	0.0163541
709.228	0.0163599
709.307	0.0162710
709.385	0.0163974
709.463	0.0162596
709.541	0.0162521
709.619	0.0162314
709.697	0.0162808
709.775	0.0162502
709.853	0.0162271
709.932	0.0163770
710.010	0.0162164
710.088	0.0162340
710.166	0.0161875
710.244	0.0162105
710.322	0.0162063
710.400	0.0163795
710.478	0.0162816
710.557	0.0163992
710.635	0.0161212
710.713	0.0161876
710.791	0.0162078
710.869	0.0162927
710.947	0.0161851
711.025	0.0161877
711.103	0.0161551
711.182	0.0161580
711.260	0.0161974
711.338	0.0162250
711.416	0.0163492
711.494	0.0162897
711.572	0.0160914
711.650	0.0160838
711.728	0.0163318
711.807	0.0162601
711.885	0.0161104
711.963	0.0163115
712.041	0.0163444
712.119	0.0162016
712.197	0.0162679
712.275	0.0161819
712.353	0.0162424
712.432	0.0161719
712.510	0.0162810
712.588	0.0163086
712.666	0.0163544
712.744	0.0162555
712.822	0.0161101
712.900	0.0162579
712.978	0.0161691
713.057	0.0162930
713.135	0.0162935
713.213	0.0162832
713.291	0.0163420
713.369	0.0163085
713.447	0.0162865
713.525	0.0161627
713.603	0.0162489
713.682	0.0163013
713.760	0.0161562
713.838	0.0163149
713.916	0.0162088
713.994	0.0161453
714.072	0.0161520
714.150	0.0161670
714.228	0.0162512
714.307	0.0163002
714.385	0.0163057
714.463	0.0161948
714.541	0.0161333
714.619	0.0162229
714.697	0.0162698
714.775	0.0161588
714.853	0.0162415
714.932	0.0162598
715.010	0.0162488
715.088	0.0162064
715.166	0.0162051
715.244	0.0162296
715.322	0.0162914
715.400	0.0162354
715.478	0.0162952
715.557	0.0162089
715.635	0.0162180
715.713	0.0162723
715.791	0.0162703
715.869	0.0162864
715.947	0.0162905
716.025	0.0161632
716.103	0.0161470
716.182	0.0160757
716.260	0.0161148
716.338	0.0161447
716.416	0.0162054
716.494	0.0163562
716.572	0.0161713
716.650	0.0161207
716.728	0.0160467
716.807	0.0161673
716.885	0.0161507
716.963	0.0162312
717.041	0.0161526
717.119	0.0161541
717.197	0.0161066
717.275	0.0161331
717.353	0.0162126
717.432	0.0161746
717.510	0.0162845
717.588	0.0162654
717.666	0.0162835
717.744	0.0162138
717.822	0.0162484
717.900	0.0160844
717.978	0.0162473
718.057	0.0162151
718.135	0.0162488
718.213	0.0162046
718.291	0.0161356
718.369	0.0163337
718.447	0.0163384
718.525	0.0162059
718.603	0.0162241
718.682	0.0161725
718.760	0.0162440
718.838	0.0162126
718.916	0.0163718
718.994	0.0161466
719.072	0.0163087
719.150	0.0162137
719.228	0.0163628
719.307	0.0163111
719.385	0.0162528
719.463	0.0161205
719.541	0.0161803
719.619	0.0161477
719.697	0.0162592
719.775	0.0163291
719.853	0.0161094
719.932	0.0161779
720.010	0.0161823
720.088	0.0162144
720.166	0.0162353
720.244	0.0161892
720.322	0.0163269
720.400	0.0162469
720.478	0.0161707
720.557	0.0161890
720.635	0.0162009
720.713	0.0162178
720.791	0.0161938
720.869	0.0163086
720.947	0.0162392
721.025	0.0161723
721.103	0.0163789
721.182	0.0163590
721.260	0.0160574
721.338	0.0161147
721.416	0.0162888
721.494	0.0162539
721.572	0.0162678
721.650	0.0163078
721.728	0.0163284
721.807	0.0163006
721.885	0.0161912
721.963	0.0162165
722.041	0.0163599
722.119	0.0160947
722.197	0.0162353
722.275	0.0162076
722.353	0.0161581
722.432	0.0163368
722.510	0.0162011
722.588	0.0162305
722.666	0.0161340
722.744	0.0161666
722.822	0.0163400
722.900	0.0162556
722.978	0.0163243
723.057	0.0163058
723.135	0.0162723
723.213	0.0161852
723.291	0.0162119
723.369	0.0162451
723.447	0.0164358
723.525	0.0162757
723.603	0.0162209
723.682	0.0162680
723.760	0.0162124
723.838	0.0161955
723.916	0.0161477
723.994	0.0162463
724.072	0.0164068
724.150	0.0162701
724.228	0.0162945
724.307	0.0163529
724.385	0.0163231
724.463	0.0162526
724.541	0.0163053
724.619	0.0164297
724.697	0.0162772
724.775	0.0162962
724.853	0.0163657
724.932	0.0161762
725.010	0.0160890
725.088	0.0161890
725.166	0.0160756
725.244	0.0161221
725.322	0.0160472
725.400	0.0158926
725.478	0.0160693
725.557	0.0160991
725.635	0.0161388
725.713	0.0161340
725.791	0.0163290
725.869	0.0163048
725.947	0.0164669
726.025	0.0165264
726.103	0.0166109
726.182	0.0164519
726.260	0.0166698
726.338	0.0167686
726.416	0.0166748
726.494	0.0164586
726.572	0.0163828
726.650	0.0163564
726.728	0.0162062
726.807	0.0160088
726.885	0.0157793
726.963	0.0157449
727.041	0.0155859
727.119	0.0155610
727.197	0.0155250
727.275	0.0154597
727.353	0.0156907
727.432	0.0157814
727.510	0.0159203
727.588	0.0161420
727.666	0.0164828
727.744	0.0165987
727.822	0.0168024
727.900	0.0168241
727.978	0.0169476
728.057	0.0168636
728.135	0.0167542
728.213	0.0167979
728.291	0.0167509
728.369	0.0166039
728.447	0.0165154
728.525	0.0164294
728.603	0.0162731
728.682	0.0163231
728.760	0.0162259
728.838	0.0161865
728.916	0.0161108
728.994	0.0160725
729.072	0.0160125
729.150	0.0161369
729.228	0.0158150
729.307	0.0159297
729.385	0.0158759
729.463	0.0158789
729.541	0.0157318
729.619	0.0156888
729.697	0.0157383
729.775	0.0157310
729.853	0.0159535
729.932	0.0159272
730.010	0.0160128
730.088	0.0164157
730.166	0.0162923
730.244	0.0166187
730.322	0.0167764
730.400	0.0169102
730.478	0.0171548
730.557	0.0171870
730.635	0.0171322
730.713	0.0172450
730.791	0.0170560
730.869	0.0171021
730.947	0.0167964
731.025	0.0166512
731.103	0.0164627
731.182	0.0162340
731.260	0.0159545
731.338	0.0154833
731.416	0.0152224
731.494	0.0151498
731.572	0.0150616
731.650	0.0149710
731.728	0.0149486
731.807	0.0152660
731.885	0.0154322
731.963	0.0154762
732.041	0.0156800
732.119	0.0160881
732.197	0.0163361
732.275	0.0164456
732.353	0.0167303
732.432	0.0169347
732.510	0.0172564
732.588	0.0172920
732.666	0.0173977
732.744	0.0173884
732.822	0.0173988
732.900	0.0172497
732.978	0.0169770
733.057	0.0168848
733.135	0.0167940
733.213	0.0163647
733.291	0.0162078
733.369	0.0161156
733.447	0.0158973
733.525	0.0157474
733.603	0.0154620
733.682	0.0153957
733.760	0.0154079
733.838	0.0153549
733.916	0.0152584
733.994	0.0152397
734.072	0.0155737
734.150	0.0156886
734.228	0.0157904
734.307	0.0158389
734.385	0.0160534
734.463	0.0160813
734.541	0.0161299
734.619	0.0164512
734.697	0.0164833
734.775	0.0165519
734.853	0.0167973
734.932	0.0168632
735.010	0.0168000
735.088	0.0169106
735.166	0.0169373
735.244	0.0169274
735.322	0.0168012
735.400	0.0168008
735.478	0.0166059
735.557	0.0166428
735.635	0.0164018
735.713	0.0164902
735.791	0.0161311
735.869	0.0158078
735.947	0.0158990
736.025	0.0156910
736.103	0.0155309
736.182	0.0154383
736.260	0.0155051
736.338	0.0155396
736.416	0.0154293
736.494	0.0157203
736.572	0.0157259
736.650	0.0159186
736.728	0.0160066
736.807	0.0159904
736.885	0.0162430
736.963	0.0162977
737.041	0.0163791
737.119	0.0164635
737.197	0.0164043
737.275	0.0165189
737.353	0.0165876
737.432	0.0164301
737.510	0.0164909
737.588	0.0163292
737.666	0.0162323
737.744	0.0163093
737.822	0.0160083
737.900	0.0160134
737.978	0.0161137
738.057	0.0159921
738.135	0.0159278
738.213	0.0158768
738.291	0.0159155
738.369	0.0158505
738.447	0.0159491
738.525	0.0159234
738.603	0.0159749
738.682	0.0159325
738.760	0.0161037
738.838	0.0163223
738.916	0.0163572
738.994	0.0163652
739.072	0.0161800
739.150	0.0163100
739.228	0.0163179
739.307	0.0165343
739.385	0.0164130
739.463	0.0164523
739.541	0.0161488
739.619	0.0160568
739.697	0.0162699
739.775	0.0162041
739.853	0.0160822
739.932	0.0161367
740.010	0.0160143
740.088	0.0160365
740.166	0.0160630
740.244	0.0160683
740.322	0.0160328
740.400	0.0160717
740.478	0.0163130
740.557	0.0162684
740.635	0.0160212
740.713	0.0161534
740.791	0.0161761
740.869	0.0161098
740.947	0.0160723
741.025	0.0161649
741.103	0.0161880
741.182	0.0162778
741.260	0.0163546
741.338	0.0163422
741.416	0.0164304
741.494	0.0165948
741.572	0.0166474
741.650	0.0165735
741.728	0.0164893
741.807	0.0164712
741.885	0.0164799
741.963	0.0165066
742.041	0.0163656
742.119	0.0161961
742.197	0.0162109
742.275	0.0160534
742.353	0.0159438
742.432	0.0159494
742.510	0.0159713
742.588	0.0159409
742.666	0.0160457
742.744	0.0159998
742.822	0.0160247
742.900	0.0160960
742.978	0.0160703
743.057	0.0162495
743.135	0.0162018
743.213	0.0163028
743.291	0.0163088
743.369	0.0162881
743.447	0.0164159
743.525	0.0166220
743.603	0.0164745
743.682	0.0166739
743.760	0.0165866
743.838	0.0165746
743.916	0.0164620
743.994	0.0162237
744.072	0.0163204
744.150	0.0165124
744.228	0.0162535
744.307	0.0162447
744.385	0.0161732
744.463	0.0161091
744.541	0.0161359
744.619	0.0160648
744.697	0.0160921
744.775	0.0162110
744.853	0.0162709
744.932	0.0160370
745.010	0.0159888
745.088	0.0160606
745.166	0.0160452
745.244	0.0160262
745.322	0.0160709
745.400	0.0160710
745.478	0.0163074
745.557	0.0163474
745.635	0.0162635
745.713	0.0161990
745.791	0.0164005
745.869	0.0164846
745.947	0.0165141
746.025	0.0165298
746.103	0.0164536
746.182	0.0165988
746.260	0.0166093
746.338	0.0164420
746.416	0.0164676
746.494	0.0164368
746.572	0.0164127
746.650	0.0162263
746.728	0.0161819
746.807	0.0161353
746.885	0.0161441
746.963	0.0161388
747.041	0.0160760
747.119	0.0158971
747.197	0.0159962
747.275	0.0158798
747.353	0.0158353
747.432	0.0160114
747.510	0.0159277
747.588	0.0159305
747.666	0.0160785
747.744	0.0162548
747.822	0.0163062
747.900	0.0162492
747.978	0.0163265
748.057	0.0164530
748.135	0.0165027
748.213	0.0165984
748.291	0.0165198
748.369	0.0164517
748.447	0.0165128
748.525	0.0164185
748.603	0.0164133
748.682	0.0162988
748.760	0.0161273
748.838	0.0163796
748.916	0.0161953
748.994	0.0161714
749.072	0.0162669
749.150	0.0160971
749.228	0.0160162
749.307	0.0161504
749.385	0.0163122
749.463	0.0162666
749.541	0.0162110
749.619	0.0162731
749.697	0.0162843
749.775	0.0163147
749.853	0.0163107
749.932	0.0162901
750.010	0.0162016
750.088	0.0162213
750.166	0.0162531
750.244	0.0160469
750.322	0.0161361
750.400	0.0161613
750.478	0.0160748
750.557	0.0161267
750.635	0.0161848
750.713	0.0162393
750.791	0.0163818
750.869	0.0162538
750.947	0.0161968
751.025	0.0163413
751.103	0.0163146
751.182	0.0163265
751.260	0.0163806
751.338	0.0163246
751.416	0.0165198
751.494	0.0164100
751.572	0.0163792
751.650	0.0163062
751.728	0.0161898
751.807	0.0162919
751.885	0.0161870
751.963	0.0160923
752.041	0.0160558
752.119	0.0160935
752.197	0.0160741
752.275	0.0159578
752.353	0.0159641
752.432	0.0161177
752.510	0.0159878
752.588	0.0160739
752.666	0.0160825
752.744	0.0159193
752.822	0.0160793
752.900	0.0160336
752.978	0.0159042
753.057	0.0159704
753.135	0.0161610
753.213	0.0160944
753.291	0.0161367
753.369	0.0162017
753.447	0.0161504
753.525	0.0162185
753.603	0.0163162
753.682	0.0162557
753.760	0.0163256
753.838	0.0162042
753.916	0.0162277
753.994	0.0163673
754.072	0.0164044
754.150	0.0164314
754.228	0.0162963
754.307	0.0163483
754.385	0.0163596
754.463	0.0162948
754.541	0.0163615
754.619	0.0161910
754.697	0.0161658
754.775	0.0162342
754.853	0.0161028
754.932	0.0159994
755.010	0.0159975
755.088	0.0159885
755.166	0.0159978
755.244	0.0159898
755.322	0.0161065
755.400	0.0160133
755.478	0.0162035
755.557	0.0161093
755.635	0.0161960
755.713	0.0161817
755.791	0.0163698
755.869	0.0162044
755.947	0.0162327
756.025	0.0162852
756.103	0.0163098
756.182	0.0163645
756.260	0.0162570
756.338	0.0163761
756.416	0.0164177
756.494	0.0164117
756.572	0.0163889
756.650	0.0164265
756.728	0.0163795
756.807	0.0163803
756.885	0.0163824
756.963	0.0162545
757.041	0.0161619
757.119	0.0161775
757.197	0.0161694
757.275	0.0161195
757.353	0.0161600
757.432	0.0161299
757.510	0.0160146
757.588	0.0161497
757.666	0.0160017
757.744	0.0160746
757.822	0.0160698
757.900	0.0161953
757.978	0.0160693
758.057	0.0159910
758.135	0.0160789
758.213	0.0160423
758.291	0.0161398
758.369	0.0160790
758.447	0.0161691
758.525	0.0161277
758.603	0.0161573
758.682	0.0160896
758.760	0.0161870
758.838	0.0160592
758.916	0.0160741
758.994	0.0162069
759.072	0.0162443
759.150	0.0160764
759.228	0.0162785
759.307	0.0161019
759.385	0.0161977
759.463	0.0161930
759.541	0.0161198
759.619	0.0160419
759.697	0.0160493
759.775	0.0160209
759.853	0.0160222
759.932	0.0160062
760.010	0.0159103
760.088	0.0160091
760.166	0.0159033
760.244	0.0160246
760.322	0.0159718
760.400	0.0160309
760.478	0.0159735
760.557	0.0161059
760.635	0.0162128
760.713	0.0160754
760.791	0.0161614
760.869	0.0160885
760.947	0.0160500
761.025	0.0161830
761.103	0.0160064
761.182	0.0160879
761.260	0.0160676
761.338	0.0161157
761.416	0.0160674
761.494	0.0161559
761.572	0.0164343
761.650	0.0163506
761.728	0.0164015
761.807	0.0164373
761.885	0.0164571
761.963	0.0164242
762.041	0.0165838
762.119	0.0166631
762.197	0.0164805
762.275	0.0165705
762.353	0.0166235
762.432	0.0163313
762.510	0.0163872
762.588	0.0163055
762.666	0.0161999
762.744	0.0161002
762.822	0.0159370
762.900	0.0160164
762.978	0.0158543
763.057	0.0159521
763.135	0.0157182
763.213	0.0156240
763.291	0.0156844
763.369	0.0155989
763.447	0.0158090
763.525	0.0158491
763.603	0.0159812
763.682	0.0159718
763.760	0.0159438
763.838	0.0161395
763.916	0.0160799
763.994	0.0161819
764.072	0.0162814
764.150	0.0162205
764.228	0.0163133
764.307	0.0164882
764.385	0.0165744
764.463	0.0166251
764.541	0.0165665
764.619	0.0167025
764.697	0.0167088
764.775	0.0167819
764.853	0.0166924
764.932	0.0167873
765.010	0.0168440
765.088	0.0166441
765.166	0.0165755
765.244	0.0164466
765.322	0.0166502
765.400	0.0163368
765.478	0.0160564
765.557	0.0159775
765.635	0.0159405
765.713	0.0158324
765.791	0.0158044
765.869	0.0156275
765.947	0.0154871
766.025	0.0155285
766.103	0.0155399
766.182	0.0156089
766.260	0.0156746
766.338	0.0156034
766.416	0.0157841
766.494	0.0159081
766.572	0.0158813
766.650	0.0158285
766.728	0.0160112
766.807	0.0160933
766.885	0.0161717
766.963	0.0162682
767.041	0.0162331
767.119	0.0164059
767.197	0.0164649
767.275	0.0165797
767.353	0.0167210
767.432	0.0166807
767.510	0.0167173
767.588	0.0169410
767.666	0.0168698
767.744	0.0168379
767.822	0.0170973
767.900	0.0172354
767.978	0.0172015
768.057	0.0171062
768.135	0.0170315
768.213	0.0168934
768.291	0.0168942
768.369	0.0168288
768.447	0.0165343
768.525	0.0162536
768.603	0.0159925
768.682	0.0158847
768.760	0.0155945
768.838	0.0154665
768.916	0.0153034
768.994	0.0150201
769.072	0.0151010
769.150	0.0150387
769.228	0.0149782
769.307	0.0149828
769.385	0.0151288
769.463	0.0151066
769.541	0.0153571
769.619	0.0155496
769.697	0.0157856
769.775	0.0159466
769.853	0.0161897
769.932	0.0164024
770.010	0.0166452
770.088	0.0168276
770.166	0.0168834
770.244	0.0171117
770.322	0.0171879
770.400	0.0172445
770.478	0.0172371
770.557	0.0171890
770.635	0.0173031
770.713	0.0173686
770.791	0.0173055
770.869	0.0173627
770.947	0.0172473
771.025	0.0171093
771.103	0.0170283
771.182	0.0169504
771.260	0.0168327
771.338	0.0164261
771.416	0.0162409
771.494	0.0159991
771.572	0.0158085
771.650	0.0154096
771.728	0.0152857
771.807	0.0151243
771.885	0.0150613
771.963	0.0149837
772.041	0.0151289
772.119	0.0151957
772.197	0.0151225
772.275	0.0151723
772.353	0.0154457
772.432	0.0154588
772.510	0.0157815
772.588	0.0159147
772.666	0.0160717
772.744	0.0163269
772.822	0.0165238
772.900	0.0166526
772.978	0.0166483
773.057	0.0167625
773.135	0.0168257
773.213	0.0169727
773.291	0.0170249
773.369	0.0172238
773.447	0.0171416
773.525	0.0172624
773.603	0.0174054
773.682	0.0173653
773.760	0.0173029
773.838	0.0172183
773.916	0.0170923
773.994	0.0169855
774.072	0.0169073
774.150	0.0166790
774.228	0.0164507
774.307	0.0162719
774.385	0.0159901
774.463	0.0158906
774.541	0.0156689
774.619	0.0154390
774.697	0.0154900
774.775	0.0151854
774.853	0.0154999
774.932	0.0154655
775.010	0.0153272
775.088	0.0153879
775.166	0.0154547
775.244	0.0155667
775.322	0.0154147
775.400	0.0155488
775.478	0.0156133
775.557	0.0158596
775.635	0.0157950
775.713	0.0159064
775.791	0.0161938
775.869	0.0162399
775.947	0.0165387
776.025	0.0165398
776.103	0.0166440
776.182	0.0167260
776.260	0.0169757
776.338	0.0168324
776.416	0.0169349
776.494	0.0170334
776.572	0.0169540
776.650	0.0169239
776.728	0.0168636
776.807	0.0167973
776.885	0.0167922
776.963	0.0165963
777.041	0.0164346
777.119	0.0164210
777.197	0.0162627
777.275	0.0161016
777.353	0.0159164
777.432	0.0157936
777.510	0.0155013
777.588	0.0154499
777.666	0.0153271
777.744	0.0151247
777.822	0.0151237
777.900	0.0152556
777.978	0.0152415
778.057	0.0154955
778.135	0.0155162
778.213	0.0156693
778.291	0.0158128
778.369	0.0161393
778.447	0.0163154
778.525	0.0161823
778.603	0.0163979
778.682	0.0164542
778.760	0.0167185
778.838	0.0167944
778.916	0.0169174
778.994	0.0170449
779.072	0.0169752
779.150	0.0168423
779.228	0.0170416
779.307	0.0170125
779.385	0.0168982
779.463	0.0167770
779.541	0.0166904
779.619	0.0167122
779.697	0.0164709
779.775	0.0163270
779.853	0.0161175
779.932	0.0159188
780.010	0.0157986
780.088	0.0154987
780.166	0.0154696
780.244	0.0155591
780.322	0.0152155
780.400	0.0151317
780.478	0.0150314
780.557	0.0150717
780.635	0.0152982
780.713	0.0153166
780.791	0.0154589
780.869	0.0155161
780.947	0.0155654
781.025	0.0157555
781.103	0.0160502
781.182	0.0160878
781.260	0.0162656
781.338	0.0163359
781.416	0.0167041
781.494	0.0166845
781.572	0.0167042
781.650	0.0168782
781.728	0.0168896
781.807	0.0168480
781.885	0.0167899
781.963	0.0166984
782.041	0.0166731
782.119	0.0166390
782.197	0.0164912
782.275	0.0163737
782.353	0.0162431
782.432	0.0160267
782.510	0.0158698
782.588	0.0159120
782.666	0.0159301
782.744	0.0158056
782.822	0.0158675
782.900	0.0158842
782.978	0.0159223
783.057	0.0161930
783.135	0.0163553
783.213	0.0162933
783.291	0.0165200
783.369	0.0164767
783.447	0.0166914
783.525	0.0166448
783.603	0.0166479
783.682	0.0168648
783.760	0.0167220
783.838	0.0166647
783.916	0.0165574
783.994	0.0165090
784.072	0.0165690
784.150	0.0164283
784.228	0.0162171
784.307	0.0160975
784.385	0.0158582
784.463	0.0158794
784.541	0.0157041
784.619	0.0157495
784.697	0.0156404
784.775	0.0155853
784.853	0.0155679
784.932	0.0157264
785.010	0.0157654
785.088	0.0159066
785.166	0.0159066
785.244	0.0158466
785.322	0.0162034
785.400	0.0163271
785.478	0.0161784
785.557	0.0163352
785.635	0.0164101
785.713	0.0163751
785.791	0.0163843
785.869	0.0163722
785.947	0.0164542
786.025	0.0164566
786.103	0.0164285
786.182	0.0164847
786.260	0.0165156
786.338	0.0164836
786.416	0.0166855
786.494	0.0164980
786.572	0.0163829
786.650	0.0164596
786.728	0.0163839
786.807	0.0162187
786.885	0.0163342
786.963	0.0161819
787.041	0.0160155
787.119	0.0161661
787.197	0.0162909
787.275	0.0163786
787.353	0.0163632
787.432	0.0164486
787.510	0.0164924
787.588	0.0166723
787.666	0.0166414
787.744	0.0167525
787.822	0.0167093
787.900	0.0168919
787.978	0.0168578
788.057	0.0166508
788.135	0.0167326
788.213	0.0166095
788.291	0.0164004
788.369	0.0161768
788.447	0.0161373
788.525	0.0160077
788.603	0.0158529
788.682	0.0157185
788.760	0.0157109
788.838	0.0155762
788.916	0.0155669
788.994	0.0156441
789.072	0.0156419
789.150	0.0155573
789.228	0.0157573
789.307	0.0158412
789.385	0.0160785
789.463	0.0162809
789.541	0.0163849
789.619	0.0164358
789.697	0.0165550
789.775	0.0166393
789.853	0.0167758
789.932	0.0167487
790.010	0.0168770
790.088	0.0167481
790.166	0.0167841
790.244	0.0166261
790.322	0.0166647
790.400	0.0164695
790.478	0.0162950
790.557	0.0162482
790.635	0.0161391
790.713	0.0159703
790.791	0.0159380
790.869	0.0159633
790.947	0.0159216
791.025	0.0158553
791.103	0.0159277
791.182	0.0158907
791.260	0.0158423
791.338	0.0157314
791.416	0.0158178
791.494	0.0159970
791.572	0.0159099
791.650	0.0161237
791.728	0.0162612
791.807	0.0161243
791.885	0.0162334
791.963	0.0164248
792.041	0.0165756
792.119	0.0166302
792.197	0.0167985
792.275	0.0166405
792.353	0.0167886
792.432	0.0167825
792.510	0.0168213
792.588	0.0167516
792.666	0.0168172
792.744	0.0167992
792.822	0.0167628
792.900	0.0166762
792.978	0.0165730
793.057	0.0165521
793.135	0.0164824
793.213	0.0164281
793.291	0.0162125
793.369	0.0161023
793.447	0.0162121
793.525	0.0160577
793.603	0.0157599
793.682	0.0159331
793.760	0.0159661
793.838	0.0158337
793.916	0.0158413
793.994	0.0157927
794.072	0.0157083
794.150	0.0158096
794.228	0.0157536
794.307	0.0156973
794.385	0.0154645
794.463	0.0156216
794.541	0.0156956
794.619	0.0156918
794.697	0.0156898
794.775	0.0157263
794.853	0.0159878
794.932	0.0161209
795.010	0.0162162
795.088	0.0163209
795.166	0.0164219
795.244	0.0167671
795.322	0.0169495
795.400	0.0169791
795.478	0.0172880
795.557	0.0174812
795.635	0.0174657
795.713	0.0174847
795.791	0.0177065
795.869	0.0176566
795.947	0.0173952
796.025	0.0173902
796.103	0.0173549
796.182	0.0169145
796.260	0.0167525
796.338	0.0164960
796.416	0.0161521
796.494	0.0157846
796.572	0.0155474
796.650	0.0153570
796.728	0.0151607
796.807	0.0148614
796.885	0.0147822
796.963	0.0148469
797.041	0.0147528
797.119	0.0149353
797.197	0.0150411
797.275	0.0152811
797.353	0.0154459
797.432	0.0153992
797.510	0.0155614
797.588	0.0158980
797.666	0.0159241
797.744	0.0162122
797.822	0.0161292
797.900	0.0161737
797.978	0.0164015
798.057	0.0160963
798.135	0.0161321
798.213	0.0160947
798.291	0.0159438
798.369	0.0159174
798.447	0.0157771
798.525	0.0157771
798.603	0.0157002
798.682	0.0157694
798.760	0.0157233
798.838	0.0158614
798.916	0.0161040
798.994	0.0161900
799.072	0.0163286
799.150	0.0163463
799.228	0.0167237
799.307	0.0168307
799.385	0.0170379
799.463	0.0169315
799.541	0.0172186
799.619	0.0171085
799.697	0.0172049
799.775	0.0172162
799.853	0.0172065
799.932	0.0171030
800.010	0.0171522
800.088	0.0171921
800.166	0.0169733
800.244	0.0168664
800.322	0.0170605
800.400	0.0170618
800.478	0.0169250
800.557	0.0169144
800.635	0.0170074
800.713	0.0168419
800.791	0.0167927
800.869	0.0166335
800.947	0.0166005
801.025	0.0163102
801.103	0.0161126
801.182	0.0160027
801.260	0.0158080
801.338	0.0155531
801.416	0.0154037
801.494	0.0151061
801.572	0.0148917
801.650	0.0148375
801.728	0.0148261
801.807	0.0146693
801.885	0.0145535
801.963	0.0146909
802.041	0.0147952
802.119	0.0148542
802.197	0.0152027
802.275	0.0153844
802.353	0.0153789
802.432	0.0157547
802.510	0.0157803
802.588	0.0159519
802.666	0.0159978
802.744	0.0160601
802.822	0.0161414
802.900	0.0162874
802.978	0.0162317
803.057	0.0160878
803.135	0.0161143
803.213	0.0160889
803.291	0.0160720
803.369	0.0159608
803.447	0.0160255
803.525	0.0161810
803.603	0.0160375
803.682	0.0162774
803.760	0.0164089
803.838	0.0164713
803.916	0.0166020
803.994	0.0167012
804.072	0.0168537
804.150	0.0169272
804.228	0.0171017
804.307	0.0172752
804.385	0.0172878
804.463	0.0174243
804.541	0.0176209
804.619	0.0178174
804.697	0.0178336
804.775	0.0180241
804.853	0.0180841
804.932	0.0179932
805.010	0.0181062
805.088	0.0179330
805.166	0.0177557
805.244	0.0177495
805.322	0.0176038
805.400	0.0172900
805.478	0.0170270
805.557	0.0168474
805.635	0.0165685
805.713	0.0163070
805.791	0.0159524
805.869	0.0157497
805.947	0.0158409
806.025	0.0156511
806.103	0.0155356
806.182	0.0154495
806.260	0.0152750
806.338	0.0150898
806.416	0.0150117
806.494	0.0149715
806.572	0.0149942
806.650	0.0149068
806.728	0.0148141
806.807	0.0148867
806.885	0.0147604
806.963	0.0147953
807.041	0.0149110
807.119	0.0149705
807.197	0.0151294
807.275	0.0151598
807.353	0.0151640
807.432	0.0154112
807.510	0.0156685
807.588	0.0154180
807.666	0.0156770
807.744	0.0160606
807.822	0.0162759
807.900	0.0162150
807.978	0.0163888
808.057	0.0165417
808.135	0.0166625
808.213	0.0166153
808.291	0.0167308
808.369	0.0169117
808.447	0.0168858
808.525	0.0170814
808.603	0.0167055
808.682	0.0168176
808.760	0.0171027
808.838	0.0169462
808.916	0.0170416
808.994	0.0169221
809.072	0.0172200
809.150	0.0170858
809.228	0.0169437
809.307	0.0171142
809.385	0.0170609
809.463	0.0170507
809.541	0.0172055
809.619	0.0172305
809.697	0.0172463
809.775	0.0173069
809.853	0.0172878
809.932	0.0172253
810.010	0.0170718
810.088	0.0171626
810.166	0.0171731
810.244	0.0170451
810.322	0.0167744
810.400	0.0166890
810.478	0.0167530
810.557	0.0165113
810.635	0.0163964
810.713	0.0161896
810.791	0.0161894
810.869	0.0159489
810.947	0.0158968
811.025	0.0157638
811.103	0.0154736
811.182	0.0155775
811.260	0.0153160
811.338	0.0152785
811.416	0.0154538
811.494	0.0153947
811.572	0.0154884
811.650	0.0155737
811.728	0.0156005
811.807	0.0157812
811.885	0.0157719
811.963	0.0157540
812.041	0.0159007
812.119	0.0160355
812.197	0.0159452
812.275	0.0159577
812.353	0.0160380
812.432	0.0160218
812.510	0.0158708
812.588	0.0158784
812.666	0.0158431
812.744	0.0157561
812.822	0.0158046
812.900	0.0158264
812.978	0.0157195
813.057	0.0157922
813.135	0.0157616
813.213	0.0159187
813.291	0.0156594
813.369	0.0157142
813.447	0.0158998
813.525	0.0158867
813.603	0.0159976
813.682	0.0160339
813.760	0.0160890
813.838	0.0161125
813.916	0.0161521
813.994	0.0161913
814.072	0.0163629
814.150	0.0163486
814.228	0.0163404
814.307	0.0164574
814.385	0.0165051
814.463	0.0166137
814.541	0.0166987
814.619	0.0167715
814.697	0.0166798
814.775	0.0169586
814.853	0.0170119
814.932	0.0169951
815.010	0.0170802
815.088	0.0171339
815.166	0.0171465
815.244	0.0170965
815.322	0.0169434
815.400	0.0168672
815.478	0.0168233
815.557	0.0166914
815.635	0.0166841
815.713	0.0166751
815.791	0.0166270
815.869	0.0164432
815.947	0.0163427
816.025	0.0162099
816.103	0.0162588
816.182	0.0163265
816.260	0.0162031
816.338	0.0163983
816.416	0.0163219
816.494	0.0163358
816.572	0.0163547
816.650	0.0162475
816.728	0.0161121
816.807	0.0163145
816.885	0.0161046
816.963	0.0159554
817.041	0.0159116
817.119	0.0158534
817.197	0.0155984
817.275	0.0156387
817.353	0.0154128
817.432	0.0153247
817.510	0.0152827
817.588	0.0151807
817.666	0.0152266
817.744	0.0152399
817.822	0.0152229
817.900	0.0153306
817.978	0.0152339
818.057	0.0153056
818.135	0.0155550
818.213	0.0155665
818.291	0.0157433
818.369	0.0157365
818.447	0.0158888
818.525	0.0160957
818.603	0.0162731
818.682	0.0163361
818.760	0.0165959
818.838	0.0165743
818.916	0.0165624
818.994	0.0166438
819.072	0.0164876
819.150	0.0165691
819.228	0.0167082
819.307	0.0164269
819.385	0.0164380
819.463	0.0164034
819.541	0.0164111
819.619	0.0162946
819.697	0.0160778
819.775	0.0160842
819.853	0.0160788
819.932	0.0161924
820.010	0.0160905
820.088	0.0161707
820.166	0.0162520
820.244	0.0164980
820.322	0.0165611
820.400	0.0165279
820.478	0.0167251
820.557	0.0166251
820.635	0.0168472
820.713	0.0168221
820.791	0.0168946
820.869	0.0170998
820.947	0.0170734
821.025	0.0169470
821.103	0.0170145
821.182	0.0168846
821.260	0.0168204
821.338	0.0166463
821.416	0.0166084
821.494	0.0163462
821.572	0.0164108
821.650	0.0163412
821.728	0.0163215
821.807	0.0162602
821.885	0.0161222
821.963	0.0160784
822.041	0.0160275
822.119	0.0160149
822.197	0.0159206
822.275	0.0160780
822.353	0.0159908
822.432	0.0159127
822.510	0.0159035
822.588	0.0157663
822.666	0.0158434
822.744	0.0158033
822.822	0.0155668
822.900	0.0156643
822.978	0.0157594
823.057	0.0157536
823.135	0.0156639
823.213	0.0157883
823.291	0.0160842
823.369	0.0162180
823.447	0.0161997
823.525	0.0161589
823.603	0.0164118
823.682	0.0163721
823.760	0.0164520
823.838	0.0165180
823.916	0.0163929
823.994	0.0163326
824.072	0.0162566
824.150	0.0161810
824.228	0.0161260
824.307	0.0159145
824.385	0.0157164
824.463	0.0157171
824.541	0.0155605
824.619	0.0154327
824.697	0.0154078
824.775	0.0151598
824.853	0.0150949
824.932	0.0151386
825.010	0.0152583
825.088	0.0150946
825.166	0.0152866
825.244	0.0154102
825.322	0.0155698
825.400	0.0158072
825.478	0.0159203
825.557	0.0162032
825.635	0.0163599
825.713	0.0166628
825.791	0.0166875
825.869	0.0168642
825.947	0.0170945
826.025	0.0173225
826.103	0.0175775
826.182	0.0174719
826.260	0.0176356
826.338	0.0175893
826.416	0.0176051
826.494	0.0177026
826.572	0.0175124
826.650	0.0176316
826.728	0.0174123
826.807	0.0174191
826.885	0.0170605
826.963	0.0169640
827.041	0.0167939
827.119	0.0166790
827.197	0.0164433
827.275	0.0162543
827.353	0.0161337
827.432	0.0159659
827.510	0.0159154
827.588	0.0158091
827.666	0.0156755
827.744	0.0157148
827.822	0.0154616
827.900	0.0156146
827.978	0.0155682
828.057	0.0156641
828.135	0.0156332
828.213	0.0156094
828.291	0.0158009
828.369	0.0157600
828.447	0.0158688
828.525	0.0158735
828.603	0.0159519
828.682	0.0161074
828.760	0.0162305
828.838	0.0163136
828.916	0.0162978
828.994	0.0163866
829.072	0.0163764
829.150	0.0166791
829.228	0.0166055
829.307	0.0167210
829.385	0.0166791
829.463	0.0166294
829.541	0.0165417
829.619	0.0164946
829.697	0.0164275
829.775	0.0164705
829.853	0.0163310
829.932	0.0161944
830.010	0.0160731
830.088	0.0160076
830.166	0.0158115
830.244	0.0157974
830.322	0.0159012
830.400	0.0158274
830.478	0.0156017
830.557	0.0158177
830.635	0.0157658
830.713	0.0158665
830.791	0.0159316
830.869	0.0160369
830.947	0.0160069
831.025	0.0161662
831.103	0.0162122
831.182	0.0163019
831.260	0.0162477
831.338	0.0162708
831.416	0.0163856
831.494	0.0163815
831.572	0.0163612
831.650	0.0163239
831.728	0.0163390
831.807	0.0163591
831.885	0.0164904
831.963	0.0163642
832.041	0.0164705
832.119	0.0164877
832.197	0.0165302
832.275	0.0165632
832.353	0.0163991
832.432	0.0166035
832.510	0.0165829
832.588	0.0165028
832.666	0.0165146
832.744	0.0166823
832.822	0.0164417
832.900	0.0164027
832.978	0.0164302
833.057	0.0164708
833.135	0.0163680
833.213	0.0162927
833.291	0.0162683
833.369	0.0162253
833.447	0.0162157
833.525	0.0162219
833.603	0.0162031
833.682	0.0161974
833.760	0.0162931
833.838	0.0162118
833.916	0.0160853
833.994	0.0163350
834.072	0.0163914
834.150	0.0163686
834.228	0.0163995
834.307	0.0164838
834.385	0.0165418
834.463	0.0166543
834.541	0.0166792
834.619	0.0167950
834.697	0.0166211
834.775	0.0166969
834.853	0.0167234
834.932	0.0165668
835.010	0.0165338
835.088	0.0166280
835.166	0.0164770
835.244	0.0163997
835.322	0.0165274
835.400	0.0163786
835.478	0.0163461
835.557	0.0163086
835.635	0.0161211
835.713	0.0160147
835.791	0.0161350
835.869	0.0160688
835.947	0.0159699
836.025	0.0158926
836.103	0.0159033
836.182	0.0159216
836.260	0.0157449
836.338	0.0157465
836.416	0.0158276
836.494	0.0156803
836.572	0.0156606
836.650	0.0155859
836.728	0.0156610
836.807	0.0155971
836.885	0.0157549
836.963	0.0156350
837.041	0.0157079
837.119	0.0156610
837.197	0.0156529
837.275	0.0156724
837.353	0.0157536
837.432	0.0159740
837.510	0.0160322
837.588	0.0161062
837.666	0.0160635
837.744	0.0163445
837.822	0.0161017
837.900	0.0162255
837.978	0.0162680
838.057	0.0163237
838.135	0.0163951
838.213	0.0164338
838.291	0.0164255
838.369	0.0165485
838.447	0.0165074
838.525	0.0164703
838.603	0.0163972
838.682	0.0164046
838.760	0.0163515
838.838	0.0163960
838.916	0.0163480
838.994	0.0161960
839.072	0.0162658
839.150	0.0162883
839.228	0.0160920
839.307	0.0160744
839.385	0.0161129
839.463	0.0161084
839.541	0.0161223
839.619	0.0160628
839.697	0.0161829
839.775	0.0160345
839.853	0.0161701
839.932	0.0163302
840.010	0.0163705
840.088	0.0163658
840.166	0.0163646
840.244	0.0164677
840.322	0.0163918
840.400	0.0165695
840.478	0.0165709
840.557	0.0164792
840.635	0.0166092
840.713	0.0165442
840.791	0.0164182
840.869	0.0163999
840.947	0.0164722
841.025	0.0164659
841.103	0.0164051
841.182	0.0162743
841.260	0.0163470
841.338	0.0162385
841.416	0.0162044
841.494	0.0160923
841.572	0.0161293
841.650	0.0160841
841.728	0.0160859
841.807	0.0160220
841.885	0.0159088
841.963	0.0160633
842.041	0.0160886
842.119	0.0160137
842.197	0.0159963
842.275	0.0161053
842.353	0.0161449
842.432	0.0162374
842.510	0.0162771
842.588	0.0162357
842.666	0.0161987
842.744	0.0162769
842.822	0.0162819
842.900	0.0162979
842.978	0.0162283
843.057	0.0163145
843.135	0.0160275
843.213	0.0160394
843.291	0.0160955
843.369	0.0160578
843.447	0.0161061
843.525	0.0161750
843.603	0.0160014
843.682	0.0160629
843.760	0.0159592
843.838	0.0160773
843.916	0.0160587
843.994	0.0160533
844.072	0.0161069
844.150	0.0161975
844.228	0.0162193
844.307	0.0162108
844.385	0.0163392
844.463	0.0163690
844.541	0.0163094
844.619	0.0164700
844.697	0.0164862
844.775	0.0165102
844.853	0.0164189
844.932	0.0163890
845.010	0.0164475
845.088	0.0165923
845.166	0.0165101
845.244	0.0165514
845.322	0.0163863
845.400	0.0165121
845.478	0.0164805
845.557	0.0162619
845.635	0.0162681
845.713	0.0162955
845.791	0.0162439
845.869	0.0162804
845.947	0.0163402
846.025	0.0162712
846.103	0.0163821
846.182	0.0164170
846.260	0.0163567
846.338	0.0163352
846.416	0.0165019
846.494	0.0165308
846.572	0.0166141
846.650	0.0165008
846.728	0.0166458
846.807	0.0164174
846.885	0.0164369
846.963	0.0163052
847.041	0.0163307
847.119	0.0161655
847.197	0.0158661
847.275	0.0160087
847.353	0.0159118
847.432	0.0157385
847.510	0.0157529
847.588	0.0157083
847.666	0.0154707
847.744	0.0156762
847.822	0.0155974
847.900	0.0155112
847.978	0.0157070
848.057	0.0156573
848.135	0.0157153
848.213	0.0157419
848.291	0.0158987
848.369	0.0161282
848.447	0.0160912
848.525	0.0161631
848.603	0.0164518
848.682	0.0162832
848.760	0.0163977
848.838	0.0165340
848.916	0.0164899
848.994	0.0164873
849.072	0.0164772
849.150	0.0164400
849.228	0.0164288
849.307	0.0163166
849.385	0.0161812
849.463	0.0162668
849.541	0.0161710
849.619	0.0161352
849.697	0.0162082
849.775	0.0161568
849.853	0.0161534
849.932	0.0160302
850.010	0.0161511
850.088	0.0162400
850.166	0.0162366
850.244	0.0163759
850.322	0.0164666
850.400	0.0164328
850.478	0.0164964
850.557	0.0167249
850.635	0.0166553
850.713	0.0166863
850.791	0.0166006
850.869	0.0166257
850.947	0.0166930
851.025	0.0165701
851.103	0.0166261
851.182	0.0166585
851.260	0.0165572
851.338	0.0165057
851.416	0.0164629
851.494	0.0163055
851.572	0.0163433
851.650	0.0162186
851.728	0.0161215
851.807	0.0160418
851.885	0.0161671
851.963	0.0161559
852.041	0.0162475
852.119	0.0161938
852.197	0.0161624
852.275	0.0162006
852.353	0.0162038
852.432	0.0163223
852.510	0.0164230
852.588	0.0163926
852.666	0.0165229
852.744	0.0164626
852.822	0.0164545
852.900	0.0164158
852.978	0.0165614
853.057	0.0164571
853.135	0.0164002
853.213	0.0164211
853.291	0.0162131
853.369	0.0161592
853.447	0.0160178
853.525	0.0159572
853.603	0.0159358
853.682	0.0157999
853.760	0.0157487
853.838	0.0157018
853.916	0.0156960
853.994	0.0158091
854.072	0.0157510
854.150	0.0156944
854.228	0.0158112
854.307	0.0158714
854.385	0.0158521
854.463	0.0159330
854.541	0.0160581
854.619	0.0161168
854.697	0.0161293
854.775	0.0162408
854.853	0.0162550
854.932	0.0161732
855.010	0.0162605
855.088	0.0164164
855.166	0.0164803
855.244	0.0162447
855.322	0.0163329
855.400	0.0163560
855.478	0.0162721
855.557	0.0163132
855.635	0.0161621
855.713	0.0161022
855.791	0.0162558
855.869	0.0160207
855.947	0.0160629
856.025	0.0161543
856.103	0.0158360
856.182	0.0159826
856.260	0.0160017
856.338	0.0160082
856.416	0.0161697
856.494	0.0163337
856.572	0.0162515
856.650	0.0163618
856.728	0.0163529
856.807	0.0165851
856.885	0.0164532
856.963	0.0166263
857.041	0.0167076
857.119	0.0167503
857.197	0.0167248
857.275	0.0169139
857.353	0.0168166
857.432	0.0166881
857.510	0.0166326
857.588	0.0166674
857.666	0.0164962
857.744	0.0165308
857.822	0.0163812
857.900	0.0162683
857.978	0.0162949
858.057	0.0161920
858.135	0.0161361
858.213	0.0160567
858.291	0.0160232
858.369	0.0161136
858.447	0.0160198
858.525	0.0160769
858.603	0.0161946
858.682	0.0160760
858.760	0.0161044
858.838	0.0163126
858.916	0.0163824
858.994	0.0163296
859.072	0.0164970
859.150	0.0164934
859.228	0.0164826
859.307	0.0164738
859.385	0.0164809
859.463	0.0163686
859.541	0.0162544
859.619	0.0162699
859.697	0.0162900
859.775	0.0161599
859.853	0.0159070
859.932	0.0158809
860.010	0.0157497
860.088	0.0156348
860.166	0.0157195
860.244	0.0155387
860.322	0.0156355
860.400	0.0155201
860.478	0.0156662
860.557	0.0155647
860.635	0.0155546
860.713	0.0156842
860.791	0.0157053
860.869	0.0160548
860.947	0.0161508
861.025	0.0162881
861.103	0.0164165
861.182	0.0164042
861.260	0.0165909
861.338	0.0165639
861.416	0.0166042
861.494	0.0166814
861.572	0.0166412
861.650	0.0166626
861.728	0.0167406
861.807	0.0166208
861.885	0.0166527
861.963	0.0166158
862.041	0.0164722
862.119	0.0166010
862.197	0.0166051
862.275	0.0162508
862.353	0.0163717
862.432	0.0163059
862.510	0.0161977
862.588	0.0161073
862.666	0.0161320
862.744	0.0158754
862.822	0.0160569
862.900	0.0160402
862.978	0.0159555
863.057	0.0159750
863.135	0.0159456
863.213	0.0160950
863.291	0.0161266
863.369	0.0162097
863.447	0.0162601
863.525	0.0162733
863.603	0.0163738
863.682	0.0165485
863.760	0.0164079
863.838	0.0165302
863.916	0.0165289
863.994	0.0166265
864.072	0.0165977
864.150	0.0164002
864.228	0.0165483
864.307	0.0165092
864.385	0.0165704
864.463	0.0165218
864.541	0.0164759
864.619	0.0164496
864.697	0.0163893
864.775	0.0163638
864.853	0.0162971
864.932	0.0161666
865.010	0.0162105
865.088	0.0161028
865.166	0.0161747
865.244	0.0161911
865.322	0.0161318
865.400	0.0162263
865.478	0.0161580
865.557	0.0163125
865.635	0.0163939
865.713	0.0162727
865.791	0.0162182
865.869	0.0163669
865.947	0.0163967
866.025	0.0162962
866.103	0.0163535
866.182	0.0162555
866.260	0.0162776
866.338	0.0161138
866.416	0.0158877
866.494	0.0160640
866.572	0.0160037
866.650	0.0159388
866.728	0.0157468
866.807	0.0157587
866.885	0.0158154
866.963	0.0158665
867.041	0.0158009
867.119	0.0158475
867.197	0.0158980
867.275	0.0161369
867.353	0.0160473
867.432	0.0162289
867.510	0.0162710
867.588	0.0163632
867.666	0.0163417
867.744	0.0163835
867.822	0.0164662
867.900	0.0165682
867.978	0.0166467
868.057	0.0164905
868.135	0.0165923
868.213	0.0165560
868.291	0.0166667
868.369	0.0166933
868.447	0.0164879
868.525	0.0165118
868.603	0.0163297
868.682	0.0163660
868.760	0.0162712
868.838	0.0162206
868.916	0.0161424
868.994	0.0162344
869.072	0.0159829
869.150	0.0159992
869.228	0.0160620
869.307	0.0160707
869.385	0.0161279
869.463	0.0163077
869.541	0.0163433
869.619	0.0161729
869.697	0.0163718
869.775	0.0163911
869.853	0.0164001
869.932	0.0165503
870.010	0.0164787
870.088	0.0163788
870.166	0.0165205
870.244	0.0164886
870.322	0.0164265
870.400	0.0165054
870.478	0.0164074
870.557	0.0163900
870.635	0.0163059
870.713	0.0161794
870.791	0.0164054
870.869	0.0162645
870.947	0.0162280
871.025	0.0163533
871.103	0.0162180
871.182	0.0162792
871.260	0.0161679
871.338	0.0160966
871.416	0.0161755
871.494	0.0161491
871.572	0.0161555
871.650	0.0162691
871.728	0.0161859
871.807	0.0162899
871.885	0.0163484
871.963	0.0163616
872.041	0.0163545
872.119	0.0163565
872.197	0.0162743
872.275	0.0162026
872.353	0.0162020
872.432	0.0161564
872.510	0.0162419
872.588	0.0162341
872.666	0.0161302
872.744	0.0160825
872.822	0.0161182
872.900	0.0160119
872.978	0.0160606
873.057	0.0161078
873.135	0.0160751
873.213	0.0160446
873.291	0.0159312
873.369	0.0160824
873.447	0.0161234
873.525	0.0161578
873.603	0.0162109
873.682	0.0161515
873.760	0.0163299
873.838	0.0162798
873.916	0.0161634
873.994	0.0160992
874.072	0.0161059
874.150	0.0161600
874.228	0.0161263
874.307	0.0161919
874.385	0.0161759
874.463	0.0162212
874.541	0.0162607
874.619	0.0161750
874.697	0.0162241
874.775	0.0162350
874.853	0.0162857
874.932	0.0161115
875.010	0.0163863
875.088	0.0163568
875.166	0.0163493
875.244	0.0162069
875.322	0.0163291
875.400	0.0163031
875.478	0.0163306
875.557	0.0163737
875.635	0.0163467
875.713	0.0162550
875.791	0.0163121
875.869	0.0162582
875.947	0.0162205
876.025	0.0164752
876.103	0.0162099
876.182	0.0162698
876.260	0.0162234
876.338	0.0161314
876.416	0.0161688
876.494	0.0160053
876.572	0.0161542
876.650	0.0161932
876.728	0.0161340
876.807	0.0158691
876.885	0.0161309
876.963	0.0160387
877.041	0.0159018
877.119	0.0158327
877.197	0.0159064
877.275	0.0159432
877.353	0.0158675
877.432	0.0158652
877.510	0.0160124
877.588	0.0160791
877.666	0.0160463
877.744	0.0160279
877.822	0.0162179
877.900	0.0162909
877.978	0.0164671
878.057	0.0165125
878.135	0.0164917
878.213	0.0164140
878.291	0.0164088
878.369	0.0163001
878.447	0.0162427
878.525	0.0164552
878.603	0.0163781
878.682	0.0164574
878.760	0.0162868
878.838	0.0161973
878.916	0.0163189
878.994	0.0162725
879.072	0.0160664
879.150	0.0163076
879.228	0.0159921
879.307	0.0161140
879.385	0.0161053
879.463	0.0160430
879.541	0.0161933
879.619	0.0160017
879.697	0.0162316
879.775	0.0162105
879.853	0.0160687
879.932	0.0161805
880.010	0.0161072
880.088	0.0163123
880.166	0.0162411
880.244	0.0162977
880.322	0.0162422
880.400	0.0163853
880.478	0.0165448
880.557	0.0164037
880.635	0.0164964
880.713	0.0163491
880.791	0.0162646
880.869	0.0165508
880.947	0.0165826
881.025	0.0164611
881.103	0.0163603
881.182	0.0162791
881.260	0.0163802
881.338	0.0163223
881.416	0.0162158
881.494	0.0162624
881.572	0.0162675
881.650	0.0163142
881.728	0.0163218
881.807	0.0163132
881.885	0.0162158
881.963	0.0162470
882.041	0.0163089
882.119	0.0163345
882.197	0.0163488
882.275	0.0162057
882.353	0.0164512
882.432	0.0163679
882.510	0.0162115
882.588	0.0162286
882.666	0.0163928
882.744	0.0162805
882.822	0.0163346
882.900	0.0160721
882.978	0.0159559
883.057	0.0161707
883.135	0.0160796
883.213	0.0160719
883.291	0.0159106
883.369	0.0159932
883.447	0.0158689
883.525	0.0159370
883.603	0.0158806
883.682	0.0159910
883.760	0.0159995
883.838	0.0161190
883.916	0.0161150
883.994	0.0162151
884.072	0.0161510
884.150	0.0162031
884.228	0.0163329
884.307	0.0163916
884.385	0.0162613
884.463	0.0162930
884.541	0.0164223
884.619	0.0164295
884.697	0.0164577
884.775	0.0165466
884.853	0.0164855
884.932	0.0164398
885.010	0.0163813
885.088	0.0163450
885.166	0.0163847
885.244	0.0163279
885.322	0.0163284
885.400	0.0163702
885.478	0.0163472
885.557	0.0163374
885.635	0.0163712
885.713	0.0163416
885.791	0.0163618
885.869	0.0165478
885.947	0.0163572
886.025	0.0165935
886.103	0.0164316
886.182	0.0164835
886.260	0.0164462
886.338	0.0165769
886.416	0.0165982
886.494	0.0165507
886.572	0.0165030
886.650	0.0165166
886.728	0.0164991
886.807	0.0164012
886.885	0.0163228
886.963	0.0164452
887.041	0.0165263
887.119	0.0163941
887.197	0.0163246
887.275	0.0164600
887.353	0.0165177
887.432	0.0164440
887.510	0.0163738
887.588	0.0163383
887.666	0.0164423
887.744	0.0162628
887.822	0.0163452
887.900	0.0163484
887.978	0.0163192
888.057	0.0163204
888.135	0.0162869
888.213	0.0161253
888.291	0.0163096
888.369	0.0162414
888.447	0.0162829
888.525	0.0162955
888.603	0.0159754
888.682	0.0163046
888.760	0.0161746
888.838	0.0159339
888.916	0.0160356
888.994	0.0159110
889.072	0.0159876
889.150	0.0158831
889.228	0.0158279
889.307	0.0158721
889.385	0.0157667
889.463	0.0157845
889.541	0.0156939
889.619	0.0156767
889.697	0.0157732
889.775	0.0157970
889.853	0.0157816
889.932	0.0158125
890.010	0.0158973
890.088	0.0159012
890.166	0.0158787
890.244	0.0159516
890.322	0.0160163
890.400	0.0161643
890.478	0.0161555
890.557	0.0158986
890.635	0.0160252
890.713	0.0161780
890.791	0.0160484
890.869	0.0161989
890.947	0.0160904
891.025	0.0161030
891.103	0.0161147
891.182	0.0161187
891.260	0.0161414
891.338	0.0162984
891.416	0.0162173
891.494	0.0162605
891.572	0.0164535
891.650	0.0165147
891.728	0.0165282
891.807	0.0166113
891.885	0.0166568
891.963	0.0167135
892.041	0.0169179
892.119	0.0168253
892.197	0.0169733
892.275	0.0169317
892.353	0.0169241
892.432	0.0168291
892.510	0.0169049
892.588	0.0167777
892.666	0.0169138
892.744	0.0167564
892.822	0.0166550
892.900	0.0165844
892.978	0.0165458
893.057	0.0163627
893.135	0.0163095
893.213	0.0161386
893.291	0.0161243
893.369	0.0159669
893.447	0.0159683
893.525	0.0160378
893.603	0.0160056
893.682	0.0157344
893.760	0.0158273
893.838	0.0159910
893.916	0.0159261
893.994	0.0159961
894.072	0.0159480
894.150	0.0160024
894.228	0.0161065
894.307	0.0161504
894.385	0.0161454
894.463	0.0161387
894.541	0.0162712
894.619	0.0162549
894.697	0.0163218
894.775	0.0162264
894.853	0.0162482
894.932	0.0162330
895.010	0.0161237
895.088	0.0160559
895.166	0.0160703
895.244	0.0160695
895.322	0.0160032
895.400	0.0158051
895.478	0.0158080
895.557	0.0157842
895.635	0.0158013
895.713	0.0156968
895.791	0.0155828
895.869	0.0157226
895.947	0.0157582
896.025	0.0157578
896.103	0.0157980
896.182	0.0158698
896.260	0.0158739
896.338	0.0159560
896.416	0.0161375
896.494	0.0160342
896.572	0.0162354
896.650	0.0163554
896.728	0.0163270
896.807	0.0164586
896.885	0.0165115
896.963	0.0165197
897.041	0.0165417
897.119	0.0167456
897.197	0.0166991
897.275	0.0166916
897.353	0.0165700
897.432	0.0165639
897.510	0.0164854
897.588	0.0166172
897.666	0.0165531
897.744	0.0164647
897.822	0.0163945
897.900	0.0163768
897.978	0.0164353
898.057	0.0163671
898.135	0.0165054
898.213	0.0164736
898.291	0.0164961
898.369	0.0166225
898.447	0.0164644
898.525	0.0165138
898.603	0.0165589
898.682	0.0166723
898.760	0.0165050
898.838	0.0165179
898.916	0.0165661
898.994	0.0164777
899.072	0.0165128
899.150	0.0164061
899.228	0.0164046
899.307	0.0163353
899.385	0.0163219
899.463	0.0162811
899.541	0.0162712
899.619	0.0162122
899.697	0.0161542
899.775	0.0161110
899.853	0.0161044
899.932	0.0161879
900.010	0.0161378
900.088	0.0159831
900.166	0.0161203
900.244	0.0161677
900.322	0.0161700
900.400	0.0161073
900.478	0.0161273
900.557	0.0161076
900.635	0.0160464
900.713	0.0162170
900.791	0.0162775
900.869	0.0161775
900.947	0.0161079
901.025	0.0163803
901.103	0.0164408
901.182	0.0163242
901.260	0.0163716
901.338	0.0164240
901.416	0.0164193
901.494	0.0163398
901.572	0.0163789
901.650	0.0162778
901.728	0.0161141
901.807	0.0161514
901.885	0.0161470
901.963	0.0160362
902.041	0.0160850
902.119	0.0159568
902.197	0.0159657
902.275	0.0160172
902.353	0.0159769
902.432	0.0156809
902.510	0.0157446
902.588	0.0158833
902.666	0.0158395
902.744	0.0158433
902.822	0.0158483
902.900	0.0159885
902.978	0.0158762
903.057	0.0158538
903.135	0.0159582
903.213	0.0159684
903.291	0.0159884
903.369	0.0160770
903.447	0.0161671
903.525	0.0162881
903.603	0.0162210
903.682	0.0161665
903.760	0.0162309
903.838	0.0161918
903.916	0.0162183
903.994	0.0163223
904.072	0.0164262
904.150	0.0162590
904.228	0.0165079
904.307	0.0164157
904.385	0.0165057
904.463	0.0164007
904.541	0.0165852
904.619	0.0164458
904.697	0.0165950
904.775	0.0165851
904.853	0.0165955
904.932	0.0165699
905.010	0.0167247
905.088	0.0167387
905.166	0.0167647
905.244	0.0168024
905.322	0.0168362
905.400	0.0169140
905.478	0.0167744
905.557	0.0167392
905.635	0.0167493
905.713	0.0166763
905.791	0.0167006
905.869	0.0166933
905.947	0.0167709
906.025	0.0166147
906.103	0.0166121
906.182	0.0166910
906.260	0.0164443
906.338	0.0164423
906.416	0.0166832
906.494	0.0165026
906.572	0.0162774
906.650	0.0162435
906.728	0.0161949
906.807	0.0161058
906.885	0.0160379
906.963	0.0160337
907.041	0.0161172
907.119	0.0160266
907.197	0.0158727
907.275	0.0158324
907.353	0.0158427
907.432	0.0159558
907.510	0.0157864
907.588	0.0160032
907.666	0.0160596
907.744	0.0158180
907.822	0.0159472
907.900	0.0159072
907.978	0.0158486
908.057	0.0160401
908.135	0.0159121
908.213	0.0158603
908.291	0.0159407
908.369	0.0159366
908.447	0.0157980
908.525	0.0157243
908.603	0.0157796
908.682	0.0157702
908.760	0.0158205
908.838	0.0158264
908.916	0.0158678
908.994	0.0158923
909.072	0.0157545
909.150	0.0160583
909.228	0.0160794
909.307	0.0160222
909.385	0.0162585
909.463	0.0162017
909.541	0.0162118
909.619	0.0161124
909.697	0.0160773
909.775	0.0162790
909.853	0.0164437
909.932	0.0163287
910.010	0.0163020
910.088	0.0162562
910.166	0.0163434
910.244	0.0164069
910.322	0.0164125
910.400	0.0165179
910.478	0.0166082
910.557	0.0165378
910.635	0.0165009
910.713	0.0166900
910.791	0.0166843
910.869	0.0166444
910.947	0.0167189
911.025	0.0167455
911.103	0.0167092
911.182	0.0167938
911.260	0.0168041
911.338	0.0167307
911.416	0.0168710
911.494	0.0167940
911.572	0.0167469
911.650	0.0167751
911.728	0.0166773
911.807	0.0167761
911.885	0.0167782
911.963	0.0167027
912.041	0.0167034
912.119	0.0165346
912.197	0.0164042
912.275	0.0165588
912.353	0.0163839
912.432	0.0162896
912.510	0.0161725
912.588	0.0163048
912.666	0.0161297
912.744	0.0160701
912.822	0.0160901
912.900	0.0161749
912.978	0.0160442
913.057	0.0158442
913.135	0.0159319
913.213	0.0159238
913.291	0.0158376
913.369	0.0158439
913.447	0.0158131
913.525	0.0157874
913.603	0.0156994
913.682	0.0159593
913.760	0.0159380
913.838	0.0156503
913.916	0.0156918
913.994	0.0160004
914.072	0.0158954
914.150	0.0157770
914.228	0.0157368
914.307	0.0158242
914.385	0.0157741
914.463	0.0158663
914.541	0.0157610
914.619	0.0159635
914.697	0.0159945
914.775	0.0158888
914.853	0.0158153
914.932	0.0159212
915.010	0.0159679
915.088	0.0160302
915.166	0.0159215
915.244	0.0160873
915.322	0.0161430
915.400	0.0160488
915.478	0.0160949
915.557	0.0160015
915.635	0.0161273
915.713	0.0161662
915.791	0.0163072
915.869	0.0161594
915.947	0.0161491
916.025	0.0163715
916.103	0.0162807
916.182	0.0162798
916.260	0.0163021
916.338	0.0164108
916.416	0.0163972
916.494	0.0163029
916.572	0.0165002
916.650	0.0165324
916.728	0.0164351
916.807	0.0166434
916.885	0.0165263
916.963	0.0164979
917.041	0.0165399
917.119	0.0166265
917.197	0.0164529
917.275	0.0166743
917.353	0.0166269
917.432	0.0165289
917.510	0.0164133
917.588	0.0164619
917.666	0.0165881
917.744	0.0165477
917.822	0.0165018
917.900	0.0165231
917.978	0.0163910
918.057	0.0165079
918.135	0.0165151
918.213	0.0163525
918.291	0.0163545
918.369	0.0164257
918.447	0.0163145
918.525	0.0162591
918.603	0.0161996
918.682	0.0161113
918.760	0.0160564
918.838	0.0163220
918.916	0.0161077
918.994	0.0160069
919.072	0.0161145
919.150	0.0159296
919.228	0.0158182
919.307	0.0159186
919.385	0.0158900
919.463	0.0159755
919.541	0.0159636
919.619	0.0160422
919.697	0.0158908
919.775	0.0159460
919.853	0.0159656
919.932	0.0160100
920.010	0.0159120
920.088	0.0158823
920.166	0.0160368
920.244	0.0158621
920.322	0.0159499
920.400	0.0159773
920.478	0.0158065
920.557	0.0158752
920.635	0.0158878
920.713	0.0160123
920.791	0.0159753
920.869	0.0158756
920.947	0.0158712
921.025	0.0159323
921.103	0.0158586
921.182	0.0158717
921.260	0.0160060
921.338	0.0159796
921.416	0.0159029
921.494	0.0159373
921.572	0.0161059
921.650	0.0160641
921.728	0.0161555
921.807	0.0162369
921.885	0.0162127
921.963	0.0161565
922.041	0.0162401
922.119	0.0162974
922.197	0.0163635
922.275	0.0163737
922.353	0.0162735
922.432	0.0163619
922.510	0.0163048
922.588	0.0163654
922.666	0.0163970
922.744	0.0164291
922.822	0.0162621
922.900	0.0163200
922.978	0.0163709
923.057	0.0164749
923.135	0.0164397
923.213	0.0164626
923.291	0.0163634
923.369	0.0163470
923.447	0.0163567
923.525	0.0163721
923.603	0.0163909
923.682	0.0164587
923.760	0.0163021
923.838	0.0164816
923.916	0.0163601
923.994	0.0164445
924.072	0.0163284
924.150	0.0165543
924.228	0.0162923
924.307	0.0164060
924.385	0.0164359
924.463	0.0163049
924.541	0.0163261
924.619	0.0162634
924.697	0.0163394
924.775	0.0162765
924.853	0.0162449
924.932	0.0162784
925.010	0.0162117
925.088	0.0160757
925.166	0.0160917
925.244	0.0159950
925.322	0.0160623
925.400	0.0160788
925.478	0.0160513
925.557	0.0162070
925.635	0.0162913
925.713	0.0161110
925.791	0.0162835
925.869	0.0162086
925.947	0.0162372
926.025	0.0162392
926.103	0.0162017
926.182	0.0161273
926.260	0.0162011
926.338	0.0160867
926.416	0.0163242
926.494	0.0162290
926.572	0.0160330
926.650	0.0159063
926.728	0.0161955
926.807	0.0160695
926.885	0.0159971
926.963	0.0159568
927.041	0.0160863
927.119	0.0160547
927.197	0.0159807
927.275	0.0160210
927.353	0.0161547
927.432	0.0161201
927.510	0.0160656
927.588	0.0162913
927.666	0.0162210
927.744	0.0163466
927.822	0.0162658
927.900	0.0163925
927.978	0.0163394
928.057	0.0165006
928.135	0.0165685
928.213	0.0165885
928.291	0.0165005
928.369	0.0165901
928.447	0.0166863
928.525	0.0165588
928.603	0.0165279
928.682	0.0166805
928.760	0.0164710
928.838	0.0162779
928.916	0.0164949
928.994	0.0165060
929.072	0.0162737
929.150	0.0162502
929.228	0.0162455
929.307	0.0163115
929.385	0.0162139
929.463	0.0162643
929.541	0.0161112
929.619	0.0160207
929.697	0.0160239
929.775	0.0161717
929.853	0.0162583
929.932	0.0162443
930.010	0.0160659
930.088	0.0161725
930.166	0.0162909
930.244	0.0163691
930.322	0.0164197
930.400	0.0165016
930.478	0.0164751
930.557	0.0164046
930.635	0.0165869
930.713	0.0165736
930.791	0.0164977
930.869	0.0166756
930.947	0.0166119
931.025	0.0164977
931.103	0.0165157
931.182	0.0165002
931.260	0.0164909
931.338	0.0163666
931.416	0.0164450
931.494	0.0162743
931.572	0.0163947
931.650	0.0163364
931.728	0.0164047
931.807	0.0161879
931.885	0.0162952
931.963	0.0163666
932.041	0.0160789
932.119	0.0163322
932.197	0.0162971
932.275	0.0162439
932.353	0.0160417
932.432	0.0161036
932.510	0.0162796
932.588	0.0161499
932.666	0.0162019
932.744	0.0160843
932.822	0.0162143
932.900	0.0162923
932.978	0.0161580
933.057	0.0162023
933.135	0.0161932
933.213	0.0163331
933.291	0.0163226
933.369	0.0163329
933.447	0.0162132
933.525	0.0163074
933.603	0.0163168
933.682	0.0162753
933.760	0.0162878
933.838	0.0163033
933.916	0.0161516
933.994	0.0162770
934.072	0.0161810
934.150	0.0162965
934.228	0.0162429
934.307	0.0162993
934.385	0.0161694
934.463	0.0163082
934.541	0.0162189
934.619	0.0161816
934.697	0.0161997
934.775	0.0163074
934.853	0.0161063
934.932	0.0162194
935.010	0.0163522
935.088	0.0162756
935.166	0.0162929
935.244	0.0163000
935.322	0.0161781
935.400	0.0162676
935.478	0.0162485
935.557	0.0164790
935.635	0.0161450
935.713	0.0162282
935.791	0.0163660
935.869	0.0162760
935.947	0.0161567
936.025	0.0161193
936.103	0.0162511
936.182	0.0162601
936.260	0.0161534
936.338	0.0162154
936.416	0.0160869
936.494	0.0162323
936.572	0.0162919
936.650	0.0162134
936.728	0.0161633
936.807	0.0161985
936.885	0.0161608
936.963	0.0161629
937.041	0.0160427
937.119	0.0159582
937.197	0.0160575
937.275	0.0160313
937.353	0.0161491
937.432	0.0160378
937.510	0.0160151
937.588	0.0161077
937.666	0.0162437
937.744	0.0161951
937.822	0.0161652
937.900	0.0161246
937.978	0.0161919
938.057	0.0162674
938.135	0.0162274
938.213	0.0162883
938.291	0.0162738
938.369	0.0161032
938.447	0.0161882
938.525	0.0161987
938.603	0.0162579
938.682	0.0162526
938.760	0.0160815
938.838	0.0161279
938.916	0.0161996
938.994	0.0163312
939.072	0.0161675
939.150	0.0161288
939.228	0.0161392
939.307	0.0162823
939.385	0.0161875
939.463	0.0161017
939.541	0.0161237
939.619	0.0158841
939.697	0.0158704
939.775	0.0159203
939.853	0.0159344
939.932	0.0157649
940.010	0.0159895
940.088	0.0159176
940.166	0.0160131
940.244	0.0160996
940.322	0.0160627
940.400	0.0160930
940.478	0.0161604
940.557	0.0160318
940.635	0.0160949
940.713	0.0162318
940.791	0.0161471
940.869	0.0161405
940.947	0.0161827
941.025	0.0161494
941.103	0.0162609
941.182	0.0162284
941.260	0.0162781
941.338	0.0164069
941.416	0.0163497
941.494	0.0162651
941.572	0.0164011
941.650	0.0163075
941.728	0.0164390
941.807	0.0162531
941.885	0.0163780
941.963	0.0163594
942.041	0.0163786
942.119	0.0162803
942.197	0.0162965
942.275	0.0162840
942.353	0.0161884
942.432	0.0161530
942.510	0.0163254
942.588	0.0162621
942.666	0.0163236
942.744	0.0162185
942.822	0.0162173
942.900	0.0161502
942.978	0.0161738
943.057	0.0161977
943.135	0.0161051
943.213	0.0160440
943.291	0.0160970
943.369	0.0161649
943.447	0.0161436
943.525	0.0162737
943.603	0.0162597
943.682	0.0162809
943.760	0.0162199
943.838	0.0161223
943.916	0.0162746
943.994	0.0162461
944.072	0.0163254
944.150	0.0163630
944.228	0.0163095
944.307	0.0162563
944.385	0.0162756
944.463	0.0160544
944.541	0.0162456
944.619	0.0163077
944.697	0.0162721
944.775	0.0163491
944.853	0.0163707
944.932	0.0160914
945.010	0.0161876
945.088	0.0162447
945.166	0.0162432
945.244	0.0161260
945.322	0.0162482
945.400	0.0161666
945.478	0.0161175
945.557	0.0161378
945.635	0.0162179
945.713	0.0162493
945.791	0.0161575
945.869	0.0161717
945.947	0.0160107
946.025	0.0159520
946.103	0.0160546
946.182	0.0161768
946.260	0.0161353
946.338	0.0161128
946.416	0.0161684
946.494	0.0161623
946.572	0.0160712
946.650	0.0161121
946.728	0.0162333
946.807	0.0161636
946.885	0.0162350
946.963	0.0162280
947.041	0.0161800
947.119	0.0163630
947.197	0.0163572
947.275	0.0163544
947.353	0.0162372
947.432	0.0162799
947.510	0.0163342
947.588	0.0163082
947.666	0.0163018
947.744	0.0162473
947.822	0.0164520
947.900	0.0163773
947.978	0.0163962
948.057	0.0164251
948.135	0.0164204
948.213	0.0164167
948.291	0.0164612
948.369	0.0165543
948.447	0.0164700
948.525	0.0163859
948.603	0.0163255
948.682	0.0164938
948.760	0.0164789
948.838	0.0164656
948.916	0.0163472
948.994	0.0163723
949.072	0.0163233
949.150	0.0162765
949.228	0.0162783
949.307	0.0162865
949.385	0.0162514
949.463	0.0163268
949.541	0.0162872
949.619	0.0163598
949.697	0.0161131
949.775	0.0161090
949.853	0.0162614
949.932	0.0162318
950.010	0.0161974
950.088	0.0161771
950.166	0.0163117
950.244	0.0162474
950.322	0.0162874
950.400	0.0162115
950.478	0.0162003
950.557	0.0161276
950.635	0.0163129
950.713	0.0164003
950.791	0.0162296
950.869	0.0163236
950.947	0.0162817
951.025	0.0163796
951.103	0.0164429
951.182	0.0163480
951.260	0.0163513
951.338	0.0161668
951.416	0.0163746
951.494	0.0165347
951.572	0.0163627
951.650	0.0163566
951.728	0.0163235
951.807	0.0163990
951.885	0.0164510
951.963	0.0162450
952.041	0.0163428
952.119	0.0164529
952.197	0.0163717
952.275	0.0164527
952.353	0.0163509
952.432	0.0162015
952.510	0.0163259
952.588	0.0162346
952.666	0.0163045
952.744	0.0162670
952.822	0.0162400
952.900	0.0163491
952.978	0.0161965
953.057	0.0161098
953.135	0.0161961
953.213	0.0161391
953.291	0.0161593
953.369	0.0161742
953.447	0.0162886
953.525	0.0162878
953.603	0.0160013
953.682	0.0161757
953.760	0.0161410
953.838	0.0162479
953.916	0.0163496
953.994	0.0163180
954.072	0.0163263
954.150	0.0164729
954.228	0.0163534
954.307	0.0162498
954.385	0.0162881
954.463	0.0164416
954.541	0.0164972
954.619	0.0162742
954.697	0.0162856
954.775	0.0165734
954.853	0.0164013
954.932	0.0163138
955.010	0.0163358
955.088	0.0162737
955.166	0.0164268
955.244	0.0166190
955.322	0.0164507
955.400	0.0164396
955.478	0.0164396
955.557	0.0162785
955.635	0.0163187
955.713	0.0163301
955.791	0.0162001
955.869	0.0162552
955.947	0.0162656
956.025	0.0161198
956.103	0.0159753
956.182	0.0160098
956.260	0.0160678
956.338	0.0160847
956.416	0.0161079
956.494	0.0160169
956.572	0.0160290
956.650	0.0161565
956.728	0.0160297
956.807	0.0160104
956.885	0.0158907
956.963	0.0159504
957.041	0.0162096
957.119	0.0162743
957.197	0.0160568
957.275	0.0162214
957.353	0.0162659
957.432	0.0162556
957.510	0.0162940
957.588	0.0162899
957.666	0.0161944
957.744	0.0162956
957.822	0.0163345
957.900	0.0162650
957.978	0.0165052
958.057	0.0164439
958.135	0.0164885
958.213	0.0164078
958.291	0.0162398
958.369	0.0162717
958.447	0.0164255
958.525	0.0163654
958.603	0.0163308
958.682	0.0164162
958.760	0.0162332
958.838	0.0162194
958.916	0.0161288
958.994	0.0162226
959.072	0.0161909
959.150	0.0161965
959.228	0.0162052
959.307	0.0162628
959.385	0.0163644
959.463	0.0162368
959.541	0.0162853
959.619	0.0161843
959.697	0.0162672
959.775	0.0163245
959.853	0.0163700
959.932	0.0162682
960.010	0.0162254
960.088	0.0160884
960.166	0.0162783
960.244	0.0160394
960.322	0.0162164
960.400	0.0161356
960.478	0.0161144
960.557	0.0160734
960.635	0.0160744
960.713	0.0160384
960.791	0.0160571
960.869	0.0160603
960.947	0.0160597
961.025	0.0159766
961.103	0.0161026
961.182	0.0162292
961.260	0.0161602
961.338	0.0162795
961.416	0.0161628
961.494	0.0163268
961.572	0.0163778
961.650	0.0165563
961.728	0.0163633
961.807	0.0164484
961.885	0.0164619
961.963	0.0164220
962.041	0.0164034
962.119	0.0164460
962.197	0.0164120
962.275	0.0163881
962.353	0.0163807
962.432	0.0163010
962.510	0.0162524
962.588	0.0162548
962.666	0.0162289
962.744	0.0163851
962.822	0.0164324
962.900	0.0163469
962.978	0.0163350
963.057	0.0165468
963.135	0.0163937
963.213	0.0162498
963.291	0.0161641
963.369	0.0163366
963.447	0.0162064
963.525	0.0161519
963.603	0.0160807
963.682	0.0162685
963.760	0.0161453
963.838	0.0163538
963.916	0.0162099
963.994	0.0161995
964.072	0.0162405
964.150	0.0162544
964.228	0.0163206
964.307	0.0162615
964.385	0.0163397
964.463	0.0163628
964.541	0.0164948
964.619	0.0165524
964.697	0.0165189
964.775	0.0162616
964.853	0.0163895
964.932	0.0163964
965.010	0.0164828
965.088	0.0164208
965.166	0.0164674
965.244	0.0165847
965.322	0.0164721
965.400	0.0164650
965.478	0.0165200
965.557	0.0163575
965.635	0.0164925
965.713	0.0163597
965.791	0.0163268
965.869	0.0165540
965.947	0.0163279
966.025	0.0163665
966.103	0.0163176
966.182	0.0163196
966.260	0.0161884
966.338	0.0160297
966.416	0.0159353
966.494	0.0159830
966.572	0.0160349
966.650	0.0159246
966.728	0.0159172
966.807	0.0159626
966.885	0.0157719
966.963	0.0158372
967.041	0.0158687
967.119	0.0159297
967.197	0.0159871
967.275	0.0159889
967.353	0.0161185
967.432	0.0161108
967.510	0.0162116
967.588	0.0161698
967.666	0.0162865
967.744	0.0162756
967.822	0.0161206
967.900	0.0161844
967.978	0.0163461
968.057	0.0161758
968.135	0.0161092
968.213	0.0161462
968.291	0.0162552
968.369	0.0161792
968.447	0.0162586
968.525	0.0161221
968.603	0.0161648
968.682	0.0160918
968.760	0.0162276
968.838	0.0162077
968.916	0.0161200
968.994	0.0162326
969.072	0.0162237
969.150	0.0162128
969.228	0.0162706
969.307	0.0162962
969.385	0.0162347
969.463	0.0163891
969.541	0.0164835
969.619	0.0162712
969.697	0.0163872
969.775	0.0162493
969.853	0.0162175
969.932	0.0163485
