06/10/2022	16:28:53	Ver.	4.1	UNKNOWN
Optical Delay	650.009681	Delta X		0.078125	Sweeps	1	Scan Rate	0/0
Coordinates	Axis 1	NaN	Axis 2	NaN	Axis 3	NaN	Axis 4	NaN	Axis 5	NaN	Axis 6	0.000000
TX Power	0.000000	RX Power	0.000000

650.010	0.0169275
650.088	0.0168925
650.166	0.0168896
650.244	0.0169650
650.322	0.0167706
650.400	0.0169615
650.478	0.0167759
650.557	0.0167976
650.635	0.0168916
650.713	0.0169907
650.791	0.0168586
650.869	0.0168015
650.947	0.0168254
651.025	0.0168935
651.103	0.0169027
651.182	0.0169031
651.260	0.0169032
651.338	0.0167941
651.416	0.0167928
651.494	0.0170251
651.572	0.0170501
651.650	0.0168350
651.728	0.0168682
651.807	0.0167994
651.885	0.0168246
651.963	0.0170576
652.041	0.0169782
652.119	0.0169805
652.197	0.0170452
652.275	0.0169611
652.353	0.0168382
652.432	0.0168645
652.510	0.0169764
652.588	0.0169985
652.666	0.0168186
652.744	0.0168270
652.822	0.0168994
652.900	0.0170934
652.978	0.0169644
653.057	0.0169031
653.135	0.0169580
653.213	0.0170672
653.291	0.0168597
653.369	0.0168616
653.447	0.0169371
653.525	0.0170551
653.603	0.0168343
653.682	0.0169641
653.760	0.0169621
653.838	0.0170209
653.916	0.0171243
653.994	0.0170687
654.072	0.0170182
654.150	0.0168824
654.228	0.0170878
654.307	0.0169042
654.385	0.0169389
654.463	0.0170522
654.541	0.0168933
654.619	0.0168644
654.697	0.0170634
654.775	0.0169744
654.853	0.0168204
654.932	0.0170968
655.010	0.0170078
655.088	0.0169560
655.166	0.0169754
655.244	0.0170412
655.322	0.0170045
655.400	0.0169392
655.478	0.0169067
655.557	0.0170028
655.635	0.0170859
655.713	0.0170225
655.791	0.0170607
655.869	0.0169927
655.947	0.0170415
656.025	0.0169593
656.103	0.0169348
656.182	0.0169827
656.260	0.0170379
656.338	0.0170167
656.416	0.0170522
656.494	0.0169497
656.572	0.0170210
656.650	0.0170036
656.728	0.0170225
656.807	0.0169173
656.885	0.0171495
656.963	0.0170041
657.041	0.0171429
657.119	0.0171659
657.197	0.0170898
657.275	0.0170337
657.353	0.0170570
657.432	0.0170042
657.510	0.0170667
657.588	0.0170413
657.666	0.0170736
657.744	0.0169518
657.822	0.0169884
657.900	0.0171383
657.978	0.0172694
658.057	0.0170821
658.135	0.0172112
658.213	0.0171731
658.291	0.0170848
658.369	0.0171608
658.447	0.0171358
658.525	0.0169810
658.603	0.0171258
658.682	0.0171664
658.760	0.0170289
658.838	0.0171848
658.916	0.0170354
658.994	0.0170347
659.072	0.0171568
659.150	0.0171061
659.228	0.0171834
659.307	0.0171911
659.385	0.0173000
659.463	0.0171293
659.541	0.0170637
659.619	0.0172656
659.697	0.0171571
659.775	0.0171250
659.853	0.0173215
659.932	0.0171729
660.010	0.0172057
660.088	0.0171714
660.166	0.0172737
660.244	0.0170757
660.322	0.0172678
660.400	0.0172399
660.478	0.0171115
660.557	0.0171487
660.635	0.0171798
660.713	0.0170810
660.791	0.0172690
660.869	0.0173273
660.947	0.0172120
661.025	0.0171835
661.103	0.0172073
661.182	0.0170144
661.260	0.0172877
661.338	0.0172079
661.416	0.0170766
661.494	0.0170679
661.572	0.0171471
661.650	0.0171626
661.728	0.0172599
661.807	0.0172399
661.885	0.0171484
661.963	0.0171107
662.041	0.0171168
662.119	0.0169837
662.197	0.0169404
662.275	0.0170791
662.353	0.0170210
662.432	0.0172287
662.510	0.0171429
662.588	0.0170821
662.666	0.0171663
662.744	0.0170006
662.822	0.0170694
662.900	0.0170649
662.978	0.0171913
663.057	0.0171899
663.135	0.0170355
663.213	0.0169923
663.291	0.0171297
663.369	0.0170602
663.447	0.0171834
663.525	0.0170903
663.603	0.0171296
663.682	0.0170064
663.760	0.0171144
663.838	0.0169243
663.916	0.0170372
663.994	0.0171154
664.072	0.0170598
664.150	0.0171031
664.228	0.0169351
664.307	0.0170868
664.385	0.0170837
664.463	0.0172588
664.541	0.0170830
664.619	0.0171466
664.697	0.0171062
664.775	0.0171589
664.853	0.0171712
664.932	0.0169942
665.010	0.0170633
665.088	0.0172381
665.166	0.0170982
665.244	0.0171444
665.322	0.0171336
665.400	0.0171239
665.478	0.0171287
665.557	0.0169760
665.635	0.0171214
665.713	0.0172319
665.791	0.0170994
665.869	0.0171488
665.947	0.0170311
666.025	0.0171723
666.103	0.0170553
666.182	0.0170658
666.260	0.0170048
666.338	0.0171031
666.416	0.0171285
666.494	0.0170687
666.572	0.0171163
666.650	0.0170758
666.728	0.0170905
666.807	0.0170368
666.885	0.0171939
666.963	0.0172240
667.041	0.0170350
667.119	0.0171421
667.197	0.0171651
667.275	0.0172221
667.353	0.0171386
667.432	0.0171174
667.510	0.0170277
667.588	0.0170288
667.666	0.0169897
667.744	0.0171674
667.822	0.0170699
667.900	0.0172170
667.978	0.0171574
668.057	0.0171180
668.135	0.0172048
668.213	0.0170777
668.291	0.0170335
668.369	0.0170332
668.447	0.0171196
668.525	0.0172485
668.603	0.0170627
668.682	0.0169333
668.760	0.0170614
668.838	0.0169787
668.916	0.0171556
668.994	0.0171707
669.072	0.0170650
669.150	0.0169332
669.228	0.0170572
669.307	0.0169196
669.385	0.0170412
669.463	0.0171195
669.541	0.0171295
669.619	0.0171792
669.697	0.0171351
669.775	0.0170290
669.853	0.0168984
669.932	0.0170120
670.010	0.0170997
670.088	0.0170036
670.166	0.0170476
670.244	0.0170402
670.322	0.0169164
670.400	0.0168849
670.478	0.0169958
670.557	0.0171053
670.635	0.0171803
670.713	0.0170343
670.791	0.0170911
670.869	0.0169296
670.947	0.0169964
671.025	0.0170429
671.103	0.0169833
671.182	0.0171185
671.260	0.0170763
671.338	0.0169486
671.416	0.0170557
671.494	0.0171747
671.572	0.0170930
671.650	0.0169377
671.728	0.0170171
671.807	0.0170615
671.885	0.0169115
671.963	0.0172042
672.041	0.0170401
672.119	0.0171413
672.197	0.0168716
672.275	0.0169948
672.353	0.0170689
672.432	0.0168763
672.510	0.0171077
672.588	0.0170466
672.666	0.0170190
672.744	0.0169678
672.822	0.0170841
672.900	0.0170062
672.978	0.0168803
673.057	0.0169718
673.135	0.0170997
673.213	0.0169779
673.291	0.0167990
673.369	0.0168802
673.447	0.0169151
673.525	0.0170223
673.603	0.0172031
673.682	0.0168950
673.760	0.0170559
673.838	0.0169474
673.916	0.0168389
673.994	0.0169501
674.072	0.0171548
674.150	0.0169099
674.228	0.0170258
674.307	0.0170460
674.385	0.0169883
674.463	0.0170875
674.541	0.0169975
674.619	0.0169733
674.697	0.0170256
674.775	0.0170328
674.853	0.0169613
674.932	0.0168471
675.010	0.0169164
675.088	0.0169781
675.166	0.0170662
675.244	0.0169118
675.322	0.0169547
675.400	0.0171287
675.478	0.0169738
675.557	0.0170394
675.635	0.0170867
675.713	0.0169569
675.791	0.0169611
675.869	0.0169950
675.947	0.0169795
676.025	0.0169444
676.103	0.0169369
676.182	0.0169801
676.260	0.0170525
676.338	0.0169104
676.416	0.0170827
676.494	0.0170031
676.572	0.0170627
676.650	0.0170256
676.728	0.0171095
676.807	0.0169175
676.885	0.0167896
676.963	0.0169060
677.041	0.0169379
677.119	0.0170033
677.197	0.0170096
677.275	0.0169495
677.353	0.0169429
677.432	0.0170677
677.510	0.0169234
677.588	0.0169617
677.666	0.0169978
677.744	0.0169038
677.822	0.0168839
677.900	0.0170733
677.978	0.0170741
678.057	0.0169416
678.135	0.0169516
678.213	0.0171211
678.291	0.0169407
678.369	0.0170258
678.447	0.0168918
678.525	0.0169965
678.603	0.0168961
678.682	0.0171113
678.760	0.0169315
678.838	0.0169453
678.916	0.0170255
678.994	0.0169506
679.072	0.0168362
679.150	0.0169963
679.228	0.0170159
679.307	0.0169503
679.385	0.0170063
679.463	0.0170496
679.541	0.0170275
679.619	0.0169834
679.697	0.0169851
679.775	0.0171584
679.853	0.0171964
679.932	0.0169958
680.010	0.0169283
680.088	0.0170776
680.166	0.0171542
680.244	0.0170702
680.322	0.0171152
680.400	0.0172392
680.478	0.0170734
680.557	0.0170782
680.635	0.0170767
680.713	0.0171958
680.791	0.0170712
680.869	0.0171304
680.947	0.0170590
681.025	0.0171452
681.103	0.0169903
681.182	0.0170023
681.260	0.0170665
681.338	0.0170279
681.416	0.0170406
681.494	0.0170899
681.572	0.0170673
681.650	0.0170723
681.728	0.0171618
681.807	0.0170218
681.885	0.0170877
681.963	0.0170544
682.041	0.0171530
682.119	0.0169949
682.197	0.0170080
682.275	0.0171095
682.353	0.0169640
682.432	0.0169650
682.510	0.0169355
682.588	0.0170772
682.666	0.0170617
682.744	0.0168930
682.822	0.0170668
682.900	0.0171282
682.978	0.0171544
683.057	0.0170425
683.135	0.0169126
683.213	0.0171186
683.291	0.0169499
683.369	0.0170956
683.447	0.0170238
683.525	0.0170779
683.603	0.0171662
683.682	0.0171381
683.760	0.0169805
683.838	0.0170529
683.916	0.0170866
683.994	0.0170903
684.072	0.0170704
684.150	0.0171455
684.228	0.0171764
684.307	0.0170801
684.385	0.0170244
684.463	0.0169863
684.541	0.0171635
684.619	0.0169900
684.697	0.0170898
684.775	0.0170995
684.853	0.0170567
684.932	0.0170359
685.010	0.0170681
685.088	0.0171088
685.166	0.0171092
685.244	0.0170761
685.322	0.0171851
685.400	0.0170756
685.478	0.0171405
685.557	0.0171161
685.635	0.0171450
685.713	0.0172840
685.791	0.0171125
685.869	0.0171421
685.947	0.0171664
686.025	0.0170852
686.103	0.0170602
686.182	0.0171136
686.260	0.0171507
686.338	0.0171021
686.416	0.0170904
686.494	0.0171656
686.572	0.0170908
686.650	0.0171296
686.728	0.0171954
686.807	0.0171638
686.885	0.0172867
686.963	0.0171759
687.041	0.0171181
687.119	0.0169978
687.197	0.0169872
687.275	0.0171549
687.353	0.0171427
687.432	0.0171259
687.510	0.0171061
687.588	0.0171682
687.666	0.0171992
687.744	0.0170790
687.822	0.0170794
687.900	0.0171233
687.978	0.0170245
688.057	0.0171513
688.135	0.0169736
688.213	0.0170039
688.291	0.0170586
688.369	0.0170836
688.447	0.0170970
688.525	0.0169552
688.603	0.0170938
688.682	0.0170960
688.760	0.0171007
688.838	0.0170667
688.916	0.0169830
688.994	0.0169824
689.072	0.0171470
689.150	0.0170627
689.228	0.0170778
689.307	0.0170653
689.385	0.0169721
689.463	0.0169552
689.541	0.0170739
689.619	0.0171155
689.697	0.0170203
689.775	0.0171223
689.853	0.0170077
689.932	0.0170490
690.010	0.0170008
690.088	0.0170107
690.166	0.0169733
690.244	0.0170567
690.322	0.0169582
690.400	0.0169934
690.478	0.0170145
690.557	0.0170110
690.635	0.0170660
690.713	0.0171040
690.791	0.0170146
690.869	0.0171130
690.947	0.0171351
691.025	0.0169604
691.103	0.0170328
691.182	0.0169173
691.260	0.0169746
691.338	0.0169686
691.416	0.0170700
691.494	0.0170609
691.572	0.0170778
691.650	0.0170736
691.728	0.0170412
691.807	0.0170528
691.885	0.0170634
691.963	0.0170699
692.041	0.0171060
692.119	0.0170391
692.197	0.0170844
692.275	0.0170417
692.353	0.0170587
692.432	0.0170337
692.510	0.0171125
692.588	0.0170387
692.666	0.0170787
692.744	0.0170582
692.822	0.0171446
692.900	0.0172331
692.978	0.0170364
693.057	0.0169943
693.135	0.0170620
693.213	0.0169984
693.291	0.0169075
693.369	0.0171221
693.447	0.0169842
693.525	0.0168670
693.603	0.0170023
693.682	0.0170603
693.760	0.0170199
693.838	0.0169854
693.916	0.0169973
693.994	0.0171036
694.072	0.0170208
694.150	0.0169093
694.228	0.0169645
694.307	0.0170716
694.385	0.0169598
694.463	0.0171645
694.541	0.0170253
694.619	0.0168723
694.697	0.0170646
694.775	0.0171246
694.853	0.0171146
694.932	0.0170575
695.010	0.0170330
695.088	0.0169958
695.166	0.0170679
695.244	0.0170087
695.322	0.0170918
695.400	0.0169992
695.478	0.0169386
695.557	0.0170345
695.635	0.0170732
695.713	0.0169283
695.791	0.0168967
695.869	0.0169612
695.947	0.0169937
696.025	0.0172254
696.103	0.0169617
696.182	0.0169779
696.260	0.0170481
696.338	0.0168898
696.416	0.0170258
696.494	0.0169289
696.572	0.0170590
696.650	0.0169965
696.728	0.0169834
696.807	0.0169239
696.885	0.0169118
696.963	0.0169828
697.041	0.0170963
697.119	0.0170938
697.197	0.0169441
697.275	0.0170269
697.353	0.0170507
697.432	0.0171144
697.510	0.0169930
697.588	0.0169734
697.666	0.0171706
697.744	0.0170126
697.822	0.0169126
697.900	0.0170329
697.978	0.0168532
698.057	0.0170071
698.135	0.0169511
698.213	0.0169320
698.291	0.0169946
698.369	0.0171091
698.447	0.0170963
698.525	0.0169621
698.603	0.0170332
698.682	0.0170744
698.760	0.0170212
698.838	0.0171140
698.916	0.0170888
698.994	0.0171095
699.072	0.0170735
699.150	0.0172135
699.228	0.0171725
699.307	0.0171255
699.385	0.0170858
699.463	0.0171921
699.541	0.0171278
699.619	0.0170917
699.697	0.0171000
699.775	0.0171661
699.853	0.0171617
699.932	0.0172083
700.010	0.0171983
700.088	0.0172544
700.166	0.0171337
700.244	0.0170882
700.322	0.0169160
700.400	0.0171438
700.478	0.0172596
700.557	0.0173496
700.635	0.0172726
700.713	0.0171184
700.791	0.0171680
700.869	0.0171800
700.947	0.0172803
701.025	0.0171034
701.103	0.0172496
701.182	0.0171619
701.260	0.0172105
701.338	0.0171518
701.416	0.0171113
701.494	0.0172255
701.572	0.0170343
701.650	0.0170293
701.728	0.0172282
701.807	0.0171481
701.885	0.0171605
701.963	0.0170341
702.041	0.0170633
702.119	0.0171149
702.197	0.0170715
702.275	0.0171488
702.353	0.0170937
702.432	0.0170620
702.510	0.0172098
702.588	0.0171456
702.666	0.0170840
702.744	0.0170045
702.822	0.0171828
702.900	0.0172315
702.978	0.0170494
703.057	0.0170274
703.135	0.0171046
703.213	0.0170953
703.291	0.0170426
703.369	0.0171502
703.447	0.0171062
703.525	0.0170490
703.603	0.0170299
703.682	0.0172160
703.760	0.0169476
703.838	0.0169784
703.916	0.0171931
703.994	0.0169934
704.072	0.0169955
704.150	0.0170181
704.228	0.0171011
704.307	0.0170489
704.385	0.0170732
704.463	0.0170039
704.541	0.0170224
704.619	0.0170487
704.697	0.0170161
704.775	0.0169329
704.853	0.0170210
704.932	0.0169720
705.010	0.0170559
705.088	0.0170815
705.166	0.0170235
705.244	0.0169962
705.322	0.0169563
705.400	0.0170340
705.478	0.0169331
705.557	0.0170821
705.635	0.0169844
705.713	0.0171119
705.791	0.0170889
705.869	0.0169408
705.947	0.0170489
706.025	0.0170611
706.103	0.0169676
706.182	0.0170831
706.260	0.0171199
706.338	0.0169734
706.416	0.0169874
706.494	0.0170515
706.572	0.0170218
706.650	0.0171082
706.728	0.0170313
706.807	0.0170833
706.885	0.0171576
706.963	0.0169978
707.041	0.0169878
707.119	0.0169429
707.197	0.0170688
707.275	0.0170362
707.353	0.0169553
707.432	0.0169546
707.510	0.0171075
707.588	0.0170641
707.666	0.0170391
707.744	0.0170146
707.822	0.0169961
707.900	0.0170924
707.978	0.0170184
708.057	0.0170506
708.135	0.0170647
708.213	0.0170338
708.291	0.0170177
708.369	0.0170522
708.447	0.0170909
708.525	0.0169508
708.603	0.0169967
708.682	0.0170123
708.760	0.0170066
708.838	0.0170620
708.916	0.0171476
708.994	0.0170225
709.072	0.0169790
709.150	0.0170566
709.228	0.0170092
709.307	0.0169867
709.385	0.0169762
709.463	0.0169798
709.541	0.0169463
709.619	0.0169824
709.697	0.0169846
709.775	0.0169099
709.853	0.0168287
709.932	0.0170004
710.010	0.0170959
710.088	0.0169321
710.166	0.0170215
710.244	0.0170940
710.322	0.0169529
710.400	0.0170676
710.478	0.0169003
710.557	0.0169032
710.635	0.0169714
710.713	0.0169426
710.791	0.0169498
710.869	0.0169980
710.947	0.0168709
711.025	0.0170663
711.103	0.0170988
711.182	0.0171413
711.260	0.0170167
711.338	0.0169977
711.416	0.0171383
711.494	0.0169662
711.572	0.0168565
711.650	0.0169846
711.728	0.0169839
711.807	0.0171404
711.885	0.0171271
711.963	0.0171191
712.041	0.0170161
712.119	0.0170306
712.197	0.0170415
712.275	0.0171443
712.353	0.0171349
712.432	0.0170358
712.510	0.0170397
712.588	0.0170173
712.666	0.0170200
712.744	0.0170541
712.822	0.0171302
712.900	0.0169029
712.978	0.0170355
713.057	0.0170270
713.135	0.0170457
713.213	0.0170118
713.291	0.0170314
713.369	0.0170277
713.447	0.0171406
713.525	0.0169202
713.603	0.0170096
713.682	0.0169966
713.760	0.0170091
713.838	0.0169818
713.916	0.0170445
713.994	0.0171027
714.072	0.0170992
714.150	0.0170090
714.228	0.0169453
714.307	0.0169730
714.385	0.0168608
714.463	0.0170393
714.541	0.0170744
714.619	0.0171828
714.697	0.0169220
714.775	0.0169722
714.853	0.0170721
714.932	0.0170319
715.010	0.0169202
715.088	0.0170729
715.166	0.0170057
715.244	0.0169549
715.322	0.0171441
715.400	0.0170438
715.478	0.0169735
715.557	0.0170164
715.635	0.0171268
715.713	0.0171046
715.791	0.0170793
715.869	0.0171532
715.947	0.0170016
716.025	0.0171143
716.103	0.0170264
716.182	0.0170390
716.260	0.0170346
716.338	0.0171026
716.416	0.0170843
716.494	0.0169863
716.572	0.0171369
716.650	0.0171052
716.728	0.0169957
716.807	0.0171175
716.885	0.0170912
716.963	0.0171470
717.041	0.0170018
717.119	0.0171545
717.197	0.0170860
717.275	0.0170535
717.353	0.0170147
717.432	0.0171277
717.510	0.0171272
717.588	0.0171111
717.666	0.0171167
717.744	0.0171315
717.822	0.0170804
717.900	0.0169887
717.978	0.0170808
718.057	0.0170703
718.135	0.0170934
718.213	0.0170393
718.291	0.0169466
718.369	0.0171148
718.447	0.0172855
718.525	0.0170629
718.603	0.0170648
718.682	0.0171022
718.760	0.0171272
718.838	0.0171355
718.916	0.0170148
718.994	0.0170261
719.072	0.0170028
719.150	0.0170942
719.228	0.0171272
719.307	0.0170351
719.385	0.0169893
719.463	0.0170900
719.541	0.0170603
719.619	0.0169922
719.697	0.0169833
719.775	0.0170800
719.853	0.0170658
719.932	0.0171127
720.010	0.0170810
720.088	0.0170454
720.166	0.0169758
720.244	0.0169552
720.322	0.0171635
720.400	0.0171288
720.478	0.0170968
720.557	0.0171023
720.635	0.0170145
720.713	0.0170423
720.791	0.0170194
720.869	0.0171407
720.947	0.0171964
721.025	0.0170674
721.103	0.0170268
721.182	0.0170850
721.260	0.0170033
721.338	0.0171046
721.416	0.0170033
721.494	0.0170403
721.572	0.0171088
721.650	0.0169501
721.728	0.0171278
721.807	0.0170520
721.885	0.0169146
721.963	0.0169881
722.041	0.0171767
722.119	0.0171172
722.197	0.0171196
722.275	0.0171156
722.353	0.0170333
722.432	0.0169828
722.510	0.0169398
722.588	0.0170518
722.666	0.0172274
722.744	0.0171629
722.822	0.0171227
722.900	0.0171223
722.978	0.0170660
723.057	0.0171139
723.135	0.0170969
723.213	0.0171021
723.291	0.0169061
723.369	0.0171018
723.447	0.0171043
723.525	0.0170071
723.603	0.0169900
723.682	0.0172230
723.760	0.0170528
723.838	0.0170569
723.916	0.0169321
723.994	0.0169125
724.072	0.0168140
724.150	0.0169518
724.228	0.0169779
724.307	0.0167458
724.385	0.0166927
724.463	0.0168246
724.541	0.0168790
724.619	0.0170642
724.697	0.0171091
724.775	0.0171248
724.853	0.0172575
724.932	0.0175004
725.010	0.0174142
725.088	0.0174270
725.166	0.0173126
725.244	0.0175076
725.322	0.0173576
725.400	0.0175153
725.478	0.0173140
725.557	0.0170788
725.635	0.0170429
725.713	0.0168490
725.791	0.0166565
725.869	0.0167076
725.947	0.0164629
726.025	0.0164177
726.103	0.0163461
726.182	0.0164738
726.260	0.0166728
726.338	0.0166908
726.416	0.0168967
726.494	0.0170785
726.572	0.0172814
726.650	0.0173059
726.728	0.0174547
726.807	0.0176800
726.885	0.0178230
726.963	0.0177538
727.041	0.0176062
727.119	0.0176455
727.197	0.0173444
727.275	0.0173303
727.353	0.0173400
727.432	0.0171619
727.510	0.0169819
727.588	0.0170378
727.666	0.0169555
727.744	0.0169558
727.822	0.0169169
727.900	0.0169057
727.978	0.0168673
728.057	0.0168652
728.135	0.0167469
728.213	0.0166901
728.291	0.0167098
728.369	0.0166233
728.447	0.0165199
728.525	0.0165642
728.603	0.0165854
728.682	0.0165950
728.760	0.0166251
728.838	0.0167017
728.916	0.0167937
728.994	0.0168591
729.072	0.0172279
729.150	0.0171946
729.228	0.0173687
729.307	0.0175926
729.385	0.0177895
729.463	0.0178886
729.541	0.0178796
729.619	0.0178182
729.697	0.0177658
729.775	0.0177278
729.853	0.0174135
729.932	0.0173346
730.010	0.0170499
730.088	0.0167187
730.166	0.0165775
730.244	0.0162113
730.322	0.0161181
730.400	0.0159470
730.478	0.0158056
730.557	0.0157254
730.635	0.0157777
730.713	0.0160697
730.791	0.0162048
730.869	0.0161972
730.947	0.0163679
731.025	0.0167690
731.103	0.0170618
731.182	0.0173094
731.260	0.0174049
731.338	0.0176569
731.416	0.0177780
731.494	0.0180106
731.572	0.0180638
731.650	0.0180165
731.728	0.0180398
731.807	0.0179805
731.885	0.0177327
731.963	0.0176838
732.041	0.0175001
732.119	0.0172124
732.197	0.0171281
732.275	0.0168423
732.353	0.0166096
732.432	0.0164450
732.510	0.0163824
732.588	0.0161642
732.666	0.0161801
732.744	0.0162165
732.822	0.0160505
732.900	0.0161990
732.978	0.0162852
733.057	0.0164557
733.135	0.0164471
733.213	0.0167120
733.291	0.0167973
733.369	0.0168847
733.447	0.0170556
733.525	0.0171063
733.603	0.0173453
733.682	0.0172377
733.760	0.0174875
733.838	0.0176041
733.916	0.0175815
733.994	0.0176823
734.072	0.0175605
734.150	0.0177894
734.228	0.0176380
734.307	0.0176634
734.385	0.0174320
734.463	0.0173788
734.541	0.0173602
734.619	0.0172746
734.697	0.0169970
734.775	0.0167857
734.853	0.0167397
734.932	0.0165703
735.010	0.0164540
735.088	0.0164640
735.166	0.0163929
735.244	0.0164137
735.322	0.0165564
735.400	0.0164758
735.478	0.0166605
735.557	0.0168404
735.635	0.0169086
735.713	0.0170016
735.791	0.0171688
735.869	0.0171759
735.947	0.0172880
736.025	0.0174052
736.103	0.0175230
736.182	0.0174148
736.260	0.0175700
736.338	0.0175447
736.416	0.0174967
736.494	0.0175637
736.572	0.0172923
736.650	0.0172613
736.728	0.0172521
736.807	0.0170233
736.885	0.0170134
736.963	0.0169433
737.041	0.0167062
737.119	0.0166777
737.197	0.0167499
737.275	0.0167553
737.353	0.0168235
737.432	0.0167333
737.510	0.0170351
737.588	0.0169833
737.666	0.0170763
737.744	0.0170560
737.822	0.0173222
737.900	0.0172620
737.978	0.0173248
738.057	0.0172981
738.135	0.0172142
738.213	0.0172137
738.291	0.0172697
738.369	0.0171773
738.447	0.0171684
738.525	0.0170704
738.603	0.0169540
738.682	0.0171017
738.760	0.0171329
738.838	0.0168861
738.916	0.0169200
738.994	0.0169532
739.072	0.0169294
739.150	0.0170863
739.228	0.0170402
739.307	0.0170718
739.385	0.0171204
739.463	0.0170739
739.541	0.0170410
739.619	0.0170663
739.697	0.0170267
739.775	0.0169628
739.853	0.0169828
739.932	0.0169843
740.010	0.0168420
740.088	0.0169820
740.166	0.0169031
740.244	0.0170304
740.322	0.0169746
740.400	0.0169846
740.478	0.0169939
740.557	0.0171376
740.635	0.0171637
740.713	0.0172078
740.791	0.0171417
740.869	0.0172926
740.947	0.0174160
741.025	0.0173209
741.103	0.0172663
741.182	0.0172182
741.260	0.0172225
741.338	0.0170512
741.416	0.0170371
741.494	0.0168654
741.572	0.0170206
741.650	0.0169948
741.728	0.0169373
741.807	0.0168475
741.885	0.0168611
741.963	0.0167548
742.041	0.0166840
742.119	0.0167139
742.197	0.0168895
742.275	0.0169077
742.353	0.0169730
742.432	0.0170509
742.510	0.0169748
742.588	0.0172144
742.666	0.0172890
742.744	0.0173741
742.822	0.0174161
742.900	0.0173667
742.978	0.0173421
743.057	0.0173995
743.135	0.0173705
743.213	0.0171260
743.291	0.0171301
743.369	0.0171920
743.447	0.0170705
743.525	0.0170305
743.603	0.0170901
743.682	0.0170605
743.760	0.0170050
743.838	0.0168969
743.916	0.0169246
743.994	0.0169146
744.072	0.0169145
744.150	0.0168598
744.228	0.0168266
744.307	0.0168289
744.385	0.0169471
744.463	0.0168147
744.541	0.0167880
744.619	0.0168426
744.697	0.0169078
744.775	0.0169067
744.853	0.0167680
744.932	0.0170094
745.010	0.0170997
745.088	0.0170927
745.166	0.0172974
745.244	0.0172885
745.322	0.0173379
745.400	0.0174751
745.478	0.0174972
745.557	0.0173046
745.635	0.0173788
745.713	0.0172234
745.791	0.0173029
745.869	0.0171320
745.947	0.0170296
746.025	0.0168951
746.103	0.0169295
746.182	0.0167848
746.260	0.0166046
746.338	0.0166196
746.416	0.0166865
746.494	0.0166068
746.572	0.0164401
746.650	0.0165481
746.728	0.0165081
746.807	0.0166837
746.885	0.0168941
746.963	0.0168709
747.041	0.0168811
747.119	0.0170399
747.197	0.0170211
747.275	0.0171484
747.353	0.0170837
747.432	0.0174038
747.510	0.0173847
747.588	0.0170964
747.666	0.0172401
747.744	0.0172395
747.822	0.0172932
747.900	0.0170352
747.978	0.0172737
748.057	0.0171155
748.135	0.0169971
748.213	0.0169722
748.291	0.0169613
748.369	0.0168726
748.447	0.0170344
748.525	0.0169644
748.603	0.0170057
748.682	0.0169606
748.760	0.0168745
748.838	0.0169239
748.916	0.0171212
748.994	0.0169830
749.072	0.0169078
749.150	0.0168643
749.228	0.0170560
749.307	0.0169720
749.385	0.0170120
749.463	0.0169762
749.541	0.0169418
749.619	0.0169722
749.697	0.0170188
749.775	0.0168542
749.853	0.0170506
749.932	0.0171211
750.010	0.0172211
750.088	0.0171812
750.166	0.0172488
750.244	0.0173177
750.322	0.0171973
750.400	0.0171845
750.478	0.0172844
750.557	0.0172470
750.635	0.0171027
750.713	0.0171803
750.791	0.0172209
750.869	0.0170774
750.947	0.0169276
751.025	0.0169632
751.103	0.0168555
751.182	0.0167867
751.260	0.0168353
751.338	0.0167720
751.416	0.0168250
751.494	0.0168054
751.572	0.0169809
751.650	0.0169536
751.728	0.0168295
751.807	0.0168107
751.885	0.0169329
751.963	0.0168769
752.041	0.0168634
752.119	0.0169991
752.197	0.0169321
752.275	0.0169592
752.353	0.0169965
752.432	0.0170705
752.510	0.0169397
752.588	0.0168049
752.666	0.0170119
752.744	0.0170528
752.822	0.0171366
752.900	0.0169894
752.978	0.0169712
753.057	0.0170760
753.135	0.0170072
753.213	0.0170093
753.291	0.0169438
753.369	0.0170647
753.447	0.0170592
753.525	0.0169447
753.603	0.0169873
753.682	0.0169310
753.760	0.0169339
753.838	0.0167879
753.916	0.0169093
753.994	0.0169075
754.072	0.0168890
754.150	0.0168949
754.228	0.0167894
754.307	0.0167969
754.385	0.0169485
754.463	0.0168703
754.541	0.0168643
754.619	0.0169795
754.697	0.0168113
754.775	0.0169167
754.853	0.0168279
754.932	0.0169769
755.010	0.0170437
755.088	0.0170309
755.166	0.0170210
755.244	0.0170789
755.322	0.0171121
755.400	0.0170466
755.478	0.0170367
755.557	0.0171059
755.635	0.0169906
755.713	0.0171164
755.791	0.0171626
755.869	0.0169855
755.947	0.0170011
756.025	0.0170849
756.103	0.0170514
756.182	0.0168517
756.260	0.0169165
756.338	0.0169260
756.416	0.0168204
756.494	0.0169159
756.572	0.0169859
756.650	0.0170318
756.728	0.0170618
756.807	0.0169305
756.885	0.0171043
756.963	0.0169932
757.041	0.0173050
757.119	0.0171463
757.197	0.0171417
757.275	0.0172176
757.353	0.0172600
757.432	0.0171600
757.510	0.0172025
757.588	0.0170811
757.666	0.0171819
757.744	0.0170665
757.822	0.0169881
757.900	0.0170335
757.978	0.0170336
758.057	0.0169997
758.135	0.0169326
758.213	0.0169403
758.291	0.0167815
758.369	0.0169151
758.447	0.0167940
758.525	0.0170037
758.603	0.0169818
758.682	0.0169212
758.760	0.0169084
758.838	0.0171626
758.916	0.0170077
758.994	0.0171928
759.072	0.0171338
759.150	0.0171300
759.228	0.0170065
759.307	0.0173107
759.385	0.0172932
759.463	0.0172173
759.541	0.0172070
759.619	0.0171540
759.697	0.0170896
759.775	0.0170103
759.853	0.0170438
759.932	0.0169184
760.010	0.0170255
760.088	0.0169234
760.166	0.0168594
760.244	0.0169698
760.322	0.0169411
760.400	0.0168452
760.478	0.0168613
760.557	0.0169476
760.635	0.0169888
760.713	0.0170229
760.791	0.0170390
760.869	0.0171128
760.947	0.0171934
761.025	0.0170980
761.103	0.0171558
761.182	0.0170121
761.260	0.0171223
761.338	0.0171023
761.416	0.0172068
761.494	0.0170927
761.572	0.0171272
761.650	0.0170806
761.728	0.0171741
761.807	0.0172079
761.885	0.0171513
761.963	0.0170276
762.041	0.0172755
762.119	0.0173113
762.197	0.0173033
762.275	0.0172272
762.353	0.0171057
762.432	0.0171055
762.510	0.0172227
762.588	0.0172859
762.666	0.0171176
762.744	0.0170639
762.822	0.0169786
762.900	0.0169447
762.978	0.0169823
763.057	0.0168697
763.135	0.0168491
763.213	0.0168571
763.291	0.0168172
763.369	0.0168088
763.447	0.0167612
763.525	0.0167174
763.603	0.0167018
763.682	0.0167529
763.760	0.0167152
763.838	0.0168981
763.916	0.0168183
763.994	0.0169865
764.072	0.0168253
764.150	0.0170361
764.228	0.0170902
764.307	0.0171867
764.385	0.0172010
764.463	0.0173345
764.541	0.0173489
764.619	0.0174031
764.697	0.0173877
764.775	0.0174423
764.853	0.0175530
764.932	0.0175584
765.010	0.0175436
765.088	0.0176215
765.166	0.0174879
765.244	0.0176029
765.322	0.0176138
765.400	0.0175729
765.478	0.0176383
765.557	0.0174535
765.635	0.0173037
765.713	0.0171973
765.791	0.0171747
765.869	0.0169670
765.947	0.0168835
766.025	0.0168018
766.103	0.0166520
766.182	0.0166699
766.260	0.0165310
766.338	0.0163783
766.416	0.0165160
766.494	0.0165719
766.572	0.0165713
766.650	0.0164951
766.728	0.0165462
766.807	0.0166916
766.885	0.0166809
766.963	0.0167371
767.041	0.0169164
767.119	0.0168392
767.197	0.0171869
767.275	0.0171328
767.353	0.0172654
767.432	0.0172907
767.510	0.0173370
767.588	0.0175367
767.666	0.0175413
767.744	0.0174953
767.822	0.0176941
767.900	0.0176431
767.978	0.0177219
768.057	0.0177218
768.135	0.0177747
768.213	0.0178261
768.291	0.0178564
768.369	0.0179215
768.447	0.0176823
768.525	0.0175809
768.603	0.0176031
768.682	0.0175515
768.760	0.0174090
768.838	0.0171259
768.916	0.0169640
768.994	0.0167507
769.072	0.0165518
769.150	0.0164742
769.228	0.0161672
769.307	0.0161716
769.385	0.0160670
769.463	0.0159021
769.541	0.0159085
769.619	0.0158191
769.697	0.0160049
769.775	0.0160484
769.853	0.0160403
769.932	0.0162469
770.010	0.0163238
770.088	0.0166769
770.166	0.0168083
770.244	0.0168753
770.322	0.0171468
770.400	0.0173688
770.478	0.0174041
770.557	0.0176563
770.635	0.0176328
770.713	0.0177528
770.791	0.0177460
770.869	0.0177922
770.947	0.0179564
771.025	0.0177840
771.103	0.0177444
771.182	0.0177657
771.260	0.0179050
771.338	0.0177600
771.416	0.0176859
771.494	0.0175060
771.572	0.0174799
771.650	0.0174736
771.728	0.0172440
771.807	0.0170922
771.885	0.0168713
771.963	0.0166163
772.041	0.0163935
772.119	0.0162811
772.197	0.0162242
772.275	0.0162581
772.353	0.0160417
772.432	0.0159535
772.510	0.0160176
772.588	0.0160139
772.666	0.0160365
772.744	0.0160807
772.822	0.0162458
772.900	0.0161512
772.978	0.0162624
773.057	0.0162241
773.135	0.0163682
773.213	0.0165540
773.291	0.0167089
773.369	0.0167533
773.447	0.0168148
773.525	0.0171449
773.603	0.0172601
773.682	0.0175205
773.760	0.0176735
773.838	0.0177898
773.916	0.0179322
773.994	0.0181646
774.072	0.0182219
774.150	0.0181390
774.228	0.0181651
774.307	0.0180100
774.385	0.0181757
774.463	0.0179302
774.541	0.0178674
774.619	0.0177568
774.697	0.0174194
774.775	0.0173319
774.853	0.0171912
774.932	0.0168448
775.010	0.0165885
775.088	0.0164395
775.166	0.0162209
775.244	0.0160347
775.322	0.0159109
775.400	0.0157903
775.478	0.0157286
775.557	0.0158128
775.635	0.0157524
775.713	0.0156760
775.791	0.0158926
775.869	0.0159302
775.947	0.0161237
776.025	0.0163101
776.103	0.0163664
776.182	0.0164957
776.260	0.0167587
776.338	0.0169685
776.416	0.0170871
776.494	0.0173798
776.572	0.0175637
776.650	0.0177415
776.728	0.0178554
776.807	0.0181516
776.885	0.0181683
776.963	0.0181558
777.041	0.0181631
777.119	0.0182092
777.197	0.0180910
777.275	0.0180000
777.353	0.0179483
777.432	0.0177008
777.510	0.0175411
777.588	0.0172829
777.666	0.0171053
777.744	0.0168284
777.822	0.0167185
777.900	0.0165196
777.978	0.0161536
778.057	0.0161542
778.135	0.0159866
778.213	0.0158914
778.291	0.0158414
778.369	0.0160008
778.447	0.0160526
778.525	0.0162480
778.603	0.0162852
778.682	0.0164468
778.760	0.0165703
778.838	0.0166600
778.916	0.0169525
778.994	0.0169711
779.072	0.0171576
779.150	0.0174871
779.228	0.0174899
779.307	0.0175628
779.385	0.0176666
779.463	0.0179670
779.541	0.0181217
779.619	0.0181597
779.697	0.0180449
779.775	0.0182738
779.853	0.0182076
779.932	0.0181567
780.010	0.0182516
780.088	0.0180522
780.166	0.0178791
780.244	0.0177714
780.322	0.0175027
780.400	0.0173666
780.478	0.0170850
780.557	0.0169324
780.635	0.0167467
780.713	0.0164808
780.791	0.0162227
780.869	0.0162051
780.947	0.0161535
781.025	0.0159011
781.103	0.0159540
781.182	0.0159374
781.260	0.0160882
781.338	0.0160542
781.416	0.0160128
781.494	0.0162814
781.572	0.0163965
781.650	0.0166671
781.728	0.0168761
781.807	0.0170241
781.885	0.0172545
781.963	0.0174768
782.041	0.0176881
782.119	0.0177248
782.197	0.0178535
782.275	0.0177753
782.353	0.0178785
782.432	0.0180014
782.510	0.0178591
782.588	0.0178094
782.666	0.0176855
782.744	0.0175530
782.822	0.0175945
782.900	0.0173413
782.978	0.0171329
783.057	0.0172211
783.135	0.0169663
783.213	0.0172192
783.291	0.0170193
783.369	0.0168647
783.447	0.0168756
783.525	0.0170651
783.603	0.0171259
783.682	0.0170766
783.760	0.0170934
783.838	0.0173167
783.916	0.0172400
783.994	0.0172390
784.072	0.0171732
784.150	0.0172042
784.228	0.0173063
784.307	0.0171797
784.385	0.0173216
784.463	0.0172701
784.541	0.0170069
784.619	0.0171003
784.697	0.0169628
784.775	0.0167754
784.853	0.0168456
784.932	0.0167185
785.010	0.0166936
785.088	0.0168448
785.166	0.0167131
785.244	0.0166944
785.322	0.0167449
785.400	0.0168371
785.478	0.0168475
785.557	0.0168208
785.635	0.0169217
785.713	0.0171232
785.791	0.0171862
785.869	0.0172358
785.947	0.0170669
786.025	0.0171705
786.103	0.0173663
786.182	0.0172694
786.260	0.0173930
786.338	0.0172858
786.416	0.0172789
786.494	0.0172407
786.572	0.0171291
786.650	0.0170116
786.728	0.0169186
786.807	0.0168169
786.885	0.0168601
786.963	0.0168571
787.041	0.0166769
787.119	0.0168592
787.197	0.0167674
787.275	0.0167855
787.353	0.0168992
787.432	0.0169531
787.510	0.0169410
787.588	0.0169823
787.666	0.0171030
787.744	0.0171057
787.822	0.0172924
787.900	0.0173335
787.978	0.0175222
788.057	0.0174914
788.135	0.0176563
788.213	0.0176450
788.291	0.0177281
788.369	0.0177908
788.447	0.0178934
788.525	0.0177727
788.603	0.0175137
788.682	0.0176219
788.760	0.0174654
788.838	0.0171511
788.916	0.0171426
788.994	0.0171642
789.072	0.0171052
789.150	0.0169098
789.228	0.0166624
789.307	0.0165839
789.385	0.0165599
789.463	0.0162646
789.541	0.0162143
789.619	0.0162575
789.697	0.0162067
789.775	0.0163171
789.853	0.0161615
789.932	0.0163481
790.010	0.0164642
790.088	0.0166850
790.166	0.0167671
790.244	0.0170549
790.322	0.0171259
790.400	0.0173556
790.478	0.0173485
790.557	0.0175481
790.635	0.0177094
790.713	0.0176875
790.791	0.0176723
790.869	0.0177615
790.947	0.0178526
791.025	0.0176996
791.103	0.0176689
791.182	0.0175116
791.260	0.0173386
791.338	0.0173607
791.416	0.0171814
791.494	0.0169531
791.572	0.0166209
791.650	0.0165390
791.728	0.0162020
791.807	0.0161957
791.885	0.0161692
791.963	0.0161031
792.041	0.0160452
792.119	0.0159301
792.197	0.0160361
792.275	0.0160498
792.353	0.0161583
792.432	0.0164262
792.510	0.0165073
792.588	0.0167580
792.666	0.0169519
792.744	0.0172232
792.822	0.0173219
792.900	0.0174657
792.978	0.0177035
793.057	0.0179060
793.135	0.0178039
793.213	0.0179688
793.291	0.0180084
793.369	0.0181065
793.447	0.0179578
793.525	0.0179040
793.603	0.0179678
793.682	0.0179549
793.760	0.0178786
793.838	0.0176287
793.916	0.0175266
793.994	0.0175869
794.072	0.0174788
794.150	0.0174051
794.228	0.0171458
794.307	0.0170299
794.385	0.0167160
794.463	0.0166215
794.541	0.0163939
794.619	0.0163061
794.697	0.0160202
794.775	0.0159064
794.853	0.0157761
794.932	0.0156664
795.010	0.0155759
795.088	0.0156281
795.166	0.0156242
795.244	0.0156822
795.322	0.0158687
795.400	0.0161264
795.478	0.0161982
795.557	0.0164991
795.635	0.0168124
795.713	0.0170375
795.791	0.0175293
795.869	0.0177032
795.947	0.0178810
796.025	0.0180709
796.103	0.0183191
796.182	0.0184197
796.260	0.0186034
796.338	0.0185831
796.416	0.0183118
796.494	0.0183182
796.572	0.0182413
796.650	0.0179334
796.728	0.0177918
796.807	0.0176662
796.885	0.0174316
796.963	0.0173996
797.041	0.0171198
797.119	0.0169270
797.197	0.0167961
797.275	0.0167393
797.353	0.0167105
797.432	0.0166872
797.510	0.0166787
797.588	0.0165187
797.666	0.0165775
797.744	0.0165038
797.822	0.0165261
797.900	0.0165723
797.978	0.0165595
798.057	0.0167535
798.135	0.0167462
798.213	0.0167072
798.291	0.0167680
798.369	0.0169524
798.447	0.0168977
798.525	0.0168496
798.603	0.0169883
798.682	0.0169869
798.760	0.0170772
798.838	0.0170753
798.916	0.0169736
798.994	0.0169834
799.072	0.0170068
799.150	0.0170531
799.228	0.0170783
799.307	0.0171422
799.385	0.0170263
799.463	0.0170261
799.541	0.0170744
799.619	0.0167938
799.697	0.0169410
799.775	0.0169814
799.853	0.0169080
799.932	0.0169073
800.010	0.0169557
800.088	0.0171124
800.166	0.0171474
800.244	0.0170790
800.322	0.0171354
800.400	0.0173296
800.478	0.0176257
800.557	0.0175608
800.635	0.0176247
800.713	0.0178846
800.791	0.0178548
800.869	0.0181902
800.947	0.0184457
801.025	0.0184196
801.103	0.0184019
801.182	0.0185845
801.260	0.0185716
801.338	0.0185212
801.416	0.0181898
801.494	0.0180653
801.572	0.0178930
801.650	0.0176697
801.728	0.0174078
801.807	0.0171661
801.885	0.0170216
801.963	0.0167480
802.041	0.0166044
802.119	0.0163553
802.197	0.0161366
802.275	0.0160344
802.353	0.0160227
802.432	0.0158688
802.510	0.0160666
802.588	0.0158691
802.666	0.0159960
802.744	0.0160892
802.822	0.0161737
802.900	0.0162383
802.978	0.0163331
803.057	0.0164485
803.135	0.0166908
803.213	0.0166685
803.291	0.0167216
803.369	0.0167385
803.447	0.0167961
803.525	0.0167891
803.603	0.0168065
803.682	0.0166124
803.760	0.0165648
803.838	0.0166711
803.916	0.0164178
803.994	0.0164433
804.072	0.0165327
804.150	0.0166684
804.228	0.0166495
804.307	0.0168282
804.385	0.0168325
804.463	0.0170439
804.541	0.0172481
804.619	0.0173463
804.697	0.0177795
804.775	0.0180347
804.853	0.0180646
804.932	0.0184111
805.010	0.0185818
805.088	0.0187257
805.166	0.0188521
805.244	0.0188364
805.322	0.0189104
805.400	0.0187875
805.478	0.0187448
805.557	0.0185634
805.635	0.0184547
805.713	0.0184213
805.791	0.0181833
805.869	0.0182052
805.947	0.0178213
806.025	0.0176473
806.103	0.0175933
806.182	0.0174007
806.260	0.0173566
806.338	0.0172150
806.416	0.0170541
806.494	0.0170518
806.572	0.0169413
806.650	0.0167976
806.728	0.0167083
806.807	0.0165315
806.885	0.0164005
806.963	0.0163136
807.041	0.0161182
807.119	0.0159454
807.197	0.0158972
807.275	0.0156940
807.353	0.0156171
807.432	0.0155087
807.510	0.0153835
807.588	0.0153577
807.666	0.0153165
807.744	0.0154163
807.822	0.0154943
807.900	0.0157034
807.978	0.0158404
808.057	0.0158595
808.135	0.0159348
808.213	0.0161310
808.291	0.0163249
808.369	0.0165961
808.447	0.0167741
808.525	0.0168734
808.603	0.0170519
808.682	0.0172038
808.760	0.0173686
808.838	0.0173839
808.916	0.0173957
808.994	0.0174794
809.072	0.0173595
809.150	0.0174817
809.228	0.0174580
809.307	0.0175685
809.385	0.0174522
809.463	0.0175604
809.541	0.0174674
809.619	0.0174307
809.697	0.0174266
809.775	0.0175003
809.853	0.0175327
809.932	0.0176150
810.010	0.0176305
810.088	0.0178776
810.166	0.0179453
810.244	0.0180146
810.322	0.0180794
810.400	0.0181726
810.478	0.0183943
810.557	0.0182131
810.635	0.0183157
810.713	0.0182011
810.791	0.0182944
810.869	0.0180516
810.947	0.0179646
811.025	0.0176221
811.103	0.0175127
811.182	0.0173573
811.260	0.0170426
811.338	0.0167448
811.416	0.0166063
811.494	0.0163490
811.572	0.0162315
811.650	0.0161547
811.728	0.0159818
811.807	0.0158177
811.885	0.0158743
811.963	0.0159708
812.041	0.0159830
812.119	0.0161086
812.197	0.0160315
812.275	0.0160718
812.353	0.0162497
812.432	0.0162804
812.510	0.0163086
812.588	0.0165339
812.666	0.0165367
812.744	0.0166040
812.822	0.0166151
812.900	0.0166985
812.978	0.0167014
813.057	0.0166527
813.135	0.0165867
813.213	0.0166939
813.291	0.0167525
813.369	0.0167207
813.447	0.0166473
813.525	0.0166808
813.603	0.0168385
813.682	0.0167138
813.760	0.0169707
813.838	0.0168866
813.916	0.0167884
813.994	0.0169662
814.072	0.0170488
814.150	0.0171073
814.228	0.0169981
814.307	0.0171043
814.385	0.0172068
814.463	0.0172408
814.541	0.0171941
814.619	0.0174624
814.697	0.0174398
814.775	0.0174288
814.853	0.0174122
814.932	0.0174217
815.010	0.0174826
815.088	0.0175266
815.166	0.0173946
815.244	0.0174409
815.322	0.0175724
815.400	0.0175880
815.478	0.0174505
815.557	0.0173921
815.635	0.0174651
815.713	0.0175153
815.791	0.0175839
815.869	0.0174486
815.947	0.0172610
816.025	0.0174349
816.103	0.0173395
816.182	0.0172260
816.260	0.0173008
816.338	0.0172939
816.416	0.0172402
816.494	0.0173268
816.572	0.0173408
816.650	0.0173808
816.728	0.0173888
816.807	0.0172916
816.885	0.0173610
816.963	0.0173553
817.041	0.0173273
817.119	0.0171567
817.197	0.0171992
817.275	0.0171524
817.353	0.0172575
817.432	0.0170792
817.510	0.0170963
817.588	0.0168350
817.666	0.0168536
817.744	0.0168107
817.822	0.0165655
817.900	0.0166581
817.978	0.0164294
818.057	0.0162350
818.135	0.0160966
818.213	0.0158537
818.291	0.0158167
818.369	0.0157810
818.447	0.0157241
818.525	0.0157806
818.603	0.0157373
818.682	0.0157343
818.760	0.0159888
818.838	0.0159358
818.916	0.0160583
818.994	0.0163709
819.072	0.0165599
819.150	0.0168554
819.228	0.0168532
819.307	0.0169215
819.385	0.0173928
819.463	0.0175887
819.541	0.0174609
819.619	0.0176570
819.697	0.0178442
819.775	0.0178650
819.853	0.0178493
819.932	0.0178644
820.010	0.0177785
820.088	0.0178091
820.166	0.0175288
820.244	0.0175426
820.322	0.0173990
820.400	0.0173512
820.478	0.0171901
820.557	0.0172573
820.635	0.0171739
820.713	0.0171997
820.791	0.0172054
820.869	0.0171677
820.947	0.0173327
821.025	0.0172786
821.103	0.0171838
821.182	0.0174641
821.260	0.0174000
821.338	0.0175171
821.416	0.0175088
821.494	0.0174792
821.572	0.0174308
821.650	0.0173792
821.728	0.0173096
821.807	0.0174052
821.885	0.0174812
821.963	0.0172558
822.041	0.0171934
822.119	0.0174214
822.197	0.0173704
822.275	0.0172931
822.353	0.0171679
822.432	0.0170735
822.510	0.0172973
822.588	0.0172855
822.666	0.0173192
822.744	0.0172132
822.822	0.0170649
822.900	0.0170055
822.978	0.0170261
823.057	0.0169502
823.135	0.0169431
823.213	0.0168820
823.291	0.0167320
823.369	0.0164352
823.447	0.0162547
823.525	0.0165172
823.603	0.0165065
823.682	0.0164819
823.760	0.0162775
823.838	0.0163799
823.916	0.0163705
823.994	0.0164426
824.072	0.0165877
824.150	0.0165684
824.228	0.0166773
824.307	0.0168315
824.385	0.0168368
824.463	0.0168173
824.541	0.0169590
824.619	0.0171626
824.697	0.0171478
824.775	0.0172783
824.853	0.0171660
824.932	0.0171122
825.010	0.0171064
825.088	0.0169982
825.166	0.0171331
825.244	0.0168600
825.322	0.0169207
825.400	0.0167883
825.478	0.0167500
825.557	0.0166876
825.635	0.0165638
825.713	0.0164577
825.791	0.0163747
825.869	0.0165454
825.947	0.0163279
826.025	0.0163528
826.103	0.0165751
826.182	0.0168122
826.260	0.0167215
826.338	0.0168812
826.416	0.0170122
826.494	0.0174570
826.572	0.0175616
826.650	0.0176086
826.728	0.0178874
826.807	0.0179704
826.885	0.0181850
826.963	0.0184344
827.041	0.0184904
827.119	0.0184688
827.197	0.0185980
827.275	0.0185783
827.353	0.0184119
827.432	0.0183088
827.510	0.0183565
827.588	0.0181184
827.666	0.0178053
827.744	0.0176703
827.822	0.0176665
827.900	0.0173846
827.978	0.0171017
828.057	0.0171423
828.135	0.0169846
828.213	0.0168990
828.291	0.0167671
828.369	0.0167775
828.447	0.0167206
828.525	0.0165977
828.603	0.0167216
828.682	0.0166710
828.760	0.0166732
828.838	0.0166305
828.916	0.0166193
828.994	0.0167150
829.072	0.0165745
829.150	0.0165589
829.228	0.0165730
829.307	0.0167258
829.385	0.0165182
829.463	0.0166072
829.541	0.0167375
829.619	0.0167044
829.697	0.0166468
829.775	0.0166348
829.853	0.0168209
829.932	0.0168565
830.010	0.0168392
830.088	0.0167963
830.166	0.0168089
830.244	0.0168631
830.322	0.0168508
830.400	0.0167646
830.478	0.0169798
830.557	0.0168987
830.635	0.0167986
830.713	0.0168316
830.791	0.0169370
830.869	0.0168836
830.947	0.0167629
831.025	0.0169196
831.103	0.0168009
831.182	0.0167387
831.260	0.0166843
831.338	0.0167094
831.416	0.0166988
831.494	0.0167199
831.572	0.0169181
831.650	0.0167866
831.728	0.0169663
831.807	0.0170741
831.885	0.0171171
831.963	0.0172443
832.041	0.0171264
832.119	0.0172836
832.197	0.0172928
832.275	0.0174253
832.353	0.0173679
832.432	0.0175507
832.510	0.0175428
832.588	0.0175471
832.666	0.0174584
832.744	0.0175941
832.822	0.0175578
832.900	0.0174740
832.978	0.0173964
833.057	0.0172279
833.135	0.0171407
833.213	0.0170961
833.291	0.0170303
833.369	0.0169809
833.447	0.0168685
833.525	0.0171749
833.603	0.0170249
833.682	0.0170006
833.760	0.0168203
833.838	0.0168391
833.916	0.0168612
833.994	0.0168409
834.072	0.0168286
834.150	0.0166796
834.228	0.0169580
834.307	0.0169173
834.385	0.0169678
834.463	0.0169102
834.541	0.0168776
834.619	0.0168985
834.697	0.0169286
834.775	0.0169527
834.853	0.0168788
834.932	0.0168179
835.010	0.0168507
835.088	0.0168019
835.166	0.0167324
835.244	0.0168163
835.322	0.0168642
835.400	0.0168580
835.478	0.0170205
835.557	0.0170335
835.635	0.0170299
835.713	0.0171709
835.791	0.0172740
835.869	0.0173420
835.947	0.0175176
836.025	0.0174561
836.103	0.0175377
836.182	0.0176412
836.260	0.0175452
836.338	0.0175159
836.416	0.0174403
836.494	0.0172888
836.572	0.0174672
836.650	0.0172209
836.728	0.0171928
836.807	0.0169735
836.885	0.0168787
836.963	0.0167195
837.041	0.0163681
837.119	0.0165054
837.197	0.0164989
837.275	0.0164658
837.353	0.0162777
837.432	0.0162650
837.510	0.0163836
837.588	0.0165781
837.666	0.0164716
837.744	0.0164270
837.822	0.0166228
837.900	0.0168047
837.978	0.0168101
838.057	0.0168726
838.135	0.0169907
838.213	0.0170840
838.291	0.0172540
838.369	0.0172706
838.447	0.0172427
838.525	0.0172030
838.603	0.0173002
838.682	0.0172900
838.760	0.0172649
838.838	0.0173194
838.916	0.0172896
838.994	0.0171976
839.072	0.0173255
839.150	0.0173587
839.228	0.0173406
839.307	0.0172611
839.385	0.0173043
839.463	0.0172151
839.541	0.0171420
839.619	0.0171708
839.697	0.0171690
839.775	0.0171133
839.853	0.0170969
839.932	0.0170081
840.010	0.0170661
840.088	0.0170078
840.166	0.0168923
840.244	0.0168359
840.322	0.0168098
840.400	0.0167098
840.478	0.0167689
840.557	0.0168581
840.635	0.0168755
840.713	0.0168307
840.791	0.0167126
840.869	0.0170186
840.947	0.0170100
841.025	0.0170192
841.103	0.0171249
841.182	0.0170422
841.260	0.0170237
841.338	0.0172686
841.416	0.0173499
841.494	0.0172945
841.572	0.0172840
841.650	0.0172025
841.728	0.0173725
841.807	0.0173143
841.885	0.0171521
841.963	0.0171199
842.041	0.0170771
842.119	0.0169553
842.197	0.0169402
842.275	0.0168256
842.353	0.0169992
842.432	0.0167502
842.510	0.0168031
842.588	0.0167720
842.666	0.0167328
842.744	0.0167269
842.822	0.0168830
842.900	0.0167834
842.978	0.0168410
843.057	0.0168655
843.135	0.0169534
843.213	0.0169109
843.291	0.0171002
843.369	0.0171190
843.447	0.0170037
843.525	0.0170885
843.603	0.0170377
843.682	0.0171141
843.760	0.0170396
843.838	0.0170370
843.916	0.0170752
843.994	0.0169926
844.072	0.0170731
844.150	0.0170166
844.228	0.0168884
844.307	0.0169433
844.385	0.0169859
844.463	0.0169524
844.541	0.0167982
844.619	0.0169436
844.697	0.0169778
844.775	0.0169398
844.853	0.0169440
844.932	0.0171374
845.010	0.0171230
845.088	0.0171381
845.166	0.0173003
845.244	0.0173434
845.322	0.0172375
845.400	0.0173451
845.478	0.0173636
845.557	0.0174011
845.635	0.0173046
845.713	0.0173112
845.791	0.0172955
845.869	0.0171756
845.947	0.0172440
846.025	0.0172050
846.103	0.0171362
846.182	0.0169199
846.260	0.0170052
846.338	0.0169690
846.416	0.0169815
846.494	0.0168784
846.572	0.0168351
846.650	0.0168880
846.728	0.0169662
846.807	0.0169864
846.885	0.0170033
846.963	0.0169317
847.041	0.0171582
847.119	0.0173130
847.197	0.0173398
847.275	0.0174126
847.353	0.0172531
847.432	0.0173640
847.510	0.0173189
847.588	0.0171310
847.666	0.0171774
847.744	0.0170617
847.822	0.0169148
847.900	0.0172127
847.978	0.0169485
848.057	0.0167091
848.135	0.0167316
848.213	0.0167590
848.291	0.0167879
848.369	0.0166587
848.447	0.0166898
848.525	0.0166670
848.603	0.0166380
848.682	0.0166847
848.760	0.0167508
848.838	0.0167149
848.916	0.0167827
848.994	0.0168407
849.072	0.0168655
849.150	0.0169576
849.228	0.0169912
849.307	0.0168475
849.385	0.0169363
849.463	0.0169228
849.541	0.0169219
849.619	0.0169283
849.697	0.0168918
849.775	0.0168017
849.853	0.0168394
849.932	0.0169190
850.010	0.0167813
850.088	0.0168902
850.166	0.0168274
850.244	0.0169120
850.322	0.0168022
850.400	0.0169377
850.478	0.0170406
850.557	0.0170711
850.635	0.0170568
850.713	0.0172021
850.791	0.0171746
850.869	0.0173396
850.947	0.0174810
851.025	0.0174232
851.103	0.0176345
851.182	0.0176691
851.260	0.0176039
851.338	0.0176196
851.416	0.0176109
851.494	0.0175529
851.572	0.0174399
851.650	0.0174716
851.728	0.0174406
851.807	0.0174278
851.885	0.0173905
851.963	0.0173699
852.041	0.0171496
852.119	0.0171664
852.197	0.0170771
852.275	0.0170088
852.353	0.0169981
852.432	0.0168941
852.510	0.0168125
852.588	0.0167422
852.666	0.0166242
852.744	0.0167105
852.822	0.0168419
852.900	0.0167995
852.978	0.0168445
853.057	0.0169028
853.135	0.0169836
853.213	0.0169523
853.291	0.0169897
853.369	0.0170573
853.447	0.0171417
853.525	0.0170494
853.603	0.0171700
853.682	0.0171652
853.760	0.0171724
853.838	0.0171486
853.916	0.0170882
853.994	0.0170528
854.072	0.0169559
854.150	0.0169950
854.228	0.0168597
854.307	0.0169559
854.385	0.0168633
854.463	0.0169437
854.541	0.0169053
854.619	0.0169048
854.697	0.0168944
854.775	0.0168661
854.853	0.0167935
854.932	0.0168267
855.010	0.0168563
855.088	0.0167101
855.166	0.0169070
855.244	0.0169408
855.322	0.0169335
855.400	0.0169411
855.478	0.0171280
855.557	0.0171425
855.635	0.0171533
855.713	0.0171830
855.791	0.0172578
855.869	0.0174489
855.947	0.0174004
856.025	0.0172607
856.103	0.0172496
856.182	0.0172290
856.260	0.0172588
856.338	0.0172318
856.416	0.0171012
856.494	0.0168942
856.572	0.0168993
856.650	0.0170435
856.728	0.0171219
856.807	0.0169187
856.885	0.0167730
856.963	0.0168578
857.041	0.0168739
857.119	0.0168308
857.197	0.0167931
857.275	0.0169285
857.353	0.0170325
857.432	0.0171214
857.510	0.0171636
857.588	0.0172360
857.666	0.0174419
857.744	0.0175040
857.822	0.0174662
857.900	0.0176719
857.978	0.0176396
858.057	0.0175959
858.135	0.0176729
858.213	0.0175179
858.291	0.0176190
858.369	0.0175755
858.447	0.0174645
858.525	0.0173346
858.603	0.0173803
858.682	0.0173116
858.760	0.0172008
858.838	0.0171392
858.916	0.0169571
858.994	0.0169780
859.072	0.0167026
859.150	0.0169719
859.228	0.0168671
859.307	0.0170045
859.385	0.0168616
859.463	0.0169878
859.541	0.0169820
859.619	0.0169437
859.697	0.0171400
859.775	0.0173503
859.853	0.0172587
859.932	0.0173898
860.010	0.0172034
860.088	0.0173133
860.166	0.0172692
860.244	0.0170708
860.322	0.0169094
860.400	0.0168210
860.478	0.0169665
860.557	0.0168227
860.635	0.0167523
860.713	0.0166118
860.791	0.0165268
860.869	0.0165149
860.947	0.0164918
861.025	0.0166271
861.103	0.0165999
861.182	0.0166201
861.260	0.0165723
861.338	0.0166363
861.416	0.0167854
861.494	0.0169053
861.572	0.0169828
861.650	0.0169925
861.728	0.0170229
861.807	0.0171583
861.885	0.0171980
861.963	0.0171692
862.041	0.0172494
862.119	0.0172636
862.197	0.0174297
862.275	0.0174130
862.353	0.0172608
862.432	0.0172171
862.510	0.0172658
862.588	0.0172814
862.666	0.0170732
862.744	0.0170725
862.822	0.0172271
862.900	0.0169781
862.978	0.0170421
863.057	0.0170046
863.135	0.0169498
863.213	0.0169205
863.291	0.0169431
863.369	0.0169775
863.447	0.0169607
863.525	0.0168684
863.603	0.0169832
863.682	0.0169555
863.760	0.0169727
863.838	0.0170638
863.916	0.0172070
863.994	0.0171072
864.072	0.0170992
864.150	0.0172636
864.228	0.0171587
864.307	0.0170139
864.385	0.0171383
864.463	0.0170507
864.541	0.0171455
864.619	0.0171491
864.697	0.0171620
864.775	0.0171056
864.853	0.0170953
864.932	0.0171970
865.010	0.0171571
865.088	0.0170338
865.166	0.0172208
865.244	0.0171404
865.322	0.0171164
865.400	0.0170102
865.478	0.0171218
865.557	0.0171467
865.635	0.0172076
865.713	0.0172476
865.791	0.0171386
865.869	0.0172211
865.947	0.0171954
866.025	0.0171818
866.103	0.0169778
866.182	0.0170913
866.260	0.0171489
866.338	0.0170695
866.416	0.0170152
866.494	0.0169121
866.572	0.0168359
866.650	0.0167664
866.728	0.0167668
866.807	0.0167381
866.885	0.0167686
866.963	0.0165933
867.041	0.0164968
867.119	0.0164709
867.197	0.0165932
867.275	0.0165292
867.353	0.0165173
867.432	0.0164719
867.510	0.0166764
867.588	0.0165444
867.666	0.0167108
867.744	0.0167486
867.822	0.0166613
867.900	0.0168887
867.978	0.0168789
868.057	0.0168649
868.135	0.0170079
868.213	0.0171718
868.291	0.0170250
868.369	0.0170350
868.447	0.0171684
868.525	0.0172582
868.603	0.0171758
868.682	0.0171231
868.760	0.0171451
868.838	0.0172496
868.916	0.0170133
868.994	0.0169781
869.072	0.0169731
869.150	0.0169981
869.228	0.0167789
869.307	0.0167930
869.385	0.0168872
869.463	0.0168356
869.541	0.0168716
869.619	0.0167558
869.697	0.0167371
869.775	0.0168894
869.853	0.0169495
869.932	0.0169370
870.010	0.0170490
870.088	0.0170757
870.166	0.0172822
870.244	0.0172543
870.322	0.0173116
870.400	0.0174441
870.478	0.0173042
870.557	0.0174979
870.635	0.0174408
870.713	0.0174796
870.791	0.0175109
870.869	0.0172989
870.947	0.0173341
871.025	0.0173867
871.103	0.0173408
871.182	0.0171293
871.260	0.0170663
871.338	0.0170518
871.416	0.0169053
871.494	0.0169011
871.572	0.0168702
871.650	0.0168664
871.728	0.0168003
871.807	0.0166831
871.885	0.0166331
871.963	0.0167362
872.041	0.0168635
872.119	0.0168895
872.197	0.0168745
872.275	0.0170192
872.353	0.0168838
872.432	0.0170598
872.510	0.0170171
872.588	0.0170934
872.666	0.0172097
872.744	0.0170196
872.822	0.0170504
872.900	0.0170196
872.978	0.0170872
873.057	0.0169383
873.135	0.0169111
873.213	0.0167474
873.291	0.0166322
873.369	0.0166954
873.447	0.0167947
873.525	0.0166596
873.603	0.0166290
873.682	0.0164127
873.760	0.0166351
873.838	0.0165679
873.916	0.0167066
873.994	0.0167201
874.072	0.0168356
874.150	0.0168379
874.228	0.0169173
874.307	0.0169715
874.385	0.0170522
874.463	0.0170893
874.541	0.0170872
874.619	0.0171832
874.697	0.0171141
874.775	0.0172541
874.853	0.0173935
874.932	0.0173393
875.010	0.0174043
875.088	0.0173550
875.166	0.0174463
875.244	0.0173349
875.322	0.0172469
875.400	0.0172102
875.478	0.0173445
875.557	0.0173522
875.635	0.0171445
875.713	0.0172844
875.791	0.0170630
875.869	0.0170949
875.947	0.0169622
876.025	0.0171247
876.103	0.0171029
876.182	0.0170954
876.260	0.0171030
876.338	0.0172050
876.416	0.0172712
876.494	0.0172807
876.572	0.0172372
876.650	0.0172778
876.728	0.0172485
876.807	0.0173116
876.885	0.0174026
876.963	0.0173685
877.041	0.0171984
877.119	0.0172018
877.197	0.0172436
877.275	0.0171339
877.353	0.0171678
877.432	0.0170243
877.510	0.0171024
877.588	0.0170326
877.666	0.0168804
877.744	0.0169743
877.822	0.0169443
877.900	0.0168737
877.978	0.0169021
878.057	0.0168766
878.135	0.0170024
878.213	0.0168941
878.291	0.0169041
878.369	0.0168916
878.447	0.0169083
878.525	0.0169692
878.603	0.0170153
878.682	0.0168913
878.760	0.0170607
878.838	0.0172404
878.916	0.0171080
878.994	0.0170191
879.072	0.0170473
879.150	0.0171284
879.228	0.0173080
879.307	0.0172192
879.385	0.0170333
879.463	0.0171110
879.541	0.0171020
879.619	0.0172253
879.697	0.0171179
879.775	0.0169796
879.853	0.0170201
879.932	0.0171474
880.010	0.0170432
880.088	0.0169674
880.166	0.0170358
880.244	0.0169042
880.322	0.0169326
880.400	0.0171203
880.478	0.0168782
880.557	0.0169763
880.635	0.0170264
880.713	0.0169232
880.791	0.0171307
880.869	0.0169839
880.947	0.0172520
881.025	0.0173650
881.103	0.0172527
881.182	0.0173979
881.260	0.0173428
881.338	0.0174310
881.416	0.0174439
881.494	0.0175059
881.572	0.0174424
881.650	0.0172645
881.728	0.0173725
881.807	0.0174138
881.885	0.0171883
881.963	0.0171830
882.041	0.0173039
882.119	0.0172411
882.197	0.0172297
882.275	0.0171597
882.353	0.0170634
882.432	0.0169307
882.510	0.0170547
882.588	0.0170492
882.666	0.0169883
882.744	0.0170313
882.822	0.0169445
882.900	0.0170879
882.978	0.0171894
883.057	0.0169763
883.135	0.0170050
883.213	0.0170210
883.291	0.0170872
883.369	0.0170461
883.447	0.0168772
883.525	0.0168981
883.603	0.0170098
883.682	0.0169345
883.760	0.0169015
883.838	0.0168021
883.916	0.0168851
883.994	0.0167905
884.072	0.0168136
884.150	0.0167919
884.228	0.0165697
884.307	0.0164706
884.385	0.0166196
884.463	0.0165724
884.541	0.0166152
884.619	0.0166535
884.697	0.0167503
884.775	0.0166730
884.853	0.0168718
884.932	0.0168990
885.010	0.0168739
885.088	0.0169979
885.166	0.0170658
885.244	0.0170330
885.322	0.0171194
885.400	0.0171525
885.478	0.0171264
885.557	0.0172486
885.635	0.0171284
885.713	0.0171261
885.791	0.0170177
885.869	0.0169724
885.947	0.0169925
886.025	0.0169946
886.103	0.0169794
886.182	0.0169170
886.260	0.0169079
886.338	0.0169733
886.416	0.0168954
886.494	0.0167934
886.572	0.0169409
886.650	0.0168989
886.728	0.0170334
886.807	0.0168468
886.885	0.0171796
886.963	0.0171793
887.041	0.0171145
887.119	0.0172169
887.197	0.0174498
887.275	0.0172135
887.353	0.0172332
887.432	0.0172411
887.510	0.0171466
887.588	0.0173002
887.666	0.0172841
887.744	0.0170927
887.822	0.0170639
887.900	0.0172273
887.978	0.0170735
888.057	0.0170039
888.135	0.0171029
888.213	0.0170876
888.291	0.0170665
888.369	0.0170787
888.447	0.0169434
888.525	0.0170077
888.603	0.0170673
888.682	0.0169885
888.760	0.0170856
888.838	0.0170471
888.916	0.0169617
888.994	0.0170893
889.072	0.0169791
889.150	0.0169016
889.228	0.0169780
889.307	0.0170035
889.385	0.0169366
889.463	0.0168760
889.541	0.0169550
889.619	0.0168778
889.697	0.0168378
889.775	0.0169684
889.853	0.0168327
889.932	0.0168848
890.010	0.0168330
890.088	0.0167425
890.166	0.0166254
890.244	0.0165760
890.322	0.0163834
890.400	0.0166269
890.478	0.0166143
890.557	0.0168168
890.635	0.0166284
890.713	0.0165671
890.791	0.0167154
890.869	0.0167324
890.947	0.0167500
891.025	0.0168121
891.103	0.0169210
891.182	0.0169118
891.260	0.0168805
891.338	0.0170313
891.416	0.0169590
891.494	0.0170779
891.572	0.0171127
891.650	0.0172036
891.728	0.0173069
891.807	0.0171691
891.885	0.0172316
891.963	0.0172912
892.041	0.0171690
892.119	0.0171786
892.197	0.0172287
892.275	0.0170140
892.353	0.0171149
892.432	0.0171112
892.510	0.0169909
892.588	0.0170417
892.666	0.0170043
892.744	0.0171571
892.822	0.0172155
892.900	0.0170660
892.978	0.0171592
893.057	0.0172223
893.135	0.0172633
893.213	0.0173602
893.291	0.0173195
893.369	0.0172977
893.447	0.0173084
893.525	0.0174215
893.603	0.0174416
893.682	0.0174245
893.760	0.0172810
893.838	0.0173202
893.916	0.0172910
893.994	0.0171908
894.072	0.0170625
894.150	0.0169605
894.228	0.0170125
894.307	0.0170292
894.385	0.0169057
894.463	0.0168972
894.541	0.0167680
894.619	0.0167284
894.697	0.0169762
894.775	0.0169630
894.853	0.0170638
894.932	0.0170158
895.010	0.0170022
895.088	0.0169115
895.166	0.0169692
895.244	0.0169695
895.322	0.0170770
895.400	0.0170615
895.478	0.0171676
895.557	0.0171381
895.635	0.0171006
895.713	0.0171215
895.791	0.0169230
895.869	0.0169773
895.947	0.0168085
896.025	0.0168428
896.103	0.0167495
896.182	0.0167478
896.260	0.0167281
896.338	0.0167188
896.416	0.0166209
896.494	0.0165694
896.572	0.0166563
896.650	0.0166118
896.728	0.0166516
896.807	0.0164619
896.885	0.0164539
896.963	0.0165403
897.041	0.0165621
897.119	0.0166434
897.197	0.0168491
897.275	0.0169388
897.353	0.0171040
897.432	0.0171194
897.510	0.0172256
897.588	0.0172461
897.666	0.0173882
897.744	0.0173471
897.822	0.0174905
897.900	0.0174230
897.978	0.0174565
898.057	0.0175062
898.135	0.0175098
898.213	0.0174001
898.291	0.0174643
898.369	0.0173420
898.447	0.0172071
898.525	0.0172087
898.603	0.0172205
898.682	0.0171287
898.760	0.0172672
898.838	0.0171901
898.916	0.0171037
898.994	0.0169460
899.072	0.0170428
899.150	0.0171059
899.228	0.0169595
899.307	0.0170908
899.385	0.0172002
899.463	0.0170805
899.541	0.0172556
899.619	0.0171510
899.697	0.0172493
899.775	0.0172549
899.853	0.0173093
899.932	0.0173082
900.010	0.0172452
900.088	0.0170844
900.166	0.0171304
900.244	0.0172697
900.322	0.0171890
900.400	0.0171286
900.478	0.0171897
900.557	0.0169892
900.635	0.0170773
900.713	0.0170654
900.791	0.0170836
900.869	0.0169450
900.947	0.0170318
901.025	0.0170243
901.103	0.0170575
901.182	0.0171632
901.260	0.0170235
901.338	0.0169769
901.416	0.0171694
901.494	0.0170781
901.572	0.0170229
901.650	0.0171529
901.728	0.0172160
901.807	0.0173977
901.885	0.0172776
901.963	0.0173873
902.041	0.0173273
902.119	0.0173402
902.197	0.0173404
902.275	0.0172292
902.353	0.0172139
902.432	0.0170726
902.510	0.0171303
902.588	0.0172321
902.666	0.0168870
902.744	0.0168324
902.822	0.0168714
902.900	0.0168696
902.978	0.0167173
903.057	0.0166750
903.135	0.0165630
903.213	0.0166386
903.291	0.0164345
903.369	0.0164734
903.447	0.0166620
903.525	0.0164815
903.603	0.0166053
903.682	0.0165363
903.760	0.0164928
903.838	0.0165339
903.916	0.0165901
903.994	0.0167220
904.072	0.0168610
904.150	0.0168082
904.228	0.0169573
904.307	0.0168993
904.385	0.0168245
904.463	0.0169353
904.541	0.0169943
904.619	0.0170120
904.697	0.0170014
904.775	0.0170586
904.853	0.0172161
904.932	0.0172044
905.010	0.0172629
905.088	0.0172249
905.166	0.0172147
905.244	0.0172820
905.322	0.0172270
905.400	0.0171180
905.478	0.0173569
905.557	0.0172628
905.635	0.0171984
905.713	0.0175312
905.791	0.0175637
905.869	0.0174191
905.947	0.0174282
906.025	0.0173727
906.103	0.0173907
906.182	0.0173777
906.260	0.0173644
906.338	0.0173981
906.416	0.0174393
906.494	0.0175534
906.572	0.0174757
906.650	0.0173611
906.728	0.0175037
906.807	0.0174152
906.885	0.0174670
906.963	0.0174447
907.041	0.0173379
907.119	0.0172923
907.197	0.0172453
907.275	0.0172377
907.353	0.0171797
907.432	0.0171796
907.510	0.0171458
907.588	0.0170144
907.666	0.0171305
907.744	0.0168853
907.822	0.0168734
907.900	0.0168721
907.978	0.0167715
908.057	0.0166986
908.135	0.0168187
908.213	0.0167339
908.291	0.0168378
908.369	0.0167281
908.447	0.0166674
908.525	0.0164520
908.603	0.0166268
908.682	0.0164967
908.760	0.0165394
908.838	0.0165723
908.916	0.0165973
908.994	0.0164786
909.072	0.0163665
909.150	0.0165221
909.228	0.0165024
909.307	0.0165373
909.385	0.0163644
909.463	0.0164545
909.541	0.0163934
909.619	0.0164094
909.697	0.0164576
909.775	0.0164966
909.853	0.0165322
909.932	0.0165531
910.010	0.0166199
910.088	0.0166460
910.166	0.0165179
910.244	0.0167282
910.322	0.0167010
910.400	0.0167651
910.478	0.0167033
910.557	0.0168354
910.635	0.0168671
910.713	0.0169884
910.791	0.0171471
910.869	0.0170837
910.947	0.0172035
911.025	0.0172721
911.103	0.0172486
911.182	0.0173536
911.260	0.0171726
911.338	0.0173808
911.416	0.0174466
911.494	0.0174332
911.572	0.0175027
911.650	0.0174659
911.728	0.0174661
911.807	0.0175246
911.885	0.0174223
911.963	0.0173660
912.041	0.0175710
912.119	0.0175220
912.197	0.0176482
912.275	0.0176669
912.353	0.0176059
912.432	0.0175800
912.510	0.0174781
912.588	0.0175422
912.666	0.0175227
912.744	0.0175335
912.822	0.0174173
912.900	0.0173536
912.978	0.0173372
913.057	0.0173116
913.135	0.0173009
913.213	0.0172113
913.291	0.0169958
913.369	0.0171329
913.447	0.0170420
913.525	0.0169894
913.603	0.0168623
913.682	0.0169164
913.760	0.0168862
913.838	0.0168651
913.916	0.0167368
913.994	0.0166925
914.072	0.0166861
914.150	0.0165897
914.228	0.0165820
914.307	0.0164893
914.385	0.0165232
914.463	0.0163953
914.541	0.0165031
914.619	0.0164292
914.697	0.0164735
914.775	0.0164944
914.853	0.0165228
914.932	0.0165281
915.010	0.0164584
915.088	0.0165155
915.166	0.0165243
915.244	0.0165099
915.322	0.0165312
915.400	0.0164610
915.478	0.0165522
915.557	0.0166287
915.635	0.0165044
915.713	0.0165139
915.791	0.0165411
915.869	0.0165757
915.947	0.0165223
916.025	0.0166187
916.103	0.0166479
916.182	0.0166906
916.260	0.0168192
916.338	0.0168736
916.416	0.0166619
916.494	0.0168553
916.572	0.0168430
916.650	0.0169798
916.728	0.0169543
916.807	0.0170580
916.885	0.0170588
916.963	0.0171292
917.041	0.0171632
917.119	0.0171726
917.197	0.0171789
917.275	0.0173524
917.353	0.0173148
917.432	0.0173563
917.510	0.0174503
917.588	0.0174626
917.666	0.0174806
917.744	0.0175140
917.822	0.0174818
917.900	0.0175417
917.978	0.0176335
918.057	0.0175990
918.135	0.0175140
918.213	0.0174812
918.291	0.0176067
918.369	0.0175020
918.447	0.0174667
918.525	0.0174731
918.603	0.0173161
918.682	0.0173702
918.760	0.0173199
918.838	0.0173541
918.916	0.0173393
918.994	0.0173276
919.072	0.0173240
919.150	0.0171732
919.228	0.0171883
919.307	0.0171094
919.385	0.0170207
919.463	0.0170465
919.541	0.0169372
919.619	0.0170282
919.697	0.0169380
919.775	0.0169141
919.853	0.0168526
919.932	0.0168266
920.010	0.0166759
920.088	0.0167586
920.166	0.0167737
920.244	0.0168330
920.322	0.0167975
920.400	0.0168661
920.478	0.0167770
920.557	0.0167728
920.635	0.0167466
920.713	0.0168871
920.791	0.0168684
920.869	0.0167996
920.947	0.0167668
921.025	0.0168372
921.103	0.0168729
921.182	0.0169545
921.260	0.0168946
921.338	0.0168499
921.416	0.0169531
921.494	0.0167945
921.572	0.0169313
921.650	0.0170139
921.728	0.0169546
921.807	0.0169155
921.885	0.0169797
921.963	0.0170234
922.041	0.0168740
922.119	0.0169572
922.197	0.0169915
922.275	0.0169804
922.353	0.0168983
922.432	0.0169978
922.510	0.0169077
922.588	0.0169354
922.666	0.0169727
922.744	0.0170895
922.822	0.0171651
922.900	0.0171323
922.978	0.0173169
923.057	0.0173621
923.135	0.0173856
923.213	0.0172530
923.291	0.0172894
923.369	0.0172482
923.447	0.0173685
923.525	0.0173485
923.603	0.0174528
923.682	0.0174723
923.760	0.0172445
923.838	0.0174292
923.916	0.0175571
923.994	0.0173218
924.072	0.0172439
924.150	0.0174338
924.228	0.0173343
924.307	0.0173679
924.385	0.0173087
924.463	0.0174702
924.541	0.0174565
924.619	0.0173889
924.697	0.0174634
924.775	0.0173878
924.853	0.0174602
924.932	0.0175311
925.010	0.0174477
925.088	0.0173828
925.166	0.0173335
925.244	0.0171992
925.322	0.0173212
925.400	0.0171536
925.478	0.0170169
925.557	0.0171944
925.635	0.0171973
925.713	0.0169301
925.791	0.0170381
925.869	0.0170459
925.947	0.0168586
926.025	0.0168951
926.103	0.0169108
926.182	0.0169659
926.260	0.0169669
926.338	0.0168266
926.416	0.0167657
926.494	0.0170275
926.572	0.0169006
926.650	0.0167934
926.728	0.0168616
926.807	0.0168089
926.885	0.0169674
926.963	0.0170361
927.041	0.0169274
927.119	0.0170469
927.197	0.0171519
927.275	0.0170017
927.353	0.0171280
927.432	0.0169817
927.510	0.0168317
927.588	0.0169688
927.666	0.0169295
927.744	0.0170161
927.822	0.0169419
927.900	0.0169661
927.978	0.0167931
928.057	0.0167751
928.135	0.0167761
928.213	0.0167759
928.291	0.0169089
928.369	0.0169942
928.447	0.0169379
928.525	0.0168208
928.603	0.0169953
928.682	0.0169562
928.760	0.0170049
928.838	0.0170684
928.916	0.0171495
928.994	0.0171809
929.072	0.0170816
929.150	0.0170284
929.228	0.0172504
929.307	0.0172323
929.385	0.0172292
929.463	0.0169774
929.541	0.0170594
929.619	0.0170248
929.697	0.0170358
929.775	0.0169878
929.853	0.0170613
929.932	0.0169634
930.010	0.0168137
930.088	0.0169817
930.166	0.0168857
930.244	0.0169241
930.322	0.0167817
930.400	0.0168070
930.478	0.0168184
930.557	0.0168865
930.635	0.0168657
930.713	0.0168202
930.791	0.0169212
930.869	0.0170499
930.947	0.0170140
931.025	0.0167777
931.103	0.0169190
931.182	0.0170040
931.260	0.0169869
931.338	0.0169284
931.416	0.0169637
931.494	0.0170340
931.572	0.0170807
931.650	0.0169894
931.728	0.0169524
931.807	0.0170211
931.885	0.0170272
931.963	0.0169746
932.041	0.0169915
932.119	0.0169662
932.197	0.0169228
932.275	0.0169517
932.353	0.0169724
932.432	0.0171887
932.510	0.0170221
932.588	0.0170000
932.666	0.0169480
932.744	0.0171778
932.822	0.0168567
932.900	0.0169917
932.978	0.0168734
933.057	0.0169468
933.135	0.0168188
933.213	0.0167782
933.291	0.0168568
933.369	0.0166852
933.447	0.0166258
933.525	0.0166131
933.603	0.0169176
933.682	0.0167191
933.760	0.0166964
933.838	0.0166256
933.916	0.0166593
933.994	0.0166991
934.072	0.0167527
934.150	0.0169478
934.228	0.0167863
934.307	0.0167671
934.385	0.0167786
934.463	0.0167760
934.541	0.0169067
934.619	0.0168287
934.697	0.0171243
934.775	0.0170435
934.853	0.0170039
934.932	0.0170174
935.010	0.0170560
935.088	0.0171946
935.166	0.0170555
935.244	0.0171569
935.322	0.0170962
935.400	0.0171429
935.478	0.0170917
935.557	0.0169728
935.635	0.0172065
935.713	0.0170332
935.791	0.0170068
935.869	0.0169281
935.947	0.0170811
936.025	0.0169651
936.103	0.0168760
936.182	0.0168441
936.260	0.0167587
936.338	0.0169543
936.416	0.0170144
936.494	0.0169268
936.572	0.0168560
936.650	0.0168595
936.728	0.0170544
936.807	0.0170290
936.885	0.0170563
936.963	0.0170248
937.041	0.0170475
937.119	0.0170322
937.197	0.0171201
937.275	0.0169968
937.353	0.0169643
937.432	0.0171104
937.510	0.0170527
937.588	0.0171085
937.666	0.0170655
937.744	0.0169778
937.822	0.0171051
937.900	0.0170770
937.978	0.0172136
938.057	0.0171828
938.135	0.0170248
938.213	0.0171518
938.291	0.0171582
938.369	0.0170061
938.447	0.0171683
938.525	0.0170708
938.603	0.0170627
938.682	0.0170966
938.760	0.0170572
938.838	0.0170469
938.916	0.0170001
938.994	0.0170501
939.072	0.0169467
939.150	0.0168886
939.228	0.0170489
939.307	0.0169535
939.385	0.0169167
939.463	0.0168705
939.541	0.0169299
939.619	0.0169524
939.697	0.0169959
939.775	0.0169759
939.853	0.0167868
939.932	0.0168604
940.010	0.0168729
940.088	0.0168420
940.166	0.0169744
940.244	0.0168990
940.322	0.0168745
940.400	0.0168613
940.478	0.0168579
940.557	0.0169434
940.635	0.0168829
940.713	0.0169335
940.791	0.0169118
940.869	0.0169205
940.947	0.0168205
941.025	0.0169099
941.103	0.0169952
941.182	0.0169259
941.260	0.0169259
941.338	0.0170181
941.416	0.0168700
941.494	0.0170097
941.572	0.0170309
941.650	0.0170398
941.728	0.0168967
941.807	0.0170172
941.885	0.0169553
941.963	0.0171049
942.041	0.0171767
942.119	0.0172356
942.197	0.0171464
942.275	0.0171282
942.353	0.0173431
942.432	0.0171861
942.510	0.0171905
942.588	0.0173405
942.666	0.0172842
942.744	0.0172247
942.822	0.0171490
942.900	0.0172021
942.978	0.0172053
943.057	0.0170367
943.135	0.0171578
943.213	0.0171172
943.291	0.0170487
943.369	0.0171154
943.447	0.0170582
943.525	0.0170184
943.603	0.0170306
943.682	0.0169775
943.760	0.0170520
943.838	0.0170279
943.916	0.0171327
943.994	0.0169723
944.072	0.0171052
944.150	0.0171878
944.228	0.0169689
944.307	0.0170957
944.385	0.0171814
944.463	0.0171673
944.541	0.0171304
944.619	0.0170605
944.697	0.0168950
944.775	0.0170650
944.853	0.0169740
944.932	0.0170737
945.010	0.0171146
945.088	0.0169740
945.166	0.0171440
945.244	0.0171919
945.322	0.0169527
945.400	0.0170877
945.478	0.0169563
945.557	0.0170808
945.635	0.0171066
945.713	0.0170206
945.791	0.0170149
945.869	0.0170814
945.947	0.0169989
946.025	0.0169183
946.103	0.0170406
946.182	0.0169375
946.260	0.0168508
946.338	0.0169331
946.416	0.0168776
946.494	0.0170309
946.572	0.0170082
946.650	0.0169987
946.728	0.0167924
946.807	0.0169017
946.885	0.0168875
946.963	0.0168136
947.041	0.0168223
947.119	0.0169006
947.197	0.0170404
947.275	0.0168770
947.353	0.0170394
947.432	0.0169970
947.510	0.0170860
947.588	0.0171207
947.666	0.0171997
947.744	0.0170473
947.822	0.0171193
947.900	0.0171865
947.978	0.0172209
948.057	0.0173396
948.135	0.0171373
948.213	0.0171560
948.291	0.0172099
948.369	0.0171740
948.447	0.0171953
948.525	0.0172691
948.603	0.0173048
948.682	0.0171610
948.760	0.0172167
948.838	0.0172329
948.916	0.0171526
948.994	0.0173035
949.072	0.0171429
949.150	0.0172144
949.228	0.0171701
949.307	0.0170870
949.385	0.0171577
949.463	0.0171331
949.541	0.0170795
949.619	0.0171606
949.697	0.0171038
949.775	0.0170736
949.853	0.0170294
949.932	0.0170190
950.010	0.0171609
950.088	0.0170692
950.166	0.0171046
950.244	0.0170587
950.322	0.0168761
950.400	0.0169696
950.478	0.0170918
950.557	0.0170493
950.635	0.0170126
950.713	0.0168866
950.791	0.0168845
950.869	0.0170755
950.947	0.0169410
951.025	0.0169167
951.103	0.0170593
951.182	0.0169015
951.260	0.0169397
951.338	0.0169590
951.416	0.0169846
951.494	0.0170617
951.572	0.0169267
951.650	0.0170795
951.728	0.0170979
951.807	0.0170354
951.885	0.0170281
951.963	0.0170139
952.041	0.0169781
952.119	0.0170696
952.197	0.0170167
952.275	0.0170808
952.353	0.0170695
952.432	0.0170360
952.510	0.0170679
952.588	0.0170813
952.666	0.0169201
952.744	0.0168884
952.822	0.0169930
952.900	0.0169265
952.978	0.0169894
953.057	0.0170190
953.135	0.0169080
953.213	0.0169822
953.291	0.0170939
953.369	0.0169735
953.447	0.0168939
953.525	0.0168763
953.603	0.0169345
953.682	0.0169834
953.760	0.0169579
953.838	0.0168933
953.916	0.0169930
953.994	0.0171164
954.072	0.0168707
954.150	0.0170757
954.228	0.0170888
954.307	0.0170971
954.385	0.0172222
954.463	0.0171522
954.541	0.0171783
954.619	0.0172395
954.697	0.0170706
954.775	0.0171756
954.853	0.0171281
954.932	0.0170737
955.010	0.0170271
955.088	0.0170714
955.166	0.0170527
955.244	0.0170280
955.322	0.0168888
955.400	0.0169991
955.478	0.0169227
955.557	0.0169256
955.635	0.0170139
955.713	0.0169932
955.791	0.0169544
955.869	0.0171054
955.947	0.0170598
956.025	0.0170460
956.103	0.0172166
956.182	0.0170703
956.260	0.0171217
956.338	0.0171270
956.416	0.0171454
956.494	0.0170686
956.572	0.0171996
956.650	0.0170547
956.728	0.0171165
956.807	0.0170802
956.885	0.0172321
956.963	0.0172073
957.041	0.0171081
957.119	0.0170214
957.197	0.0170631
957.275	0.0170490
957.353	0.0169340
957.432	0.0168856
957.510	0.0171042
957.588	0.0170432
957.666	0.0168050
957.744	0.0168215
957.822	0.0169218
957.900	0.0168672
957.978	0.0169706
958.057	0.0169675
958.135	0.0168813
958.213	0.0169404
958.291	0.0170044
958.369	0.0170588
958.447	0.0171894
958.525	0.0172184
958.603	0.0170673
958.682	0.0171550
958.760	0.0171548
958.838	0.0172958
958.916	0.0173698
958.994	0.0173299
959.072	0.0171782
959.150	0.0172596
959.228	0.0172910
959.307	0.0171261
959.385	0.0171358
959.463	0.0172891
959.541	0.0172271
959.619	0.0171062
959.697	0.0170807
959.775	0.0170923
959.853	0.0170409
959.932	0.0170801
960.010	0.0170501
960.088	0.0168686
960.166	0.0170124
960.244	0.0169641
960.322	0.0168407
960.400	0.0169782
960.478	0.0169682
960.557	0.0168881
960.635	0.0168948
960.713	0.0167272
960.791	0.0167009
960.869	0.0168563
960.947	0.0167091
961.025	0.0168755
961.103	0.0167295
961.182	0.0167009
961.260	0.0165674
961.338	0.0166525
961.416	0.0167738
961.494	0.0168591
961.572	0.0167980
961.650	0.0167846
961.728	0.0168475
961.807	0.0168898
961.885	0.0169387
961.963	0.0169053
962.041	0.0171384
962.119	0.0170726
962.197	0.0170757
962.275	0.0171481
962.353	0.0172176
962.432	0.0171053
962.510	0.0172324
962.588	0.0170013
962.666	0.0172184
962.744	0.0172823
962.822	0.0171866
962.900	0.0171782
962.978	0.0172662
963.057	0.0170864
963.135	0.0172598
963.213	0.0170534
963.291	0.0170735
963.369	0.0169950
963.447	0.0171577
963.525	0.0169718
963.603	0.0169653
963.682	0.0169382
963.760	0.0168589
963.838	0.0171262
963.916	0.0168716
963.994	0.0169948
964.072	0.0168817
964.150	0.0168831
964.228	0.0169906
964.307	0.0169254
964.385	0.0171071
964.463	0.0170290
964.541	0.0170863
964.619	0.0171259
964.697	0.0170248
964.775	0.0171198
964.853	0.0171037
964.932	0.0172002
965.010	0.0172216
965.088	0.0171514
965.166	0.0172073
965.244	0.0170987
965.322	0.0171088
965.400	0.0170139
965.478	0.0169910
965.557	0.0169835
965.635	0.0168600
965.713	0.0169045
965.791	0.0169054
965.869	0.0169864
965.947	0.0168619
966.025	0.0168806
966.103	0.0169794
966.182	0.0169550
966.260	0.0169377
966.338	0.0168832
966.416	0.0168088
966.494	0.0168595
966.572	0.0169418
966.650	0.0168200
966.728	0.0169496
966.807	0.0168250
966.885	0.0169460
966.963	0.0169125
967.041	0.0167651
967.119	0.0167458
967.197	0.0167827
967.275	0.0168641
967.353	0.0168346
967.432	0.0166477
967.510	0.0166440
967.588	0.0167124
967.666	0.0167554
967.744	0.0166890
967.822	0.0167817
967.900	0.0167213
967.978	0.0168509
968.057	0.0167426
968.135	0.0168424
968.213	0.0168746
968.291	0.0168671
968.369	0.0169076
968.447	0.0170177
968.525	0.0171047
968.603	0.0171382
968.682	0.0169829
968.760	0.0170188
968.838	0.0170303
968.916	0.0170863
968.994	0.0169702
969.072	0.0171228
969.150	0.0171101
969.228	0.0170641
969.307	0.0169989
969.385	0.0170921
969.463	0.0171601
969.541	0.0169874
969.619	0.0170492
969.697	0.0168882
969.775	0.0168348
969.853	0.0168742
969.932	0.0169474
