06/10/2022	16:29:08	Ver.	4.1	UNKNOWN
Optical Delay	650.009681	Delta X		0.078125	Sweeps	1	Scan Rate	0/0
Coordinates	Axis 1	NaN	Axis 2	NaN	Axis 3	NaN	Axis 4	NaN	Axis 5	NaN	Axis 6	0.000000
TX Power	0.000000	RX Power	0.000000

650.010	0.0169669
650.088	0.0168972
650.166	0.0170631
650.244	0.0170415
650.322	0.0169965
650.400	0.0170307
650.478	0.0169574
650.557	0.0170776
650.635	0.0170819
650.713	0.0170534
650.791	0.0168850
650.869	0.0170679
650.947	0.0171834
651.025	0.0170049
651.103	0.0170669
651.182	0.0171140
651.260	0.0170436
651.338	0.0169991
651.416	0.0170051
651.494	0.0169709
651.572	0.0169946
651.650	0.0170019
651.728	0.0169485
651.807	0.0169909
651.885	0.0169374
651.963	0.0169269
652.041	0.0170326
652.119	0.0170551
652.197	0.0169218
652.275	0.0170956
652.353	0.0170676
652.432	0.0170265
652.510	0.0170916
652.588	0.0171110
652.666	0.0170709
652.744	0.0169760
652.822	0.0170126
652.900	0.0170022
652.978	0.0171494
653.057	0.0169856
653.135	0.0170650
653.213	0.0172028
653.291	0.0170370
653.369	0.0169798
653.447	0.0170132
653.525	0.0169819
653.603	0.0169976
653.682	0.0171190
653.760	0.0170782
653.838	0.0171274
653.916	0.0171449
653.994	0.0171004
654.072	0.0170284
654.150	0.0171070
654.228	0.0171530
654.307	0.0172103
654.385	0.0171057
654.463	0.0170554
654.541	0.0169704
654.619	0.0170969
654.697	0.0170934
654.775	0.0171291
654.853	0.0171450
654.932	0.0171121
655.010	0.0171571
655.088	0.0170414
655.166	0.0171138
655.244	0.0171024
655.322	0.0170928
655.400	0.0172664
655.478	0.0170536
655.557	0.0171425
655.635	0.0172786
655.713	0.0172561
655.791	0.0172229
655.869	0.0171284
655.947	0.0172197
656.025	0.0173090
656.103	0.0173536
656.182	0.0171809
656.260	0.0171387
656.338	0.0171507
656.416	0.0171748
656.494	0.0172305
656.572	0.0171301
656.650	0.0172237
656.728	0.0171805
656.807	0.0172884
656.885	0.0172228
656.963	0.0172025
657.041	0.0172823
657.119	0.0170779
657.197	0.0170688
657.275	0.0170791
657.353	0.0171514
657.432	0.0172078
657.510	0.0171796
657.588	0.0171484
657.666	0.0169617
657.744	0.0171849
657.822	0.0172154
657.900	0.0170691
657.978	0.0171288
658.057	0.0171513
658.135	0.0171030
658.213	0.0170173
658.291	0.0171320
658.369	0.0171960
658.447	0.0170644
658.525	0.0171465
658.603	0.0171671
658.682	0.0171353
658.760	0.0171230
658.838	0.0170260
658.916	0.0170360
658.994	0.0170984
659.072	0.0171505
659.150	0.0170639
659.228	0.0172264
659.307	0.0170383
659.385	0.0169434
659.463	0.0171871
659.541	0.0171729
659.619	0.0171631
659.697	0.0171925
659.775	0.0170738
659.853	0.0171104
659.932	0.0170621
660.010	0.0171823
660.088	0.0171712
660.166	0.0171035
660.244	0.0172289
660.322	0.0171036
660.400	0.0170638
660.478	0.0171645
660.557	0.0171854
660.635	0.0171753
660.713	0.0172546
660.791	0.0171045
660.869	0.0171992
660.947	0.0171802
661.025	0.0169552
661.103	0.0171586
661.182	0.0172287
661.260	0.0172701
661.338	0.0172218
661.416	0.0171976
661.494	0.0171355
661.572	0.0170619
661.650	0.0170503
661.728	0.0171436
661.807	0.0172122
661.885	0.0171862
661.963	0.0171047
662.041	0.0171693
662.119	0.0172214
662.197	0.0170298
662.275	0.0171550
662.353	0.0171629
662.432	0.0171283
662.510	0.0171412
662.588	0.0170536
662.666	0.0170870
662.744	0.0170907
662.822	0.0170574
662.900	0.0171699
662.978	0.0171770
663.057	0.0170477
663.135	0.0171290
663.213	0.0170720
663.291	0.0171529
663.369	0.0171614
663.447	0.0170747
663.525	0.0171397
663.603	0.0171163
663.682	0.0171042
663.760	0.0171227
663.838	0.0169841
663.916	0.0170668
663.994	0.0171873
664.072	0.0170692
664.150	0.0170567
664.228	0.0171001
664.307	0.0171371
664.385	0.0171274
664.463	0.0171784
664.541	0.0172001
664.619	0.0171339
664.697	0.0170637
664.775	0.0170413
664.853	0.0171906
664.932	0.0170727
665.010	0.0171498
665.088	0.0170886
665.166	0.0171064
665.244	0.0171762
665.322	0.0171085
665.400	0.0171635
665.478	0.0170170
665.557	0.0169810
665.635	0.0171103
665.713	0.0171210
665.791	0.0172500
665.869	0.0170972
665.947	0.0170296
666.025	0.0171107
666.103	0.0171554
666.182	0.0171093
666.260	0.0170182
666.338	0.0169894
666.416	0.0171303
666.494	0.0171320
666.572	0.0171600
666.650	0.0169361
666.728	0.0171638
666.807	0.0172188
666.885	0.0170670
666.963	0.0171487
667.041	0.0170854
667.119	0.0170433
667.197	0.0170111
667.275	0.0169793
667.353	0.0171381
667.432	0.0171676
667.510	0.0170293
667.588	0.0171420
667.666	0.0170998
667.744	0.0170238
667.822	0.0170303
667.900	0.0169562
667.978	0.0170374
668.057	0.0170722
668.135	0.0170726
668.213	0.0170635
668.291	0.0170444
668.369	0.0170718
668.447	0.0170913
668.525	0.0169924
668.603	0.0169835
668.682	0.0169521
668.760	0.0170950
668.838	0.0170497
668.916	0.0170265
668.994	0.0169397
669.072	0.0169662
669.150	0.0171463
669.228	0.0170998
669.307	0.0170917
669.385	0.0170026
669.463	0.0169636
669.541	0.0170165
669.619	0.0170760
669.697	0.0169912
669.775	0.0170786
669.853	0.0171680
669.932	0.0171187
670.010	0.0170795
670.088	0.0170633
670.166	0.0170609
670.244	0.0170647
670.322	0.0170745
670.400	0.0171106
670.478	0.0170141
670.557	0.0171144
670.635	0.0170487
670.713	0.0171423
670.791	0.0169596
670.869	0.0169321
670.947	0.0170557
671.025	0.0170677
671.103	0.0170940
671.182	0.0168444
671.260	0.0170403
671.338	0.0169355
671.416	0.0170480
671.494	0.0170316
671.572	0.0169145
671.650	0.0168757
671.728	0.0170209
671.807	0.0170187
671.885	0.0168478
671.963	0.0169313
672.041	0.0171130
672.119	0.0169770
672.197	0.0169364
672.275	0.0169697
672.353	0.0169649
672.432	0.0170921
672.510	0.0171014
672.588	0.0169551
672.666	0.0170422
672.744	0.0169370
672.822	0.0170118
672.900	0.0169762
672.978	0.0170401
673.057	0.0170311
673.135	0.0169234
673.213	0.0170208
673.291	0.0170064
673.369	0.0170201
673.447	0.0169657
673.525	0.0171333
673.603	0.0170572
673.682	0.0170107
673.760	0.0169221
673.838	0.0170023
673.916	0.0170386
673.994	0.0168972
674.072	0.0169765
674.150	0.0169941
674.228	0.0169586
674.307	0.0169910
674.385	0.0168456
674.463	0.0169872
674.541	0.0171214
674.619	0.0170811
674.697	0.0169787
674.775	0.0168819
674.853	0.0168740
674.932	0.0170290
675.010	0.0170094
675.088	0.0169167
675.166	0.0170932
675.244	0.0171765
675.322	0.0170171
675.400	0.0169322
675.478	0.0169759
675.557	0.0171140
675.635	0.0171246
675.713	0.0171031
675.791	0.0172745
675.869	0.0171300
675.947	0.0169466
676.025	0.0171837
676.103	0.0171213
676.182	0.0170941
676.260	0.0170440
676.338	0.0171125
676.416	0.0171847
676.494	0.0170890
676.572	0.0170300
676.650	0.0172552
676.728	0.0170321
676.807	0.0169385
676.885	0.0171400
676.963	0.0171951
677.041	0.0170313
677.119	0.0171140
677.197	0.0171964
677.275	0.0171667
677.353	0.0170355
677.432	0.0170295
677.510	0.0169727
677.588	0.0170728
677.666	0.0171066
677.744	0.0170751
677.822	0.0171550
677.900	0.0171315
677.978	0.0171059
678.057	0.0170701
678.135	0.0170150
678.213	0.0170438
678.291	0.0170798
678.369	0.0170647
678.447	0.0170476
678.525	0.0170965
678.603	0.0171085
678.682	0.0171118
678.760	0.0169788
678.838	0.0170134
678.916	0.0170917
678.994	0.0169971
679.072	0.0170716
679.150	0.0172497
679.228	0.0170747
679.307	0.0170512
679.385	0.0172372
679.463	0.0170467
679.541	0.0171552
679.619	0.0170994
679.697	0.0171478
679.775	0.0171033
679.853	0.0172015
679.932	0.0170721
680.010	0.0170172
680.088	0.0171505
680.166	0.0171107
680.244	0.0170582
680.322	0.0171697
680.400	0.0170547
680.478	0.0171375
680.557	0.0171212
680.635	0.0172523
680.713	0.0171457
680.791	0.0171301
680.869	0.0172889
680.947	0.0173221
681.025	0.0171207
681.103	0.0172051
681.182	0.0171017
681.260	0.0171291
681.338	0.0171087
681.416	0.0171798
681.494	0.0171922
681.572	0.0171780
681.650	0.0171714
681.728	0.0172663
681.807	0.0170961
681.885	0.0171417
681.963	0.0171359
682.041	0.0172977
682.119	0.0171726
682.197	0.0172717
682.275	0.0172105
682.353	0.0171838
682.432	0.0170561
682.510	0.0171761
682.588	0.0171549
682.666	0.0172217
682.744	0.0170770
682.822	0.0170435
682.900	0.0171823
682.978	0.0172372
683.057	0.0170542
683.135	0.0170760
683.213	0.0171452
683.291	0.0172814
683.369	0.0171493
683.447	0.0171327
683.525	0.0170590
683.603	0.0171350
683.682	0.0171186
683.760	0.0171224
683.838	0.0171577
683.916	0.0170608
683.994	0.0171483
684.072	0.0170509
684.150	0.0170848
684.228	0.0171056
684.307	0.0171043
684.385	0.0170779
684.463	0.0170377
684.541	0.0170351
684.619	0.0171510
684.697	0.0169274
684.775	0.0172213
684.853	0.0171732
684.932	0.0170894
685.010	0.0169257
685.088	0.0171155
685.166	0.0170121
685.244	0.0169256
685.322	0.0169471
685.400	0.0170466
685.478	0.0171422
685.557	0.0171410
685.635	0.0170322
685.713	0.0171549
685.791	0.0171549
685.869	0.0171392
685.947	0.0170432
686.025	0.0171577
686.103	0.0170493
686.182	0.0169971
686.260	0.0169862
686.338	0.0170280
686.416	0.0171436
686.494	0.0172043
686.572	0.0169749
686.650	0.0169227
686.728	0.0170816
686.807	0.0172253
686.885	0.0170940
686.963	0.0171073
687.041	0.0170256
687.119	0.0170684
687.197	0.0170189
687.275	0.0170805
687.353	0.0171622
687.432	0.0171185
687.510	0.0171559
687.588	0.0170448
687.666	0.0169807
687.744	0.0170551
687.822	0.0170807
687.900	0.0171176
687.978	0.0171193
688.057	0.0170995
688.135	0.0170594
688.213	0.0170873
688.291	0.0171236
688.369	0.0170306
688.447	0.0170927
688.525	0.0169982
688.603	0.0169601
688.682	0.0170848
688.760	0.0170797
688.838	0.0170724
688.916	0.0170940
688.994	0.0170982
689.072	0.0170560
689.150	0.0170560
689.228	0.0170235
689.307	0.0170235
689.385	0.0170908
689.463	0.0170808
689.541	0.0170589
689.619	0.0170230
689.697	0.0170914
689.775	0.0171424
689.853	0.0170263
689.932	0.0169440
690.010	0.0170414
690.088	0.0171657
690.166	0.0169090
690.244	0.0168099
690.322	0.0169886
690.400	0.0170005
690.478	0.0170490
690.557	0.0170737
690.635	0.0170911
690.713	0.0169749
690.791	0.0170734
690.869	0.0170230
690.947	0.0169952
691.025	0.0168832
691.103	0.0170241
691.182	0.0170617
691.260	0.0169530
691.338	0.0169758
691.416	0.0168526
691.494	0.0170176
691.572	0.0169876
691.650	0.0169870
691.728	0.0170152
691.807	0.0168980
691.885	0.0169344
691.963	0.0170017
692.041	0.0170086
692.119	0.0170095
692.197	0.0169786
692.275	0.0169782
692.353	0.0170053
692.432	0.0171087
692.510	0.0170922
692.588	0.0170251
692.666	0.0171049
692.744	0.0170786
692.822	0.0169746
692.900	0.0168867
692.978	0.0169882
693.057	0.0170229
693.135	0.0169147
693.213	0.0169592
693.291	0.0170513
693.369	0.0170270
693.447	0.0169012
693.525	0.0168237
693.603	0.0170992
693.682	0.0171152
693.760	0.0170181
693.838	0.0168911
693.916	0.0172296
693.994	0.0170501
694.072	0.0171113
694.150	0.0170869
694.228	0.0170008
694.307	0.0171149
694.385	0.0171327
694.463	0.0170112
694.541	0.0171175
694.619	0.0171093
694.697	0.0171167
694.775	0.0170286
694.853	0.0170604
694.932	0.0169896
695.010	0.0171574
695.088	0.0171930
695.166	0.0170212
695.244	0.0171468
695.322	0.0170933
695.400	0.0170645
695.478	0.0171257
695.557	0.0170010
695.635	0.0171298
695.713	0.0172496
695.791	0.0170496
695.869	0.0171402
695.947	0.0172386
696.025	0.0171603
696.103	0.0170502
696.182	0.0172056
696.260	0.0172742
696.338	0.0171768
696.416	0.0171603
696.494	0.0172132
696.572	0.0170962
696.650	0.0171171
696.728	0.0171102
696.807	0.0171989
696.885	0.0170718
696.963	0.0172108
697.041	0.0171765
697.119	0.0171504
697.197	0.0171918
697.275	0.0172082
697.353	0.0171230
697.432	0.0171868
697.510	0.0171715
697.588	0.0171525
697.666	0.0171755
697.744	0.0170121
697.822	0.0171684
697.900	0.0171806
697.978	0.0171879
698.057	0.0170788
698.135	0.0169810
698.213	0.0169852
698.291	0.0169926
698.369	0.0171130
698.447	0.0170994
698.525	0.0170412
698.603	0.0170334
698.682	0.0170020
698.760	0.0171962
698.838	0.0171767
698.916	0.0171799
698.994	0.0170380
699.072	0.0171130
699.150	0.0170537
699.228	0.0170896
699.307	0.0170033
699.385	0.0169434
699.463	0.0170624
699.541	0.0171463
699.619	0.0170737
699.697	0.0170895
699.775	0.0171175
699.853	0.0170865
699.932	0.0171326
700.010	0.0169759
700.088	0.0171468
700.166	0.0171364
700.244	0.0170805
700.322	0.0169313
700.400	0.0170668
700.478	0.0170859
700.557	0.0171033
700.635	0.0170312
700.713	0.0170318
700.791	0.0170363
700.869	0.0170950
700.947	0.0170233
701.025	0.0170128
701.103	0.0171568
701.182	0.0172104
701.260	0.0169753
701.338	0.0170628
701.416	0.0171056
701.494	0.0171267
701.572	0.0169739
701.650	0.0171210
701.728	0.0171965
701.807	0.0169923
701.885	0.0170233
701.963	0.0170369
702.041	0.0171102
702.119	0.0171056
702.197	0.0170278
702.275	0.0169487
702.353	0.0170933
702.432	0.0170964
702.510	0.0171062
702.588	0.0171783
702.666	0.0170654
702.744	0.0170187
702.822	0.0169971
702.900	0.0170931
702.978	0.0170532
703.057	0.0171192
703.135	0.0171011
703.213	0.0170475
703.291	0.0170910
703.369	0.0171185
703.447	0.0170289
703.525	0.0171049
703.603	0.0170497
703.682	0.0170338
703.760	0.0172253
703.838	0.0169974
703.916	0.0171468
703.994	0.0171169
704.072	0.0171534
704.150	0.0170309
704.228	0.0170371
704.307	0.0171010
704.385	0.0171784
704.463	0.0169898
704.541	0.0170393
704.619	0.0169051
704.697	0.0170377
704.775	0.0169552
704.853	0.0170581
704.932	0.0170086
705.010	0.0169457
705.088	0.0169347
705.166	0.0169824
705.244	0.0170733
705.322	0.0169961
705.400	0.0169695
705.478	0.0169436
705.557	0.0169793
705.635	0.0170599
705.713	0.0171006
705.791	0.0169972
705.869	0.0170255
705.947	0.0170605
706.025	0.0170111
706.103	0.0169924
706.182	0.0169038
706.260	0.0170314
706.338	0.0170184
706.416	0.0170152
706.494	0.0169717
706.572	0.0169553
706.650	0.0170640
706.728	0.0170406
706.807	0.0169565
706.885	0.0170086
706.963	0.0169209
707.041	0.0170100
707.119	0.0169202
707.197	0.0170645
707.275	0.0170094
707.353	0.0169594
707.432	0.0169100
707.510	0.0169549
707.588	0.0170109
707.666	0.0170329
707.744	0.0170939
707.822	0.0170525
707.900	0.0170964
707.978	0.0168314
708.057	0.0170820
708.135	0.0171169
708.213	0.0170181
708.291	0.0171824
708.369	0.0171104
708.447	0.0170994
708.525	0.0171226
708.603	0.0170909
708.682	0.0169722
708.760	0.0172207
708.838	0.0170480
708.916	0.0169827
708.994	0.0170743
709.072	0.0170943
709.150	0.0169677
709.228	0.0171134
709.307	0.0170199
709.385	0.0171983
709.463	0.0171019
709.541	0.0169323
709.619	0.0170881
709.697	0.0170069
709.775	0.0170336
709.853	0.0170865
709.932	0.0170271
710.010	0.0170090
710.088	0.0169503
710.166	0.0171320
710.244	0.0170791
710.322	0.0171140
710.400	0.0171500
710.478	0.0170761
710.557	0.0169212
710.635	0.0170084
710.713	0.0170329
710.791	0.0171396
710.869	0.0170610
710.947	0.0171179
711.025	0.0170630
711.103	0.0169651
711.182	0.0170134
711.260	0.0170274
711.338	0.0170079
711.416	0.0171219
711.494	0.0171037
711.572	0.0171357
711.650	0.0170193
711.728	0.0168822
711.807	0.0170245
711.885	0.0172166
711.963	0.0171635
712.041	0.0171606
712.119	0.0171359
712.197	0.0171069
712.275	0.0172127
712.353	0.0170174
712.432	0.0171228
712.510	0.0170458
712.588	0.0170739
712.666	0.0170741
712.744	0.0171426
712.822	0.0172221
712.900	0.0171345
712.978	0.0171015
713.057	0.0170432
713.135	0.0170407
713.213	0.0170306
713.291	0.0170692
713.369	0.0171149
713.447	0.0171480
713.525	0.0172115
713.603	0.0170910
713.682	0.0169642
713.760	0.0170690
713.838	0.0170178
713.916	0.0170611
713.994	0.0171800
714.072	0.0172332
714.150	0.0171604
714.228	0.0171043
714.307	0.0170473
714.385	0.0171321
714.463	0.0171003
714.541	0.0170325
714.619	0.0171577
714.697	0.0170561
714.775	0.0172144
714.853	0.0170432
714.932	0.0171375
715.010	0.0170632
715.088	0.0170478
715.166	0.0172454
715.244	0.0172027
715.322	0.0171293
715.400	0.0170225
715.478	0.0171566
715.557	0.0170678
715.635	0.0170356
715.713	0.0169174
715.791	0.0170498
715.869	0.0171291
715.947	0.0171089
716.025	0.0170646
716.103	0.0168701
716.182	0.0169387
716.260	0.0170802
716.338	0.0172533
716.416	0.0170802
716.494	0.0170339
716.572	0.0170278
716.650	0.0171159
716.728	0.0170658
716.807	0.0171131
716.885	0.0170061
716.963	0.0170434
717.041	0.0170945
717.119	0.0169968
717.197	0.0170059
717.275	0.0170571
717.353	0.0172267
717.432	0.0170878
717.510	0.0171113
717.588	0.0172260
717.666	0.0171013
717.744	0.0170739
717.822	0.0171223
717.900	0.0170512
717.978	0.0171067
718.057	0.0172146
718.135	0.0170843
718.213	0.0170065
718.291	0.0170229
718.369	0.0171674
718.447	0.0171593
718.525	0.0171339
718.603	0.0170036
718.682	0.0171648
718.760	0.0171079
718.838	0.0171510
718.916	0.0170135
718.994	0.0170184
719.072	0.0171101
719.150	0.0170821
719.228	0.0171374
719.307	0.0169948
719.385	0.0170920
719.463	0.0170599
719.541	0.0171309
719.619	0.0170664
719.697	0.0171099
719.775	0.0172982
719.853	0.0170697
719.932	0.0171104
720.010	0.0171037
720.088	0.0170489
720.166	0.0171313
720.244	0.0170351
720.322	0.0171011
720.400	0.0170995
720.478	0.0171803
720.557	0.0170956
720.635	0.0171029
720.713	0.0170531
720.791	0.0172065
720.869	0.0170685
720.947	0.0169634
721.025	0.0171358
721.103	0.0172058
721.182	0.0170408
721.260	0.0170433
721.338	0.0170727
721.416	0.0170728
721.494	0.0170313
721.572	0.0171629
721.650	0.0171286
721.728	0.0171115
721.807	0.0170550
721.885	0.0170670
721.963	0.0171680
722.041	0.0171034
722.119	0.0172429
722.197	0.0170720
722.275	0.0171421
722.353	0.0170998
722.432	0.0171593
722.510	0.0171447
722.588	0.0170919
722.666	0.0171109
722.744	0.0171671
722.822	0.0171302
722.900	0.0169865
722.978	0.0171199
723.057	0.0171134
723.135	0.0171028
723.213	0.0170818
723.291	0.0169330
723.369	0.0170238
723.447	0.0167939
723.525	0.0167874
723.603	0.0168443
723.682	0.0169710
723.760	0.0169172
723.838	0.0169867
723.916	0.0170461
723.994	0.0170784
724.072	0.0171236
724.150	0.0172352
724.228	0.0174020
724.307	0.0173598
724.385	0.0173396
724.463	0.0173904
724.541	0.0174862
724.619	0.0174114
724.697	0.0172713
724.775	0.0172445
724.853	0.0170622
724.932	0.0169334
725.010	0.0168060
725.088	0.0166327
725.166	0.0165070
725.244	0.0163029
725.322	0.0164236
725.400	0.0163568
725.478	0.0163248
725.557	0.0165054
725.635	0.0167007
725.713	0.0168199
725.791	0.0169978
725.869	0.0170010
725.947	0.0172904
726.025	0.0174113
726.103	0.0176128
726.182	0.0175913
726.260	0.0174512
726.338	0.0175201
726.416	0.0174777
726.494	0.0173260
726.572	0.0172860
726.650	0.0171523
726.728	0.0171552
726.807	0.0169582
726.885	0.0169035
726.963	0.0170667
727.041	0.0168933
727.119	0.0168178
727.197	0.0168261
727.275	0.0166712
727.353	0.0167228
727.432	0.0166474
727.510	0.0166084
727.588	0.0165474
727.666	0.0164599
727.744	0.0166632
727.822	0.0165940
727.900	0.0165297
727.978	0.0166058
728.057	0.0165657
728.135	0.0165456
728.213	0.0168102
728.291	0.0169566
728.369	0.0170724
728.447	0.0172794
728.525	0.0173687
728.603	0.0173827
728.682	0.0176864
728.760	0.0177012
728.838	0.0178954
728.916	0.0178674
728.994	0.0179230
729.072	0.0177590
729.150	0.0176340
729.228	0.0175092
729.307	0.0172697
729.385	0.0168203
729.463	0.0166820
729.541	0.0166918
729.619	0.0163987
729.697	0.0161230
729.775	0.0160732
729.853	0.0159488
729.932	0.0159903
730.010	0.0161017
730.088	0.0162764
730.166	0.0163909
730.244	0.0166042
730.322	0.0168855
730.400	0.0170354
730.478	0.0173054
730.557	0.0176109
730.635	0.0177375
730.713	0.0178868
730.791	0.0180351
730.869	0.0180861
730.947	0.0181617
731.025	0.0181303
731.103	0.0179892
731.182	0.0178426
731.260	0.0176935
731.338	0.0177124
731.416	0.0174876
731.494	0.0170921
731.572	0.0169713
731.650	0.0170023
731.728	0.0168090
731.807	0.0166169
731.885	0.0163933
731.963	0.0162095
732.041	0.0162560
732.119	0.0164000
732.197	0.0164951
732.275	0.0165334
732.353	0.0165469
732.432	0.0165739
732.510	0.0167593
732.588	0.0168396
732.666	0.0168709
732.744	0.0172101
732.822	0.0172755
732.900	0.0173107
732.978	0.0174215
733.057	0.0174794
733.135	0.0175682
733.213	0.0177226
733.291	0.0176112
733.369	0.0177344
733.447	0.0176790
733.525	0.0176572
733.603	0.0174655
733.682	0.0175283
733.760	0.0174947
733.838	0.0173740
733.916	0.0171338
733.994	0.0171930
734.072	0.0170138
734.150	0.0169188
734.228	0.0168230
734.307	0.0166502
734.385	0.0165978
734.463	0.0165157
734.541	0.0164835
734.619	0.0164827
734.697	0.0166600
734.775	0.0166145
734.853	0.0167497
734.932	0.0168451
735.010	0.0171723
735.088	0.0170282
735.166	0.0171849
735.244	0.0174108
735.322	0.0174738
735.400	0.0175700
735.478	0.0176293
735.557	0.0176118
735.635	0.0176062
735.713	0.0175303
735.791	0.0174629
735.869	0.0174312
735.947	0.0171971
736.025	0.0173268
736.103	0.0172041
736.182	0.0170811
736.260	0.0168793
736.338	0.0168743
736.416	0.0168244
736.494	0.0165900
736.572	0.0168184
736.650	0.0167126
736.728	0.0168173
736.807	0.0168062
736.885	0.0167915
736.963	0.0171446
737.041	0.0171352
737.119	0.0171069
737.197	0.0172118
737.275	0.0172509
737.353	0.0172081
737.432	0.0173306
737.510	0.0173698
737.588	0.0172543
737.666	0.0172339
737.744	0.0171736
737.822	0.0171228
737.900	0.0170588
737.978	0.0171782
738.057	0.0169976
738.135	0.0169174
738.213	0.0168127
738.291	0.0169051
738.369	0.0170239
738.447	0.0171176
738.525	0.0170886
738.603	0.0170988
738.682	0.0171383
738.760	0.0171773
738.838	0.0171891
738.916	0.0171839
738.994	0.0171912
739.072	0.0172455
739.150	0.0171095
739.228	0.0170209
739.307	0.0170282
739.385	0.0169755
739.463	0.0170153
739.541	0.0169437
739.619	0.0169802
739.697	0.0170203
739.775	0.0168790
739.853	0.0170293
739.932	0.0171465
740.010	0.0171426
740.088	0.0172304
740.166	0.0172826
740.244	0.0172614
740.322	0.0173387
740.400	0.0173635
740.478	0.0172430
740.557	0.0174012
740.635	0.0173292
740.713	0.0171965
740.791	0.0172724
740.869	0.0170401
740.947	0.0171040
741.025	0.0170374
741.103	0.0169207
741.182	0.0168339
741.260	0.0168287
741.338	0.0167086
741.416	0.0166547
741.494	0.0166291
741.572	0.0166882
741.650	0.0166660
741.728	0.0167091
741.807	0.0167451
741.885	0.0168999
741.963	0.0168871
742.041	0.0169442
742.119	0.0171597
742.197	0.0172695
742.275	0.0171978
742.353	0.0172078
742.432	0.0173052
742.510	0.0172150
742.588	0.0171713
742.666	0.0172374
742.744	0.0171677
742.822	0.0171347
742.900	0.0170529
742.978	0.0171478
743.057	0.0169691
743.135	0.0168826
743.213	0.0170348
743.291	0.0169694
743.369	0.0168839
743.447	0.0169739
743.525	0.0168480
743.603	0.0168263
743.682	0.0169429
743.760	0.0168515
743.838	0.0168362
743.916	0.0168373
743.994	0.0167373
744.072	0.0166037
744.150	0.0166764
744.228	0.0167640
744.307	0.0167883
744.385	0.0170062
744.463	0.0170095
744.541	0.0171294
744.619	0.0172858
744.697	0.0172701
744.775	0.0173519
744.853	0.0175940
744.932	0.0175192
745.010	0.0174471
745.088	0.0174765
745.166	0.0174426
745.244	0.0174548
745.322	0.0173702
745.400	0.0172819
745.478	0.0170297
745.557	0.0170935
745.635	0.0168864
745.713	0.0168781
745.791	0.0167146
745.869	0.0164903
745.947	0.0166388
746.025	0.0166689
746.103	0.0165343
746.182	0.0164885
746.260	0.0166616
746.338	0.0168349
746.416	0.0168623
746.494	0.0168271
746.572	0.0170266
746.650	0.0171790
746.728	0.0172133
746.807	0.0171999
746.885	0.0172981
746.963	0.0174255
747.041	0.0172787
747.119	0.0173714
747.197	0.0172612
747.275	0.0173653
747.353	0.0172010
747.432	0.0171420
747.510	0.0170551
747.588	0.0171661
747.666	0.0169544
747.744	0.0169090
747.822	0.0169362
747.900	0.0169677
747.978	0.0168764
748.057	0.0168729
748.135	0.0169278
748.213	0.0169308
748.291	0.0168963
748.369	0.0168848
748.447	0.0169035
748.525	0.0168200
748.603	0.0167248
748.682	0.0168458
748.760	0.0169328
748.838	0.0168517
748.916	0.0167489
748.994	0.0168919
749.072	0.0168770
749.150	0.0168961
749.228	0.0169630
749.307	0.0169129
749.385	0.0170682
749.463	0.0171644
749.541	0.0171234
749.619	0.0171801
749.697	0.0171594
749.775	0.0172308
749.853	0.0170784
749.932	0.0172121
750.010	0.0171505
750.088	0.0171918
750.166	0.0172320
750.244	0.0170414
750.322	0.0169073
750.400	0.0169492
750.478	0.0169396
750.557	0.0169666
750.635	0.0167757
750.713	0.0168993
750.791	0.0169579
750.869	0.0169982
750.947	0.0169231
751.025	0.0169250
751.103	0.0168331
751.182	0.0169805
751.260	0.0169949
751.338	0.0170155
751.416	0.0169980
751.494	0.0171643
751.572	0.0171218
751.650	0.0171925
751.728	0.0170620
751.807	0.0171241
751.885	0.0173653
751.963	0.0171239
752.041	0.0170521
752.119	0.0170115
752.197	0.0171669
752.275	0.0170251
752.353	0.0170486
752.432	0.0171182
752.510	0.0170760
752.588	0.0169682
752.666	0.0170107
752.744	0.0171536
752.822	0.0171216
752.900	0.0169517
752.978	0.0170740
753.057	0.0171399
753.135	0.0169894
753.213	0.0171314
753.291	0.0171781
753.369	0.0170513
753.447	0.0170792
753.525	0.0171408
753.603	0.0170329
753.682	0.0169305
753.760	0.0170089
753.838	0.0169543
753.916	0.0171488
753.994	0.0170599
754.072	0.0171564
754.150	0.0171224
754.228	0.0170394
754.307	0.0171258
754.385	0.0171986
754.463	0.0170851
754.541	0.0171720
754.619	0.0171481
754.697	0.0172057
754.775	0.0171264
754.853	0.0171150
754.932	0.0171333
755.010	0.0171377
755.088	0.0172672
755.166	0.0171290
755.244	0.0171247
755.322	0.0170781
755.400	0.0170762
755.478	0.0171217
755.557	0.0172411
755.635	0.0170675
755.713	0.0170095
755.791	0.0172282
755.869	0.0170123
755.947	0.0170612
756.025	0.0171693
756.103	0.0170404
756.182	0.0171187
756.260	0.0172276
756.338	0.0172569
756.416	0.0171432
756.494	0.0171748
756.572	0.0169781
756.650	0.0172724
756.728	0.0171082
756.807	0.0170885
756.885	0.0170657
756.963	0.0169877
757.041	0.0171410
757.119	0.0172005
757.197	0.0170003
757.275	0.0171852
757.353	0.0171134
757.432	0.0171049
757.510	0.0172033
757.588	0.0172129
757.666	0.0171024
757.744	0.0171251
757.822	0.0169564
757.900	0.0172173
757.978	0.0171175
758.057	0.0171302
758.135	0.0170559
758.213	0.0171548
758.291	0.0169973
758.369	0.0169904
758.447	0.0169926
758.525	0.0168983
758.603	0.0171094
758.682	0.0169578
758.760	0.0170298
758.838	0.0171512
758.916	0.0170619
758.994	0.0169930
759.072	0.0171069
759.150	0.0171036
759.228	0.0171017
759.307	0.0170256
759.385	0.0171388
759.463	0.0171812
759.541	0.0171129
759.619	0.0171649
759.697	0.0169878
759.775	0.0170319
759.853	0.0171432
759.932	0.0171754
760.010	0.0171252
760.088	0.0169391
760.166	0.0169537
760.244	0.0170748
760.322	0.0170042
760.400	0.0171053
760.478	0.0171378
760.557	0.0172018
760.635	0.0171459
760.713	0.0172543
760.791	0.0173291
760.869	0.0172964
760.947	0.0173409
761.025	0.0171741
761.103	0.0172662
761.182	0.0172108
761.260	0.0171303
761.338	0.0171085
761.416	0.0170750
761.494	0.0171239
761.572	0.0170918
761.650	0.0169910
761.728	0.0170357
761.807	0.0169936
761.885	0.0170248
761.963	0.0171099
762.041	0.0171965
762.119	0.0172353
762.197	0.0174180
762.275	0.0173594
762.353	0.0173666
762.432	0.0174046
762.510	0.0173348
762.588	0.0174874
762.666	0.0175019
762.744	0.0175220
762.822	0.0173418
762.900	0.0173976
762.978	0.0173801
763.057	0.0171654
763.135	0.0171545
763.213	0.0168867
763.291	0.0169224
763.369	0.0169169
763.447	0.0166866
763.525	0.0167173
763.603	0.0168943
763.682	0.0168687
763.760	0.0166298
763.838	0.0166904
763.916	0.0166438
763.994	0.0167297
764.072	0.0168311
764.150	0.0169850
764.228	0.0168825
764.307	0.0170171
764.385	0.0170759
764.463	0.0171414
764.541	0.0171946
764.619	0.0173224
764.697	0.0174763
764.775	0.0173564
764.853	0.0175377
764.932	0.0174818
765.010	0.0177032
765.088	0.0175909
765.166	0.0173668
765.244	0.0176306
765.322	0.0174905
765.400	0.0174792
765.478	0.0175092
765.557	0.0174403
765.635	0.0172536
765.713	0.0171228
765.791	0.0170324
765.869	0.0170129
765.947	0.0168063
766.025	0.0168127
766.103	0.0168167
766.182	0.0165841
766.260	0.0165946
766.338	0.0164755
766.416	0.0165381
766.494	0.0164771
766.572	0.0165298
766.650	0.0164997
766.728	0.0165916
766.807	0.0165854
766.885	0.0165241
766.963	0.0167488
767.041	0.0168292
767.119	0.0168182
767.197	0.0169504
767.275	0.0169410
767.353	0.0169221
767.432	0.0169682
767.510	0.0171518
767.588	0.0169716
767.666	0.0171767
767.744	0.0172476
767.822	0.0171964
767.900	0.0172257
767.978	0.0172041
768.057	0.0173670
768.135	0.0173326
768.213	0.0174670
768.291	0.0175781
768.369	0.0175771
768.447	0.0175993
768.525	0.0176948
768.603	0.0177746
768.682	0.0176598
768.760	0.0177534
768.838	0.0175651
768.916	0.0174443
768.994	0.0173042
769.072	0.0172164
769.150	0.0170206
769.228	0.0167767
769.307	0.0168070
769.385	0.0164963
769.463	0.0161576
769.541	0.0161284
769.619	0.0161449
769.697	0.0160848
769.775	0.0160210
769.853	0.0159400
769.932	0.0161014
770.010	0.0160949
770.088	0.0160407
770.166	0.0161144
770.244	0.0162737
770.322	0.0163352
770.400	0.0166298
770.478	0.0168667
770.557	0.0171152
770.635	0.0171816
770.713	0.0173091
770.791	0.0176456
770.869	0.0177284
770.947	0.0177466
771.025	0.0178645
771.103	0.0180117
771.182	0.0179816
771.260	0.0180414
771.338	0.0180592
771.416	0.0179649
771.494	0.0181149
771.572	0.0181266
771.650	0.0179404
771.728	0.0177846
771.807	0.0176913
771.885	0.0175479
771.963	0.0173238
772.041	0.0173459
772.119	0.0171413
772.197	0.0169324
772.275	0.0167384
772.353	0.0164643
772.432	0.0164979
772.510	0.0163206
772.588	0.0161506
772.666	0.0160686
772.744	0.0162376
772.822	0.0159620
772.900	0.0162159
772.978	0.0161481
773.057	0.0161035
773.135	0.0162004
773.213	0.0163239
773.291	0.0162642
773.369	0.0163529
773.447	0.0165343
773.525	0.0167756
773.603	0.0167837
773.682	0.0169170
773.760	0.0172005
773.838	0.0174749
773.916	0.0175713
773.994	0.0178839
774.072	0.0179915
774.150	0.0179376
774.228	0.0181440
774.307	0.0183434
774.385	0.0183622
774.463	0.0184975
774.541	0.0184224
774.619	0.0184341
774.697	0.0182847
774.775	0.0181866
774.853	0.0179389
774.932	0.0178013
775.010	0.0175403
775.088	0.0173600
775.166	0.0170384
775.244	0.0170971
775.322	0.0167607
775.400	0.0165608
775.478	0.0163599
775.557	0.0162811
775.635	0.0161887
775.713	0.0161315
775.791	0.0161407
775.869	0.0160170
775.947	0.0159472
776.025	0.0161125
776.103	0.0161113
776.182	0.0163714
776.260	0.0164443
776.338	0.0165463
776.416	0.0165372
776.494	0.0167790
776.572	0.0170583
776.650	0.0171838
776.728	0.0174108
776.807	0.0174851
776.885	0.0176640
776.963	0.0178896
777.041	0.0180419
777.119	0.0183179
777.197	0.0182096
777.275	0.0184232
777.353	0.0184747
777.432	0.0184260
777.510	0.0182900
777.588	0.0181202
777.666	0.0179995
777.744	0.0178062
777.822	0.0175124
777.900	0.0173241
777.978	0.0172695
778.057	0.0168979
778.135	0.0167814
778.213	0.0167428
778.291	0.0165224
778.369	0.0162563
778.447	0.0163105
778.525	0.0161762
778.603	0.0160153
778.682	0.0161194
778.760	0.0160803
778.838	0.0161490
778.916	0.0162513
778.994	0.0163657
779.072	0.0164001
779.150	0.0166709
779.228	0.0168216
779.307	0.0167768
779.385	0.0169280
779.463	0.0172334
779.541	0.0172970
779.619	0.0175148
779.697	0.0177477
779.775	0.0177757
779.853	0.0179023
779.932	0.0181249
780.010	0.0181034
780.088	0.0181325
780.166	0.0183080
780.244	0.0182833
780.322	0.0181647
780.400	0.0180526
780.478	0.0179857
780.557	0.0178822
780.635	0.0175780
780.713	0.0174220
780.791	0.0172132
780.869	0.0171675
780.947	0.0168755
781.025	0.0165612
781.103	0.0164961
781.182	0.0163911
781.260	0.0162892
781.338	0.0161787
781.416	0.0161141
781.494	0.0160255
781.572	0.0160735
781.650	0.0159945
781.728	0.0160579
781.807	0.0161781
781.885	0.0163744
781.963	0.0165401
782.041	0.0167583
782.119	0.0168842
782.197	0.0171081
782.275	0.0173169
782.353	0.0173964
782.432	0.0174029
782.510	0.0176701
782.588	0.0178108
782.666	0.0177133
782.744	0.0177398
782.822	0.0176523
782.900	0.0176713
782.978	0.0175544
783.057	0.0174486
783.135	0.0174631
783.213	0.0174931
783.291	0.0173890
783.369	0.0173214
783.447	0.0173135
783.525	0.0173778
783.603	0.0172357
783.682	0.0173316
783.760	0.0173609
783.838	0.0172050
783.916	0.0174371
783.994	0.0173249
784.072	0.0173163
784.150	0.0173550
784.228	0.0174124
784.307	0.0174519
784.385	0.0173000
784.463	0.0172674
784.541	0.0173156
784.619	0.0170866
784.697	0.0171149
784.775	0.0169720
784.853	0.0167776
784.932	0.0167627
785.010	0.0166275
785.088	0.0164731
785.166	0.0163965
785.244	0.0166710
785.322	0.0163653
785.400	0.0164168
785.478	0.0165659
785.557	0.0165135
785.635	0.0164909
785.713	0.0166938
785.791	0.0167048
785.869	0.0168256
785.947	0.0169993
786.025	0.0170072
786.103	0.0172453
786.182	0.0172397
786.260	0.0173399
786.338	0.0174237
786.416	0.0174902
786.494	0.0176004
786.572	0.0176646
786.650	0.0175460
786.728	0.0175551
786.807	0.0176210
786.885	0.0175176
786.963	0.0174861
787.041	0.0172591
787.119	0.0172022
787.197	0.0171713
787.275	0.0169092
787.353	0.0166875
787.432	0.0165991
787.510	0.0164197
787.588	0.0161688
787.666	0.0162647
787.744	0.0161125
787.822	0.0162589
787.900	0.0162752
787.978	0.0163884
788.057	0.0163979
788.135	0.0165815
788.213	0.0167591
788.291	0.0170302
788.369	0.0172646
788.447	0.0174827
788.525	0.0177094
788.603	0.0179160
788.682	0.0180245
788.760	0.0181115
788.838	0.0181625
788.916	0.0183041
788.994	0.0183125
789.072	0.0180087
789.150	0.0181054
789.228	0.0178139
789.307	0.0177415
789.385	0.0174044
789.463	0.0171817
789.541	0.0170569
789.619	0.0168184
789.697	0.0164835
789.775	0.0163177
789.853	0.0160864
789.932	0.0160900
790.010	0.0158898
790.088	0.0160026
790.166	0.0161295
790.244	0.0160680
790.322	0.0161639
790.400	0.0163274
790.478	0.0164823
790.557	0.0167556
790.635	0.0170834
790.713	0.0169959
790.791	0.0173112
790.869	0.0175358
790.947	0.0176586
791.025	0.0176338
791.103	0.0179128
791.182	0.0178323
791.260	0.0179316
791.338	0.0178070
791.416	0.0176662
791.494	0.0176633
791.572	0.0175207
791.650	0.0174930
791.728	0.0174456
791.807	0.0173183
791.885	0.0170084
791.963	0.0168845
792.041	0.0168063
792.119	0.0166512
792.197	0.0165289
792.275	0.0162562
792.353	0.0162840
792.432	0.0162096
792.510	0.0162424
792.588	0.0161465
792.666	0.0161572
792.744	0.0163544
792.822	0.0165370
792.900	0.0164397
792.978	0.0165514
793.057	0.0166528
793.135	0.0170499
793.213	0.0171566
793.291	0.0172929
793.369	0.0174184
793.447	0.0175896
793.525	0.0177736
793.603	0.0180143
793.682	0.0179951
793.760	0.0181900
793.838	0.0184229
793.916	0.0184559
793.994	0.0184142
794.072	0.0184827
794.150	0.0184058
794.228	0.0183739
794.307	0.0183533
794.385	0.0179981
794.463	0.0178576
794.541	0.0176103
794.619	0.0174130
794.697	0.0172007
794.775	0.0169603
794.853	0.0166545
794.932	0.0164022
795.010	0.0164122
795.088	0.0161707
795.166	0.0159815
795.244	0.0159039
795.322	0.0158774
795.400	0.0156776
795.478	0.0158219
795.557	0.0156806
795.635	0.0159599
795.713	0.0160929
795.791	0.0162168
795.869	0.0163214
795.947	0.0166289
796.025	0.0166871
796.103	0.0169852
796.182	0.0173833
796.260	0.0174088
796.338	0.0176232
796.416	0.0178391
796.494	0.0180506
796.572	0.0182059
796.650	0.0182275
796.728	0.0180757
796.807	0.0182631
796.885	0.0181235
796.963	0.0180389
797.041	0.0180022
797.119	0.0178198
797.197	0.0176252
797.275	0.0174630
797.353	0.0172914
797.432	0.0171851
797.510	0.0171189
797.588	0.0169771
797.666	0.0169929
797.744	0.0169318
797.822	0.0169377
797.900	0.0169863
797.978	0.0170067
798.057	0.0170851
798.135	0.0170395
798.213	0.0171702
798.291	0.0172048
798.369	0.0172630
798.447	0.0171587
798.525	0.0172955
798.603	0.0171810
798.682	0.0170595
798.760	0.0169556
798.838	0.0169063
798.916	0.0167930
798.994	0.0167004
799.072	0.0165565
799.150	0.0165250
799.228	0.0166582
799.307	0.0165440
799.385	0.0165327
799.463	0.0165408
799.541	0.0165878
799.619	0.0166678
799.697	0.0167590
799.775	0.0168239
799.853	0.0169154
799.932	0.0170458
800.010	0.0170528
800.088	0.0170445
800.166	0.0170325
800.244	0.0169311
800.322	0.0169163
800.400	0.0170975
800.478	0.0171213
800.557	0.0170943
800.635	0.0170783
800.713	0.0171523
800.791	0.0171259
800.869	0.0172012
800.947	0.0172218
801.025	0.0172981
801.103	0.0173235
801.182	0.0177097
801.260	0.0177354
801.338	0.0179465
801.416	0.0181306
801.494	0.0182751
801.572	0.0182998
801.650	0.0182299
801.728	0.0183752
801.807	0.0182993
801.885	0.0180818
801.963	0.0180843
802.041	0.0178535
802.119	0.0175013
802.197	0.0171134
802.275	0.0169592
802.353	0.0167672
802.432	0.0166179
802.510	0.0163942
802.588	0.0162626
802.666	0.0160776
802.744	0.0161407
802.822	0.0159626
802.900	0.0160104
802.978	0.0161439
803.057	0.0162145
803.135	0.0162341
803.213	0.0164865
803.291	0.0166528
803.369	0.0168970
803.447	0.0169756
803.525	0.0170313
803.603	0.0170952
803.682	0.0170537
803.760	0.0169328
803.838	0.0169553
803.916	0.0168560
803.994	0.0169466
804.072	0.0166794
804.150	0.0166504
804.228	0.0164587
804.307	0.0162403
804.385	0.0162054
804.463	0.0162299
804.541	0.0161245
804.619	0.0160735
804.697	0.0161635
804.775	0.0164647
804.853	0.0164033
804.932	0.0165525
805.010	0.0170164
805.088	0.0172194
805.166	0.0173767
805.244	0.0175661
805.322	0.0178099
805.400	0.0180416
805.478	0.0183218
805.557	0.0182682
805.635	0.0184623
805.713	0.0185743
805.791	0.0185167
805.869	0.0185946
805.947	0.0186843
806.025	0.0185650
806.103	0.0183222
806.182	0.0182777
806.260	0.0180695
806.338	0.0180788
806.416	0.0180331
806.494	0.0177802
806.572	0.0176205
806.650	0.0174908
806.728	0.0174598
806.807	0.0171259
806.885	0.0171528
806.963	0.0169149
807.041	0.0169153
807.119	0.0167030
807.197	0.0165849
807.275	0.0165445
807.353	0.0164357
807.432	0.0162718
807.510	0.0161356
807.588	0.0159795
807.666	0.0157511
807.744	0.0157650
807.822	0.0156216
807.900	0.0155241
807.978	0.0156555
808.057	0.0155080
808.135	0.0155788
808.213	0.0157050
808.291	0.0157232
808.369	0.0159620
808.447	0.0160627
808.525	0.0161543
808.603	0.0162280
808.682	0.0165385
808.760	0.0166457
808.838	0.0167365
808.916	0.0168558
808.994	0.0170425
809.072	0.0171223
809.150	0.0170244
809.228	0.0171988
809.307	0.0173248
809.385	0.0173788
809.463	0.0173201
809.541	0.0174628
809.619	0.0174967
809.697	0.0175722
809.775	0.0174728
809.853	0.0174699
809.932	0.0176610
810.010	0.0177085
810.088	0.0177942
810.166	0.0177692
810.244	0.0178105
810.322	0.0178938
810.400	0.0179868
810.478	0.0180422
810.557	0.0179372
810.635	0.0181707
810.713	0.0182579
810.791	0.0182629
810.869	0.0183605
810.947	0.0183018
811.025	0.0183412
811.103	0.0183958
811.182	0.0181754
811.260	0.0181005
811.338	0.0178362
811.416	0.0176842
811.494	0.0175992
811.572	0.0172684
811.650	0.0169980
811.728	0.0167945
811.807	0.0166798
811.885	0.0164291
811.963	0.0162976
812.041	0.0161249
812.119	0.0160284
812.197	0.0159951
812.275	0.0158919
812.353	0.0159755
812.432	0.0159606
812.510	0.0159641
812.588	0.0159801
812.666	0.0162479
812.744	0.0163909
812.822	0.0163442
812.900	0.0163498
812.978	0.0164540
813.057	0.0165755
813.135	0.0163602
813.213	0.0165688
813.291	0.0164733
813.369	0.0165083
813.447	0.0165554
813.525	0.0165247
813.603	0.0167217
813.682	0.0164982
813.760	0.0164882
813.838	0.0165470
813.916	0.0166464
813.994	0.0167512
814.072	0.0169306
814.150	0.0167591
814.228	0.0167503
814.307	0.0167998
814.385	0.0169715
814.463	0.0169550
814.541	0.0171364
814.619	0.0171040
814.697	0.0172131
814.775	0.0173004
814.853	0.0173852
814.932	0.0175401
815.010	0.0174635
815.088	0.0175519
815.166	0.0176728
815.244	0.0177155
815.322	0.0177616
815.400	0.0177718
815.478	0.0178233
815.557	0.0178106
815.635	0.0178902
815.713	0.0177802
815.791	0.0178892
815.869	0.0177242
815.947	0.0176862
816.025	0.0177045
816.103	0.0176022
816.182	0.0176598
816.260	0.0175771
816.338	0.0175612
816.416	0.0174236
816.494	0.0175047
816.572	0.0175036
816.650	0.0174298
816.728	0.0174922
816.807	0.0172778
816.885	0.0174834
816.963	0.0174296
817.041	0.0173047
817.119	0.0173304
817.197	0.0173492
817.275	0.0173262
817.353	0.0172489
817.432	0.0172308
817.510	0.0171573
817.588	0.0172186
817.666	0.0170475
817.744	0.0170819
817.822	0.0169926
817.900	0.0171490
817.978	0.0169169
818.057	0.0168822
818.135	0.0169949
818.213	0.0168000
818.291	0.0168355
818.369	0.0167030
818.447	0.0166499
818.525	0.0164397
818.603	0.0164037
818.682	0.0162688
818.760	0.0162555
818.838	0.0162010
818.916	0.0160357
818.994	0.0160309
819.072	0.0159860
819.150	0.0159168
819.228	0.0162398
819.307	0.0162159
819.385	0.0160703
819.463	0.0162907
819.541	0.0163645
819.619	0.0165041
819.697	0.0168156
819.775	0.0170499
819.853	0.0171363
819.932	0.0173159
820.010	0.0175637
820.088	0.0175635
820.166	0.0176385
820.244	0.0177077
820.322	0.0180517
820.400	0.0179937
820.478	0.0179662
820.557	0.0178427
820.635	0.0178983
820.713	0.0178048
820.791	0.0176292
820.869	0.0175951
820.947	0.0174397
821.025	0.0171680
821.103	0.0173288
821.182	0.0172900
821.260	0.0173151
821.338	0.0171967
821.416	0.0170390
821.494	0.0172301
821.572	0.0171506
821.650	0.0171645
821.728	0.0171569
821.807	0.0171394
821.885	0.0173273
821.963	0.0171664
822.041	0.0173058
822.119	0.0173277
822.197	0.0173143
822.275	0.0173102
822.353	0.0174311
822.432	0.0175725
822.510	0.0173698
822.588	0.0174793
822.666	0.0174314
822.744	0.0173667
822.822	0.0174260
822.900	0.0175089
822.978	0.0174040
823.057	0.0172650
823.135	0.0173464
823.213	0.0172996
823.291	0.0173737
823.369	0.0172859
823.447	0.0171489
823.525	0.0171975
823.603	0.0171326
823.682	0.0169651
823.760	0.0169363
823.838	0.0169146
823.916	0.0168614
823.994	0.0165717
824.072	0.0165508
824.150	0.0165501
824.228	0.0164252
824.307	0.0164049
824.385	0.0164653
824.463	0.0164384
824.541	0.0164581
824.619	0.0165250
824.697	0.0165620
824.775	0.0166965
824.853	0.0167476
824.932	0.0167977
825.010	0.0168150
825.088	0.0169056
825.166	0.0169389
825.244	0.0171255
825.322	0.0171947
825.400	0.0171673
825.478	0.0172554
825.557	0.0172457
825.635	0.0173021
825.713	0.0171571
825.791	0.0170741
825.869	0.0171312
825.947	0.0169440
826.025	0.0167989
826.103	0.0169453
826.182	0.0166324
826.260	0.0166648
826.338	0.0166405
826.416	0.0165444
826.494	0.0165893
826.572	0.0165132
826.650	0.0167719
826.728	0.0167700
826.807	0.0167918
826.885	0.0169314
826.963	0.0170188
827.041	0.0171227
827.119	0.0173505
827.197	0.0177243
827.275	0.0176981
827.353	0.0178057
827.432	0.0180939
827.510	0.0181635
827.588	0.0179489
827.666	0.0181516
827.744	0.0180489
827.822	0.0180350
827.900	0.0179855
827.978	0.0178333
828.057	0.0178179
828.135	0.0175137
828.213	0.0175300
828.291	0.0173476
828.369	0.0170647
828.447	0.0168600
828.525	0.0167459
828.603	0.0166757
828.682	0.0165556
828.760	0.0165460
828.838	0.0165566
828.916	0.0164793
828.994	0.0164822
829.072	0.0165292
829.150	0.0165819
829.228	0.0166342
829.307	0.0165098
829.385	0.0166064
829.463	0.0166528
829.541	0.0167219
829.619	0.0167071
829.697	0.0167233
829.775	0.0166798
829.853	0.0166719
829.932	0.0166476
830.010	0.0168824
830.088	0.0168409
830.166	0.0167150
830.244	0.0166986
830.322	0.0168188
830.400	0.0166726
830.478	0.0167368
830.557	0.0167496
830.635	0.0167289
830.713	0.0168729
830.791	0.0169313
830.869	0.0168754
830.947	0.0168655
831.025	0.0169887
831.103	0.0171664
831.182	0.0171441
831.260	0.0170660
831.338	0.0171545
831.416	0.0171675
831.494	0.0170284
831.572	0.0171597
831.650	0.0172773
831.728	0.0172105
831.807	0.0173100
831.885	0.0171594
831.963	0.0173569
832.041	0.0172368
832.119	0.0172056
832.197	0.0172886
832.275	0.0174474
832.353	0.0173755
832.432	0.0173904
832.510	0.0175543
832.588	0.0175215
832.666	0.0174636
832.744	0.0175197
832.822	0.0175671
832.900	0.0174969
832.978	0.0177166
833.057	0.0176621
833.135	0.0176017
833.213	0.0176218
833.291	0.0176878
833.369	0.0176495
833.447	0.0174349
833.525	0.0174347
833.603	0.0173849
833.682	0.0172466
833.760	0.0172672
833.838	0.0171004
833.916	0.0170480
833.994	0.0170119
834.072	0.0168077
834.150	0.0167741
834.228	0.0169044
834.307	0.0167772
834.385	0.0167156
834.463	0.0166542
834.541	0.0167174
834.619	0.0168089
834.697	0.0168288
834.775	0.0166111
834.853	0.0166769
834.932	0.0165890
835.010	0.0166120
835.088	0.0166526
835.166	0.0166868
835.244	0.0166228
835.322	0.0166531
835.400	0.0166190
835.478	0.0165730
835.557	0.0164487
835.635	0.0165829
835.713	0.0166647
835.791	0.0165830
835.869	0.0166562
835.947	0.0166414
836.025	0.0167657
836.103	0.0168896
836.182	0.0168980
836.260	0.0168934
836.338	0.0169617
836.416	0.0172353
836.494	0.0173183
836.572	0.0173557
836.650	0.0172972
836.728	0.0173996
836.807	0.0173299
836.885	0.0173324
836.963	0.0173862
837.041	0.0174107
837.119	0.0172500
837.197	0.0172317
837.275	0.0173481
837.353	0.0172322
837.432	0.0170084
837.510	0.0170177
837.588	0.0169763
837.666	0.0168732
837.744	0.0169042
837.822	0.0167449
837.900	0.0166814
837.978	0.0168164
838.057	0.0168025
838.135	0.0168250
838.213	0.0168124
838.291	0.0167632
838.369	0.0168350
838.447	0.0169550
838.525	0.0169889
838.603	0.0170804
838.682	0.0172186
838.760	0.0170973
838.838	0.0172234
838.916	0.0171596
838.994	0.0171833
839.072	0.0172164
839.150	0.0172526
839.228	0.0175920
839.307	0.0173653
839.385	0.0174162
839.463	0.0174539
839.541	0.0174918
839.619	0.0174754
839.697	0.0175503
839.775	0.0175777
839.853	0.0175838
839.932	0.0175578
840.010	0.0175256
840.088	0.0175556
840.166	0.0176596
840.244	0.0175101
840.322	0.0176086
840.400	0.0173621
840.478	0.0174150
840.557	0.0172007
840.635	0.0171679
840.713	0.0169213
840.791	0.0168828
840.869	0.0166776
840.947	0.0167198
841.025	0.0165833
841.103	0.0164764
841.182	0.0163995
841.260	0.0163019
841.338	0.0164026
841.416	0.0164891
841.494	0.0163909
841.572	0.0164702
841.650	0.0167287
841.728	0.0169379
841.807	0.0169473
841.885	0.0172175
841.963	0.0171958
842.041	0.0172990
842.119	0.0175862
842.197	0.0175640
842.275	0.0175282
842.353	0.0175867
842.432	0.0174609
842.510	0.0175320
842.588	0.0173856
842.666	0.0172594
842.744	0.0173514
842.822	0.0173330
842.900	0.0170402
842.978	0.0169617
843.057	0.0168266
843.135	0.0167471
843.213	0.0166460
843.291	0.0165716
843.369	0.0165673
843.447	0.0165584
843.525	0.0165980
843.603	0.0165938
843.682	0.0166550
843.760	0.0167191
843.838	0.0167509
843.916	0.0167888
843.994	0.0169224
844.072	0.0169818
844.150	0.0169413
844.228	0.0171152
844.307	0.0171358
844.385	0.0172005
844.463	0.0172589
844.541	0.0171332
844.619	0.0172285
844.697	0.0172126
844.775	0.0171456
844.853	0.0171793
844.932	0.0171841
845.010	0.0170799
845.088	0.0170449
845.166	0.0171328
845.244	0.0172473
845.322	0.0172254
845.400	0.0170969
845.478	0.0172089
845.557	0.0171687
845.635	0.0172896
845.713	0.0171986
845.791	0.0172054
845.869	0.0172752
845.947	0.0173183
846.025	0.0172517
846.103	0.0173343
846.182	0.0173064
846.260	0.0170860
846.338	0.0171503
846.416	0.0172664
846.494	0.0171614
846.572	0.0170977
846.650	0.0170538
846.728	0.0170394
846.807	0.0171403
846.885	0.0169963
846.963	0.0170677
847.041	0.0169327
847.119	0.0169830
847.197	0.0170206
847.275	0.0170371
847.353	0.0170705
847.432	0.0170604
847.510	0.0170341
847.588	0.0171591
847.666	0.0172721
847.744	0.0172566
847.822	0.0172424
847.900	0.0174356
847.978	0.0174686
848.057	0.0173842
848.135	0.0173451
848.213	0.0174103
848.291	0.0173280
848.369	0.0172067
848.447	0.0172453
848.525	0.0171125
848.603	0.0170106
848.682	0.0168524
848.760	0.0167267
848.838	0.0168723
848.916	0.0166453
848.994	0.0166434
849.072	0.0167553
849.150	0.0166271
849.228	0.0166116
849.307	0.0166579
849.385	0.0167464
849.463	0.0167424
849.541	0.0168709
849.619	0.0169135
849.697	0.0168276
849.775	0.0169090
849.853	0.0169463
849.932	0.0169809
850.010	0.0169956
850.088	0.0169576
850.166	0.0168901
850.244	0.0171030
850.322	0.0169663
850.400	0.0170307
850.478	0.0170700
850.557	0.0169545
850.635	0.0170591
850.713	0.0170180
850.791	0.0169979
850.869	0.0171468
850.947	0.0171710
851.025	0.0172583
851.103	0.0172068
851.182	0.0171536
851.260	0.0172807
851.338	0.0173819
851.416	0.0172225
851.494	0.0173228
851.572	0.0174187
851.650	0.0173786
851.728	0.0173698
851.807	0.0173824
851.885	0.0174150
851.963	0.0175496
852.041	0.0175544
852.119	0.0174297
852.197	0.0173685
852.275	0.0175228
852.353	0.0174567
852.432	0.0173256
852.510	0.0173213
852.588	0.0173368
852.666	0.0174810
852.744	0.0173302
852.822	0.0173438
852.900	0.0171894
852.978	0.0170799
853.057	0.0173119
853.135	0.0171043
853.213	0.0171066
853.291	0.0169849
853.369	0.0168484
853.447	0.0168186
853.525	0.0168622
853.603	0.0168578
853.682	0.0168948
853.760	0.0171037
853.838	0.0169353
853.916	0.0170218
853.994	0.0170583
854.072	0.0171117
854.150	0.0170312
854.228	0.0171793
854.307	0.0172198
854.385	0.0171749
854.463	0.0172134
854.541	0.0170939
854.619	0.0171059
854.697	0.0171774
854.775	0.0171974
854.853	0.0171769
854.932	0.0170668
855.010	0.0170567
855.088	0.0170464
855.166	0.0169572
855.244	0.0168972
855.322	0.0169733
855.400	0.0169442
855.478	0.0170246
855.557	0.0169703
855.635	0.0169363
855.713	0.0168793
855.791	0.0170606
855.869	0.0170688
855.947	0.0170206
856.025	0.0171959
856.103	0.0171088
856.182	0.0171613
856.260	0.0172128
856.338	0.0171009
856.416	0.0171159
856.494	0.0173994
856.572	0.0170956
856.650	0.0171662
856.728	0.0170642
856.807	0.0170224
856.885	0.0170927
856.963	0.0170641
857.041	0.0170279
857.119	0.0170182
857.197	0.0169736
857.275	0.0168904
857.353	0.0169602
857.432	0.0168204
857.510	0.0169067
857.588	0.0170358
857.666	0.0171844
857.744	0.0169859
857.822	0.0172450
857.900	0.0172121
857.978	0.0172930
858.057	0.0173421
858.135	0.0173544
858.213	0.0174100
858.291	0.0175223
858.369	0.0176552
858.447	0.0175061
858.525	0.0176170
858.603	0.0175380
858.682	0.0174684
858.760	0.0175302
858.838	0.0174547
858.916	0.0173707
858.994	0.0173084
859.072	0.0173014
859.150	0.0172559
859.228	0.0173067
859.307	0.0171291
859.385	0.0170417
859.463	0.0171161
859.541	0.0170661
859.619	0.0170657
859.697	0.0171124
859.775	0.0170529
859.853	0.0168870
859.932	0.0170900
860.010	0.0168707
860.088	0.0169854
860.166	0.0170988
860.244	0.0169875
860.322	0.0171286
860.400	0.0170066
860.478	0.0170936
860.557	0.0172079
860.635	0.0169535
860.713	0.0170248
860.791	0.0170995
860.869	0.0171468
860.947	0.0169409
861.025	0.0168747
861.103	0.0166527
861.182	0.0168120
861.260	0.0168699
861.338	0.0167790
861.416	0.0166058
861.494	0.0166277
861.572	0.0166187
861.650	0.0167443
861.728	0.0167576
861.807	0.0167697
861.885	0.0168654
861.963	0.0169070
862.041	0.0170196
862.119	0.0169940
862.197	0.0170410
862.275	0.0171289
862.353	0.0172265
862.432	0.0172719
862.510	0.0173438
862.588	0.0172438
862.666	0.0172344
862.744	0.0172035
862.822	0.0171851
862.900	0.0171344
862.978	0.0170455
863.057	0.0170095
863.135	0.0169672
863.213	0.0169611
863.291	0.0168637
863.369	0.0168299
863.447	0.0166388
863.525	0.0165929
863.603	0.0168404
863.682	0.0168468
863.760	0.0166892
863.838	0.0168655
863.916	0.0169434
863.994	0.0170565
864.072	0.0170370
864.150	0.0169942
864.228	0.0171661
864.307	0.0172192
864.385	0.0171180
864.463	0.0173258
864.541	0.0173350
864.619	0.0173056
864.697	0.0174546
864.775	0.0174162
864.853	0.0173288
864.932	0.0170895
865.010	0.0172945
865.088	0.0173576
865.166	0.0171717
865.244	0.0171988
865.322	0.0171919
865.400	0.0169891
865.478	0.0169289
865.557	0.0169749
865.635	0.0169785
865.713	0.0169382
865.791	0.0169341
865.869	0.0169527
865.947	0.0169660
866.025	0.0168547
866.103	0.0168388
866.182	0.0170163
866.260	0.0170988
866.338	0.0170329
866.416	0.0170199
866.494	0.0170358
866.572	0.0171046
866.650	0.0172707
866.728	0.0170542
866.807	0.0171514
866.885	0.0170406
866.963	0.0170721
867.041	0.0171471
867.119	0.0172278
867.197	0.0170137
867.275	0.0168690
867.353	0.0170187
867.432	0.0169029
867.510	0.0168137
867.588	0.0166795
867.666	0.0167325
867.744	0.0166291
867.822	0.0165972
867.900	0.0165634
867.978	0.0165999
868.057	0.0165374
868.135	0.0166118
868.213	0.0167593
868.291	0.0167258
868.369	0.0167724
868.447	0.0169865
868.525	0.0170512
868.603	0.0170507
868.682	0.0171732
868.760	0.0172202
868.838	0.0171801
868.916	0.0172921
868.994	0.0173566
869.072	0.0172926
869.150	0.0172966
869.228	0.0173260
869.307	0.0172699
869.385	0.0171891
869.463	0.0170580
869.541	0.0171188
869.619	0.0170659
869.697	0.0170477
869.775	0.0168872
869.853	0.0169464
869.932	0.0169154
870.010	0.0168245
870.088	0.0169552
870.166	0.0168531
870.244	0.0169202
870.322	0.0169016
870.400	0.0169701
870.478	0.0171693
870.557	0.0173608
870.635	0.0171909
870.713	0.0172655
870.791	0.0172765
870.869	0.0174017
870.947	0.0173609
871.025	0.0175423
871.103	0.0175314
871.182	0.0173883
871.260	0.0174715
871.338	0.0174715
871.416	0.0175356
871.494	0.0173626
871.572	0.0173004
871.650	0.0172353
871.728	0.0172317
871.807	0.0172281
871.885	0.0171865
871.963	0.0170466
872.041	0.0169804
872.119	0.0170017
872.197	0.0169865
872.275	0.0169563
872.353	0.0170511
872.432	0.0169957
872.510	0.0170641
872.588	0.0171037
872.666	0.0170657
872.744	0.0171053
872.822	0.0171239
872.900	0.0171822
872.978	0.0172379
873.057	0.0172998
873.135	0.0171983
873.213	0.0172592
873.291	0.0172031
873.369	0.0170821
873.447	0.0169857
873.525	0.0171655
873.603	0.0171391
873.682	0.0170767
873.760	0.0169434
873.838	0.0169704
873.916	0.0167754
873.994	0.0166987
874.072	0.0168401
874.150	0.0168236
874.228	0.0168075
874.307	0.0167437
874.385	0.0168949
874.463	0.0168919
874.541	0.0168407
874.619	0.0170406
874.697	0.0171990
874.775	0.0174172
874.853	0.0172561
874.932	0.0172931
875.010	0.0172621
875.088	0.0173914
875.166	0.0173251
875.244	0.0174780
875.322	0.0174335
875.400	0.0173911
875.478	0.0174248
875.557	0.0173742
875.635	0.0173943
875.713	0.0173563
875.791	0.0172626
875.869	0.0172986
875.947	0.0173541
876.025	0.0171726
876.103	0.0172593
876.182	0.0173339
876.260	0.0171954
876.338	0.0172539
876.416	0.0172424
876.494	0.0171223
876.572	0.0172732
876.650	0.0172548
876.728	0.0172330
876.807	0.0173650
876.885	0.0174102
876.963	0.0172991
877.041	0.0174192
877.119	0.0173800
877.197	0.0174575
877.275	0.0175534
877.353	0.0174730
877.432	0.0173455
877.510	0.0172360
877.588	0.0171901
877.666	0.0172971
877.744	0.0171223
877.822	0.0170213
877.900	0.0169606
877.978	0.0168839
878.057	0.0169640
878.135	0.0168090
878.213	0.0168842
878.291	0.0167278
878.369	0.0167959
878.447	0.0168406
878.525	0.0167342
878.603	0.0167074
878.682	0.0168641
878.760	0.0169721
878.838	0.0168796
878.916	0.0167883
878.994	0.0170433
879.072	0.0170097
879.150	0.0169850
879.228	0.0170203
879.307	0.0172012
879.385	0.0172276
879.463	0.0172023
879.541	0.0171770
879.619	0.0172319
879.697	0.0171687
879.775	0.0171587
879.853	0.0170219
879.932	0.0170489
880.010	0.0169917
880.088	0.0169079
880.166	0.0168650
880.244	0.0169248
880.322	0.0167731
880.400	0.0167980
880.478	0.0167467
880.557	0.0168050
880.635	0.0167239
880.713	0.0167626
880.791	0.0166975
880.869	0.0167548
880.947	0.0169256
881.025	0.0169831
881.103	0.0170782
881.182	0.0171451
881.260	0.0172282
881.338	0.0172323
881.416	0.0171712
881.494	0.0173430
881.572	0.0174813
881.650	0.0172890
881.728	0.0173243
881.807	0.0174155
881.885	0.0173832
881.963	0.0173962
882.041	0.0173231
882.119	0.0173452
882.197	0.0173830
882.275	0.0170696
882.353	0.0171587
882.432	0.0171407
882.510	0.0171104
882.588	0.0170387
882.666	0.0168677
882.744	0.0169978
882.822	0.0170560
882.900	0.0170077
882.978	0.0169228
883.057	0.0169322
883.135	0.0172529
883.213	0.0171925
883.291	0.0170228
883.369	0.0170310
883.447	0.0171851
883.525	0.0172713
883.603	0.0171201
883.682	0.0171331
883.760	0.0170355
883.838	0.0171973
883.916	0.0171511
883.994	0.0170509
884.072	0.0169740
884.150	0.0170161
884.228	0.0169032
884.307	0.0168960
884.385	0.0167831
884.463	0.0167737
884.541	0.0167295
884.619	0.0166582
884.697	0.0166032
884.775	0.0167478
884.853	0.0166999
884.932	0.0165833
885.010	0.0166685
885.088	0.0167100
885.166	0.0168121
885.244	0.0168311
885.322	0.0169201
885.400	0.0169291
885.478	0.0169244
885.557	0.0170078
885.635	0.0170549
885.713	0.0172098
885.791	0.0172211
885.869	0.0172871
885.947	0.0172686
886.025	0.0173018
886.103	0.0172108
886.182	0.0173652
886.260	0.0171552
886.338	0.0171331
886.416	0.0171066
886.494	0.0170998
886.572	0.0169800
886.650	0.0169497
886.728	0.0168765
886.807	0.0166714
886.885	0.0168798
886.963	0.0169002
887.041	0.0169304
887.119	0.0168168
887.197	0.0168450
887.275	0.0170039
887.353	0.0171503
887.432	0.0172126
887.510	0.0172655
887.588	0.0173150
887.666	0.0174677
887.744	0.0175105
887.822	0.0176325
887.900	0.0175970
887.978	0.0175871
888.057	0.0176281
888.135	0.0176363
888.213	0.0174332
888.291	0.0174837
888.369	0.0176878
888.447	0.0174072
888.525	0.0174062
888.603	0.0172845
888.682	0.0170937
888.760	0.0170992
888.838	0.0171437
888.916	0.0170300
888.994	0.0168889
889.072	0.0169278
889.150	0.0169292
889.228	0.0167086
889.307	0.0167200
889.385	0.0167189
889.463	0.0168696
889.541	0.0168591
889.619	0.0169046
889.697	0.0169070
889.775	0.0167387
889.853	0.0171198
889.932	0.0170530
890.010	0.0170319
890.088	0.0170412
890.166	0.0169946
890.244	0.0169915
890.322	0.0171269
890.400	0.0172560
890.478	0.0170152
890.557	0.0170840
890.635	0.0170612
890.713	0.0169633
890.791	0.0169557
890.869	0.0168440
890.947	0.0168967
891.025	0.0168347
891.103	0.0167549
891.182	0.0167201
891.260	0.0166490
891.338	0.0166107
891.416	0.0166490
891.494	0.0166950
891.572	0.0166181
891.650	0.0166496
891.728	0.0165790
891.807	0.0166234
891.885	0.0167472
891.963	0.0167389
892.041	0.0169398
892.119	0.0169270
892.197	0.0171898
892.275	0.0171964
892.353	0.0171331
892.432	0.0171895
892.510	0.0173584
892.588	0.0173940
892.666	0.0174564
892.744	0.0173114
892.822	0.0173222
892.900	0.0174643
892.978	0.0174300
893.057	0.0173246
893.135	0.0172258
893.213	0.0172104
893.291	0.0172680
893.369	0.0173277
893.447	0.0172513
893.525	0.0172401
893.603	0.0172548
893.682	0.0171954
893.760	0.0172066
893.838	0.0173551
893.916	0.0171635
893.994	0.0172354
894.072	0.0172178
894.150	0.0174509
894.228	0.0174530
894.307	0.0174191
894.385	0.0174482
894.463	0.0172923
894.541	0.0175253
894.619	0.0173770
894.697	0.0174903
894.775	0.0173235
894.853	0.0173610
894.932	0.0173059
895.010	0.0173211
895.088	0.0172940
895.166	0.0171999
895.244	0.0172703
895.322	0.0172018
895.400	0.0171313
895.478	0.0172176
895.557	0.0171907
895.635	0.0168667
895.713	0.0169629
895.791	0.0170303
895.869	0.0168687
895.947	0.0170058
896.025	0.0170753
896.103	0.0168161
896.182	0.0167505
896.260	0.0167078
896.338	0.0167914
896.416	0.0167874
896.494	0.0169070
896.572	0.0167440
896.650	0.0167273
896.728	0.0166792
896.807	0.0167234
896.885	0.0167090
896.963	0.0167143
897.041	0.0167609
897.119	0.0167496
897.197	0.0165595
897.275	0.0164883
897.353	0.0167274
897.432	0.0169022
897.510	0.0167352
897.588	0.0167506
897.666	0.0168436
897.744	0.0168485
897.822	0.0170085
897.900	0.0169429
897.978	0.0170295
898.057	0.0170164
898.135	0.0171131
898.213	0.0172839
898.291	0.0172213
898.369	0.0175263
898.447	0.0173370
898.525	0.0174047
898.603	0.0174682
898.682	0.0176961
898.760	0.0176241
898.838	0.0174857
898.916	0.0175532
898.994	0.0174892
899.072	0.0175333
899.150	0.0172447
899.228	0.0175118
899.307	0.0173347
899.385	0.0172217
899.463	0.0171991
899.541	0.0171670
899.619	0.0170924
899.697	0.0170692
899.775	0.0170644
899.853	0.0171290
899.932	0.0169502
900.010	0.0169945
900.088	0.0170269
900.166	0.0171487
900.244	0.0169883
900.322	0.0171478
900.400	0.0170834
900.478	0.0171292
900.557	0.0172333
900.635	0.0170603
900.713	0.0171323
900.791	0.0171333
900.869	0.0170841
900.947	0.0170997
901.025	0.0171857
901.103	0.0172990
901.182	0.0171702
901.260	0.0171864
901.338	0.0171551
901.416	0.0171516
901.494	0.0172577
901.572	0.0171896
901.650	0.0170868
901.728	0.0173084
901.807	0.0172371
901.885	0.0171879
901.963	0.0172437
902.041	0.0172984
902.119	0.0172916
902.197	0.0172688
902.275	0.0171134
902.353	0.0171507
902.432	0.0170722
902.510	0.0172208
902.588	0.0171198
902.666	0.0170658
902.744	0.0171311
902.822	0.0170125
902.900	0.0169503
902.978	0.0170644
903.057	0.0168741
903.135	0.0169761
903.213	0.0168922
903.291	0.0169720
903.369	0.0169604
903.447	0.0168156
903.525	0.0167535
903.603	0.0166757
903.682	0.0166200
903.760	0.0166470
903.838	0.0164610
903.916	0.0167368
903.994	0.0165720
904.072	0.0164657
904.150	0.0165818
904.228	0.0165973
904.307	0.0166063
904.385	0.0167229
904.463	0.0167371
904.541	0.0167254
904.619	0.0168462
904.697	0.0167530
904.775	0.0168134
904.853	0.0168056
904.932	0.0168409
905.010	0.0170258
905.088	0.0170714
905.166	0.0169917
905.244	0.0169850
905.322	0.0170872
905.400	0.0170193
905.478	0.0170578
905.557	0.0170893
905.635	0.0170507
905.713	0.0171289
905.791	0.0172065
905.869	0.0172676
905.947	0.0171942
906.025	0.0172910
906.103	0.0173946
906.182	0.0172402
906.260	0.0172942
906.338	0.0172219
906.416	0.0172530
906.494	0.0173335
906.572	0.0173597
906.650	0.0174249
906.728	0.0174061
906.807	0.0174280
906.885	0.0173518
906.963	0.0173684
907.041	0.0175046
907.119	0.0175058
907.197	0.0174300
907.275	0.0173363
907.353	0.0173981
907.432	0.0176644
907.510	0.0174654
907.588	0.0173369
907.666	0.0172732
907.744	0.0173608
907.822	0.0172432
907.900	0.0171903
907.978	0.0172107
908.057	0.0170969
908.135	0.0170506
908.213	0.0171255
908.291	0.0170646
908.369	0.0171360
908.447	0.0168902
908.525	0.0169736
908.603	0.0169191
908.682	0.0168428
908.760	0.0168043
908.838	0.0169049
908.916	0.0167983
908.994	0.0166658
909.072	0.0166860
909.150	0.0166093
909.228	0.0165554
909.307	0.0164903
909.385	0.0165775
909.463	0.0165705
909.541	0.0165324
909.619	0.0164137
909.697	0.0165084
909.775	0.0164117
909.853	0.0164133
909.932	0.0163890
910.010	0.0164881
910.088	0.0162711
910.166	0.0165644
910.244	0.0165868
910.322	0.0164801
910.400	0.0164176
910.478	0.0166220
910.557	0.0164780
910.635	0.0166969
910.713	0.0167037
910.791	0.0166539
910.869	0.0166717
910.947	0.0167157
911.025	0.0169521
911.103	0.0168107
911.182	0.0169847
911.260	0.0169948
911.338	0.0170042
911.416	0.0170044
911.494	0.0171583
911.572	0.0172161
911.650	0.0172707
911.728	0.0173236
911.807	0.0172533
911.885	0.0173457
911.963	0.0174158
912.041	0.0174686
912.119	0.0174413
912.197	0.0174291
912.275	0.0175187
912.353	0.0175153
912.432	0.0175214
912.510	0.0174111
912.588	0.0174959
912.666	0.0175383
912.744	0.0174928
912.822	0.0174734
912.900	0.0173753
912.978	0.0173872
913.057	0.0174808
913.135	0.0174713
913.213	0.0174200
913.291	0.0174327
913.369	0.0174288
913.447	0.0173708
913.525	0.0172723
913.603	0.0172807
913.682	0.0171213
913.760	0.0173170
913.838	0.0171247
913.916	0.0171389
913.994	0.0171906
914.072	0.0171416
914.150	0.0171558
914.228	0.0170476
914.307	0.0171321
914.385	0.0169029
914.463	0.0169730
914.541	0.0169897
914.619	0.0169873
914.697	0.0168024
914.775	0.0168055
914.853	0.0167376
914.932	0.0167399
915.010	0.0169677
915.088	0.0167773
915.166	0.0166908
915.244	0.0167129
915.322	0.0167216
915.400	0.0168079
915.478	0.0167458
915.557	0.0167003
915.635	0.0165561
915.713	0.0167497
915.791	0.0166595
915.869	0.0167306
915.947	0.0167661
916.025	0.0167648
916.103	0.0167537
916.182	0.0167651
916.260	0.0168208
916.338	0.0167984
916.416	0.0168569
916.494	0.0167706
916.572	0.0169342
916.650	0.0169505
916.728	0.0169933
916.807	0.0168742
916.885	0.0169058
916.963	0.0168591
917.041	0.0169199
917.119	0.0170201
917.197	0.0170105
917.275	0.0169856
917.353	0.0171406
917.432	0.0170198
917.510	0.0171049
917.588	0.0174071
917.666	0.0173086
917.744	0.0173506
917.822	0.0174677
917.900	0.0175120
917.978	0.0175040
918.057	0.0176788
918.135	0.0175783
918.213	0.0176143
918.291	0.0175970
918.369	0.0177082
918.447	0.0177541
918.525	0.0176140
918.603	0.0176015
918.682	0.0175865
918.760	0.0175691
918.838	0.0174290
918.916	0.0174573
918.994	0.0175247
919.072	0.0174173
919.150	0.0174079
919.228	0.0173518
919.307	0.0173156
919.385	0.0173753
919.463	0.0173429
919.541	0.0172353
919.619	0.0172080
919.697	0.0171366
919.775	0.0171886
919.853	0.0172528
919.932	0.0172342
920.010	0.0171801
920.088	0.0171449
920.166	0.0171442
920.244	0.0171284
920.322	0.0171053
920.400	0.0171347
920.478	0.0171294
920.557	0.0171716
920.635	0.0171680
920.713	0.0169106
920.791	0.0170141
920.869	0.0168481
920.947	0.0168610
921.025	0.0169049
921.103	0.0169549
921.182	0.0169593
921.260	0.0168159
921.338	0.0169205
921.416	0.0169514
921.494	0.0169884
921.572	0.0170714
921.650	0.0169076
921.728	0.0169752
921.807	0.0170002
921.885	0.0169925
921.963	0.0170055
922.041	0.0171003
922.119	0.0170838
922.197	0.0171054
922.275	0.0173105
922.353	0.0171912
922.432	0.0172718
922.510	0.0172968
922.588	0.0171010
922.666	0.0172968
922.744	0.0170229
922.822	0.0170104
922.900	0.0170830
922.978	0.0169711
923.057	0.0169565
923.135	0.0169127
923.213	0.0169220
923.291	0.0169002
923.369	0.0168604
923.447	0.0169210
923.525	0.0169593
923.603	0.0169456
923.682	0.0168645
923.760	0.0168509
923.838	0.0170821
923.916	0.0172333
923.994	0.0172465
924.072	0.0172034
924.150	0.0174771
924.228	0.0174275
924.307	0.0173698
924.385	0.0175211
924.463	0.0174989
924.541	0.0175816
924.619	0.0174715
924.697	0.0173871
924.775	0.0174410
924.853	0.0175147
924.932	0.0174033
925.010	0.0172335
925.088	0.0172996
925.166	0.0172916
925.244	0.0170497
925.322	0.0171809
925.400	0.0172040
925.478	0.0171474
925.557	0.0170945
925.635	0.0169150
925.713	0.0169101
925.791	0.0168320
925.869	0.0167675
925.947	0.0167889
926.025	0.0166763
926.103	0.0168805
926.182	0.0166877
926.260	0.0169038
926.338	0.0168685
926.416	0.0168934
926.494	0.0167680
926.572	0.0169055
926.650	0.0170501
926.728	0.0169180
926.807	0.0170603
926.885	0.0169178
926.963	0.0169328
927.041	0.0171011
927.119	0.0169531
927.197	0.0168763
927.275	0.0168358
927.353	0.0167879
927.432	0.0168207
927.510	0.0167191
927.588	0.0166410
927.666	0.0165925
927.744	0.0164897
927.822	0.0167278
927.900	0.0165858
927.978	0.0166366
928.057	0.0164783
928.135	0.0167437
928.213	0.0168332
928.291	0.0168031
928.369	0.0168354
928.447	0.0167961
928.525	0.0170359
928.603	0.0170238
928.682	0.0171810
928.760	0.0172656
928.838	0.0172251
928.916	0.0171826
928.994	0.0171984
929.072	0.0172971
929.150	0.0173349
929.228	0.0172032
929.307	0.0173560
929.385	0.0171542
929.463	0.0172504
929.541	0.0171684
929.619	0.0172359
929.697	0.0170559
929.775	0.0171007
929.853	0.0170414
929.932	0.0170325
930.010	0.0170712
930.088	0.0169993
930.166	0.0169785
930.244	0.0170429
930.322	0.0168079
930.400	0.0169228
930.478	0.0169297
930.557	0.0168957
930.635	0.0170155
930.713	0.0170081
930.791	0.0169041
930.869	0.0170916
930.947	0.0171707
931.025	0.0170856
931.103	0.0170341
931.182	0.0171906
931.260	0.0171365
931.338	0.0170512
931.416	0.0171681
931.494	0.0172066
931.572	0.0171418
931.650	0.0172120
931.728	0.0172013
931.807	0.0172605
931.885	0.0172892
931.963	0.0172910
932.041	0.0171503
932.119	0.0171542
932.197	0.0172286
932.275	0.0170760
932.353	0.0169710
932.432	0.0171075
932.510	0.0169981
932.588	0.0169350
932.666	0.0170098
932.744	0.0169393
932.822	0.0169493
932.900	0.0169359
932.978	0.0170351
933.057	0.0171000
933.135	0.0168928
933.213	0.0169608
933.291	0.0169208
933.369	0.0169218
933.447	0.0168507
933.525	0.0168563
933.603	0.0169324
933.682	0.0168858
933.760	0.0168613
933.838	0.0167445
933.916	0.0168508
933.994	0.0168412
934.072	0.0168718
934.150	0.0168894
934.228	0.0168330
934.307	0.0169099
934.385	0.0168949
934.463	0.0167738
934.541	0.0167444
934.619	0.0168931
934.697	0.0168240
934.775	0.0169920
934.853	0.0169099
934.932	0.0168991
935.010	0.0169370
935.088	0.0169901
935.166	0.0170757
935.244	0.0171005
935.322	0.0170608
935.400	0.0172010
935.478	0.0171533
935.557	0.0170844
935.635	0.0171017
935.713	0.0171036
935.791	0.0172779
935.869	0.0172764
935.947	0.0171589
936.025	0.0170889
936.103	0.0171472
936.182	0.0170264
936.260	0.0171183
936.338	0.0171013
936.416	0.0170911
936.494	0.0171748
936.572	0.0170587
936.650	0.0171989
936.728	0.0171894
936.807	0.0173169
936.885	0.0172626
936.963	0.0170940
937.041	0.0171432
937.119	0.0172208
937.197	0.0172406
937.275	0.0173357
937.353	0.0172613
937.432	0.0172452
937.510	0.0172789
937.588	0.0172035
937.666	0.0173423
937.744	0.0172478
937.822	0.0172003
937.900	0.0173000
937.978	0.0172543
938.057	0.0173442
938.135	0.0171326
938.213	0.0171817
938.291	0.0172478
938.369	0.0172638
938.447	0.0170923
938.525	0.0171455
938.603	0.0172563
938.682	0.0171344
938.760	0.0171105
938.838	0.0172134
938.916	0.0172998
938.994	0.0171867
939.072	0.0173223
939.150	0.0172115
939.228	0.0172219
939.307	0.0171849
939.385	0.0171278
939.463	0.0170684
939.541	0.0174481
939.619	0.0171276
939.697	0.0172034
939.775	0.0172671
939.853	0.0171186
939.932	0.0171187
940.010	0.0171722
940.088	0.0170587
940.166	0.0169910
940.244	0.0169495
940.322	0.0168453
940.400	0.0168389
940.478	0.0168925
940.557	0.0169476
940.635	0.0168654
940.713	0.0168193
940.791	0.0170416
940.869	0.0170143
940.947	0.0168209
941.025	0.0167569
941.103	0.0169164
941.182	0.0169307
941.260	0.0168185
941.338	0.0169086
941.416	0.0170409
941.494	0.0170405
941.572	0.0170029
941.650	0.0169740
941.728	0.0170348
941.807	0.0170438
941.885	0.0170727
941.963	0.0171114
942.041	0.0171891
942.119	0.0171885
942.197	0.0171925
942.275	0.0172468
942.353	0.0171760
942.432	0.0171114
942.510	0.0172552
942.588	0.0171779
942.666	0.0172435
942.744	0.0173197
942.822	0.0172284
942.900	0.0171743
942.978	0.0171590
943.057	0.0173088
943.135	0.0172902
943.213	0.0170922
943.291	0.0172582
943.369	0.0172854
943.447	0.0171992
943.525	0.0172656
943.603	0.0171964
943.682	0.0170901
943.760	0.0171288
943.838	0.0171182
943.916	0.0172968
943.994	0.0172012
944.072	0.0172453
944.150	0.0172550
944.228	0.0171921
944.307	0.0172047
944.385	0.0172368
944.463	0.0172490
944.541	0.0172487
944.619	0.0172215
944.697	0.0171283
944.775	0.0171896
944.853	0.0171595
944.932	0.0171497
945.010	0.0172733
945.088	0.0171792
945.166	0.0170808
945.244	0.0171409
945.322	0.0172407
945.400	0.0171214
945.478	0.0170954
945.557	0.0172005
945.635	0.0171018
945.713	0.0169972
945.791	0.0170746
945.869	0.0170151
945.947	0.0170579
946.025	0.0169833
946.103	0.0170439
946.182	0.0170502
946.260	0.0169823
946.338	0.0169415
946.416	0.0170230
946.494	0.0170721
946.572	0.0170351
946.650	0.0169279
946.728	0.0169783
946.807	0.0169399
946.885	0.0171593
946.963	0.0169376
947.041	0.0170062
947.119	0.0169010
947.197	0.0170344
947.275	0.0170700
947.353	0.0170136
947.432	0.0169418
947.510	0.0169010
947.588	0.0169432
947.666	0.0170008
947.744	0.0170333
947.822	0.0171583
947.900	0.0170008
947.978	0.0170557
948.057	0.0171355
948.135	0.0171914
948.213	0.0170854
948.291	0.0170959
948.369	0.0171504
948.447	0.0172182
948.525	0.0171937
948.603	0.0171376
948.682	0.0171755
948.760	0.0173098
948.838	0.0171827
948.916	0.0171592
948.994	0.0172247
949.072	0.0171786
949.150	0.0171005
949.228	0.0171938
949.307	0.0172939
949.385	0.0172453
949.463	0.0171882
949.541	0.0171076
949.619	0.0170908
949.697	0.0172115
949.775	0.0171512
949.853	0.0170924
949.932	0.0170808
950.010	0.0170801
950.088	0.0170913
950.166	0.0170370
950.244	0.0170836
950.322	0.0172429
950.400	0.0171676
950.478	0.0170994
950.557	0.0171091
950.635	0.0171346
950.713	0.0172557
950.791	0.0171403
950.869	0.0171187
950.947	0.0172002
951.025	0.0171970
951.103	0.0171706
951.182	0.0170616
951.260	0.0170789
951.338	0.0171429
951.416	0.0171853
951.494	0.0170438
951.572	0.0171897
951.650	0.0170413
951.728	0.0170476
951.807	0.0170062
951.885	0.0171262
951.963	0.0169842
952.041	0.0170358
952.119	0.0170831
952.197	0.0169630
952.275	0.0171403
952.353	0.0171479
952.432	0.0171082
952.510	0.0171599
952.588	0.0172073
952.666	0.0170745
952.744	0.0172384
952.822	0.0172013
952.900	0.0172246
952.978	0.0172334
953.057	0.0173036
953.135	0.0172734
953.213	0.0171146
953.291	0.0172946
953.369	0.0172261
953.447	0.0171843
953.525	0.0172895
953.603	0.0172225
953.682	0.0172903
953.760	0.0171613
953.838	0.0171864
953.916	0.0171149
953.994	0.0171478
954.072	0.0171278
954.150	0.0171826
954.228	0.0171111
954.307	0.0170871
954.385	0.0170431
954.463	0.0171171
954.541	0.0170210
954.619	0.0170662
954.697	0.0170670
954.775	0.0169492
954.853	0.0170499
954.932	0.0170197
955.010	0.0169477
955.088	0.0171276
955.166	0.0171711
955.244	0.0171711
955.322	0.0170775
955.400	0.0170372
955.478	0.0170811
955.557	0.0172355
955.635	0.0171581
955.713	0.0170149
955.791	0.0171888
955.869	0.0169408
955.947	0.0171917
956.025	0.0172116
956.103	0.0171705
956.182	0.0170987
956.260	0.0171088
956.338	0.0170531
956.416	0.0170420
956.494	0.0170127
956.572	0.0170314
956.650	0.0169863
956.728	0.0170422
956.807	0.0170496
956.885	0.0170882
956.963	0.0170587
957.041	0.0168988
957.119	0.0169729
957.197	0.0169920
957.275	0.0169875
957.353	0.0168686
957.432	0.0169031
957.510	0.0168695
957.588	0.0168517
957.666	0.0168161
957.744	0.0167952
957.822	0.0168231
957.900	0.0169707
957.978	0.0170000
958.057	0.0170561
958.135	0.0169315
958.213	0.0171445
958.291	0.0170241
958.369	0.0172063
958.447	0.0172169
958.525	0.0171841
958.603	0.0170786
958.682	0.0172621
958.760	0.0172454
958.838	0.0171994
958.916	0.0172067
958.994	0.0171892
959.072	0.0173052
959.150	0.0172575
959.228	0.0171561
959.307	0.0172498
959.385	0.0171947
959.463	0.0171326
959.541	0.0174505
959.619	0.0173141
959.697	0.0171452
959.775	0.0172193
959.853	0.0170088
959.932	0.0171866
960.010	0.0172322
960.088	0.0173092
960.166	0.0171201
960.244	0.0170994
960.322	0.0170751
960.400	0.0171382
960.478	0.0171764
960.557	0.0169788
960.635	0.0169891
960.713	0.0170064
960.791	0.0169595
960.869	0.0169719
960.947	0.0169872
961.025	0.0169527
961.103	0.0170026
961.182	0.0169912
961.260	0.0169209
961.338	0.0169032
961.416	0.0169019
961.494	0.0169567
961.572	0.0168471
961.650	0.0168021
961.728	0.0168462
961.807	0.0168994
961.885	0.0168515
961.963	0.0169368
962.041	0.0168908
962.119	0.0170726
962.197	0.0169855
962.275	0.0170010
962.353	0.0168945
962.432	0.0168194
962.510	0.0168925
962.588	0.0169363
962.666	0.0170664
962.744	0.0170690
962.822	0.0170404
962.900	0.0170373
962.978	0.0169743
963.057	0.0170850
963.135	0.0170036
963.213	0.0169463
963.291	0.0169756
963.369	0.0168960
963.447	0.0169601
963.525	0.0171351
963.603	0.0169960
963.682	0.0170049
963.760	0.0169270
963.838	0.0170228
963.916	0.0170213
963.994	0.0170250
964.072	0.0171174
964.150	0.0170992
964.228	0.0170775
964.307	0.0170161
964.385	0.0171161
964.463	0.0168928
964.541	0.0170641
964.619	0.0169756
964.697	0.0171136
964.775	0.0170500
964.853	0.0170369
964.932	0.0169781
965.010	0.0169254
965.088	0.0170544
965.166	0.0169537
965.244	0.0169613
965.322	0.0169134
965.400	0.0168649
965.478	0.0170471
965.557	0.0170719
965.635	0.0170246
965.713	0.0171284
965.791	0.0170390
965.869	0.0171617
965.947	0.0171524
966.025	0.0171420
966.103	0.0172547
966.182	0.0171820
966.260	0.0172054
966.338	0.0171750
966.416	0.0170918
966.494	0.0171598
966.572	0.0171152
966.650	0.0170910
966.728	0.0169380
966.807	0.0168576
966.885	0.0168742
966.963	0.0167696
967.041	0.0167284
967.119	0.0168568
967.197	0.0170506
967.275	0.0168163
967.353	0.0168394
967.432	0.0169420
967.510	0.0168578
967.588	0.0170246
967.666	0.0170142
967.744	0.0170673
967.822	0.0170742
967.900	0.0170423
967.978	0.0170773
968.057	0.0170904
968.135	0.0171008
968.213	0.0171848
968.291	0.0171394
968.369	0.0170628
968.447	0.0171413
968.525	0.0171132
968.603	0.0171860
968.682	0.0172867
968.760	0.0171933
968.838	0.0172010
968.916	0.0171478
968.994	0.0171664
969.072	0.0171317
969.150	0.0171588
969.228	0.0171463
969.307	0.0172191
969.385	0.0171801
969.463	0.0172292
969.541	0.0171162
969.619	0.0170632
969.697	0.0170958
969.775	0.0170425
969.853	0.0171618
969.932	0.0172083
