06/10/2022	16:29:58	Ver.	4.1	UNKNOWN
Optical Delay	650.009681	Delta X		0.078125	Sweeps	1	Scan Rate	0/0
Coordinates	Axis 1	NaN	Axis 2	NaN	Axis 3	NaN	Axis 4	NaN	Axis 5	NaN	Axis 6	0.000000
TX Power	0.000000	RX Power	0.000000

650.010	0.0170422
650.088	0.0169315
650.166	0.0169455
650.244	0.0171440
650.322	0.0168766
650.400	0.0170165
650.478	0.0170540
650.557	0.0170583
650.635	0.0169750
650.713	0.0169070
650.791	0.0168718
650.869	0.0169240
650.947	0.0170248
651.025	0.0169305
651.103	0.0170188
651.182	0.0169028
651.260	0.0170463
651.338	0.0170314
651.416	0.0168922
651.494	0.0168965
651.572	0.0168198
651.650	0.0169968
651.728	0.0169838
651.807	0.0171449
651.885	0.0169463
651.963	0.0168824
652.041	0.0170496
652.119	0.0169576
652.197	0.0169541
652.275	0.0169576
652.353	0.0171061
652.432	0.0169734
652.510	0.0169469
652.588	0.0169595
652.666	0.0170045
652.744	0.0169948
652.822	0.0170540
652.900	0.0171311
652.978	0.0169830
653.057	0.0169855
653.135	0.0169912
653.213	0.0169574
653.291	0.0171001
653.369	0.0169721
653.447	0.0169654
653.525	0.0169186
653.603	0.0169186
653.682	0.0170418
653.760	0.0168972
653.838	0.0169064
653.916	0.0169601
653.994	0.0169450
654.072	0.0170863
654.150	0.0169897
654.228	0.0169192
654.307	0.0169427
654.385	0.0170918
654.463	0.0171014
654.541	0.0170554
654.619	0.0170097
654.697	0.0168945
654.775	0.0168250
654.853	0.0170998
654.932	0.0169801
655.010	0.0168806
655.088	0.0168670
655.166	0.0168613
655.244	0.0169250
655.322	0.0171792
655.400	0.0168560
655.478	0.0169506
655.557	0.0168671
655.635	0.0169176
655.713	0.0169003
655.791	0.0169439
655.869	0.0168656
655.947	0.0169666
656.025	0.0169357
656.103	0.0169310
656.182	0.0168739
656.260	0.0170422
656.338	0.0170407
656.416	0.0168727
656.494	0.0170193
656.572	0.0169561
656.650	0.0170161
656.728	0.0170409
656.807	0.0170137
656.885	0.0170135
656.963	0.0169942
657.041	0.0169612
657.119	0.0169962
657.197	0.0168784
657.275	0.0169527
657.353	0.0170926
657.432	0.0168989
657.510	0.0169524
657.588	0.0168777
657.666	0.0169115
657.744	0.0170027
657.822	0.0169056
657.900	0.0170626
657.978	0.0170349
658.057	0.0168964
658.135	0.0168329
658.213	0.0169220
658.291	0.0169974
658.369	0.0169167
658.447	0.0168819
658.525	0.0168603
658.603	0.0170389
658.682	0.0169946
658.760	0.0171135
658.838	0.0169846
658.916	0.0169019
658.994	0.0170255
659.072	0.0169070
659.150	0.0169721
659.228	0.0170017
659.307	0.0170866
659.385	0.0169889
659.463	0.0170266
659.541	0.0170920
659.619	0.0169722
659.697	0.0169987
659.775	0.0168955
659.853	0.0168990
659.932	0.0169762
660.010	0.0170896
660.088	0.0169888
660.166	0.0169324
660.244	0.0169668
660.322	0.0170467
660.400	0.0169529
660.478	0.0169569
660.557	0.0169467
660.635	0.0169874
660.713	0.0169092
660.791	0.0170037
660.869	0.0171315
660.947	0.0170377
661.025	0.0169849
661.103	0.0169713
661.182	0.0168589
661.260	0.0169997
661.338	0.0170117
661.416	0.0170087
661.494	0.0169307
661.572	0.0169653
661.650	0.0170351
661.728	0.0169524
661.807	0.0169471
661.885	0.0170219
661.963	0.0170135
662.041	0.0169392
662.119	0.0170820
662.197	0.0169471
662.275	0.0170264
662.353	0.0169748
662.432	0.0169833
662.510	0.0170874
662.588	0.0170531
662.666	0.0169464
662.744	0.0171690
662.822	0.0169427
662.900	0.0169362
662.978	0.0170322
663.057	0.0168814
663.135	0.0168972
663.213	0.0170792
663.291	0.0169042
663.369	0.0168501
663.447	0.0170074
663.525	0.0170380
663.603	0.0168796
663.682	0.0169766
663.760	0.0170771
663.838	0.0169701
663.916	0.0169692
663.994	0.0170265
664.072	0.0168792
664.150	0.0170033
664.228	0.0170065
664.307	0.0170496
664.385	0.0169151
664.463	0.0169867
664.541	0.0170010
664.619	0.0170815
664.697	0.0169779
664.775	0.0168488
664.853	0.0169550
664.932	0.0170184
665.010	0.0170115
665.088	0.0169852
665.166	0.0170866
665.244	0.0170085
665.322	0.0170036
665.400	0.0170143
665.478	0.0169691
665.557	0.0169913
665.635	0.0171493
665.713	0.0170564
665.791	0.0171254
665.869	0.0171381
665.947	0.0171074
666.025	0.0171826
666.103	0.0172146
666.182	0.0170113
666.260	0.0171416
666.338	0.0171153
666.416	0.0171991
666.494	0.0169663
666.572	0.0171070
666.650	0.0171209
666.728	0.0170744
666.807	0.0171195
666.885	0.0169675
666.963	0.0170268
667.041	0.0171240
667.119	0.0172262
667.197	0.0170793
667.275	0.0169678
667.353	0.0171110
667.432	0.0171338
667.510	0.0171647
667.588	0.0170759
667.666	0.0171071
667.744	0.0172016
667.822	0.0170422
667.900	0.0170882
667.978	0.0169922
668.057	0.0170958
668.135	0.0171133
668.213	0.0171292
668.291	0.0172325
668.369	0.0171722
668.447	0.0170814
668.525	0.0170676
668.603	0.0169338
668.682	0.0169673
668.760	0.0170402
668.838	0.0171297
668.916	0.0171098
668.994	0.0169982
669.072	0.0169046
669.150	0.0171254
669.228	0.0170872
669.307	0.0170687
669.385	0.0172230
669.463	0.0170121
669.541	0.0170051
669.619	0.0169680
669.697	0.0169964
669.775	0.0170857
669.853	0.0170054
669.932	0.0170303
670.010	0.0171484
670.088	0.0169836
670.166	0.0170460
670.244	0.0169994
670.322	0.0170443
670.400	0.0169998
670.478	0.0170215
670.557	0.0172076
670.635	0.0169822
670.713	0.0170265
670.791	0.0170957
670.869	0.0169240
670.947	0.0170225
671.025	0.0169888
671.103	0.0171582
671.182	0.0168259
671.260	0.0170772
671.338	0.0170274
671.416	0.0170661
671.494	0.0170736
671.572	0.0170794
671.650	0.0169048
671.728	0.0169637
671.807	0.0170303
671.885	0.0169588
671.963	0.0170176
672.041	0.0169269
672.119	0.0170503
672.197	0.0169357
672.275	0.0169991
672.353	0.0170661
672.432	0.0170051
672.510	0.0169792
672.588	0.0169487
672.666	0.0170052
672.744	0.0170182
672.822	0.0169559
672.900	0.0169950
672.978	0.0170383
673.057	0.0169349
673.135	0.0169460
673.213	0.0170054
673.291	0.0170647
673.369	0.0168633
673.447	0.0168771
673.525	0.0169939
673.603	0.0168099
673.682	0.0169475
673.760	0.0169405
673.838	0.0169953
673.916	0.0171150
673.994	0.0170909
674.072	0.0170692
674.150	0.0170646
674.228	0.0170670
674.307	0.0170072
674.385	0.0170621
674.463	0.0170538
674.541	0.0169687
674.619	0.0169789
674.697	0.0170306
674.775	0.0169675
674.853	0.0168804
674.932	0.0169418
675.010	0.0170376
675.088	0.0169660
675.166	0.0169102
675.244	0.0168260
675.322	0.0169534
675.400	0.0169476
675.478	0.0170674
675.557	0.0170551
675.635	0.0169920
675.713	0.0169776
675.791	0.0169537
675.869	0.0169095
675.947	0.0169558
676.025	0.0170177
676.103	0.0169035
676.182	0.0168523
676.260	0.0169916
676.338	0.0170420
676.416	0.0168764
676.494	0.0168858
676.572	0.0170557
676.650	0.0170568
676.728	0.0169803
676.807	0.0169197
676.885	0.0168912
676.963	0.0168330
677.041	0.0168829
677.119	0.0170088
677.197	0.0169011
677.275	0.0168954
677.353	0.0169295
677.432	0.0170385
677.510	0.0168819
677.588	0.0169323
677.666	0.0170010
677.744	0.0169449
677.822	0.0168642
677.900	0.0170650
677.978	0.0170129
678.057	0.0168936
678.135	0.0169537
678.213	0.0169953
678.291	0.0170818
678.369	0.0170832
678.447	0.0168867
678.525	0.0168864
678.603	0.0169141
678.682	0.0169702
678.760	0.0170326
678.838	0.0168926
678.916	0.0169927
678.994	0.0170229
679.072	0.0168648
679.150	0.0169407
679.228	0.0170753
679.307	0.0169886
679.385	0.0170904
679.463	0.0170618
679.541	0.0169158
679.619	0.0169888
679.697	0.0170054
679.775	0.0171092
679.853	0.0169876
679.932	0.0170253
680.010	0.0169373
680.088	0.0169638
680.166	0.0169720
680.244	0.0170607
680.322	0.0170047
680.400	0.0170303
680.478	0.0170267
680.557	0.0171330
680.635	0.0170864
680.713	0.0169722
680.791	0.0170016
680.869	0.0170780
680.947	0.0170645
681.025	0.0170795
681.103	0.0170820
681.182	0.0171169
681.260	0.0172679
681.338	0.0171080
681.416	0.0169717
681.494	0.0170584
681.572	0.0171607
681.650	0.0171208
681.728	0.0170277
681.807	0.0170568
681.885	0.0170818
681.963	0.0170576
682.041	0.0170769
682.119	0.0170386
682.197	0.0170509
682.275	0.0171397
682.353	0.0171540
682.432	0.0171072
682.510	0.0169185
682.588	0.0170641
682.666	0.0171008
682.744	0.0171264
682.822	0.0170132
682.900	0.0170933
682.978	0.0170334
683.057	0.0171841
683.135	0.0170219
683.213	0.0170059
683.291	0.0171314
683.369	0.0170369
683.447	0.0169711
683.525	0.0171742
683.603	0.0172327
683.682	0.0169522
683.760	0.0169470
683.838	0.0171229
683.916	0.0170770
683.994	0.0170436
684.072	0.0170550
684.150	0.0171872
684.228	0.0169577
684.307	0.0170398
684.385	0.0170982
684.463	0.0171531
684.541	0.0170673
684.619	0.0169807
684.697	0.0170914
684.775	0.0170444
684.853	0.0170036
684.932	0.0169482
685.010	0.0170599
685.088	0.0170875
685.166	0.0171137
685.244	0.0171464
685.322	0.0169996
685.400	0.0170330
685.478	0.0170110
685.557	0.0171510
685.635	0.0171169
685.713	0.0170393
685.791	0.0170412
685.869	0.0171160
685.947	0.0170111
686.025	0.0170960
686.103	0.0169730
686.182	0.0170287
686.260	0.0170228
686.338	0.0172024
686.416	0.0170471
686.494	0.0169669
686.572	0.0169283
686.650	0.0169779
686.728	0.0171211
686.807	0.0171065
686.885	0.0170089
686.963	0.0169009
687.041	0.0170924
687.119	0.0171327
687.197	0.0171200
687.275	0.0169717
687.353	0.0169062
687.432	0.0170174
687.510	0.0170913
687.588	0.0170012
687.666	0.0169391
687.744	0.0170435
687.822	0.0170009
687.900	0.0171062
687.978	0.0169011
688.057	0.0169899
688.135	0.0172170
688.213	0.0171175
688.291	0.0171169
688.369	0.0168311
688.447	0.0170026
688.525	0.0169781
688.603	0.0170033
688.682	0.0170952
688.760	0.0170251
688.838	0.0170406
688.916	0.0171059
688.994	0.0171356
689.072	0.0170216
689.150	0.0168676
689.228	0.0169451
689.307	0.0169411
689.385	0.0170823
689.463	0.0169779
689.541	0.0169105
689.619	0.0170180
689.697	0.0169598
689.775	0.0169291
689.853	0.0170944
689.932	0.0170426
690.010	0.0169486
690.088	0.0169995
690.166	0.0170674
690.244	0.0169877
690.322	0.0170531
690.400	0.0170206
690.478	0.0170262
690.557	0.0170416
690.635	0.0169646
690.713	0.0169608
690.791	0.0169448
690.869	0.0170370
690.947	0.0168420
691.025	0.0170370
691.103	0.0170244
691.182	0.0171635
691.260	0.0171317
691.338	0.0170952
691.416	0.0169373
691.494	0.0170647
691.572	0.0169500
691.650	0.0170166
691.728	0.0171116
691.807	0.0170547
691.885	0.0170109
691.963	0.0169115
692.041	0.0169796
692.119	0.0168793
692.197	0.0170023
692.275	0.0170628
692.353	0.0170432
692.432	0.0170626
692.510	0.0171956
692.588	0.0172562
692.666	0.0170661
692.744	0.0171343
692.822	0.0169410
692.900	0.0169517
692.978	0.0169535
693.057	0.0169411
693.135	0.0170614
693.213	0.0170033
693.291	0.0170560
693.369	0.0169905
693.447	0.0169675
693.525	0.0169645
693.603	0.0168230
693.682	0.0170394
693.760	0.0170221
693.838	0.0170621
693.916	0.0170335
693.994	0.0170204
694.072	0.0170802
694.150	0.0170830
694.228	0.0171229
694.307	0.0170169
694.385	0.0169778
694.463	0.0170202
694.541	0.0169617
694.619	0.0169619
694.697	0.0170793
694.775	0.0170052
694.853	0.0169120
694.932	0.0169428
695.010	0.0170444
695.088	0.0168954
695.166	0.0169515
695.244	0.0169401
695.322	0.0168637
695.400	0.0169973
695.478	0.0168550
695.557	0.0168993
695.635	0.0170469
695.713	0.0168934
695.791	0.0168624
695.869	0.0168439
695.947	0.0170206
696.025	0.0169420
696.103	0.0170101
696.182	0.0169938
696.260	0.0169269
696.338	0.0169621
696.416	0.0169005
696.494	0.0171425
696.572	0.0171054
696.650	0.0170112
696.728	0.0169812
696.807	0.0170802
696.885	0.0171098
696.963	0.0170689
697.041	0.0169272
697.119	0.0170485
697.197	0.0171320
697.275	0.0171220
697.353	0.0171578
697.432	0.0170527
697.510	0.0169652
697.588	0.0170276
697.666	0.0169531
697.744	0.0170248
697.822	0.0170319
697.900	0.0171082
697.978	0.0171537
698.057	0.0169958
698.135	0.0171552
698.213	0.0171459
698.291	0.0171294
698.369	0.0169135
698.447	0.0170193
698.525	0.0169692
698.603	0.0170365
698.682	0.0169283
698.760	0.0169250
698.838	0.0170381
698.916	0.0170758
698.994	0.0170807
699.072	0.0170395
699.150	0.0169572
699.228	0.0170376
699.307	0.0171032
699.385	0.0170482
699.463	0.0169940
699.541	0.0171181
699.619	0.0170116
699.697	0.0169794
699.775	0.0170373
699.853	0.0170943
699.932	0.0170317
700.010	0.0170144
700.088	0.0170251
700.166	0.0170644
700.244	0.0170993
700.322	0.0170783
700.400	0.0169662
700.478	0.0169505
700.557	0.0170686
700.635	0.0170087
700.713	0.0170007
700.791	0.0171075
700.869	0.0172208
700.947	0.0170242
701.025	0.0169126
701.103	0.0170970
701.182	0.0171120
701.260	0.0170541
701.338	0.0171503
701.416	0.0170984
701.494	0.0169497
701.572	0.0170904
701.650	0.0171213
701.728	0.0169712
701.807	0.0170016
701.885	0.0169685
701.963	0.0170287
702.041	0.0170226
702.119	0.0170246
702.197	0.0170850
702.275	0.0171267
702.353	0.0171014
702.432	0.0170273
702.510	0.0170914
702.588	0.0170078
702.666	0.0170844
702.744	0.0171864
702.822	0.0169903
702.900	0.0169998
702.978	0.0169440
703.057	0.0170186
703.135	0.0170838
703.213	0.0170496
703.291	0.0169944
703.369	0.0171028
703.447	0.0170306
703.525	0.0170913
703.603	0.0171098
703.682	0.0169663
703.760	0.0169715
703.838	0.0170681
703.916	0.0171541
703.994	0.0172141
704.072	0.0171429
704.150	0.0170476
704.228	0.0170121
704.307	0.0171982
704.385	0.0170968
704.463	0.0170576
704.541	0.0170616
704.619	0.0170641
704.697	0.0170960
704.775	0.0171440
704.853	0.0170841
704.932	0.0171453
705.010	0.0170316
705.088	0.0172112
705.166	0.0171397
705.244	0.0170116
705.322	0.0169337
705.400	0.0169784
705.478	0.0171086
705.557	0.0172279
705.635	0.0170658
705.713	0.0170156
705.791	0.0170726
705.869	0.0171227
705.947	0.0169422
706.025	0.0170293
706.103	0.0171146
706.182	0.0171479
706.260	0.0170776
706.338	0.0170816
706.416	0.0169363
706.494	0.0169468
706.572	0.0170631
706.650	0.0170261
706.728	0.0169822
706.807	0.0171098
706.885	0.0171577
706.963	0.0170799
707.041	0.0169798
707.119	0.0170222
707.197	0.0170081
707.275	0.0170499
707.353	0.0171629
707.432	0.0170531
707.510	0.0170821
707.588	0.0171394
707.666	0.0171298
707.744	0.0170132
707.822	0.0169855
707.900	0.0170798
707.978	0.0170400
708.057	0.0169771
708.135	0.0170833
708.213	0.0170601
708.291	0.0170576
708.369	0.0169962
708.447	0.0170574
708.525	0.0169675
708.603	0.0170971
708.682	0.0169929
708.760	0.0170377
708.838	0.0170737
708.916	0.0170342
708.994	0.0171307
709.072	0.0169939
709.150	0.0169585
709.228	0.0170664
709.307	0.0170068
709.385	0.0170856
709.463	0.0170533
709.541	0.0170303
709.619	0.0169914
709.697	0.0169723
709.775	0.0170525
709.853	0.0171667
709.932	0.0170892
710.010	0.0170374
710.088	0.0170924
710.166	0.0169811
710.244	0.0170143
710.322	0.0169859
710.400	0.0169409
710.478	0.0170499
710.557	0.0170475
710.635	0.0168199
710.713	0.0168980
710.791	0.0169198
710.869	0.0169567
710.947	0.0168818
711.025	0.0169563
711.103	0.0169767
711.182	0.0168969
711.260	0.0168154
711.338	0.0168315
711.416	0.0169688
711.494	0.0170050
711.572	0.0170129
711.650	0.0170441
711.728	0.0169402
711.807	0.0170045
711.885	0.0169691
711.963	0.0169292
712.041	0.0169963
712.119	0.0168931
712.197	0.0166856
712.275	0.0169090
712.353	0.0170454
712.432	0.0170560
712.510	0.0168577
712.588	0.0170019
712.666	0.0169850
712.744	0.0170300
712.822	0.0169444
712.900	0.0168378
712.978	0.0170235
713.057	0.0171035
713.135	0.0170396
713.213	0.0169381
713.291	0.0169726
713.369	0.0170029
713.447	0.0170829
713.525	0.0170490
713.603	0.0168875
713.682	0.0169194
713.760	0.0170538
713.838	0.0169997
713.916	0.0168616
713.994	0.0170551
714.072	0.0168991
714.150	0.0170586
714.228	0.0171529
714.307	0.0171912
714.385	0.0169893
714.463	0.0168689
714.541	0.0170161
714.619	0.0170741
714.697	0.0169724
714.775	0.0170648
714.853	0.0172141
714.932	0.0171421
715.010	0.0171315
715.088	0.0169249
715.166	0.0169936
715.244	0.0169868
715.322	0.0170026
715.400	0.0170651
715.478	0.0170275
715.557	0.0171079
715.635	0.0169344
715.713	0.0171158
715.791	0.0169935
715.869	0.0169980
715.947	0.0169990
716.025	0.0169888
716.103	0.0171193
716.182	0.0171561
716.260	0.0170713
716.338	0.0170420
716.416	0.0170789
716.494	0.0170509
716.572	0.0169891
716.650	0.0170567
716.728	0.0170884
716.807	0.0171011
716.885	0.0169806
716.963	0.0170474
717.041	0.0171169
717.119	0.0171064
717.197	0.0170545
717.275	0.0170279
717.353	0.0169759
717.432	0.0171412
717.510	0.0170457
717.588	0.0169495
717.666	0.0170043
717.744	0.0171073
717.822	0.0171488
717.900	0.0170205
717.978	0.0170062
718.057	0.0170475
718.135	0.0169122
718.213	0.0171107
718.291	0.0170638
718.369	0.0170199
718.447	0.0171467
718.525	0.0171056
718.603	0.0169645
718.682	0.0169630
718.760	0.0171130
718.838	0.0170190
718.916	0.0169769
718.994	0.0170664
719.072	0.0170381
719.150	0.0170192
719.228	0.0170142
719.307	0.0171775
719.385	0.0170313
719.463	0.0171227
719.541	0.0170307
719.619	0.0170201
719.697	0.0171417
719.775	0.0170108
719.853	0.0171305
719.932	0.0172219
720.010	0.0170924
720.088	0.0169933
720.166	0.0170268
720.244	0.0171648
720.322	0.0169489
720.400	0.0170135
720.478	0.0170171
720.557	0.0170970
720.635	0.0170065
720.713	0.0169817
720.791	0.0168254
720.869	0.0169372
720.947	0.0168980
721.025	0.0169159
721.103	0.0169190
721.182	0.0169703
721.260	0.0169951
721.338	0.0171136
721.416	0.0172787
721.494	0.0172983
721.572	0.0172266
721.650	0.0174771
721.728	0.0174538
721.807	0.0174641
721.885	0.0173103
721.963	0.0172649
722.041	0.0172990
722.119	0.0171102
722.197	0.0168795
722.275	0.0168827
722.353	0.0167724
722.432	0.0167271
722.510	0.0164378
722.588	0.0165450
722.666	0.0165636
722.744	0.0166492
722.822	0.0166862
722.900	0.0169207
722.978	0.0169651
723.057	0.0169997
723.135	0.0171919
723.213	0.0172346
723.291	0.0173788
723.369	0.0175450
723.447	0.0174822
723.525	0.0175524
723.603	0.0174762
723.682	0.0175270
723.760	0.0173355
723.838	0.0173748
723.916	0.0171239
723.994	0.0172512
724.072	0.0172445
724.150	0.0170728
724.228	0.0168961
724.307	0.0169100
724.385	0.0169759
724.463	0.0168841
724.541	0.0169671
724.619	0.0168710
724.697	0.0167593
724.775	0.0167301
724.853	0.0166769
724.932	0.0167725
725.010	0.0166613
725.088	0.0167247
725.166	0.0167418
725.244	0.0168233
725.322	0.0169353
725.400	0.0167916
725.478	0.0167719
725.557	0.0168443
725.635	0.0171407
725.713	0.0171439
725.791	0.0172465
725.869	0.0173893
725.947	0.0174912
726.025	0.0175526
726.103	0.0177361
726.182	0.0177451
726.260	0.0177921
726.338	0.0176451
726.416	0.0175491
726.494	0.0173341
726.572	0.0169878
726.650	0.0167744
726.728	0.0165766
726.807	0.0164842
726.885	0.0163882
726.963	0.0161491
727.041	0.0160925
727.119	0.0160289
727.197	0.0161955
727.275	0.0163409
727.353	0.0161878
727.432	0.0163059
727.510	0.0165300
727.588	0.0169039
727.666	0.0168006
727.744	0.0171606
727.822	0.0173163
727.900	0.0175232
727.978	0.0177182
728.057	0.0176344
728.135	0.0176421
728.213	0.0175435
728.291	0.0176332
728.369	0.0176516
728.447	0.0174851
728.525	0.0174329
728.603	0.0173766
728.682	0.0173608
728.760	0.0169756
728.838	0.0169389
728.916	0.0168714
728.994	0.0166458
729.072	0.0165177
729.150	0.0165659
729.228	0.0162904
729.307	0.0163203
729.385	0.0163387
729.463	0.0163306
729.541	0.0163658
729.619	0.0163161
729.697	0.0165177
729.775	0.0166657
729.853	0.0168200
729.932	0.0169421
730.010	0.0169071
730.088	0.0172343
730.166	0.0171832
730.244	0.0172396
730.322	0.0173325
730.400	0.0174422
730.478	0.0175018
730.557	0.0176907
730.635	0.0173169
730.713	0.0174149
730.791	0.0174551
730.869	0.0172929
730.947	0.0174213
731.025	0.0173886
731.103	0.0173280
731.182	0.0172218
731.260	0.0170780
731.338	0.0170266
731.416	0.0167999
731.494	0.0167444
731.572	0.0167091
731.650	0.0165466
731.728	0.0164829
731.807	0.0165219
731.885	0.0165323
731.963	0.0165233
732.041	0.0165614
732.119	0.0167146
732.197	0.0166318
732.275	0.0169217
732.353	0.0170687
732.432	0.0169624
732.510	0.0171744
732.588	0.0172653
732.666	0.0173106
732.744	0.0174344
732.822	0.0174766
732.900	0.0176159
732.978	0.0174988
733.057	0.0174921
733.135	0.0172327
733.213	0.0172364
733.291	0.0171838
733.369	0.0169133
733.447	0.0169541
733.525	0.0168684
733.603	0.0167670
733.682	0.0166641
733.760	0.0165739
733.838	0.0165654
733.916	0.0166204
733.994	0.0166125
734.072	0.0165675
734.150	0.0168024
734.228	0.0168423
734.307	0.0170071
734.385	0.0169796
734.463	0.0169879
734.541	0.0170442
734.619	0.0172083
734.697	0.0170935
734.775	0.0171766
734.853	0.0171118
734.932	0.0170026
735.010	0.0171005
735.088	0.0169948
735.166	0.0168816
735.244	0.0169976
735.322	0.0169877
735.400	0.0167780
735.478	0.0169102
735.557	0.0168860
735.635	0.0168695
735.713	0.0168906
735.791	0.0169176
735.869	0.0169960
735.947	0.0170934
736.025	0.0171564
736.103	0.0170893
736.182	0.0172238
736.260	0.0172099
736.338	0.0170032
736.416	0.0170155
736.494	0.0171564
736.572	0.0171151
736.650	0.0169997
736.728	0.0171226
736.807	0.0169244
736.885	0.0169450
736.963	0.0171420
737.041	0.0169342
737.119	0.0167986
737.197	0.0168733
737.275	0.0169431
737.353	0.0169080
737.432	0.0168316
737.510	0.0168554
737.588	0.0168571
737.666	0.0168513
737.744	0.0169525
737.822	0.0169543
737.900	0.0170090
737.978	0.0169585
738.057	0.0171085
738.135	0.0173061
738.213	0.0173789
738.291	0.0173396
738.369	0.0172379
738.447	0.0173808
738.525	0.0173956
738.603	0.0172067
738.682	0.0170636
738.760	0.0171905
738.838	0.0171082
738.916	0.0167986
738.994	0.0168555
739.072	0.0167427
739.150	0.0166632
739.228	0.0166926
739.307	0.0165739
739.385	0.0165852
739.463	0.0165719
739.541	0.0167225
739.619	0.0169941
739.697	0.0170277
739.775	0.0169188
739.853	0.0170303
739.932	0.0172151
740.010	0.0172009
740.088	0.0174565
740.166	0.0174994
740.244	0.0175346
740.322	0.0174692
740.400	0.0175191
740.478	0.0175640
740.557	0.0174647
740.635	0.0174912
740.713	0.0173436
740.791	0.0172355
740.869	0.0173267
740.947	0.0173034
741.025	0.0170876
741.103	0.0169286
741.182	0.0170987
741.260	0.0168973
741.338	0.0168503
741.416	0.0169910
741.494	0.0167867
741.572	0.0167139
741.650	0.0165830
741.728	0.0166803
741.807	0.0168155
741.885	0.0167225
741.963	0.0166341
742.041	0.0168215
742.119	0.0167294
742.197	0.0170137
742.275	0.0170658
742.353	0.0170815
742.432	0.0172220
742.510	0.0174816
742.588	0.0174168
742.666	0.0175103
742.744	0.0177177
742.822	0.0176625
742.900	0.0177057
742.978	0.0176207
743.057	0.0174919
743.135	0.0175622
743.213	0.0172137
743.291	0.0170956
743.369	0.0169987
743.447	0.0168563
743.525	0.0167432
743.603	0.0165575
743.682	0.0165228
743.760	0.0164791
743.838	0.0165243
743.916	0.0162996
743.994	0.0164207
744.072	0.0166685
744.150	0.0166763
744.228	0.0167152
744.307	0.0168472
744.385	0.0170490
744.463	0.0170045
744.541	0.0170849
744.619	0.0173277
744.697	0.0174117
744.775	0.0174457
744.853	0.0174734
744.932	0.0174446
745.010	0.0174777
745.088	0.0174931
745.166	0.0173429
745.244	0.0173803
745.322	0.0173332
745.400	0.0173411
745.478	0.0171262
745.557	0.0171459
745.635	0.0170887
745.713	0.0169913
745.791	0.0167750
745.869	0.0168486
745.947	0.0169010
746.025	0.0168919
746.103	0.0168743
746.182	0.0168816
746.260	0.0169121
746.338	0.0169251
746.416	0.0169505
746.494	0.0170445
746.572	0.0169839
746.650	0.0169615
746.728	0.0169192
746.807	0.0170405
746.885	0.0170680
746.963	0.0171526
747.041	0.0171428
747.119	0.0171545
747.197	0.0170425
747.275	0.0172374
747.353	0.0172641
747.432	0.0172842
747.510	0.0173262
747.588	0.0172150
747.666	0.0172998
747.744	0.0172442
747.822	0.0171052
747.900	0.0172655
747.978	0.0171020
748.057	0.0172461
748.135	0.0172812
748.213	0.0170371
748.291	0.0173573
748.369	0.0170081
748.447	0.0171120
748.525	0.0170126
748.603	0.0169718
748.682	0.0170754
748.760	0.0170870
748.838	0.0170721
748.916	0.0171418
748.994	0.0171419
749.072	0.0170235
749.150	0.0170740
749.228	0.0172418
749.307	0.0171621
749.385	0.0170833
749.463	0.0170826
749.541	0.0172131
749.619	0.0171235
749.697	0.0172184
749.775	0.0171117
749.853	0.0170238
749.932	0.0170225
750.010	0.0169643
750.088	0.0170863
750.166	0.0169574
750.244	0.0168959
750.322	0.0169717
750.400	0.0169411
750.478	0.0169711
750.557	0.0169072
750.635	0.0168770
750.713	0.0171166
750.791	0.0170395
750.869	0.0169697
750.947	0.0170943
751.025	0.0172020
751.103	0.0172201
751.182	0.0169769
751.260	0.0170058
751.338	0.0171568
751.416	0.0170563
751.494	0.0171241
751.572	0.0169899
751.650	0.0170256
751.728	0.0169870
751.807	0.0169045
751.885	0.0170208
751.963	0.0169527
752.041	0.0170126
752.119	0.0168879
752.197	0.0168143
752.275	0.0168983
752.353	0.0167599
752.432	0.0168520
752.510	0.0168456
752.588	0.0168562
752.666	0.0168384
752.744	0.0169199
752.822	0.0167970
752.900	0.0169508
752.978	0.0170832
753.057	0.0169132
753.135	0.0170268
753.213	0.0171084
753.291	0.0170624
753.369	0.0170731
753.447	0.0172101
753.525	0.0172972
753.603	0.0172564
753.682	0.0172037
753.760	0.0171630
753.838	0.0171021
753.916	0.0169965
753.994	0.0171297
754.072	0.0170114
754.150	0.0169670
754.228	0.0170010
754.307	0.0168743
754.385	0.0167548
754.463	0.0168484
754.541	0.0167544
754.619	0.0167072
754.697	0.0169076
754.775	0.0169727
754.853	0.0168710
754.932	0.0168718
755.010	0.0169728
755.088	0.0170099
755.166	0.0169594
755.244	0.0171382
755.322	0.0170585
755.400	0.0170837
755.478	0.0170177
755.557	0.0170668
755.635	0.0170983
755.713	0.0171552
755.791	0.0170876
755.869	0.0171563
755.947	0.0171603
756.025	0.0171689
756.103	0.0171132
756.182	0.0170315
756.260	0.0170155
756.338	0.0169126
756.416	0.0169257
756.494	0.0169989
756.572	0.0170449
756.650	0.0169792
756.728	0.0169144
756.807	0.0167969
756.885	0.0169140
756.963	0.0169535
757.041	0.0169849
757.119	0.0168515
757.197	0.0169485
757.275	0.0169856
757.353	0.0169576
757.432	0.0168745
757.510	0.0169183
757.588	0.0171735
757.666	0.0169637
757.744	0.0169032
757.822	0.0169877
757.900	0.0169583
757.978	0.0168691
758.057	0.0168949
758.135	0.0169946
758.213	0.0168728
758.291	0.0168860
758.369	0.0169303
758.447	0.0169940
758.525	0.0171864
758.603	0.0169781
758.682	0.0169637
758.760	0.0170418
758.838	0.0170115
758.916	0.0169485
758.994	0.0171717
759.072	0.0170699
759.150	0.0169765
759.228	0.0170253
759.307	0.0170474
759.385	0.0170985
759.463	0.0170960
759.541	0.0171226
759.619	0.0170794
759.697	0.0171058
759.775	0.0171448
759.853	0.0171614
759.932	0.0169031
760.010	0.0169823
760.088	0.0171810
760.166	0.0171628
760.244	0.0172810
760.322	0.0171725
760.400	0.0171040
760.478	0.0171456
760.557	0.0170686
760.635	0.0171069
760.713	0.0171114
760.791	0.0169997
760.869	0.0171261
760.947	0.0170581
761.025	0.0169927
761.103	0.0170281
761.182	0.0171493
761.260	0.0171228
761.338	0.0170852
761.416	0.0171207
761.494	0.0171435
761.572	0.0170682
761.650	0.0171830
761.728	0.0171332
761.807	0.0171284
761.885	0.0171733
761.963	0.0173698
762.041	0.0171705
762.119	0.0174096
762.197	0.0173526
762.275	0.0175312
762.353	0.0175112
762.432	0.0175290
762.510	0.0173431
762.588	0.0173040
762.666	0.0173728
762.744	0.0173861
762.822	0.0171673
762.900	0.0170882
762.978	0.0171693
763.057	0.0169841
763.135	0.0169867
763.213	0.0167605
763.291	0.0167976
763.369	0.0168373
763.447	0.0167696
763.525	0.0167448
763.603	0.0168184
763.682	0.0166607
763.760	0.0167538
763.838	0.0169524
763.916	0.0170481
763.994	0.0169657
764.072	0.0169833
764.150	0.0169914
764.228	0.0171539
764.307	0.0170639
764.385	0.0170903
764.463	0.0172254
764.541	0.0172862
764.619	0.0173531
764.697	0.0174750
764.775	0.0172049
764.853	0.0173821
764.932	0.0174583
765.010	0.0175111
765.088	0.0173418
765.166	0.0174866
765.244	0.0175216
765.322	0.0174234
765.400	0.0172823
765.478	0.0173073
765.557	0.0171914
765.635	0.0171160
765.713	0.0170229
765.791	0.0169335
765.869	0.0168814
765.947	0.0167864
766.025	0.0168378
766.103	0.0167860
766.182	0.0166940
766.260	0.0166488
766.338	0.0167551
766.416	0.0167024
766.494	0.0167859
766.572	0.0167849
766.650	0.0168922
766.728	0.0167902
766.807	0.0168497
766.885	0.0168848
766.963	0.0168327
767.041	0.0170193
767.119	0.0169398
767.197	0.0169532
767.275	0.0168804
767.353	0.0170354
767.432	0.0169669
767.510	0.0170196
767.588	0.0170564
767.666	0.0170256
767.744	0.0170950
767.822	0.0171446
767.900	0.0170366
767.978	0.0171361
768.057	0.0171930
768.135	0.0172034
768.213	0.0173924
768.291	0.0172557
768.369	0.0173803
768.447	0.0174757
768.525	0.0175288
768.603	0.0176761
768.682	0.0175891
768.760	0.0177452
768.838	0.0176962
768.916	0.0177068
768.994	0.0176290
769.072	0.0175328
769.150	0.0172991
769.228	0.0171481
769.307	0.0170429
769.385	0.0169281
769.463	0.0167207
769.541	0.0166336
769.619	0.0166414
769.697	0.0165894
769.775	0.0164776
769.853	0.0164384
769.932	0.0164619
770.010	0.0163831
770.088	0.0163613
770.166	0.0165472
770.244	0.0165829
770.322	0.0164171
770.400	0.0165415
770.478	0.0165511
770.557	0.0166870
770.635	0.0167593
770.713	0.0166778
770.791	0.0168288
770.869	0.0169606
770.947	0.0170513
771.025	0.0169875
771.103	0.0170695
771.182	0.0173555
771.260	0.0174171
771.338	0.0174210
771.416	0.0176897
771.494	0.0176460
771.572	0.0177070
771.650	0.0177916
771.728	0.0177425
771.807	0.0177554
771.885	0.0177065
771.963	0.0176992
772.041	0.0176902
772.119	0.0176379
772.197	0.0176530
772.275	0.0175524
772.353	0.0173952
772.432	0.0172751
772.510	0.0171695
772.588	0.0171502
772.666	0.0171196
772.744	0.0168461
772.822	0.0168736
772.900	0.0166318
772.978	0.0166293
773.057	0.0164986
773.135	0.0163564
773.213	0.0161798
773.291	0.0161096
773.369	0.0160297
773.447	0.0160622
773.525	0.0160466
773.603	0.0160130
773.682	0.0160169
773.760	0.0161089
773.838	0.0163015
773.916	0.0164477
773.994	0.0164747
774.072	0.0166524
774.150	0.0167110
774.228	0.0168753
774.307	0.0171226
774.385	0.0172436
774.463	0.0174391
774.541	0.0175449
774.619	0.0176599
774.697	0.0179346
774.775	0.0180318
774.853	0.0180853
774.932	0.0181748
775.010	0.0181947
775.088	0.0181808
775.166	0.0180811
775.244	0.0179911
775.322	0.0179107
775.400	0.0180370
775.478	0.0176913
775.557	0.0175680
775.635	0.0173151
775.713	0.0171531
775.791	0.0171412
775.869	0.0168045
775.947	0.0166232
776.025	0.0164404
776.103	0.0162238
776.182	0.0160970
776.260	0.0161196
776.338	0.0159792
776.416	0.0160963
776.494	0.0159303
776.572	0.0160258
776.650	0.0161411
776.728	0.0162833
776.807	0.0162981
776.885	0.0164791
776.963	0.0167769
777.041	0.0169074
777.119	0.0171139
777.197	0.0172514
777.275	0.0174240
777.353	0.0174329
777.432	0.0176273
777.510	0.0177445
777.588	0.0178391
777.666	0.0178195
777.744	0.0177800
777.822	0.0177819
777.900	0.0177528
777.978	0.0176537
778.057	0.0174823
778.135	0.0175316
778.213	0.0175058
778.291	0.0173440
778.369	0.0172944
778.447	0.0172670
778.525	0.0171394
778.603	0.0171845
778.682	0.0170226
778.760	0.0168987
778.838	0.0169353
778.916	0.0169011
778.994	0.0169281
779.072	0.0167495
779.150	0.0168388
779.228	0.0166259
779.307	0.0166808
779.385	0.0165822
779.463	0.0165838
779.541	0.0167576
779.619	0.0166881
779.697	0.0167229
779.775	0.0167490
779.853	0.0170018
779.932	0.0170230
780.010	0.0170581
780.088	0.0171626
780.166	0.0173199
780.244	0.0173872
780.322	0.0173796
780.400	0.0175188
780.478	0.0174443
780.557	0.0174258
780.635	0.0174165
780.713	0.0172730
780.791	0.0174506
780.869	0.0173912
780.947	0.0173570
781.025	0.0173993
781.103	0.0174793
781.182	0.0173931
781.260	0.0173607
781.338	0.0174854
781.416	0.0174391
781.494	0.0175364
781.572	0.0175014
781.650	0.0174204
781.728	0.0174644
781.807	0.0173257
781.885	0.0171169
781.963	0.0170870
782.041	0.0169464
782.119	0.0169251
782.197	0.0170211
782.275	0.0166013
782.353	0.0165575
782.432	0.0165092
782.510	0.0163245
782.588	0.0163594
782.666	0.0162064
782.744	0.0161335
782.822	0.0161517
782.900	0.0161365
782.978	0.0161822
783.057	0.0163153
783.135	0.0164844
783.213	0.0165213
783.291	0.0166391
783.369	0.0168040
783.447	0.0169388
783.525	0.0170474
783.603	0.0171460
783.682	0.0174426
783.760	0.0175627
783.838	0.0176669
783.916	0.0178321
783.994	0.0179375
784.072	0.0179765
784.150	0.0179851
784.228	0.0180880
784.307	0.0180531
784.385	0.0181586
784.463	0.0180847
784.541	0.0181056
784.619	0.0181940
784.697	0.0180269
784.775	0.0180405
784.853	0.0178954
784.932	0.0179336
785.010	0.0176476
785.088	0.0176044
785.166	0.0173526
785.244	0.0169724
785.322	0.0168117
785.400	0.0166052
785.478	0.0163606
785.557	0.0162285
785.635	0.0159459
785.713	0.0158713
785.791	0.0157336
785.869	0.0155109
785.947	0.0156324
786.025	0.0154634
786.103	0.0155492
786.182	0.0157133
786.260	0.0158333
786.338	0.0159149
786.416	0.0161691
786.494	0.0163349
786.572	0.0166794
786.650	0.0169048
786.728	0.0170976
786.807	0.0174449
786.885	0.0175627
786.963	0.0177985
787.041	0.0180566
787.119	0.0183301
787.197	0.0185817
787.275	0.0185355
787.353	0.0186926
787.432	0.0187108
787.510	0.0184460
787.588	0.0183229
787.666	0.0183084
787.744	0.0180531
787.822	0.0177161
787.900	0.0173672
787.978	0.0171777
788.057	0.0170156
788.135	0.0165838
788.213	0.0162727
788.291	0.0160745
788.369	0.0159059
788.447	0.0156275
788.525	0.0154890
788.603	0.0155624
788.682	0.0156059
788.760	0.0156268
788.838	0.0159989
788.916	0.0161101
788.994	0.0162832
789.072	0.0167210
789.150	0.0167779
789.228	0.0169725
789.307	0.0172760
789.385	0.0176942
789.463	0.0177631
789.541	0.0177306
789.619	0.0181234
789.697	0.0181377
789.775	0.0180177
789.853	0.0179252
789.932	0.0180358
790.010	0.0178789
790.088	0.0176767
790.166	0.0175433
790.244	0.0173727
790.322	0.0172466
790.400	0.0170496
790.478	0.0169635
790.557	0.0167801
790.635	0.0167301
790.713	0.0166181
790.791	0.0163625
790.869	0.0165624
790.947	0.0164060
791.025	0.0163383
791.103	0.0163844
791.182	0.0163536
791.260	0.0164107
791.338	0.0165222
791.416	0.0164437
791.494	0.0167120
791.572	0.0167148
791.650	0.0167640
791.728	0.0168989
791.807	0.0171198
791.885	0.0172006
791.963	0.0172002
792.041	0.0171306
792.119	0.0171589
792.197	0.0171616
792.275	0.0171744
792.353	0.0170977
792.432	0.0170632
792.510	0.0170604
792.588	0.0170094
792.666	0.0169317
792.744	0.0166409
792.822	0.0166434
792.900	0.0163466
792.978	0.0165359
793.057	0.0165030
793.135	0.0163684
793.213	0.0162665
793.291	0.0163754
793.369	0.0163829
793.447	0.0164379
793.525	0.0166579
793.603	0.0168097
793.682	0.0168571
793.760	0.0169865
793.838	0.0174582
793.916	0.0175534
793.994	0.0176875
794.072	0.0178765
794.150	0.0178897
794.228	0.0179571
794.307	0.0181616
794.385	0.0180494
794.463	0.0180961
794.541	0.0180924
794.619	0.0180203
794.697	0.0179219
794.775	0.0179323
794.853	0.0177405
794.932	0.0174905
795.010	0.0172668
795.088	0.0170429
795.166	0.0169485
795.244	0.0167799
795.322	0.0164851
795.400	0.0163914
795.478	0.0162066
795.557	0.0161900
795.635	0.0160622
795.713	0.0158941
795.791	0.0158994
795.869	0.0159689
795.947	0.0161096
796.025	0.0161775
796.103	0.0162650
796.182	0.0164232
796.260	0.0166772
796.338	0.0168819
796.416	0.0168553
796.494	0.0170237
796.572	0.0172938
796.650	0.0173866
796.728	0.0174481
796.807	0.0174302
796.885	0.0176602
796.963	0.0175217
797.041	0.0174752
797.119	0.0173738
797.197	0.0174608
797.275	0.0172511
797.353	0.0172585
797.432	0.0169605
797.510	0.0169609
797.588	0.0168169
797.666	0.0164870
797.744	0.0164247
797.822	0.0163911
797.900	0.0163450
797.978	0.0163141
798.057	0.0162462
798.135	0.0162986
798.213	0.0163455
798.291	0.0163377
798.369	0.0166049
798.447	0.0166375
798.525	0.0169857
798.603	0.0171364
798.682	0.0172012
798.760	0.0176820
798.838	0.0177225
798.916	0.0178037
798.994	0.0181458
799.072	0.0183466
799.150	0.0183659
799.228	0.0183672
799.307	0.0183441
799.385	0.0184872
799.463	0.0182880
799.541	0.0182296
799.619	0.0180113
799.697	0.0177899
799.775	0.0178041
799.853	0.0175145
799.932	0.0171843
800.010	0.0169226
800.088	0.0166357
800.166	0.0163223
800.244	0.0159816
800.322	0.0157818
800.400	0.0156715
800.478	0.0155468
800.557	0.0154037
800.635	0.0154623
800.713	0.0154823
800.791	0.0154726
800.869	0.0156432
800.947	0.0156554
801.025	0.0158714
801.103	0.0160428
801.182	0.0162706
801.260	0.0165535
801.338	0.0167909
801.416	0.0170045
801.494	0.0173989
801.572	0.0174104
801.650	0.0178157
801.728	0.0180011
801.807	0.0182510
801.885	0.0183010
801.963	0.0182500
802.041	0.0185223
802.119	0.0186172
802.197	0.0183736
802.275	0.0183816
802.353	0.0184968
802.432	0.0182841
802.510	0.0182179
802.588	0.0179489
802.666	0.0177786
802.744	0.0175485
802.822	0.0174462
802.900	0.0171696
802.978	0.0169954
803.057	0.0167503
803.135	0.0167556
803.213	0.0166148
803.291	0.0164921
803.369	0.0164653
803.447	0.0164615
803.525	0.0164810
803.603	0.0164673
803.682	0.0167249
803.760	0.0167352
803.838	0.0165932
803.916	0.0166755
803.994	0.0168324
804.072	0.0169599
804.150	0.0170583
804.228	0.0170787
804.307	0.0172330
804.385	0.0170821
804.463	0.0170805
804.541	0.0171108
804.619	0.0170578
804.697	0.0169192
804.775	0.0168728
804.853	0.0167892
804.932	0.0167974
805.010	0.0167559
805.088	0.0167742
805.166	0.0167146
805.244	0.0167272
805.322	0.0167170
805.400	0.0167841
805.478	0.0168224
805.557	0.0167732
805.635	0.0167202
805.713	0.0168661
805.791	0.0167554
805.869	0.0170218
805.947	0.0167646
806.025	0.0168254
806.103	0.0168776
806.182	0.0169733
806.260	0.0168806
806.338	0.0169479
806.416	0.0168539
806.494	0.0169743
806.572	0.0169735
806.650	0.0169091
806.728	0.0170488
806.807	0.0171655
806.885	0.0171995
806.963	0.0174513
807.041	0.0175196
807.119	0.0174879
807.197	0.0178043
807.275	0.0179712
807.353	0.0179916
807.432	0.0180755
807.510	0.0181136
807.588	0.0180907
807.666	0.0179560
807.744	0.0180901
807.822	0.0179749
807.900	0.0178184
807.978	0.0177846
808.057	0.0175124
808.135	0.0174287
808.213	0.0171263
808.291	0.0169718
808.369	0.0170275
808.447	0.0167426
808.525	0.0165785
808.603	0.0164199
808.682	0.0165545
808.760	0.0163655
808.838	0.0163475
808.916	0.0164786
808.994	0.0163437
809.072	0.0163672
809.150	0.0163849
809.228	0.0166756
809.307	0.0165726
809.385	0.0167310
809.463	0.0167054
809.541	0.0168190
809.619	0.0168848
809.697	0.0169452
809.775	0.0169615
809.853	0.0169992
809.932	0.0168993
810.010	0.0168478
810.088	0.0165531
810.166	0.0167131
810.244	0.0164528
810.322	0.0163467
810.400	0.0163929
810.478	0.0162630
810.557	0.0163418
810.635	0.0161507
810.713	0.0161678
810.791	0.0165041
810.869	0.0164645
810.947	0.0166666
811.025	0.0168568
811.103	0.0170676
811.182	0.0172438
811.260	0.0174184
811.338	0.0177271
811.416	0.0178870
811.494	0.0179366
811.572	0.0181161
811.650	0.0181281
811.728	0.0182001
811.807	0.0182231
811.885	0.0181764
811.963	0.0181256
812.041	0.0180954
812.119	0.0179253
812.197	0.0178355
812.275	0.0175298
812.353	0.0176040
812.432	0.0173144
812.510	0.0171970
812.588	0.0172009
812.666	0.0170085
812.744	0.0167843
812.822	0.0167371
812.900	0.0167104
812.978	0.0167440
813.057	0.0166676
813.135	0.0166566
813.213	0.0164227
813.291	0.0165800
813.369	0.0166422
813.447	0.0164506
813.525	0.0164193
813.603	0.0164629
813.682	0.0163994
813.760	0.0164462
813.838	0.0164579
813.916	0.0163274
813.994	0.0162843
814.072	0.0161732
814.150	0.0163072
814.228	0.0161983
814.307	0.0162297
814.385	0.0160807
814.463	0.0161774
814.541	0.0160957
814.619	0.0161490
814.697	0.0161520
814.775	0.0162436
814.853	0.0163117
814.932	0.0162978
815.010	0.0163499
815.088	0.0164398
815.166	0.0165961
815.244	0.0167210
815.322	0.0167977
815.400	0.0167975
815.478	0.0169489
815.557	0.0170070
815.635	0.0170331
815.713	0.0171600
815.791	0.0172667
815.869	0.0173029
815.947	0.0173083
816.025	0.0174691
816.103	0.0173755
816.182	0.0175112
816.260	0.0173830
816.338	0.0175191
816.416	0.0177363
816.494	0.0175552
816.572	0.0174691
816.650	0.0176756
816.728	0.0178422
816.807	0.0178165
816.885	0.0179435
816.963	0.0180820
817.041	0.0181100
817.119	0.0182198
817.197	0.0181902
817.275	0.0180376
817.353	0.0182546
817.432	0.0182748
817.510	0.0181228
817.588	0.0179058
817.666	0.0178058
817.744	0.0177280
817.822	0.0175623
817.900	0.0171317
817.978	0.0171507
818.057	0.0170220
818.135	0.0168098
818.213	0.0166908
818.291	0.0165496
818.369	0.0164769
818.447	0.0164480
818.525	0.0164206
818.603	0.0162811
818.682	0.0162865
818.760	0.0162574
818.838	0.0164146
818.916	0.0163293
818.994	0.0164570
819.072	0.0165102
819.150	0.0165423
819.228	0.0167387
819.307	0.0167042
819.385	0.0165771
819.463	0.0166396
819.541	0.0164507
819.619	0.0162566
819.697	0.0163765
819.775	0.0162659
819.853	0.0162225
819.932	0.0160922
820.010	0.0162071
820.088	0.0160957
820.166	0.0159754
820.244	0.0160437
820.322	0.0160856
820.400	0.0163350
820.478	0.0163794
820.557	0.0165167
820.635	0.0166982
820.713	0.0168713
820.791	0.0170974
820.869	0.0171235
820.947	0.0173692
821.025	0.0176592
821.103	0.0177081
821.182	0.0177673
821.260	0.0180826
821.338	0.0179735
821.416	0.0180659
821.494	0.0180790
821.572	0.0180751
821.650	0.0179070
821.728	0.0179467
821.807	0.0179147
821.885	0.0177015
821.963	0.0175208
822.041	0.0175185
822.119	0.0174657
822.197	0.0173019
822.275	0.0172320
822.353	0.0171713
822.432	0.0171539
822.510	0.0170989
822.588	0.0172575
822.666	0.0170448
822.744	0.0170530
822.822	0.0170419
822.900	0.0171009
822.978	0.0171779
823.057	0.0170663
823.135	0.0170404
823.213	0.0170219
823.291	0.0169916
823.369	0.0170634
823.447	0.0170860
823.525	0.0170393
823.603	0.0168624
823.682	0.0168319
823.760	0.0169808
823.838	0.0167867
823.916	0.0168423
823.994	0.0168251
824.072	0.0168871
824.150	0.0169143
824.228	0.0167498
824.307	0.0169415
824.385	0.0169644
824.463	0.0169694
824.541	0.0168709
824.619	0.0168666
824.697	0.0169160
824.775	0.0169336
824.853	0.0168898
824.932	0.0167865
825.010	0.0167940
825.088	0.0167258
825.166	0.0166577
825.244	0.0166463
825.322	0.0166001
825.400	0.0166174
825.478	0.0164268
825.557	0.0163354
825.635	0.0164370
825.713	0.0166249
825.791	0.0166319
825.869	0.0164937
825.947	0.0164381
826.025	0.0167449
826.103	0.0166328
826.182	0.0168193
826.260	0.0169337
826.338	0.0168999
826.416	0.0170979
826.494	0.0170705
826.572	0.0171871
826.650	0.0172487
826.728	0.0171967
826.807	0.0172253
826.885	0.0173360
826.963	0.0172360
827.041	0.0172439
827.119	0.0172075
827.197	0.0172019
827.275	0.0172334
827.353	0.0172478
827.432	0.0172653
827.510	0.0172015
827.588	0.0171553
827.666	0.0172065
827.744	0.0171078
827.822	0.0172577
827.900	0.0171689
827.978	0.0171265
828.057	0.0172182
828.135	0.0172429
828.213	0.0171531
828.291	0.0170761
828.369	0.0173749
828.447	0.0173592
828.525	0.0173749
828.603	0.0172395
828.682	0.0172031
828.760	0.0172181
828.838	0.0172238
828.916	0.0174279
828.994	0.0173141
829.072	0.0173512
829.150	0.0173027
829.228	0.0173474
829.307	0.0172751
829.385	0.0172466
829.463	0.0172002
829.541	0.0173109
829.619	0.0171131
829.697	0.0171371
829.775	0.0168572
829.853	0.0169784
829.932	0.0169370
830.010	0.0169088
830.088	0.0167252
830.166	0.0164158
830.244	0.0166005
830.322	0.0163866
830.400	0.0162833
830.478	0.0163177
830.557	0.0162170
830.635	0.0160438
830.713	0.0159172
830.791	0.0160580
830.869	0.0161327
830.947	0.0161028
831.025	0.0162298
831.103	0.0162802
831.182	0.0163223
831.260	0.0162227
831.338	0.0165224
831.416	0.0165809
831.494	0.0167342
831.572	0.0168420
831.650	0.0167814
831.728	0.0168809
831.807	0.0170712
831.885	0.0171037
831.963	0.0171798
832.041	0.0170742
832.119	0.0172726
832.197	0.0172006
832.275	0.0170314
832.353	0.0171242
832.432	0.0173066
832.510	0.0171882
832.588	0.0171884
832.666	0.0173197
832.744	0.0173455
832.822	0.0171797
832.900	0.0171668
832.978	0.0172754
833.057	0.0172974
833.135	0.0173560
833.213	0.0172378
833.291	0.0172172
833.369	0.0171733
833.447	0.0173325
833.525	0.0174315
833.603	0.0173365
833.682	0.0173002
833.760	0.0172042
833.838	0.0173553
833.916	0.0172530
833.994	0.0171720
834.072	0.0172557
834.150	0.0174242
834.228	0.0172931
834.307	0.0172929
834.385	0.0173623
834.463	0.0171935
834.541	0.0172721
834.619	0.0170953
834.697	0.0171098
834.775	0.0170934
834.853	0.0170813
834.932	0.0170470
835.010	0.0170142
835.088	0.0169297
835.166	0.0170077
835.244	0.0168584
835.322	0.0168908
835.400	0.0168374
835.478	0.0167212
835.557	0.0167111
835.635	0.0166946
835.713	0.0169541
835.791	0.0170059
835.869	0.0166975
835.947	0.0168870
836.025	0.0168922
836.103	0.0168671
836.182	0.0166765
836.260	0.0166476
836.338	0.0168103
836.416	0.0167956
836.494	0.0168453
836.572	0.0166410
836.650	0.0166452
836.728	0.0166609
836.807	0.0165022
836.885	0.0165630
836.963	0.0166034
837.041	0.0165781
837.119	0.0164550
837.197	0.0165879
837.275	0.0166455
837.353	0.0164932
837.432	0.0166480
837.510	0.0168315
837.588	0.0168510
837.666	0.0169004
837.744	0.0169820
837.822	0.0170744
837.900	0.0171537
837.978	0.0172411
838.057	0.0173344
838.135	0.0171819
838.213	0.0173465
838.291	0.0173946
838.369	0.0175305
838.447	0.0174035
838.525	0.0174928
838.603	0.0174002
838.682	0.0173664
838.760	0.0172677
838.838	0.0172603
838.916	0.0172779
838.994	0.0172872
839.072	0.0173183
839.150	0.0173120
839.228	0.0174551
839.307	0.0171714
839.385	0.0171567
839.463	0.0171261
839.541	0.0173564
839.619	0.0174587
839.697	0.0174979
839.775	0.0172984
839.853	0.0174216
839.932	0.0176312
840.010	0.0175774
840.088	0.0176124
840.166	0.0175124
840.244	0.0175710
840.322	0.0174583
840.400	0.0174208
840.478	0.0174314
840.557	0.0172716
840.635	0.0172308
840.713	0.0172565
840.791	0.0169259
840.869	0.0170446
840.947	0.0170515
841.025	0.0170527
841.103	0.0169689
841.182	0.0169225
841.260	0.0168448
841.338	0.0168472
841.416	0.0167794
841.494	0.0166988
841.572	0.0168090
841.650	0.0168460
841.728	0.0167803
841.807	0.0166312
841.885	0.0168079
841.963	0.0168721
842.041	0.0168069
842.119	0.0169096
842.197	0.0168846
842.275	0.0170146
842.353	0.0170087
842.432	0.0168945
842.510	0.0169228
842.588	0.0169854
842.666	0.0170532
842.744	0.0170286
842.822	0.0169549
842.900	0.0169614
842.978	0.0168225
843.057	0.0168359
843.135	0.0168559
843.213	0.0168187
843.291	0.0168822
843.369	0.0167940
843.447	0.0167533
843.525	0.0167763
843.603	0.0168423
843.682	0.0168629
843.760	0.0169888
843.838	0.0168929
843.916	0.0170689
843.994	0.0170483
844.072	0.0171334
844.150	0.0171311
844.228	0.0171268
844.307	0.0170567
844.385	0.0173252
844.463	0.0173718
844.541	0.0173858
844.619	0.0173947
844.697	0.0172277
844.775	0.0173097
844.853	0.0173045
844.932	0.0173981
845.010	0.0173480
845.088	0.0172030
845.166	0.0174731
845.244	0.0173608
845.322	0.0172757
845.400	0.0171871
845.478	0.0171996
845.557	0.0171627
845.635	0.0170839
845.713	0.0169427
845.791	0.0169659
845.869	0.0167955
845.947	0.0170137
846.025	0.0170274
846.103	0.0171550
846.182	0.0169629
846.260	0.0170999
846.338	0.0173112
846.416	0.0171964
846.494	0.0172234
846.572	0.0173856
846.650	0.0172730
846.728	0.0172828
846.807	0.0174370
846.885	0.0173663
846.963	0.0174409
847.041	0.0171966
847.119	0.0171050
847.197	0.0171015
847.275	0.0170186
847.353	0.0170401
847.432	0.0169676
847.510	0.0168086
847.588	0.0167756
847.666	0.0167208
847.744	0.0166628
847.822	0.0165975
847.900	0.0166438
847.978	0.0165955
848.057	0.0165952
848.135	0.0166052
848.213	0.0165282
848.291	0.0166868
848.369	0.0167475
848.447	0.0167273
848.525	0.0166639
848.603	0.0168683
848.682	0.0167034
848.760	0.0168202
848.838	0.0168301
848.916	0.0168243
848.994	0.0167429
849.072	0.0166577
849.150	0.0168099
849.228	0.0168348
849.307	0.0168239
849.385	0.0168372
849.463	0.0168719
849.541	0.0169774
849.619	0.0170357
849.697	0.0169344
849.775	0.0170569
849.853	0.0171897
849.932	0.0171476
850.010	0.0173318
850.088	0.0172201
850.166	0.0172849
850.244	0.0171803
850.322	0.0172325
850.400	0.0174358
850.478	0.0173341
850.557	0.0172805
850.635	0.0174067
850.713	0.0171787
850.791	0.0171394
850.869	0.0171994
850.947	0.0170253
851.025	0.0170049
851.103	0.0170665
851.182	0.0169924
851.260	0.0167833
851.338	0.0169600
851.416	0.0168972
851.494	0.0168811
851.572	0.0169215
851.650	0.0168374
851.728	0.0169447
851.807	0.0168347
851.885	0.0170274
851.963	0.0170822
852.041	0.0171541
852.119	0.0170756
852.197	0.0171227
852.275	0.0171644
852.353	0.0171915
852.432	0.0171499
852.510	0.0172075
852.588	0.0171407
852.666	0.0171535
852.744	0.0171672
852.822	0.0172259
852.900	0.0170961
852.978	0.0171239
853.057	0.0170771
853.135	0.0169982
853.213	0.0170041
853.291	0.0168896
853.369	0.0168711
853.447	0.0169883
853.525	0.0169396
853.603	0.0168050
853.682	0.0167325
853.760	0.0167625
853.838	0.0167283
853.916	0.0168182
853.994	0.0168990
854.072	0.0168530
854.150	0.0168131
854.228	0.0166783
854.307	0.0167347
854.385	0.0167117
854.463	0.0167721
854.541	0.0166378
854.619	0.0167805
854.697	0.0167300
854.775	0.0166866
854.853	0.0166500
854.932	0.0167733
855.010	0.0168082
855.088	0.0169070
855.166	0.0168092
855.244	0.0168555
855.322	0.0168141
855.400	0.0170641
855.478	0.0169009
855.557	0.0169422
855.635	0.0169929
855.713	0.0169638
855.791	0.0169979
855.869	0.0171532
855.947	0.0171946
856.025	0.0169852
856.103	0.0171616
856.182	0.0172986
856.260	0.0171984
856.338	0.0170480
856.416	0.0172124
856.494	0.0172310
856.572	0.0173025
856.650	0.0171513
856.728	0.0172921
856.807	0.0171746
856.885	0.0172507
856.963	0.0169901
857.041	0.0170905
857.119	0.0171458
857.197	0.0170979
857.275	0.0167548
857.353	0.0168621
857.432	0.0170762
857.510	0.0169145
857.588	0.0169193
857.666	0.0168198
857.744	0.0169730
857.822	0.0170145
857.900	0.0170335
857.978	0.0170456
858.057	0.0171935
858.135	0.0172174
858.213	0.0172733
858.291	0.0172549
858.369	0.0172121
858.447	0.0172417
858.525	0.0172120
858.603	0.0171777
858.682	0.0171993
858.760	0.0171303
858.838	0.0172448
858.916	0.0171391
858.994	0.0172369
859.072	0.0171471
859.150	0.0172418
859.228	0.0173855
859.307	0.0173716
859.385	0.0172058
859.463	0.0172440
859.541	0.0172006
859.619	0.0171104
859.697	0.0172703
859.775	0.0172711
859.853	0.0171974
859.932	0.0172672
860.010	0.0171562
860.088	0.0171114
860.166	0.0170148
860.244	0.0169802
860.322	0.0170154
860.400	0.0168949
860.478	0.0166774
860.557	0.0170170
860.635	0.0168885
860.713	0.0168147
860.791	0.0168877
860.869	0.0167920
860.947	0.0169223
861.025	0.0168494
861.103	0.0168847
861.182	0.0169188
861.260	0.0170026
861.338	0.0169235
861.416	0.0169550
861.494	0.0171109
861.572	0.0170828
861.650	0.0171238
861.728	0.0172086
861.807	0.0173354
861.885	0.0171534
861.963	0.0172618
862.041	0.0173454
862.119	0.0173132
862.197	0.0173531
862.275	0.0173543
862.353	0.0173463
862.432	0.0173568
862.510	0.0173103
862.588	0.0170789
862.666	0.0170991
862.744	0.0172022
862.822	0.0169798
862.900	0.0170602
862.978	0.0168243
863.057	0.0169462
863.135	0.0168043
863.213	0.0170331
863.291	0.0170625
863.369	0.0169590
863.447	0.0169899
863.525	0.0168250
863.603	0.0170992
863.682	0.0169949
863.760	0.0170274
863.838	0.0171115
863.916	0.0170500
863.994	0.0172050
864.072	0.0171471
864.150	0.0172777
864.228	0.0171542
864.307	0.0171689
864.385	0.0171585
864.463	0.0171347
864.541	0.0172285
864.619	0.0171081
864.697	0.0169945
864.775	0.0171857
864.853	0.0171559
864.932	0.0171620
865.010	0.0170361
865.088	0.0170449
865.166	0.0170566
865.244	0.0170680
865.322	0.0171976
865.400	0.0171523
865.478	0.0170758
865.557	0.0170437
865.635	0.0171232
865.713	0.0171049
865.791	0.0171449
865.869	0.0171293
865.947	0.0170901
866.025	0.0172101
866.103	0.0169455
866.182	0.0169913
866.260	0.0169735
866.338	0.0169746
866.416	0.0169152
866.494	0.0168504
866.572	0.0168463
866.650	0.0169709
866.728	0.0169057
866.807	0.0166476
866.885	0.0168582
866.963	0.0167448
867.041	0.0167088
867.119	0.0167589
867.197	0.0168082
867.275	0.0167848
867.353	0.0167373
867.432	0.0168520
867.510	0.0169284
867.588	0.0170481
867.666	0.0170442
867.744	0.0171793
867.822	0.0172800
867.900	0.0172749
867.978	0.0171438
868.057	0.0172912
868.135	0.0172639
868.213	0.0172588
868.291	0.0172086
868.369	0.0172340
868.447	0.0172499
868.525	0.0173088
868.603	0.0171096
868.682	0.0171370
868.760	0.0171851
868.838	0.0169920
868.916	0.0170370
868.994	0.0170172
869.072	0.0168447
869.150	0.0169117
869.228	0.0168042
869.307	0.0167910
869.385	0.0169724
869.463	0.0169347
869.541	0.0168388
869.619	0.0168163
869.697	0.0167830
869.775	0.0168754
869.853	0.0169488
869.932	0.0167864
870.010	0.0169229
870.088	0.0168108
870.166	0.0169118
870.244	0.0168381
870.322	0.0166460
870.400	0.0168391
870.478	0.0167430
870.557	0.0168231
870.635	0.0167334
870.713	0.0167811
870.791	0.0168239
870.869	0.0168214
870.947	0.0168510
871.025	0.0169096
871.103	0.0168163
871.182	0.0168641
871.260	0.0171303
871.338	0.0170502
871.416	0.0170411
871.494	0.0171658
871.572	0.0173526
871.650	0.0173196
871.728	0.0172395
871.807	0.0174390
871.885	0.0174510
871.963	0.0174308
872.041	0.0175377
872.119	0.0173683
872.197	0.0175033
872.275	0.0174932
872.353	0.0173792
872.432	0.0173624
872.510	0.0172630
872.588	0.0173171
872.666	0.0169968
872.744	0.0169479
872.822	0.0169078
872.900	0.0168520
872.978	0.0167755
873.057	0.0168839
873.135	0.0168753
873.213	0.0168401
873.291	0.0168653
873.369	0.0168919
873.447	0.0168740
873.525	0.0167652
873.603	0.0168776
873.682	0.0170112
873.760	0.0169032
873.838	0.0170866
873.916	0.0169727
873.994	0.0170090
874.072	0.0171511
874.150	0.0172380
874.228	0.0170084
874.307	0.0171807
874.385	0.0170874
874.463	0.0171037
874.541	0.0170033
874.619	0.0171104
874.697	0.0172051
874.775	0.0170643
874.853	0.0170235
874.932	0.0170396
875.010	0.0168046
875.088	0.0167355
875.166	0.0168309
875.244	0.0168682
875.322	0.0168360
875.400	0.0167513
875.478	0.0167054
875.557	0.0168106
875.635	0.0167212
875.713	0.0168877
875.791	0.0168939
875.869	0.0167760
875.947	0.0170184
876.025	0.0169587
876.103	0.0170972
876.182	0.0170831
876.260	0.0170882
876.338	0.0171217
876.416	0.0170624
876.494	0.0170993
876.572	0.0170852
876.650	0.0171128
876.728	0.0172110
876.807	0.0172270
876.885	0.0171666
876.963	0.0171745
877.041	0.0172835
877.119	0.0173075
877.197	0.0172662
877.275	0.0171750
877.353	0.0171187
877.432	0.0173632
877.510	0.0174209
877.588	0.0171936
877.666	0.0171265
877.744	0.0171236
877.822	0.0171069
877.900	0.0171101
877.978	0.0172085
878.057	0.0172462
878.135	0.0170805
878.213	0.0171933
878.291	0.0171936
878.369	0.0172116
878.447	0.0170435
878.525	0.0170295
878.603	0.0172662
878.682	0.0172845
878.760	0.0171719
878.838	0.0171016
878.916	0.0171716
878.994	0.0171423
879.072	0.0172520
879.150	0.0170122
879.228	0.0170177
879.307	0.0170477
879.385	0.0168680
879.463	0.0169790
879.541	0.0169807
879.619	0.0170133
879.697	0.0168465
879.775	0.0169240
879.853	0.0170019
879.932	0.0169181
880.010	0.0168214
880.088	0.0166678
880.166	0.0168141
880.244	0.0169792
880.322	0.0170186
880.400	0.0168236
880.478	0.0168678
880.557	0.0168473
880.635	0.0170352
880.713	0.0170751
880.791	0.0171243
880.869	0.0170264
880.947	0.0170700
881.025	0.0171729
881.103	0.0171626
881.182	0.0171006
881.260	0.0170718
881.338	0.0171196
881.416	0.0171323
881.494	0.0170993
881.572	0.0169730
881.650	0.0171889
881.728	0.0169376
881.807	0.0169512
881.885	0.0170261
881.963	0.0168462
882.041	0.0169312
882.119	0.0170184
882.197	0.0169529
882.275	0.0169107
882.353	0.0169501
882.432	0.0168854
882.510	0.0168479
882.588	0.0169068
882.666	0.0169851
882.744	0.0169474
882.822	0.0170478
882.900	0.0169484
882.978	0.0170243
883.057	0.0171781
883.135	0.0170837
883.213	0.0170795
883.291	0.0171851
883.369	0.0172504
883.447	0.0174382
883.525	0.0173005
883.603	0.0172152
883.682	0.0172778
883.760	0.0172404
883.838	0.0172471
883.916	0.0172486
883.994	0.0172397
884.072	0.0171307
884.150	0.0171028
884.228	0.0170330
884.307	0.0169781
884.385	0.0170496
884.463	0.0170179
884.541	0.0170139
884.619	0.0169346
884.697	0.0169698
884.775	0.0171326
884.853	0.0170998
884.932	0.0170712
885.010	0.0171237
885.088	0.0172377
885.166	0.0171561
885.244	0.0172153
885.322	0.0171794
885.400	0.0170912
885.478	0.0169691
885.557	0.0171117
885.635	0.0169296
885.713	0.0169454
885.791	0.0169544
885.869	0.0169625
885.947	0.0169039
886.025	0.0168513
886.103	0.0168449
886.182	0.0168422
886.260	0.0167169
886.338	0.0167574
886.416	0.0167230
886.494	0.0167422
886.572	0.0168643
886.650	0.0167004
886.728	0.0167150
886.807	0.0167833
886.885	0.0165604
886.963	0.0169138
887.041	0.0169328
887.119	0.0167809
887.197	0.0169601
887.275	0.0169924
887.353	0.0169163
887.432	0.0168953
887.510	0.0169793
887.588	0.0169505
887.666	0.0168102
887.744	0.0169095
887.822	0.0170679
887.900	0.0170286
887.978	0.0169706
888.057	0.0168395
888.135	0.0169522
888.213	0.0169266
888.291	0.0170143
888.369	0.0170291
888.447	0.0170062
888.525	0.0169884
888.603	0.0169283
888.682	0.0170245
888.760	0.0170816
888.838	0.0170158
888.916	0.0169045
888.994	0.0171456
889.072	0.0171188
889.150	0.0171683
889.228	0.0172030
889.307	0.0171378
889.385	0.0172040
889.463	0.0170451
889.541	0.0172971
889.619	0.0172018
889.697	0.0172005
889.775	0.0171966
889.853	0.0171144
889.932	0.0172586
890.010	0.0171060
890.088	0.0169762
890.166	0.0170761
890.244	0.0171953
890.322	0.0170755
890.400	0.0170715
890.478	0.0169775
890.557	0.0169207
890.635	0.0168778
890.713	0.0169353
890.791	0.0168699
890.869	0.0168405
890.947	0.0168651
891.025	0.0168101
891.103	0.0167964
891.182	0.0170551
891.260	0.0168911
891.338	0.0170538
891.416	0.0169386
891.494	0.0170348
891.572	0.0169744
891.650	0.0169040
891.728	0.0169273
891.807	0.0169915
891.885	0.0169841
891.963	0.0169560
892.041	0.0168891
892.119	0.0169141
892.197	0.0169039
892.275	0.0168847
892.353	0.0166074
892.432	0.0168467
892.510	0.0166685
892.588	0.0167239
892.666	0.0166082
892.744	0.0168203
892.822	0.0167368
892.900	0.0167220
892.978	0.0167315
893.057	0.0166286
893.135	0.0166281
893.213	0.0167609
893.291	0.0166772
893.369	0.0168349
893.447	0.0168243
893.525	0.0167266
893.603	0.0167957
893.682	0.0170084
893.760	0.0168777
893.838	0.0168617
893.916	0.0169685
893.994	0.0171101
894.072	0.0170781
894.150	0.0170026
894.228	0.0170503
894.307	0.0171635
894.385	0.0170682
894.463	0.0171889
894.541	0.0170300
894.619	0.0168584
894.697	0.0169930
894.775	0.0170735
894.853	0.0171488
894.932	0.0170172
895.010	0.0169867
895.088	0.0169746
895.166	0.0169703
895.244	0.0170554
895.322	0.0172090
895.400	0.0171902
895.478	0.0172087
895.557	0.0174085
895.635	0.0172001
895.713	0.0172285
895.791	0.0172326
895.869	0.0172041
895.947	0.0173335
896.025	0.0174670
896.103	0.0173262
896.182	0.0172204
896.260	0.0171818
896.338	0.0171361
896.416	0.0169852
896.494	0.0168410
896.572	0.0168993
896.650	0.0168082
896.728	0.0168205
896.807	0.0167403
896.885	0.0166357
896.963	0.0166114
897.041	0.0165837
897.119	0.0164488
897.197	0.0164188
897.275	0.0164436
897.353	0.0164518
897.432	0.0165562
897.510	0.0165802
897.588	0.0165622
897.666	0.0166501
897.744	0.0167368
897.822	0.0166335
897.900	0.0167102
897.978	0.0168504
898.057	0.0167193
898.135	0.0170107
898.213	0.0169768
898.291	0.0169444
898.369	0.0170899
898.447	0.0170422
898.525	0.0169682
898.603	0.0171889
898.682	0.0171934
898.760	0.0170940
898.838	0.0170977
898.916	0.0173615
898.994	0.0170635
899.072	0.0172972
899.150	0.0170770
899.228	0.0171101
899.307	0.0169776
899.385	0.0171473
899.463	0.0170876
899.541	0.0169409
899.619	0.0170762
899.697	0.0168430
899.775	0.0170313
899.853	0.0169627
899.932	0.0169984
900.010	0.0171330
900.088	0.0169538
900.166	0.0169540
900.244	0.0172681
900.322	0.0172629
900.400	0.0172611
900.478	0.0171023
900.557	0.0170933
900.635	0.0170782
900.713	0.0171048
900.791	0.0171001
900.869	0.0171619
900.947	0.0170856
901.025	0.0170855
901.103	0.0172031
901.182	0.0170137
901.260	0.0170210
901.338	0.0169180
901.416	0.0170113
901.494	0.0170168
901.572	0.0170058
901.650	0.0170863
901.728	0.0172224
901.807	0.0171026
901.885	0.0172000
901.963	0.0172038
902.041	0.0171569
902.119	0.0173502
902.197	0.0172937
902.275	0.0173094
902.353	0.0172204
902.432	0.0173074
902.510	0.0172625
902.588	0.0173117
902.666	0.0174567
902.744	0.0171301
902.822	0.0170972
902.900	0.0171196
902.978	0.0172147
903.057	0.0171312
903.135	0.0169744
903.213	0.0169590
903.291	0.0170064
903.369	0.0170839
903.447	0.0171073
903.525	0.0169556
903.603	0.0171164
903.682	0.0171370
903.760	0.0170779
903.838	0.0170155
903.916	0.0170283
903.994	0.0170818
904.072	0.0169965
904.150	0.0171886
904.228	0.0170518
904.307	0.0171800
904.385	0.0172671
904.463	0.0171365
904.541	0.0171143
904.619	0.0172246
904.697	0.0173223
904.775	0.0171684
904.853	0.0170852
904.932	0.0170529
905.010	0.0171616
905.088	0.0171214
905.166	0.0169474
905.244	0.0168788
905.322	0.0170051
905.400	0.0169499
905.478	0.0167686
905.557	0.0166397
905.635	0.0168663
905.713	0.0167568
905.791	0.0168625
905.869	0.0169296
905.947	0.0170136
906.025	0.0169946
906.103	0.0169466
906.182	0.0169122
906.260	0.0170470
906.338	0.0172409
906.416	0.0170238
906.494	0.0171941
906.572	0.0171088
906.650	0.0172429
906.728	0.0173247
906.807	0.0173397
906.885	0.0172314
906.963	0.0173273
907.041	0.0172608
907.119	0.0172491
907.197	0.0173269
907.275	0.0169960
907.353	0.0170967
907.432	0.0172992
907.510	0.0171602
907.588	0.0170733
907.666	0.0170866
907.744	0.0171714
907.822	0.0170792
907.900	0.0172344
907.978	0.0171811
908.057	0.0172131
908.135	0.0172814
908.213	0.0172243
908.291	0.0172500
908.369	0.0172906
908.447	0.0173757
908.525	0.0173888
908.603	0.0174294
908.682	0.0175098
908.760	0.0174024
908.838	0.0174497
908.916	0.0175713
908.994	0.0174537
909.072	0.0173306
909.150	0.0174888
909.228	0.0173849
909.307	0.0172692
909.385	0.0171368
909.463	0.0170844
909.541	0.0170231
909.619	0.0168771
909.697	0.0168596
909.775	0.0167979
909.853	0.0167043
909.932	0.0167868
910.010	0.0166608
910.088	0.0165120
910.166	0.0166593
910.244	0.0165303
910.322	0.0164749
910.400	0.0165360
910.478	0.0165217
910.557	0.0166407
910.635	0.0166172
910.713	0.0165337
910.791	0.0166262
910.869	0.0165550
910.947	0.0166491
911.025	0.0166812
911.103	0.0166422
911.182	0.0165959
911.260	0.0166564
911.338	0.0166853
911.416	0.0166555
911.494	0.0167860
911.572	0.0166006
911.650	0.0166127
911.728	0.0167497
911.807	0.0167006
911.885	0.0167290
911.963	0.0166628
912.041	0.0167695
912.119	0.0166351
912.197	0.0166479
912.275	0.0166422
912.353	0.0167305
912.432	0.0168015
912.510	0.0167955
912.588	0.0168611
912.666	0.0167814
912.744	0.0168172
912.822	0.0168678
912.900	0.0171130
912.978	0.0171686
913.057	0.0171320
913.135	0.0171030
913.213	0.0171697
913.291	0.0170586
913.369	0.0173304
913.447	0.0173178
913.525	0.0171544
913.603	0.0172383
913.682	0.0173077
913.760	0.0172934
913.838	0.0172523
913.916	0.0171943
913.994	0.0172011
914.072	0.0171939
914.150	0.0171924
914.228	0.0171143
914.307	0.0171875
914.385	0.0171773
914.463	0.0169283
914.541	0.0170648
914.619	0.0171494
914.697	0.0171376
914.775	0.0171316
914.853	0.0170426
914.932	0.0171326
915.010	0.0170346
915.088	0.0170836
915.166	0.0171116
915.244	0.0171251
915.322	0.0171391
915.400	0.0170128
915.478	0.0170079
915.557	0.0170284
915.635	0.0169668
915.713	0.0168229
915.791	0.0167591
915.869	0.0166900
915.947	0.0168261
916.025	0.0166484
916.103	0.0166486
916.182	0.0166125
916.260	0.0165880
916.338	0.0165609
916.416	0.0164842
916.494	0.0166121
916.572	0.0165401
916.650	0.0165431
916.728	0.0165559
916.807	0.0166174
916.885	0.0166727
916.963	0.0166063
917.041	0.0166795
917.119	0.0166811
917.197	0.0168675
917.275	0.0166939
917.353	0.0169259
917.432	0.0168698
917.510	0.0168326
917.588	0.0168916
917.666	0.0170529
917.744	0.0170441
917.822	0.0168444
917.900	0.0169289
917.978	0.0169914
918.057	0.0169095
918.135	0.0170200
918.213	0.0169938
918.291	0.0169823
918.369	0.0170035
918.447	0.0170415
918.525	0.0170014
918.603	0.0168938
918.682	0.0169927
918.760	0.0170752
918.838	0.0170471
918.916	0.0170372
918.994	0.0170541
919.072	0.0171512
919.150	0.0170921
919.228	0.0173625
919.307	0.0172989
919.385	0.0172254
919.463	0.0173421
919.541	0.0171963
919.619	0.0172178
919.697	0.0171494
919.775	0.0171799
919.853	0.0172787
919.932	0.0172816
920.010	0.0172644
920.088	0.0173406
920.166	0.0171778
920.244	0.0170821
920.322	0.0172083
920.400	0.0171723
920.478	0.0169449
920.557	0.0170214
920.635	0.0169844
920.713	0.0168176
920.791	0.0168547
920.869	0.0167625
920.947	0.0169259
921.025	0.0169094
921.103	0.0168664
921.182	0.0170321
921.260	0.0171098
921.338	0.0170973
921.416	0.0169689
921.494	0.0171759
921.572	0.0172359
921.650	0.0171053
921.728	0.0172031
921.807	0.0170623
921.885	0.0171535
921.963	0.0170779
922.041	0.0170792
922.119	0.0171425
922.197	0.0170229
922.275	0.0170315
922.353	0.0170068
922.432	0.0170037
922.510	0.0169112
922.588	0.0168130
922.666	0.0169043
922.744	0.0169193
922.822	0.0167548
922.900	0.0166762
922.978	0.0167555
923.057	0.0168237
923.135	0.0166891
923.213	0.0166914
923.291	0.0167610
923.369	0.0167363
923.447	0.0168478
923.525	0.0170052
923.603	0.0170019
923.682	0.0169479
923.760	0.0170374
923.838	0.0171078
923.916	0.0170604
923.994	0.0171839
924.072	0.0170470
924.150	0.0172180
924.228	0.0172399
924.307	0.0172494
924.385	0.0172170
924.463	0.0173172
924.541	0.0172453
924.619	0.0172376
924.697	0.0171263
924.775	0.0170322
924.853	0.0171070
924.932	0.0170337
925.010	0.0168978
925.088	0.0171255
925.166	0.0170634
925.244	0.0170565
925.322	0.0169688
925.400	0.0171591
925.478	0.0171569
925.557	0.0171706
925.635	0.0173020
925.713	0.0174839
925.791	0.0172973
925.869	0.0174902
925.947	0.0176274
926.025	0.0176174
926.103	0.0175018
926.182	0.0174611
926.260	0.0174802
926.338	0.0176537
926.416	0.0173724
926.494	0.0174321
926.572	0.0173537
926.650	0.0171109
926.728	0.0173215
926.807	0.0172240
926.885	0.0171124
926.963	0.0171908
927.041	0.0171001
927.119	0.0169182
927.197	0.0168604
927.275	0.0168891
927.353	0.0168812
927.432	0.0168281
927.510	0.0167732
927.588	0.0168454
927.666	0.0168633
927.744	0.0168155
927.822	0.0168064
927.900	0.0168880
927.978	0.0169454
928.057	0.0170322
928.135	0.0169177
928.213	0.0169318
928.291	0.0169867
928.369	0.0170464
928.447	0.0171323
928.525	0.0172221
928.603	0.0171302
928.682	0.0171899
928.760	0.0171167
928.838	0.0171016
928.916	0.0169840
928.994	0.0172502
929.072	0.0171239
929.150	0.0170630
929.228	0.0171683
929.307	0.0169814
929.385	0.0169151
929.463	0.0171333
929.541	0.0169581
929.619	0.0169884
929.697	0.0169118
929.775	0.0170121
929.853	0.0170569
929.932	0.0169923
930.010	0.0167857
930.088	0.0169778
930.166	0.0168725
930.244	0.0168858
930.322	0.0169014
930.400	0.0170183
930.478	0.0170290
930.557	0.0169202
930.635	0.0170916
930.713	0.0170866
930.791	0.0170556
930.869	0.0171244
930.947	0.0171258
931.025	0.0171664
931.103	0.0171399
931.182	0.0170340
931.260	0.0171380
931.338	0.0171851
931.416	0.0172004
931.494	0.0170589
931.572	0.0172159
931.650	0.0170937
931.728	0.0170581
931.807	0.0172546
931.885	0.0171970
931.963	0.0170917
932.041	0.0171966
932.119	0.0170856
932.197	0.0172039
932.275	0.0172058
932.353	0.0172180
932.432	0.0171192
932.510	0.0171033
932.588	0.0171214
932.666	0.0171437
932.744	0.0171116
932.822	0.0170602
932.900	0.0170452
932.978	0.0170154
933.057	0.0170243
933.135	0.0170585
933.213	0.0171026
933.291	0.0169894
933.369	0.0171129
933.447	0.0170571
933.525	0.0171033
933.603	0.0170391
933.682	0.0168961
933.760	0.0170932
933.838	0.0171180
933.916	0.0171613
933.994	0.0170358
934.072	0.0170228
934.150	0.0170550
934.228	0.0170378
934.307	0.0170934
934.385	0.0169292
934.463	0.0170083
934.541	0.0170544
934.619	0.0169622
934.697	0.0170067
934.775	0.0169977
934.853	0.0169901
934.932	0.0170797
935.010	0.0170116
935.088	0.0168820
935.166	0.0171136
935.244	0.0171502
935.322	0.0170250
935.400	0.0169569
935.478	0.0170674
935.557	0.0169302
935.635	0.0170025
935.713	0.0169213
935.791	0.0167950
935.869	0.0168906
935.947	0.0169851
936.025	0.0169492
936.103	0.0170028
936.182	0.0169456
936.260	0.0169100
936.338	0.0169810
936.416	0.0169791
936.494	0.0169557
936.572	0.0168855
936.650	0.0170013
936.728	0.0170115
936.807	0.0170450
936.885	0.0170208
936.963	0.0169555
937.041	0.0171835
937.119	0.0171350
937.197	0.0169604
937.275	0.0170344
937.353	0.0171208
937.432	0.0171980
937.510	0.0171220
937.588	0.0170742
937.666	0.0170795
937.744	0.0172862
937.822	0.0171127
937.900	0.0172377
937.978	0.0171089
938.057	0.0170564
938.135	0.0170773
938.213	0.0171849
938.291	0.0172302
938.369	0.0171659
938.447	0.0170451
938.525	0.0171415
938.603	0.0171089
938.682	0.0171053
938.760	0.0171231
938.838	0.0170005
938.916	0.0171633
938.994	0.0169077
939.072	0.0171925
939.150	0.0172764
939.228	0.0170783
939.307	0.0170932
939.385	0.0172102
939.463	0.0170980
939.541	0.0171748
939.619	0.0171903
939.697	0.0171409
939.775	0.0170925
939.853	0.0170184
939.932	0.0170259
940.010	0.0170936
940.088	0.0172058
940.166	0.0172390
940.244	0.0170624
940.322	0.0172156
940.400	0.0170468
940.478	0.0170273
940.557	0.0170718
940.635	0.0170367
940.713	0.0170855
940.791	0.0169541
940.869	0.0169595
940.947	0.0169846
941.025	0.0169304
941.103	0.0169535
941.182	0.0169087
941.260	0.0169658
941.338	0.0169372
941.416	0.0169706
941.494	0.0167330
941.572	0.0169051
941.650	0.0168179
941.728	0.0167384
941.807	0.0166866
941.885	0.0169958
941.963	0.0168018
942.041	0.0169768
942.119	0.0168857
942.197	0.0169205
942.275	0.0168522
942.353	0.0168596
942.432	0.0168673
942.510	0.0170277
942.588	0.0169241
942.666	0.0169095
942.744	0.0168181
942.822	0.0168590
942.900	0.0168049
942.978	0.0168217
943.057	0.0169097
943.135	0.0169805
943.213	0.0168691
943.291	0.0168653
943.369	0.0168279
943.447	0.0168867
943.525	0.0170306
943.603	0.0169125
943.682	0.0168797
943.760	0.0171465
943.838	0.0171942
943.916	0.0171645
943.994	0.0171780
944.072	0.0170486
944.150	0.0172116
944.228	0.0172815
944.307	0.0172596
944.385	0.0173784
944.463	0.0171677
944.541	0.0172287
944.619	0.0172397
944.697	0.0172043
944.775	0.0172855
944.853	0.0171594
944.932	0.0172370
945.010	0.0173320
945.088	0.0171915
945.166	0.0171144
945.244	0.0173064
945.322	0.0172980
945.400	0.0173412
945.478	0.0171648
945.557	0.0172350
945.635	0.0172584
945.713	0.0171712
945.791	0.0170129
945.869	0.0172327
945.947	0.0172906
946.025	0.0171659
946.103	0.0169794
946.182	0.0169957
946.260	0.0170224
946.338	0.0170516
946.416	0.0170499
946.494	0.0169855
946.572	0.0168655
946.650	0.0169627
946.728	0.0169278
946.807	0.0168291
946.885	0.0170415
946.963	0.0168652
947.041	0.0168541
947.119	0.0169050
947.197	0.0168540
947.275	0.0169315
947.353	0.0167845
947.432	0.0168780
947.510	0.0169492
947.588	0.0168137
947.666	0.0168037
947.744	0.0169283
947.822	0.0168494
947.900	0.0168591
947.978	0.0169342
948.057	0.0168864
948.135	0.0167309
948.213	0.0168185
948.291	0.0169884
948.369	0.0168692
948.447	0.0168201
948.525	0.0170107
948.603	0.0168867
948.682	0.0169859
948.760	0.0168758
948.838	0.0170680
948.916	0.0169435
948.994	0.0169700
949.072	0.0169389
949.150	0.0169024
949.228	0.0169195
949.307	0.0170850
949.385	0.0169872
949.463	0.0170792
949.541	0.0171047
949.619	0.0169756
949.697	0.0170473
949.775	0.0170116
949.853	0.0171474
949.932	0.0171498
950.010	0.0171293
950.088	0.0170303
950.166	0.0169418
950.244	0.0169901
950.322	0.0170970
950.400	0.0170774
950.478	0.0170463
950.557	0.0171352
950.635	0.0170527
950.713	0.0170367
950.791	0.0171146
950.869	0.0170853
950.947	0.0170103
951.025	0.0170026
951.103	0.0170915
951.182	0.0173177
951.260	0.0171771
951.338	0.0170047
951.416	0.0169946
951.494	0.0170452
951.572	0.0170403
951.650	0.0171690
951.728	0.0170697
951.807	0.0170494
951.885	0.0169567
951.963	0.0169335
952.041	0.0170650
952.119	0.0167822
952.197	0.0169258
952.275	0.0170887
952.353	0.0170328
952.432	0.0168875
952.510	0.0171028
952.588	0.0169541
952.666	0.0169364
952.744	0.0168181
952.822	0.0168790
952.900	0.0171600
952.978	0.0171463
953.057	0.0170641
953.135	0.0171447
953.213	0.0171263
953.291	0.0169823
953.369	0.0169469
953.447	0.0169798
953.525	0.0170463
953.603	0.0170102
953.682	0.0170102
953.760	0.0170953
953.838	0.0171128
953.916	0.0169833
953.994	0.0169530
954.072	0.0170188
954.150	0.0170851
954.228	0.0170681
954.307	0.0170336
954.385	0.0169016
954.463	0.0172748
954.541	0.0168823
954.619	0.0169714
954.697	0.0170340
954.775	0.0169691
954.853	0.0170654
954.932	0.0170455
955.010	0.0170696
955.088	0.0171150
955.166	0.0170469
955.244	0.0171331
955.322	0.0170995
955.400	0.0171492
955.478	0.0169968
955.557	0.0170831
955.635	0.0171645
955.713	0.0171797
955.791	0.0172224
955.869	0.0171956
955.947	0.0170854
956.025	0.0170514
956.103	0.0170535
956.182	0.0170644
956.260	0.0170562
956.338	0.0171960
956.416	0.0171635
956.494	0.0170242
956.572	0.0170902
956.650	0.0171827
956.728	0.0172132
956.807	0.0169855
956.885	0.0171289
956.963	0.0170792
957.041	0.0169801
957.119	0.0171523
957.197	0.0171843
957.275	0.0171382
957.353	0.0170321
957.432	0.0170235
957.510	0.0169679
957.588	0.0172127
957.666	0.0171735
957.744	0.0173367
957.822	0.0170051
957.900	0.0169424
957.978	0.0171229
958.057	0.0171179
958.135	0.0170977
958.213	0.0171051
958.291	0.0172862
958.369	0.0169357
958.447	0.0170398
958.525	0.0172022
958.603	0.0170127
958.682	0.0171020
958.760	0.0170983
958.838	0.0172550
958.916	0.0171192
958.994	0.0170393
959.072	0.0171098
959.150	0.0171152
959.228	0.0172160
959.307	0.0170618
959.385	0.0171297
959.463	0.0169305
959.541	0.0170557
959.619	0.0171812
959.697	0.0170412
959.775	0.0170832
959.853	0.0171638
959.932	0.0170447
960.010	0.0170724
960.088	0.0172310
960.166	0.0172350
960.244	0.0171000
960.322	0.0170937
960.400	0.0171703
960.478	0.0171325
960.557	0.0171075
960.635	0.0170990
960.713	0.0172057
960.791	0.0172162
960.869	0.0170509
960.947	0.0172190
961.025	0.0170975
961.103	0.0170482
961.182	0.0171162
961.260	0.0170536
961.338	0.0170496
961.416	0.0171178
961.494	0.0171538
961.572	0.0170382
961.650	0.0170886
961.728	0.0172311
961.807	0.0170110
961.885	0.0171886
961.963	0.0170877
962.041	0.0170277
962.119	0.0170836
962.197	0.0170998
962.275	0.0170655
962.353	0.0170193
962.432	0.0170461
962.510	0.0170114
962.588	0.0170564
962.666	0.0171104
962.744	0.0169877
962.822	0.0170547
962.900	0.0169930
962.978	0.0169596
963.057	0.0171236
963.135	0.0170206
963.213	0.0171641
963.291	0.0172083
963.369	0.0171027
963.447	0.0171266
963.525	0.0170831
963.603	0.0171342
963.682	0.0171107
963.760	0.0173618
963.838	0.0170424
963.916	0.0170342
963.994	0.0170753
964.072	0.0170606
964.150	0.0169496
964.228	0.0169199
964.307	0.0169421
964.385	0.0169794
964.463	0.0169556
964.541	0.0170422
964.619	0.0169640
964.697	0.0170061
964.775	0.0170271
964.853	0.0170311
964.932	0.0169298
965.010	0.0170645
965.088	0.0171074
965.166	0.0172059
965.244	0.0171376
965.322	0.0171272
965.400	0.0171380
965.478	0.0171478
965.557	0.0172577
965.635	0.0171161
965.713	0.0170788
965.791	0.0170520
965.869	0.0171230
965.947	0.0170769
966.025	0.0171274
966.103	0.0170111
966.182	0.0170835
966.260	0.0170099
966.338	0.0170365
966.416	0.0171825
966.494	0.0170720
966.572	0.0169128
966.650	0.0169303
966.728	0.0168867
966.807	0.0169206
966.885	0.0169020
966.963	0.0168775
967.041	0.0167225
967.119	0.0168799
967.197	0.0170222
967.275	0.0169826
967.353	0.0169174
967.432	0.0169968
967.510	0.0170152
967.588	0.0168916
967.666	0.0168814
967.744	0.0169670
967.822	0.0170528
967.900	0.0171538
967.978	0.0169765
968.057	0.0169023
968.135	0.0169726
968.213	0.0170267
968.291	0.0169847
968.369	0.0169392
968.447	0.0170253
968.525	0.0167934
968.603	0.0167013
968.682	0.0168985
968.760	0.0168661
968.838	0.0168699
968.916	0.0168905
968.994	0.0169334
969.072	0.0169844
969.150	0.0170150
969.228	0.0169804
969.307	0.0171010
969.385	0.0170805
969.463	0.0171548
969.541	0.0172528
969.619	0.0171743
969.697	0.0172652
969.775	0.0171747
969.853	0.0173428
969.932	0.0172129
