06/10/2022	16:30:38	Ver.	4.1	UNKNOWN
Optical Delay	650.009681	Delta X		0.078125	Sweeps	1	Scan Rate	0/0
Coordinates	Axis 1	NaN	Axis 2	NaN	Axis 3	NaN	Axis 4	NaN	Axis 5	NaN	Axis 6	0.000000
TX Power	0.000000	RX Power	0.000000

650.010	0.0170621
650.088	0.0170821
650.166	0.0171140
650.244	0.0172192
650.322	0.0171014
650.400	0.0171495
650.478	0.0171259
650.557	0.0170880
650.635	0.0170282
650.713	0.0171375
650.791	0.0171507
650.869	0.0171412
650.947	0.0169805
651.025	0.0171803
651.103	0.0171291
651.182	0.0172495
651.260	0.0170998
651.338	0.0170595
651.416	0.0170820
651.494	0.0171114
651.572	0.0171615
651.650	0.0171030
651.728	0.0170227
651.807	0.0170329
651.885	0.0170705
651.963	0.0170718
652.041	0.0170876
652.119	0.0170880
652.197	0.0171400
652.275	0.0171191
652.353	0.0170884
652.432	0.0170377
652.510	0.0170293
652.588	0.0169986
652.666	0.0171568
652.744	0.0170623
652.822	0.0170180
652.900	0.0169795
652.978	0.0169978
653.057	0.0171305
653.135	0.0172115
653.213	0.0170506
653.291	0.0169621
653.369	0.0170009
653.447	0.0171379
653.525	0.0169048
653.603	0.0170885
653.682	0.0170634
653.760	0.0170928
653.838	0.0171004
653.916	0.0171075
653.994	0.0171147
654.072	0.0169929
654.150	0.0171011
654.228	0.0169654
654.307	0.0170223
654.385	0.0170673
654.463	0.0169876
654.541	0.0170426
654.619	0.0171570
654.697	0.0171300
654.775	0.0171624
654.853	0.0171148
654.932	0.0171605
655.010	0.0171167
655.088	0.0170264
655.166	0.0170712
655.244	0.0170459
655.322	0.0171114
655.400	0.0170429
655.478	0.0172284
655.557	0.0173667
655.635	0.0173241
655.713	0.0172506
655.791	0.0170119
655.869	0.0173167
655.947	0.0172351
656.025	0.0172664
656.103	0.0171625
656.182	0.0171753
656.260	0.0171658
656.338	0.0172105
656.416	0.0173733
656.494	0.0173017
656.572	0.0170594
656.650	0.0172239
656.728	0.0171762
656.807	0.0171476
656.885	0.0172375
656.963	0.0170711
657.041	0.0171564
657.119	0.0172147
657.197	0.0172497
657.275	0.0172461
657.353	0.0172077
657.432	0.0172114
657.510	0.0171268
657.588	0.0172348
657.666	0.0172096
657.744	0.0172497
657.822	0.0172939
657.900	0.0172305
657.978	0.0171934
658.057	0.0171046
658.135	0.0171355
658.213	0.0171824
658.291	0.0173194
658.369	0.0171997
658.447	0.0172058
658.525	0.0171932
658.603	0.0171558
658.682	0.0170670
658.760	0.0170931
658.838	0.0171389
658.916	0.0171561
658.994	0.0171322
659.072	0.0171525
659.150	0.0171282
659.228	0.0171185
659.307	0.0171507
659.385	0.0170380
659.463	0.0170973
659.541	0.0171024
659.619	0.0170915
659.697	0.0170813
659.775	0.0170621
659.853	0.0170444
659.932	0.0169741
660.010	0.0170444
660.088	0.0170784
660.166	0.0170550
660.244	0.0171487
660.322	0.0170908
660.400	0.0170640
660.478	0.0171229
660.557	0.0169288
660.635	0.0170361
660.713	0.0169895
660.791	0.0170078
660.869	0.0171778
660.947	0.0171213
661.025	0.0170454
661.103	0.0169231
661.182	0.0170350
661.260	0.0169554
661.338	0.0170673
661.416	0.0170026
661.494	0.0170324
661.572	0.0171128
661.650	0.0170578
661.728	0.0170547
661.807	0.0171140
661.885	0.0170805
661.963	0.0170343
662.041	0.0170113
662.119	0.0169679
662.197	0.0169765
662.275	0.0170669
662.353	0.0171111
662.432	0.0171002
662.510	0.0171140
662.588	0.0170341
662.666	0.0170911
662.744	0.0171261
662.822	0.0170609
662.900	0.0170763
662.978	0.0169825
663.057	0.0171427
663.135	0.0171078
663.213	0.0171693
663.291	0.0170628
663.369	0.0172027
663.447	0.0171499
663.525	0.0171341
663.603	0.0170139
663.682	0.0172307
663.760	0.0171018
663.838	0.0171163
663.916	0.0171518
663.994	0.0171391
664.072	0.0171343
664.150	0.0169552
664.228	0.0171107
664.307	0.0171452
664.385	0.0170057
664.463	0.0170411
664.541	0.0170622
664.619	0.0170276
664.697	0.0169788
664.775	0.0170914
664.853	0.0170446
664.932	0.0170004
665.010	0.0170158
665.088	0.0170876
665.166	0.0171416
665.244	0.0170088
665.322	0.0170509
665.400	0.0170010
665.478	0.0170459
665.557	0.0170214
665.635	0.0171680
665.713	0.0171025
665.791	0.0170660
665.869	0.0170699
665.947	0.0170344
666.025	0.0170204
666.103	0.0171335
666.182	0.0170518
666.260	0.0171646
666.338	0.0171339
666.416	0.0169473
666.494	0.0169930
666.572	0.0169981
666.650	0.0170276
666.728	0.0169733
666.807	0.0169552
666.885	0.0170613
666.963	0.0170309
667.041	0.0169961
667.119	0.0168186
667.197	0.0170187
667.275	0.0168249
667.353	0.0169946
667.432	0.0169902
667.510	0.0170451
667.588	0.0170892
667.666	0.0170705
667.744	0.0170139
667.822	0.0169096
667.900	0.0168885
667.978	0.0170679
668.057	0.0170847
668.135	0.0170908
668.213	0.0170379
668.291	0.0170717
668.369	0.0170582
668.447	0.0170755
668.525	0.0170905
668.603	0.0170792
668.682	0.0170361
668.760	0.0169837
668.838	0.0170825
668.916	0.0172141
668.994	0.0170239
669.072	0.0170260
669.150	0.0169848
669.228	0.0171597
669.307	0.0171983
669.385	0.0171231
669.463	0.0171842
669.541	0.0170911
669.619	0.0170547
669.697	0.0169382
669.775	0.0171835
669.853	0.0170998
669.932	0.0169595
670.010	0.0170585
670.088	0.0171330
670.166	0.0171435
670.244	0.0170132
670.322	0.0172159
670.400	0.0170370
670.478	0.0171063
670.557	0.0172219
670.635	0.0170747
670.713	0.0170567
670.791	0.0170693
670.869	0.0171640
670.947	0.0170820
671.025	0.0170841
671.103	0.0170525
671.182	0.0170867
671.260	0.0170985
671.338	0.0172504
671.416	0.0170955
671.494	0.0170159
671.572	0.0170624
671.650	0.0170583
671.728	0.0170687
671.807	0.0170696
671.885	0.0170329
671.963	0.0170422
672.041	0.0172012
672.119	0.0170365
672.197	0.0171231
672.275	0.0170471
672.353	0.0171371
672.432	0.0170815
672.510	0.0170487
672.588	0.0170919
672.666	0.0170581
672.744	0.0170415
672.822	0.0170547
672.900	0.0172043
672.978	0.0171220
673.057	0.0170967
673.135	0.0170892
673.213	0.0170596
673.291	0.0169700
673.369	0.0170519
673.447	0.0171835
673.525	0.0171050
673.603	0.0170954
673.682	0.0170065
673.760	0.0171605
673.838	0.0171529
673.916	0.0170404
673.994	0.0170419
674.072	0.0171337
674.150	0.0170461
674.228	0.0172044
674.307	0.0170553
674.385	0.0170615
674.463	0.0172150
674.541	0.0171840
674.619	0.0169899
674.697	0.0171275
674.775	0.0171620
674.853	0.0171563
674.932	0.0171049
675.010	0.0171265
675.088	0.0171571
675.166	0.0170870
675.244	0.0171008
675.322	0.0171042
675.400	0.0171806
675.478	0.0169388
675.557	0.0170110
675.635	0.0170673
675.713	0.0170877
675.791	0.0170805
675.869	0.0170745
675.947	0.0171469
676.025	0.0172343
676.103	0.0170798
676.182	0.0170101
676.260	0.0170826
676.338	0.0171346
676.416	0.0169875
676.494	0.0171024
676.572	0.0169451
676.650	0.0168846
676.728	0.0169779
676.807	0.0170197
676.885	0.0170368
676.963	0.0170853
677.041	0.0171249
677.119	0.0171194
677.197	0.0171407
677.275	0.0170343
677.353	0.0170049
677.432	0.0170927
677.510	0.0169796
677.588	0.0170783
677.666	0.0171882
677.744	0.0170507
677.822	0.0170634
677.900	0.0170579
677.978	0.0171014
678.057	0.0170547
678.135	0.0171134
678.213	0.0170304
678.291	0.0170698
678.369	0.0169724
678.447	0.0171140
678.525	0.0171110
678.603	0.0171234
678.682	0.0169008
678.760	0.0170762
678.838	0.0170721
678.916	0.0170889
678.994	0.0170611
679.072	0.0170848
679.150	0.0171044
679.228	0.0171297
679.307	0.0171084
679.385	0.0169063
679.463	0.0170528
679.541	0.0170753
679.619	0.0170267
679.697	0.0170693
679.775	0.0170986
679.853	0.0170746
679.932	0.0170428
680.010	0.0170329
680.088	0.0171462
680.166	0.0171719
680.244	0.0170632
680.322	0.0170568
680.400	0.0170514
680.478	0.0170000
680.557	0.0171526
680.635	0.0171032
680.713	0.0171731
680.791	0.0170625
680.869	0.0171335
680.947	0.0170492
681.025	0.0170768
681.103	0.0170084
681.182	0.0170770
681.260	0.0170667
681.338	0.0171162
681.416	0.0170549
681.494	0.0169544
681.572	0.0169799
681.650	0.0170702
681.728	0.0171175
681.807	0.0170059
681.885	0.0170756
681.963	0.0170502
682.041	0.0170338
682.119	0.0171342
682.197	0.0170296
682.275	0.0169590
682.353	0.0169575
682.432	0.0171140
682.510	0.0171291
682.588	0.0171116
682.666	0.0170340
682.744	0.0170068
682.822	0.0169442
682.900	0.0170030
682.978	0.0171221
683.057	0.0170808
683.135	0.0170280
683.213	0.0169351
683.291	0.0171255
683.369	0.0170403
683.447	0.0171387
683.525	0.0172056
683.603	0.0169898
683.682	0.0168826
683.760	0.0169384
683.838	0.0170919
683.916	0.0169633
683.994	0.0172115
684.072	0.0171412
684.150	0.0170619
684.228	0.0170050
684.307	0.0170705
684.385	0.0169210
684.463	0.0170870
684.541	0.0170307
684.619	0.0169627
684.697	0.0170826
684.775	0.0171021
684.853	0.0169942
684.932	0.0170355
685.010	0.0171054
685.088	0.0169778
685.166	0.0170087
685.244	0.0170110
685.322	0.0170255
685.400	0.0169840
685.478	0.0169441
685.557	0.0171793
685.635	0.0169608
685.713	0.0169034
685.791	0.0170928
685.869	0.0169830
685.947	0.0170531
686.025	0.0169144
686.103	0.0170937
686.182	0.0172024
686.260	0.0170126
686.338	0.0170913
686.416	0.0170934
686.494	0.0169384
686.572	0.0170750
686.650	0.0168867
686.728	0.0172329
686.807	0.0170727
686.885	0.0170093
686.963	0.0171418
687.041	0.0171358
687.119	0.0169923
687.197	0.0170645
687.275	0.0170190
687.353	0.0170399
687.432	0.0171231
687.510	0.0171589
687.588	0.0170480
687.666	0.0171014
687.744	0.0170223
687.822	0.0170515
687.900	0.0171206
687.978	0.0170776
688.057	0.0171195
688.135	0.0170295
688.213	0.0171476
688.291	0.0170229
688.369	0.0169953
688.447	0.0172332
688.525	0.0171104
688.603	0.0171592
688.682	0.0172020
688.760	0.0170853
688.838	0.0170037
688.916	0.0170016
688.994	0.0170739
689.072	0.0170529
689.150	0.0170300
689.228	0.0170686
689.307	0.0171044
689.385	0.0171047
689.463	0.0171052
689.541	0.0171346
689.619	0.0170631
689.697	0.0170808
689.775	0.0169466
689.853	0.0170348
689.932	0.0168948
690.010	0.0170856
690.088	0.0172805
690.166	0.0170502
690.244	0.0169766
690.322	0.0170933
690.400	0.0171633
690.478	0.0171579
690.557	0.0170660
690.635	0.0169748
690.713	0.0169793
690.791	0.0171547
690.869	0.0170539
690.947	0.0171323
691.025	0.0172009
691.103	0.0170512
691.182	0.0170836
691.260	0.0169849
691.338	0.0171392
691.416	0.0170026
691.494	0.0169751
691.572	0.0171880
691.650	0.0170283
691.728	0.0171497
691.807	0.0170757
691.885	0.0172126
691.963	0.0171133
692.041	0.0170244
692.119	0.0170960
692.197	0.0171712
692.275	0.0170960
692.353	0.0172271
692.432	0.0171561
692.510	0.0170471
692.588	0.0171564
692.666	0.0170380
692.744	0.0171451
692.822	0.0170646
692.900	0.0171040
692.978	0.0171605
693.057	0.0170448
693.135	0.0171077
693.213	0.0169215
693.291	0.0169832
693.369	0.0171089
693.447	0.0171066
693.525	0.0171644
693.603	0.0170424
693.682	0.0170760
693.760	0.0169656
693.838	0.0171127
693.916	0.0171008
693.994	0.0170878
694.072	0.0171278
694.150	0.0171530
694.228	0.0171758
694.307	0.0170974
694.385	0.0170117
694.463	0.0171606
694.541	0.0171049
694.619	0.0171087
694.697	0.0171622
694.775	0.0171200
694.853	0.0171290
694.932	0.0170970
695.010	0.0171655
695.088	0.0171852
695.166	0.0169173
695.244	0.0170659
695.322	0.0171360
695.400	0.0169585
695.478	0.0170998
695.557	0.0171478
695.635	0.0171053
695.713	0.0171584
695.791	0.0171355
695.869	0.0171505
695.947	0.0170477
696.025	0.0170859
696.103	0.0172271
696.182	0.0172311
696.260	0.0170535
696.338	0.0170557
696.416	0.0171200
696.494	0.0172187
696.572	0.0170414
696.650	0.0172161
696.728	0.0170602
696.807	0.0171066
696.885	0.0171786
696.963	0.0170464
697.041	0.0171657
697.119	0.0173047
697.197	0.0170756
697.275	0.0171030
697.353	0.0172247
697.432	0.0171864
697.510	0.0170734
697.588	0.0172211
697.666	0.0171269
697.744	0.0170048
697.822	0.0171234
697.900	0.0171613
697.978	0.0170721
698.057	0.0171490
698.135	0.0170572
698.213	0.0171199
698.291	0.0171834
698.369	0.0170901
698.447	0.0170688
698.525	0.0171752
698.603	0.0171730
698.682	0.0170895
698.760	0.0171056
698.838	0.0172185
698.916	0.0170814
698.994	0.0171209
699.072	0.0170718
699.150	0.0170860
699.228	0.0170446
699.307	0.0170635
699.385	0.0170056
699.463	0.0170419
699.541	0.0169519
699.619	0.0169917
699.697	0.0170473
699.775	0.0169583
699.853	0.0170263
699.932	0.0169477
700.010	0.0169844
700.088	0.0170782
700.166	0.0170141
700.244	0.0169704
700.322	0.0170487
700.400	0.0169952
700.478	0.0170100
700.557	0.0169441
700.635	0.0171479
700.713	0.0169306
700.791	0.0170621
700.869	0.0171058
700.947	0.0169903
701.025	0.0168932
701.103	0.0169488
701.182	0.0170341
701.260	0.0169096
701.338	0.0171467
701.416	0.0170309
701.494	0.0169728
701.572	0.0171008
701.650	0.0169482
701.728	0.0169363
701.807	0.0170831
701.885	0.0170273
701.963	0.0170875
702.041	0.0168984
702.119	0.0169656
702.197	0.0170535
702.275	0.0169313
702.353	0.0169299
702.432	0.0169756
702.510	0.0170361
702.588	0.0171407
702.666	0.0170486
702.744	0.0169953
702.822	0.0169290
702.900	0.0169788
702.978	0.0169662
703.057	0.0169912
703.135	0.0170229
703.213	0.0170281
703.291	0.0169615
703.369	0.0168831
703.447	0.0168833
703.525	0.0170635
703.603	0.0170570
703.682	0.0168792
703.760	0.0170753
703.838	0.0169965
703.916	0.0170121
703.994	0.0169570
704.072	0.0170510
704.150	0.0170863
704.228	0.0168519
704.307	0.0169151
704.385	0.0171729
704.463	0.0170794
704.541	0.0171526
704.619	0.0169944
704.697	0.0171886
704.775	0.0169511
704.853	0.0171594
704.932	0.0171475
705.010	0.0170541
705.088	0.0170666
705.166	0.0171609
705.244	0.0171571
705.322	0.0170591
705.400	0.0170302
705.478	0.0170721
705.557	0.0171758
705.635	0.0170504
705.713	0.0171313
705.791	0.0170659
705.869	0.0170744
705.947	0.0170878
706.025	0.0170585
706.103	0.0171104
706.182	0.0169221
706.260	0.0170660
706.338	0.0170470
706.416	0.0171204
706.494	0.0169476
706.572	0.0170280
706.650	0.0170900
706.728	0.0171213
706.807	0.0171078
706.885	0.0170774
706.963	0.0170824
707.041	0.0170328
707.119	0.0169753
707.197	0.0170905
707.275	0.0170246
707.353	0.0170322
707.432	0.0171155
707.510	0.0170824
707.588	0.0170436
707.666	0.0170082
707.744	0.0171001
707.822	0.0172029
707.900	0.0169250
707.978	0.0170986
708.057	0.0171252
708.135	0.0170465
708.213	0.0171928
708.291	0.0171223
708.369	0.0170594
708.447	0.0169930
708.525	0.0171532
708.603	0.0170490
708.682	0.0170797
708.760	0.0171178
708.838	0.0171072
708.916	0.0171202
708.994	0.0170876
709.072	0.0171465
709.150	0.0171416
709.228	0.0170880
709.307	0.0171030
709.385	0.0170904
709.463	0.0171609
709.541	0.0171722
709.619	0.0171984
709.697	0.0172781
709.775	0.0169416
709.853	0.0169931
709.932	0.0171660
710.010	0.0170620
710.088	0.0172667
710.166	0.0171456
710.244	0.0171414
710.322	0.0171804
710.400	0.0170755
710.478	0.0171878
710.557	0.0171817
710.635	0.0172897
710.713	0.0170956
710.791	0.0171710
710.869	0.0171478
710.947	0.0171368
711.025	0.0171577
711.103	0.0171329
711.182	0.0170831
711.260	0.0170786
711.338	0.0172318
711.416	0.0172431
711.494	0.0171832
711.572	0.0170844
711.650	0.0170424
711.728	0.0171555
711.807	0.0171990
711.885	0.0171702
711.963	0.0171532
712.041	0.0171009
712.119	0.0171399
712.197	0.0171753
712.275	0.0171411
712.353	0.0170943
712.432	0.0171945
712.510	0.0172784
712.588	0.0170201
712.666	0.0171622
712.744	0.0171083
712.822	0.0171297
712.900	0.0171563
712.978	0.0170657
713.057	0.0170864
713.135	0.0171221
713.213	0.0172343
713.291	0.0170349
713.369	0.0170837
713.447	0.0171377
713.525	0.0171635
713.603	0.0171137
713.682	0.0171652
713.760	0.0170142
713.838	0.0170946
713.916	0.0172968
713.994	0.0171468
714.072	0.0169609
714.150	0.0170406
714.228	0.0171259
714.307	0.0171844
714.385	0.0172238
714.463	0.0170263
714.541	0.0171094
714.619	0.0171434
714.697	0.0169836
714.775	0.0170608
714.853	0.0170974
714.932	0.0169467
715.010	0.0170722
715.088	0.0170300
715.166	0.0171065
715.244	0.0170042
715.322	0.0170690
715.400	0.0170217
715.478	0.0170393
715.557	0.0171377
715.635	0.0170827
715.713	0.0171075
715.791	0.0170675
715.869	0.0169994
715.947	0.0171595
716.025	0.0171255
716.103	0.0170384
716.182	0.0169978
716.260	0.0169715
716.338	0.0169752
716.416	0.0170686
716.494	0.0170997
716.572	0.0168649
716.650	0.0169164
716.728	0.0170731
716.807	0.0169619
716.885	0.0168661
716.963	0.0170467
717.041	0.0169342
717.119	0.0169724
717.197	0.0170309
717.275	0.0170040
717.353	0.0169292
717.432	0.0169043
717.510	0.0169914
717.588	0.0169272
717.666	0.0170222
717.744	0.0171082
717.822	0.0170136
717.900	0.0169598
717.978	0.0170512
718.057	0.0169770
718.135	0.0170523
718.213	0.0170721
718.291	0.0171431
718.369	0.0169813
718.447	0.0169841
718.525	0.0169703
718.603	0.0170503
718.682	0.0170034
718.760	0.0169769
718.838	0.0170066
718.916	0.0168880
718.994	0.0168160
719.072	0.0169283
719.150	0.0170074
719.228	0.0170045
719.307	0.0169666
719.385	0.0169730
719.463	0.0170874
719.541	0.0172009
719.619	0.0172541
719.697	0.0172366
719.775	0.0174298
719.853	0.0174657
719.932	0.0174545
720.010	0.0174614
720.088	0.0174115
720.166	0.0172424
720.244	0.0171899
720.322	0.0169487
720.400	0.0169163
720.478	0.0168476
720.557	0.0167166
720.635	0.0165862
720.713	0.0167531
720.791	0.0164413
720.869	0.0166666
720.947	0.0167496
721.025	0.0168291
721.103	0.0170335
721.182	0.0170602
721.260	0.0173641
721.338	0.0173116
721.416	0.0173336
721.494	0.0174402
721.572	0.0173832
721.650	0.0174765
721.728	0.0173575
721.807	0.0174238
721.885	0.0173509
721.963	0.0172704
722.041	0.0171926
722.119	0.0170921
722.197	0.0171481
722.275	0.0171394
722.353	0.0168700
722.432	0.0169842
722.510	0.0169165
722.588	0.0169096
722.666	0.0169595
722.744	0.0169261
722.822	0.0169356
722.900	0.0169780
722.978	0.0169073
723.057	0.0168304
723.135	0.0169513
723.213	0.0168742
723.291	0.0168159
723.369	0.0168338
723.447	0.0167990
723.525	0.0167069
723.603	0.0168205
723.682	0.0169113
723.760	0.0169999
723.838	0.0169938
723.916	0.0171809
723.994	0.0172080
724.072	0.0174871
724.150	0.0175638
724.228	0.0177535
724.307	0.0177216
724.385	0.0175831
724.463	0.0176405
724.541	0.0175761
724.619	0.0174186
724.697	0.0171156
724.775	0.0170908
724.853	0.0167444
724.932	0.0166695
725.010	0.0165324
725.088	0.0162606
725.166	0.0162218
725.244	0.0163235
725.322	0.0163335
725.400	0.0163928
725.478	0.0166180
725.557	0.0166675
725.635	0.0168896
725.713	0.0168282
725.791	0.0170184
725.869	0.0171367
725.947	0.0172862
726.025	0.0175070
726.103	0.0175092
726.182	0.0176427
726.260	0.0175860
726.338	0.0177052
726.416	0.0176854
726.494	0.0176652
726.572	0.0175188
726.650	0.0174931
726.728	0.0174606
726.807	0.0174766
726.885	0.0172670
726.963	0.0170857
727.041	0.0169899
727.119	0.0168013
727.197	0.0166321
727.275	0.0166129
727.353	0.0164629
727.432	0.0165508
727.510	0.0163670
727.588	0.0165192
727.666	0.0164779
727.744	0.0165067
727.822	0.0165199
727.900	0.0166270
727.978	0.0169608
728.057	0.0170251
728.135	0.0170453
728.213	0.0171060
728.291	0.0172655
728.369	0.0173144
728.447	0.0173403
728.525	0.0175231
728.603	0.0174203
728.682	0.0174270
728.760	0.0175052
728.838	0.0174760
728.916	0.0175003
728.994	0.0175395
729.072	0.0174248
729.150	0.0173940
729.228	0.0174162
729.307	0.0171889
729.385	0.0170707
729.463	0.0170842
729.541	0.0169996
729.619	0.0169634
729.697	0.0169327
729.775	0.0168056
729.853	0.0167688
729.932	0.0167910
730.010	0.0166932
730.088	0.0167052
730.166	0.0168298
730.244	0.0169016
730.322	0.0168897
730.400	0.0169564
730.478	0.0170633
730.557	0.0171535
730.635	0.0173510
730.713	0.0175545
730.791	0.0174618
730.869	0.0174995
730.947	0.0175784
731.025	0.0176016
731.103	0.0175421
731.182	0.0174724
731.260	0.0174501
731.338	0.0174036
731.416	0.0172764
731.494	0.0171739
731.572	0.0171200
731.650	0.0169154
731.728	0.0168548
731.807	0.0167972
731.885	0.0168308
731.963	0.0168167
732.041	0.0166930
732.119	0.0167126
732.197	0.0167751
732.275	0.0168090
732.353	0.0169144
732.432	0.0169878
732.510	0.0169526
732.588	0.0170855
732.666	0.0170609
732.744	0.0172334
732.822	0.0173035
732.900	0.0172600
732.978	0.0171436
733.057	0.0172456
733.135	0.0171498
733.213	0.0171802
733.291	0.0170454
733.369	0.0170389
733.447	0.0168902
733.525	0.0170486
733.603	0.0169537
733.682	0.0170338
733.760	0.0170639
733.838	0.0170589
733.916	0.0169626
733.994	0.0169089
734.072	0.0170433
734.150	0.0171523
734.228	0.0170941
734.307	0.0170402
734.385	0.0171147
734.463	0.0170495
734.541	0.0170721
734.619	0.0170581
734.697	0.0170844
734.775	0.0171122
734.853	0.0170251
734.932	0.0171458
735.010	0.0170589
735.088	0.0170852
735.166	0.0171825
735.244	0.0170040
735.322	0.0170466
735.400	0.0171539
735.478	0.0170321
735.557	0.0169643
735.635	0.0169727
735.713	0.0171314
735.791	0.0169614
735.869	0.0170123
735.947	0.0170085
736.025	0.0170074
736.103	0.0170131
736.182	0.0168990
736.260	0.0171798
736.338	0.0170798
736.416	0.0170449
736.494	0.0173068
736.572	0.0172974
736.650	0.0172930
736.728	0.0173420
736.807	0.0175098
736.885	0.0174825
736.963	0.0174290
737.041	0.0174593
737.119	0.0173907
737.197	0.0173166
737.275	0.0171910
737.353	0.0170872
737.432	0.0170510
737.510	0.0167319
737.588	0.0168420
737.666	0.0167984
737.744	0.0167145
737.822	0.0166364
737.900	0.0166647
737.978	0.0166039
738.057	0.0167001
738.135	0.0168955
738.213	0.0168452
738.291	0.0169238
738.369	0.0171564
738.447	0.0171843
738.525	0.0174824
738.603	0.0174711
738.682	0.0176727
738.760	0.0176860
738.838	0.0176780
738.916	0.0175738
738.994	0.0175983
739.072	0.0175006
739.150	0.0175275
739.228	0.0174791
739.307	0.0173477
739.385	0.0172144
739.463	0.0172255
739.541	0.0171185
739.619	0.0169798
739.697	0.0169843
739.775	0.0168031
739.853	0.0167649
739.932	0.0167870
740.010	0.0167403
740.088	0.0166165
740.166	0.0165243
740.244	0.0164105
740.322	0.0165672
740.400	0.0165378
740.478	0.0167065
740.557	0.0167860
740.635	0.0166968
740.713	0.0168777
740.791	0.0170934
740.869	0.0171446
740.947	0.0173036
741.025	0.0173712
741.103	0.0176113
741.182	0.0175575
741.260	0.0176137
741.338	0.0177687
741.416	0.0175512
741.494	0.0174699
741.572	0.0173798
741.650	0.0173090
741.728	0.0172449
741.807	0.0171410
741.885	0.0168830
741.963	0.0168053
742.041	0.0165777
742.119	0.0164396
742.197	0.0164274
742.275	0.0165118
742.353	0.0165077
742.432	0.0162398
742.510	0.0164951
742.588	0.0165408
742.666	0.0165388
742.744	0.0165884
742.822	0.0168464
742.900	0.0170284
742.978	0.0170162
743.057	0.0171825
743.135	0.0171761
743.213	0.0172588
743.291	0.0174998
743.369	0.0176144
743.447	0.0174316
743.525	0.0174403
743.603	0.0175800
743.682	0.0175164
743.760	0.0173419
743.838	0.0172208
743.916	0.0172657
743.994	0.0170564
744.072	0.0169540
744.150	0.0168184
744.228	0.0169946
744.307	0.0168291
744.385	0.0167127
744.463	0.0167675
744.541	0.0168343
744.619	0.0168627
744.697	0.0168279
744.775	0.0168107
744.853	0.0168379
744.932	0.0168375
745.010	0.0169458
745.088	0.0169792
745.166	0.0169091
745.244	0.0170298
745.322	0.0170142
745.400	0.0169493
745.478	0.0169643
745.557	0.0171199
745.635	0.0171178
745.713	0.0171764
745.791	0.0170979
745.869	0.0170089
745.947	0.0170962
746.025	0.0172123
746.103	0.0172389
746.182	0.0172400
746.260	0.0171209
746.338	0.0172771
746.416	0.0171238
746.494	0.0171271
746.572	0.0170338
746.650	0.0171660
746.728	0.0170967
746.807	0.0170688
746.885	0.0169870
746.963	0.0168680
747.041	0.0169329
747.119	0.0170313
747.197	0.0170467
747.275	0.0168725
747.353	0.0169711
747.432	0.0169524
747.510	0.0170813
747.588	0.0171119
747.666	0.0170667
747.744	0.0169563
747.822	0.0169846
747.900	0.0171386
747.978	0.0170727
748.057	0.0169292
748.135	0.0169772
748.213	0.0169557
748.291	0.0170792
748.369	0.0170386
748.447	0.0169556
748.525	0.0170057
748.603	0.0169931
748.682	0.0170109
748.760	0.0170362
748.838	0.0170363
748.916	0.0170985
748.994	0.0171396
749.072	0.0170665
749.150	0.0171838
749.228	0.0173208
749.307	0.0172895
749.385	0.0173371
749.463	0.0172666
749.541	0.0172971
749.619	0.0172561
749.697	0.0172346
749.775	0.0173476
749.853	0.0173299
749.932	0.0173549
750.010	0.0173012
750.088	0.0172101
750.166	0.0170880
750.244	0.0170590
750.322	0.0170743
750.400	0.0171599
750.478	0.0170023
750.557	0.0168393
750.635	0.0169236
750.713	0.0169342
750.791	0.0169445
750.869	0.0169557
750.947	0.0168125
751.025	0.0170985
751.103	0.0170143
751.182	0.0171057
751.260	0.0171918
751.338	0.0173071
751.416	0.0173013
751.494	0.0172000
751.572	0.0172600
751.650	0.0175417
751.728	0.0173987
751.807	0.0174486
751.885	0.0174962
751.963	0.0173836
752.041	0.0172575
752.119	0.0173631
752.197	0.0173824
752.275	0.0172520
752.353	0.0170386
752.432	0.0170335
752.510	0.0171195
752.588	0.0169077
752.666	0.0169227
752.744	0.0168620
752.822	0.0168925
752.900	0.0169903
752.978	0.0169227
753.057	0.0170193
753.135	0.0170306
753.213	0.0170777
753.291	0.0169252
753.369	0.0170565
753.447	0.0171131
753.525	0.0170081
753.603	0.0171394
753.682	0.0172027
753.760	0.0171643
753.838	0.0173816
753.916	0.0171946
753.994	0.0172643
754.072	0.0173722
754.150	0.0172175
754.228	0.0171781
754.307	0.0171810
754.385	0.0172160
754.463	0.0172520
754.541	0.0171977
754.619	0.0172821
754.697	0.0172238
754.775	0.0169927
754.853	0.0170323
754.932	0.0171130
755.010	0.0170478
755.088	0.0168404
755.166	0.0170750
755.244	0.0170363
755.322	0.0170712
755.400	0.0170335
755.478	0.0171015
755.557	0.0170538
755.635	0.0169923
755.713	0.0170596
755.791	0.0169733
755.869	0.0169787
755.947	0.0170055
756.025	0.0169804
756.103	0.0169296
756.182	0.0169965
756.260	0.0170622
756.338	0.0169495
756.416	0.0170442
756.494	0.0171485
756.572	0.0171905
756.650	0.0169008
756.728	0.0170928
756.807	0.0172022
756.885	0.0171491
756.963	0.0171639
757.041	0.0170839
757.119	0.0172392
757.197	0.0170492
757.275	0.0171272
757.353	0.0170322
757.432	0.0171096
757.510	0.0169024
757.588	0.0170597
757.666	0.0169408
757.744	0.0169727
757.822	0.0171230
757.900	0.0170598
757.978	0.0169297
758.057	0.0169424
758.135	0.0169033
758.213	0.0169683
758.291	0.0170732
758.369	0.0170488
758.447	0.0169498
758.525	0.0170095
758.603	0.0170129
758.682	0.0170496
758.760	0.0170528
758.838	0.0169976
758.916	0.0170192
758.994	0.0171102
759.072	0.0171873
759.150	0.0171716
759.228	0.0172793
759.307	0.0171824
759.385	0.0171748
759.463	0.0171301
759.541	0.0171143
759.619	0.0171381
759.697	0.0171192
759.775	0.0170869
759.853	0.0171266
759.932	0.0170010
760.010	0.0170004
760.088	0.0170872
760.166	0.0171282
760.244	0.0169852
760.322	0.0169449
760.400	0.0170862
760.478	0.0170365
760.557	0.0170525
760.635	0.0170077
760.713	0.0168794
760.791	0.0170729
760.869	0.0170850
760.947	0.0171112
761.025	0.0170684
761.103	0.0169672
761.182	0.0169317
761.260	0.0169352
761.338	0.0169421
761.416	0.0167840
761.494	0.0169855
761.572	0.0170107
761.650	0.0169133
761.728	0.0170555
761.807	0.0170259
761.885	0.0169849
761.963	0.0171312
762.041	0.0172243
762.119	0.0172635
762.197	0.0171070
762.275	0.0172495
762.353	0.0173425
762.432	0.0173876
762.510	0.0172437
762.588	0.0172367
762.666	0.0173159
762.744	0.0173624
762.822	0.0171151
762.900	0.0171178
762.978	0.0171175
763.057	0.0170349
763.135	0.0169933
763.213	0.0168694
763.291	0.0169670
763.369	0.0168600
763.447	0.0166856
763.525	0.0166888
763.603	0.0167857
763.682	0.0167689
763.760	0.0168173
763.838	0.0167374
763.916	0.0166891
763.994	0.0167921
764.072	0.0167065
764.150	0.0169250
764.228	0.0168828
764.307	0.0169154
764.385	0.0170794
764.463	0.0170693
764.541	0.0171593
764.619	0.0171802
764.697	0.0173169
764.775	0.0175149
764.853	0.0174654
764.932	0.0174449
765.010	0.0175665
765.088	0.0176215
765.166	0.0175257
765.244	0.0176273
765.322	0.0175793
765.400	0.0175630
765.478	0.0175005
765.557	0.0175542
765.635	0.0174352
765.713	0.0172459
765.791	0.0172842
765.869	0.0172352
765.947	0.0168823
766.025	0.0169390
766.103	0.0170242
766.182	0.0168027
766.260	0.0167525
766.338	0.0168457
766.416	0.0167522
766.494	0.0167382
766.572	0.0167844
766.650	0.0166940
766.728	0.0167183
766.807	0.0168456
766.885	0.0167960
766.963	0.0169325
767.041	0.0169349
767.119	0.0170052
767.197	0.0170268
767.275	0.0170574
767.353	0.0171220
767.432	0.0171571
767.510	0.0172874
767.588	0.0173992
767.666	0.0173845
767.744	0.0173878
767.822	0.0172853
767.900	0.0172815
767.978	0.0173168
768.057	0.0172068
768.135	0.0171214
768.213	0.0172777
768.291	0.0173277
768.369	0.0172850
768.447	0.0171732
768.525	0.0173784
768.603	0.0172874
768.682	0.0174684
768.760	0.0174033
768.838	0.0176040
768.916	0.0175675
768.994	0.0175263
769.072	0.0174667
769.150	0.0174433
769.228	0.0173969
769.307	0.0174532
769.385	0.0173246
769.463	0.0171905
769.541	0.0170869
769.619	0.0170457
769.697	0.0169658
769.775	0.0167928
769.853	0.0167242
769.932	0.0166962
770.010	0.0168379
770.088	0.0167634
770.166	0.0169840
770.244	0.0168155
770.322	0.0167756
770.400	0.0168026
770.478	0.0169572
770.557	0.0168513
770.635	0.0167905
770.713	0.0166976
770.791	0.0167114
770.869	0.0169115
770.947	0.0166338
771.025	0.0167259
771.103	0.0167572
771.182	0.0168392
771.260	0.0169704
771.338	0.0168774
771.416	0.0170053
771.494	0.0172222
771.572	0.0172916
771.650	0.0173033
771.728	0.0172713
771.807	0.0174931
771.885	0.0175252
771.963	0.0175164
772.041	0.0176236
772.119	0.0176530
772.197	0.0176302
772.275	0.0178528
772.353	0.0179317
772.432	0.0180322
772.510	0.0179440
772.588	0.0178056
772.666	0.0178989
772.744	0.0177818
772.822	0.0177406
772.900	0.0175192
772.978	0.0176518
773.057	0.0173247
773.135	0.0172044
773.213	0.0170514
773.291	0.0168455
773.369	0.0166154
773.447	0.0165199
773.525	0.0165176
773.603	0.0162659
773.682	0.0161242
773.760	0.0161708
773.838	0.0161571
773.916	0.0160988
773.994	0.0162380
774.072	0.0163090
774.150	0.0163134
774.228	0.0163531
774.307	0.0166553
774.385	0.0167204
774.463	0.0169105
774.541	0.0166915
774.619	0.0170322
774.697	0.0170624
774.775	0.0173645
774.853	0.0173119
774.932	0.0175141
775.010	0.0176019
775.088	0.0177073
775.166	0.0178265
775.244	0.0177755
775.322	0.0178843
775.400	0.0178905
775.478	0.0179510
775.557	0.0179946
775.635	0.0179880
775.713	0.0180997
775.791	0.0180021
775.869	0.0179533
775.947	0.0178106
776.025	0.0177092
776.103	0.0174191
776.182	0.0173358
776.260	0.0173338
776.338	0.0171118
776.416	0.0171884
776.494	0.0168957
776.572	0.0166266
776.650	0.0166635
776.728	0.0164391
776.807	0.0164627
776.885	0.0164053
776.963	0.0163648
777.041	0.0162426
777.119	0.0163472
777.197	0.0163549
777.275	0.0164188
777.353	0.0166671
777.432	0.0166389
777.510	0.0167333
777.588	0.0167916
777.666	0.0168690
777.744	0.0170800
777.822	0.0171839
777.900	0.0172444
777.978	0.0170796
778.057	0.0171046
778.135	0.0172184
778.213	0.0172834
778.291	0.0173950
778.369	0.0173147
778.447	0.0172797
778.525	0.0173087
778.603	0.0171534
778.682	0.0173209
778.760	0.0173063
778.838	0.0171124
778.916	0.0173035
778.994	0.0171209
779.072	0.0171216
779.150	0.0172050
779.228	0.0171301
779.307	0.0171654
779.385	0.0170345
779.463	0.0171725
779.541	0.0171181
779.619	0.0169908
779.697	0.0168945
779.775	0.0169131
779.853	0.0169012
779.932	0.0169476
780.010	0.0170016
780.088	0.0170809
780.166	0.0171302
780.244	0.0171854
780.322	0.0171797
780.400	0.0171732
780.478	0.0171317
780.557	0.0172663
780.635	0.0171199
780.713	0.0170174
780.791	0.0169364
780.869	0.0169066
780.947	0.0168873
781.025	0.0167232
781.103	0.0166937
781.182	0.0167041
781.260	0.0166794
781.338	0.0167445
781.416	0.0167857
781.494	0.0166714
781.572	0.0168688
781.650	0.0169976
781.728	0.0171426
781.807	0.0171711
781.885	0.0172071
781.963	0.0174912
782.041	0.0175641
782.119	0.0174030
782.197	0.0174744
782.275	0.0174541
782.353	0.0174284
782.432	0.0175143
782.510	0.0172585
782.588	0.0171973
782.666	0.0170014
782.744	0.0169321
782.822	0.0167942
782.900	0.0166101
782.978	0.0166730
783.057	0.0165009
783.135	0.0164411
783.213	0.0161832
783.291	0.0161803
783.369	0.0162938
783.447	0.0161819
783.525	0.0163155
783.603	0.0162807
783.682	0.0164680
783.760	0.0165188
783.838	0.0166603
783.916	0.0167295
783.994	0.0169337
784.072	0.0169765
784.150	0.0171445
784.228	0.0173312
784.307	0.0176207
784.385	0.0176746
784.463	0.0177837
784.541	0.0178117
784.619	0.0179690
784.697	0.0181522
784.775	0.0180442
784.853	0.0181481
784.932	0.0181551
785.010	0.0181013
785.088	0.0179900
785.166	0.0180268
785.244	0.0178883
785.322	0.0177053
785.400	0.0176768
785.478	0.0175776
785.557	0.0175529
785.635	0.0173499
785.713	0.0170779
785.791	0.0170126
785.869	0.0167706
785.947	0.0166615
786.025	0.0164947
786.103	0.0162879
786.182	0.0161213
786.260	0.0160789
786.338	0.0158344
786.416	0.0159103
786.494	0.0160271
786.572	0.0158015
786.650	0.0156958
786.728	0.0158219
786.807	0.0158281
786.885	0.0160529
786.963	0.0160661
787.041	0.0160888
787.119	0.0163135
787.197	0.0165131
787.275	0.0167486
787.353	0.0171797
787.432	0.0173682
787.510	0.0176189
787.588	0.0176302
787.666	0.0178587
787.744	0.0179513
787.822	0.0181140
787.900	0.0180534
787.978	0.0182013
788.057	0.0180486
788.135	0.0179846
788.213	0.0179096
788.291	0.0177756
788.369	0.0177136
788.447	0.0175407
788.525	0.0174577
788.603	0.0173215
788.682	0.0170824
788.760	0.0170213
788.838	0.0170625
788.916	0.0170282
788.994	0.0168222
789.072	0.0167168
789.150	0.0168258
789.228	0.0168417
789.307	0.0168138
789.385	0.0167178
789.463	0.0166438
789.541	0.0167786
789.619	0.0166307
789.697	0.0167213
789.775	0.0167925
789.853	0.0168100
789.932	0.0168766
790.010	0.0168947
790.088	0.0169124
790.166	0.0169054
790.244	0.0168771
790.322	0.0169391
790.400	0.0169168
790.478	0.0170618
790.557	0.0169953
790.635	0.0170051
790.713	0.0171859
790.791	0.0171804
790.869	0.0171853
790.947	0.0173814
791.025	0.0173140
791.103	0.0172411
791.182	0.0172044
791.260	0.0171240
791.338	0.0171975
791.416	0.0173602
791.494	0.0173232
791.572	0.0172250
791.650	0.0172155
791.728	0.0172950
791.807	0.0173370
791.885	0.0173617
791.963	0.0173781
792.041	0.0173641
792.119	0.0174345
792.197	0.0173872
792.275	0.0173988
792.353	0.0174423
792.432	0.0175151
792.510	0.0173618
792.588	0.0173954
792.666	0.0172845
792.744	0.0173186
792.822	0.0170821
792.900	0.0170014
792.978	0.0167598
793.057	0.0166859
793.135	0.0165228
793.213	0.0163657
793.291	0.0161902
793.369	0.0159936
793.447	0.0158746
793.525	0.0156882
793.603	0.0156752
793.682	0.0157129
793.760	0.0157898
793.838	0.0157494
793.916	0.0161244
793.994	0.0162226
794.072	0.0165842
794.150	0.0169689
794.228	0.0171959
794.307	0.0176560
794.385	0.0179923
794.463	0.0184065
794.541	0.0186526
794.619	0.0187498
794.697	0.0189560
794.775	0.0190897
794.853	0.0189568
794.932	0.0188622
795.010	0.0188736
795.088	0.0186445
795.166	0.0186091
795.244	0.0181939
795.322	0.0179980
795.400	0.0178731
795.478	0.0174674
795.557	0.0169910
795.635	0.0167797
795.713	0.0165619
795.791	0.0162772
795.869	0.0160838
795.947	0.0158093
796.025	0.0157228
796.103	0.0156341
796.182	0.0155154
796.260	0.0154726
796.338	0.0155257
796.416	0.0157742
796.494	0.0157966
796.572	0.0160670
796.650	0.0162165
796.728	0.0163390
796.807	0.0166746
796.885	0.0167578
796.963	0.0170766
797.041	0.0172072
797.119	0.0172897
797.197	0.0173955
797.275	0.0175727
797.353	0.0175925
797.432	0.0177298
797.510	0.0176872
797.588	0.0179149
797.666	0.0178033
797.744	0.0178860
797.822	0.0178888
797.900	0.0179211
797.978	0.0178344
798.057	0.0176692
798.135	0.0176305
798.213	0.0174477
798.291	0.0173959
798.369	0.0173111
798.447	0.0171284
798.525	0.0170488
798.603	0.0170544
798.682	0.0169366
798.760	0.0167139
798.838	0.0167184
798.916	0.0166689
798.994	0.0167310
799.072	0.0166342
799.150	0.0167543
799.228	0.0168491
799.307	0.0167014
799.385	0.0170459
799.463	0.0170783
799.541	0.0170693
799.619	0.0173372
799.697	0.0173515
799.775	0.0176285
799.853	0.0176784
799.932	0.0177367
800.010	0.0177919
800.088	0.0178238
800.166	0.0178442
800.244	0.0178252
800.322	0.0176685
800.400	0.0177018
800.478	0.0174448
800.557	0.0173374
800.635	0.0173534
800.713	0.0171076
800.791	0.0167523
800.869	0.0167944
800.947	0.0165584
801.025	0.0162984
801.103	0.0161739
801.182	0.0160153
801.260	0.0156750
801.338	0.0159914
801.416	0.0159583
801.494	0.0156834
801.572	0.0158405
801.650	0.0159834
801.728	0.0160017
801.807	0.0161741
801.885	0.0163232
801.963	0.0166201
802.041	0.0167315
802.119	0.0170798
802.197	0.0172077
802.275	0.0174036
802.353	0.0175574
802.432	0.0177781
802.510	0.0179132
802.588	0.0180119
802.666	0.0179580
802.744	0.0179896
802.822	0.0179882
802.900	0.0178191
802.978	0.0178059
803.057	0.0174780
803.135	0.0172228
803.213	0.0170679
803.291	0.0168549
803.369	0.0167545
803.447	0.0167898
803.525	0.0164870
803.603	0.0163437
803.682	0.0162818
803.760	0.0165533
803.838	0.0165884
803.916	0.0165218
803.994	0.0167949
804.072	0.0168004
804.150	0.0169412
804.228	0.0170972
804.307	0.0171983
804.385	0.0173858
804.463	0.0176138
804.541	0.0174828
804.619	0.0176702
804.697	0.0176811
804.775	0.0177518
804.853	0.0176960
804.932	0.0175713
805.010	0.0175454
805.088	0.0174145
805.166	0.0174468
805.244	0.0171973
805.322	0.0171848
805.400	0.0169791
805.478	0.0169447
805.557	0.0169156
805.635	0.0166119
805.713	0.0164778
805.791	0.0164127
805.869	0.0163985
805.947	0.0164091
806.025	0.0162510
806.103	0.0162666
806.182	0.0163389
806.260	0.0163049
806.338	0.0162772
806.416	0.0163861
806.494	0.0163110
806.572	0.0164508
806.650	0.0166335
806.728	0.0169444
806.807	0.0167654
806.885	0.0169577
806.963	0.0171370
807.041	0.0172333
807.119	0.0174544
807.197	0.0174678
807.275	0.0176667
807.353	0.0176653
807.432	0.0176823
807.510	0.0178451
807.588	0.0179557
807.666	0.0178599
807.744	0.0179069
807.822	0.0178262
807.900	0.0177340
807.978	0.0176025
808.057	0.0175089
808.135	0.0173850
808.213	0.0173949
808.291	0.0172971
808.369	0.0171461
808.447	0.0169875
808.525	0.0170182
808.603	0.0168822
808.682	0.0167736
808.760	0.0168373
808.838	0.0166891
808.916	0.0167138
808.994	0.0167500
809.072	0.0164356
809.150	0.0164377
809.228	0.0166207
809.307	0.0167058
809.385	0.0166693
809.463	0.0168334
809.541	0.0168940
809.619	0.0169804
809.697	0.0170051
809.775	0.0170593
809.853	0.0171767
809.932	0.0171409
810.010	0.0172216
810.088	0.0173185
810.166	0.0174080
810.244	0.0174242
810.322	0.0173830
810.400	0.0173660
810.478	0.0173157
810.557	0.0172841
810.635	0.0171767
810.713	0.0170971
810.791	0.0168491
810.869	0.0168105
810.947	0.0169570
811.025	0.0166955
811.103	0.0165482
811.182	0.0166212
811.260	0.0164387
811.338	0.0162820
811.416	0.0162035
811.494	0.0162062
811.572	0.0160976
811.650	0.0161395
811.728	0.0162655
811.807	0.0162478
811.885	0.0164083
811.963	0.0166460
812.041	0.0164755
812.119	0.0165971
812.197	0.0168116
812.275	0.0169727
812.353	0.0169170
812.432	0.0170926
812.510	0.0172561
812.588	0.0173609
812.666	0.0173619
812.744	0.0175716
812.822	0.0174091
812.900	0.0176859
812.978	0.0176492
813.057	0.0177428
813.135	0.0176978
813.213	0.0178749
813.291	0.0177719
813.369	0.0178588
813.447	0.0180053
813.525	0.0178964
813.603	0.0178369
813.682	0.0177713
813.760	0.0176838
813.838	0.0175377
813.916	0.0175796
813.994	0.0175749
814.072	0.0173610
814.150	0.0172667
814.228	0.0172283
814.307	0.0170688
814.385	0.0172176
814.463	0.0170338
814.541	0.0169478
814.619	0.0167085
814.697	0.0166957
814.775	0.0167183
814.853	0.0167123
814.932	0.0166428
815.010	0.0164975
815.088	0.0165354
815.166	0.0165270
815.244	0.0164873
815.322	0.0165168
815.400	0.0164521
815.478	0.0165131
815.557	0.0165310
815.635	0.0165292
815.713	0.0162964
815.791	0.0164883
815.869	0.0163676
815.947	0.0164525
816.025	0.0163351
816.103	0.0164704
816.182	0.0165068
816.260	0.0166129
816.338	0.0164796
816.416	0.0166222
816.494	0.0165928
816.572	0.0166068
816.650	0.0166283
816.728	0.0167534
816.807	0.0167042
816.885	0.0167912
816.963	0.0170624
817.041	0.0170464
817.119	0.0171140
817.197	0.0173727
817.275	0.0174990
817.353	0.0175310
817.432	0.0176015
817.510	0.0178526
817.588	0.0179182
817.666	0.0179442
817.744	0.0180054
817.822	0.0180712
817.900	0.0180850
817.978	0.0181867
818.057	0.0181713
818.135	0.0179427
818.213	0.0179523
818.291	0.0178209
818.369	0.0178682
818.447	0.0176505
818.525	0.0176588
818.603	0.0175007
818.682	0.0173656
818.760	0.0173689
818.838	0.0171122
818.916	0.0171132
818.994	0.0171501
819.072	0.0169950
819.150	0.0169230
819.228	0.0168739
819.307	0.0169327
819.385	0.0167030
819.463	0.0166189
819.541	0.0165691
819.619	0.0166736
819.697	0.0166499
819.775	0.0164922
819.853	0.0164397
819.932	0.0165717
820.010	0.0164442
820.088	0.0163783
820.166	0.0162568
820.244	0.0163600
820.322	0.0162533
820.400	0.0164016
820.478	0.0162771
820.557	0.0162529
820.635	0.0163808
820.713	0.0161965
820.791	0.0160825
820.869	0.0161581
820.947	0.0163506
821.025	0.0163017
821.103	0.0163406
821.182	0.0164637
821.260	0.0165175
821.338	0.0166829
821.416	0.0168089
821.494	0.0168391
821.572	0.0171738
821.650	0.0171592
821.728	0.0172530
821.807	0.0175148
821.885	0.0176910
821.963	0.0176852
822.041	0.0177257
822.119	0.0176524
822.197	0.0177526
822.275	0.0177888
822.353	0.0177121
822.432	0.0177427
822.510	0.0178471
822.588	0.0176125
822.666	0.0175438
822.744	0.0175637
822.822	0.0175001
822.900	0.0174775
822.978	0.0174431
823.057	0.0174799
823.135	0.0173456
823.213	0.0172470
823.291	0.0172527
823.369	0.0172214
823.447	0.0173114
823.525	0.0173521
823.603	0.0174120
823.682	0.0174768
823.760	0.0174192
823.838	0.0173387
823.916	0.0174196
823.994	0.0173834
824.072	0.0173110
824.150	0.0174039
824.228	0.0172590
824.307	0.0171970
824.385	0.0170875
824.463	0.0170310
824.541	0.0170490
824.619	0.0169793
824.697	0.0167237
824.775	0.0168011
824.853	0.0168051
824.932	0.0167267
825.010	0.0166479
825.088	0.0166996
825.166	0.0167192
825.244	0.0166505
825.322	0.0167032
825.400	0.0168210
825.478	0.0168217
825.557	0.0169442
825.635	0.0168329
825.713	0.0168207
825.791	0.0169829
825.869	0.0166595
825.947	0.0168268
826.025	0.0169505
826.103	0.0168809
826.182	0.0167522
826.260	0.0167110
826.338	0.0165392
826.416	0.0166320
826.494	0.0165958
826.572	0.0164927
826.650	0.0163493
826.728	0.0165305
826.807	0.0166205
826.885	0.0165800
826.963	0.0166196
827.041	0.0168114
827.119	0.0166750
827.197	0.0168615
827.275	0.0171031
827.353	0.0172314
827.432	0.0173530
827.510	0.0174401
827.588	0.0175464
827.666	0.0176808
827.744	0.0178368
827.822	0.0177678
827.900	0.0176659
827.978	0.0176544
828.057	0.0176158
828.135	0.0176348
828.213	0.0177718
828.291	0.0174450
828.369	0.0174796
828.447	0.0173828
828.525	0.0173409
828.603	0.0173125
828.682	0.0173482
828.760	0.0172048
828.838	0.0170647
828.916	0.0173032
828.994	0.0173544
829.072	0.0174038
829.150	0.0175694
829.228	0.0174184
829.307	0.0175462
829.385	0.0177177
829.463	0.0176375
829.541	0.0177278
829.619	0.0177852
829.697	0.0178754
829.775	0.0176932
829.853	0.0176609
829.932	0.0176370
830.010	0.0175447
830.088	0.0173328
830.166	0.0172243
830.244	0.0170525
830.322	0.0169279
830.400	0.0169027
830.478	0.0168171
830.557	0.0167108
830.635	0.0166513
830.713	0.0164917
830.791	0.0165425
830.869	0.0166397
830.947	0.0166436
831.025	0.0166525
831.103	0.0166226
831.182	0.0167117
831.260	0.0167126
831.338	0.0166531
831.416	0.0165813
831.494	0.0167424
831.572	0.0168266
831.650	0.0167468
831.728	0.0167899
831.807	0.0167648
831.885	0.0167262
831.963	0.0167096
832.041	0.0167712
832.119	0.0166525
832.197	0.0167201
832.275	0.0165607
832.353	0.0166824
832.432	0.0167078
832.510	0.0168442
832.588	0.0168896
832.666	0.0168369
832.744	0.0169581
832.822	0.0169687
832.900	0.0170753
832.978	0.0171592
833.057	0.0170633
833.135	0.0172570
833.213	0.0172477
833.291	0.0173547
833.369	0.0175154
833.447	0.0174991
833.525	0.0175267
833.603	0.0176157
833.682	0.0175536
833.760	0.0176949
833.838	0.0177925
833.916	0.0177439
833.994	0.0175732
834.072	0.0176481
834.150	0.0177399
834.228	0.0176685
834.307	0.0175036
834.385	0.0174329
834.463	0.0173347
834.541	0.0173317
834.619	0.0173174
834.697	0.0172986
834.775	0.0171881
834.853	0.0170868
834.932	0.0168955
835.010	0.0170402
835.088	0.0170460
835.166	0.0170217
835.244	0.0168179
835.322	0.0170249
835.400	0.0169624
835.478	0.0168537
835.557	0.0169061
835.635	0.0169298
835.713	0.0170110
835.791	0.0168715
835.869	0.0169958
835.947	0.0170736
836.025	0.0169623
836.103	0.0168158
836.182	0.0168669
836.260	0.0170405
836.338	0.0170809
836.416	0.0169505
836.494	0.0169324
836.572	0.0170432
836.650	0.0168771
836.728	0.0168484
836.807	0.0169654
836.885	0.0168839
836.963	0.0168215
837.041	0.0166930
837.119	0.0166856
837.197	0.0167052
837.275	0.0167109
837.353	0.0165998
837.432	0.0165104
837.510	0.0165833
837.588	0.0164308
837.666	0.0166932
837.744	0.0164098
837.822	0.0165534
837.900	0.0167826
837.978	0.0167865
838.057	0.0168279
838.135	0.0168060
838.213	0.0168684
838.291	0.0171546
838.369	0.0171231
838.447	0.0171361
838.525	0.0170113
838.603	0.0171703
838.682	0.0170969
838.760	0.0172101
838.838	0.0173070
838.916	0.0172903
838.994	0.0173132
839.072	0.0172752
839.150	0.0172675
839.228	0.0172615
839.307	0.0173345
839.385	0.0172332
839.463	0.0172105
839.541	0.0172555
839.619	0.0172281
839.697	0.0172865
839.775	0.0172127
839.853	0.0170522
839.932	0.0173343
840.010	0.0173511
840.088	0.0172420
840.166	0.0173923
840.244	0.0173643
840.322	0.0173550
840.400	0.0175044
840.478	0.0174771
840.557	0.0174728
840.635	0.0174291
840.713	0.0175230
840.791	0.0174944
840.869	0.0176271
840.947	0.0175568
841.025	0.0174510
841.103	0.0174264
841.182	0.0174009
841.260	0.0174021
841.338	0.0172112
841.416	0.0171584
841.494	0.0170865
841.572	0.0170692
841.650	0.0169480
841.728	0.0169469
841.807	0.0168276
841.885	0.0167899
841.963	0.0166148
842.041	0.0166589
842.119	0.0166184
842.197	0.0166789
842.275	0.0167038
842.353	0.0165009
842.432	0.0167366
842.510	0.0166634
842.588	0.0168033
842.666	0.0166057
842.744	0.0166559
842.822	0.0167477
842.900	0.0168842
842.978	0.0169185
843.057	0.0167989
843.135	0.0168137
843.213	0.0168025
843.291	0.0168242
843.369	0.0168082
843.447	0.0168592
843.525	0.0168921
843.603	0.0165977
843.682	0.0167088
843.760	0.0167986
843.838	0.0167604
843.916	0.0169198
843.994	0.0166928
844.072	0.0167786
844.150	0.0167197
844.228	0.0167661
844.307	0.0169006
844.385	0.0169070
844.463	0.0168716
844.541	0.0168209
844.619	0.0170087
844.697	0.0172278
844.775	0.0172440
844.853	0.0171926
844.932	0.0173051
845.010	0.0173557
845.088	0.0173450
845.166	0.0173514
845.244	0.0174973
845.322	0.0175168
845.400	0.0172832
845.478	0.0173524
845.557	0.0175420
845.635	0.0172927
845.713	0.0174293
845.791	0.0173512
845.869	0.0172568
845.947	0.0173000
846.025	0.0173745
846.103	0.0173862
846.182	0.0173073
846.260	0.0171342
846.338	0.0172612
846.416	0.0173495
846.494	0.0173788
846.572	0.0174339
846.650	0.0172611
846.728	0.0172641
846.807	0.0172617
846.885	0.0173015
846.963	0.0173592
847.041	0.0172519
847.119	0.0171491
847.197	0.0172165
847.275	0.0173211
847.353	0.0172382
847.432	0.0173106
847.510	0.0171312
847.588	0.0172599
847.666	0.0172261
847.744	0.0172841
847.822	0.0173610
847.900	0.0171241
847.978	0.0172137
848.057	0.0172965
848.135	0.0172864
848.213	0.0172181
848.291	0.0171903
848.369	0.0173205
848.447	0.0171612
848.525	0.0171198
848.603	0.0171259
848.682	0.0171134
848.760	0.0169804
848.838	0.0169559
848.916	0.0169929
848.994	0.0170380
849.072	0.0167743
849.150	0.0168886
849.228	0.0169253
849.307	0.0168378
849.385	0.0168419
849.463	0.0168517
849.541	0.0169171
849.619	0.0168557
849.697	0.0167896
849.775	0.0166755
849.853	0.0168146
849.932	0.0168452
850.010	0.0168414
850.088	0.0167457
850.166	0.0168398
850.244	0.0169641
850.322	0.0168876
850.400	0.0169508
850.478	0.0170206
850.557	0.0169763
850.635	0.0171062
850.713	0.0172202
850.791	0.0171913
850.869	0.0172659
850.947	0.0173936
851.025	0.0172282
851.103	0.0173777
851.182	0.0171717
851.260	0.0174708
851.338	0.0174509
851.416	0.0174693
851.494	0.0174625
851.572	0.0174401
851.650	0.0174062
851.728	0.0174458
851.807	0.0173904
851.885	0.0174384
851.963	0.0174570
852.041	0.0174355
852.119	0.0174374
852.197	0.0174265
852.275	0.0173503
852.353	0.0172279
852.432	0.0174137
852.510	0.0174133
852.588	0.0173313
852.666	0.0172163
852.744	0.0173711
852.822	0.0173899
852.900	0.0173906
852.978	0.0173718
853.057	0.0172758
853.135	0.0172710
853.213	0.0173657
853.291	0.0173268
853.369	0.0172149
853.447	0.0171528
853.525	0.0172312
853.603	0.0170776
853.682	0.0170880
853.760	0.0171568
853.838	0.0171091
853.916	0.0170894
853.994	0.0168693
854.072	0.0169106
854.150	0.0169536
854.228	0.0168544
854.307	0.0167817
854.385	0.0168594
854.463	0.0169225
854.541	0.0169028
854.619	0.0168159
854.697	0.0168819
854.775	0.0169482
854.853	0.0170013
854.932	0.0170261
855.010	0.0169079
855.088	0.0170341
855.166	0.0169626
855.244	0.0170433
855.322	0.0171364
855.400	0.0170656
855.478	0.0169128
855.557	0.0171348
855.635	0.0169888
855.713	0.0169823
855.791	0.0171591
855.869	0.0170345
855.947	0.0169424
856.025	0.0168556
856.103	0.0168889
856.182	0.0169529
856.260	0.0169010
856.338	0.0168821
856.416	0.0169919
856.494	0.0169260
856.572	0.0168630
856.650	0.0168183
856.728	0.0168510
856.807	0.0169894
856.885	0.0169473
856.963	0.0170603
857.041	0.0169553
857.119	0.0171202
857.197	0.0170532
857.275	0.0174253
857.353	0.0173778
857.432	0.0172420
857.510	0.0173152
857.588	0.0172485
857.666	0.0173943
857.744	0.0173867
857.822	0.0173196
857.900	0.0171922
857.978	0.0173274
858.057	0.0172499
858.135	0.0173370
858.213	0.0173777
858.291	0.0171717
858.369	0.0170773
858.447	0.0172952
858.525	0.0172526
858.603	0.0172012
858.682	0.0172114
858.760	0.0171929
858.838	0.0171270
858.916	0.0171329
858.994	0.0170994
859.072	0.0170218
859.150	0.0171586
859.228	0.0170584
859.307	0.0170922
859.385	0.0169828
859.463	0.0171822
859.541	0.0169359
859.619	0.0170222
859.697	0.0169418
859.775	0.0169186
859.853	0.0170373
859.932	0.0169629
860.010	0.0169250
860.088	0.0170596
860.166	0.0169240
860.244	0.0169880
860.322	0.0169395
860.400	0.0169050
860.478	0.0169508
860.557	0.0169480
860.635	0.0168732
860.713	0.0169645
860.791	0.0168517
860.869	0.0168861
860.947	0.0168903
861.025	0.0168314
861.103	0.0167858
861.182	0.0169160
861.260	0.0169939
861.338	0.0168456
861.416	0.0167921
861.494	0.0170094
861.572	0.0169390
861.650	0.0168720
861.728	0.0168761
861.807	0.0169128
861.885	0.0169823
861.963	0.0169647
862.041	0.0168483
862.119	0.0169977
862.197	0.0168031
862.275	0.0171790
862.353	0.0169073
862.432	0.0170187
862.510	0.0169772
862.588	0.0170585
862.666	0.0171290
862.744	0.0171570
862.822	0.0172794
862.900	0.0172263
862.978	0.0172718
863.057	0.0171980
863.135	0.0172810
863.213	0.0171799
863.291	0.0173524
863.369	0.0173346
863.447	0.0174547
863.525	0.0173706
863.603	0.0172401
863.682	0.0174482
863.760	0.0173022
863.838	0.0174411
863.916	0.0172212
863.994	0.0172457
864.072	0.0172191
864.150	0.0172025
864.228	0.0171368
864.307	0.0171372
864.385	0.0170241
864.463	0.0169780
864.541	0.0169205
864.619	0.0169205
864.697	0.0168272
864.775	0.0169872
864.853	0.0169840
864.932	0.0170274
865.010	0.0169646
865.088	0.0171703
865.166	0.0170412
865.244	0.0171274
865.322	0.0172849
865.400	0.0172526
865.478	0.0173132
865.557	0.0172913
865.635	0.0174010
865.713	0.0173814
865.791	0.0173698
865.869	0.0174001
865.947	0.0172923
866.025	0.0173004
866.103	0.0173634
866.182	0.0173106
866.260	0.0172399
866.338	0.0172540
866.416	0.0170153
866.494	0.0171787
866.572	0.0171754
866.650	0.0169202
866.728	0.0169613
866.807	0.0169320
866.885	0.0167754
866.963	0.0166719
867.041	0.0168282
867.119	0.0168394
867.197	0.0165705
867.275	0.0165781
867.353	0.0167313
867.432	0.0167400
867.510	0.0166305
867.588	0.0167407
867.666	0.0168291
867.744	0.0169134
867.822	0.0169910
867.900	0.0169211
867.978	0.0168843
868.057	0.0170106
868.135	0.0170552
868.213	0.0171224
868.291	0.0171104
868.369	0.0170394
868.447	0.0172033
868.525	0.0171693
868.603	0.0172813
868.682	0.0172474
868.760	0.0173013
868.838	0.0172928
868.916	0.0174166
868.994	0.0174007
869.072	0.0172525
869.150	0.0174460
869.228	0.0173988
869.307	0.0173453
869.385	0.0174329
869.463	0.0173582
869.541	0.0173454
869.619	0.0173725
869.697	0.0175367
869.775	0.0174712
869.853	0.0174582
869.932	0.0173659
870.010	0.0174247
870.088	0.0174050
870.166	0.0173341
870.244	0.0172349
870.322	0.0171886
870.400	0.0172556
870.478	0.0171867
870.557	0.0170641
870.635	0.0171180
870.713	0.0169757
870.791	0.0170282
870.869	0.0169433
870.947	0.0168997
871.025	0.0169975
871.103	0.0169592
871.182	0.0168690
871.260	0.0169093
871.338	0.0168171
871.416	0.0169237
871.494	0.0168199
871.572	0.0169151
871.650	0.0169428
871.728	0.0169329
871.807	0.0172201
871.885	0.0170517
871.963	0.0170844
872.041	0.0172156
872.119	0.0172269
872.197	0.0172671
872.275	0.0172744
872.353	0.0173368
872.432	0.0175181
872.510	0.0174165
872.588	0.0175066
872.666	0.0174964
872.744	0.0174319
872.822	0.0173302
872.900	0.0173725
872.978	0.0174432
873.057	0.0173588
873.135	0.0173624
873.213	0.0172958
873.291	0.0172244
873.369	0.0172900
873.447	0.0171879
873.525	0.0170674
873.603	0.0170113
873.682	0.0171044
873.760	0.0169804
873.838	0.0169635
873.916	0.0168947
873.994	0.0168558
874.072	0.0170558
874.150	0.0169365
874.228	0.0170415
874.307	0.0169983
874.385	0.0170136
874.463	0.0170650
874.541	0.0169878
874.619	0.0171755
874.697	0.0169713
874.775	0.0170932
874.853	0.0170320
874.932	0.0170451
875.010	0.0170626
875.088	0.0170092
875.166	0.0170309
875.244	0.0170451
875.322	0.0171136
875.400	0.0169849
875.478	0.0170765
875.557	0.0171566
875.635	0.0170853
875.713	0.0171111
875.791	0.0172128
875.869	0.0170360
875.947	0.0171474
876.025	0.0170979
876.103	0.0170319
876.182	0.0169465
876.260	0.0170895
876.338	0.0170331
876.416	0.0171362
876.494	0.0171638
876.572	0.0172318
876.650	0.0170650
876.728	0.0169520
876.807	0.0169251
876.885	0.0170313
876.963	0.0169389
877.041	0.0170267
877.119	0.0169046
877.197	0.0169277
877.275	0.0169833
877.353	0.0167988
877.432	0.0168229
877.510	0.0169938
877.588	0.0170130
877.666	0.0169045
877.744	0.0170430
877.822	0.0168910
877.900	0.0170178
877.978	0.0170914
878.057	0.0169812
878.135	0.0170137
878.213	0.0171056
878.291	0.0170854
878.369	0.0171623
878.447	0.0171606
878.525	0.0171219
878.603	0.0171661
878.682	0.0173283
878.760	0.0170979
878.838	0.0171671
878.916	0.0172797
878.994	0.0171313
879.072	0.0171225
879.150	0.0171705
879.228	0.0169943
879.307	0.0170139
879.385	0.0170181
879.463	0.0170779
879.541	0.0170350
879.619	0.0170080
879.697	0.0169952
879.775	0.0170351
879.853	0.0171150
879.932	0.0169851
880.010	0.0168800
880.088	0.0170812
880.166	0.0170562
880.244	0.0169973
880.322	0.0169784
880.400	0.0169952
880.478	0.0170366
880.557	0.0169569
880.635	0.0168346
880.713	0.0170117
880.791	0.0169209
880.869	0.0169064
880.947	0.0168880
881.025	0.0170561
881.103	0.0169224
881.182	0.0169598
881.260	0.0170248
881.338	0.0169843
881.416	0.0171529
881.494	0.0170573
881.572	0.0170660
881.650	0.0171265
881.728	0.0171835
881.807	0.0172525
881.885	0.0171963
881.963	0.0171338
882.041	0.0171610
882.119	0.0172214
882.197	0.0170856
882.275	0.0171429
882.353	0.0170536
882.432	0.0168076
882.510	0.0169838
882.588	0.0169502
882.666	0.0168018
882.744	0.0166158
882.822	0.0167525
882.900	0.0167418
882.978	0.0165626
883.057	0.0165816
883.135	0.0166439
883.213	0.0167789
883.291	0.0165609
883.369	0.0165804
883.447	0.0167972
883.525	0.0166637
883.603	0.0168494
883.682	0.0168927
883.760	0.0169960
883.838	0.0169022
883.916	0.0170109
883.994	0.0171406
884.072	0.0170636
884.150	0.0170840
884.228	0.0170393
884.307	0.0170682
884.385	0.0171232
884.463	0.0172349
884.541	0.0172515
884.619	0.0171031
884.697	0.0170543
884.775	0.0169305
884.853	0.0169914
884.932	0.0170834
885.010	0.0170000
885.088	0.0171214
885.166	0.0170105
885.244	0.0170345
885.322	0.0169191
885.400	0.0170499
885.478	0.0172403
885.557	0.0171857
885.635	0.0171367
885.713	0.0172187
885.791	0.0172356
885.869	0.0172734
885.947	0.0172072
886.025	0.0172970
886.103	0.0173146
886.182	0.0171757
886.260	0.0171823
886.338	0.0170514
886.416	0.0171159
886.494	0.0172078
886.572	0.0169560
886.650	0.0170501
886.728	0.0168483
886.807	0.0169709
886.885	0.0168666
886.963	0.0167999
887.041	0.0166610
887.119	0.0166911
887.197	0.0167545
887.275	0.0167823
887.353	0.0167185
887.432	0.0167668
887.510	0.0168200
887.588	0.0167329
887.666	0.0168991
887.744	0.0169712
887.822	0.0168842
887.900	0.0169986
887.978	0.0171123
888.057	0.0171531
888.135	0.0171664
888.213	0.0172227
888.291	0.0171302
888.369	0.0172322
888.447	0.0172992
888.525	0.0173100
888.603	0.0171441
888.682	0.0171870
888.760	0.0170716
888.838	0.0169270
888.916	0.0169856
888.994	0.0171319
889.072	0.0170156
889.150	0.0171069
889.228	0.0168937
889.307	0.0169347
889.385	0.0170328
889.463	0.0168753
889.541	0.0168772
889.619	0.0170226
889.697	0.0171227
889.775	0.0170849
889.853	0.0170767
889.932	0.0170573
890.010	0.0171162
890.088	0.0171339
890.166	0.0170341
890.244	0.0170663
890.322	0.0171516
890.400	0.0172063
890.478	0.0171828
890.557	0.0172652
890.635	0.0172488
890.713	0.0173712
890.791	0.0172765
890.869	0.0172039
890.947	0.0173223
891.025	0.0175082
891.103	0.0172026
891.182	0.0171426
891.260	0.0173147
891.338	0.0172665
891.416	0.0173045
891.494	0.0173434
891.572	0.0172707
891.650	0.0173407
891.728	0.0173654
891.807	0.0173724
891.885	0.0172608
891.963	0.0173634
892.041	0.0174200
892.119	0.0172278
892.197	0.0172321
892.275	0.0172459
892.353	0.0173273
892.432	0.0171674
892.510	0.0171249
892.588	0.0171559
892.666	0.0171221
892.744	0.0170311
892.822	0.0171280
892.900	0.0169942
892.978	0.0169939
893.057	0.0170786
893.135	0.0170624
893.213	0.0168629
893.291	0.0169366
893.369	0.0170298
893.447	0.0170306
893.525	0.0168555
893.603	0.0169390
893.682	0.0170010
893.760	0.0170781
893.838	0.0170044
893.916	0.0170887
893.994	0.0171169
894.072	0.0169722
894.150	0.0170232
894.228	0.0170695
894.307	0.0171349
894.385	0.0171364
894.463	0.0170917
894.541	0.0171912
894.619	0.0172320
894.697	0.0172598
894.775	0.0172334
894.853	0.0173261
894.932	0.0172711
895.010	0.0173032
895.088	0.0173303
895.166	0.0174034
895.244	0.0174313
895.322	0.0173693
895.400	0.0174819
895.478	0.0173369
895.557	0.0172890
895.635	0.0173929
895.713	0.0173540
895.791	0.0173807
895.869	0.0173979
895.947	0.0174624
896.025	0.0175120
896.103	0.0173303
896.182	0.0173635
896.260	0.0174393
896.338	0.0174207
896.416	0.0174860
896.494	0.0173943
896.572	0.0175235
896.650	0.0173884
896.728	0.0174474
896.807	0.0175389
896.885	0.0172522
896.963	0.0173959
897.041	0.0174461
897.119	0.0171626
897.197	0.0172322
897.275	0.0171847
897.353	0.0172134
897.432	0.0172169
897.510	0.0170535
897.588	0.0170816
897.666	0.0168227
897.744	0.0168033
897.822	0.0168025
897.900	0.0168053
897.978	0.0170098
898.057	0.0168827
898.135	0.0167475
898.213	0.0168334
898.291	0.0168235
898.369	0.0168941
898.447	0.0169697
898.525	0.0169833
898.603	0.0169968
898.682	0.0169576
898.760	0.0169940
898.838	0.0170400
898.916	0.0172632
898.994	0.0170287
899.072	0.0171311
899.150	0.0169863
899.228	0.0171579
899.307	0.0170202
899.385	0.0170848
899.463	0.0171059
899.541	0.0169534
899.619	0.0170571
899.697	0.0171114
899.775	0.0170175
899.853	0.0168781
899.932	0.0168586
900.010	0.0169220
900.088	0.0170116
900.166	0.0168816
900.244	0.0169254
900.322	0.0169119
900.400	0.0167883
900.478	0.0169125
900.557	0.0167418
900.635	0.0169417
900.713	0.0168935
900.791	0.0168849
900.869	0.0170098
900.947	0.0169617
901.025	0.0169887
901.103	0.0168105
901.182	0.0168988
901.260	0.0170837
901.338	0.0170633
901.416	0.0170919
901.494	0.0171678
901.572	0.0171154
901.650	0.0170640
901.728	0.0171856
901.807	0.0169581
901.885	0.0169409
901.963	0.0169911
902.041	0.0171140
902.119	0.0168555
902.197	0.0170138
902.275	0.0169376
902.353	0.0169094
902.432	0.0170499
902.510	0.0170486
902.588	0.0170129
902.666	0.0169781
902.744	0.0169473
902.822	0.0170199
902.900	0.0168935
902.978	0.0170403
903.057	0.0170412
903.135	0.0171256
903.213	0.0169633
903.291	0.0170907
903.369	0.0170572
903.447	0.0169852
903.525	0.0169598
903.603	0.0168838
903.682	0.0170735
903.760	0.0170202
903.838	0.0169672
903.916	0.0170280
903.994	0.0170547
904.072	0.0171176
904.150	0.0169276
904.228	0.0169093
904.307	0.0169156
904.385	0.0169570
904.463	0.0169839
904.541	0.0170293
904.619	0.0168250
904.697	0.0169141
904.775	0.0168763
904.853	0.0169885
904.932	0.0169589
905.010	0.0168989
905.088	0.0169419
905.166	0.0169064
905.244	0.0169234
905.322	0.0170013
905.400	0.0169037
905.478	0.0169604
905.557	0.0168929
905.635	0.0169642
905.713	0.0169066
905.791	0.0168653
905.869	0.0170407
905.947	0.0168997
906.025	0.0168689
906.103	0.0168984
906.182	0.0168842
906.260	0.0169169
906.338	0.0169035
906.416	0.0168822
906.494	0.0169692
906.572	0.0169871
906.650	0.0169361
906.728	0.0168659
906.807	0.0168520
906.885	0.0170071
906.963	0.0170256
907.041	0.0169215
907.119	0.0169793
907.197	0.0169611
907.275	0.0170058
907.353	0.0168953
907.432	0.0169726
907.510	0.0170556
907.588	0.0170168
907.666	0.0169725
907.744	0.0168436
907.822	0.0170472
907.900	0.0168983
907.978	0.0168584
908.057	0.0168598
908.135	0.0168311
908.213	0.0169416
908.291	0.0170307
908.369	0.0169976
908.447	0.0169659
908.525	0.0170796
908.603	0.0171586
908.682	0.0171101
908.760	0.0171884
908.838	0.0171510
908.916	0.0172413
908.994	0.0172524
909.072	0.0171717
909.150	0.0172704
909.228	0.0172543
909.307	0.0171467
909.385	0.0172600
909.463	0.0171801
909.541	0.0173527
909.619	0.0173070
909.697	0.0172440
909.775	0.0172861
909.853	0.0173035
909.932	0.0172215
910.010	0.0172527
910.088	0.0172353
910.166	0.0171886
910.244	0.0172523
910.322	0.0171631
910.400	0.0172188
910.478	0.0171232
910.557	0.0170180
910.635	0.0169952
910.713	0.0169305
910.791	0.0169379
910.869	0.0169841
910.947	0.0170126
911.025	0.0169633
911.103	0.0167403
911.182	0.0169790
911.260	0.0168713
911.338	0.0168848
911.416	0.0168314
911.494	0.0169191
911.572	0.0169279
911.650	0.0168398
911.728	0.0166653
911.807	0.0169047
911.885	0.0169048
911.963	0.0169199
912.041	0.0167204
912.119	0.0169719
912.197	0.0170734
912.275	0.0170800
912.353	0.0170093
912.432	0.0169778
912.510	0.0169993
912.588	0.0169570
912.666	0.0169203
912.744	0.0169210
912.822	0.0170338
912.900	0.0169226
912.978	0.0170365
913.057	0.0168699
913.135	0.0169656
913.213	0.0169456
913.291	0.0168536
913.369	0.0169293
913.447	0.0171124
913.525	0.0170807
913.603	0.0170253
913.682	0.0169329
913.760	0.0170393
913.838	0.0171879
913.916	0.0171703
913.994	0.0171371
914.072	0.0171492
914.150	0.0170905
914.228	0.0172697
914.307	0.0172985
914.385	0.0172379
914.463	0.0172576
914.541	0.0171709
914.619	0.0173408
914.697	0.0173375
914.775	0.0174393
914.853	0.0174292
914.932	0.0173190
915.010	0.0174290
915.088	0.0175441
915.166	0.0174861
915.244	0.0174314
915.322	0.0175980
915.400	0.0174792
915.478	0.0173666
915.557	0.0174738
915.635	0.0173261
915.713	0.0173011
915.791	0.0173098
915.869	0.0171828
915.947	0.0172261
916.025	0.0172153
916.103	0.0173926
916.182	0.0172103
916.260	0.0171348
916.338	0.0170660
916.416	0.0170619
916.494	0.0170068
916.572	0.0168851
916.650	0.0169979
916.728	0.0169720
916.807	0.0170264
916.885	0.0170971
916.963	0.0169855
917.041	0.0170325
917.119	0.0169978
917.197	0.0170388
917.275	0.0170499
917.353	0.0169366
917.432	0.0169088
917.510	0.0169769
917.588	0.0170103
917.666	0.0170479
917.744	0.0171394
917.822	0.0171232
917.900	0.0169342
917.978	0.0168649
918.057	0.0170267
918.135	0.0169570
918.213	0.0170210
918.291	0.0170664
918.369	0.0169337
918.447	0.0169611
918.525	0.0171132
918.603	0.0170044
918.682	0.0170827
918.760	0.0169860
918.838	0.0170767
918.916	0.0170872
918.994	0.0169422
919.072	0.0170281
919.150	0.0169971
919.228	0.0171198
919.307	0.0171896
919.385	0.0171829
919.463	0.0173103
919.541	0.0173505
919.619	0.0172527
919.697	0.0172555
919.775	0.0173215
919.853	0.0174373
919.932	0.0173548
920.010	0.0174323
920.088	0.0173738
920.166	0.0172560
920.244	0.0171333
920.322	0.0172933
920.400	0.0171749
920.478	0.0172198
920.557	0.0171253
920.635	0.0172496
920.713	0.0173216
920.791	0.0172928
920.869	0.0171210
920.947	0.0172447
921.025	0.0171407
921.103	0.0172056
921.182	0.0172131
921.260	0.0171961
921.338	0.0170878
921.416	0.0171759
921.494	0.0172180
921.572	0.0171886
921.650	0.0171614
921.728	0.0171998
921.807	0.0172629
921.885	0.0172408
921.963	0.0172705
922.041	0.0171988
922.119	0.0172082
922.197	0.0171146
922.275	0.0173024
922.353	0.0171891
922.432	0.0173112
922.510	0.0172787
922.588	0.0171605
922.666	0.0171606
922.744	0.0171671
922.822	0.0171662
922.900	0.0172157
922.978	0.0170457
923.057	0.0170537
923.135	0.0170363
923.213	0.0169254
923.291	0.0168735
923.369	0.0168485
923.447	0.0169567
923.525	0.0168942
923.603	0.0167954
923.682	0.0168573
923.760	0.0169185
923.838	0.0168087
923.916	0.0169504
923.994	0.0169987
924.072	0.0170757
924.150	0.0169593
924.228	0.0170611
924.307	0.0169588
924.385	0.0170780
924.463	0.0171315
924.541	0.0170978
924.619	0.0171071
924.697	0.0170672
924.775	0.0170995
924.853	0.0170396
924.932	0.0170535
925.010	0.0170072
925.088	0.0169881
925.166	0.0170488
925.244	0.0170791
925.322	0.0171969
925.400	0.0171261
925.478	0.0171458
925.557	0.0171497
925.635	0.0171541
925.713	0.0170532
925.791	0.0170559
925.869	0.0171693
925.947	0.0171317
926.025	0.0171506
926.103	0.0171517
926.182	0.0171529
926.260	0.0170384
926.338	0.0172664
926.416	0.0172728
926.494	0.0170489
926.572	0.0171964
926.650	0.0171844
926.728	0.0172868
926.807	0.0170623
926.885	0.0171767
926.963	0.0171851
927.041	0.0172552
927.119	0.0173132
927.197	0.0173976
927.275	0.0171208
927.353	0.0172115
927.432	0.0173250
927.510	0.0173309
927.588	0.0172646
927.666	0.0171922
927.744	0.0171830
927.822	0.0173235
927.900	0.0171857
927.978	0.0170274
928.057	0.0170375
928.135	0.0171220
928.213	0.0169979
928.291	0.0170824
928.369	0.0171420
928.447	0.0169473
928.525	0.0170773
928.603	0.0170121
928.682	0.0170145
928.760	0.0171004
928.838	0.0171171
928.916	0.0170768
928.994	0.0171704
929.072	0.0171849
929.150	0.0172617
929.228	0.0172601
929.307	0.0174029
929.385	0.0171956
929.463	0.0172458
929.541	0.0172947
929.619	0.0171887
929.697	0.0172369
929.775	0.0172274
929.853	0.0172235
929.932	0.0171435
930.010	0.0171388
930.088	0.0170891
930.166	0.0171730
930.244	0.0171237
930.322	0.0170706
930.400	0.0170905
930.478	0.0170702
930.557	0.0170300
930.635	0.0168680
930.713	0.0169070
930.791	0.0169154
930.869	0.0168974
930.947	0.0168830
931.025	0.0168230
931.103	0.0168387
931.182	0.0168716
931.260	0.0169381
931.338	0.0168869
931.416	0.0168428
931.494	0.0168914
931.572	0.0169301
931.650	0.0169170
931.728	0.0170624
931.807	0.0169781
931.885	0.0170061
931.963	0.0171392
932.041	0.0170051
932.119	0.0171323
932.197	0.0171919
932.275	0.0171496
932.353	0.0170107
932.432	0.0170005
932.510	0.0171759
932.588	0.0171112
932.666	0.0171886
932.744	0.0169970
932.822	0.0170224
932.900	0.0170507
932.978	0.0169754
933.057	0.0170340
933.135	0.0171476
933.213	0.0170496
933.291	0.0171296
933.369	0.0170942
933.447	0.0171297
933.525	0.0171539
933.603	0.0172453
933.682	0.0171851
933.760	0.0171613
933.838	0.0171636
933.916	0.0171712
933.994	0.0171407
934.072	0.0172076
934.150	0.0171935
934.228	0.0172329
934.307	0.0173534
934.385	0.0172708
934.463	0.0172744
934.541	0.0171381
934.619	0.0171244
934.697	0.0170997
934.775	0.0173067
934.853	0.0171422
934.932	0.0170697
935.010	0.0171321
935.088	0.0171665
935.166	0.0171211
935.244	0.0170522
935.322	0.0169656
935.400	0.0171451
935.478	0.0170517
935.557	0.0169563
935.635	0.0168954
935.713	0.0170504
935.791	0.0170920
935.869	0.0170971
935.947	0.0168836
936.025	0.0169509
936.103	0.0170736
936.182	0.0170290
936.260	0.0171907
936.338	0.0170026
936.416	0.0169295
936.494	0.0169720
936.572	0.0170130
936.650	0.0170111
936.728	0.0169169
936.807	0.0169426
936.885	0.0169433
936.963	0.0170258
937.041	0.0169882
937.119	0.0169624
937.197	0.0169096
937.275	0.0168919
937.353	0.0167793
937.432	0.0169492
937.510	0.0169220
937.588	0.0168835
937.666	0.0169653
937.744	0.0169312
937.822	0.0170307
937.900	0.0169623
937.978	0.0169797
938.057	0.0170286
938.135	0.0169389
938.213	0.0170471
938.291	0.0170202
938.369	0.0170451
938.447	0.0171538
938.525	0.0171043
938.603	0.0170205
938.682	0.0170719
938.760	0.0170366
938.838	0.0171185
938.916	0.0171680
938.994	0.0171258
939.072	0.0170657
939.150	0.0171793
939.228	0.0171088
939.307	0.0170347
939.385	0.0170683
939.463	0.0171272
939.541	0.0170435
939.619	0.0170556
939.697	0.0170060
939.775	0.0170335
939.853	0.0169013
939.932	0.0170808
940.010	0.0171095
940.088	0.0168929
940.166	0.0170712
940.244	0.0170927
940.322	0.0171319
940.400	0.0171002
940.478	0.0171999
940.557	0.0171543
940.635	0.0171282
940.713	0.0171357
940.791	0.0170945
940.869	0.0172646
940.947	0.0171905
941.025	0.0171033
941.103	0.0172791
941.182	0.0170954
941.260	0.0172252
941.338	0.0171758
941.416	0.0171708
941.494	0.0170593
941.572	0.0169864
941.650	0.0171000
941.728	0.0170455
941.807	0.0170715
941.885	0.0170084
941.963	0.0170355
942.041	0.0170126
942.119	0.0169854
942.197	0.0170670
942.275	0.0170463
942.353	0.0170077
942.432	0.0170757
942.510	0.0169888
942.588	0.0171156
942.666	0.0170886
942.744	0.0170829
942.822	0.0170416
942.900	0.0172308
942.978	0.0173135
943.057	0.0173598
943.135	0.0171712
943.213	0.0171176
943.291	0.0171574
943.369	0.0171001
943.447	0.0170830
943.525	0.0170966
943.603	0.0171068
943.682	0.0171483
943.760	0.0170682
943.838	0.0170573
943.916	0.0169348
943.994	0.0170576
944.072	0.0170409
944.150	0.0170161
944.228	0.0169817
944.307	0.0170824
944.385	0.0169897
944.463	0.0170503
944.541	0.0171323
944.619	0.0171719
944.697	0.0171901
944.775	0.0170173
944.853	0.0172305
944.932	0.0173363
945.010	0.0173045
945.088	0.0173666
945.166	0.0174045
945.244	0.0173306
945.322	0.0172614
945.400	0.0173273
945.478	0.0173532
945.557	0.0172821
945.635	0.0173292
945.713	0.0172649
945.791	0.0174762
945.869	0.0174036
945.947	0.0172846
946.025	0.0172878
946.103	0.0172841
946.182	0.0173582
946.260	0.0172543
946.338	0.0171611
946.416	0.0170674
946.494	0.0171994
946.572	0.0170523
946.650	0.0169955
946.728	0.0171368
946.807	0.0171957
946.885	0.0172036
946.963	0.0171207
947.041	0.0170721
947.119	0.0170210
947.197	0.0170635
947.275	0.0170420
947.353	0.0170037
947.432	0.0171058
947.510	0.0170496
947.588	0.0171005
947.666	0.0170273
947.744	0.0169991
947.822	0.0170640
947.900	0.0170163
947.978	0.0170412
948.057	0.0171311
948.135	0.0170865
948.213	0.0170033
948.291	0.0170728
948.369	0.0171045
948.447	0.0170177
948.525	0.0171813
948.603	0.0170986
948.682	0.0170692
948.760	0.0169567
948.838	0.0170547
948.916	0.0170984
948.994	0.0170580
949.072	0.0169706
949.150	0.0170351
949.228	0.0172345
949.307	0.0171733
949.385	0.0171252
949.463	0.0171230
949.541	0.0171963
949.619	0.0171432
949.697	0.0171576
949.775	0.0171302
949.853	0.0169271
949.932	0.0171508
950.010	0.0171661
950.088	0.0171938
950.166	0.0173363
950.244	0.0171795
950.322	0.0170609
950.400	0.0171941
950.478	0.0169667
950.557	0.0171226
950.635	0.0171371
950.713	0.0170815
950.791	0.0171020
950.869	0.0171870
950.947	0.0171842
951.025	0.0172458
951.103	0.0171144
951.182	0.0172923
951.260	0.0171722
951.338	0.0172780
951.416	0.0171094
951.494	0.0173044
951.572	0.0172700
951.650	0.0172159
951.728	0.0171337
951.807	0.0170569
951.885	0.0172798
951.963	0.0171832
952.041	0.0172391
952.119	0.0172575
952.197	0.0171992
952.275	0.0171866
952.353	0.0172716
952.432	0.0171362
952.510	0.0171600
952.588	0.0171092
952.666	0.0171056
952.744	0.0170326
952.822	0.0170636
952.900	0.0170464
952.978	0.0170200
953.057	0.0170718
953.135	0.0170547
953.213	0.0169810
953.291	0.0168895
953.369	0.0169400
953.447	0.0169063
953.525	0.0169790
953.603	0.0170766
953.682	0.0170396
953.760	0.0171772
953.838	0.0170965
953.916	0.0170471
953.994	0.0171389
954.072	0.0169846
954.150	0.0168789
954.228	0.0171015
954.307	0.0170758
954.385	0.0169534
954.463	0.0169916
954.541	0.0171069
954.619	0.0170971
954.697	0.0170355
954.775	0.0169447
954.853	0.0170238
954.932	0.0171654
955.010	0.0171246
955.088	0.0170800
955.166	0.0171222
955.244	0.0170488
955.322	0.0170060
955.400	0.0171122
955.478	0.0171015
955.557	0.0171434
955.635	0.0172154
955.713	0.0171844
955.791	0.0171834
955.869	0.0172134
955.947	0.0171255
956.025	0.0170521
956.103	0.0171023
956.182	0.0171848
956.260	0.0170322
956.338	0.0170007
956.416	0.0170619
956.494	0.0171364
956.572	0.0170374
956.650	0.0171854
956.728	0.0171991
956.807	0.0169704
956.885	0.0171342
956.963	0.0170022
957.041	0.0170406
957.119	0.0170753
957.197	0.0170602
957.275	0.0168846
957.353	0.0170216
957.432	0.0170802
957.510	0.0170835
957.588	0.0171150
957.666	0.0169177
957.744	0.0169708
957.822	0.0170925
957.900	0.0169798
957.978	0.0169989
958.057	0.0170677
958.135	0.0170941
958.213	0.0169747
958.291	0.0169091
958.369	0.0168143
958.447	0.0169531
958.525	0.0169913
958.603	0.0169930
958.682	0.0169797
958.760	0.0169740
958.838	0.0169685
958.916	0.0169815
958.994	0.0169253
959.072	0.0170807
959.150	0.0169978
959.228	0.0169909
959.307	0.0169815
959.385	0.0170394
959.463	0.0169883
959.541	0.0169575
959.619	0.0170044
959.697	0.0170577
959.775	0.0170920
959.853	0.0170148
959.932	0.0171135
960.010	0.0171385
960.088	0.0171870
960.166	0.0170140
960.244	0.0170667
960.322	0.0170874
960.400	0.0170656
960.478	0.0171844
960.557	0.0169354
960.635	0.0169452
960.713	0.0168670
960.791	0.0169265
960.869	0.0170280
960.947	0.0169866
961.025	0.0169526
961.103	0.0169343
961.182	0.0170560
961.260	0.0169720
961.338	0.0171056
961.416	0.0169259
961.494	0.0169186
961.572	0.0169875
961.650	0.0170653
961.728	0.0170625
961.807	0.0170427
961.885	0.0170681
961.963	0.0169401
962.041	0.0168369
962.119	0.0168738
962.197	0.0167860
962.275	0.0167796
962.353	0.0168360
962.432	0.0167484
962.510	0.0169015
962.588	0.0169355
962.666	0.0168484
962.744	0.0168858
962.822	0.0169139
962.900	0.0169157
962.978	0.0169153
963.057	0.0169751
963.135	0.0170685
963.213	0.0171563
963.291	0.0170974
963.369	0.0169131
963.447	0.0170435
963.525	0.0170576
963.603	0.0169462
963.682	0.0170608
963.760	0.0170023
963.838	0.0169800
963.916	0.0170461
963.994	0.0171048
964.072	0.0169530
964.150	0.0169926
964.228	0.0171051
964.307	0.0170307
964.385	0.0169093
964.463	0.0168362
964.541	0.0169731
964.619	0.0168945
964.697	0.0168914
964.775	0.0170223
964.853	0.0169016
964.932	0.0169707
965.010	0.0169463
965.088	0.0168804
965.166	0.0168438
965.244	0.0168353
965.322	0.0169984
965.400	0.0169259
965.478	0.0169350
965.557	0.0171017
965.635	0.0170402
965.713	0.0171097
965.791	0.0171373
965.869	0.0171710
965.947	0.0171875
966.025	0.0172952
966.103	0.0172800
966.182	0.0172211
966.260	0.0171509
966.338	0.0171030
966.416	0.0171972
966.494	0.0170425
966.572	0.0170858
966.650	0.0170836
966.728	0.0169135
966.807	0.0169265
966.885	0.0170259
966.963	0.0169025
967.041	0.0168140
967.119	0.0170103
967.197	0.0169753
967.275	0.0168600
967.353	0.0168602
967.432	0.0169109
967.510	0.0169106
967.588	0.0170790
967.666	0.0169988
967.744	0.0169824
967.822	0.0169905
967.900	0.0170873
967.978	0.0171584
968.057	0.0171903
968.135	0.0170464
968.213	0.0171407
968.291	0.0170478
968.369	0.0170943
968.447	0.0171019
968.525	0.0171427
968.603	0.0170530
968.682	0.0169642
968.760	0.0170113
968.838	0.0170388
968.916	0.0169941
968.994	0.0168378
969.072	0.0168803
969.150	0.0169385
969.228	0.0168595
969.307	0.0169792
969.385	0.0168444
969.463	0.0169205
969.541	0.0170168
969.619	0.0169550
969.697	0.0169007
969.775	0.0170630
969.853	0.0170753
969.932	0.0169625
