06/10/2022	16:30:53	Ver.	4.1	UNKNOWN
Optical Delay	650.009681	Delta X		0.078125	Sweeps	1	Scan Rate	0/0
Coordinates	Axis 1	NaN	Axis 2	NaN	Axis 3	NaN	Axis 4	NaN	Axis 5	NaN	Axis 6	0.000000
TX Power	0.000000	RX Power	0.000000

650.010	0.0167240
650.088	0.0168192
650.166	0.0167460
650.244	0.0167568
650.322	0.0167482
650.400	0.0168341
650.478	0.0168662
650.557	0.0168444
650.635	0.0168813
650.713	0.0167017
650.791	0.0167946
650.869	0.0169160
650.947	0.0167633
651.025	0.0167788
651.103	0.0168856
651.182	0.0168344
651.260	0.0168225
651.338	0.0167713
651.416	0.0168830
651.494	0.0168744
651.572	0.0167457
651.650	0.0168346
651.728	0.0168813
651.807	0.0169164
651.885	0.0168684
651.963	0.0167242
652.041	0.0168293
652.119	0.0167730
652.197	0.0168475
652.275	0.0167891
652.353	0.0168895
652.432	0.0167236
652.510	0.0167572
652.588	0.0167512
652.666	0.0169101
652.744	0.0167075
652.822	0.0167377
652.900	0.0167544
652.978	0.0168159
653.057	0.0166618
653.135	0.0168111
653.213	0.0167897
653.291	0.0167707
653.369	0.0167798
653.447	0.0168551
653.525	0.0169434
653.603	0.0167241
653.682	0.0167101
653.760	0.0168948
653.838	0.0169242
653.916	0.0168211
653.994	0.0167359
654.072	0.0168764
654.150	0.0167444
654.228	0.0166770
654.307	0.0168162
654.385	0.0168787
654.463	0.0168631
654.541	0.0166850
654.619	0.0167463
654.697	0.0167012
654.775	0.0167518
654.853	0.0167464
654.932	0.0166181
655.010	0.0166744
655.088	0.0166743
655.166	0.0166235
655.244	0.0166146
655.322	0.0167085
655.400	0.0167596
655.478	0.0165517
655.557	0.0166263
655.635	0.0166579
655.713	0.0166695
655.791	0.0167776
655.869	0.0167020
655.947	0.0165977
656.025	0.0165341
656.103	0.0165232
656.182	0.0166768
656.260	0.0166281
656.338	0.0166956
656.416	0.0166469
656.494	0.0165533
656.572	0.0165633
656.650	0.0166665
656.728	0.0167355
656.807	0.0167123
656.885	0.0167393
656.963	0.0166750
657.041	0.0168022
657.119	0.0165901
657.197	0.0166369
657.275	0.0166744
657.353	0.0169047
657.432	0.0167921
657.510	0.0166421
657.588	0.0167178
657.666	0.0167657
657.744	0.0166715
657.822	0.0167995
657.900	0.0168038
657.978	0.0168173
658.057	0.0166301
658.135	0.0167572
658.213	0.0166674
658.291	0.0166969
658.369	0.0167709
658.447	0.0166638
658.525	0.0168941
658.603	0.0168315
658.682	0.0166595
658.760	0.0167021
658.838	0.0166984
658.916	0.0167025
658.994	0.0167830
659.072	0.0166616
659.150	0.0168106
659.228	0.0168161
659.307	0.0167420
659.385	0.0168312
659.463	0.0166892
659.541	0.0167600
659.619	0.0167922
659.697	0.0167918
659.775	0.0166959
659.853	0.0167081
659.932	0.0167815
660.010	0.0167231
660.088	0.0167788
660.166	0.0167609
660.244	0.0167500
660.322	0.0168367
660.400	0.0166457
660.478	0.0166563
660.557	0.0166385
660.635	0.0167116
660.713	0.0167641
660.791	0.0166666
660.869	0.0165237
660.947	0.0166829
661.025	0.0167899
661.103	0.0165633
661.182	0.0166779
661.260	0.0166425
661.338	0.0166330
661.416	0.0167351
661.494	0.0167268
661.572	0.0166485
661.650	0.0165884
661.728	0.0166285
661.807	0.0166856
661.885	0.0167334
661.963	0.0167959
662.041	0.0166109
662.119	0.0165858
662.197	0.0167552
662.275	0.0165334
662.353	0.0165759
662.432	0.0168287
662.510	0.0166976
662.588	0.0166739
662.666	0.0166925
662.744	0.0167250
662.822	0.0165129
662.900	0.0165758
662.978	0.0166734
663.057	0.0167193
663.135	0.0166611
663.213	0.0166412
663.291	0.0167557
663.369	0.0167670
663.447	0.0166261
663.525	0.0166824
663.603	0.0166476
663.682	0.0166417
663.760	0.0166087
663.838	0.0168384
663.916	0.0167545
663.994	0.0167459
664.072	0.0167217
664.150	0.0165355
664.228	0.0165737
664.307	0.0166774
664.385	0.0168103
664.463	0.0168204
664.541	0.0168313
664.619	0.0167558
664.697	0.0168405
664.775	0.0168355
664.853	0.0166890
664.932	0.0167220
665.010	0.0167136
665.088	0.0167352
665.166	0.0167359
665.244	0.0167632
665.322	0.0167901
665.400	0.0167480
665.478	0.0166956
665.557	0.0168122
665.635	0.0167962
665.713	0.0167629
665.791	0.0166782
665.869	0.0168413
665.947	0.0168080
666.025	0.0167435
666.103	0.0167725
666.182	0.0167018
666.260	0.0167570
666.338	0.0167808
666.416	0.0169778
666.494	0.0167786
666.572	0.0169251
666.650	0.0167996
666.728	0.0167989
666.807	0.0168190
666.885	0.0167235
666.963	0.0168069
667.041	0.0167998
667.119	0.0168366
667.197	0.0168399
667.275	0.0168181
667.353	0.0169475
667.432	0.0167513
667.510	0.0169186
667.588	0.0166441
667.666	0.0167952
667.744	0.0169592
667.822	0.0166525
667.900	0.0167634
667.978	0.0168524
668.057	0.0168117
668.135	0.0166879
668.213	0.0166805
668.291	0.0167509
668.369	0.0168354
668.447	0.0168116
668.525	0.0168147
668.603	0.0167374
668.682	0.0168877
668.760	0.0168095
668.838	0.0166746
668.916	0.0169100
668.994	0.0168471
669.072	0.0168080
669.150	0.0167547
669.228	0.0167930
669.307	0.0167735
669.385	0.0166075
669.463	0.0166306
669.541	0.0168021
669.619	0.0167656
669.697	0.0166893
669.775	0.0168459
669.853	0.0168032
669.932	0.0167228
670.010	0.0169067
670.088	0.0167657
670.166	0.0167014
670.244	0.0167936
670.322	0.0168332
670.400	0.0168317
670.478	0.0169259
670.557	0.0167734
670.635	0.0167088
670.713	0.0168781
670.791	0.0169630
670.869	0.0166618
670.947	0.0167484
671.025	0.0168989
671.103	0.0167011
671.182	0.0167676
671.260	0.0166896
671.338	0.0167801
671.416	0.0167992
671.494	0.0168130
671.572	0.0168309
671.650	0.0167226
671.728	0.0168668
671.807	0.0167191
671.885	0.0167850
671.963	0.0167615
672.041	0.0167431
672.119	0.0167707
672.197	0.0167825
672.275	0.0167513
672.353	0.0167535
672.432	0.0167839
672.510	0.0167073
672.588	0.0167642
672.666	0.0167087
672.744	0.0166998
672.822	0.0167715
672.900	0.0168276
672.978	0.0167638
673.057	0.0166637
673.135	0.0166544
673.213	0.0166893
673.291	0.0167997
673.369	0.0168709
673.447	0.0167338
673.525	0.0166002
673.603	0.0166738
673.682	0.0167944
673.760	0.0167603
673.838	0.0167275
673.916	0.0166061
673.994	0.0168212
674.072	0.0168835
674.150	0.0166009
674.228	0.0167574
674.307	0.0167269
674.385	0.0166600
674.463	0.0167034
674.541	0.0166835
674.619	0.0168356
674.697	0.0167802
674.775	0.0165726
674.853	0.0167669
674.932	0.0166541
675.010	0.0166743
675.088	0.0166508
675.166	0.0167451
675.244	0.0168186
675.322	0.0168034
675.400	0.0166745
675.478	0.0166720
675.557	0.0167274
675.635	0.0167025
675.713	0.0167395
675.791	0.0167090
675.869	0.0166615
675.947	0.0167532
676.025	0.0167242
676.103	0.0165848
676.182	0.0166936
676.260	0.0166605
676.338	0.0166774
676.416	0.0167700
676.494	0.0166087
676.572	0.0166572
676.650	0.0166759
676.728	0.0167468
676.807	0.0167443
676.885	0.0165614
676.963	0.0166756
677.041	0.0166085
677.119	0.0166408
677.197	0.0166534
677.275	0.0166415
677.353	0.0166729
677.432	0.0167345
677.510	0.0167761
677.588	0.0166185
677.666	0.0167833
677.744	0.0166944
677.822	0.0166766
677.900	0.0166315
677.978	0.0166871
678.057	0.0166744
678.135	0.0166821
678.213	0.0166780
678.291	0.0167623
678.369	0.0168912
678.447	0.0165383
678.525	0.0166528
678.603	0.0168320
678.682	0.0166389
678.760	0.0166654
678.838	0.0167885
678.916	0.0167358
678.994	0.0168018
679.072	0.0167057
679.150	0.0166687
679.228	0.0165884
679.307	0.0168423
679.385	0.0166877
679.463	0.0168343
679.541	0.0167319
679.619	0.0166872
679.697	0.0166804
679.775	0.0166915
679.853	0.0168165
679.932	0.0166989
680.010	0.0166183
680.088	0.0166782
680.166	0.0166523
680.244	0.0166985
680.322	0.0167662
680.400	0.0166997
680.478	0.0167322
680.557	0.0168073
680.635	0.0167028
680.713	0.0166398
680.791	0.0168175
680.869	0.0166969
680.947	0.0166842
681.025	0.0167378
681.103	0.0168642
681.182	0.0167339
681.260	0.0167724
681.338	0.0166310
681.416	0.0165973
681.494	0.0167628
681.572	0.0168576
681.650	0.0166962
681.728	0.0165472
681.807	0.0167979
681.885	0.0168147
681.963	0.0167101
682.041	0.0166621
682.119	0.0166609
682.197	0.0168158
682.275	0.0167715
682.353	0.0168443
682.432	0.0166911
682.510	0.0166335
682.588	0.0168462
682.666	0.0166836
682.744	0.0167602
682.822	0.0167576
682.900	0.0167335
682.978	0.0167817
683.057	0.0167937
683.135	0.0167102
683.213	0.0168565
683.291	0.0168800
683.369	0.0169244
683.447	0.0167628
683.525	0.0168283
683.603	0.0167107
683.682	0.0168500
683.760	0.0167357
683.838	0.0167154
683.916	0.0166939
683.994	0.0166364
684.072	0.0167619
684.150	0.0167318
684.228	0.0167226
684.307	0.0167922
684.385	0.0168265
684.463	0.0166491
684.541	0.0166643
684.619	0.0168190
684.697	0.0167979
684.775	0.0166595
684.853	0.0167915
684.932	0.0167783
685.010	0.0168016
685.088	0.0167867
685.166	0.0167567
685.244	0.0168872
685.322	0.0166797
685.400	0.0166631
685.478	0.0166904
685.557	0.0168179
685.635	0.0167261
685.713	0.0166222
685.791	0.0166727
685.869	0.0168228
685.947	0.0166172
686.025	0.0166866
686.103	0.0167705
686.182	0.0169190
686.260	0.0167788
686.338	0.0167535
686.416	0.0167262
686.494	0.0166605
686.572	0.0166720
686.650	0.0167369
686.728	0.0168515
686.807	0.0167355
686.885	0.0166586
686.963	0.0168121
687.041	0.0167760
687.119	0.0166917
687.197	0.0167191
687.275	0.0168079
687.353	0.0168096
687.432	0.0167574
687.510	0.0166832
687.588	0.0167147
687.666	0.0166647
687.744	0.0167217
687.822	0.0168092
687.900	0.0167103
687.978	0.0166102
688.057	0.0167250
688.135	0.0167396
688.213	0.0167675
688.291	0.0166113
688.369	0.0167020
688.447	0.0167403
688.525	0.0166227
688.603	0.0166631
688.682	0.0168628
688.760	0.0167641
688.838	0.0166936
688.916	0.0166842
688.994	0.0168272
689.072	0.0167404
689.150	0.0167221
689.228	0.0167386
689.307	0.0168890
689.385	0.0168494
689.463	0.0167796
689.541	0.0167616
689.619	0.0166879
689.697	0.0169109
689.775	0.0167599
689.853	0.0166890
689.932	0.0167635
690.010	0.0167225
690.088	0.0167729
690.166	0.0168862
690.244	0.0167507
690.322	0.0168820
690.400	0.0168268
690.478	0.0167916
690.557	0.0167632
690.635	0.0166946
690.713	0.0167681
690.791	0.0168904
690.869	0.0166707
690.947	0.0167570
691.025	0.0167452
691.103	0.0167924
691.182	0.0168330
691.260	0.0169431
691.338	0.0167793
691.416	0.0166994
691.494	0.0167263
691.572	0.0168195
691.650	0.0167105
691.728	0.0166660
691.807	0.0168530
691.885	0.0168488
691.963	0.0168497
692.041	0.0166099
692.119	0.0167944
692.197	0.0167919
692.275	0.0166805
692.353	0.0168361
692.432	0.0168412
692.510	0.0167307
692.588	0.0167811
692.666	0.0167069
692.744	0.0168695
692.822	0.0168397
692.900	0.0168011
692.978	0.0168069
693.057	0.0167394
693.135	0.0167339
693.213	0.0166893
693.291	0.0168297
693.369	0.0167230
693.447	0.0168156
693.525	0.0168396
693.603	0.0168814
693.682	0.0166180
693.760	0.0166200
693.838	0.0167087
693.916	0.0167785
693.994	0.0167618
694.072	0.0167918
694.150	0.0166322
694.228	0.0166827
694.307	0.0166641
694.385	0.0168419
694.463	0.0166801
694.541	0.0166505
694.619	0.0166982
694.697	0.0167599
694.775	0.0167872
694.853	0.0167769
694.932	0.0166822
695.010	0.0166853
695.088	0.0167910
695.166	0.0166341
695.244	0.0166870
695.322	0.0167534
695.400	0.0165046
695.478	0.0166705
695.557	0.0167351
695.635	0.0166899
695.713	0.0166691
695.791	0.0166870
695.869	0.0166585
695.947	0.0168056
696.025	0.0164967
696.103	0.0166232
696.182	0.0166969
696.260	0.0167294
696.338	0.0167182
696.416	0.0167165
696.494	0.0165908
696.572	0.0164543
696.650	0.0166212
696.728	0.0165835
696.807	0.0166695
696.885	0.0165831
696.963	0.0165865
697.041	0.0168145
697.119	0.0167741
697.197	0.0167337
697.275	0.0166261
697.353	0.0167310
697.432	0.0166137
697.510	0.0166617
697.588	0.0165981
697.666	0.0167326
697.744	0.0167487
697.822	0.0166569
697.900	0.0165271
697.978	0.0165771
698.057	0.0165861
698.135	0.0166161
698.213	0.0166087
698.291	0.0167195
698.369	0.0166983
698.447	0.0167246
698.525	0.0165832
698.603	0.0165426
698.682	0.0166840
698.760	0.0166980
698.838	0.0167180
698.916	0.0167331
698.994	0.0167528
699.072	0.0166918
699.150	0.0167383
699.228	0.0166879
699.307	0.0166801
699.385	0.0167403
699.463	0.0165889
699.541	0.0166631
699.619	0.0166850
699.697	0.0166754
699.775	0.0168150
699.853	0.0165829
699.932	0.0167355
700.010	0.0166611
700.088	0.0167658
700.166	0.0167323
700.244	0.0166717
700.322	0.0166293
700.400	0.0168798
700.478	0.0168909
700.557	0.0167237
700.635	0.0167480
700.713	0.0166345
700.791	0.0166763
700.869	0.0167229
700.947	0.0167579
701.025	0.0166365
701.103	0.0165874
701.182	0.0167455
701.260	0.0167361
701.338	0.0166669
701.416	0.0166478
701.494	0.0165991
701.572	0.0167548
701.650	0.0167158
701.728	0.0168507
701.807	0.0166849
701.885	0.0166840
701.963	0.0167368
702.041	0.0167953
702.119	0.0167559
702.197	0.0166698
702.275	0.0166698
702.353	0.0166112
702.432	0.0168658
702.510	0.0168586
702.588	0.0167429
702.666	0.0166833
702.744	0.0167141
702.822	0.0167103
702.900	0.0167914
702.978	0.0167484
703.057	0.0166894
703.135	0.0166605
703.213	0.0167542
703.291	0.0168444
703.369	0.0168114
703.447	0.0167986
703.525	0.0167689
703.603	0.0167770
703.682	0.0167879
703.760	0.0168185
703.838	0.0167222
703.916	0.0167435
703.994	0.0168887
704.072	0.0167147
704.150	0.0166698
704.228	0.0167622
704.307	0.0167567
704.385	0.0166642
704.463	0.0166811
704.541	0.0167579
704.619	0.0168499
704.697	0.0169048
704.775	0.0166655
704.853	0.0167484
704.932	0.0167419
705.010	0.0168019
705.088	0.0168049
705.166	0.0167036
705.244	0.0166801
705.322	0.0168147
705.400	0.0168311
705.478	0.0166245
705.557	0.0167978
705.635	0.0169471
705.713	0.0166607
705.791	0.0166434
705.869	0.0166479
705.947	0.0169041
706.025	0.0167904
706.103	0.0168166
706.182	0.0166962
706.260	0.0167346
706.338	0.0167941
706.416	0.0167200
706.494	0.0167719
706.572	0.0167180
706.650	0.0165937
706.728	0.0166927
706.807	0.0167397
706.885	0.0167592
706.963	0.0167314
707.041	0.0167632
707.119	0.0167478
707.197	0.0167113
707.275	0.0166174
707.353	0.0166482
707.432	0.0166843
707.510	0.0166724
707.588	0.0168161
707.666	0.0166441
707.744	0.0166755
707.822	0.0167199
707.900	0.0167069
707.978	0.0165321
708.057	0.0165449
708.135	0.0166609
708.213	0.0167060
708.291	0.0167432
708.369	0.0167813
708.447	0.0167264
708.525	0.0166377
708.603	0.0167960
708.682	0.0167302
708.760	0.0169006
708.838	0.0168198
708.916	0.0166930
708.994	0.0167215
709.072	0.0167867
709.150	0.0167008
709.228	0.0166742
709.307	0.0166142
709.385	0.0166770
709.463	0.0168458
709.541	0.0168175
709.619	0.0166768
709.697	0.0165839
709.775	0.0168316
709.853	0.0166212
709.932	0.0168140
710.010	0.0168671
710.088	0.0168393
710.166	0.0166885
710.244	0.0165968
710.322	0.0168115
710.400	0.0166813
710.478	0.0167809
710.557	0.0166833
710.635	0.0167229
710.713	0.0167260
710.791	0.0167223
710.869	0.0166232
710.947	0.0167016
711.025	0.0166457
711.103	0.0165783
711.182	0.0166196
711.260	0.0167623
711.338	0.0165775
711.416	0.0167028
711.494	0.0166605
711.572	0.0167329
711.650	0.0166592
711.728	0.0166918
711.807	0.0166633
711.885	0.0166364
711.963	0.0166863
712.041	0.0166837
712.119	0.0166503
712.197	0.0166586
712.275	0.0167242
712.353	0.0166459
712.432	0.0167319
712.510	0.0166618
712.588	0.0166180
712.666	0.0166876
712.744	0.0167376
712.822	0.0166036
712.900	0.0165003
712.978	0.0166191
713.057	0.0167052
713.135	0.0166257
713.213	0.0165988
713.291	0.0167376
713.369	0.0167323
713.447	0.0166392
713.525	0.0166291
713.603	0.0165884
713.682	0.0167069
713.760	0.0165485
713.838	0.0167402
713.916	0.0167025
713.994	0.0167716
714.072	0.0165967
714.150	0.0166152
714.228	0.0166539
714.307	0.0166239
714.385	0.0166895
714.463	0.0167027
714.541	0.0167221
714.619	0.0167374
714.697	0.0167173
714.775	0.0167742
714.853	0.0166778
714.932	0.0165961
715.010	0.0166271
715.088	0.0166132
715.166	0.0166311
715.244	0.0167502
715.322	0.0166831
715.400	0.0167033
715.478	0.0165146
715.557	0.0168134
715.635	0.0166373
715.713	0.0165345
715.791	0.0167020
715.869	0.0167783
715.947	0.0165668
716.025	0.0167046
716.103	0.0166576
716.182	0.0166528
716.260	0.0165292
716.338	0.0166319
716.416	0.0166396
716.494	0.0166362
716.572	0.0166043
716.650	0.0166940
716.728	0.0168399
716.807	0.0166531
716.885	0.0166424
716.963	0.0167684
717.041	0.0166753
717.119	0.0167986
717.197	0.0168351
717.275	0.0168104
717.353	0.0165734
717.432	0.0166051
717.510	0.0166579
717.588	0.0167039
717.666	0.0166418
717.744	0.0166550
717.822	0.0166685
717.900	0.0165689
717.978	0.0165915
718.057	0.0165195
718.135	0.0165257
718.213	0.0165404
718.291	0.0165372
718.369	0.0165633
718.447	0.0166399
718.525	0.0166546
718.603	0.0167023
718.682	0.0167647
718.760	0.0169952
718.838	0.0169202
718.916	0.0169085
718.994	0.0168689
719.072	0.0170604
719.150	0.0168056
719.228	0.0168188
719.307	0.0166972
719.385	0.0166323
719.463	0.0164618
719.541	0.0164433
719.619	0.0163078
719.697	0.0162840
719.775	0.0162532
719.853	0.0162323
719.932	0.0162450
720.010	0.0163814
720.088	0.0164318
720.166	0.0165670
720.244	0.0166754
720.322	0.0167349
720.400	0.0169674
720.478	0.0170339
720.557	0.0169994
720.635	0.0170830
720.713	0.0170358
720.791	0.0169982
720.869	0.0170160
720.947	0.0169409
721.025	0.0170088
721.103	0.0167837
721.182	0.0168814
721.260	0.0167032
721.338	0.0166782
721.416	0.0166753
721.494	0.0166267
721.572	0.0164272
721.650	0.0165788
721.728	0.0165183
721.807	0.0166598
721.885	0.0165485
721.963	0.0164252
722.041	0.0166785
722.119	0.0165037
722.197	0.0164957
722.275	0.0164658
722.353	0.0164819
722.432	0.0164468
722.510	0.0165267
722.588	0.0164563
722.666	0.0164875
722.744	0.0164971
722.822	0.0164634
722.900	0.0168671
722.978	0.0168021
723.057	0.0170280
723.135	0.0170062
723.213	0.0171737
723.291	0.0170507
723.369	0.0171232
723.447	0.0173310
723.525	0.0172286
723.603	0.0170589
723.682	0.0170390
723.760	0.0169543
723.838	0.0166859
723.916	0.0165427
723.994	0.0163908
724.072	0.0163228
724.150	0.0162169
724.228	0.0161919
724.307	0.0161760
724.385	0.0162024
724.463	0.0161384
724.541	0.0162676
724.619	0.0164845
724.697	0.0164214
724.775	0.0166656
724.853	0.0167770
724.932	0.0169132
725.010	0.0169547
725.088	0.0169501
725.166	0.0171223
725.244	0.0173144
725.322	0.0172607
725.400	0.0170858
725.478	0.0173069
725.557	0.0172289
725.635	0.0173196
725.713	0.0172765
725.791	0.0173285
725.869	0.0171014
725.947	0.0169925
726.025	0.0168680
726.103	0.0167113
726.182	0.0166469
726.260	0.0165593
726.338	0.0165189
726.416	0.0162676
726.494	0.0163873
726.572	0.0161058
726.650	0.0161198
726.728	0.0162567
726.807	0.0163924
726.885	0.0162825
726.963	0.0163336
727.041	0.0164631
727.119	0.0163877
727.197	0.0167025
727.275	0.0167697
727.353	0.0168089
727.432	0.0168118
727.510	0.0170212
727.588	0.0169779
727.666	0.0169519
727.744	0.0170265
727.822	0.0170746
727.900	0.0170284
727.978	0.0172170
728.057	0.0170604
728.135	0.0170992
728.213	0.0169347
728.291	0.0168860
728.369	0.0168227
728.447	0.0168630
728.525	0.0167682
728.603	0.0165801
728.682	0.0165019
728.760	0.0165485
728.838	0.0163925
728.916	0.0163725
728.994	0.0162428
729.072	0.0163058
729.150	0.0163184
729.228	0.0163279
729.307	0.0164018
729.385	0.0163393
729.463	0.0164051
729.541	0.0166927
729.619	0.0166114
729.697	0.0167206
729.775	0.0169344
729.853	0.0170145
729.932	0.0170978
730.010	0.0171270
730.088	0.0171008
730.166	0.0170676
730.244	0.0172272
730.322	0.0172489
730.400	0.0170569
730.478	0.0170197
730.557	0.0168285
730.635	0.0166898
730.713	0.0165634
730.791	0.0166951
730.869	0.0164877
730.947	0.0165215
731.025	0.0165578
731.103	0.0165916
731.182	0.0165098
731.260	0.0165196
731.338	0.0164988
731.416	0.0166651
731.494	0.0166202
731.572	0.0167152
731.650	0.0167773
731.728	0.0167709
731.807	0.0168443
731.885	0.0167841
731.963	0.0167504
732.041	0.0168682
732.119	0.0167439
732.197	0.0166484
732.275	0.0168366
732.353	0.0168195
732.432	0.0168172
732.510	0.0167677
732.588	0.0167823
732.666	0.0166328
732.744	0.0166814
732.822	0.0165857
732.900	0.0167516
732.978	0.0166586
733.057	0.0166981
733.135	0.0167956
733.213	0.0168388
733.291	0.0167543
733.369	0.0166142
733.447	0.0167597
733.525	0.0167645
733.603	0.0167194
733.682	0.0168299
733.760	0.0168488
733.838	0.0168521
733.916	0.0167126
733.994	0.0168240
734.072	0.0167547
734.150	0.0166221
734.228	0.0167944
734.307	0.0168835
734.385	0.0167305
734.463	0.0167822
734.541	0.0167001
734.619	0.0167252
734.697	0.0166410
734.775	0.0167113
734.853	0.0167944
734.932	0.0165984
735.010	0.0165733
735.088	0.0166125
735.166	0.0165351
735.244	0.0164760
735.322	0.0165352
735.400	0.0164539
735.478	0.0166381
735.557	0.0165651
735.635	0.0165789
735.713	0.0167618
735.791	0.0167142
735.869	0.0169774
735.947	0.0168573
736.025	0.0167960
736.103	0.0169360
736.182	0.0170776
736.260	0.0169244
736.338	0.0168409
736.416	0.0169799
736.494	0.0167536
736.572	0.0166084
736.650	0.0166042
736.728	0.0165133
736.807	0.0163087
736.885	0.0163547
736.963	0.0162139
737.041	0.0160848
737.119	0.0160107
737.197	0.0161093
737.275	0.0161170
737.353	0.0163300
737.432	0.0163985
737.510	0.0164652
737.588	0.0164322
737.666	0.0166942
737.744	0.0168918
737.822	0.0170325
737.900	0.0170618
737.978	0.0171030
738.057	0.0170514
738.135	0.0171041
738.213	0.0170847
738.291	0.0171597
738.369	0.0170660
738.447	0.0169602
738.525	0.0168421
738.603	0.0169153
738.682	0.0165701
738.760	0.0166027
738.838	0.0165137
738.916	0.0165441
738.994	0.0163930
739.072	0.0163666
739.150	0.0163841
739.228	0.0162431
739.307	0.0162070
739.385	0.0163443
739.463	0.0160832
739.541	0.0162148
739.619	0.0162835
739.697	0.0162070
739.775	0.0162834
739.853	0.0163671
739.932	0.0165131
740.010	0.0168071
740.088	0.0168537
740.166	0.0169530
740.244	0.0170152
740.322	0.0172466
740.400	0.0173013
740.478	0.0173152
740.557	0.0174255
740.635	0.0173280
740.713	0.0172991
740.791	0.0171523
740.869	0.0171585
740.947	0.0169261
741.025	0.0168513
741.103	0.0167667
741.182	0.0165588
741.260	0.0164125
741.338	0.0162856
741.416	0.0162278
741.494	0.0161194
741.572	0.0161447
741.650	0.0160419
741.728	0.0161205
741.807	0.0161250
741.885	0.0162573
741.963	0.0162363
742.041	0.0164086
742.119	0.0165828
742.197	0.0167143
742.275	0.0167923
742.353	0.0168422
742.432	0.0171445
742.510	0.0172591
742.588	0.0174484
742.666	0.0172630
742.744	0.0172050
742.822	0.0172723
742.900	0.0172298
742.978	0.0171296
743.057	0.0170612
743.135	0.0168237
743.213	0.0168330
743.291	0.0168582
743.369	0.0167309
743.447	0.0165359
743.525	0.0165548
743.603	0.0164951
743.682	0.0164436
743.760	0.0164348
743.838	0.0165130
743.916	0.0165697
743.994	0.0164871
744.072	0.0165958
744.150	0.0165897
744.228	0.0166660
744.307	0.0166434
744.385	0.0165684
744.463	0.0167953
744.541	0.0168729
744.619	0.0167474
744.697	0.0167517
744.775	0.0168671
744.853	0.0168927
744.932	0.0169637
745.010	0.0169963
745.088	0.0167388
745.166	0.0169204
745.244	0.0170396
745.322	0.0169182
745.400	0.0169223
745.478	0.0169385
745.557	0.0170021
745.635	0.0169551
745.713	0.0169923
745.791	0.0169359
745.869	0.0167648
745.947	0.0169364
746.025	0.0167416
746.103	0.0169009
746.182	0.0167977
746.260	0.0167302
746.338	0.0167412
746.416	0.0166206
746.494	0.0167680
746.572	0.0167503
746.650	0.0166858
746.728	0.0168343
746.807	0.0167920
746.885	0.0167327
746.963	0.0166547
747.041	0.0167159
747.119	0.0166743
747.197	0.0168828
747.275	0.0167727
747.353	0.0168150
747.432	0.0166951
747.510	0.0166978
747.588	0.0167371
747.666	0.0166283
747.744	0.0166626
747.822	0.0167872
747.900	0.0166651
747.978	0.0166430
748.057	0.0167585
748.135	0.0167667
748.213	0.0167907
748.291	0.0169668
748.369	0.0170331
748.447	0.0169218
748.525	0.0169328
748.603	0.0170287
748.682	0.0170250
748.760	0.0169114
748.838	0.0169682
748.916	0.0171268
748.994	0.0170619
749.072	0.0168495
749.150	0.0167749
749.228	0.0169078
749.307	0.0168234
749.385	0.0167490
749.463	0.0167448
749.541	0.0167062
749.619	0.0165270
749.697	0.0164446
749.775	0.0164886
749.853	0.0165752
749.932	0.0165763
750.010	0.0166700
750.088	0.0166348
750.166	0.0165282
750.244	0.0165931
750.322	0.0166068
750.400	0.0166509
750.478	0.0167833
750.557	0.0167067
750.635	0.0170448
750.713	0.0167363
750.791	0.0168955
750.869	0.0169020
750.947	0.0169544
751.025	0.0171604
751.103	0.0170159
751.182	0.0169394
751.260	0.0169942
751.338	0.0167502
751.416	0.0167447
751.494	0.0167699
751.572	0.0168436
751.650	0.0166883
751.728	0.0165456
751.807	0.0166918
751.885	0.0165684
751.963	0.0165447
752.041	0.0164473
752.119	0.0166122
752.197	0.0164233
752.275	0.0164838
752.353	0.0164261
752.432	0.0165224
752.510	0.0165362
752.588	0.0166238
752.666	0.0165267
752.744	0.0166064
752.822	0.0166582
752.900	0.0166096
752.978	0.0167299
753.057	0.0167306
753.135	0.0167931
753.213	0.0167933
753.291	0.0169245
753.369	0.0168566
753.447	0.0166848
753.525	0.0167582
753.603	0.0168002
753.682	0.0169092
753.760	0.0167982
753.838	0.0168150
753.916	0.0166615
753.994	0.0166459
754.072	0.0167146
754.150	0.0166109
754.228	0.0165375
754.307	0.0165854
754.385	0.0167406
754.463	0.0166894
754.541	0.0166533
754.619	0.0165718
754.697	0.0167540
754.775	0.0166551
754.853	0.0165417
754.932	0.0166430
755.010	0.0165324
755.088	0.0166651
755.166	0.0167079
755.244	0.0166736
755.322	0.0165410
755.400	0.0167305
755.478	0.0168458
755.557	0.0167455
755.635	0.0167731
755.713	0.0166813
755.791	0.0166826
755.869	0.0167499
755.947	0.0168041
756.025	0.0167651
756.103	0.0168151
756.182	0.0166236
756.260	0.0168089
756.338	0.0166866
756.416	0.0165797
756.494	0.0166725
756.572	0.0166313
756.650	0.0166299
756.728	0.0165813
756.807	0.0166000
756.885	0.0166545
756.963	0.0166800
757.041	0.0165306
757.119	0.0166172
757.197	0.0168053
757.275	0.0166509
757.353	0.0165511
757.432	0.0166637
757.510	0.0167652
757.588	0.0167374
757.666	0.0167538
757.744	0.0167542
757.822	0.0166221
757.900	0.0166384
757.978	0.0166239
758.057	0.0166536
758.135	0.0167013
758.213	0.0166975
758.291	0.0166456
758.369	0.0166143
758.447	0.0166961
758.525	0.0166350
758.603	0.0167427
758.682	0.0167337
758.760	0.0167773
758.838	0.0167754
758.916	0.0166787
758.994	0.0167036
759.072	0.0166913
759.150	0.0168616
759.228	0.0169904
759.307	0.0169375
759.385	0.0168797
759.463	0.0169844
759.541	0.0168525
759.619	0.0169187
759.697	0.0168858
759.775	0.0168217
759.853	0.0167073
759.932	0.0168447
760.010	0.0167349
760.088	0.0167963
760.166	0.0167196
760.244	0.0166537
760.322	0.0166689
760.400	0.0166917
760.478	0.0166065
760.557	0.0167153
760.635	0.0166537
760.713	0.0168431
760.791	0.0167196
760.869	0.0167491
760.947	0.0167926
761.025	0.0166775
761.103	0.0168060
761.182	0.0168486
761.260	0.0168678
761.338	0.0169777
761.416	0.0167621
761.494	0.0168539
761.572	0.0167625
761.650	0.0168015
761.728	0.0167920
761.807	0.0168970
761.885	0.0169404
761.963	0.0170470
762.041	0.0169233
762.119	0.0170761
762.197	0.0170794
762.275	0.0170895
762.353	0.0170520
762.432	0.0170722
762.510	0.0170850
762.588	0.0170983
762.666	0.0169377
762.744	0.0169721
762.822	0.0170226
762.900	0.0169167
762.978	0.0167168
763.057	0.0165392
763.135	0.0166209
763.213	0.0165771
763.291	0.0163473
763.369	0.0162422
763.447	0.0163276
763.525	0.0164076
763.603	0.0164174
763.682	0.0163000
763.760	0.0164851
763.838	0.0166766
763.916	0.0165724
763.994	0.0166882
764.072	0.0167252
764.150	0.0168092
764.228	0.0167177
764.307	0.0169077
764.385	0.0170284
764.463	0.0168550
764.541	0.0167907
764.619	0.0169663
764.697	0.0168682
764.775	0.0170473
764.853	0.0169203
764.932	0.0170371
765.010	0.0169933
765.088	0.0169653
765.166	0.0170201
765.244	0.0170117
765.322	0.0170509
765.400	0.0170132
765.478	0.0168894
765.557	0.0168455
765.635	0.0169069
765.713	0.0168074
765.791	0.0167701
765.869	0.0166541
765.947	0.0166846
766.025	0.0166859
766.103	0.0165940
766.182	0.0165960
766.260	0.0165793
766.338	0.0166741
766.416	0.0167150
766.494	0.0166405
766.572	0.0166353
766.650	0.0166813
766.728	0.0167091
766.807	0.0165734
766.885	0.0165807
766.963	0.0165601
767.041	0.0166692
767.119	0.0166432
767.197	0.0166782
767.275	0.0165714
767.353	0.0164772
767.432	0.0166982
767.510	0.0166492
767.588	0.0165655
767.666	0.0166779
767.744	0.0167331
767.822	0.0167654
767.900	0.0168217
767.978	0.0167180
768.057	0.0167872
768.135	0.0167859
768.213	0.0167595
768.291	0.0167024
768.369	0.0169189
768.447	0.0168526
768.525	0.0169997
768.603	0.0170081
768.682	0.0172192
768.760	0.0171633
768.838	0.0172636
768.916	0.0171870
768.994	0.0172314
769.072	0.0172791
769.150	0.0172009
769.228	0.0171889
769.307	0.0172124
769.385	0.0170148
769.463	0.0169638
769.541	0.0169276
769.619	0.0167297
769.697	0.0165291
769.775	0.0165044
769.853	0.0165719
769.932	0.0164809
770.010	0.0166207
770.088	0.0165698
770.166	0.0164329
770.244	0.0164918
770.322	0.0164254
770.400	0.0164114
770.478	0.0165631
770.557	0.0164488
770.635	0.0166396
770.713	0.0166285
770.791	0.0165222
770.869	0.0164219
770.947	0.0164307
771.025	0.0165642
771.103	0.0164471
771.182	0.0164614
771.260	0.0166686
771.338	0.0165428
771.416	0.0165257
771.494	0.0167191
771.572	0.0166222
771.650	0.0168723
771.728	0.0169479
771.807	0.0170316
771.885	0.0168728
771.963	0.0171546
772.041	0.0171172
772.119	0.0170807
772.197	0.0171899
772.275	0.0172006
772.353	0.0172939
772.432	0.0173878
772.510	0.0174669
772.588	0.0174968
772.666	0.0174911
772.744	0.0175188
772.822	0.0174680
772.900	0.0173582
772.978	0.0173229
773.057	0.0172466
773.135	0.0170559
773.213	0.0167770
773.291	0.0167012
773.369	0.0164828
773.447	0.0163385
773.525	0.0161233
773.603	0.0160645
773.682	0.0158728
773.760	0.0157043
773.838	0.0158557
773.916	0.0156363
773.994	0.0157710
774.072	0.0157060
774.150	0.0159000
774.228	0.0159592
774.307	0.0160104
774.385	0.0159218
774.463	0.0161777
774.541	0.0163191
774.619	0.0164251
774.697	0.0165733
774.775	0.0165611
774.853	0.0166199
774.932	0.0167448
775.010	0.0168191
775.088	0.0168880
775.166	0.0168654
775.244	0.0169018
775.322	0.0171719
775.400	0.0170963
775.478	0.0172571
775.557	0.0173309
775.635	0.0173444
775.713	0.0173155
775.791	0.0173385
775.869	0.0173018
775.947	0.0172759
776.025	0.0171848
776.103	0.0171178
776.182	0.0172239
776.260	0.0172059
776.338	0.0170362
776.416	0.0170750
776.494	0.0169238
776.572	0.0168763
776.650	0.0167288
776.728	0.0166185
776.807	0.0165194
776.885	0.0165418
776.963	0.0163783
777.041	0.0162923
777.119	0.0162589
777.197	0.0161596
777.275	0.0160644
777.353	0.0161859
777.432	0.0162480
777.510	0.0160468
777.588	0.0160735
777.666	0.0161673
777.744	0.0160918
777.822	0.0162238
777.900	0.0162437
777.978	0.0163293
778.057	0.0163467
778.135	0.0163457
778.213	0.0166052
778.291	0.0165077
778.369	0.0165517
778.447	0.0165837
778.525	0.0165800
778.603	0.0166276
778.682	0.0169438
778.760	0.0168559
778.838	0.0168192
778.916	0.0168963
778.994	0.0168563
779.072	0.0169756
779.150	0.0170074
779.228	0.0169135
779.307	0.0170822
779.385	0.0171323
779.463	0.0170192
779.541	0.0170271
779.619	0.0171680
779.697	0.0171832
779.775	0.0171089
779.853	0.0171245
779.932	0.0170514
780.010	0.0170448
780.088	0.0169614
780.166	0.0169991
780.244	0.0169382
780.322	0.0169497
780.400	0.0168240
780.478	0.0169289
780.557	0.0167474
780.635	0.0168884
780.713	0.0166670
780.791	0.0167857
780.869	0.0167360
780.947	0.0165094
781.025	0.0164890
781.103	0.0164480
781.182	0.0163309
781.260	0.0163333
781.338	0.0162273
781.416	0.0163235
781.494	0.0162643
781.572	0.0163626
781.650	0.0163970
781.728	0.0164471
781.807	0.0166541
781.885	0.0166218
781.963	0.0168369
782.041	0.0169975
782.119	0.0169762
782.197	0.0169937
782.275	0.0170900
782.353	0.0169484
782.432	0.0170251
782.510	0.0170021
782.588	0.0168822
782.666	0.0168581
782.744	0.0167924
782.822	0.0166644
782.900	0.0164478
782.978	0.0164057
783.057	0.0163102
783.135	0.0161535
783.213	0.0163699
783.291	0.0161436
783.369	0.0161068
783.447	0.0159824
783.525	0.0160760
783.603	0.0161507
783.682	0.0160860
783.760	0.0162158
783.838	0.0161479
783.916	0.0162141
783.994	0.0163953
784.072	0.0165491
784.150	0.0166986
784.228	0.0166911
784.307	0.0167723
784.385	0.0169611
784.463	0.0172100
784.541	0.0172855
784.619	0.0174412
784.697	0.0174930
784.775	0.0176427
784.853	0.0175781
784.932	0.0176334
785.010	0.0178996
785.088	0.0178535
785.166	0.0178458
785.244	0.0178114
785.322	0.0176904
785.400	0.0176089
785.478	0.0176685
785.557	0.0174171
785.635	0.0171758
785.713	0.0171439
785.791	0.0169595
785.869	0.0168221
785.947	0.0165006
786.025	0.0164158
786.103	0.0161759
786.182	0.0163091
786.260	0.0161533
786.338	0.0160473
786.416	0.0161131
786.494	0.0162103
786.572	0.0160572
786.650	0.0160933
786.728	0.0160574
786.807	0.0160572
786.885	0.0160259
786.963	0.0159792
787.041	0.0159093
787.119	0.0159597
787.197	0.0161297
787.275	0.0162199
787.353	0.0163506
787.432	0.0164299
787.510	0.0165363
787.588	0.0165476
787.666	0.0168433
787.744	0.0170415
787.822	0.0170670
787.900	0.0171040
787.978	0.0173714
788.057	0.0172531
788.135	0.0172277
788.213	0.0174509
788.291	0.0174699
788.369	0.0175198
788.447	0.0172113
788.525	0.0171893
788.603	0.0172497
788.682	0.0173174
788.760	0.0171980
788.838	0.0171965
788.916	0.0169193
788.994	0.0168863
789.072	0.0169283
789.150	0.0168766
789.228	0.0169386
789.307	0.0167249
789.385	0.0167168
789.463	0.0168679
789.541	0.0166853
789.619	0.0167906
789.697	0.0166482
789.775	0.0167924
789.853	0.0168170
789.932	0.0167661
790.010	0.0166866
790.088	0.0167743
790.166	0.0167550
790.244	0.0165923
790.322	0.0163866
790.400	0.0165428
790.478	0.0165410
790.557	0.0162766
790.635	0.0163960
790.713	0.0164131
790.791	0.0162788
790.869	0.0162493
790.947	0.0164342
791.025	0.0164715
791.103	0.0163709
791.182	0.0164816
791.260	0.0165308
791.338	0.0164887
791.416	0.0165782
791.494	0.0166756
791.572	0.0167397
791.650	0.0169080
791.728	0.0169079
791.807	0.0170433
791.885	0.0172916
791.963	0.0174162
792.041	0.0174218
792.119	0.0176030
792.197	0.0174409
792.275	0.0176151
792.353	0.0176736
792.432	0.0176507
792.510	0.0175076
792.588	0.0175922
792.666	0.0174898
792.744	0.0174518
792.822	0.0172422
792.900	0.0172246
792.978	0.0171175
793.057	0.0169023
793.135	0.0167719
793.213	0.0165121
793.291	0.0163309
793.369	0.0162169
793.447	0.0159042
793.525	0.0156754
793.603	0.0155786
793.682	0.0153044
793.760	0.0151843
793.838	0.0152881
793.916	0.0151418
793.994	0.0152061
794.072	0.0154636
794.150	0.0154758
794.228	0.0156925
794.307	0.0159037
794.385	0.0162865
794.463	0.0166773
794.541	0.0168713
794.619	0.0173140
794.697	0.0176905
794.775	0.0180685
794.853	0.0183000
794.932	0.0184489
795.010	0.0187834
795.088	0.0188741
795.166	0.0189332
795.244	0.0188647
795.322	0.0188351
795.400	0.0185796
795.478	0.0184437
795.557	0.0181516
795.635	0.0178266
795.713	0.0174374
795.791	0.0169821
795.869	0.0166322
795.947	0.0162874
796.025	0.0158949
796.103	0.0155739
796.182	0.0152758
796.260	0.0150455
796.338	0.0148061
796.416	0.0148756
796.494	0.0147093
796.572	0.0147305
796.650	0.0149123
796.728	0.0149154
796.807	0.0152030
796.885	0.0154999
796.963	0.0156529
797.041	0.0159008
797.119	0.0160756
797.197	0.0163293
797.275	0.0164127
797.353	0.0165919
797.432	0.0169555
797.510	0.0170958
797.588	0.0170546
797.666	0.0172442
797.744	0.0173448
797.822	0.0172782
797.900	0.0173330
797.978	0.0174982
798.057	0.0173505
798.135	0.0173656
798.213	0.0172619
798.291	0.0172148
798.369	0.0172161
798.447	0.0169506
798.525	0.0169542
798.603	0.0169106
798.682	0.0168993
798.760	0.0167112
798.838	0.0166945
798.916	0.0165591
798.994	0.0166018
799.072	0.0165771
799.150	0.0165327
799.228	0.0164441
799.307	0.0164229
799.385	0.0165750
799.463	0.0166663
799.541	0.0166042
799.619	0.0168284
799.697	0.0169573
799.775	0.0170223
799.853	0.0172373
799.932	0.0172592
800.010	0.0172192
800.088	0.0172969
800.166	0.0172856
800.244	0.0173429
800.322	0.0172504
800.400	0.0172430
800.478	0.0171215
800.557	0.0169922
800.635	0.0169503
800.713	0.0168566
800.791	0.0165482
800.869	0.0166104
800.947	0.0161832
801.025	0.0159762
801.103	0.0159879
801.182	0.0158187
801.260	0.0156731
801.338	0.0157180
801.416	0.0155639
801.494	0.0155605
801.572	0.0157589
801.650	0.0158686
801.728	0.0159472
801.807	0.0160555
801.885	0.0161703
801.963	0.0164084
802.041	0.0167334
802.119	0.0167966
802.197	0.0170300
802.275	0.0171951
802.353	0.0172524
802.432	0.0173757
802.510	0.0174454
802.588	0.0176471
802.666	0.0173804
802.744	0.0176698
802.822	0.0176289
802.900	0.0175488
802.978	0.0173294
803.057	0.0172725
803.135	0.0171867
803.213	0.0170006
803.291	0.0169571
803.369	0.0167581
803.447	0.0165181
803.525	0.0164858
803.603	0.0162933
803.682	0.0160896
803.760	0.0161180
803.838	0.0161269
803.916	0.0159003
803.994	0.0159920
804.072	0.0158811
804.150	0.0160467
804.228	0.0161193
804.307	0.0161196
804.385	0.0162938
804.463	0.0165734
804.541	0.0167721
804.619	0.0167616
804.697	0.0170275
804.775	0.0172315
804.853	0.0172514
804.932	0.0173299
805.010	0.0173559
805.088	0.0173871
805.166	0.0173582
805.244	0.0175199
805.322	0.0175304
805.400	0.0174316
805.478	0.0173367
805.557	0.0173332
805.635	0.0172684
805.713	0.0169939
805.791	0.0168794
805.869	0.0167933
805.947	0.0166113
806.025	0.0165314
806.103	0.0164227
806.182	0.0162797
806.260	0.0161619
806.338	0.0160198
806.416	0.0157043
806.494	0.0158019
806.572	0.0156852
806.650	0.0156018
806.728	0.0155225
806.807	0.0153942
806.885	0.0154816
806.963	0.0154774
807.041	0.0156797
807.119	0.0157517
807.197	0.0159952
807.275	0.0162902
807.353	0.0164175
807.432	0.0167094
807.510	0.0169012
807.588	0.0170618
807.666	0.0173152
807.744	0.0175124
807.822	0.0176369
807.900	0.0177186
807.978	0.0177291
808.057	0.0177342
808.135	0.0177452
808.213	0.0176926
808.291	0.0176071
808.369	0.0174995
808.447	0.0173261
808.525	0.0172739
808.603	0.0171926
808.682	0.0170447
808.760	0.0167317
808.838	0.0165877
808.916	0.0165813
808.994	0.0166628
809.072	0.0163259
809.150	0.0162687
809.228	0.0162402
809.307	0.0161210
809.385	0.0160200
809.463	0.0160265
809.541	0.0161060
809.619	0.0160714
809.697	0.0160773
809.775	0.0163409
809.853	0.0164811
809.932	0.0164225
810.010	0.0167410
810.088	0.0167119
810.166	0.0169873
810.244	0.0171004
810.322	0.0171725
810.400	0.0171617
810.478	0.0171285
810.557	0.0174133
810.635	0.0172292
810.713	0.0171455
810.791	0.0171262
810.869	0.0171900
810.947	0.0168325
811.025	0.0168654
811.103	0.0167450
811.182	0.0166244
811.260	0.0165771
811.338	0.0164510
811.416	0.0165104
811.494	0.0164503
811.572	0.0163966
811.650	0.0162366
811.728	0.0162516
811.807	0.0161280
811.885	0.0159968
811.963	0.0161174
812.041	0.0160926
812.119	0.0161501
812.197	0.0161406
812.275	0.0160574
812.353	0.0161318
812.432	0.0161150
812.510	0.0160736
812.588	0.0162002
812.666	0.0161172
812.744	0.0163210
812.822	0.0164258
812.900	0.0164825
812.978	0.0166492
813.057	0.0166843
813.135	0.0166673
813.213	0.0168690
813.291	0.0169945
813.369	0.0169680
813.447	0.0170811
813.525	0.0172491
813.603	0.0172774
813.682	0.0173244
813.760	0.0173714
813.838	0.0174745
813.916	0.0174314
813.994	0.0174825
814.072	0.0174651
814.150	0.0174040
814.228	0.0172782
814.307	0.0172172
814.385	0.0170866
814.463	0.0170099
814.541	0.0169991
814.619	0.0169886
814.697	0.0167976
814.775	0.0166568
814.853	0.0166726
814.932	0.0165356
815.010	0.0164838
815.088	0.0164051
815.166	0.0163351
815.244	0.0162711
815.322	0.0163035
815.400	0.0162495
815.478	0.0162296
815.557	0.0162814
815.635	0.0161923
815.713	0.0161847
815.791	0.0162719
815.869	0.0163634
815.947	0.0162873
816.025	0.0163685
816.103	0.0164526
816.182	0.0163423
816.260	0.0163549
816.338	0.0164128
816.416	0.0163619
816.494	0.0162879
816.572	0.0161395
816.650	0.0161560
816.728	0.0161819
816.807	0.0161389
816.885	0.0161333
816.963	0.0161351
817.041	0.0162746
817.119	0.0160615
817.197	0.0161033
817.275	0.0164198
817.353	0.0163602
817.432	0.0164046
817.510	0.0165540
817.588	0.0167417
817.666	0.0168406
817.744	0.0170731
817.822	0.0170667
817.900	0.0173531
817.978	0.0173959
818.057	0.0173390
818.135	0.0175299
818.213	0.0177281
818.291	0.0177263
818.369	0.0177392
818.447	0.0177848
818.525	0.0175979
818.603	0.0176276
818.682	0.0176556
818.760	0.0176553
818.838	0.0176630
818.916	0.0175301
818.994	0.0173701
819.072	0.0173317
819.150	0.0174381
819.228	0.0171535
819.307	0.0171128
819.385	0.0169534
819.463	0.0167129
819.541	0.0166722
819.619	0.0165685
819.697	0.0164999
819.775	0.0165910
819.853	0.0164388
819.932	0.0163076
820.010	0.0160732
820.088	0.0160105
820.166	0.0162143
820.244	0.0163638
820.322	0.0161771
820.400	0.0161561
820.478	0.0161595
820.557	0.0161096
820.635	0.0161288
820.713	0.0160200
820.791	0.0160335
820.869	0.0160618
820.947	0.0160526
821.025	0.0159396
821.103	0.0158784
821.182	0.0158628
821.260	0.0160634
821.338	0.0161044
821.416	0.0160509
821.494	0.0162139
821.572	0.0163951
821.650	0.0164583
821.728	0.0165166
821.807	0.0167234
821.885	0.0167955
821.963	0.0167674
822.041	0.0169822
822.119	0.0171523
822.197	0.0172440
822.275	0.0173408
822.353	0.0173982
822.432	0.0174632
822.510	0.0173391
822.588	0.0175472
822.666	0.0172318
822.744	0.0172353
822.822	0.0172417
822.900	0.0172122
822.978	0.0171475
823.057	0.0170011
823.135	0.0169108
823.213	0.0169644
823.291	0.0168946
823.369	0.0167647
823.447	0.0167865
823.525	0.0168587
823.603	0.0169666
823.682	0.0169267
823.760	0.0170348
823.838	0.0170290
823.916	0.0171104
823.994	0.0170622
824.072	0.0172201
824.150	0.0173267
824.228	0.0172147
824.307	0.0173345
824.385	0.0174028
824.463	0.0174432
824.541	0.0172439
824.619	0.0172594
824.697	0.0171864
824.775	0.0169643
824.853	0.0167357
824.932	0.0167809
825.010	0.0166956
825.088	0.0165086
825.166	0.0163661
825.244	0.0163083
825.322	0.0164093
825.400	0.0163148
825.478	0.0162883
825.557	0.0162365
825.635	0.0163081
825.713	0.0164076
825.791	0.0164648
825.869	0.0165220
825.947	0.0166939
826.025	0.0166196
826.103	0.0166386
826.182	0.0165539
826.260	0.0166554
826.338	0.0166718
826.416	0.0166320
826.494	0.0167084
826.572	0.0164849
826.650	0.0165237
826.728	0.0163599
826.807	0.0163460
826.885	0.0162756
826.963	0.0162043
827.041	0.0161679
827.119	0.0160211
827.197	0.0161692
827.275	0.0160708
827.353	0.0160744
827.432	0.0161832
827.510	0.0163779
827.588	0.0162004
827.666	0.0162993
827.744	0.0165785
827.822	0.0167056
827.900	0.0167281
827.978	0.0169030
828.057	0.0170863
828.135	0.0171673
828.213	0.0171530
828.291	0.0171886
828.369	0.0172604
828.447	0.0172781
828.525	0.0174083
828.603	0.0171990
828.682	0.0172288
828.760	0.0172847
828.838	0.0171156
828.916	0.0172225
828.994	0.0170327
829.072	0.0170290
829.150	0.0170816
829.228	0.0169835
829.307	0.0170196
829.385	0.0170658
829.463	0.0170447
829.541	0.0169918
829.619	0.0171926
829.697	0.0170521
829.775	0.0170825
829.853	0.0169612
829.932	0.0171326
830.010	0.0171144
830.088	0.0170240
830.166	0.0170426
830.244	0.0169556
830.322	0.0169654
830.400	0.0167560
830.478	0.0167324
830.557	0.0165985
830.635	0.0165057
830.713	0.0164162
830.791	0.0161288
830.869	0.0162347
830.947	0.0162378
831.025	0.0159755
831.103	0.0157408
831.182	0.0159873
831.260	0.0160981
831.338	0.0161199
831.416	0.0160586
831.494	0.0160748
831.572	0.0161090
831.650	0.0162556
831.728	0.0163747
831.807	0.0163978
831.885	0.0163789
831.963	0.0164799
832.041	0.0164690
832.119	0.0163712
832.197	0.0163188
832.275	0.0162621
832.353	0.0163165
832.432	0.0162429
832.510	0.0163155
832.588	0.0162746
832.666	0.0162608
832.744	0.0161195
832.822	0.0163629
832.900	0.0163739
832.978	0.0163799
833.057	0.0166102
833.135	0.0166048
833.213	0.0168397
833.291	0.0167251
833.369	0.0168470
833.447	0.0170232
833.525	0.0170000
833.603	0.0171219
833.682	0.0172063
833.760	0.0172455
833.838	0.0172593
833.916	0.0173873
833.994	0.0172738
834.072	0.0172601
834.150	0.0172638
834.228	0.0171709
834.307	0.0171272
834.385	0.0170971
834.463	0.0171069
834.541	0.0171389
834.619	0.0169498
834.697	0.0169329
834.775	0.0168110
834.853	0.0169976
834.932	0.0169827
835.010	0.0168621
835.088	0.0170727
835.166	0.0168180
835.244	0.0168082
835.322	0.0170067
835.400	0.0170538
835.478	0.0170621
835.557	0.0169522
835.635	0.0170495
835.713	0.0170658
835.791	0.0169152
835.869	0.0169532
835.947	0.0169376
836.025	0.0170736
836.103	0.0167485
836.182	0.0166727
836.260	0.0167387
836.338	0.0166788
836.416	0.0164730
836.494	0.0164939
836.572	0.0163179
836.650	0.0163730
836.728	0.0161418
836.807	0.0161227
836.885	0.0160582
836.963	0.0160312
837.041	0.0159060
837.119	0.0160132
837.197	0.0161899
837.275	0.0162659
837.353	0.0162640
837.432	0.0164330
837.510	0.0162312
837.588	0.0165300
837.666	0.0164053
837.744	0.0165849
837.822	0.0166428
837.900	0.0164854
837.978	0.0165842
838.057	0.0166399
838.135	0.0166424
838.213	0.0165125
838.291	0.0164691
838.369	0.0166439
838.447	0.0166872
838.525	0.0165685
838.603	0.0164693
838.682	0.0165926
838.760	0.0165790
838.838	0.0165137
838.916	0.0166122
838.994	0.0165908
839.072	0.0165805
839.150	0.0167056
839.228	0.0167194
839.307	0.0165506
839.385	0.0167375
839.463	0.0167315
839.541	0.0167930
839.619	0.0167281
839.697	0.0168693
839.775	0.0168712
839.853	0.0170190
839.932	0.0171032
840.010	0.0170395
840.088	0.0171533
840.166	0.0171407
840.244	0.0171613
840.322	0.0172050
840.400	0.0171962
840.478	0.0171339
840.557	0.0172144
840.635	0.0171826
840.713	0.0172034
840.791	0.0171411
840.869	0.0171543
840.947	0.0172269
841.025	0.0171656
841.103	0.0170494
841.182	0.0168700
841.260	0.0171171
841.338	0.0171534
841.416	0.0169633
841.494	0.0169053
841.572	0.0168627
841.650	0.0167038
841.728	0.0166888
841.807	0.0165459
841.885	0.0165378
841.963	0.0165630
842.041	0.0166337
842.119	0.0166825
842.197	0.0165582
842.275	0.0165201
842.353	0.0168999
842.432	0.0166164
842.510	0.0165971
842.588	0.0169022
842.666	0.0168264
842.744	0.0166868
842.822	0.0167066
842.900	0.0167808
842.978	0.0167174
843.057	0.0168130
843.135	0.0168176
843.213	0.0167211
843.291	0.0165112
843.369	0.0166798
843.447	0.0165434
843.525	0.0166126
843.603	0.0167202
843.682	0.0163937
843.760	0.0164783
843.838	0.0163628
843.916	0.0163565
843.994	0.0164880
844.072	0.0163582
844.150	0.0165111
844.228	0.0165090
844.307	0.0165044
844.385	0.0166635
844.463	0.0166567
844.541	0.0166100
844.619	0.0167941
844.697	0.0168967
844.775	0.0168286
844.853	0.0169524
844.932	0.0168702
845.010	0.0169365
845.088	0.0169325
845.166	0.0170135
845.244	0.0169891
845.322	0.0170010
845.400	0.0171402
845.478	0.0171348
845.557	0.0170533
845.635	0.0169899
845.713	0.0170972
845.791	0.0171985
845.869	0.0170413
845.947	0.0171031
846.025	0.0169839
846.103	0.0169681
846.182	0.0169908
846.260	0.0169176
846.338	0.0168798
846.416	0.0169257
846.494	0.0169558
846.572	0.0169844
846.650	0.0170239
846.728	0.0169604
846.807	0.0168818
846.885	0.0170255
846.963	0.0170638
847.041	0.0170789
847.119	0.0170554
847.197	0.0170110
847.275	0.0168978
847.353	0.0169101
847.432	0.0168815
847.510	0.0168725
847.588	0.0168058
847.666	0.0168016
847.744	0.0169225
847.822	0.0168255
847.900	0.0167301
847.978	0.0166026
848.057	0.0166936
848.135	0.0167080
848.213	0.0166354
848.291	0.0165092
848.369	0.0166650
848.447	0.0167304
848.525	0.0165896
848.603	0.0165848
848.682	0.0167184
848.760	0.0166483
848.838	0.0167396
848.916	0.0167319
848.994	0.0168187
849.072	0.0167945
849.150	0.0168464
849.228	0.0166384
849.307	0.0168468
849.385	0.0168072
849.463	0.0166630
849.541	0.0165982
849.619	0.0166681
849.697	0.0166586
849.775	0.0165465
849.853	0.0164979
849.932	0.0165041
850.010	0.0166221
850.088	0.0165044
850.166	0.0164401
850.244	0.0164361
850.322	0.0164630
850.400	0.0165511
850.478	0.0163416
850.557	0.0164652
850.635	0.0164726
850.713	0.0165408
850.791	0.0165368
850.869	0.0167102
850.947	0.0166587
851.025	0.0166995
851.103	0.0167195
851.182	0.0167068
851.260	0.0167802
851.338	0.0169035
851.416	0.0169760
851.494	0.0170126
851.572	0.0169543
851.650	0.0169079
851.728	0.0169435
851.807	0.0169360
851.885	0.0168731
851.963	0.0168806
852.041	0.0168984
852.119	0.0168066
852.197	0.0169027
852.275	0.0167566
852.353	0.0166741
852.432	0.0168517
852.510	0.0168666
852.588	0.0167883
852.666	0.0168938
852.744	0.0168217
852.822	0.0169878
852.900	0.0168401
852.978	0.0170655
853.057	0.0169343
853.135	0.0170744
853.213	0.0170932
853.291	0.0170631
853.369	0.0170300
853.447	0.0169023
853.525	0.0169222
853.603	0.0168571
853.682	0.0168453
853.760	0.0168665
853.838	0.0167295
853.916	0.0166667
853.994	0.0166686
854.072	0.0165427
854.150	0.0163844
854.228	0.0164329
854.307	0.0163895
854.385	0.0164017
854.463	0.0164278
854.541	0.0163199
854.619	0.0162608
854.697	0.0164080
854.775	0.0163436
854.853	0.0165009
854.932	0.0164321
855.010	0.0163943
855.088	0.0164153
855.166	0.0164300
855.244	0.0165175
855.322	0.0166451
855.400	0.0166862
855.478	0.0167793
855.557	0.0167087
855.635	0.0166676
855.713	0.0166770
855.791	0.0166485
855.869	0.0166727
855.947	0.0166681
856.025	0.0165596
856.103	0.0165908
856.182	0.0165300
856.260	0.0165074
856.338	0.0164833
856.416	0.0163876
856.494	0.0164174
856.572	0.0165527
856.650	0.0163675
856.728	0.0165403
856.807	0.0164637
856.885	0.0165185
856.963	0.0166530
857.041	0.0166565
857.119	0.0167580
857.197	0.0169424
857.275	0.0169914
857.353	0.0167604
857.432	0.0167965
857.510	0.0169595
857.588	0.0169337
857.666	0.0168211
857.744	0.0169244
857.822	0.0169282
857.900	0.0169801
857.978	0.0167863
858.057	0.0168111
858.135	0.0167772
858.213	0.0168237
858.291	0.0168651
858.369	0.0168849
858.447	0.0169388
858.525	0.0168752
858.603	0.0168400
858.682	0.0168468
858.760	0.0169292
858.838	0.0168925
858.916	0.0168938
858.994	0.0169911
859.072	0.0169498
859.150	0.0167592
859.228	0.0168686
859.307	0.0169385
859.385	0.0169967
859.463	0.0168091
859.541	0.0168178
859.619	0.0170678
859.697	0.0167966
859.775	0.0167533
859.853	0.0168452
859.932	0.0167102
860.010	0.0166190
860.088	0.0166525
860.166	0.0166319
860.244	0.0164854
860.322	0.0167216
860.400	0.0168201
860.478	0.0166724
860.557	0.0165984
860.635	0.0166942
860.713	0.0166336
860.791	0.0166888
860.869	0.0167393
860.947	0.0165817
861.025	0.0166574
861.103	0.0167332
861.182	0.0167464
861.260	0.0166678
861.338	0.0166816
861.416	0.0168227
861.494	0.0166302
861.572	0.0166094
861.650	0.0166586
861.728	0.0165856
861.807	0.0166788
861.885	0.0165285
861.963	0.0165945
862.041	0.0165675
862.119	0.0163796
862.197	0.0166041
862.275	0.0166744
862.353	0.0165651
862.432	0.0165494
862.510	0.0165741
862.588	0.0166302
862.666	0.0164639
862.744	0.0165584
862.822	0.0167157
862.900	0.0165994
862.978	0.0166311
863.057	0.0166188
863.135	0.0167698
863.213	0.0166891
863.291	0.0166855
863.369	0.0167188
863.447	0.0166380
863.525	0.0167309
863.603	0.0168507
863.682	0.0169308
863.760	0.0168819
863.838	0.0167359
863.916	0.0170133
863.994	0.0169485
864.072	0.0169725
864.150	0.0170035
864.228	0.0169495
864.307	0.0168994
864.385	0.0167728
864.463	0.0171178
864.541	0.0169447
864.619	0.0168583
864.697	0.0168916
864.775	0.0168246
864.853	0.0169649
864.932	0.0169363
865.010	0.0168781
865.088	0.0168442
865.166	0.0169057
865.244	0.0169485
865.322	0.0170502
865.400	0.0170319
865.478	0.0168640
865.557	0.0170318
865.635	0.0169117
865.713	0.0170135
865.791	0.0169341
865.869	0.0170036
865.947	0.0169697
866.025	0.0169747
866.103	0.0169368
866.182	0.0169255
866.260	0.0169106
866.338	0.0168365
866.416	0.0168947
866.494	0.0167312
866.572	0.0168740
866.650	0.0167867
866.728	0.0168806
866.807	0.0167091
866.885	0.0167409
866.963	0.0165899
867.041	0.0165531
867.119	0.0166624
867.197	0.0166101
867.275	0.0166376
867.353	0.0167068
867.432	0.0166458
867.510	0.0164680
867.588	0.0163622
867.666	0.0164129
867.744	0.0165690
867.822	0.0164790
867.900	0.0165256
867.978	0.0165022
868.057	0.0166411
868.135	0.0165683
868.213	0.0164795
868.291	0.0166064
868.369	0.0165458
868.447	0.0166921
868.525	0.0167583
868.603	0.0167375
868.682	0.0166941
868.760	0.0166928
868.838	0.0167856
868.916	0.0167894
868.994	0.0168488
869.072	0.0167075
869.150	0.0169158
869.228	0.0168642
869.307	0.0168301
869.385	0.0169483
869.463	0.0169281
869.541	0.0168468
869.619	0.0170417
869.697	0.0170351
869.775	0.0169994
869.853	0.0169397
869.932	0.0170116
870.010	0.0168117
870.088	0.0168573
870.166	0.0169473
870.244	0.0169058
870.322	0.0168015
870.400	0.0167176
870.478	0.0166904
870.557	0.0166726
870.635	0.0167192
870.713	0.0167051
870.791	0.0165741
870.869	0.0166857
870.947	0.0165459
871.025	0.0165838
871.103	0.0165768
871.182	0.0166262
871.260	0.0167078
871.338	0.0166112
871.416	0.0166295
871.494	0.0166878
871.572	0.0167238
871.650	0.0166187
871.728	0.0167263
871.807	0.0167622
871.885	0.0166862
871.963	0.0166599
872.041	0.0167569
872.119	0.0168215
872.197	0.0166729
872.275	0.0166734
872.353	0.0166892
872.432	0.0167023
872.510	0.0166974
872.588	0.0166373
872.666	0.0166751
872.744	0.0165570
872.822	0.0165506
872.900	0.0166596
872.978	0.0166638
873.057	0.0166818
873.135	0.0167483
873.213	0.0167018
873.291	0.0167087
873.369	0.0166869
873.447	0.0166541
873.525	0.0166713
873.603	0.0166412
873.682	0.0165951
873.760	0.0164994
873.838	0.0166672
873.916	0.0167274
873.994	0.0166717
874.072	0.0166680
874.150	0.0167447
874.228	0.0166068
874.307	0.0166638
874.385	0.0167499
874.463	0.0166843
874.541	0.0166625
874.619	0.0167622
874.697	0.0168409
874.775	0.0166667
874.853	0.0168653
874.932	0.0167404
875.010	0.0165724
875.088	0.0168172
875.166	0.0166753
875.244	0.0166452
875.322	0.0166016
875.400	0.0166462
875.478	0.0165517
875.557	0.0165804
875.635	0.0165186
875.713	0.0165739
875.791	0.0165565
875.869	0.0165505
875.947	0.0166171
876.025	0.0166560
876.103	0.0166950
876.182	0.0166924
876.260	0.0167443
876.338	0.0167739
876.416	0.0167332
876.494	0.0167426
876.572	0.0168964
876.650	0.0169618
876.728	0.0170165
876.807	0.0168854
876.885	0.0169115
876.963	0.0167699
877.041	0.0168749
877.119	0.0167490
877.197	0.0165897
877.275	0.0165919
877.353	0.0166177
877.432	0.0165177
877.510	0.0164635
877.588	0.0165016
877.666	0.0164915
877.744	0.0164782
877.822	0.0164228
877.900	0.0164599
877.978	0.0163712
878.057	0.0163675
878.135	0.0164306
878.213	0.0164679
878.291	0.0164991
878.369	0.0164229
878.447	0.0164497
878.525	0.0165290
878.603	0.0165611
878.682	0.0165867
878.760	0.0166283
878.838	0.0166883
878.916	0.0167867
878.994	0.0166176
879.072	0.0166090
879.150	0.0167358
879.228	0.0167045
879.307	0.0166299
879.385	0.0167707
879.463	0.0167020
879.541	0.0167328
879.619	0.0167287
879.697	0.0166938
879.775	0.0167403
879.853	0.0166073
879.932	0.0165508
880.010	0.0165508
880.088	0.0165459
880.166	0.0167209
880.244	0.0164795
880.322	0.0165397
880.400	0.0163761
880.478	0.0165353
880.557	0.0166609
880.635	0.0166747
880.713	0.0166618
880.791	0.0167130
880.869	0.0166229
880.947	0.0166732
881.025	0.0166383
881.103	0.0166818
881.182	0.0167025
881.260	0.0166609
881.338	0.0167307
881.416	0.0167944
881.494	0.0167004
881.572	0.0167178
881.650	0.0167787
881.728	0.0166891
881.807	0.0164953
881.885	0.0167558
881.963	0.0166908
882.041	0.0165908
882.119	0.0168559
882.197	0.0167840
882.275	0.0169099
882.353	0.0168102
882.432	0.0167741
882.510	0.0169115
882.588	0.0168385
882.666	0.0168207
882.744	0.0169930
882.822	0.0168352
882.900	0.0167995
882.978	0.0169489
883.057	0.0167879
883.135	0.0167321
883.213	0.0165924
883.291	0.0163702
883.369	0.0166343
883.447	0.0166779
883.525	0.0164244
883.603	0.0163937
883.682	0.0164896
883.760	0.0163421
883.838	0.0163808
883.916	0.0163015
883.994	0.0163087
884.072	0.0164831
884.150	0.0165240
884.228	0.0165609
884.307	0.0165910
884.385	0.0167333
884.463	0.0166429
884.541	0.0167290
884.619	0.0169208
884.697	0.0168674
884.775	0.0170036
884.853	0.0168640
884.932	0.0169195
885.010	0.0169858
885.088	0.0169886
885.166	0.0168823
885.244	0.0169186
885.322	0.0168761
885.400	0.0169727
885.478	0.0168826
885.557	0.0168961
885.635	0.0168953
885.713	0.0168606
885.791	0.0168150
885.869	0.0166649
885.947	0.0167635
886.025	0.0167403
886.103	0.0168391
886.182	0.0166699
886.260	0.0168629
886.338	0.0166856
886.416	0.0168435
886.494	0.0169462
886.572	0.0169492
886.650	0.0167698
886.728	0.0168361
886.807	0.0168932
886.885	0.0169563
886.963	0.0169810
887.041	0.0168921
887.119	0.0167202
887.197	0.0167648
887.275	0.0167593
887.353	0.0166854
887.432	0.0167469
887.510	0.0168281
887.588	0.0165478
887.666	0.0166153
887.744	0.0167358
887.822	0.0165786
887.900	0.0166376
887.978	0.0166650
888.057	0.0166090
888.135	0.0165466
888.213	0.0166869
888.291	0.0167516
888.369	0.0166450
888.447	0.0168609
888.525	0.0168302
888.603	0.0167879
888.682	0.0168117
888.760	0.0169308
888.838	0.0169206
888.916	0.0168935
888.994	0.0169531
889.072	0.0168255
889.150	0.0169691
889.228	0.0168268
889.307	0.0169349
889.385	0.0169579
889.463	0.0169128
889.541	0.0169143
889.619	0.0167667
889.697	0.0167407
889.775	0.0167954
889.853	0.0167641
889.932	0.0167966
890.010	0.0167090
890.088	0.0169107
890.166	0.0167628
890.244	0.0167899
890.322	0.0166001
890.400	0.0165955
890.478	0.0165867
890.557	0.0166986
890.635	0.0166542
890.713	0.0167966
890.791	0.0166713
890.869	0.0167538
890.947	0.0168275
891.025	0.0170103
891.103	0.0167751
891.182	0.0168488
891.260	0.0170184
891.338	0.0170614
891.416	0.0171467
891.494	0.0170216
891.572	0.0171121
891.650	0.0170388
891.728	0.0172272
891.807	0.0171246
891.885	0.0171177
891.963	0.0171424
892.041	0.0171584
892.119	0.0172264
892.197	0.0170691
892.275	0.0171796
892.353	0.0172041
892.432	0.0170821
892.510	0.0169822
892.588	0.0169124
892.666	0.0167558
892.744	0.0169158
892.822	0.0168259
892.900	0.0167265
892.978	0.0166640
893.057	0.0165733
893.135	0.0165692
893.213	0.0165453
893.291	0.0164833
893.369	0.0165742
893.447	0.0165472
893.525	0.0165511
893.603	0.0165091
893.682	0.0164389
893.760	0.0165542
893.838	0.0164276
893.916	0.0164081
893.994	0.0165338
894.072	0.0165279
894.150	0.0165487
894.228	0.0166270
894.307	0.0164464
894.385	0.0165498
894.463	0.0165451
894.541	0.0164156
894.619	0.0164699
894.697	0.0165586
894.775	0.0164550
894.853	0.0163715
894.932	0.0164191
895.010	0.0165357
895.088	0.0163565
895.166	0.0165062
895.244	0.0164774
895.322	0.0164937
895.400	0.0165867
895.478	0.0164984
895.557	0.0166616
895.635	0.0166980
895.713	0.0166557
895.791	0.0167200
895.869	0.0167123
895.947	0.0167877
896.025	0.0167881
896.103	0.0166666
896.182	0.0169122
896.260	0.0168291
896.338	0.0168626
896.416	0.0169279
896.494	0.0168822
896.572	0.0168262
896.650	0.0169595
896.728	0.0168502
896.807	0.0168962
896.885	0.0168246
896.963	0.0168292
897.041	0.0167439
897.119	0.0166451
897.197	0.0168009
897.275	0.0167586
897.353	0.0166685
897.432	0.0167844
897.510	0.0165791
897.588	0.0164867
897.666	0.0166711
897.744	0.0166666
897.822	0.0165252
897.900	0.0164214
897.978	0.0164356
898.057	0.0165126
898.135	0.0165411
898.213	0.0164449
898.291	0.0164587
898.369	0.0165006
898.447	0.0164428
898.525	0.0163981
898.603	0.0164126
898.682	0.0166422
898.760	0.0165900
898.838	0.0165833
898.916	0.0166810
898.994	0.0166592
899.072	0.0166335
899.150	0.0166251
899.228	0.0169981
899.307	0.0168623
899.385	0.0167207
899.463	0.0167814
899.541	0.0167576
899.619	0.0166138
899.697	0.0166863
899.775	0.0166837
899.853	0.0166875
899.932	0.0166665
900.010	0.0164856
900.088	0.0165095
900.166	0.0163391
900.244	0.0164414
900.322	0.0164424
900.400	0.0164056
900.478	0.0164268
900.557	0.0165484
900.635	0.0163615
900.713	0.0163541
900.791	0.0163763
900.869	0.0165370
900.947	0.0164954
901.025	0.0165718
901.103	0.0165485
901.182	0.0165986
901.260	0.0165968
901.338	0.0167679
901.416	0.0167090
901.494	0.0166686
901.572	0.0166158
901.650	0.0167896
901.728	0.0169794
901.807	0.0170052
901.885	0.0167223
901.963	0.0168498
902.041	0.0167424
902.119	0.0169280
902.197	0.0167656
902.275	0.0167924
902.353	0.0166937
902.432	0.0167952
902.510	0.0166862
902.588	0.0166380
902.666	0.0166420
902.744	0.0166051
902.822	0.0165396
902.900	0.0165073
902.978	0.0166119
903.057	0.0165168
903.135	0.0165494
903.213	0.0167010
903.291	0.0166788
903.369	0.0167480
903.447	0.0165804
903.525	0.0166124
903.603	0.0167017
903.682	0.0167365
903.760	0.0168317
903.838	0.0167004
903.916	0.0166805
903.994	0.0167583
904.072	0.0167895
904.150	0.0167679
904.228	0.0167444
904.307	0.0167082
904.385	0.0168026
904.463	0.0168697
904.541	0.0168003
904.619	0.0167857
904.697	0.0166782
904.775	0.0169399
904.853	0.0168745
904.932	0.0166186
905.010	0.0166984
905.088	0.0168138
905.166	0.0167786
905.244	0.0166570
905.322	0.0166287
905.400	0.0166050
905.478	0.0167881
905.557	0.0166822
905.635	0.0167201
905.713	0.0166647
905.791	0.0166320
905.869	0.0168309
905.947	0.0167199
906.025	0.0168526
906.103	0.0166542
906.182	0.0167967
906.260	0.0167140
906.338	0.0167384
906.416	0.0167123
906.494	0.0165900
906.572	0.0166988
906.650	0.0166162
906.728	0.0166895
906.807	0.0165729
906.885	0.0167483
906.963	0.0166922
907.041	0.0165151
907.119	0.0166298
907.197	0.0166553
907.275	0.0166588
907.353	0.0165035
907.432	0.0166801
907.510	0.0167037
907.588	0.0166702
907.666	0.0166830
907.744	0.0165589
907.822	0.0166612
907.900	0.0166204
907.978	0.0164897
908.057	0.0166327
908.135	0.0164978
908.213	0.0166564
908.291	0.0166222
908.369	0.0167619
908.447	0.0166927
908.525	0.0167072
908.603	0.0167297
908.682	0.0166681
908.760	0.0167271
908.838	0.0167210
908.916	0.0166163
908.994	0.0166548
909.072	0.0166730
909.150	0.0168907
909.228	0.0167792
909.307	0.0168849
909.385	0.0168217
909.463	0.0168929
909.541	0.0168036
909.619	0.0169736
909.697	0.0170538
909.775	0.0169626
909.853	0.0171361
909.932	0.0170383
910.010	0.0170044
910.088	0.0170514
910.166	0.0170926
910.244	0.0169647
910.322	0.0171680
910.400	0.0169222
910.478	0.0169564
910.557	0.0169001
910.635	0.0169709
910.713	0.0169543
910.791	0.0168089
910.869	0.0167370
910.947	0.0168500
911.025	0.0167809
911.103	0.0166269
911.182	0.0166644
911.260	0.0165719
911.338	0.0166844
911.416	0.0166487
911.494	0.0167649
911.572	0.0166914
911.650	0.0166467
911.728	0.0166611
911.807	0.0166907
911.885	0.0166422
911.963	0.0167265
912.041	0.0167759
912.119	0.0167581
912.197	0.0167120
912.275	0.0166087
912.353	0.0167524
912.432	0.0167191
912.510	0.0166766
912.588	0.0166042
912.666	0.0165942
912.744	0.0166162
912.822	0.0166517
912.900	0.0166434
912.978	0.0166008
913.057	0.0165362
913.135	0.0166185
913.213	0.0165619
913.291	0.0164967
913.369	0.0165740
913.447	0.0166193
913.525	0.0164783
913.603	0.0164880
913.682	0.0166061
913.760	0.0166136
913.838	0.0165983
913.916	0.0165796
913.994	0.0164842
914.072	0.0166319
914.150	0.0166998
914.228	0.0166677
914.307	0.0166888
914.385	0.0168607
914.463	0.0166972
914.541	0.0168645
914.619	0.0169718
914.697	0.0169617
914.775	0.0169228
914.853	0.0169258
914.932	0.0170960
915.010	0.0168831
915.088	0.0170529
915.166	0.0170735
915.244	0.0169584
915.322	0.0169347
915.400	0.0170332
915.478	0.0169308
915.557	0.0169989
915.635	0.0169260
915.713	0.0169695
915.791	0.0169658
915.869	0.0170189
915.947	0.0169856
916.025	0.0169511
916.103	0.0168514
916.182	0.0168819
916.260	0.0167749
916.338	0.0168553
916.416	0.0167581
916.494	0.0169026
916.572	0.0168035
916.650	0.0167212
916.728	0.0166750
916.807	0.0168797
916.885	0.0168373
916.963	0.0167053
917.041	0.0166499
917.119	0.0168407
917.197	0.0167393
917.275	0.0167995
917.353	0.0166702
917.432	0.0167596
917.510	0.0165996
917.588	0.0164479
917.666	0.0165553
917.744	0.0164874
917.822	0.0163937
917.900	0.0164693
917.978	0.0163174
918.057	0.0163357
918.135	0.0163927
918.213	0.0164652
918.291	0.0165272
918.369	0.0165374
918.447	0.0164422
918.525	0.0165527
918.603	0.0166113
918.682	0.0167019
918.760	0.0168797
918.838	0.0167058
918.916	0.0168791
918.994	0.0167963
919.072	0.0168095
919.150	0.0168371
919.228	0.0168266
919.307	0.0169080
919.385	0.0168616
919.463	0.0167404
919.541	0.0167583
919.619	0.0167958
919.697	0.0166645
919.775	0.0167827
919.853	0.0168101
919.932	0.0167133
920.010	0.0167088
920.088	0.0165505
920.166	0.0166443
920.244	0.0167114
920.322	0.0166573
920.400	0.0166221
920.478	0.0167301
920.557	0.0166022
920.635	0.0169004
920.713	0.0168020
920.791	0.0167452
920.869	0.0167143
920.947	0.0169177
921.025	0.0167623
921.103	0.0168204
921.182	0.0168775
921.260	0.0169933
921.338	0.0169793
921.416	0.0169918
921.494	0.0169334
921.572	0.0170110
921.650	0.0169698
921.728	0.0167931
921.807	0.0168993
921.885	0.0168336
921.963	0.0169144
922.041	0.0168530
922.119	0.0167396
922.197	0.0167025
922.275	0.0167139
922.353	0.0166628
922.432	0.0165226
922.510	0.0166419
922.588	0.0167246
922.666	0.0166581
922.744	0.0166264
922.822	0.0167995
922.900	0.0168138
922.978	0.0166642
923.057	0.0168407
923.135	0.0168945
923.213	0.0168802
923.291	0.0168615
923.369	0.0169449
923.447	0.0168436
923.525	0.0168768
923.603	0.0169458
923.682	0.0168586
923.760	0.0169095
923.838	0.0168474
923.916	0.0167482
923.994	0.0167493
924.072	0.0166473
924.150	0.0166098
924.228	0.0166894
924.307	0.0166119
924.385	0.0165174
924.463	0.0164784
924.541	0.0165547
924.619	0.0165907
924.697	0.0165990
924.775	0.0167059
924.853	0.0165569
924.932	0.0165552
925.010	0.0166655
925.088	0.0165070
925.166	0.0164926
925.244	0.0165225
925.322	0.0165700
925.400	0.0166735
925.478	0.0166652
925.557	0.0167492
925.635	0.0166422
925.713	0.0167793
925.791	0.0167915
925.869	0.0167859
925.947	0.0167390
926.025	0.0168526
926.103	0.0167450
926.182	0.0169341
926.260	0.0167578
926.338	0.0168639
926.416	0.0168755
926.494	0.0168702
926.572	0.0167934
926.650	0.0168218
926.728	0.0167994
926.807	0.0167351
926.885	0.0167525
926.963	0.0167864
927.041	0.0166628
927.119	0.0165924
927.197	0.0166277
927.275	0.0165551
927.353	0.0166547
927.432	0.0165705
927.510	0.0165571
927.588	0.0166174
927.666	0.0165831
927.744	0.0165681
927.822	0.0165862
927.900	0.0166025
927.978	0.0166978
928.057	0.0166872
928.135	0.0165756
928.213	0.0166133
928.291	0.0167108
928.369	0.0168242
928.447	0.0167374
928.525	0.0167754
928.603	0.0168718
928.682	0.0168241
928.760	0.0170069
928.838	0.0169837
928.916	0.0168497
928.994	0.0169453
929.072	0.0168883
929.150	0.0168247
929.228	0.0168026
929.307	0.0167306
929.385	0.0166171
929.463	0.0167386
929.541	0.0166737
929.619	0.0166551
929.697	0.0164874
929.775	0.0166278
929.853	0.0168082
929.932	0.0165444
930.010	0.0165647
930.088	0.0165624
930.166	0.0167053
930.244	0.0167677
930.322	0.0165867
930.400	0.0166424
930.478	0.0166817
930.557	0.0166914
930.635	0.0166481
930.713	0.0169097
930.791	0.0168387
930.869	0.0167622
930.947	0.0168217
931.025	0.0166663
931.103	0.0166974
931.182	0.0166725
931.260	0.0167660
931.338	0.0168084
931.416	0.0167952
931.494	0.0166372
931.572	0.0167242
931.650	0.0166001
931.728	0.0166480
931.807	0.0166840
931.885	0.0163685
931.963	0.0165260
932.041	0.0166470
932.119	0.0166264
932.197	0.0166340
932.275	0.0165614
932.353	0.0165693
932.432	0.0166019
932.510	0.0167138
932.588	0.0165086
932.666	0.0165601
932.744	0.0166336
932.822	0.0165816
932.900	0.0166460
932.978	0.0166448
933.057	0.0166402
933.135	0.0166199
933.213	0.0165888
933.291	0.0168626
933.369	0.0166880
933.447	0.0166698
933.525	0.0167392
933.603	0.0167924
933.682	0.0166807
933.760	0.0166116
933.838	0.0166852
933.916	0.0166526
933.994	0.0167429
934.072	0.0167651
934.150	0.0167586
934.228	0.0166176
934.307	0.0166462
934.385	0.0167162
934.463	0.0166350
934.541	0.0167145
934.619	0.0166196
934.697	0.0166580
934.775	0.0167903
934.853	0.0168552
934.932	0.0168579
935.010	0.0167273
935.088	0.0168587
935.166	0.0166806
935.244	0.0168405
935.322	0.0167469
935.400	0.0168109
935.478	0.0167608
935.557	0.0167098
935.635	0.0167960
935.713	0.0166960
935.791	0.0166240
935.869	0.0167265
935.947	0.0167521
936.025	0.0166318
936.103	0.0167294
936.182	0.0168440
936.260	0.0168014
936.338	0.0166278
936.416	0.0167490
936.494	0.0166780
936.572	0.0167069
936.650	0.0167031
936.728	0.0166689
936.807	0.0166000
936.885	0.0166123
936.963	0.0165822
937.041	0.0165648
937.119	0.0165791
937.197	0.0166485
937.275	0.0165666
937.353	0.0166669
937.432	0.0166575
937.510	0.0168579
937.588	0.0167438
937.666	0.0167792
937.744	0.0166135
937.822	0.0167811
937.900	0.0167691
937.978	0.0168029
938.057	0.0167825
938.135	0.0168490
938.213	0.0170026
938.291	0.0168674
938.369	0.0168884
938.447	0.0169063
938.525	0.0166791
938.603	0.0166937
938.682	0.0169088
938.760	0.0168757
938.838	0.0168977
938.916	0.0167851
938.994	0.0168982
939.072	0.0167548
939.150	0.0167724
939.228	0.0168873
939.307	0.0170748
939.385	0.0168619
939.463	0.0168726
939.541	0.0170610
939.619	0.0169283
939.697	0.0169452
939.775	0.0170087
939.853	0.0168897
939.932	0.0169599
940.010	0.0167728
940.088	0.0167973
940.166	0.0168153
940.244	0.0168479
940.322	0.0166848
940.400	0.0170100
940.478	0.0168106
940.557	0.0167628
940.635	0.0166325
940.713	0.0167979
940.791	0.0167229
940.869	0.0167504
940.947	0.0167364
941.025	0.0166468
941.103	0.0168208
941.182	0.0168172
941.260	0.0166898
941.338	0.0166310
941.416	0.0167103
941.494	0.0168594
941.572	0.0168158
941.650	0.0167896
941.728	0.0167935
941.807	0.0166931
941.885	0.0168996
941.963	0.0168991
942.041	0.0167183
942.119	0.0168270
942.197	0.0168517
942.275	0.0167051
942.353	0.0167860
942.432	0.0168362
942.510	0.0166426
942.588	0.0167447
942.666	0.0168013
942.744	0.0167951
942.822	0.0167921
942.900	0.0166775
942.978	0.0167233
943.057	0.0167126
943.135	0.0167738
943.213	0.0168128
943.291	0.0166714
943.369	0.0168223
943.447	0.0167315
943.525	0.0167924
943.603	0.0167088
943.682	0.0167652
943.760	0.0166431
943.838	0.0167505
943.916	0.0167126
943.994	0.0166289
944.072	0.0165884
944.150	0.0166508
944.228	0.0167458
944.307	0.0167017
944.385	0.0167039
944.463	0.0167251
944.541	0.0167349
944.619	0.0169373
944.697	0.0166871
944.775	0.0168459
944.853	0.0169599
944.932	0.0168889
945.010	0.0168938
945.088	0.0169467
945.166	0.0169957
945.244	0.0170547
945.322	0.0169017
945.400	0.0169205
945.478	0.0169945
945.557	0.0170096
945.635	0.0169386
945.713	0.0169878
945.791	0.0169844
945.869	0.0169897
945.947	0.0167921
946.025	0.0168530
946.103	0.0169455
946.182	0.0168006
946.260	0.0169160
946.338	0.0169424
946.416	0.0169489
946.494	0.0169745
946.572	0.0167722
946.650	0.0167967
946.728	0.0167788
946.807	0.0169743
946.885	0.0169727
946.963	0.0169354
947.041	0.0168457
947.119	0.0168691
947.197	0.0167188
947.275	0.0167593
947.353	0.0168596
947.432	0.0169097
947.510	0.0167838
947.588	0.0167127
947.666	0.0167854
947.744	0.0166463
947.822	0.0168216
947.900	0.0168163
947.978	0.0167739
948.057	0.0166866
948.135	0.0166047
948.213	0.0166811
948.291	0.0167188
948.369	0.0167583
948.447	0.0166259
948.525	0.0167593
948.603	0.0166870
948.682	0.0167358
948.760	0.0168422
948.838	0.0168147
948.916	0.0166532
948.994	0.0166917
949.072	0.0167937
949.150	0.0167860
949.228	0.0167768
949.307	0.0166946
949.385	0.0167529
949.463	0.0168066
949.541	0.0166301
949.619	0.0166769
949.697	0.0167901
949.775	0.0168056
949.853	0.0167214
949.932	0.0165488
950.010	0.0166624
950.088	0.0167450
950.166	0.0166782
950.244	0.0167283
950.322	0.0167745
950.400	0.0166766
950.478	0.0168535
950.557	0.0168856
950.635	0.0168548
950.713	0.0167957
950.791	0.0168002
950.869	0.0169075
950.947	0.0166762
951.025	0.0165588
951.103	0.0167415
951.182	0.0167726
951.260	0.0167554
951.338	0.0167947
951.416	0.0166529
951.494	0.0167847
951.572	0.0168111
951.650	0.0167103
951.728	0.0168049
951.807	0.0167780
951.885	0.0167938
951.963	0.0168217
952.041	0.0167869
952.119	0.0168509
952.197	0.0167239
952.275	0.0167077
952.353	0.0167001
952.432	0.0167144
952.510	0.0167642
952.588	0.0167745
952.666	0.0168416
952.744	0.0168436
952.822	0.0167524
952.900	0.0166867
952.978	0.0167735
953.057	0.0166869
953.135	0.0166912
953.213	0.0166520
953.291	0.0166804
953.369	0.0167000
953.447	0.0167457
953.525	0.0164931
953.603	0.0164453
953.682	0.0166397
953.760	0.0165599
953.838	0.0165048
953.916	0.0164786
953.994	0.0165370
954.072	0.0165050
954.150	0.0165216
954.228	0.0165506
954.307	0.0164909
954.385	0.0164983
954.463	0.0164545
954.541	0.0165333
954.619	0.0166018
954.697	0.0165024
954.775	0.0166257
954.853	0.0164336
954.932	0.0165987
955.010	0.0165939
955.088	0.0165426
955.166	0.0165025
955.244	0.0166422
955.322	0.0166837
955.400	0.0165607
955.478	0.0167303
955.557	0.0166206
955.635	0.0167632
955.713	0.0167086
955.791	0.0167985
955.869	0.0167793
955.947	0.0165298
956.025	0.0165575
956.103	0.0166756
956.182	0.0166068
956.260	0.0167475
956.338	0.0166418
956.416	0.0167132
956.494	0.0165700
956.572	0.0165312
956.650	0.0165643
956.728	0.0167169
956.807	0.0165888
956.885	0.0163975
956.963	0.0165211
957.041	0.0165520
957.119	0.0166616
957.197	0.0166759
957.275	0.0165379
957.353	0.0165634
957.432	0.0165949
957.510	0.0167127
957.588	0.0166313
957.666	0.0165609
957.744	0.0165382
957.822	0.0165365
957.900	0.0166347
957.978	0.0165548
958.057	0.0166708
958.135	0.0166570
958.213	0.0166602
958.291	0.0167641
958.369	0.0167342
958.447	0.0166142
958.525	0.0166802
958.603	0.0166611
958.682	0.0165839
958.760	0.0165922
958.838	0.0166240
958.916	0.0165985
958.994	0.0165665
959.072	0.0163683
959.150	0.0164699
959.228	0.0165485
959.307	0.0165271
959.385	0.0165545
959.463	0.0165878
959.541	0.0165663
959.619	0.0165542
959.697	0.0165393
959.775	0.0167348
959.853	0.0164898
959.932	0.0165053
960.010	0.0166225
960.088	0.0166859
960.166	0.0168124
960.244	0.0166022
960.322	0.0166653
960.400	0.0166006
960.478	0.0168396
960.557	0.0168322
960.635	0.0166721
960.713	0.0167809
960.791	0.0169373
960.869	0.0168184
960.947	0.0165308
961.025	0.0165425
961.103	0.0167596
961.182	0.0166154
961.260	0.0165561
961.338	0.0165015
961.416	0.0165112
961.494	0.0166423
961.572	0.0164704
961.650	0.0165585
961.728	0.0164946
961.807	0.0165355
961.885	0.0165517
961.963	0.0165765
962.041	0.0165621
962.119	0.0166460
962.197	0.0166367
962.275	0.0165907
962.353	0.0166946
962.432	0.0166554
962.510	0.0167356
962.588	0.0165943
962.666	0.0166486
962.744	0.0167284
962.822	0.0166925
962.900	0.0166055
962.978	0.0166058
963.057	0.0168295
963.135	0.0168101
963.213	0.0166727
963.291	0.0166734
963.369	0.0168619
963.447	0.0168427
963.525	0.0167114
963.603	0.0167985
963.682	0.0168601
963.760	0.0168530
963.838	0.0168399
963.916	0.0167126
963.994	0.0166740
964.072	0.0167735
964.150	0.0165499
964.228	0.0165863
964.307	0.0166013
964.385	0.0165067
964.463	0.0165730
964.541	0.0166338
964.619	0.0166187
964.697	0.0166597
964.775	0.0165916
964.853	0.0167224
964.932	0.0167792
965.010	0.0167213
965.088	0.0167179
965.166	0.0169059
965.244	0.0168002
965.322	0.0166666
965.400	0.0168012
965.478	0.0168700
965.557	0.0169176
965.635	0.0169450
965.713	0.0168410
965.791	0.0167090
965.869	0.0167590
965.947	0.0168216
966.025	0.0166893
966.103	0.0166975
966.182	0.0167478
966.260	0.0166667
966.338	0.0167329
966.416	0.0167636
966.494	0.0167205
966.572	0.0167399
966.650	0.0166713
966.728	0.0167181
966.807	0.0168650
966.885	0.0168039
966.963	0.0167218
967.041	0.0167786
967.119	0.0168891
967.197	0.0169189
967.275	0.0168636
967.353	0.0168674
967.432	0.0170489
967.510	0.0169279
967.588	0.0168877
967.666	0.0169595
967.744	0.0167291
967.822	0.0168816
967.900	0.0168333
967.978	0.0168051
968.057	0.0168704
968.135	0.0167715
968.213	0.0165818
968.291	0.0166964
968.369	0.0166596
968.447	0.0165968
968.525	0.0166084
968.603	0.0165846
968.682	0.0166044
968.760	0.0165734
968.838	0.0165523
968.916	0.0165152
968.994	0.0165882
969.072	0.0166993
969.150	0.0166209
969.228	0.0165933
969.307	0.0166736
969.385	0.0168177
969.463	0.0168487
969.541	0.0169913
969.619	0.0167797
969.697	0.0168230
969.775	0.0168568
969.853	0.0170257
969.932	0.0168105
