06/10/2022	16:31:13	Ver.	4.1	UNKNOWN
Optical Delay	650.009681	Delta X		0.078125	Sweeps	1	Scan Rate	0/0
Coordinates	Axis 1	NaN	Axis 2	NaN	Axis 3	NaN	Axis 4	NaN	Axis 5	NaN	Axis 6	0.000000
TX Power	0.000000	RX Power	0.000000

650.010	0.0169205
650.088	0.0167300
650.166	0.0169104
650.244	0.0167354
650.322	0.0168922
650.400	0.0168801
650.478	0.0168570
650.557	0.0168040
650.635	0.0167957
650.713	0.0168453
650.791	0.0169087
650.869	0.0168017
650.947	0.0168417
651.025	0.0168204
651.103	0.0167374
651.182	0.0168682
651.260	0.0169332
651.338	0.0168920
651.416	0.0168141
651.494	0.0168005
651.572	0.0167573
651.650	0.0168593
651.728	0.0168002
651.807	0.0168096
651.885	0.0167426
651.963	0.0168145
652.041	0.0167707
652.119	0.0167793
652.197	0.0167777
652.275	0.0168484
652.353	0.0168298
652.432	0.0169475
652.510	0.0167396
652.588	0.0167930
652.666	0.0168371
652.744	0.0169432
652.822	0.0168617
652.900	0.0167966
652.978	0.0169549
653.057	0.0168842
653.135	0.0168921
653.213	0.0168633
653.291	0.0169106
653.369	0.0168307
653.447	0.0167850
653.525	0.0167854
653.603	0.0169172
653.682	0.0167554
653.760	0.0168219
653.838	0.0169701
653.916	0.0167240
653.994	0.0170225
654.072	0.0169456
654.150	0.0168414
654.228	0.0168552
654.307	0.0169443
654.385	0.0168156
654.463	0.0169421
654.541	0.0167429
654.619	0.0169567
654.697	0.0171225
654.775	0.0169054
654.853	0.0168077
654.932	0.0169345
655.010	0.0168682
655.088	0.0167677
655.166	0.0169150
655.244	0.0167797
655.322	0.0170109
655.400	0.0168614
655.478	0.0168871
655.557	0.0169236
655.635	0.0167775
655.713	0.0168539
655.791	0.0168716
655.869	0.0168774
655.947	0.0169151
656.025	0.0168594
656.103	0.0168341
656.182	0.0168498
656.260	0.0168075
656.338	0.0168782
656.416	0.0168683
656.494	0.0166949
656.572	0.0170409
656.650	0.0169460
656.728	0.0168217
656.807	0.0168206
656.885	0.0167878
656.963	0.0167019
657.041	0.0168494
657.119	0.0168765
657.197	0.0167332
657.275	0.0168397
657.353	0.0169402
657.432	0.0168469
657.510	0.0169581
657.588	0.0167692
657.666	0.0168586
657.744	0.0168793
657.822	0.0168040
657.900	0.0169753
657.978	0.0168459
658.057	0.0167772
658.135	0.0168456
658.213	0.0167935
658.291	0.0168385
658.369	0.0167369
658.447	0.0168198
658.525	0.0168417
658.603	0.0168281
658.682	0.0168339
658.760	0.0167630
658.838	0.0169543
658.916	0.0169013
658.994	0.0170084
659.072	0.0169361
659.150	0.0168824
659.228	0.0167973
659.307	0.0169109
659.385	0.0168914
659.463	0.0168479
659.541	0.0168495
659.619	0.0168068
659.697	0.0168121
659.775	0.0168137
659.853	0.0169012
659.932	0.0167859
660.010	0.0167891
660.088	0.0169064
660.166	0.0167804
660.244	0.0167512
660.322	0.0167256
660.400	0.0167338
660.478	0.0168420
660.557	0.0170070
660.635	0.0168495
660.713	0.0168611
660.791	0.0167799
660.869	0.0167821
660.947	0.0169085
661.025	0.0168964
661.103	0.0168069
661.182	0.0167924
661.260	0.0169323
661.338	0.0168018
661.416	0.0170174
661.494	0.0168321
661.572	0.0167542
661.650	0.0169525
661.728	0.0168932
661.807	0.0168385
661.885	0.0169128
661.963	0.0169270
662.041	0.0168271
662.119	0.0168560
662.197	0.0169208
662.275	0.0167863
662.353	0.0169025
662.432	0.0168820
662.510	0.0167886
662.588	0.0169128
662.666	0.0169150
662.744	0.0170342
662.822	0.0169624
662.900	0.0169109
662.978	0.0169390
663.057	0.0169001
663.135	0.0169358
663.213	0.0169080
663.291	0.0168998
663.369	0.0169006
663.447	0.0168503
663.525	0.0168398
663.603	0.0169053
663.682	0.0168792
663.760	0.0168867
663.838	0.0168913
663.916	0.0167947
663.994	0.0169563
664.072	0.0168799
664.150	0.0167632
664.228	0.0168316
664.307	0.0168903
664.385	0.0169399
664.463	0.0169682
664.541	0.0169451
664.619	0.0169120
664.697	0.0168350
664.775	0.0168421
664.853	0.0168840
664.932	0.0167592
665.010	0.0168987
665.088	0.0169888
665.166	0.0168896
665.244	0.0169769
665.322	0.0169057
665.400	0.0168597
665.478	0.0168251
665.557	0.0168671
665.635	0.0170088
665.713	0.0170103
665.791	0.0169265
665.869	0.0168919
665.947	0.0168861
666.025	0.0169197
666.103	0.0169075
666.182	0.0170773
666.260	0.0169919
666.338	0.0169688
666.416	0.0170621
666.494	0.0168783
666.572	0.0168592
666.650	0.0167854
666.728	0.0169885
666.807	0.0168248
666.885	0.0169182
666.963	0.0169333
667.041	0.0168985
667.119	0.0169714
667.197	0.0168675
667.275	0.0168398
667.353	0.0167403
667.432	0.0167069
667.510	0.0170226
667.588	0.0168999
667.666	0.0168225
667.744	0.0169135
667.822	0.0169448
667.900	0.0169196
667.978	0.0169743
668.057	0.0168749
668.135	0.0168059
668.213	0.0169083
668.291	0.0169183
668.369	0.0168533
668.447	0.0167879
668.525	0.0167752
668.603	0.0170782
668.682	0.0169643
668.760	0.0169234
668.838	0.0169047
668.916	0.0167971
668.994	0.0168283
669.072	0.0168257
669.150	0.0167814
669.228	0.0169043
669.307	0.0167579
669.385	0.0167426
669.463	0.0169018
669.541	0.0168505
669.619	0.0169022
669.697	0.0167289
669.775	0.0168197
669.853	0.0168887
669.932	0.0168895
670.010	0.0168196
670.088	0.0168032
670.166	0.0169105
670.244	0.0169450
670.322	0.0169637
670.400	0.0168717
670.478	0.0168086
670.557	0.0168800
670.635	0.0168970
670.713	0.0168613
670.791	0.0168025
670.869	0.0169200
670.947	0.0168422
671.025	0.0168016
671.103	0.0167337
671.182	0.0168903
671.260	0.0170185
671.338	0.0167408
671.416	0.0167401
671.494	0.0168809
671.572	0.0168748
671.650	0.0168530
671.728	0.0167874
671.807	0.0168924
671.885	0.0168595
671.963	0.0166703
672.041	0.0168868
672.119	0.0167027
672.197	0.0167793
672.275	0.0169600
672.353	0.0169762
672.432	0.0168687
672.510	0.0167892
672.588	0.0168660
672.666	0.0169412
672.744	0.0168076
672.822	0.0167425
672.900	0.0168404
672.978	0.0168586
673.057	0.0167756
673.135	0.0169297
673.213	0.0167609
673.291	0.0169684
673.369	0.0169216
673.447	0.0166511
673.525	0.0167768
673.603	0.0168345
673.682	0.0168286
673.760	0.0168627
673.838	0.0169871
673.916	0.0168533
673.994	0.0168929
674.072	0.0168526
674.150	0.0168822
674.228	0.0167271
674.307	0.0167520
674.385	0.0168352
674.463	0.0168311
674.541	0.0168190
674.619	0.0168723
674.697	0.0168950
674.775	0.0168656
674.853	0.0168300
674.932	0.0167992
675.010	0.0168494
675.088	0.0168442
675.166	0.0167168
675.244	0.0168586
675.322	0.0169199
675.400	0.0169054
675.478	0.0169982
675.557	0.0167815
675.635	0.0166522
675.713	0.0167957
675.791	0.0170045
675.869	0.0168634
675.947	0.0168603
676.025	0.0167748
676.103	0.0169139
676.182	0.0167604
676.260	0.0168830
676.338	0.0168445
676.416	0.0168990
676.494	0.0170638
676.572	0.0168886
676.650	0.0169621
676.728	0.0168785
676.807	0.0167970
676.885	0.0169657
676.963	0.0168398
677.041	0.0167545
677.119	0.0169102
677.197	0.0168241
677.275	0.0168269
677.353	0.0167765
677.432	0.0168616
677.510	0.0168342
677.588	0.0168864
677.666	0.0169079
677.744	0.0168855
677.822	0.0168156
677.900	0.0167765
677.978	0.0168283
678.057	0.0168311
678.135	0.0168943
678.213	0.0169369
678.291	0.0169416
678.369	0.0170040
678.447	0.0168407
678.525	0.0169147
678.603	0.0169830
678.682	0.0169431
678.760	0.0169408
678.838	0.0169501
678.916	0.0168999
678.994	0.0169744
679.072	0.0168446
679.150	0.0169067
679.228	0.0169844
679.307	0.0169618
679.385	0.0168398
679.463	0.0168173
679.541	0.0169903
679.619	0.0170467
679.697	0.0168166
679.775	0.0169123
679.853	0.0169404
679.932	0.0167960
680.010	0.0168510
680.088	0.0169469
680.166	0.0169413
680.244	0.0169421
680.322	0.0170290
680.400	0.0167912
680.478	0.0169341
680.557	0.0167851
680.635	0.0169735
680.713	0.0169100
680.791	0.0169588
680.869	0.0169701
680.947	0.0169429
681.025	0.0167941
681.103	0.0168813
681.182	0.0168554
681.260	0.0169800
681.338	0.0169167
681.416	0.0170133
681.494	0.0168478
681.572	0.0168336
681.650	0.0170367
681.728	0.0170049
681.807	0.0169491
681.885	0.0169173
681.963	0.0169062
682.041	0.0170502
682.119	0.0169707
682.197	0.0169586
682.275	0.0168370
682.353	0.0168260
682.432	0.0169518
682.510	0.0169563
682.588	0.0169048
682.666	0.0169525
682.744	0.0169777
682.822	0.0170525
682.900	0.0169507
682.978	0.0168629
683.057	0.0168150
683.135	0.0167749
683.213	0.0168553
683.291	0.0169210
683.369	0.0169563
683.447	0.0168206
683.525	0.0168069
683.603	0.0168694
683.682	0.0169067
683.760	0.0168602
683.838	0.0168482
683.916	0.0169409
683.994	0.0169244
684.072	0.0168638
684.150	0.0169810
684.228	0.0169261
684.307	0.0169140
684.385	0.0168990
684.463	0.0168242
684.541	0.0167864
684.619	0.0168877
684.697	0.0169705
684.775	0.0168775
684.853	0.0168056
684.932	0.0170462
685.010	0.0169967
685.088	0.0168678
685.166	0.0169148
685.244	0.0168726
685.322	0.0168610
685.400	0.0169571
685.478	0.0169353
685.557	0.0169376
685.635	0.0168243
685.713	0.0169541
685.791	0.0169490
685.869	0.0169752
685.947	0.0169595
686.025	0.0168765
686.103	0.0169500
686.182	0.0168135
686.260	0.0169243
686.338	0.0170049
686.416	0.0169273
686.494	0.0169749
686.572	0.0167403
686.650	0.0170245
686.728	0.0167643
686.807	0.0169341
686.885	0.0168642
686.963	0.0169250
687.041	0.0168739
687.119	0.0169344
687.197	0.0168378
687.275	0.0169621
687.353	0.0170335
687.432	0.0169125
687.510	0.0168645
687.588	0.0168958
687.666	0.0168662
687.744	0.0169068
687.822	0.0169273
687.900	0.0169157
687.978	0.0170013
688.057	0.0169160
688.135	0.0169165
688.213	0.0169023
688.291	0.0167702
688.369	0.0168284
688.447	0.0169601
688.525	0.0169272
688.603	0.0168447
688.682	0.0169203
688.760	0.0169733
688.838	0.0168637
688.916	0.0168164
688.994	0.0168356
689.072	0.0169402
689.150	0.0169025
689.228	0.0168313
689.307	0.0169202
689.385	0.0169815
689.463	0.0168767
689.541	0.0169144
689.619	0.0169360
689.697	0.0169824
689.775	0.0168444
689.853	0.0168036
689.932	0.0168754
690.010	0.0168515
690.088	0.0168024
690.166	0.0168178
690.244	0.0168172
690.322	0.0169590
690.400	0.0167496
690.478	0.0168944
690.557	0.0169485
690.635	0.0167844
690.713	0.0167451
690.791	0.0166940
690.869	0.0169278
690.947	0.0168792
691.025	0.0167171
691.103	0.0167742
691.182	0.0168894
691.260	0.0168015
691.338	0.0166571
691.416	0.0169285
691.494	0.0168114
691.572	0.0167963
691.650	0.0167709
691.728	0.0167776
691.807	0.0168161
691.885	0.0167991
691.963	0.0169176
692.041	0.0168708
692.119	0.0168372
692.197	0.0167245
692.275	0.0166257
692.353	0.0166595
692.432	0.0167404
692.510	0.0169904
692.588	0.0169035
692.666	0.0167783
692.744	0.0168492
692.822	0.0167976
692.900	0.0167955
692.978	0.0168398
693.057	0.0168368
693.135	0.0169036
693.213	0.0168591
693.291	0.0167470
693.369	0.0169363
693.447	0.0167810
693.525	0.0167550
693.603	0.0167872
693.682	0.0168588
693.760	0.0168702
693.838	0.0168877
693.916	0.0167822
693.994	0.0168294
694.072	0.0167049
694.150	0.0168429
694.228	0.0167919
694.307	0.0168790
694.385	0.0167522
694.463	0.0167555
694.541	0.0168131
694.619	0.0168079
694.697	0.0168230
694.775	0.0168963
694.853	0.0167470
694.932	0.0170124
695.010	0.0170139
695.088	0.0168121
695.166	0.0167711
695.244	0.0168629
695.322	0.0168433
695.400	0.0169059
695.478	0.0169418
695.557	0.0168378
695.635	0.0167075
695.713	0.0167447
695.791	0.0168884
695.869	0.0169563
695.947	0.0168468
696.025	0.0169427
696.103	0.0167994
696.182	0.0168808
696.260	0.0170144
696.338	0.0168413
696.416	0.0167951
696.494	0.0168380
696.572	0.0169799
696.650	0.0168163
696.728	0.0168213
696.807	0.0168242
696.885	0.0169444
696.963	0.0167987
697.041	0.0168622
697.119	0.0168088
697.197	0.0168088
697.275	0.0168602
697.353	0.0169863
697.432	0.0168260
697.510	0.0167322
697.588	0.0170062
697.666	0.0169228
697.744	0.0168086
697.822	0.0168074
697.900	0.0168843
697.978	0.0169053
698.057	0.0167886
698.135	0.0167564
698.213	0.0168226
698.291	0.0168653
698.369	0.0167046
698.447	0.0169695
698.525	0.0169054
698.603	0.0168321
698.682	0.0169360
698.760	0.0167413
698.838	0.0169688
698.916	0.0169231
698.994	0.0167736
699.072	0.0167429
699.150	0.0167577
699.228	0.0168390
699.307	0.0167939
699.385	0.0167914
699.463	0.0170389
699.541	0.0168515
699.619	0.0168767
699.697	0.0168543
699.775	0.0168718
699.853	0.0169186
699.932	0.0168539
700.010	0.0167532
700.088	0.0168825
700.166	0.0169897
700.244	0.0168723
700.322	0.0168811
700.400	0.0167707
700.478	0.0168075
700.557	0.0169679
700.635	0.0169038
700.713	0.0167953
700.791	0.0169039
700.869	0.0168589
700.947	0.0168641
701.025	0.0169551
701.103	0.0169228
701.182	0.0168980
701.260	0.0169639
701.338	0.0168077
701.416	0.0169494
701.494	0.0168215
701.572	0.0168339
701.650	0.0168855
701.728	0.0168543
701.807	0.0170278
701.885	0.0170421
701.963	0.0169868
702.041	0.0169812
702.119	0.0169948
702.197	0.0169468
702.275	0.0168040
702.353	0.0169221
702.432	0.0168517
702.510	0.0168067
702.588	0.0169008
702.666	0.0169513
702.744	0.0168204
702.822	0.0168952
702.900	0.0167858
702.978	0.0166463
703.057	0.0168423
703.135	0.0168135
703.213	0.0169028
703.291	0.0169454
703.369	0.0167941
703.447	0.0168743
703.525	0.0168993
703.603	0.0169175
703.682	0.0168522
703.760	0.0169190
703.838	0.0168517
703.916	0.0168921
703.994	0.0168858
704.072	0.0168331
704.150	0.0169352
704.228	0.0168820
704.307	0.0169371
704.385	0.0169738
704.463	0.0167666
704.541	0.0168396
704.619	0.0168896
704.697	0.0168011
704.775	0.0169279
704.853	0.0167822
704.932	0.0166914
705.010	0.0167880
705.088	0.0168947
705.166	0.0168842
705.244	0.0168705
705.322	0.0169203
705.400	0.0167290
705.478	0.0169079
705.557	0.0168257
705.635	0.0168029
705.713	0.0167755
705.791	0.0169753
705.869	0.0168803
705.947	0.0167815
706.025	0.0168922
706.103	0.0167310
706.182	0.0168729
706.260	0.0168413
706.338	0.0168166
706.416	0.0168253
706.494	0.0168595
706.572	0.0168713
706.650	0.0168138
706.728	0.0168159
706.807	0.0167487
706.885	0.0168488
706.963	0.0167222
707.041	0.0168370
707.119	0.0168938
707.197	0.0167310
707.275	0.0168224
707.353	0.0170492
707.432	0.0167443
707.510	0.0167286
707.588	0.0168642
707.666	0.0167625
707.744	0.0167387
707.822	0.0167139
707.900	0.0168060
707.978	0.0168657
708.057	0.0168085
708.135	0.0167955
708.213	0.0167561
708.291	0.0169062
708.369	0.0168677
708.447	0.0169064
708.525	0.0168315
708.603	0.0169102
708.682	0.0168732
708.760	0.0167886
708.838	0.0168880
708.916	0.0167340
708.994	0.0168156
709.072	0.0168681
709.150	0.0167901
709.228	0.0166551
709.307	0.0167817
709.385	0.0168409
709.463	0.0168032
709.541	0.0168317
709.619	0.0167810
709.697	0.0168636
709.775	0.0166872
709.853	0.0168100
709.932	0.0167818
710.010	0.0168367
710.088	0.0168094
710.166	0.0167497
710.244	0.0168988
710.322	0.0167533
710.400	0.0167199
710.478	0.0168437
710.557	0.0168243
710.635	0.0167313
710.713	0.0166698
710.791	0.0167074
710.869	0.0167906
710.947	0.0167893
711.025	0.0167847
711.103	0.0168084
711.182	0.0167020
711.260	0.0168287
711.338	0.0167623
711.416	0.0167052
711.494	0.0167818
711.572	0.0167045
711.650	0.0167784
711.728	0.0167366
711.807	0.0167016
711.885	0.0167985
711.963	0.0167480
712.041	0.0168323
712.119	0.0166924
712.197	0.0169192
712.275	0.0168181
712.353	0.0167841
712.432	0.0168135
712.510	0.0167758
712.588	0.0167937
712.666	0.0168251
712.744	0.0167176
712.822	0.0167928
712.900	0.0168446
712.978	0.0167445
713.057	0.0166904
713.135	0.0168513
713.213	0.0168984
713.291	0.0168776
713.369	0.0168629
713.447	0.0168221
713.525	0.0167804
713.603	0.0167593
713.682	0.0169353
713.760	0.0167834
713.838	0.0166077
713.916	0.0168446
713.994	0.0168240
714.072	0.0167876
714.150	0.0168048
714.228	0.0167606
714.307	0.0165901
714.385	0.0169580
714.463	0.0168524
714.541	0.0166943
714.619	0.0166842
714.697	0.0166847
714.775	0.0166759
714.853	0.0168661
714.932	0.0168967
715.010	0.0167436
715.088	0.0169025
715.166	0.0167172
715.244	0.0167797
715.322	0.0168420
715.400	0.0166807
715.478	0.0168443
715.557	0.0167694
715.635	0.0167768
715.713	0.0168323
715.791	0.0167509
715.869	0.0168494
715.947	0.0168233
716.025	0.0167854
716.103	0.0167704
716.182	0.0168163
716.260	0.0169469
716.338	0.0169296
716.416	0.0168913
716.494	0.0168190
716.572	0.0169457
716.650	0.0168449
716.728	0.0169849
716.807	0.0169285
716.885	0.0166764
716.963	0.0167870
717.041	0.0168064
717.119	0.0166651
717.197	0.0166970
717.275	0.0167560
717.353	0.0167305
717.432	0.0166574
717.510	0.0167545
717.588	0.0167934
717.666	0.0167516
717.744	0.0168398
717.822	0.0168214
717.900	0.0169279
717.978	0.0169917
718.057	0.0170023
718.135	0.0170855
718.213	0.0170341
718.291	0.0170201
718.369	0.0169716
718.447	0.0168726
718.525	0.0168253
718.603	0.0167042
718.682	0.0167047
718.760	0.0164744
718.838	0.0165290
718.916	0.0165217
718.994	0.0164571
719.072	0.0163901
719.150	0.0164483
719.228	0.0166387
719.307	0.0166727
719.385	0.0166614
719.463	0.0168159
719.541	0.0169473
719.619	0.0170554
719.697	0.0172748
719.775	0.0172565
719.853	0.0172556
719.932	0.0172177
720.010	0.0172408
720.088	0.0172192
720.166	0.0170517
720.244	0.0169054
720.322	0.0169753
720.400	0.0169308
720.478	0.0170287
720.557	0.0168743
720.635	0.0168862
720.713	0.0168696
720.791	0.0168092
720.869	0.0168076
720.947	0.0167900
721.025	0.0167916
721.103	0.0167820
721.182	0.0168838
721.260	0.0167980
721.338	0.0166562
721.416	0.0168136
721.494	0.0167426
721.572	0.0167678
721.650	0.0167947
721.728	0.0166367
721.807	0.0166845
721.885	0.0168011
721.963	0.0167220
722.041	0.0167090
722.119	0.0169238
722.197	0.0169168
722.275	0.0170567
722.353	0.0170493
722.432	0.0173206
722.510	0.0173859
722.588	0.0173344
722.666	0.0174124
722.744	0.0173323
722.822	0.0172762
722.900	0.0169829
722.978	0.0169311
723.057	0.0168998
723.135	0.0167010
723.213	0.0164303
723.291	0.0164137
723.369	0.0163402
723.447	0.0161944
723.525	0.0163005
723.603	0.0162871
723.682	0.0163865
723.760	0.0165321
723.838	0.0165686
723.916	0.0165570
723.994	0.0168061
724.072	0.0168118
724.150	0.0169213
724.228	0.0170501
724.307	0.0171230
724.385	0.0172038
724.463	0.0172340
724.541	0.0172813
724.619	0.0172948
724.697	0.0172174
724.775	0.0173146
724.853	0.0172874
724.932	0.0173219
725.010	0.0173102
725.088	0.0171413
725.166	0.0170895
725.244	0.0170873
725.322	0.0168895
725.400	0.0167548
725.478	0.0166567
725.557	0.0165795
725.635	0.0164445
725.713	0.0164596
725.791	0.0163544
725.869	0.0165208
725.947	0.0164222
726.025	0.0165401
726.103	0.0166619
726.182	0.0165368
726.260	0.0166397
726.338	0.0168281
726.416	0.0167464
726.494	0.0168333
726.572	0.0170545
726.650	0.0170229
726.728	0.0169144
726.807	0.0171510
726.885	0.0171691
726.963	0.0170599
727.041	0.0172456
727.119	0.0173094
727.197	0.0171617
727.275	0.0171479
727.353	0.0172225
727.432	0.0170714
727.510	0.0170673
727.588	0.0168893
727.666	0.0169013
727.744	0.0168243
727.822	0.0167976
727.900	0.0166991
727.978	0.0166445
728.057	0.0166579
728.135	0.0165484
728.213	0.0165386
728.291	0.0164065
728.369	0.0165807
728.447	0.0166045
728.525	0.0165244
728.603	0.0166251
728.682	0.0167714
728.760	0.0169263
728.838	0.0168873
728.916	0.0168349
728.994	0.0170297
729.072	0.0171419
729.150	0.0170280
729.228	0.0173035
729.307	0.0173053
729.385	0.0172041
729.463	0.0172755
729.541	0.0172136
729.619	0.0170311
729.697	0.0170547
729.775	0.0170486
729.853	0.0169104
729.932	0.0167863
730.010	0.0167133
730.088	0.0163798
730.166	0.0165301
730.244	0.0165811
730.322	0.0164692
730.400	0.0163982
730.478	0.0165199
730.557	0.0165510
730.635	0.0166312
730.713	0.0166521
730.791	0.0167806
730.869	0.0168228
730.947	0.0167656
731.025	0.0167699
731.103	0.0168386
731.182	0.0168247
731.260	0.0167659
731.338	0.0168022
731.416	0.0168939
731.494	0.0167738
731.572	0.0166114
731.650	0.0167520
731.728	0.0167496
731.807	0.0166783
731.885	0.0167362
731.963	0.0167815
732.041	0.0167382
732.119	0.0166766
732.197	0.0167384
732.275	0.0167353
732.353	0.0168072
732.432	0.0168560
732.510	0.0168084
732.588	0.0167752
732.666	0.0166708
732.744	0.0168046
732.822	0.0167690
732.900	0.0167364
732.978	0.0167764
733.057	0.0167887
733.135	0.0167032
733.213	0.0166879
733.291	0.0168694
733.369	0.0167467
733.447	0.0167049
733.525	0.0167478
733.603	0.0167292
733.682	0.0166862
733.760	0.0167683
733.838	0.0167148
733.916	0.0168163
733.994	0.0168166
734.072	0.0168492
734.150	0.0167201
734.228	0.0166098
734.307	0.0166461
734.385	0.0166512
734.463	0.0166167
734.541	0.0167381
734.619	0.0167514
734.697	0.0165734
734.775	0.0165919
734.853	0.0166895
734.932	0.0166261
735.010	0.0167140
735.088	0.0167134
735.166	0.0167687
735.244	0.0168941
735.322	0.0170870
735.400	0.0170724
735.478	0.0170410
735.557	0.0172373
735.635	0.0171424
735.713	0.0171574
735.791	0.0171079
735.869	0.0169788
735.947	0.0169528
736.025	0.0168376
736.103	0.0165005
736.182	0.0165251
736.260	0.0164929
736.338	0.0162999
736.416	0.0163547
736.494	0.0162999
736.572	0.0163253
736.650	0.0162316
736.728	0.0164419
736.807	0.0166487
736.885	0.0165763
736.963	0.0167717
737.041	0.0168510
737.119	0.0169483
737.197	0.0170795
737.275	0.0172076
737.353	0.0173203
737.432	0.0173032
737.510	0.0172035
737.588	0.0173383
737.666	0.0171849
737.744	0.0170267
737.822	0.0172345
737.900	0.0171400
737.978	0.0169666
738.057	0.0168596
738.135	0.0167563
738.213	0.0166508
738.291	0.0166673
738.369	0.0166722
738.447	0.0165009
738.525	0.0164993
738.603	0.0165528
738.682	0.0164552
738.760	0.0163634
738.838	0.0162697
738.916	0.0163929
738.994	0.0164996
739.072	0.0164751
739.150	0.0166152
739.228	0.0167521
739.307	0.0166430
739.385	0.0168642
739.463	0.0170548
739.541	0.0172098
739.619	0.0172070
739.697	0.0173521
739.775	0.0174725
739.853	0.0176282
739.932	0.0174805
740.010	0.0175170
740.088	0.0174554
740.166	0.0175643
740.244	0.0173383
740.322	0.0172810
740.400	0.0171754
740.478	0.0170183
740.557	0.0169096
740.635	0.0165768
740.713	0.0164120
740.791	0.0163145
740.869	0.0163104
740.947	0.0162611
741.025	0.0162041
741.103	0.0160934
741.182	0.0162444
741.260	0.0162460
741.338	0.0163566
741.416	0.0165944
741.494	0.0166521
741.572	0.0169080
741.650	0.0170754
741.728	0.0171240
741.807	0.0172165
741.885	0.0173619
741.963	0.0173549
742.041	0.0174950
742.119	0.0174261
742.197	0.0174628
742.275	0.0173645
742.353	0.0172786
742.432	0.0173232
742.510	0.0170444
742.588	0.0168460
742.666	0.0170688
742.744	0.0167336
742.822	0.0167790
742.900	0.0166685
742.978	0.0167788
743.057	0.0166553
743.135	0.0165561
743.213	0.0165562
743.291	0.0167317
743.369	0.0166828
743.447	0.0168658
743.525	0.0168053
743.603	0.0168159
743.682	0.0168043
743.760	0.0168407
743.838	0.0168533
743.916	0.0168864
743.994	0.0169026
744.072	0.0168511
744.150	0.0169495
744.228	0.0169363
744.307	0.0169659
744.385	0.0169944
744.463	0.0170573
744.541	0.0171823
744.619	0.0170660
744.697	0.0169859
744.775	0.0170808
744.853	0.0172325
744.932	0.0170852
745.010	0.0171023
745.088	0.0169087
745.166	0.0171035
745.244	0.0170522
745.322	0.0170486
745.400	0.0170486
745.478	0.0168129
745.557	0.0169412
745.635	0.0168575
745.713	0.0167699
745.791	0.0167593
745.869	0.0168404
745.947	0.0167434
746.025	0.0166348
746.103	0.0167136
746.182	0.0167564
746.260	0.0167553
746.338	0.0167070
746.416	0.0167802
746.494	0.0168012
746.572	0.0166426
746.650	0.0167649
746.728	0.0167293
746.807	0.0168443
746.885	0.0166905
746.963	0.0168748
747.041	0.0167951
747.119	0.0167982
747.197	0.0167686
747.275	0.0167461
747.353	0.0167921
747.432	0.0168159
747.510	0.0169024
747.588	0.0169587
747.666	0.0167417
747.744	0.0168063
747.822	0.0168815
747.900	0.0169527
747.978	0.0169466
748.057	0.0169981
748.135	0.0170522
748.213	0.0170537
748.291	0.0168829
748.369	0.0167426
748.447	0.0169919
748.525	0.0166241
748.603	0.0166746
748.682	0.0168146
748.760	0.0167590
748.838	0.0167167
748.916	0.0166225
748.994	0.0166963
749.072	0.0166396
749.150	0.0167519
749.228	0.0167016
749.307	0.0165678
749.385	0.0165700
749.463	0.0165491
749.541	0.0166770
749.619	0.0167363
749.697	0.0167835
749.775	0.0168019
749.853	0.0169240
749.932	0.0169928
750.010	0.0168009
750.088	0.0169157
750.166	0.0171548
750.244	0.0170541
750.322	0.0171422
750.400	0.0170745
750.478	0.0170486
750.557	0.0170153
750.635	0.0170105
750.713	0.0170000
750.791	0.0169389
750.869	0.0168935
750.947	0.0168591
751.025	0.0167233
751.103	0.0166837
751.182	0.0166601
751.260	0.0166903
751.338	0.0167862
751.416	0.0167571
751.494	0.0165446
751.572	0.0166187
751.650	0.0165800
751.728	0.0167224
751.807	0.0166459
751.885	0.0166644
751.963	0.0167651
752.041	0.0167896
752.119	0.0167316
752.197	0.0166968
752.275	0.0167934
752.353	0.0168755
752.432	0.0169259
752.510	0.0168824
752.588	0.0168848
752.666	0.0168970
752.744	0.0168806
752.822	0.0169060
752.900	0.0168937
752.978	0.0168919
753.057	0.0168817
753.135	0.0168406
753.213	0.0168381
753.291	0.0168887
753.369	0.0166923
753.447	0.0167310
753.525	0.0167754
753.603	0.0167387
753.682	0.0169325
753.760	0.0167583
753.838	0.0167345
753.916	0.0167950
753.994	0.0167385
754.072	0.0166251
754.150	0.0167670
754.228	0.0168629
754.307	0.0167253
754.385	0.0167123
754.463	0.0167727
754.541	0.0169041
754.619	0.0168417
754.697	0.0169353
754.775	0.0169688
754.853	0.0168488
754.932	0.0168416
755.010	0.0169434
755.088	0.0169155
755.166	0.0170735
755.244	0.0170177
755.322	0.0169086
755.400	0.0170145
755.478	0.0169812
755.557	0.0169785
755.635	0.0170535
755.713	0.0170189
755.791	0.0169145
755.869	0.0168875
755.947	0.0169353
756.025	0.0169368
756.103	0.0169188
756.182	0.0169115
756.260	0.0167942
756.338	0.0170030
756.416	0.0169013
756.494	0.0168784
756.572	0.0168923
756.650	0.0169037
756.728	0.0169559
756.807	0.0169317
756.885	0.0169012
756.963	0.0169164
757.041	0.0168721
757.119	0.0169810
757.197	0.0169569
757.275	0.0170260
757.353	0.0169657
757.432	0.0170740
757.510	0.0169878
757.588	0.0170081
757.666	0.0170052
757.744	0.0172192
757.822	0.0170570
757.900	0.0170058
757.978	0.0169134
758.057	0.0170700
758.135	0.0168887
758.213	0.0168371
758.291	0.0171100
758.369	0.0168918
758.447	0.0168174
758.525	0.0168272
758.603	0.0168929
758.682	0.0169074
758.760	0.0168461
758.838	0.0168481
758.916	0.0169651
758.994	0.0169370
759.072	0.0169125
759.150	0.0168158
759.228	0.0169615
759.307	0.0169863
759.385	0.0169337
759.463	0.0170232
759.541	0.0168974
759.619	0.0167730
759.697	0.0169540
759.775	0.0167714
759.853	0.0169153
759.932	0.0168532
760.010	0.0170664
760.088	0.0169075
760.166	0.0168068
760.244	0.0168851
760.322	0.0167398
760.400	0.0167989
760.478	0.0168852
760.557	0.0167764
760.635	0.0167630
760.713	0.0169759
760.791	0.0168611
760.869	0.0166866
760.947	0.0167783
761.025	0.0168993
761.103	0.0168403
761.182	0.0168055
761.260	0.0168207
761.338	0.0168058
761.416	0.0168068
761.494	0.0168346
761.572	0.0169097
761.650	0.0168243
761.728	0.0168779
761.807	0.0169860
761.885	0.0168822
761.963	0.0169772
762.041	0.0170429
762.119	0.0170874
762.197	0.0170668
762.275	0.0171080
762.353	0.0169253
762.432	0.0171149
762.510	0.0170532
762.588	0.0170309
762.666	0.0170210
762.744	0.0170250
762.822	0.0169442
762.900	0.0169285
762.978	0.0169303
763.057	0.0170712
763.135	0.0167592
763.213	0.0167638
763.291	0.0168961
763.369	0.0167042
763.447	0.0168657
763.525	0.0167970
763.603	0.0166987
763.682	0.0168430
763.760	0.0166959
763.838	0.0167900
763.916	0.0167361
763.994	0.0166760
764.072	0.0167324
764.150	0.0168823
764.228	0.0168719
764.307	0.0168857
764.385	0.0169139
764.463	0.0168848
764.541	0.0168938
764.619	0.0169708
764.697	0.0170477
764.775	0.0170226
764.853	0.0169674
764.932	0.0170078
765.010	0.0171312
765.088	0.0172167
765.166	0.0171478
765.244	0.0171014
765.322	0.0172756
765.400	0.0172926
765.478	0.0172143
765.557	0.0173005
765.635	0.0172655
765.713	0.0171796
765.791	0.0171884
765.869	0.0171461
765.947	0.0170014
766.025	0.0170782
766.103	0.0168183
766.182	0.0168431
766.260	0.0167834
766.338	0.0168892
766.416	0.0168760
766.494	0.0168080
766.572	0.0166000
766.650	0.0166437
766.728	0.0166260
766.807	0.0165518
766.885	0.0165784
766.963	0.0167747
767.041	0.0166462
767.119	0.0166266
767.197	0.0166222
767.275	0.0166222
767.353	0.0166390
767.432	0.0168029
767.510	0.0166451
767.588	0.0168585
767.666	0.0168160
767.744	0.0169701
767.822	0.0169194
767.900	0.0168805
767.978	0.0169429
768.057	0.0170559
768.135	0.0170860
768.213	0.0170576
768.291	0.0171469
768.369	0.0169109
768.447	0.0170492
768.525	0.0171687
768.603	0.0171261
768.682	0.0171567
768.760	0.0171977
768.838	0.0171519
768.916	0.0169975
768.994	0.0170836
769.072	0.0171140
769.150	0.0171671
769.228	0.0169915
769.307	0.0169978
769.385	0.0168166
769.463	0.0166892
769.541	0.0168909
769.619	0.0166894
769.697	0.0166962
769.775	0.0166550
769.853	0.0164964
769.932	0.0166041
770.010	0.0164539
770.088	0.0165612
770.166	0.0164596
770.244	0.0164751
770.322	0.0165827
770.400	0.0165475
770.478	0.0165879
770.557	0.0165701
770.635	0.0166523
770.713	0.0166544
770.791	0.0165756
770.869	0.0165905
770.947	0.0164103
771.025	0.0165229
771.103	0.0166265
771.182	0.0164831
771.260	0.0164124
771.338	0.0166234
771.416	0.0165858
771.494	0.0167517
771.572	0.0168319
771.650	0.0168688
771.728	0.0167525
771.807	0.0167963
771.885	0.0168772
771.963	0.0169753
772.041	0.0169717
772.119	0.0170526
772.197	0.0171351
772.275	0.0171738
772.353	0.0172253
772.432	0.0175053
772.510	0.0175301
772.588	0.0174479
772.666	0.0175376
772.744	0.0176252
772.822	0.0174856
772.900	0.0174458
772.978	0.0174993
773.057	0.0174989
773.135	0.0173725
773.213	0.0172247
773.291	0.0170938
773.369	0.0168509
773.447	0.0168581
773.525	0.0166073
773.603	0.0165054
773.682	0.0163226
773.760	0.0163383
773.838	0.0162241
773.916	0.0160451
773.994	0.0160053
774.072	0.0159575
774.150	0.0160198
774.228	0.0161102
774.307	0.0160953
774.385	0.0162509
774.463	0.0163113
774.541	0.0164268
774.619	0.0164867
774.697	0.0166399
774.775	0.0165680
774.853	0.0166766
774.932	0.0167227
775.010	0.0167959
775.088	0.0168106
775.166	0.0169797
775.244	0.0170033
775.322	0.0170456
775.400	0.0171071
775.478	0.0171551
775.557	0.0171758
775.635	0.0173510
775.713	0.0173000
775.791	0.0174055
775.869	0.0173933
775.947	0.0175384
776.025	0.0173972
776.103	0.0174890
776.182	0.0175376
776.260	0.0175171
776.338	0.0175518
776.416	0.0175906
776.494	0.0174459
776.572	0.0173743
776.650	0.0173537
776.728	0.0172531
776.807	0.0170914
776.885	0.0170029
776.963	0.0168536
777.041	0.0167069
777.119	0.0166285
777.197	0.0166119
777.275	0.0165102
777.353	0.0164796
777.432	0.0163397
777.510	0.0161463
777.588	0.0162397
777.666	0.0161678
777.744	0.0162576
777.822	0.0161404
777.900	0.0161076
777.978	0.0162551
778.057	0.0163033
778.135	0.0162273
778.213	0.0162503
778.291	0.0164028
778.369	0.0164783
778.447	0.0165075
778.525	0.0165383
778.603	0.0165231
778.682	0.0166489
778.760	0.0168653
778.838	0.0168409
778.916	0.0168282
778.994	0.0169259
779.072	0.0171062
779.150	0.0169810
779.228	0.0169875
779.307	0.0170586
779.385	0.0171018
779.463	0.0171114
779.541	0.0172980
779.619	0.0170658
779.697	0.0170955
779.775	0.0171219
779.853	0.0171886
779.932	0.0173741
780.010	0.0173183
780.088	0.0172952
780.166	0.0173759
780.244	0.0173794
780.322	0.0174334
780.400	0.0174787
780.478	0.0173884
780.557	0.0173354
780.635	0.0172579
780.713	0.0172691
780.791	0.0174108
780.869	0.0172096
780.947	0.0170359
781.025	0.0168856
781.103	0.0170007
781.182	0.0166269
781.260	0.0167292
781.338	0.0165984
781.416	0.0165125
781.494	0.0164617
781.572	0.0164812
781.650	0.0164034
781.728	0.0164806
781.807	0.0166415
781.885	0.0166872
781.963	0.0166182
782.041	0.0168024
782.119	0.0167938
782.197	0.0168511
782.275	0.0169518
782.353	0.0170415
782.432	0.0170005
782.510	0.0169106
782.588	0.0169060
782.666	0.0170412
782.744	0.0169793
782.822	0.0168906
782.900	0.0168302
782.978	0.0168156
783.057	0.0167662
783.135	0.0166972
783.213	0.0167374
783.291	0.0166793
783.369	0.0164351
783.447	0.0165765
783.525	0.0165926
783.603	0.0166022
783.682	0.0165765
783.760	0.0165361
783.838	0.0165322
783.916	0.0165566
783.994	0.0166767
784.072	0.0167358
784.150	0.0167651
784.228	0.0166500
784.307	0.0168455
784.385	0.0169069
784.463	0.0169651
784.541	0.0169822
784.619	0.0170962
784.697	0.0171685
784.775	0.0172581
784.853	0.0172366
784.932	0.0174046
785.010	0.0175348
785.088	0.0174712
785.166	0.0176495
785.244	0.0177172
785.322	0.0176035
785.400	0.0176713
785.478	0.0176300
785.557	0.0177621
785.635	0.0174863
785.713	0.0175419
785.791	0.0173808
785.869	0.0171523
785.947	0.0170939
786.025	0.0168262
786.103	0.0166422
786.182	0.0165847
786.260	0.0164542
786.338	0.0164304
786.416	0.0162959
786.494	0.0163741
786.572	0.0162418
786.650	0.0161857
786.728	0.0161966
786.807	0.0163106
786.885	0.0164387
786.963	0.0165562
787.041	0.0164370
787.119	0.0164872
787.197	0.0164050
787.275	0.0163976
787.353	0.0164365
787.432	0.0165940
787.510	0.0165099
787.588	0.0165421
787.666	0.0165105
787.744	0.0167105
787.822	0.0165301
787.900	0.0166944
787.978	0.0168047
788.057	0.0168848
788.135	0.0168273
788.213	0.0170159
788.291	0.0171683
788.369	0.0171781
788.447	0.0173446
788.525	0.0172456
788.603	0.0173624
788.682	0.0174567
788.760	0.0174873
788.838	0.0174971
788.916	0.0174214
788.994	0.0173267
789.072	0.0174371
789.150	0.0172265
789.228	0.0173360
789.307	0.0171630
789.385	0.0170811
789.463	0.0170477
789.541	0.0170362
789.619	0.0171659
789.697	0.0170967
789.775	0.0170734
789.853	0.0170493
789.932	0.0168900
790.010	0.0169074
790.088	0.0168128
790.166	0.0167875
790.244	0.0168221
790.322	0.0168359
790.400	0.0167439
790.478	0.0166736
790.557	0.0166584
790.635	0.0166354
790.713	0.0164769
790.791	0.0165325
790.869	0.0164312
790.947	0.0163200
791.025	0.0163818
791.103	0.0162587
791.182	0.0162032
791.260	0.0163379
791.338	0.0161592
791.416	0.0161432
791.494	0.0162333
791.572	0.0163017
791.650	0.0162728
791.728	0.0165792
791.807	0.0165777
791.885	0.0164732
791.963	0.0167536
792.041	0.0169476
792.119	0.0170557
792.197	0.0171780
792.275	0.0173705
792.353	0.0175342
792.432	0.0176959
792.510	0.0176501
792.588	0.0178262
792.666	0.0179057
792.744	0.0178607
792.822	0.0178935
792.900	0.0176938
792.978	0.0176900
793.057	0.0174747
793.135	0.0174779
793.213	0.0172434
793.291	0.0170878
793.369	0.0167714
793.447	0.0166752
793.525	0.0162997
793.603	0.0160374
793.682	0.0157616
793.760	0.0156761
793.838	0.0156071
793.916	0.0155291
793.994	0.0153648
794.072	0.0154113
794.150	0.0153503
794.228	0.0153633
794.307	0.0156005
794.385	0.0157752
794.463	0.0159567
794.541	0.0162002
794.619	0.0164409
794.697	0.0168088
794.775	0.0170900
794.853	0.0174136
794.932	0.0175401
795.010	0.0178526
795.088	0.0180489
795.166	0.0184011
795.244	0.0185666
795.322	0.0186011
795.400	0.0186942
795.478	0.0185583
795.557	0.0185940
795.635	0.0186411
795.713	0.0186326
795.791	0.0182265
795.869	0.0181005
795.947	0.0178807
796.025	0.0174252
796.103	0.0170508
796.182	0.0168934
796.260	0.0165743
796.338	0.0162386
796.416	0.0160823
796.494	0.0158311
796.572	0.0155608
796.650	0.0155749
796.728	0.0153855
796.807	0.0152345
796.885	0.0153237
796.963	0.0153068
797.041	0.0152711
797.119	0.0153157
797.197	0.0155845
797.275	0.0157593
797.353	0.0158478
797.432	0.0160793
797.510	0.0163049
797.588	0.0164671
797.666	0.0167329
797.744	0.0168440
797.822	0.0170275
797.900	0.0172227
797.978	0.0174751
798.057	0.0174667
798.135	0.0175362
798.213	0.0176152
798.291	0.0174422
798.369	0.0173791
798.447	0.0175311
798.525	0.0173978
798.603	0.0173402
798.682	0.0174022
798.760	0.0172702
798.838	0.0171574
798.916	0.0171558
798.994	0.0170205
799.072	0.0169644
799.150	0.0169694
799.228	0.0169582
799.307	0.0169058
799.385	0.0168221
799.463	0.0169749
799.541	0.0169193
799.619	0.0168427
799.697	0.0169556
799.775	0.0170323
799.853	0.0171711
799.932	0.0172523
800.010	0.0173018
800.088	0.0174221
800.166	0.0174528
800.244	0.0173640
800.322	0.0173850
800.400	0.0176090
800.478	0.0173335
800.557	0.0172942
800.635	0.0173381
800.713	0.0170531
800.791	0.0169699
800.869	0.0168028
800.947	0.0166812
801.025	0.0165806
801.103	0.0161395
801.182	0.0161999
801.260	0.0160008
801.338	0.0157266
801.416	0.0155846
801.494	0.0155843
801.572	0.0156087
801.650	0.0155484
801.728	0.0155899
801.807	0.0156754
801.885	0.0155487
801.963	0.0157481
802.041	0.0160358
802.119	0.0162641
802.197	0.0165274
802.275	0.0166727
802.353	0.0170455
802.432	0.0171687
802.510	0.0174615
802.588	0.0178002
802.666	0.0180171
802.744	0.0180420
802.822	0.0180531
802.900	0.0181844
802.978	0.0181052
803.057	0.0180499
803.135	0.0178947
803.213	0.0177985
803.291	0.0174909
803.369	0.0172525
803.447	0.0172868
803.525	0.0170303
803.603	0.0168895
803.682	0.0165857
803.760	0.0166094
803.838	0.0164120
803.916	0.0162344
803.994	0.0162749
804.072	0.0161704
804.150	0.0160933
804.228	0.0159416
804.307	0.0160183
804.385	0.0161633
804.463	0.0160972
804.541	0.0161634
804.619	0.0162022
804.697	0.0163013
804.775	0.0165321
804.853	0.0164023
804.932	0.0165681
805.010	0.0167230
805.088	0.0169356
805.166	0.0171352
805.244	0.0172104
805.322	0.0172959
805.400	0.0175372
805.478	0.0176878
805.557	0.0176336
805.635	0.0176243
805.713	0.0176433
805.791	0.0179699
805.869	0.0177776
805.947	0.0176098
806.025	0.0175657
806.103	0.0176290
806.182	0.0174599
806.260	0.0172669
806.338	0.0169949
806.416	0.0168741
806.494	0.0166614
806.572	0.0165012
806.650	0.0165424
806.728	0.0162888
806.807	0.0160244
806.885	0.0159267
806.963	0.0159144
807.041	0.0157697
807.119	0.0156811
807.197	0.0156451
807.275	0.0156387
807.353	0.0157729
807.432	0.0158212
807.510	0.0158463
807.588	0.0160662
807.666	0.0163211
807.744	0.0165224
807.822	0.0168085
807.900	0.0169124
807.978	0.0169301
808.057	0.0171811
808.135	0.0173421
808.213	0.0176247
808.291	0.0176806
808.369	0.0176926
808.447	0.0178162
808.525	0.0178193
808.603	0.0176643
808.682	0.0176740
808.760	0.0176689
808.838	0.0175692
808.916	0.0174505
808.994	0.0170912
809.072	0.0170220
809.150	0.0168426
809.228	0.0166044
809.307	0.0165881
809.385	0.0164298
809.463	0.0164090
809.541	0.0162457
809.619	0.0162566
809.697	0.0161767
809.775	0.0161745
809.853	0.0162164
809.932	0.0163036
810.010	0.0161946
810.088	0.0162881
810.166	0.0162808
810.244	0.0166496
810.322	0.0165839
810.400	0.0166222
810.478	0.0168490
810.557	0.0169296
810.635	0.0169791
810.713	0.0171949
810.791	0.0172357
810.869	0.0172676
810.947	0.0173093
811.025	0.0172934
811.103	0.0174206
811.182	0.0175327
811.260	0.0174887
811.338	0.0173262
811.416	0.0173605
811.494	0.0170661
811.572	0.0170702
811.650	0.0168650
811.728	0.0167986
811.807	0.0167059
811.885	0.0165450
811.963	0.0164394
812.041	0.0163076
812.119	0.0161459
812.197	0.0160735
812.275	0.0160210
812.353	0.0160806
812.432	0.0160939
812.510	0.0159225
812.588	0.0161238
812.666	0.0162123
812.744	0.0161978
812.822	0.0162245
812.900	0.0162788
812.978	0.0164786
813.057	0.0165293
813.135	0.0165907
813.213	0.0166006
813.291	0.0167490
813.369	0.0169065
813.447	0.0169258
813.525	0.0169469
813.603	0.0171895
813.682	0.0172034
813.760	0.0174675
813.838	0.0173782
813.916	0.0174083
813.994	0.0175723
814.072	0.0175739
814.150	0.0174380
814.228	0.0176158
814.307	0.0175901
814.385	0.0174619
814.463	0.0175192
814.541	0.0173943
814.619	0.0172729
814.697	0.0173573
814.775	0.0172596
814.853	0.0171049
814.932	0.0171085
815.010	0.0170387
815.088	0.0169705
815.166	0.0168519
815.244	0.0167873
815.322	0.0167994
815.400	0.0167379
815.478	0.0166224
815.557	0.0165913
815.635	0.0165363
815.713	0.0166237
815.791	0.0165984
815.869	0.0166527
815.947	0.0167410
816.025	0.0166620
816.103	0.0165951
816.182	0.0166515
816.260	0.0166734
816.338	0.0166001
816.416	0.0167374
816.494	0.0168116
816.572	0.0167402
816.650	0.0166082
816.728	0.0165757
816.807	0.0167333
816.885	0.0164836
816.963	0.0164727
817.041	0.0165004
817.119	0.0164233
817.197	0.0163808
817.275	0.0164040
817.353	0.0163685
817.432	0.0163537
817.510	0.0164403
817.588	0.0163598
817.666	0.0163717
817.744	0.0163394
817.822	0.0164903
817.900	0.0164455
817.978	0.0167324
818.057	0.0168253
818.135	0.0168348
818.213	0.0169810
818.291	0.0172626
818.369	0.0172488
818.447	0.0172728
818.525	0.0175356
818.603	0.0176480
818.682	0.0175370
818.760	0.0176333
818.838	0.0176949
818.916	0.0177496
818.994	0.0177615
819.072	0.0177513
819.150	0.0176778
819.228	0.0174967
819.307	0.0176000
819.385	0.0174795
819.463	0.0174230
819.541	0.0175417
819.619	0.0172784
819.697	0.0174257
819.775	0.0173023
819.853	0.0171365
819.932	0.0171079
820.010	0.0171898
820.088	0.0169800
820.166	0.0168194
820.244	0.0167135
820.322	0.0167577
820.400	0.0167265
820.478	0.0166615
820.557	0.0164184
820.635	0.0164606
820.713	0.0163739
820.791	0.0163653
820.869	0.0163515
820.947	0.0161769
821.025	0.0161383
821.103	0.0162572
821.182	0.0162719
821.260	0.0162305
821.338	0.0161848
821.416	0.0161846
821.494	0.0163635
821.572	0.0162901
821.650	0.0163870
821.728	0.0165729
821.807	0.0164973
821.885	0.0165352
821.963	0.0168248
822.041	0.0169010
822.119	0.0169440
822.197	0.0171271
822.275	0.0171143
822.353	0.0172021
822.432	0.0172876
822.510	0.0173628
822.588	0.0174680
822.666	0.0174670
822.744	0.0173753
822.822	0.0175180
822.900	0.0174351
822.978	0.0172351
823.057	0.0171941
823.135	0.0171958
823.213	0.0172185
823.291	0.0171835
823.369	0.0169733
823.447	0.0170440
823.525	0.0169039
823.603	0.0169038
823.682	0.0168328
823.760	0.0167335
823.838	0.0169452
823.916	0.0168209
823.994	0.0169478
824.072	0.0167195
824.150	0.0167803
824.228	0.0170178
824.307	0.0170010
824.385	0.0170895
824.463	0.0170641
824.541	0.0170927
824.619	0.0170800
824.697	0.0172238
824.775	0.0172091
824.853	0.0170675
824.932	0.0170808
825.010	0.0170250
825.088	0.0169813
825.166	0.0171011
825.244	0.0169426
825.322	0.0169900
825.400	0.0169829
825.478	0.0168358
825.557	0.0166932
825.635	0.0167677
825.713	0.0167450
825.791	0.0167474
825.869	0.0166261
825.947	0.0167464
826.025	0.0166405
826.103	0.0166492
826.182	0.0165131
826.260	0.0165945
826.338	0.0165059
826.416	0.0165081
826.494	0.0164595
826.572	0.0163718
826.650	0.0166135
826.728	0.0165598
826.807	0.0163894
826.885	0.0163224
826.963	0.0163587
827.041	0.0163828
827.119	0.0161272
827.197	0.0160352
827.275	0.0160843
827.353	0.0160822
827.432	0.0160343
827.510	0.0161683
827.588	0.0160332
827.666	0.0161909
827.744	0.0162292
827.822	0.0163290
827.900	0.0165979
827.978	0.0166816
828.057	0.0167216
828.135	0.0167966
828.213	0.0170250
828.291	0.0170905
828.369	0.0171925
828.447	0.0171699
828.525	0.0171670
828.603	0.0172312
828.682	0.0174237
828.760	0.0172697
828.838	0.0173320
828.916	0.0172184
828.994	0.0172457
829.072	0.0172929
829.150	0.0171358
829.228	0.0173025
829.307	0.0172421
829.385	0.0173526
829.463	0.0173962
829.541	0.0173446
829.619	0.0173923
829.697	0.0173363
829.775	0.0173432
829.853	0.0172607
829.932	0.0175337
830.010	0.0174073
830.088	0.0173606
830.166	0.0173220
830.244	0.0174801
830.322	0.0173505
830.400	0.0172729
830.478	0.0171680
830.557	0.0171639
830.635	0.0171076
830.713	0.0170763
830.791	0.0169553
830.869	0.0169025
830.947	0.0166198
831.025	0.0164846
831.103	0.0165856
831.182	0.0164516
831.260	0.0163371
831.338	0.0161887
831.416	0.0162254
831.494	0.0160065
831.572	0.0160270
831.650	0.0162051
831.728	0.0161094
831.807	0.0161320
831.885	0.0161821
831.963	0.0162819
832.041	0.0165067
832.119	0.0163538
832.197	0.0163994
832.275	0.0164552
832.353	0.0166737
832.432	0.0166798
832.510	0.0167736
832.588	0.0165369
832.666	0.0168616
832.744	0.0167583
832.822	0.0168140
832.900	0.0167818
832.978	0.0166163
833.057	0.0165282
833.135	0.0164117
833.213	0.0165163
833.291	0.0164998
833.369	0.0163267
833.447	0.0163683
833.525	0.0164484
833.603	0.0165361
833.682	0.0166957
833.760	0.0166557
833.838	0.0168297
833.916	0.0167604
833.994	0.0169054
834.072	0.0171153
834.150	0.0170191
834.228	0.0171583
834.307	0.0174556
834.385	0.0172439
834.463	0.0172942
834.541	0.0174638
834.619	0.0173746
834.697	0.0174777
834.775	0.0172617
834.853	0.0172420
834.932	0.0173698
835.010	0.0172639
835.088	0.0172248
835.166	0.0171680
835.244	0.0170895
835.322	0.0172121
835.400	0.0170354
835.478	0.0169001
835.557	0.0168872
835.635	0.0168757
835.713	0.0167594
835.791	0.0169440
835.869	0.0169080
835.947	0.0169202
836.025	0.0170110
836.103	0.0169077
836.182	0.0170383
836.260	0.0171619
836.338	0.0170311
836.416	0.0170768
836.494	0.0171026
836.572	0.0170051
836.650	0.0170112
836.728	0.0170634
836.807	0.0169801
836.885	0.0168972
836.963	0.0168670
837.041	0.0167237
837.119	0.0167941
837.197	0.0167522
837.275	0.0165645
837.353	0.0166875
837.432	0.0166357
837.510	0.0164338
837.588	0.0166694
837.666	0.0165934
837.744	0.0164523
837.822	0.0164831
837.900	0.0165444
837.978	0.0165129
838.057	0.0165471
838.135	0.0164869
838.213	0.0166612
838.291	0.0164411
838.369	0.0165944
838.447	0.0166115
838.525	0.0164326
838.603	0.0166736
838.682	0.0166885
838.760	0.0168884
838.838	0.0169289
838.916	0.0168916
838.994	0.0167484
839.072	0.0168693
839.150	0.0168727
839.228	0.0170652
839.307	0.0170663
839.385	0.0170582
839.463	0.0171002
839.541	0.0172271
839.619	0.0171098
839.697	0.0171867
839.775	0.0170810
839.853	0.0170633
839.932	0.0170832
840.010	0.0171518
840.088	0.0171898
840.166	0.0171422
840.244	0.0171430
840.322	0.0172461
840.400	0.0172619
840.478	0.0171178
840.557	0.0172152
840.635	0.0171931
840.713	0.0171146
840.791	0.0170911
840.869	0.0169708
840.947	0.0171191
841.025	0.0171673
841.103	0.0171345
841.182	0.0171809
841.260	0.0171384
841.338	0.0171557
841.416	0.0171247
841.494	0.0170130
841.572	0.0170145
841.650	0.0172298
841.728	0.0173079
841.807	0.0171112
841.885	0.0171030
841.963	0.0171197
842.041	0.0170180
842.119	0.0170162
842.197	0.0170889
842.275	0.0170090
842.353	0.0168669
842.432	0.0167719
842.510	0.0168821
842.588	0.0167815
842.666	0.0166798
842.744	0.0166624
842.822	0.0167519
842.900	0.0166582
842.978	0.0167023
843.057	0.0167517
843.135	0.0166010
843.213	0.0166238
843.291	0.0165073
843.369	0.0166151
843.447	0.0166995
843.525	0.0166676
843.603	0.0167886
843.682	0.0168414
843.760	0.0167728
843.838	0.0168185
843.916	0.0168106
843.994	0.0168729
844.072	0.0169837
844.150	0.0168846
844.228	0.0169217
844.307	0.0168163
844.385	0.0167580
844.463	0.0168607
844.541	0.0167978
844.619	0.0168419
844.697	0.0166364
844.775	0.0168005
844.853	0.0169442
844.932	0.0169263
845.010	0.0169393
845.088	0.0168360
845.166	0.0167493
845.244	0.0168861
845.322	0.0170013
845.400	0.0169643
845.478	0.0168808
845.557	0.0169228
845.635	0.0170457
845.713	0.0169770
845.791	0.0171331
845.869	0.0172503
845.947	0.0172559
846.025	0.0171919
846.103	0.0171510
846.182	0.0171962
846.260	0.0172621
846.338	0.0173598
846.416	0.0172090
846.494	0.0172590
846.572	0.0173023
846.650	0.0171172
846.728	0.0172279
846.807	0.0172201
846.885	0.0171864
846.963	0.0170406
847.041	0.0169934
847.119	0.0170108
847.197	0.0168458
847.275	0.0168465
847.353	0.0168688
847.432	0.0166819
847.510	0.0167035
847.588	0.0166475
847.666	0.0165585
847.744	0.0166320
847.822	0.0165924
847.900	0.0168266
847.978	0.0165866
848.057	0.0166670
848.135	0.0166491
848.213	0.0167648
848.291	0.0168944
848.369	0.0167123
848.447	0.0168014
848.525	0.0167972
848.603	0.0167511
848.682	0.0168667
848.760	0.0168446
848.838	0.0168623
848.916	0.0168277
848.994	0.0165817
849.072	0.0168444
849.150	0.0169021
849.228	0.0166796
849.307	0.0167195
849.385	0.0169749
849.463	0.0169979
849.541	0.0168163
849.619	0.0168170
849.697	0.0168298
849.775	0.0167175
849.853	0.0165816
849.932	0.0167076
850.010	0.0167596
850.088	0.0167355
850.166	0.0167471
850.244	0.0166909
850.322	0.0165846
850.400	0.0166292
850.478	0.0167670
850.557	0.0164303
850.635	0.0166338
850.713	0.0166212
850.791	0.0165833
850.869	0.0167648
850.947	0.0167204
851.025	0.0167558
851.103	0.0167962
851.182	0.0167345
851.260	0.0168185
851.338	0.0166614
851.416	0.0167426
851.494	0.0168907
851.572	0.0168801
851.650	0.0167814
851.728	0.0169743
851.807	0.0172014
851.885	0.0169804
851.963	0.0169867
852.041	0.0169492
852.119	0.0169459
852.197	0.0169882
852.275	0.0170940
852.353	0.0169894
852.432	0.0170464
852.510	0.0170486
852.588	0.0169883
852.666	0.0168923
852.744	0.0170419
852.822	0.0171859
852.900	0.0170546
852.978	0.0170464
853.057	0.0169753
853.135	0.0172607
853.213	0.0170564
853.291	0.0170660
853.369	0.0171693
853.447	0.0171470
853.525	0.0171859
853.603	0.0171757
853.682	0.0171436
853.760	0.0169234
853.838	0.0169803
853.916	0.0168672
853.994	0.0168465
854.072	0.0170449
854.150	0.0168214
854.228	0.0168245
854.307	0.0168307
854.385	0.0167255
854.463	0.0168496
854.541	0.0167374
854.619	0.0166455
854.697	0.0166137
854.775	0.0167435
854.853	0.0166287
854.932	0.0167011
855.010	0.0167749
855.088	0.0167094
855.166	0.0168810
855.244	0.0168529
855.322	0.0167666
855.400	0.0169771
855.478	0.0169712
855.557	0.0169952
855.635	0.0169055
855.713	0.0169794
855.791	0.0168594
855.869	0.0169472
855.947	0.0168981
856.025	0.0168788
856.103	0.0168309
856.182	0.0169305
856.260	0.0167807
856.338	0.0168520
856.416	0.0168279
856.494	0.0167087
856.572	0.0167285
856.650	0.0166911
856.728	0.0167582
856.807	0.0167392
856.885	0.0166615
856.963	0.0167413
857.041	0.0166846
857.119	0.0165960
857.197	0.0166828
857.275	0.0167299
857.353	0.0169019
857.432	0.0167067
857.510	0.0168783
857.588	0.0169888
857.666	0.0168194
857.744	0.0170308
857.822	0.0170217
857.900	0.0169427
857.978	0.0169262
858.057	0.0170850
858.135	0.0170586
858.213	0.0169946
858.291	0.0170035
858.369	0.0169358
858.447	0.0168463
858.525	0.0169111
858.603	0.0168130
858.682	0.0168913
858.760	0.0168364
858.838	0.0168565
858.916	0.0167941
858.994	0.0169210
859.072	0.0169023
859.150	0.0169825
859.228	0.0168832
859.307	0.0169277
859.385	0.0169415
859.463	0.0171268
859.541	0.0170900
859.619	0.0169561
859.697	0.0171490
859.775	0.0171828
859.853	0.0171268
859.932	0.0171080
860.010	0.0171673
860.088	0.0170340
860.166	0.0169276
860.244	0.0169091
860.322	0.0169466
860.400	0.0169439
860.478	0.0169842
860.557	0.0170410
860.635	0.0168834
860.713	0.0169447
860.791	0.0169256
860.869	0.0167680
860.947	0.0168084
861.025	0.0167522
861.103	0.0168086
861.182	0.0168007
861.260	0.0169463
861.338	0.0169661
861.416	0.0170390
861.494	0.0170928
861.572	0.0168744
861.650	0.0169808
861.728	0.0169476
861.807	0.0168966
861.885	0.0170911
861.963	0.0170460
862.041	0.0170175
862.119	0.0169817
862.197	0.0168838
862.275	0.0169543
862.353	0.0168532
862.432	0.0167838
862.510	0.0167062
862.588	0.0167197
862.666	0.0165308
862.744	0.0167448
862.822	0.0166811
862.900	0.0166559
862.978	0.0166314
863.057	0.0166368
863.135	0.0168198
863.213	0.0166544
863.291	0.0167815
863.369	0.0167962
863.447	0.0167407
863.525	0.0168250
863.603	0.0169149
863.682	0.0170735
863.760	0.0168963
863.838	0.0169737
863.916	0.0170551
863.994	0.0171728
864.072	0.0171231
864.150	0.0171164
864.228	0.0171647
864.307	0.0170570
864.385	0.0171548
864.463	0.0171856
864.541	0.0172526
864.619	0.0171164
864.697	0.0171203
864.775	0.0171867
864.853	0.0170445
864.932	0.0172701
865.010	0.0171053
865.088	0.0171077
865.166	0.0170724
865.244	0.0169603
865.322	0.0170139
865.400	0.0170536
865.478	0.0168804
865.557	0.0170556
865.635	0.0169982
865.713	0.0169393
865.791	0.0170078
865.869	0.0169451
865.947	0.0169601
866.025	0.0169946
866.103	0.0169968
866.182	0.0169051
866.260	0.0171728
866.338	0.0170296
866.416	0.0168267
866.494	0.0168800
866.572	0.0168420
866.650	0.0168211
866.728	0.0168258
866.807	0.0167901
866.885	0.0168127
866.963	0.0167107
867.041	0.0167233
867.119	0.0165878
867.197	0.0166553
867.275	0.0167831
867.353	0.0166901
867.432	0.0166235
867.510	0.0166673
867.588	0.0166859
867.666	0.0165414
867.744	0.0166380
867.822	0.0166598
867.900	0.0166357
867.978	0.0167038
868.057	0.0167444
868.135	0.0165862
868.213	0.0166647
868.291	0.0165559
868.369	0.0167349
868.447	0.0167838
868.525	0.0167049
868.603	0.0167348
868.682	0.0167570
868.760	0.0167944
868.838	0.0167627
868.916	0.0167455
868.994	0.0168369
869.072	0.0170181
869.150	0.0167419
869.228	0.0169072
869.307	0.0168781
869.385	0.0167580
869.463	0.0170528
869.541	0.0170116
869.619	0.0169698
869.697	0.0168919
869.775	0.0168987
869.853	0.0169021
869.932	0.0168906
870.010	0.0170105
870.088	0.0169827
870.166	0.0169405
870.244	0.0170554
870.322	0.0170041
870.400	0.0169691
870.478	0.0170079
870.557	0.0171853
870.635	0.0170717
870.713	0.0169791
870.791	0.0169705
870.869	0.0168541
870.947	0.0169269
871.025	0.0169643
871.103	0.0168569
871.182	0.0169779
871.260	0.0169537
871.338	0.0170255
871.416	0.0169373
871.494	0.0169325
871.572	0.0169598
871.650	0.0167884
871.728	0.0167737
871.807	0.0168107
871.885	0.0168920
871.963	0.0168032
872.041	0.0169128
872.119	0.0167310
872.197	0.0167657
872.275	0.0166965
872.353	0.0167902
872.432	0.0167516
872.510	0.0167406
872.588	0.0167140
872.666	0.0167459
872.744	0.0167485
872.822	0.0168233
872.900	0.0168558
872.978	0.0167509
873.057	0.0166774
873.135	0.0168226
873.213	0.0168354
873.291	0.0168005
873.369	0.0168544
873.447	0.0167993
873.525	0.0168956
873.603	0.0168527
873.682	0.0167452
873.760	0.0168460
873.838	0.0167291
873.916	0.0168541
873.994	0.0167089
874.072	0.0166771
874.150	0.0167213
874.228	0.0166780
874.307	0.0165930
874.385	0.0166505
874.463	0.0167056
874.541	0.0166237
874.619	0.0166027
874.697	0.0167551
874.775	0.0167549
874.853	0.0166655
874.932	0.0165825
875.010	0.0167207
875.088	0.0167972
875.166	0.0166704
875.244	0.0167493
875.322	0.0166364
875.400	0.0168241
875.478	0.0168504
875.557	0.0167426
875.635	0.0166641
875.713	0.0169388
875.791	0.0168151
875.869	0.0168542
875.947	0.0169032
876.025	0.0169179
876.103	0.0166994
876.182	0.0169210
876.260	0.0169521
876.338	0.0169135
876.416	0.0170135
876.494	0.0169551
876.572	0.0170250
876.650	0.0170519
876.728	0.0169991
876.807	0.0170104
876.885	0.0171870
876.963	0.0170905
877.041	0.0170879
877.119	0.0170366
877.197	0.0171398
877.275	0.0170311
877.353	0.0170434
877.432	0.0171084
877.510	0.0171091
877.588	0.0171933
877.666	0.0170028
877.744	0.0169380
877.822	0.0169521
877.900	0.0169034
877.978	0.0168124
878.057	0.0167632
878.135	0.0168558
878.213	0.0168272
878.291	0.0168615
878.369	0.0167355
878.447	0.0167072
878.525	0.0167815
878.603	0.0167957
878.682	0.0166826
878.760	0.0166261
878.838	0.0166548
878.916	0.0168150
878.994	0.0167062
879.072	0.0166891
879.150	0.0169221
879.228	0.0168922
879.307	0.0168609
879.385	0.0170113
879.463	0.0170078
879.541	0.0169582
879.619	0.0168645
879.697	0.0170440
879.775	0.0169846
879.853	0.0168906
879.932	0.0169837
880.010	0.0169386
880.088	0.0168774
880.166	0.0169646
880.244	0.0167692
880.322	0.0168008
880.400	0.0169543
880.478	0.0169193
880.557	0.0167602
880.635	0.0168097
880.713	0.0167979
880.791	0.0167681
880.869	0.0167844
880.947	0.0169038
881.025	0.0168609
881.103	0.0168469
881.182	0.0168371
881.260	0.0168661
881.338	0.0169673
881.416	0.0169427
881.494	0.0170542
881.572	0.0170414
881.650	0.0170117
881.728	0.0168687
881.807	0.0170009
881.885	0.0170013
881.963	0.0169942
882.041	0.0171421
882.119	0.0170874
882.197	0.0169505
882.275	0.0171107
882.353	0.0170905
882.432	0.0169459
882.510	0.0169734
882.588	0.0171395
882.666	0.0171391
882.744	0.0168488
882.822	0.0170461
882.900	0.0170002
882.978	0.0169386
883.057	0.0169655
883.135	0.0170609
883.213	0.0169773
883.291	0.0168420
883.369	0.0169984
883.447	0.0168895
883.525	0.0169341
883.603	0.0167230
883.682	0.0169670
883.760	0.0169351
883.838	0.0168678
883.916	0.0168867
883.994	0.0169183
884.072	0.0168955
884.150	0.0169588
884.228	0.0168870
884.307	0.0171550
884.385	0.0169739
884.463	0.0169682
884.541	0.0170430
884.619	0.0170184
884.697	0.0170065
884.775	0.0170531
884.853	0.0170832
884.932	0.0170604
885.010	0.0170691
885.088	0.0171694
885.166	0.0170149
885.244	0.0170335
885.322	0.0170613
885.400	0.0169849
885.478	0.0171153
885.557	0.0170558
885.635	0.0170177
885.713	0.0168855
885.791	0.0169351
885.869	0.0168761
885.947	0.0169833
886.025	0.0169969
886.103	0.0170039
886.182	0.0170271
886.260	0.0169712
886.338	0.0169984
886.416	0.0171182
886.494	0.0171467
886.572	0.0170202
886.650	0.0171376
886.728	0.0171264
886.807	0.0171479
886.885	0.0170815
886.963	0.0171925
887.041	0.0170715
887.119	0.0170158
887.197	0.0170142
887.275	0.0169218
887.353	0.0170105
887.432	0.0169054
887.510	0.0169578
887.588	0.0168196
887.666	0.0167759
887.744	0.0168925
887.822	0.0167879
887.900	0.0168118
887.978	0.0168109
888.057	0.0169183
888.135	0.0167207
888.213	0.0167446
888.291	0.0169370
888.369	0.0169053
888.447	0.0167767
888.525	0.0167559
888.603	0.0168176
888.682	0.0167333
888.760	0.0169701
888.838	0.0169086
888.916	0.0167861
888.994	0.0168204
889.072	0.0169910
889.150	0.0169858
889.228	0.0170262
889.307	0.0169433
889.385	0.0169247
889.463	0.0168842
889.541	0.0168824
889.619	0.0168469
889.697	0.0168774
889.775	0.0168388
889.853	0.0167258
889.932	0.0168079
890.010	0.0168587
890.088	0.0166297
890.166	0.0166866
890.244	0.0167355
890.322	0.0164915
890.400	0.0165028
890.478	0.0166490
890.557	0.0164937
890.635	0.0165367
890.713	0.0165538
890.791	0.0165131
890.869	0.0165138
890.947	0.0165559
891.025	0.0165009
891.103	0.0166234
891.182	0.0165046
891.260	0.0166238
891.338	0.0168041
891.416	0.0167747
891.494	0.0167228
891.572	0.0168762
891.650	0.0168562
891.728	0.0168626
891.807	0.0169646
891.885	0.0170592
891.963	0.0170647
892.041	0.0170457
892.119	0.0169865
892.197	0.0170774
892.275	0.0169251
892.353	0.0170792
892.432	0.0169817
892.510	0.0169625
892.588	0.0171278
892.666	0.0169828
892.744	0.0168958
892.822	0.0169038
892.900	0.0170283
892.978	0.0169332
893.057	0.0169033
893.135	0.0167757
893.213	0.0168554
893.291	0.0168213
893.369	0.0168093
893.447	0.0166534
893.525	0.0167786
893.603	0.0167698
893.682	0.0167989
893.760	0.0167758
893.838	0.0167735
893.916	0.0166314
893.994	0.0166106
894.072	0.0167179
894.150	0.0166487
894.228	0.0165948
894.307	0.0166048
894.385	0.0166684
894.463	0.0166147
894.541	0.0168077
894.619	0.0167513
894.697	0.0165083
894.775	0.0166244
894.853	0.0167157
894.932	0.0165728
895.010	0.0165311
895.088	0.0166126
895.166	0.0166045
895.244	0.0166290
895.322	0.0166286
895.400	0.0166010
895.478	0.0166282
895.557	0.0167129
895.635	0.0166938
895.713	0.0167062
895.791	0.0168188
895.869	0.0168349
895.947	0.0167639
896.025	0.0167990
896.103	0.0168457
896.182	0.0168582
896.260	0.0168496
896.338	0.0168060
896.416	0.0169082
896.494	0.0169740
896.572	0.0170168
896.650	0.0169162
896.728	0.0168961
896.807	0.0169231
896.885	0.0169003
896.963	0.0168758
897.041	0.0169369
897.119	0.0167950
897.197	0.0167947
897.275	0.0168105
897.353	0.0167870
897.432	0.0168179
897.510	0.0168048
897.588	0.0166796
897.666	0.0167918
897.744	0.0167464
897.822	0.0168568
897.900	0.0169083
897.978	0.0166571
898.057	0.0166437
898.135	0.0165693
898.213	0.0167857
898.291	0.0167417
898.369	0.0167288
898.447	0.0168054
898.525	0.0167907
898.603	0.0167855
898.682	0.0168010
898.760	0.0168426
898.838	0.0167391
898.916	0.0168739
898.994	0.0167699
899.072	0.0169036
899.150	0.0169077
899.228	0.0169116
899.307	0.0169388
899.385	0.0170202
899.463	0.0169619
899.541	0.0170490
899.619	0.0169520
899.697	0.0170113
899.775	0.0169988
899.853	0.0169487
899.932	0.0170621
900.010	0.0170488
900.088	0.0169401
900.166	0.0168986
900.244	0.0168907
900.322	0.0167970
900.400	0.0168932
900.478	0.0168925
900.557	0.0168111
900.635	0.0165894
900.713	0.0165749
900.791	0.0167916
900.869	0.0167141
900.947	0.0165921
901.025	0.0167006
901.103	0.0168050
901.182	0.0166309
901.260	0.0166673
901.338	0.0167448
901.416	0.0166564
901.494	0.0165258
901.572	0.0166910
901.650	0.0168316
901.728	0.0168266
901.807	0.0168999
901.885	0.0168740
901.963	0.0167988
902.041	0.0168981
902.119	0.0168271
902.197	0.0168408
902.275	0.0168822
902.353	0.0170336
902.432	0.0170727
902.510	0.0170867
902.588	0.0169443
902.666	0.0169906
902.744	0.0169375
902.822	0.0170795
902.900	0.0169687
902.978	0.0169655
903.057	0.0170197
903.135	0.0168694
903.213	0.0167476
903.291	0.0168370
903.369	0.0166733
903.447	0.0167271
903.525	0.0168721
903.603	0.0168604
903.682	0.0167114
903.760	0.0169654
903.838	0.0168223
903.916	0.0168533
903.994	0.0168192
904.072	0.0169419
904.150	0.0169707
904.228	0.0169268
904.307	0.0169725
904.385	0.0168135
904.463	0.0169408
904.541	0.0170237
904.619	0.0169688
904.697	0.0167989
904.775	0.0170695
904.853	0.0169589
904.932	0.0169307
905.010	0.0169899
905.088	0.0169536
905.166	0.0170064
905.244	0.0169872
905.322	0.0170309
905.400	0.0169830
905.478	0.0170387
905.557	0.0169977
905.635	0.0168666
905.713	0.0169767
905.791	0.0169862
905.869	0.0168394
905.947	0.0167300
906.025	0.0169319
906.103	0.0169645
906.182	0.0167619
906.260	0.0167461
906.338	0.0168585
906.416	0.0168423
906.494	0.0169398
906.572	0.0168591
906.650	0.0169090
906.728	0.0169225
906.807	0.0169449
906.885	0.0168761
906.963	0.0169650
907.041	0.0169646
907.119	0.0169796
907.197	0.0170179
907.275	0.0169089
907.353	0.0168130
907.432	0.0169713
907.510	0.0167590
907.588	0.0166141
907.666	0.0167341
907.744	0.0169444
907.822	0.0168771
907.900	0.0168156
907.978	0.0167808
908.057	0.0166636
908.135	0.0168295
908.213	0.0167751
908.291	0.0166531
908.369	0.0168038
908.447	0.0168241
908.525	0.0167609
908.603	0.0168736
908.682	0.0168684
908.760	0.0167912
908.838	0.0168803
908.916	0.0168503
908.994	0.0170259
909.072	0.0168022
909.150	0.0168374
909.228	0.0168567
909.307	0.0169064
909.385	0.0168784
909.463	0.0169504
909.541	0.0168839
909.619	0.0169776
909.697	0.0170798
909.775	0.0169334
909.853	0.0168517
909.932	0.0170450
910.010	0.0171088
910.088	0.0170199
910.166	0.0171431
910.244	0.0170815
910.322	0.0170974
910.400	0.0171276
910.478	0.0170033
910.557	0.0172097
910.635	0.0170911
910.713	0.0170573
910.791	0.0171035
910.869	0.0171965
910.947	0.0171420
911.025	0.0169482
911.103	0.0169819
911.182	0.0170465
911.260	0.0169295
911.338	0.0170457
911.416	0.0171207
911.494	0.0169604
911.572	0.0169363
911.650	0.0169395
911.728	0.0169149
911.807	0.0169247
911.885	0.0168654
911.963	0.0169430
912.041	0.0168565
912.119	0.0168353
912.197	0.0167272
912.275	0.0169489
912.353	0.0168408
912.432	0.0168410
912.510	0.0168266
912.588	0.0168812
912.666	0.0167718
912.744	0.0167730
912.822	0.0168168
912.900	0.0168623
912.978	0.0168293
913.057	0.0168390
913.135	0.0168158
913.213	0.0167941
913.291	0.0167663
913.369	0.0167966
913.447	0.0167833
913.525	0.0168018
913.603	0.0166189
913.682	0.0167342
913.760	0.0168934
913.838	0.0168932
913.916	0.0168694
913.994	0.0166450
914.072	0.0167097
914.150	0.0166985
914.228	0.0167887
914.307	0.0167474
914.385	0.0166943
914.463	0.0166326
914.541	0.0169382
914.619	0.0168444
914.697	0.0167771
914.775	0.0167771
914.853	0.0168323
914.932	0.0169425
915.010	0.0169053
915.088	0.0169512
915.166	0.0170741
915.244	0.0171076
915.322	0.0170388
915.400	0.0171175
915.478	0.0171425
915.557	0.0171071
915.635	0.0170638
915.713	0.0169854
915.791	0.0172048
915.869	0.0171907
915.947	0.0171416
916.025	0.0171431
916.103	0.0170922
916.182	0.0170518
916.260	0.0169527
916.338	0.0169433
916.416	0.0170005
916.494	0.0169955
916.572	0.0168529
916.650	0.0167873
916.728	0.0169423
916.807	0.0169276
916.885	0.0168626
916.963	0.0166990
917.041	0.0168678
917.119	0.0166764
917.197	0.0168443
917.275	0.0167502
917.353	0.0167490
917.432	0.0167101
917.510	0.0167466
917.588	0.0169198
917.666	0.0166862
917.744	0.0168238
917.822	0.0167842
917.900	0.0169900
917.978	0.0170358
918.057	0.0169041
918.135	0.0168056
918.213	0.0169018
918.291	0.0169151
918.369	0.0169516
918.447	0.0167355
918.525	0.0168510
918.603	0.0168127
918.682	0.0168619
918.760	0.0167325
918.838	0.0169399
918.916	0.0168203
918.994	0.0166653
919.072	0.0168641
919.150	0.0168665
919.228	0.0167399
919.307	0.0168434
919.385	0.0167978
919.463	0.0168967
919.541	0.0168872
919.619	0.0167959
919.697	0.0167490
919.775	0.0168315
919.853	0.0169021
919.932	0.0169534
920.010	0.0168658
920.088	0.0168889
920.166	0.0167549
920.244	0.0168523
920.322	0.0169430
920.400	0.0169755
920.478	0.0169016
920.557	0.0168230
920.635	0.0168937
920.713	0.0170166
920.791	0.0168646
920.869	0.0168438
920.947	0.0168002
921.025	0.0168610
921.103	0.0166786
921.182	0.0167866
921.260	0.0168439
921.338	0.0168410
921.416	0.0168303
921.494	0.0166861
921.572	0.0168611
921.650	0.0167683
921.728	0.0169041
921.807	0.0167639
921.885	0.0167380
921.963	0.0169772
922.041	0.0168362
922.119	0.0169144
922.197	0.0168640
922.275	0.0168835
922.353	0.0168622
922.432	0.0169757
922.510	0.0170287
922.588	0.0170867
922.666	0.0169761
922.744	0.0170441
922.822	0.0169924
922.900	0.0169826
922.978	0.0169645
923.057	0.0170396
923.135	0.0170113
923.213	0.0168808
923.291	0.0169447
923.369	0.0168708
923.447	0.0168594
923.525	0.0168678
923.603	0.0169326
923.682	0.0166298
923.760	0.0166956
923.838	0.0168831
923.916	0.0167927
923.994	0.0167097
924.072	0.0168399
924.150	0.0166981
924.228	0.0166275
924.307	0.0165280
924.385	0.0166842
924.463	0.0167900
924.541	0.0166605
924.619	0.0165729
924.697	0.0167153
924.775	0.0167902
924.853	0.0167578
924.932	0.0167426
925.010	0.0166740
925.088	0.0167006
925.166	0.0169022
925.244	0.0167601
925.322	0.0168098
925.400	0.0170077
925.478	0.0169209
925.557	0.0168147
925.635	0.0168613
925.713	0.0169566
925.791	0.0169770
925.869	0.0168140
925.947	0.0169340
926.025	0.0168687
926.103	0.0168758
926.182	0.0168253
926.260	0.0168890
926.338	0.0167587
926.416	0.0167441
926.494	0.0167864
926.572	0.0167789
926.650	0.0169729
926.728	0.0168038
926.807	0.0168098
926.885	0.0167729
926.963	0.0167391
927.041	0.0167773
927.119	0.0168261
927.197	0.0168007
927.275	0.0168290
927.353	0.0168953
927.432	0.0168470
927.510	0.0167453
927.588	0.0167023
927.666	0.0168486
927.744	0.0169413
927.822	0.0168562
927.900	0.0168411
927.978	0.0167965
928.057	0.0168857
928.135	0.0169582
928.213	0.0168532
928.291	0.0168865
928.369	0.0168420
928.447	0.0168671
928.525	0.0168593
928.603	0.0168337
928.682	0.0168657
928.760	0.0168139
928.838	0.0168265
928.916	0.0167673
928.994	0.0166776
929.072	0.0167609
929.150	0.0167313
929.228	0.0166495
929.307	0.0167283
929.385	0.0166682
929.463	0.0166765
929.541	0.0166457
929.619	0.0167908
929.697	0.0167822
929.775	0.0167612
929.853	0.0168282
929.932	0.0167684
930.010	0.0167200
930.088	0.0167953
930.166	0.0168346
930.244	0.0169364
930.322	0.0168507
930.400	0.0169621
930.478	0.0170389
930.557	0.0168597
930.635	0.0169554
930.713	0.0171311
930.791	0.0170827
930.869	0.0169997
930.947	0.0169563
931.025	0.0168391
931.103	0.0169186
931.182	0.0169630
931.260	0.0168723
931.338	0.0168692
931.416	0.0166856
931.494	0.0168027
931.572	0.0168752
931.650	0.0167367
931.728	0.0167448
931.807	0.0167029
931.885	0.0167472
931.963	0.0167373
932.041	0.0167806
932.119	0.0166760
932.197	0.0166664
932.275	0.0167960
932.353	0.0167983
932.432	0.0168472
932.510	0.0168855
932.588	0.0169489
932.666	0.0169436
932.744	0.0170389
932.822	0.0169219
932.900	0.0170229
932.978	0.0169851
933.057	0.0170277
933.135	0.0170230
933.213	0.0169688
933.291	0.0168378
933.369	0.0169228
933.447	0.0169880
933.525	0.0168889
933.603	0.0169175
933.682	0.0169132
933.760	0.0168581
933.838	0.0168342
933.916	0.0169070
933.994	0.0169525
934.072	0.0170403
934.150	0.0168839
934.228	0.0169331
934.307	0.0170701
934.385	0.0170816
934.463	0.0169469
934.541	0.0169482
934.619	0.0171056
934.697	0.0170586
934.775	0.0170051
934.853	0.0169315
934.932	0.0170692
935.010	0.0169856
935.088	0.0170301
935.166	0.0169834
935.244	0.0170766
935.322	0.0170640
935.400	0.0172808
935.478	0.0170309
935.557	0.0170328
935.635	0.0170561
935.713	0.0171169
935.791	0.0171180
935.869	0.0170982
935.947	0.0171504
936.025	0.0170177
936.103	0.0169659
936.182	0.0171391
936.260	0.0169603
936.338	0.0169728
936.416	0.0169276
936.494	0.0169741
936.572	0.0168700
936.650	0.0168497
936.728	0.0168890
936.807	0.0169254
936.885	0.0169333
936.963	0.0168178
937.041	0.0169634
937.119	0.0168877
937.197	0.0168906
937.275	0.0168129
937.353	0.0167280
937.432	0.0170409
937.510	0.0169476
937.588	0.0169074
937.666	0.0168856
937.744	0.0167365
937.822	0.0169760
937.900	0.0168033
937.978	0.0168108
938.057	0.0169311
938.135	0.0169568
938.213	0.0168640
938.291	0.0168661
938.369	0.0169747
938.447	0.0169653
938.525	0.0170137
938.603	0.0169647
938.682	0.0169368
938.760	0.0169835
938.838	0.0169307
938.916	0.0169337
938.994	0.0168188
939.072	0.0168962
939.150	0.0170136
939.228	0.0169469
939.307	0.0169279
939.385	0.0169084
939.463	0.0170655
939.541	0.0170296
939.619	0.0169870
939.697	0.0170242
939.775	0.0170499
939.853	0.0170154
939.932	0.0171450
940.010	0.0169214
940.088	0.0169907
940.166	0.0169982
940.244	0.0168761
940.322	0.0169962
940.400	0.0170037
940.478	0.0170162
940.557	0.0169688
940.635	0.0170193
940.713	0.0170821
940.791	0.0170579
940.869	0.0168731
940.947	0.0168806
941.025	0.0169865
941.103	0.0169081
941.182	0.0170055
941.260	0.0170064
941.338	0.0170321
941.416	0.0169810
941.494	0.0170176
941.572	0.0170440
941.650	0.0170583
941.728	0.0170286
941.807	0.0170441
941.885	0.0171262
941.963	0.0170904
942.041	0.0169808
942.119	0.0170872
942.197	0.0170895
942.275	0.0168472
942.353	0.0170949
942.432	0.0170642
942.510	0.0169289
942.588	0.0168879
942.666	0.0168977
942.744	0.0168895
942.822	0.0168014
942.900	0.0166944
942.978	0.0167846
943.057	0.0167621
943.135	0.0167290
943.213	0.0167651
943.291	0.0168002
943.369	0.0168146
943.447	0.0167246
943.525	0.0168781
943.603	0.0169933
943.682	0.0168914
943.760	0.0167530
943.838	0.0168224
943.916	0.0168184
943.994	0.0169568
944.072	0.0171113
944.150	0.0169772
944.228	0.0170104
944.307	0.0169424
944.385	0.0170208
944.463	0.0169802
944.541	0.0168773
944.619	0.0168868
944.697	0.0169213
944.775	0.0170006
944.853	0.0169688
944.932	0.0169864
945.010	0.0169505
945.088	0.0168053
945.166	0.0168552
945.244	0.0169118
945.322	0.0167870
945.400	0.0168915
945.478	0.0169785
945.557	0.0169328
945.635	0.0170196
945.713	0.0169422
945.791	0.0169375
945.869	0.0170796
945.947	0.0170757
946.025	0.0171068
946.103	0.0170440
946.182	0.0169943
946.260	0.0171311
946.338	0.0171014
946.416	0.0169100
946.494	0.0170117
946.572	0.0172962
946.650	0.0170644
946.728	0.0171059
946.807	0.0170050
946.885	0.0170687
946.963	0.0170322
947.041	0.0169582
947.119	0.0170297
947.197	0.0168614
947.275	0.0169693
947.353	0.0167643
947.432	0.0169255
947.510	0.0168396
947.588	0.0169231
947.666	0.0167179
947.744	0.0167676
947.822	0.0167946
947.900	0.0166782
947.978	0.0167748
948.057	0.0168422
948.135	0.0165970
948.213	0.0167688
948.291	0.0167725
948.369	0.0168345
948.447	0.0168174
948.525	0.0166454
948.603	0.0167456
948.682	0.0167390
948.760	0.0167629
948.838	0.0166940
948.916	0.0168087
948.994	0.0168822
949.072	0.0167315
949.150	0.0168603
949.228	0.0167317
949.307	0.0168488
949.385	0.0166764
949.463	0.0168163
949.541	0.0167631
949.619	0.0168185
949.697	0.0167051
949.775	0.0167422
949.853	0.0166143
949.932	0.0167050
950.010	0.0166886
950.088	0.0167789
950.166	0.0166700
950.244	0.0167024
950.322	0.0167304
950.400	0.0166084
950.478	0.0165336
950.557	0.0166193
950.635	0.0167909
950.713	0.0167051
950.791	0.0168377
950.869	0.0167526
950.947	0.0167780
951.025	0.0166933
951.103	0.0167869
951.182	0.0167885
951.260	0.0167442
951.338	0.0167202
951.416	0.0167918
951.494	0.0168903
951.572	0.0169092
951.650	0.0167623
951.728	0.0167762
951.807	0.0168132
951.885	0.0168259
951.963	0.0168443
952.041	0.0169528
952.119	0.0169509
952.197	0.0170231
952.275	0.0168151
952.353	0.0168462
952.432	0.0170650
952.510	0.0168652
952.588	0.0168719
952.666	0.0170457
952.744	0.0169456
952.822	0.0169646
952.900	0.0169176
952.978	0.0168095
953.057	0.0169158
953.135	0.0169259
953.213	0.0168890
953.291	0.0167866
953.369	0.0168181
953.447	0.0168130
953.525	0.0168379
953.603	0.0168366
953.682	0.0168095
953.760	0.0168525
953.838	0.0166982
953.916	0.0166558
953.994	0.0166743
954.072	0.0166344
954.150	0.0167229
954.228	0.0167088
954.307	0.0166156
954.385	0.0165883
954.463	0.0166226
954.541	0.0168449
954.619	0.0167957
954.697	0.0167739
954.775	0.0168532
954.853	0.0168192
954.932	0.0168510
955.010	0.0167360
955.088	0.0168120
955.166	0.0168658
955.244	0.0167306
955.322	0.0168446
955.400	0.0169140
955.478	0.0168365
955.557	0.0167839
955.635	0.0167604
955.713	0.0167716
955.791	0.0165804
955.869	0.0166461
955.947	0.0166507
956.025	0.0167958
956.103	0.0168314
956.182	0.0167230
956.260	0.0168882
956.338	0.0168846
956.416	0.0166507
956.494	0.0167170
956.572	0.0167451
956.650	0.0167963
956.728	0.0167665
956.807	0.0168889
956.885	0.0167819
956.963	0.0167380
957.041	0.0167410
957.119	0.0166029
957.197	0.0168476
957.275	0.0168958
957.353	0.0169778
957.432	0.0168493
957.510	0.0168605
957.588	0.0167933
957.666	0.0167722
957.744	0.0168858
957.822	0.0169556
957.900	0.0169440
957.978	0.0169310
958.057	0.0168662
958.135	0.0169447
958.213	0.0169519
958.291	0.0169223
958.369	0.0169108
958.447	0.0169147
958.525	0.0169159
958.603	0.0166798
958.682	0.0169320
958.760	0.0168797
958.838	0.0168712
958.916	0.0168085
958.994	0.0169062
959.072	0.0167838
959.150	0.0167754
959.228	0.0169537
959.307	0.0168895
959.385	0.0168906
959.463	0.0169789
959.541	0.0170035
959.619	0.0171201
959.697	0.0169762
959.775	0.0169284
959.853	0.0169507
959.932	0.0168096
960.010	0.0170838
960.088	0.0170393
960.166	0.0169881
960.244	0.0168310
960.322	0.0168420
960.400	0.0169013
960.478	0.0168312
960.557	0.0167783
960.635	0.0167308
960.713	0.0168884
960.791	0.0169843
960.869	0.0168500
960.947	0.0168183
961.025	0.0167493
961.103	0.0168211
961.182	0.0169120
961.260	0.0167683
961.338	0.0168598
961.416	0.0171043
961.494	0.0170245
961.572	0.0169540
961.650	0.0169922
961.728	0.0169862
961.807	0.0168758
961.885	0.0169558
961.963	0.0170055
962.041	0.0169678
962.119	0.0169580
962.197	0.0168894
962.275	0.0169335
962.353	0.0170233
962.432	0.0169803
962.510	0.0169813
962.588	0.0169816
962.666	0.0170595
962.744	0.0171101
962.822	0.0170149
962.900	0.0170267
962.978	0.0169486
963.057	0.0168770
963.135	0.0169106
963.213	0.0168204
963.291	0.0168970
963.369	0.0170101
963.447	0.0168951
963.525	0.0169106
963.603	0.0168845
963.682	0.0169962
963.760	0.0169367
963.838	0.0169251
963.916	0.0170025
963.994	0.0170059
964.072	0.0169711
964.150	0.0171158
964.228	0.0171234
964.307	0.0169732
964.385	0.0170534
964.463	0.0168568
964.541	0.0171426
964.619	0.0170553
964.697	0.0168552
964.775	0.0168711
964.853	0.0170222
964.932	0.0170935
965.010	0.0168645
965.088	0.0167655
965.166	0.0168225
965.244	0.0167536
965.322	0.0168010
965.400	0.0167044
965.478	0.0166685
965.557	0.0168607
965.635	0.0168123
965.713	0.0169452
965.791	0.0168178
965.869	0.0167302
965.947	0.0168880
966.025	0.0168233
966.103	0.0170574
966.182	0.0169759
966.260	0.0170473
966.338	0.0170161
966.416	0.0169662
966.494	0.0170328
966.572	0.0170483
966.650	0.0170483
966.728	0.0169401
966.807	0.0169952
966.885	0.0169003
966.963	0.0168723
967.041	0.0167619
967.119	0.0168005
967.197	0.0167838
967.275	0.0168390
967.353	0.0168350
967.432	0.0167201
967.510	0.0168201
967.588	0.0168120
967.666	0.0167751
967.744	0.0167115
967.822	0.0168737
967.900	0.0168253
967.978	0.0168787
968.057	0.0168050
968.135	0.0167695
968.213	0.0167661
968.291	0.0167199
968.369	0.0168042
968.447	0.0168735
968.525	0.0170177
968.603	0.0168951
968.682	0.0167648
968.760	0.0170528
968.838	0.0170416
968.916	0.0169939
968.994	0.0168959
969.072	0.0169178
969.150	0.0167522
969.228	0.0169154
969.307	0.0169263
969.385	0.0168265
969.463	0.0169044
969.541	0.0168999
969.619	0.0168707
969.697	0.0168365
969.775	0.0167226
969.853	0.0166148
969.932	0.0166994
