06/10/2022	16:31:43	Ver.	4.1	UNKNOWN
Optical Delay	650.009681	Delta X		0.078125	Sweeps	1	Scan Rate	0/0
Coordinates	Axis 1	NaN	Axis 2	NaN	Axis 3	NaN	Axis 4	NaN	Axis 5	NaN	Axis 6	0.000000
TX Power	0.000000	RX Power	0.000000

650.010	0.0168973
650.088	0.0167980
650.166	0.0169640
650.244	0.0169403
650.322	0.0170638
650.400	0.0168555
650.478	0.0168788
650.557	0.0169394
650.635	0.0169784
650.713	0.0169495
650.791	0.0170066
650.869	0.0168990
650.947	0.0168719
651.025	0.0169071
651.103	0.0170456
651.182	0.0169623
651.260	0.0169135
651.338	0.0168610
651.416	0.0169498
651.494	0.0169437
651.572	0.0170314
651.650	0.0169601
651.728	0.0169499
651.807	0.0169749
651.885	0.0170045
651.963	0.0169262
652.041	0.0169352
652.119	0.0167454
652.197	0.0167857
652.275	0.0168975
652.353	0.0168381
652.432	0.0167529
652.510	0.0169034
652.588	0.0168544
652.666	0.0169720
652.744	0.0169361
652.822	0.0169452
652.900	0.0169165
652.978	0.0169392
653.057	0.0168839
653.135	0.0167945
653.213	0.0169173
653.291	0.0170701
653.369	0.0167473
653.447	0.0168051
653.525	0.0169507
653.603	0.0168719
653.682	0.0168860
653.760	0.0169344
653.838	0.0169012
653.916	0.0169556
653.994	0.0168179
654.072	0.0169354
654.150	0.0168361
654.228	0.0168114
654.307	0.0170055
654.385	0.0168517
654.463	0.0168684
654.541	0.0168977
654.619	0.0168252
654.697	0.0169463
654.775	0.0169035
654.853	0.0168388
654.932	0.0168115
655.010	0.0169444
655.088	0.0169532
655.166	0.0168960
655.244	0.0168767
655.322	0.0168591
655.400	0.0168745
655.478	0.0169047
655.557	0.0169309
655.635	0.0168863
655.713	0.0170667
655.791	0.0169622
655.869	0.0168424
655.947	0.0168063
656.025	0.0169380
656.103	0.0169453
656.182	0.0169952
656.260	0.0169457
656.338	0.0169381
656.416	0.0168881
656.494	0.0169226
656.572	0.0169801
656.650	0.0168224
656.728	0.0166918
656.807	0.0169635
656.885	0.0169754
656.963	0.0169600
657.041	0.0169283
657.119	0.0169675
657.197	0.0169849
657.275	0.0169025
657.353	0.0168856
657.432	0.0169394
657.510	0.0171317
657.588	0.0168750
657.666	0.0168069
657.744	0.0170113
657.822	0.0170205
657.900	0.0168628
657.978	0.0168288
658.057	0.0168523
658.135	0.0168064
658.213	0.0170316
658.291	0.0168460
658.369	0.0170162
658.447	0.0170050
658.525	0.0168767
658.603	0.0170074
658.682	0.0168729
658.760	0.0169617
658.838	0.0168716
658.916	0.0169375
658.994	0.0169761
659.072	0.0169749
659.150	0.0168861
659.228	0.0168510
659.307	0.0168822
659.385	0.0167982
659.463	0.0170898
659.541	0.0167995
659.619	0.0167870
659.697	0.0169163
659.775	0.0169601
659.853	0.0168878
659.932	0.0167762
660.010	0.0170215
660.088	0.0169060
660.166	0.0169336
660.244	0.0169325
660.322	0.0168214
660.400	0.0167684
660.478	0.0168649
660.557	0.0168179
660.635	0.0168639
660.713	0.0168127
660.791	0.0168415
660.869	0.0169619
660.947	0.0168986
661.025	0.0168636
661.103	0.0168948
661.182	0.0167793
661.260	0.0170350
661.338	0.0168911
661.416	0.0170102
661.494	0.0169215
661.572	0.0168649
661.650	0.0169170
661.728	0.0168905
661.807	0.0168874
661.885	0.0168139
661.963	0.0168532
662.041	0.0169995
662.119	0.0169514
662.197	0.0167882
662.275	0.0168879
662.353	0.0168353
662.432	0.0169392
662.510	0.0167961
662.588	0.0168495
662.666	0.0168029
662.744	0.0168578
662.822	0.0169426
662.900	0.0168314
662.978	0.0167846
663.057	0.0167652
663.135	0.0168500
663.213	0.0167257
663.291	0.0169017
663.369	0.0168593
663.447	0.0168624
663.525	0.0167526
663.603	0.0169193
663.682	0.0169213
663.760	0.0168454
663.838	0.0169817
663.916	0.0168925
663.994	0.0168570
664.072	0.0169395
664.150	0.0169120
664.228	0.0168462
664.307	0.0169853
664.385	0.0168940
664.463	0.0169514
664.541	0.0167899
664.619	0.0169141
664.697	0.0168652
664.775	0.0168577
664.853	0.0169006
664.932	0.0168939
665.010	0.0167729
665.088	0.0169762
665.166	0.0169040
665.244	0.0169502
665.322	0.0169090
665.400	0.0168350
665.478	0.0167895
665.557	0.0169667
665.635	0.0169037
665.713	0.0167599
665.791	0.0169082
665.869	0.0167954
665.947	0.0168299
666.025	0.0168465
666.103	0.0168098
666.182	0.0168501
666.260	0.0169386
666.338	0.0167686
666.416	0.0168353
666.494	0.0169234
666.572	0.0169730
666.650	0.0168102
666.728	0.0169637
666.807	0.0168930
666.885	0.0169939
666.963	0.0168417
667.041	0.0168295
667.119	0.0168310
667.197	0.0168921
667.275	0.0170943
667.353	0.0169518
667.432	0.0168504
667.510	0.0169638
667.588	0.0168862
667.666	0.0168636
667.744	0.0168830
667.822	0.0169414
667.900	0.0168310
667.978	0.0169209
668.057	0.0169128
668.135	0.0169211
668.213	0.0168085
668.291	0.0168762
668.369	0.0167567
668.447	0.0170276
668.525	0.0168018
668.603	0.0170835
668.682	0.0168552
668.760	0.0168634
668.838	0.0168864
668.916	0.0169491
668.994	0.0169247
669.072	0.0168198
669.150	0.0168405
669.228	0.0169573
669.307	0.0170308
669.385	0.0170778
669.463	0.0169887
669.541	0.0169879
669.619	0.0168786
669.697	0.0169012
669.775	0.0169816
669.853	0.0168223
669.932	0.0168274
670.010	0.0169183
670.088	0.0169353
670.166	0.0169496
670.244	0.0168069
670.322	0.0168531
670.400	0.0170106
670.478	0.0170550
670.557	0.0168259
670.635	0.0168141
670.713	0.0169155
670.791	0.0169941
670.869	0.0170252
670.947	0.0169332
671.025	0.0168774
671.103	0.0169176
671.182	0.0169112
671.260	0.0169347
671.338	0.0168382
671.416	0.0168393
671.494	0.0169341
671.572	0.0170149
671.650	0.0168595
671.728	0.0170087
671.807	0.0169709
671.885	0.0169337
671.963	0.0169322
672.041	0.0169885
672.119	0.0169613
672.197	0.0169614
672.275	0.0170020
672.353	0.0169582
672.432	0.0170148
672.510	0.0169631
672.588	0.0169634
672.666	0.0170586
672.744	0.0169019
672.822	0.0170444
672.900	0.0169617
672.978	0.0171302
673.057	0.0169666
673.135	0.0168925
673.213	0.0169321
673.291	0.0170306
673.369	0.0169271
673.447	0.0170049
673.525	0.0169134
673.603	0.0169076
673.682	0.0168530
673.760	0.0168878
673.838	0.0169920
673.916	0.0170017
673.994	0.0167097
674.072	0.0167982
674.150	0.0169683
674.228	0.0169100
674.307	0.0169420
674.385	0.0169167
674.463	0.0168756
674.541	0.0169637
674.619	0.0168893
674.697	0.0168953
674.775	0.0168764
674.853	0.0169511
674.932	0.0168831
675.010	0.0168259
675.088	0.0169600
675.166	0.0168138
675.244	0.0170189
675.322	0.0168608
675.400	0.0168639
675.478	0.0170329
675.557	0.0169477
675.635	0.0169781
675.713	0.0168919
675.791	0.0170287
675.869	0.0169310
675.947	0.0169278
676.025	0.0168582
676.103	0.0168626
676.182	0.0169230
676.260	0.0168543
676.338	0.0168688
676.416	0.0168856
676.494	0.0169931
676.572	0.0169347
676.650	0.0169345
676.728	0.0169054
676.807	0.0169709
676.885	0.0170707
676.963	0.0169058
677.041	0.0170470
677.119	0.0170137
677.197	0.0169581
677.275	0.0169772
677.353	0.0169209
677.432	0.0169624
677.510	0.0169781
677.588	0.0169933
677.666	0.0169413
677.744	0.0169033
677.822	0.0169923
677.900	0.0170146
677.978	0.0168935
678.057	0.0169788
678.135	0.0169855
678.213	0.0169328
678.291	0.0169621
678.369	0.0169317
678.447	0.0167805
678.525	0.0170371
678.603	0.0169533
678.682	0.0168494
678.760	0.0169135
678.838	0.0169737
678.916	0.0168778
678.994	0.0169050
679.072	0.0168703
679.150	0.0169751
679.228	0.0168250
679.307	0.0168499
679.385	0.0169121
679.463	0.0168691
679.541	0.0168866
679.619	0.0168357
679.697	0.0168325
679.775	0.0167453
679.853	0.0167084
679.932	0.0169117
680.010	0.0169096
680.088	0.0168785
680.166	0.0168757
680.244	0.0167564
680.322	0.0169843
680.400	0.0169003
680.478	0.0167725
680.557	0.0168602
680.635	0.0168930
680.713	0.0168097
680.791	0.0168266
680.869	0.0168727
680.947	0.0169626
681.025	0.0168298
681.103	0.0168738
681.182	0.0169554
681.260	0.0167803
681.338	0.0169052
681.416	0.0169503
681.494	0.0168348
681.572	0.0168979
681.650	0.0167682
681.728	0.0168776
681.807	0.0167731
681.885	0.0168608
681.963	0.0168360
682.041	0.0168301
682.119	0.0167095
682.197	0.0167845
682.275	0.0167876
682.353	0.0168169
682.432	0.0168475
682.510	0.0169130
682.588	0.0168476
682.666	0.0168181
682.744	0.0168043
682.822	0.0166409
682.900	0.0168797
682.978	0.0169181
683.057	0.0168481
683.135	0.0168328
683.213	0.0167863
683.291	0.0168729
683.369	0.0168445
683.447	0.0168114
683.525	0.0167640
683.603	0.0167358
683.682	0.0167009
683.760	0.0169795
683.838	0.0167461
683.916	0.0168784
683.994	0.0168343
684.072	0.0167885
684.150	0.0169292
684.228	0.0168986
684.307	0.0169875
684.385	0.0168253
684.463	0.0169001
684.541	0.0169862
684.619	0.0170962
684.697	0.0169724
684.775	0.0168700
684.853	0.0167439
684.932	0.0169389
685.010	0.0168600
685.088	0.0168535
685.166	0.0168727
685.244	0.0168820
685.322	0.0169162
685.400	0.0171296
685.478	0.0169473
685.557	0.0168896
685.635	0.0168616
685.713	0.0168263
685.791	0.0169137
685.869	0.0169006
685.947	0.0167966
686.025	0.0169163
686.103	0.0169751
686.182	0.0169141
686.260	0.0169233
686.338	0.0168681
686.416	0.0168474
686.494	0.0168688
686.572	0.0169025
686.650	0.0168188
686.728	0.0169858
686.807	0.0169543
686.885	0.0168515
686.963	0.0169289
687.041	0.0169608
687.119	0.0168777
687.197	0.0169319
687.275	0.0169681
687.353	0.0168790
687.432	0.0169067
687.510	0.0169526
687.588	0.0169300
687.666	0.0169470
687.744	0.0168384
687.822	0.0168507
687.900	0.0169209
687.978	0.0168778
688.057	0.0168300
688.135	0.0169645
688.213	0.0169725
688.291	0.0168879
688.369	0.0168843
688.447	0.0169886
688.525	0.0169811
688.603	0.0168735
688.682	0.0168878
688.760	0.0169273
688.838	0.0169043
688.916	0.0168132
688.994	0.0170850
689.072	0.0168804
689.150	0.0168126
689.228	0.0169067
689.307	0.0169170
689.385	0.0169064
689.463	0.0168085
689.541	0.0168794
689.619	0.0170590
689.697	0.0170446
689.775	0.0169635
689.853	0.0170358
689.932	0.0168713
690.010	0.0170251
690.088	0.0169581
690.166	0.0168228
690.244	0.0168558
690.322	0.0169727
690.400	0.0170007
690.478	0.0169733
690.557	0.0170106
690.635	0.0169771
690.713	0.0168859
690.791	0.0169501
690.869	0.0168835
690.947	0.0169387
691.025	0.0169865
691.103	0.0169043
691.182	0.0169679
691.260	0.0171255
691.338	0.0169763
691.416	0.0168525
691.494	0.0168463
691.572	0.0169667
691.650	0.0168806
691.728	0.0168820
691.807	0.0169938
691.885	0.0169411
691.963	0.0170365
692.041	0.0169834
692.119	0.0170350
692.197	0.0169833
692.275	0.0169027
692.353	0.0169057
692.432	0.0170628
692.510	0.0168839
692.588	0.0168811
692.666	0.0169415
692.744	0.0169382
692.822	0.0167744
692.900	0.0168971
692.978	0.0171207
693.057	0.0169141
693.135	0.0169014
693.213	0.0168928
693.291	0.0168880
693.369	0.0169625
693.447	0.0169953
693.525	0.0169695
693.603	0.0171148
693.682	0.0169027
693.760	0.0168849
693.838	0.0170168
693.916	0.0169230
693.994	0.0169572
694.072	0.0169554
694.150	0.0168172
694.228	0.0168488
694.307	0.0170090
694.385	0.0170515
694.463	0.0168617
694.541	0.0168284
694.619	0.0169193
694.697	0.0168602
694.775	0.0169684
694.853	0.0169931
694.932	0.0168803
695.010	0.0169463
695.088	0.0168940
695.166	0.0169223
695.244	0.0168385
695.322	0.0169633
695.400	0.0169003
695.478	0.0167101
695.557	0.0168050
695.635	0.0169535
695.713	0.0168098
695.791	0.0170052
695.869	0.0169131
695.947	0.0168648
696.025	0.0168929
696.103	0.0169616
696.182	0.0167274
696.260	0.0168613
696.338	0.0169898
696.416	0.0168869
696.494	0.0168284
696.572	0.0170269
696.650	0.0169793
696.728	0.0168199
696.807	0.0168859
696.885	0.0169482
696.963	0.0169391
697.041	0.0168043
697.119	0.0168789
697.197	0.0168318
697.275	0.0168322
697.353	0.0169620
697.432	0.0169843
697.510	0.0169679
697.588	0.0167708
697.666	0.0169412
697.744	0.0169783
697.822	0.0168224
697.900	0.0169688
697.978	0.0169976
698.057	0.0168265
698.135	0.0169274
698.213	0.0167675
698.291	0.0170435
698.369	0.0169203
698.447	0.0168822
698.525	0.0168594
698.603	0.0167574
698.682	0.0168965
698.760	0.0168647
698.838	0.0167844
698.916	0.0169746
698.994	0.0168820
699.072	0.0167809
699.150	0.0169154
699.228	0.0168914
699.307	0.0167204
699.385	0.0168424
699.463	0.0167937
699.541	0.0169215
699.619	0.0168279
699.697	0.0168147
699.775	0.0168803
699.853	0.0168506
699.932	0.0167725
700.010	0.0168069
700.088	0.0169092
700.166	0.0169031
700.244	0.0166351
700.322	0.0167999
700.400	0.0168526
700.478	0.0168877
700.557	0.0168154
700.635	0.0168856
700.713	0.0167839
700.791	0.0168443
700.869	0.0168016
700.947	0.0168312
701.025	0.0167677
701.103	0.0168246
701.182	0.0169537
701.260	0.0168860
701.338	0.0169096
701.416	0.0169251
701.494	0.0167817
701.572	0.0168538
701.650	0.0167835
701.728	0.0168073
701.807	0.0168037
701.885	0.0169130
701.963	0.0168430
702.041	0.0168136
702.119	0.0167130
702.197	0.0168849
702.275	0.0168483
702.353	0.0168456
702.432	0.0168930
702.510	0.0168519
702.588	0.0169238
702.666	0.0168800
702.744	0.0168926
702.822	0.0167870
702.900	0.0168179
702.978	0.0169012
703.057	0.0169273
703.135	0.0167414
703.213	0.0169737
703.291	0.0170905
703.369	0.0168216
703.447	0.0168604
703.525	0.0168064
703.603	0.0166718
703.682	0.0168211
703.760	0.0170596
703.838	0.0168768
703.916	0.0168464
703.994	0.0168937
704.072	0.0168816
704.150	0.0168395
704.228	0.0169028
704.307	0.0167191
704.385	0.0169592
704.463	0.0168278
704.541	0.0168153
704.619	0.0169051
704.697	0.0168656
704.775	0.0167787
704.853	0.0168623
704.932	0.0169170
705.010	0.0167762
705.088	0.0168433
705.166	0.0168279
705.244	0.0168719
705.322	0.0167574
705.400	0.0168356
705.478	0.0168650
705.557	0.0168018
705.635	0.0168147
705.713	0.0169270
705.791	0.0168095
705.869	0.0169031
705.947	0.0168282
706.025	0.0167789
706.103	0.0167493
706.182	0.0167835
706.260	0.0168164
706.338	0.0169264
706.416	0.0168181
706.494	0.0167608
706.572	0.0168990
706.650	0.0168353
706.728	0.0167758
706.807	0.0167307
706.885	0.0167661
706.963	0.0168698
707.041	0.0167559
707.119	0.0168414
707.197	0.0168982
707.275	0.0168039
707.353	0.0169300
707.432	0.0168826
707.510	0.0168839
707.588	0.0168774
707.666	0.0168415
707.744	0.0168334
707.822	0.0169147
707.900	0.0168877
707.978	0.0168059
708.057	0.0168326
708.135	0.0168749
708.213	0.0167760
708.291	0.0168488
708.369	0.0170061
708.447	0.0170304
708.525	0.0168835
708.603	0.0168629
708.682	0.0169437
708.760	0.0168459
708.838	0.0168089
708.916	0.0167768
708.994	0.0169137
709.072	0.0168817
709.150	0.0168093
709.228	0.0168284
709.307	0.0168775
709.385	0.0168035
709.463	0.0168488
709.541	0.0169647
709.619	0.0168564
709.697	0.0168911
709.775	0.0169469
709.853	0.0168322
709.932	0.0170680
710.010	0.0168427
710.088	0.0170463
710.166	0.0171155
710.244	0.0168188
710.322	0.0167963
710.400	0.0168262
710.478	0.0169772
710.557	0.0170313
710.635	0.0169630
710.713	0.0168935
710.791	0.0169128
710.869	0.0169477
710.947	0.0169690
711.025	0.0170207
711.103	0.0168682
711.182	0.0169363
711.260	0.0169102
711.338	0.0169776
711.416	0.0168993
711.494	0.0169270
711.572	0.0168400
711.650	0.0169099
711.728	0.0169707
711.807	0.0168755
711.885	0.0167790
711.963	0.0168368
712.041	0.0169117
712.119	0.0170479
712.197	0.0169273
712.275	0.0168536
712.353	0.0168984
712.432	0.0168279
712.510	0.0168860
712.588	0.0168651
712.666	0.0168456
712.744	0.0167973
712.822	0.0168843
712.900	0.0169158
712.978	0.0169503
713.057	0.0168742
713.135	0.0169228
713.213	0.0169376
713.291	0.0168658
713.369	0.0168338
713.447	0.0169399
713.525	0.0170947
713.603	0.0168919
713.682	0.0169318
713.760	0.0167747
713.838	0.0168062
713.916	0.0170083
713.994	0.0170119
714.072	0.0169771
714.150	0.0169134
714.228	0.0169537
714.307	0.0168868
714.385	0.0169142
714.463	0.0169518
714.541	0.0168811
714.619	0.0168463
714.697	0.0169278
714.775	0.0169527
714.853	0.0169625
714.932	0.0170203
715.010	0.0169318
715.088	0.0169073
715.166	0.0168625
715.244	0.0167010
715.322	0.0167548
715.400	0.0167878
715.478	0.0168629
715.557	0.0168993
715.635	0.0168314
715.713	0.0168856
715.791	0.0170098
715.869	0.0168894
715.947	0.0170383
716.025	0.0170208
716.103	0.0171468
716.182	0.0171108
716.260	0.0170354
716.338	0.0171664
716.416	0.0171507
716.494	0.0170421
716.572	0.0170132
716.650	0.0169737
716.728	0.0169678
716.807	0.0168587
716.885	0.0167080
716.963	0.0166273
717.041	0.0166814
717.119	0.0165575
717.197	0.0164715
717.275	0.0166611
717.353	0.0167809
717.432	0.0167518
717.510	0.0166963
717.588	0.0169660
717.666	0.0169781
717.744	0.0169830
717.822	0.0169097
717.900	0.0171187
717.978	0.0170966
718.057	0.0171893
718.135	0.0170825
718.213	0.0171358
718.291	0.0171360
718.369	0.0171275
718.447	0.0170390
718.525	0.0168851
718.603	0.0168589
718.682	0.0168993
718.760	0.0170055
718.838	0.0169114
718.916	0.0167864
718.994	0.0168832
719.072	0.0170036
719.150	0.0168562
719.228	0.0167315
719.307	0.0167820
719.385	0.0168437
719.463	0.0168414
719.541	0.0168730
719.619	0.0168494
719.697	0.0167242
719.775	0.0167813
719.853	0.0168647
719.932	0.0167251
720.010	0.0167733
720.088	0.0168104
720.166	0.0168243
720.244	0.0168903
720.322	0.0169981
720.400	0.0171461
720.478	0.0170496
720.557	0.0172338
720.635	0.0171767
720.713	0.0173269
720.791	0.0171889
720.869	0.0170754
720.947	0.0169711
721.025	0.0168353
721.103	0.0169272
721.182	0.0167012
721.260	0.0167547
721.338	0.0165311
721.416	0.0164111
721.494	0.0165667
721.572	0.0164561
721.650	0.0164011
721.728	0.0164715
721.807	0.0164527
721.885	0.0163644
721.963	0.0164661
722.041	0.0166273
722.119	0.0167025
722.197	0.0168268
722.275	0.0168943
722.353	0.0169914
722.432	0.0170276
722.510	0.0170547
722.588	0.0170627
722.666	0.0171446
722.744	0.0171884
722.822	0.0169971
722.900	0.0171081
722.978	0.0172488
723.057	0.0171107
723.135	0.0172728
723.213	0.0170491
723.291	0.0168830
723.369	0.0168828
723.447	0.0169718
723.525	0.0167606
723.603	0.0167226
723.682	0.0166902
723.760	0.0165612
723.838	0.0165211
723.916	0.0164153
723.994	0.0165679
724.072	0.0164180
724.150	0.0163820
724.228	0.0165250
724.307	0.0166155
724.385	0.0166171
724.463	0.0167534
724.541	0.0167648
724.619	0.0167065
724.697	0.0168583
724.775	0.0169382
724.853	0.0170135
724.932	0.0170068
725.010	0.0168580
725.088	0.0170114
725.166	0.0171226
725.244	0.0170760
725.322	0.0171789
725.400	0.0170806
725.478	0.0171928
725.557	0.0170541
725.635	0.0170235
725.713	0.0169394
725.791	0.0169053
725.869	0.0168012
725.947	0.0168690
726.025	0.0167451
726.103	0.0165868
726.182	0.0166734
726.260	0.0167169
726.338	0.0166683
726.416	0.0167124
726.494	0.0165910
726.572	0.0165756
726.650	0.0166248
726.728	0.0165409
726.807	0.0167976
726.885	0.0167065
726.963	0.0169022
727.041	0.0167421
727.119	0.0168638
727.197	0.0170464
727.275	0.0171104
727.353	0.0171602
727.432	0.0171711
727.510	0.0171150
727.588	0.0172392
727.666	0.0170736
727.744	0.0171302
727.822	0.0171095
727.900	0.0169860
727.978	0.0169672
728.057	0.0169186
728.135	0.0167702
728.213	0.0166737
728.291	0.0167179
728.369	0.0167608
728.447	0.0167834
728.525	0.0165833
728.603	0.0166174
728.682	0.0166016
728.760	0.0167427
728.838	0.0167170
728.916	0.0169478
728.994	0.0169649
729.072	0.0169049
729.150	0.0168709
729.228	0.0170426
729.307	0.0169891
729.385	0.0170933
729.463	0.0170168
729.541	0.0169559
729.619	0.0168078
729.697	0.0170461
729.775	0.0169292
729.853	0.0169020
729.932	0.0170188
730.010	0.0170403
730.088	0.0170067
730.166	0.0169785
730.244	0.0170087
730.322	0.0170488
730.400	0.0169287
730.478	0.0169475
730.557	0.0170638
730.635	0.0169706
730.713	0.0170894
730.791	0.0169739
730.869	0.0169179
730.947	0.0167926
731.025	0.0170284
731.103	0.0169662
731.182	0.0168509
731.260	0.0169161
731.338	0.0168300
731.416	0.0169791
731.494	0.0169617
731.572	0.0168552
731.650	0.0168932
731.728	0.0168809
731.807	0.0168670
731.885	0.0168982
731.963	0.0169897
732.041	0.0170679
732.119	0.0170271
732.197	0.0171673
732.275	0.0172421
732.353	0.0169383
732.432	0.0171394
732.510	0.0170463
732.588	0.0169048
732.666	0.0168680
732.744	0.0170016
732.822	0.0168884
732.900	0.0168397
732.978	0.0167256
733.057	0.0168050
733.135	0.0168135
733.213	0.0168559
733.291	0.0168464
733.369	0.0166718
733.447	0.0168320
733.525	0.0170427
733.603	0.0170834
733.682	0.0169724
733.760	0.0172009
733.838	0.0172758
733.916	0.0172301
733.994	0.0172770
734.072	0.0173894
734.150	0.0173791
734.228	0.0171894
734.307	0.0172581
734.385	0.0170510
734.463	0.0170309
734.541	0.0167793
734.619	0.0167246
734.697	0.0167251
734.775	0.0165807
734.853	0.0166167
734.932	0.0166319
735.010	0.0165542
735.088	0.0165639
735.166	0.0166978
735.244	0.0166090
735.322	0.0168018
735.400	0.0169349
735.478	0.0170911
735.557	0.0171272
735.635	0.0171246
735.713	0.0173441
735.791	0.0174695
735.869	0.0173827
735.947	0.0174217
736.025	0.0174082
736.103	0.0173894
736.182	0.0172803
736.260	0.0170882
736.338	0.0171183
736.416	0.0170322
736.494	0.0169933
736.572	0.0168974
736.650	0.0168053
736.728	0.0168517
736.807	0.0166316
736.885	0.0166035
736.963	0.0165813
737.041	0.0166189
737.119	0.0164901
737.197	0.0165107
737.275	0.0165323
737.353	0.0163931
737.432	0.0164989
737.510	0.0164776
737.588	0.0166381
737.666	0.0166167
737.744	0.0167088
737.822	0.0168018
737.900	0.0168310
737.978	0.0170125
738.057	0.0171994
738.135	0.0173222
738.213	0.0173310
738.291	0.0172277
738.369	0.0174447
738.447	0.0174661
738.525	0.0174319
738.603	0.0174035
738.682	0.0172736
738.760	0.0172530
738.838	0.0171184
738.916	0.0169791
738.994	0.0168944
739.072	0.0166843
739.150	0.0163632
739.228	0.0163438
739.307	0.0161673
739.385	0.0162273
739.463	0.0161523
739.541	0.0160262
739.619	0.0160542
739.697	0.0162925
739.775	0.0163620
739.853	0.0164767
739.932	0.0166799
740.010	0.0168578
740.088	0.0170369
740.166	0.0170098
740.244	0.0172239
740.322	0.0173512
740.400	0.0174969
740.478	0.0175257
740.557	0.0173376
740.635	0.0174432
740.713	0.0173374
740.791	0.0174044
740.869	0.0173357
740.947	0.0172485
741.025	0.0171146
741.103	0.0169955
741.182	0.0168150
741.260	0.0167185
741.338	0.0167048
741.416	0.0165701
741.494	0.0166422
741.572	0.0165459
741.650	0.0165254
741.728	0.0164832
741.807	0.0165958
741.885	0.0165246
741.963	0.0167075
742.041	0.0166666
742.119	0.0166933
742.197	0.0167716
742.275	0.0165280
742.353	0.0167170
742.432	0.0168019
742.510	0.0167656
742.588	0.0167979
742.666	0.0167122
742.744	0.0169470
742.822	0.0170152
742.900	0.0170883
742.978	0.0170520
743.057	0.0169914
743.135	0.0170303
743.213	0.0170579
743.291	0.0170734
743.369	0.0170272
743.447	0.0171472
743.525	0.0169680
743.603	0.0170416
743.682	0.0169354
743.760	0.0169038
743.838	0.0170052
743.916	0.0168210
743.994	0.0169063
744.072	0.0168906
744.150	0.0168541
744.228	0.0166893
744.307	0.0168092
744.385	0.0167210
744.463	0.0166372
744.541	0.0167558
744.619	0.0166721
744.697	0.0167065
744.775	0.0168595
744.853	0.0168703
744.932	0.0168562
745.010	0.0168274
745.088	0.0168382
745.166	0.0168553
745.244	0.0168904
745.322	0.0170425
745.400	0.0170047
745.478	0.0170441
745.557	0.0169781
745.635	0.0169702
745.713	0.0172025
745.791	0.0169671
745.869	0.0169586
745.947	0.0170808
746.025	0.0170914
746.103	0.0170474
746.182	0.0172218
746.260	0.0170528
746.338	0.0171265
746.416	0.0168993
746.494	0.0170712
746.572	0.0171435
746.650	0.0170338
746.728	0.0171316
746.807	0.0169768
746.885	0.0170345
746.963	0.0169250
747.041	0.0169576
747.119	0.0169054
747.197	0.0168754
747.275	0.0168499
747.353	0.0167257
747.432	0.0166386
747.510	0.0168598
747.588	0.0167845
747.666	0.0167948
747.744	0.0168203
747.822	0.0166572
747.900	0.0168085
747.978	0.0168193
748.057	0.0168708
748.135	0.0169612
748.213	0.0169045
748.291	0.0169617
748.369	0.0170869
748.447	0.0170522
748.525	0.0170876
748.603	0.0171625
748.682	0.0171429
748.760	0.0171563
748.838	0.0172598
748.916	0.0172137
748.994	0.0170670
749.072	0.0171118
749.150	0.0170840
749.228	0.0168456
749.307	0.0168755
749.385	0.0167827
749.463	0.0168746
749.541	0.0169506
749.619	0.0167793
749.697	0.0167147
749.775	0.0167615
749.853	0.0168295
749.932	0.0167074
750.010	0.0168853
750.088	0.0166333
750.166	0.0168494
750.244	0.0167741
750.322	0.0166576
750.400	0.0168848
750.478	0.0168673
750.557	0.0167242
750.635	0.0169403
750.713	0.0170137
750.791	0.0171076
750.869	0.0169951
750.947	0.0169788
751.025	0.0170215
751.103	0.0169762
751.182	0.0169921
751.260	0.0171131
751.338	0.0170627
751.416	0.0171655
751.494	0.0168953
751.572	0.0169254
751.650	0.0169320
751.728	0.0170670
751.807	0.0169652
751.885	0.0169884
751.963	0.0169979
752.041	0.0168208
752.119	0.0169155
752.197	0.0168393
752.275	0.0167928
752.353	0.0168270
752.432	0.0168546
752.510	0.0167799
752.588	0.0166950
752.666	0.0168806
752.744	0.0168143
752.822	0.0168778
752.900	0.0167165
752.978	0.0168082
753.057	0.0170512
753.135	0.0169463
753.213	0.0168719
753.291	0.0169141
753.369	0.0169272
753.447	0.0170038
753.525	0.0169640
753.603	0.0169010
753.682	0.0171242
753.760	0.0170878
753.838	0.0171573
753.916	0.0170054
753.994	0.0169968
754.072	0.0169823
754.150	0.0170876
754.228	0.0169400
754.307	0.0169227
754.385	0.0170187
754.463	0.0171632
754.541	0.0169348
754.619	0.0169460
754.697	0.0170557
754.775	0.0170319
754.853	0.0169427
754.932	0.0170464
755.010	0.0170355
755.088	0.0169370
755.166	0.0169921
755.244	0.0170520
755.322	0.0169590
755.400	0.0169669
755.478	0.0169162
755.557	0.0169099
755.635	0.0170069
755.713	0.0169991
755.791	0.0168287
755.869	0.0168621
755.947	0.0169807
756.025	0.0169801
756.103	0.0168892
756.182	0.0169671
756.260	0.0171206
756.338	0.0169424
756.416	0.0170558
756.494	0.0171120
756.572	0.0170723
756.650	0.0169086
756.728	0.0169964
756.807	0.0170443
756.885	0.0168950
756.963	0.0169644
757.041	0.0171284
757.119	0.0169843
757.197	0.0169115
757.275	0.0170142
757.353	0.0169768
757.432	0.0169740
757.510	0.0171091
757.588	0.0169524
757.666	0.0169156
757.744	0.0170172
757.822	0.0168194
757.900	0.0169006
757.978	0.0168113
758.057	0.0169547
758.135	0.0167316
758.213	0.0167383
758.291	0.0168789
758.369	0.0168604
758.447	0.0169571
758.525	0.0168588
758.603	0.0168106
758.682	0.0170002
758.760	0.0168873
758.838	0.0169278
758.916	0.0169273
758.994	0.0168538
759.072	0.0170641
759.150	0.0170016
759.228	0.0170376
759.307	0.0169506
759.385	0.0168951
759.463	0.0170293
759.541	0.0170408
759.619	0.0169560
759.697	0.0169727
759.775	0.0170643
759.853	0.0169783
759.932	0.0168385
760.010	0.0167376
760.088	0.0167580
760.166	0.0168088
760.244	0.0166758
760.322	0.0166008
760.400	0.0168669
760.478	0.0168354
760.557	0.0167196
760.635	0.0166813
760.713	0.0166699
760.791	0.0166731
760.869	0.0167688
760.947	0.0165818
761.025	0.0166859
761.103	0.0166848
761.182	0.0165644
761.260	0.0167210
761.338	0.0167902
761.416	0.0167422
761.494	0.0166815
761.572	0.0169847
761.650	0.0168339
761.728	0.0169206
761.807	0.0169078
761.885	0.0170337
761.963	0.0170136
762.041	0.0171552
762.119	0.0172646
762.197	0.0171335
762.275	0.0170354
762.353	0.0170903
762.432	0.0171421
762.510	0.0171986
762.588	0.0172004
762.666	0.0170443
762.744	0.0170322
762.822	0.0167580
762.900	0.0168692
762.978	0.0167223
763.057	0.0165979
763.135	0.0164771
763.213	0.0166793
763.291	0.0164992
763.369	0.0165641
763.447	0.0164764
763.525	0.0165041
763.603	0.0164685
763.682	0.0165204
763.760	0.0165357
763.838	0.0165420
763.916	0.0167228
763.994	0.0167175
764.072	0.0168349
764.150	0.0167160
764.228	0.0169285
764.307	0.0169818
764.385	0.0170310
764.463	0.0170369
764.541	0.0169933
764.619	0.0170621
764.697	0.0170248
764.775	0.0170518
764.853	0.0171964
764.932	0.0172627
765.010	0.0171236
765.088	0.0171547
765.166	0.0171552
765.244	0.0173448
765.322	0.0172138
765.400	0.0170952
765.478	0.0171351
765.557	0.0170235
765.635	0.0169625
765.713	0.0170099
765.791	0.0168222
765.869	0.0168615
765.947	0.0166586
766.025	0.0165937
766.103	0.0167042
766.182	0.0166530
766.260	0.0166344
766.338	0.0165518
766.416	0.0164114
766.494	0.0166480
766.572	0.0166434
766.650	0.0166731
766.728	0.0166028
766.807	0.0166464
766.885	0.0167084
766.963	0.0168785
767.041	0.0166354
767.119	0.0167253
767.197	0.0168324
767.275	0.0168533
767.353	0.0168630
767.432	0.0166846
767.510	0.0169232
767.588	0.0167960
767.666	0.0167922
767.744	0.0169223
767.822	0.0168990
767.900	0.0168510
767.978	0.0169772
768.057	0.0168585
768.135	0.0168153
768.213	0.0168915
768.291	0.0169483
768.369	0.0170679
768.447	0.0170018
768.525	0.0168968
768.603	0.0170425
768.682	0.0169855
768.760	0.0169322
768.838	0.0167493
768.916	0.0169755
768.994	0.0170686
769.072	0.0170017
769.150	0.0169497
769.228	0.0169948
769.307	0.0168399
769.385	0.0168768
769.463	0.0169104
769.541	0.0168890
769.619	0.0168636
769.697	0.0169238
769.775	0.0168070
769.853	0.0168020
769.932	0.0169260
770.010	0.0169382
770.088	0.0169904
770.166	0.0170361
770.244	0.0170055
770.322	0.0168006
770.400	0.0170466
770.478	0.0168935
770.557	0.0170370
770.635	0.0167461
770.713	0.0166938
770.791	0.0167852
770.869	0.0168436
770.947	0.0165845
771.025	0.0165842
771.103	0.0164996
771.182	0.0164618
771.260	0.0166417
771.338	0.0166061
771.416	0.0166528
771.494	0.0166005
771.572	0.0167842
771.650	0.0168789
771.728	0.0169259
771.807	0.0169227
771.885	0.0171021
771.963	0.0172279
772.041	0.0171996
772.119	0.0171870
772.197	0.0173883
772.275	0.0174453
772.353	0.0174718
772.432	0.0174776
772.510	0.0175709
772.588	0.0176924
772.666	0.0176327
772.744	0.0176376
772.822	0.0176804
772.900	0.0175970
772.978	0.0175681
773.057	0.0176306
773.135	0.0172936
773.213	0.0173698
773.291	0.0171451
773.369	0.0169297
773.447	0.0168509
773.525	0.0167400
773.603	0.0165155
773.682	0.0164666
773.760	0.0164288
773.838	0.0164238
773.916	0.0162574
773.994	0.0161037
774.072	0.0161105
774.150	0.0161942
774.228	0.0161394
774.307	0.0160723
774.385	0.0163100
774.463	0.0162917
774.541	0.0162273
774.619	0.0163632
774.697	0.0163893
774.775	0.0165787
774.853	0.0165918
774.932	0.0166354
775.010	0.0167422
775.088	0.0168261
775.166	0.0168524
775.244	0.0169614
775.322	0.0169820
775.400	0.0170861
775.478	0.0172303
775.557	0.0171616
775.635	0.0172269
775.713	0.0172292
775.791	0.0171516
775.869	0.0171627
775.947	0.0173535
776.025	0.0174741
776.103	0.0175368
776.182	0.0174157
776.260	0.0174741
776.338	0.0175179
776.416	0.0175873
776.494	0.0177196
776.572	0.0176669
776.650	0.0175208
776.728	0.0176987
776.807	0.0176561
776.885	0.0175748
776.963	0.0174837
777.041	0.0173874
777.119	0.0173692
777.197	0.0172531
777.275	0.0170452
777.353	0.0170548
777.432	0.0168790
777.510	0.0169434
777.588	0.0168777
777.666	0.0166927
777.744	0.0165704
777.822	0.0164111
777.900	0.0162701
777.978	0.0162136
778.057	0.0162569
778.135	0.0161790
778.213	0.0162694
778.291	0.0162353
778.369	0.0161174
778.447	0.0162823
778.525	0.0162126
778.603	0.0162868
778.682	0.0164047
778.760	0.0164733
778.838	0.0164275
778.916	0.0165153
778.994	0.0165303
779.072	0.0166485
779.150	0.0166894
779.228	0.0168076
779.307	0.0167416
779.385	0.0168476
779.463	0.0168848
779.541	0.0171465
779.619	0.0171540
779.697	0.0173479
779.775	0.0171414
779.853	0.0174058
779.932	0.0173570
780.010	0.0174398
780.088	0.0175735
780.166	0.0174384
780.244	0.0175354
780.322	0.0176942
780.400	0.0176099
780.478	0.0175748
780.557	0.0176137
780.635	0.0175423
780.713	0.0174313
780.791	0.0173465
780.869	0.0172377
780.947	0.0171471
781.025	0.0169577
781.103	0.0168932
781.182	0.0170451
781.260	0.0166864
781.338	0.0165372
781.416	0.0166234
781.494	0.0164290
781.572	0.0165292
781.650	0.0165291
781.728	0.0165398
781.807	0.0165083
781.885	0.0163799
781.963	0.0165491
782.041	0.0164233
782.119	0.0165922
782.197	0.0165242
782.275	0.0165334
782.353	0.0164272
782.432	0.0163516
782.510	0.0163380
782.588	0.0162590
782.666	0.0163986
782.744	0.0162968
782.822	0.0163318
782.900	0.0163866
782.978	0.0163095
783.057	0.0164625
783.135	0.0164661
783.213	0.0166528
783.291	0.0166275
783.369	0.0166914
783.447	0.0167461
783.525	0.0167821
783.603	0.0167248
783.682	0.0167729
783.760	0.0168981
783.838	0.0169686
783.916	0.0169913
783.994	0.0170781
784.072	0.0169913
784.150	0.0171322
784.228	0.0169801
784.307	0.0170426
784.385	0.0171891
784.463	0.0171819
784.541	0.0172416
784.619	0.0171503
784.697	0.0171552
784.775	0.0172556
784.853	0.0174696
784.932	0.0175283
785.010	0.0173516
785.088	0.0173592
785.166	0.0174699
785.244	0.0174364
785.322	0.0174287
785.400	0.0174307
785.478	0.0173394
785.557	0.0170370
785.635	0.0170087
785.713	0.0169425
785.791	0.0168507
785.869	0.0167124
785.947	0.0167106
786.025	0.0166342
786.103	0.0166650
786.182	0.0164043
786.260	0.0163223
786.338	0.0162659
786.416	0.0162719
786.494	0.0161470
786.572	0.0163232
786.650	0.0162703
786.728	0.0163150
786.807	0.0164910
786.885	0.0164307
786.963	0.0165833
787.041	0.0164806
787.119	0.0165485
787.197	0.0166692
787.275	0.0165788
787.353	0.0168055
787.432	0.0166846
787.510	0.0167700
787.588	0.0166903
787.666	0.0168211
787.744	0.0168256
787.822	0.0168451
787.900	0.0168333
787.978	0.0166943
788.057	0.0167600
788.135	0.0167045
788.213	0.0166902
788.291	0.0167104
788.369	0.0167348
788.447	0.0167975
788.525	0.0168428
788.603	0.0168062
788.682	0.0169286
788.760	0.0169995
788.838	0.0170275
788.916	0.0170988
788.994	0.0172408
789.072	0.0172134
789.150	0.0172417
789.228	0.0172456
789.307	0.0170938
789.385	0.0172390
789.463	0.0173665
789.541	0.0171268
789.619	0.0172245
789.697	0.0172148
789.775	0.0173370
789.853	0.0171799
789.932	0.0172308
790.010	0.0170946
790.088	0.0173056
790.166	0.0172035
790.244	0.0170936
790.322	0.0171964
790.400	0.0171240
790.478	0.0170262
790.557	0.0168561
790.635	0.0168307
790.713	0.0167107
790.791	0.0165876
790.869	0.0165417
790.947	0.0165607
791.025	0.0165498
791.103	0.0163677
791.182	0.0162465
791.260	0.0162705
791.338	0.0163375
791.416	0.0162879
791.494	0.0162061
791.572	0.0162838
791.650	0.0161937
791.728	0.0164224
791.807	0.0163705
791.885	0.0163937
791.963	0.0164449
792.041	0.0164240
792.119	0.0165684
792.197	0.0169150
792.275	0.0170323
792.353	0.0169248
792.432	0.0169697
792.510	0.0171352
792.588	0.0173660
792.666	0.0172890
792.744	0.0174197
792.822	0.0174082
792.900	0.0175130
792.978	0.0174124
793.057	0.0173225
793.135	0.0173638
793.213	0.0172868
793.291	0.0173571
793.369	0.0171657
793.447	0.0170678
793.525	0.0169438
793.603	0.0168124
793.682	0.0168166
793.760	0.0167051
793.838	0.0166437
793.916	0.0165777
793.994	0.0164603
794.072	0.0164222
794.150	0.0164150
794.228	0.0165191
794.307	0.0163931
794.385	0.0164112
794.463	0.0164693
794.541	0.0163889
794.619	0.0164362
794.697	0.0163478
794.775	0.0165300
794.853	0.0165087
794.932	0.0163748
795.010	0.0165584
795.088	0.0166470
795.166	0.0168802
795.244	0.0170255
795.322	0.0169601
795.400	0.0172450
795.478	0.0173490
795.557	0.0174916
795.635	0.0176238
795.713	0.0176131
795.791	0.0176718
795.869	0.0177010
795.947	0.0177052
796.025	0.0176701
796.103	0.0176402
796.182	0.0175131
796.260	0.0174438
796.338	0.0173100
796.416	0.0171198
796.494	0.0168874
796.572	0.0168772
796.650	0.0167068
796.728	0.0165929
796.807	0.0165718
796.885	0.0165030
796.963	0.0163328
797.041	0.0163581
797.119	0.0161440
797.197	0.0162286
797.275	0.0162482
797.353	0.0161904
797.432	0.0162199
797.510	0.0162179
797.588	0.0161336
797.666	0.0162203
797.744	0.0161720
797.822	0.0163018
797.900	0.0163641
797.978	0.0163750
798.057	0.0163440
798.135	0.0164751
798.213	0.0165356
798.291	0.0165935
798.369	0.0167445
798.447	0.0169630
798.525	0.0169970
798.603	0.0169092
798.682	0.0169012
798.760	0.0170351
798.838	0.0170309
798.916	0.0170997
798.994	0.0170892
799.072	0.0170056
799.150	0.0168873
799.228	0.0167844
799.307	0.0170058
799.385	0.0169352
799.463	0.0170414
799.541	0.0170694
799.619	0.0170422
799.697	0.0172379
799.775	0.0171886
799.853	0.0173032
799.932	0.0172582
800.010	0.0173736
800.088	0.0174903
800.166	0.0176793
800.244	0.0176773
800.322	0.0174698
800.400	0.0177090
800.478	0.0177122
800.557	0.0175166
800.635	0.0174575
800.713	0.0172287
800.791	0.0171625
800.869	0.0171046
800.947	0.0170626
801.025	0.0168169
801.103	0.0165398
801.182	0.0164988
801.260	0.0164547
801.338	0.0162765
801.416	0.0158884
801.494	0.0158858
801.572	0.0157887
801.650	0.0157043
801.728	0.0156924
801.807	0.0155264
801.885	0.0155475
801.963	0.0156806
802.041	0.0158741
802.119	0.0156639
802.197	0.0156369
802.275	0.0158611
802.353	0.0160683
802.432	0.0161613
802.510	0.0163435
802.588	0.0165419
802.666	0.0168140
802.744	0.0169638
802.822	0.0170501
802.900	0.0170508
802.978	0.0172738
803.057	0.0174735
803.135	0.0176901
803.213	0.0178601
803.291	0.0179283
803.369	0.0178648
803.447	0.0180074
803.525	0.0182085
803.603	0.0179458
803.682	0.0179213
803.760	0.0179408
803.838	0.0178087
803.916	0.0176501
803.994	0.0175880
804.072	0.0173466
804.150	0.0172511
804.228	0.0170403
804.307	0.0168188
804.385	0.0166377
804.463	0.0165761
804.541	0.0163630
804.619	0.0161367
804.697	0.0160629
804.775	0.0159305
804.853	0.0159040
804.932	0.0158627
805.010	0.0158515
805.088	0.0160188
805.166	0.0159698
805.244	0.0160726
805.322	0.0162815
805.400	0.0164465
805.478	0.0165241
805.557	0.0167174
805.635	0.0169014
805.713	0.0171336
805.791	0.0171429
805.869	0.0173164
805.947	0.0174831
806.025	0.0174315
806.103	0.0174937
806.182	0.0175153
806.260	0.0175043
806.338	0.0174239
806.416	0.0174908
806.494	0.0174092
806.572	0.0174474
806.650	0.0172710
806.728	0.0172036
806.807	0.0171712
806.885	0.0169848
806.963	0.0169948
807.041	0.0167070
807.119	0.0167196
807.197	0.0166493
807.275	0.0165134
807.353	0.0164553
807.432	0.0164939
807.510	0.0165171
807.588	0.0163963
807.666	0.0163697
807.744	0.0165075
807.822	0.0165002
807.900	0.0166363
807.978	0.0165646
808.057	0.0166016
808.135	0.0166309
808.213	0.0166756
808.291	0.0167886
808.369	0.0168526
808.447	0.0168659
808.525	0.0170892
808.603	0.0170456
808.682	0.0169430
808.760	0.0169260
808.838	0.0170361
808.916	0.0170079
808.994	0.0171130
809.072	0.0169737
809.150	0.0168789
809.228	0.0169028
809.307	0.0169825
809.385	0.0169432
809.463	0.0168945
809.541	0.0170424
809.619	0.0168829
809.697	0.0168840
809.775	0.0167251
809.853	0.0167931
809.932	0.0168099
810.010	0.0167014
810.088	0.0169049
810.166	0.0169447
810.244	0.0168236
810.322	0.0168376
810.400	0.0168871
810.478	0.0168136
810.557	0.0168678
810.635	0.0169386
810.713	0.0168591
810.791	0.0169516
810.869	0.0170477
810.947	0.0170587
811.025	0.0169927
811.103	0.0169706
811.182	0.0170767
811.260	0.0171128
811.338	0.0171962
811.416	0.0172888
811.494	0.0173188
811.572	0.0173373
811.650	0.0174567
811.728	0.0174695
811.807	0.0174984
811.885	0.0173495
811.963	0.0175337
812.041	0.0174082
812.119	0.0173528
812.197	0.0173225
812.275	0.0172770
812.353	0.0170280
812.432	0.0170758
812.510	0.0168208
812.588	0.0166417
812.666	0.0163475
812.744	0.0163857
812.822	0.0163543
812.900	0.0161327
812.978	0.0160712
813.057	0.0160595
813.135	0.0158766
813.213	0.0158756
813.291	0.0159208
813.369	0.0158845
813.447	0.0159528
813.525	0.0160812
813.603	0.0162860
813.682	0.0165456
813.760	0.0166446
813.838	0.0167990
813.916	0.0168497
813.994	0.0170744
814.072	0.0171994
814.150	0.0173101
814.228	0.0173820
814.307	0.0176714
814.385	0.0178355
814.463	0.0176667
814.541	0.0176778
814.619	0.0176072
814.697	0.0173754
814.775	0.0174383
814.853	0.0173990
814.932	0.0171004
815.010	0.0169213
815.088	0.0168506
815.166	0.0166313
815.244	0.0166081
815.322	0.0165105
815.400	0.0164143
815.478	0.0163432
815.557	0.0162004
815.635	0.0162555
815.713	0.0163566
815.791	0.0163338
815.869	0.0162875
815.947	0.0164012
816.025	0.0165746
816.103	0.0166321
816.182	0.0167929
816.260	0.0168573
816.338	0.0169576
816.416	0.0169257
816.494	0.0169795
816.572	0.0171629
816.650	0.0171874
816.728	0.0171946
816.807	0.0170768
816.885	0.0171714
816.963	0.0171673
817.041	0.0169557
817.119	0.0169897
817.197	0.0168750
817.275	0.0167560
817.353	0.0167417
817.432	0.0167261
817.510	0.0166166
817.588	0.0165392
817.666	0.0164117
817.744	0.0162793
817.822	0.0161980
817.900	0.0161986
817.978	0.0163863
818.057	0.0162206
818.135	0.0162169
818.213	0.0162897
818.291	0.0162591
818.369	0.0164411
818.447	0.0165084
818.525	0.0164337
818.603	0.0165050
818.682	0.0167418
818.760	0.0168185
818.838	0.0168187
818.916	0.0168824
818.994	0.0170885
819.072	0.0171679
819.150	0.0173717
819.228	0.0170649
819.307	0.0172458
819.385	0.0173734
819.463	0.0173749
819.541	0.0172710
819.619	0.0173186
819.697	0.0173993
819.775	0.0173476
819.853	0.0172896
819.932	0.0172398
820.010	0.0171501
820.088	0.0171454
820.166	0.0169973
820.244	0.0170370
820.322	0.0171133
820.400	0.0169542
820.478	0.0169376
820.557	0.0168130
820.635	0.0168060
820.713	0.0167164
820.791	0.0167161
820.869	0.0166505
820.947	0.0167007
821.025	0.0165606
821.103	0.0165376
821.182	0.0166013
821.260	0.0165282
821.338	0.0165588
821.416	0.0167026
821.494	0.0164881
821.572	0.0165682
821.650	0.0166085
821.728	0.0165605
821.807	0.0165954
821.885	0.0165141
821.963	0.0164542
822.041	0.0165067
822.119	0.0165329
822.197	0.0166454
822.275	0.0166337
822.353	0.0167155
822.432	0.0166202
822.510	0.0166598
822.588	0.0167460
822.666	0.0166755
822.744	0.0167508
822.822	0.0168712
822.900	0.0169091
822.978	0.0170151
823.057	0.0169513
823.135	0.0169041
823.213	0.0168768
823.291	0.0168793
823.369	0.0169210
823.447	0.0168340
823.525	0.0166818
823.603	0.0166749
823.682	0.0167909
823.760	0.0168836
823.838	0.0167392
823.916	0.0168199
823.994	0.0168450
824.072	0.0167873
824.150	0.0169273
824.228	0.0167845
824.307	0.0168288
824.385	0.0167638
824.463	0.0168211
824.541	0.0168503
824.619	0.0169124
824.697	0.0167945
824.775	0.0168045
824.853	0.0166753
824.932	0.0167521
825.010	0.0166867
825.088	0.0168415
825.166	0.0168289
825.244	0.0167549
825.322	0.0167843
825.400	0.0167037
825.478	0.0167464
825.557	0.0169254
825.635	0.0170110
825.713	0.0169602
825.791	0.0171541
825.869	0.0171682
825.947	0.0172591
826.025	0.0173511
826.103	0.0173521
826.182	0.0173985
826.260	0.0173391
826.338	0.0172753
826.416	0.0172844
826.494	0.0172450
826.572	0.0174376
826.650	0.0171711
826.728	0.0171846
826.807	0.0172992
826.885	0.0170659
826.963	0.0171121
827.041	0.0170642
827.119	0.0168529
827.197	0.0168563
827.275	0.0168536
827.353	0.0167487
827.432	0.0166454
827.510	0.0163982
827.588	0.0164114
827.666	0.0163789
827.744	0.0163792
827.822	0.0163829
827.900	0.0163168
827.978	0.0162856
828.057	0.0163777
828.135	0.0164674
828.213	0.0164526
828.291	0.0166016
828.369	0.0167031
828.447	0.0166241
828.525	0.0166496
828.603	0.0167272
828.682	0.0168681
828.760	0.0168775
828.838	0.0170281
828.916	0.0170089
828.994	0.0169843
829.072	0.0169608
829.150	0.0170301
829.228	0.0169655
829.307	0.0169344
829.385	0.0168830
829.463	0.0169701
829.541	0.0169148
829.619	0.0169019
829.697	0.0168798
829.775	0.0168042
829.853	0.0170192
829.932	0.0170124
830.010	0.0168551
830.088	0.0169672
830.166	0.0170575
830.244	0.0171033
830.322	0.0172883
830.400	0.0174628
830.478	0.0173524
830.557	0.0174884
830.635	0.0176725
830.713	0.0175715
830.791	0.0175880
830.869	0.0176034
830.947	0.0176104
831.025	0.0176897
831.103	0.0175314
831.182	0.0174286
831.260	0.0172337
831.338	0.0171604
831.416	0.0170780
831.494	0.0168977
831.572	0.0166502
831.650	0.0166137
831.728	0.0165955
831.807	0.0163689
831.885	0.0163229
831.963	0.0163018
832.041	0.0161376
832.119	0.0161341
832.197	0.0161816
832.275	0.0163219
832.353	0.0163135
832.432	0.0162530
832.510	0.0163827
832.588	0.0165029
832.666	0.0165481
832.744	0.0166149
832.822	0.0167331
832.900	0.0167956
832.978	0.0168781
833.057	0.0168379
833.135	0.0168687
833.213	0.0169829
833.291	0.0168967
833.369	0.0168929
833.447	0.0169281
833.525	0.0168397
833.603	0.0168150
833.682	0.0168564
833.760	0.0167597
833.838	0.0169622
833.916	0.0167201
833.994	0.0168200
834.072	0.0167896
834.150	0.0168214
834.228	0.0169870
834.307	0.0167564
834.385	0.0168510
834.463	0.0168571
834.541	0.0169781
834.619	0.0168438
834.697	0.0171947
834.775	0.0171264
834.853	0.0171485
834.932	0.0171474
835.010	0.0172613
835.088	0.0172580
835.166	0.0174860
835.244	0.0173579
835.322	0.0173022
835.400	0.0173679
835.478	0.0173060
835.557	0.0171104
835.635	0.0170335
835.713	0.0169369
835.791	0.0169536
835.869	0.0169975
835.947	0.0170140
836.025	0.0168168
836.103	0.0168143
836.182	0.0168568
836.260	0.0167319
836.338	0.0167853
836.416	0.0166483
836.494	0.0168803
836.572	0.0168019
836.650	0.0167628
836.728	0.0169983
836.807	0.0169079
836.885	0.0169221
836.963	0.0169118
837.041	0.0170558
837.119	0.0169690
837.197	0.0170307
837.275	0.0169791
837.353	0.0170879
837.432	0.0170540
837.510	0.0170528
837.588	0.0170016
837.666	0.0168417
837.744	0.0169718
837.822	0.0167691
837.900	0.0168209
837.978	0.0169825
838.057	0.0167225
838.135	0.0166974
838.213	0.0166367
838.291	0.0165650
838.369	0.0166192
838.447	0.0166071
838.525	0.0166226
838.603	0.0165477
838.682	0.0165481
838.760	0.0164492
838.838	0.0165990
838.916	0.0164879
838.994	0.0165248
839.072	0.0164401
839.150	0.0163827
839.228	0.0163507
839.307	0.0163811
839.385	0.0163259
839.463	0.0163020
839.541	0.0162839
839.619	0.0164334
839.697	0.0162604
839.775	0.0163653
839.853	0.0164957
839.932	0.0165632
840.010	0.0165356
840.088	0.0166270
840.166	0.0167047
840.244	0.0165903
840.322	0.0168536
840.400	0.0170325
840.478	0.0170946
840.557	0.0171137
840.635	0.0171544
840.713	0.0173136
840.791	0.0173338
840.869	0.0172864
840.947	0.0174644
841.025	0.0173856
841.103	0.0172393
841.182	0.0174156
841.260	0.0174207
841.338	0.0173492
841.416	0.0174654
841.494	0.0171404
841.572	0.0172755
841.650	0.0171149
841.728	0.0170569
841.807	0.0168929
841.885	0.0170012
841.963	0.0167963
842.041	0.0168350
842.119	0.0169273
842.197	0.0168181
842.275	0.0168481
842.353	0.0167269
842.432	0.0167822
842.510	0.0166934
842.588	0.0168564
842.666	0.0168827
842.744	0.0168141
842.822	0.0168353
842.900	0.0168210
842.978	0.0166853
843.057	0.0168374
843.135	0.0168226
843.213	0.0166666
843.291	0.0166835
843.369	0.0166155
843.447	0.0164107
843.525	0.0164979
843.603	0.0166068
843.682	0.0162759
843.760	0.0164455
843.838	0.0163457
843.916	0.0163176
843.994	0.0162742
844.072	0.0164337
844.150	0.0165230
844.228	0.0164262
844.307	0.0165969
844.385	0.0166676
844.463	0.0166496
844.541	0.0168747
844.619	0.0169135
844.697	0.0170376
844.775	0.0169566
844.853	0.0171281
844.932	0.0170453
845.010	0.0169909
845.088	0.0172406
845.166	0.0171032
845.244	0.0172054
845.322	0.0170776
845.400	0.0169324
845.478	0.0171429
845.557	0.0171552
845.635	0.0169576
845.713	0.0171037
845.791	0.0169075
845.869	0.0169061
845.947	0.0168480
846.025	0.0168155
846.103	0.0169272
846.182	0.0168500
846.260	0.0168470
846.338	0.0169495
846.416	0.0169983
846.494	0.0170602
846.572	0.0170365
846.650	0.0169791
846.728	0.0171367
846.807	0.0171843
846.885	0.0171014
846.963	0.0171968
847.041	0.0173370
847.119	0.0172320
847.197	0.0173100
847.275	0.0172308
847.353	0.0172188
847.432	0.0171992
847.510	0.0172238
847.588	0.0172051
847.666	0.0171924
847.744	0.0170012
847.822	0.0169645
847.900	0.0169978
847.978	0.0170026
848.057	0.0170811
848.135	0.0168900
848.213	0.0168709
848.291	0.0168491
848.369	0.0167805
848.447	0.0168802
848.525	0.0167283
848.603	0.0167211
848.682	0.0169507
848.760	0.0168113
848.838	0.0167115
848.916	0.0168413
848.994	0.0169319
849.072	0.0168005
849.150	0.0168369
849.228	0.0169246
849.307	0.0169366
849.385	0.0168017
849.463	0.0167886
849.541	0.0169862
849.619	0.0167985
849.697	0.0168320
849.775	0.0168906
849.853	0.0167323
849.932	0.0167442
850.010	0.0166765
850.088	0.0168588
850.166	0.0167609
850.244	0.0166635
850.322	0.0166633
850.400	0.0167863
850.478	0.0167551
850.557	0.0168279
850.635	0.0167529
850.713	0.0167429
850.791	0.0168227
850.869	0.0168150
850.947	0.0168815
851.025	0.0169333
851.103	0.0168899
851.182	0.0169223
851.260	0.0170357
851.338	0.0169554
851.416	0.0170778
851.494	0.0169228
851.572	0.0169147
851.650	0.0170535
851.728	0.0170739
851.807	0.0169642
851.885	0.0170513
851.963	0.0169760
852.041	0.0170444
852.119	0.0170375
852.197	0.0169843
852.275	0.0169505
852.353	0.0170290
852.432	0.0170380
852.510	0.0172045
852.588	0.0171500
852.666	0.0172533
852.744	0.0170930
852.822	0.0172291
852.900	0.0172023
852.978	0.0172186
853.057	0.0172299
853.135	0.0173137
853.213	0.0172871
853.291	0.0172876
853.369	0.0172366
853.447	0.0172335
853.525	0.0171674
853.603	0.0173788
853.682	0.0170852
853.760	0.0171408
853.838	0.0169776
853.916	0.0170516
853.994	0.0171724
854.072	0.0170020
854.150	0.0170612
854.228	0.0169806
854.307	0.0168497
854.385	0.0168376
854.463	0.0168527
854.541	0.0168273
854.619	0.0167252
854.697	0.0168569
854.775	0.0166319
854.853	0.0167325
854.932	0.0165897
855.010	0.0166800
855.088	0.0166956
855.166	0.0166567
855.244	0.0166557
855.322	0.0166780
855.400	0.0166225
855.478	0.0166745
855.557	0.0167831
855.635	0.0168224
855.713	0.0167252
855.791	0.0168929
855.869	0.0168027
855.947	0.0168668
856.025	0.0168227
856.103	0.0168382
856.182	0.0167758
856.260	0.0167271
856.338	0.0167773
856.416	0.0168239
856.494	0.0167200
856.572	0.0167804
856.650	0.0166839
856.728	0.0167443
856.807	0.0166923
856.885	0.0167469
856.963	0.0165779
857.041	0.0167182
857.119	0.0167982
857.197	0.0166911
857.275	0.0166438
857.353	0.0166188
857.432	0.0167471
857.510	0.0167860
857.588	0.0168133
857.666	0.0166882
857.744	0.0167190
857.822	0.0167603
857.900	0.0167917
857.978	0.0168536
858.057	0.0168806
858.135	0.0167258
858.213	0.0167399
858.291	0.0169712
858.369	0.0170001
858.447	0.0169736
858.525	0.0167815
858.603	0.0168341
858.682	0.0168555
858.760	0.0168119
858.838	0.0167404
858.916	0.0169128
858.994	0.0167344
859.072	0.0169260
859.150	0.0167770
859.228	0.0167365
859.307	0.0168546
859.385	0.0170034
859.463	0.0170610
859.541	0.0169620
859.619	0.0169080
859.697	0.0168512
859.775	0.0169345
859.853	0.0168414
859.932	0.0169759
860.010	0.0171198
860.088	0.0169946
860.166	0.0169363
860.244	0.0168441
860.322	0.0168813
860.400	0.0167921
860.478	0.0168241
860.557	0.0168564
860.635	0.0167731
860.713	0.0168365
860.791	0.0166547
860.869	0.0167380
860.947	0.0165730
861.025	0.0167633
861.103	0.0167986
861.182	0.0167162
861.260	0.0166864
861.338	0.0167653
861.416	0.0168032
861.494	0.0169482
861.572	0.0169507
861.650	0.0169398
861.728	0.0170564
861.807	0.0168887
861.885	0.0169993
861.963	0.0169941
862.041	0.0169839
862.119	0.0169209
862.197	0.0169697
862.275	0.0168889
862.353	0.0169269
862.432	0.0169908
862.510	0.0167904
862.588	0.0166658
862.666	0.0166997
862.744	0.0168364
862.822	0.0165990
862.900	0.0165812
862.978	0.0165257
863.057	0.0166029
863.135	0.0165899
863.213	0.0166296
863.291	0.0165498
863.369	0.0164821
863.447	0.0165736
863.525	0.0165308
863.603	0.0165585
863.682	0.0165220
863.760	0.0166092
863.838	0.0165676
863.916	0.0164800
863.994	0.0166949
864.072	0.0166879
864.150	0.0165295
864.228	0.0164846
864.307	0.0167000
864.385	0.0167862
864.463	0.0168266
864.541	0.0168034
864.619	0.0168732
864.697	0.0167754
864.775	0.0168703
864.853	0.0167400
864.932	0.0169446
865.010	0.0168750
865.088	0.0169363
865.166	0.0167081
865.244	0.0168152
865.322	0.0169508
865.400	0.0167484
865.478	0.0166984
865.557	0.0168650
865.635	0.0168774
865.713	0.0168448
865.791	0.0167970
865.869	0.0169337
865.947	0.0169308
866.025	0.0169203
866.103	0.0171745
866.182	0.0169839
866.260	0.0170168
866.338	0.0169955
866.416	0.0170454
866.494	0.0171308
866.572	0.0171335
866.650	0.0170655
866.728	0.0170581
866.807	0.0171136
866.885	0.0169164
866.963	0.0168845
867.041	0.0167968
867.119	0.0166755
867.197	0.0169023
867.275	0.0168369
867.353	0.0165495
867.432	0.0165652
867.510	0.0165884
867.588	0.0167085
867.666	0.0167254
867.744	0.0166018
867.822	0.0168195
867.900	0.0166305
867.978	0.0168057
868.057	0.0166407
868.135	0.0168316
868.213	0.0168050
868.291	0.0168642
868.369	0.0169783
868.447	0.0168081
868.525	0.0169366
868.603	0.0169927
868.682	0.0169363
868.760	0.0168383
868.838	0.0169586
868.916	0.0169811
868.994	0.0168659
869.072	0.0168754
869.150	0.0169051
869.228	0.0169123
869.307	0.0169096
869.385	0.0169043
869.463	0.0168509
869.541	0.0168047
869.619	0.0167889
869.697	0.0166607
869.775	0.0167289
869.853	0.0169222
869.932	0.0167849
870.010	0.0167249
870.088	0.0167117
870.166	0.0166036
870.244	0.0168156
870.322	0.0167921
870.400	0.0168558
870.478	0.0168780
870.557	0.0169854
870.635	0.0168864
870.713	0.0169679
870.791	0.0169042
870.869	0.0169893
870.947	0.0168507
871.025	0.0168316
871.103	0.0169864
871.182	0.0169120
871.260	0.0167422
871.338	0.0168156
871.416	0.0168394
871.494	0.0169222
871.572	0.0168179
871.650	0.0168015
871.728	0.0169285
871.807	0.0170681
871.885	0.0169444
871.963	0.0169190
872.041	0.0169284
872.119	0.0170083
872.197	0.0171844
872.275	0.0171363
872.353	0.0172270
872.432	0.0172837
872.510	0.0172688
872.588	0.0171795
872.666	0.0170932
872.744	0.0170790
872.822	0.0172256
872.900	0.0171567
872.978	0.0172021
873.057	0.0171361
873.135	0.0170505
873.213	0.0170183
873.291	0.0169685
873.369	0.0168938
873.447	0.0169602
873.525	0.0168383
873.603	0.0168163
873.682	0.0167993
873.760	0.0166749
873.838	0.0166869
873.916	0.0167377
873.994	0.0166610
874.072	0.0167770
874.150	0.0168279
874.228	0.0169238
874.307	0.0167202
874.385	0.0167358
874.463	0.0168399
874.541	0.0167596
874.619	0.0167580
874.697	0.0168604
874.775	0.0167918
874.853	0.0168723
874.932	0.0167867
875.010	0.0169300
875.088	0.0168439
875.166	0.0168311
875.244	0.0167880
875.322	0.0168481
875.400	0.0169489
875.478	0.0169284
875.557	0.0168706
875.635	0.0166739
875.713	0.0167137
875.791	0.0167822
875.869	0.0169141
875.947	0.0169174
876.025	0.0169661
876.103	0.0168990
876.182	0.0169695
876.260	0.0170706
876.338	0.0170413
876.416	0.0171184
876.494	0.0171849
876.572	0.0171909
876.650	0.0169997
876.728	0.0172035
876.807	0.0172524
876.885	0.0171145
876.963	0.0171071
877.041	0.0172176
877.119	0.0171998
877.197	0.0171702
877.275	0.0172161
877.353	0.0172203
877.432	0.0170129
877.510	0.0170422
877.588	0.0171747
877.666	0.0172523
877.744	0.0170953
877.822	0.0170727
877.900	0.0170016
877.978	0.0171724
878.057	0.0170218
878.135	0.0169086
878.213	0.0167543
878.291	0.0168113
878.369	0.0169717
878.447	0.0168364
878.525	0.0167642
878.603	0.0167150
878.682	0.0166883
878.760	0.0164544
878.838	0.0166402
878.916	0.0165873
878.994	0.0166695
879.072	0.0166322
879.150	0.0166290
879.228	0.0165138
879.307	0.0165451
879.385	0.0165966
879.463	0.0166633
879.541	0.0166653
879.619	0.0165948
879.697	0.0166277
879.775	0.0167966
879.853	0.0168001
879.932	0.0166266
880.010	0.0166981
880.088	0.0167805
880.166	0.0167365
880.244	0.0168207
880.322	0.0168427
880.400	0.0166387
880.478	0.0167326
880.557	0.0168018
880.635	0.0168042
880.713	0.0167202
880.791	0.0167185
880.869	0.0168480
880.947	0.0166264
881.025	0.0167832
881.103	0.0168418
881.182	0.0167071
881.260	0.0168074
881.338	0.0166785
881.416	0.0166601
881.494	0.0167963
881.572	0.0169119
881.650	0.0168118
881.728	0.0167612
881.807	0.0168650
881.885	0.0167782
881.963	0.0168455
882.041	0.0168227
882.119	0.0166604
882.197	0.0167108
882.275	0.0167869
882.353	0.0167645
882.432	0.0167380
882.510	0.0168069
882.588	0.0167506
882.666	0.0167412
882.744	0.0167950
882.822	0.0168027
882.900	0.0168302
882.978	0.0167422
883.057	0.0167449
883.135	0.0169093
883.213	0.0168394
883.291	0.0168935
883.369	0.0168488
883.447	0.0168422
883.525	0.0165759
883.603	0.0166320
883.682	0.0167010
883.760	0.0167725
883.838	0.0165815
883.916	0.0167748
883.994	0.0168327
884.072	0.0167201
884.150	0.0166439
884.228	0.0168219
884.307	0.0166657
884.385	0.0166824
884.463	0.0167211
884.541	0.0167856
884.619	0.0168227
884.697	0.0167185
884.775	0.0168810
884.853	0.0167231
884.932	0.0169069
885.010	0.0169270
885.088	0.0168934
885.166	0.0168382
885.244	0.0168675
885.322	0.0168301
885.400	0.0168382
885.478	0.0169574
885.557	0.0168940
885.635	0.0168825
885.713	0.0167668
885.791	0.0167287
885.869	0.0167979
885.947	0.0168475
886.025	0.0167632
886.103	0.0166752
886.182	0.0166763
886.260	0.0167240
886.338	0.0167532
886.416	0.0167079
886.494	0.0165384
886.572	0.0166270
886.650	0.0168356
886.728	0.0165855
886.807	0.0165628
886.885	0.0166871
886.963	0.0166798
887.041	0.0167683
887.119	0.0168369
887.197	0.0166723
887.275	0.0167133
887.353	0.0167879
887.432	0.0168392
887.510	0.0167663
887.588	0.0167653
887.666	0.0167631
887.744	0.0165898
887.822	0.0166848
887.900	0.0167998
887.978	0.0167133
888.057	0.0166692
888.135	0.0166726
888.213	0.0167862
888.291	0.0167072
888.369	0.0166953
888.447	0.0168199
888.525	0.0167252
888.603	0.0166031
888.682	0.0167650
888.760	0.0168606
888.838	0.0166477
888.916	0.0167407
888.994	0.0168460
889.072	0.0167867
889.150	0.0166737
889.228	0.0169244
889.307	0.0168584
889.385	0.0168183
889.463	0.0168366
889.541	0.0169725
889.619	0.0168969
889.697	0.0167915
889.775	0.0169749
889.853	0.0170049
889.932	0.0167616
890.010	0.0170069
890.088	0.0169444
890.166	0.0168706
890.244	0.0169089
890.322	0.0168839
890.400	0.0167731
890.478	0.0167529
890.557	0.0167605
890.635	0.0168368
890.713	0.0168248
890.791	0.0166157
890.869	0.0167189
890.947	0.0167555
891.025	0.0167193
891.103	0.0167548
891.182	0.0167412
891.260	0.0168008
891.338	0.0167161
891.416	0.0167321
891.494	0.0166922
891.572	0.0167851
891.650	0.0167472
891.728	0.0166794
891.807	0.0167339
891.885	0.0168387
891.963	0.0168954
892.041	0.0168711
892.119	0.0168920
892.197	0.0168226
892.275	0.0168786
892.353	0.0170524
892.432	0.0168204
892.510	0.0169366
892.588	0.0169867
892.666	0.0167847
892.744	0.0168430
892.822	0.0169406
892.900	0.0169250
892.978	0.0169364
893.057	0.0169498
893.135	0.0170062
893.213	0.0169714
893.291	0.0167740
893.369	0.0168713
893.447	0.0171423
893.525	0.0169822
893.603	0.0168745
893.682	0.0170790
893.760	0.0169495
893.838	0.0170042
893.916	0.0169093
893.994	0.0170028
894.072	0.0170710
894.150	0.0169843
894.228	0.0169756
894.307	0.0169692
894.385	0.0168452
894.463	0.0168208
894.541	0.0168121
894.619	0.0167853
894.697	0.0166910
894.775	0.0166390
894.853	0.0168868
894.932	0.0168901
895.010	0.0169486
895.088	0.0167007
895.166	0.0167951
895.244	0.0167883
895.322	0.0167678
895.400	0.0167258
895.478	0.0166680
895.557	0.0166834
895.635	0.0167872
895.713	0.0168513
895.791	0.0167728
895.869	0.0167233
895.947	0.0168452
896.025	0.0169105
896.103	0.0168778
896.182	0.0168273
896.260	0.0169446
896.338	0.0169147
896.416	0.0170107
896.494	0.0168513
896.572	0.0168510
896.650	0.0168089
896.728	0.0168549
896.807	0.0168553
896.885	0.0169463
896.963	0.0169154
897.041	0.0169379
897.119	0.0169142
897.197	0.0167814
897.275	0.0168491
897.353	0.0168855
897.432	0.0167625
897.510	0.0167659
897.588	0.0169500
897.666	0.0168650
897.744	0.0168528
897.822	0.0169664
897.900	0.0169200
897.978	0.0168823
898.057	0.0168038
898.135	0.0167437
898.213	0.0167670
898.291	0.0168510
898.369	0.0167766
898.447	0.0168150
898.525	0.0168617
898.603	0.0169099
898.682	0.0168321
898.760	0.0168324
898.838	0.0168727
898.916	0.0168913
898.994	0.0168587
899.072	0.0168057
899.150	0.0169745
899.228	0.0169460
899.307	0.0170188
899.385	0.0169407
899.463	0.0169141
899.541	0.0171329
899.619	0.0170067
899.697	0.0171400
899.775	0.0169088
899.853	0.0170728
899.932	0.0171325
900.010	0.0171638
900.088	0.0171572
900.166	0.0172350
900.244	0.0170348
900.322	0.0170918
900.400	0.0170251
900.478	0.0172118
900.557	0.0171655
900.635	0.0169788
900.713	0.0170985
900.791	0.0170431
900.869	0.0170538
900.947	0.0169683
901.025	0.0167416
901.103	0.0168594
901.182	0.0169807
901.260	0.0167309
901.338	0.0166508
901.416	0.0167783
901.494	0.0169705
901.572	0.0168753
901.650	0.0165345
901.728	0.0167214
901.807	0.0168510
901.885	0.0166867
901.963	0.0166659
902.041	0.0167075
902.119	0.0167966
902.197	0.0167980
902.275	0.0167588
902.353	0.0166615
902.432	0.0167303
902.510	0.0167181
902.588	0.0166194
902.666	0.0167986
902.744	0.0167551
902.822	0.0168755
902.900	0.0168175
902.978	0.0167757
903.057	0.0168518
903.135	0.0169582
903.213	0.0168880
903.291	0.0169633
903.369	0.0168558
903.447	0.0169950
903.525	0.0169502
903.603	0.0167968
903.682	0.0169775
903.760	0.0169488
903.838	0.0169435
903.916	0.0168620
903.994	0.0169474
904.072	0.0169215
904.150	0.0167601
904.228	0.0169758
904.307	0.0168504
904.385	0.0167652
904.463	0.0168439
904.541	0.0169686
904.619	0.0168893
904.697	0.0168378
904.775	0.0169894
904.853	0.0170400
904.932	0.0168900
905.010	0.0170403
905.088	0.0169224
905.166	0.0169859
905.244	0.0170020
905.322	0.0170315
905.400	0.0171181
905.478	0.0169611
905.557	0.0171255
905.635	0.0170076
905.713	0.0170666
905.791	0.0170578
905.869	0.0171186
905.947	0.0172161
906.025	0.0170195
906.103	0.0170087
906.182	0.0170770
906.260	0.0170957
906.338	0.0170537
906.416	0.0170982
906.494	0.0169460
906.572	0.0170184
906.650	0.0171120
906.728	0.0170370
906.807	0.0168681
906.885	0.0169013
906.963	0.0169789
907.041	0.0169627
907.119	0.0169096
907.197	0.0169312
907.275	0.0169847
907.353	0.0169307
907.432	0.0170009
907.510	0.0168948
907.588	0.0167619
907.666	0.0168924
907.744	0.0169169
907.822	0.0169542
907.900	0.0169370
907.978	0.0170284
908.057	0.0168436
908.135	0.0169606
908.213	0.0168365
908.291	0.0167467
908.369	0.0168466
908.447	0.0166933
908.525	0.0167934
908.603	0.0167744
908.682	0.0167541
908.760	0.0167742
908.838	0.0167101
908.916	0.0166412
908.994	0.0166561
909.072	0.0166947
909.150	0.0168285
909.228	0.0167123
909.307	0.0167140
909.385	0.0167920
909.463	0.0167645
909.541	0.0167363
909.619	0.0166580
909.697	0.0169086
909.775	0.0167728
909.853	0.0166260
909.932	0.0168731
910.010	0.0168594
910.088	0.0168013
910.166	0.0168981
910.244	0.0167545
910.322	0.0169854
910.400	0.0170168
910.478	0.0168465
910.557	0.0169564
910.635	0.0169454
910.713	0.0170141
910.791	0.0170105
910.869	0.0169315
910.947	0.0170030
911.025	0.0170705
911.103	0.0170727
911.182	0.0169775
911.260	0.0171503
911.338	0.0169694
911.416	0.0171706
911.494	0.0170367
911.572	0.0170123
911.650	0.0170590
911.728	0.0169915
911.807	0.0169838
911.885	0.0170833
911.963	0.0170464
912.041	0.0168382
912.119	0.0168600
912.197	0.0168584
912.275	0.0167945
912.353	0.0170129
912.432	0.0169354
912.510	0.0168663
912.588	0.0167615
912.666	0.0168813
912.744	0.0169143
912.822	0.0168689
912.900	0.0167046
912.978	0.0168787
913.057	0.0167531
913.135	0.0167745
913.213	0.0167445
913.291	0.0168429
913.369	0.0167686
913.447	0.0168710
913.525	0.0169044
913.603	0.0168079
913.682	0.0167901
913.760	0.0167313
913.838	0.0168207
913.916	0.0166701
913.994	0.0167099
914.072	0.0167810
914.150	0.0167831
914.228	0.0167521
914.307	0.0167464
914.385	0.0167554
914.463	0.0167564
914.541	0.0166185
914.619	0.0167297
914.697	0.0166534
914.775	0.0167614
914.853	0.0168727
914.932	0.0166047
915.010	0.0166383
915.088	0.0165898
915.166	0.0166902
915.244	0.0167374
915.322	0.0165988
915.400	0.0164938
915.478	0.0165286
915.557	0.0166898
915.635	0.0166232
915.713	0.0168829
915.791	0.0169006
915.869	0.0168148
915.947	0.0169553
916.025	0.0169519
916.103	0.0169889
916.182	0.0168120
916.260	0.0169098
916.338	0.0170220
916.416	0.0169798
916.494	0.0169305
916.572	0.0168800
916.650	0.0170292
916.728	0.0170358
916.807	0.0168759
916.885	0.0169455
916.963	0.0170132
917.041	0.0168197
917.119	0.0167783
917.197	0.0168143
917.275	0.0168764
917.353	0.0168365
917.432	0.0167952
917.510	0.0167430
917.588	0.0168612
917.666	0.0166924
917.744	0.0168237
917.822	0.0168260
917.900	0.0169790
917.978	0.0167836
918.057	0.0167192
918.135	0.0167269
918.213	0.0168193
918.291	0.0167255
918.369	0.0168956
918.447	0.0168722
918.525	0.0168248
918.603	0.0170026
918.682	0.0168877
918.760	0.0168105
918.838	0.0170298
918.916	0.0168874
918.994	0.0167577
919.072	0.0169048
919.150	0.0168409
919.228	0.0167308
919.307	0.0167064
919.385	0.0167168
919.463	0.0167255
919.541	0.0165513
919.619	0.0166206
919.697	0.0165009
919.775	0.0164966
919.853	0.0165908
919.932	0.0166096
920.010	0.0165271
920.088	0.0165772
920.166	0.0166771
920.244	0.0167028
920.322	0.0167825
920.400	0.0166932
920.478	0.0168282
920.557	0.0168494
920.635	0.0168672
920.713	0.0167407
920.791	0.0167635
920.869	0.0168324
920.947	0.0168733
921.025	0.0168861
921.103	0.0167833
921.182	0.0169475
921.260	0.0167432
921.338	0.0167604
921.416	0.0167118
921.494	0.0167463
921.572	0.0167287
921.650	0.0167488
921.728	0.0167156
921.807	0.0168064
921.885	0.0168428
921.963	0.0168798
922.041	0.0168467
922.119	0.0168082
922.197	0.0168269
922.275	0.0168754
922.353	0.0169109
922.432	0.0168563
922.510	0.0168504
922.588	0.0168567
922.666	0.0167971
922.744	0.0168854
922.822	0.0169672
922.900	0.0169682
922.978	0.0170010
923.057	0.0170200
923.135	0.0171002
923.213	0.0169741
923.291	0.0171983
923.369	0.0170567
923.447	0.0170260
923.525	0.0171204
923.603	0.0171229
923.682	0.0171786
923.760	0.0172071
923.838	0.0170908
923.916	0.0170767
923.994	0.0170118
924.072	0.0169969
924.150	0.0169314
924.228	0.0168177
924.307	0.0170409
924.385	0.0169927
924.463	0.0168580
924.541	0.0167745
924.619	0.0168836
924.697	0.0169541
924.775	0.0168855
924.853	0.0169152
924.932	0.0168436
925.010	0.0167934
925.088	0.0167357
925.166	0.0167818
925.244	0.0166550
925.322	0.0167336
925.400	0.0167520
925.478	0.0168167
925.557	0.0168021
925.635	0.0168274
925.713	0.0168326
925.791	0.0169395
925.869	0.0169041
925.947	0.0170058
926.025	0.0169406
926.103	0.0170271
926.182	0.0171049
926.260	0.0168953
926.338	0.0171390
926.416	0.0171303
926.494	0.0170226
926.572	0.0170892
926.650	0.0170798
926.728	0.0169771
926.807	0.0169231
926.885	0.0169302
926.963	0.0169772
927.041	0.0169023
927.119	0.0169064
927.197	0.0169029
927.275	0.0167919
927.353	0.0168369
927.432	0.0168018
927.510	0.0167989
927.588	0.0166900
927.666	0.0169469
927.744	0.0170012
927.822	0.0168449
927.900	0.0168219
927.978	0.0169196
928.057	0.0169599
928.135	0.0170268
928.213	0.0168622
928.291	0.0168513
928.369	0.0168269
928.447	0.0171225
928.525	0.0169649
928.603	0.0168171
928.682	0.0170531
928.760	0.0168197
928.838	0.0169912
928.916	0.0170203
928.994	0.0169469
929.072	0.0169693
929.150	0.0169551
929.228	0.0168961
929.307	0.0171136
929.385	0.0169966
929.463	0.0169471
929.541	0.0170283
929.619	0.0170700
929.697	0.0169668
929.775	0.0169269
929.853	0.0168848
929.932	0.0168757
930.010	0.0170061
930.088	0.0169300
930.166	0.0168215
930.244	0.0167439
930.322	0.0168538
930.400	0.0167848
930.478	0.0169578
930.557	0.0169312
930.635	0.0169073
930.713	0.0168639
930.791	0.0170515
930.869	0.0169624
930.947	0.0169765
931.025	0.0171169
931.103	0.0170867
931.182	0.0170493
931.260	0.0170387
931.338	0.0170633
931.416	0.0171079
931.494	0.0170473
931.572	0.0169638
931.650	0.0169272
931.728	0.0167676
931.807	0.0167734
931.885	0.0168288
931.963	0.0167316
932.041	0.0168755
932.119	0.0166909
932.197	0.0167063
932.275	0.0167995
932.353	0.0168056
932.432	0.0168372
932.510	0.0168655
932.588	0.0168822
932.666	0.0167930
932.744	0.0168619
932.822	0.0169704
932.900	0.0169140
932.978	0.0168951
933.057	0.0168269
933.135	0.0168297
933.213	0.0169044
933.291	0.0169947
933.369	0.0169424
933.447	0.0170795
933.525	0.0169191
933.603	0.0169763
933.682	0.0169683
933.760	0.0170131
933.838	0.0171095
933.916	0.0168959
933.994	0.0167850
934.072	0.0171336
934.150	0.0169901
934.228	0.0168949
934.307	0.0170101
934.385	0.0170042
934.463	0.0169244
934.541	0.0169681
934.619	0.0168173
934.697	0.0169298
934.775	0.0169539
934.853	0.0168585
934.932	0.0167752
935.010	0.0168099
935.088	0.0169633
935.166	0.0168787
935.244	0.0170513
935.322	0.0168121
935.400	0.0169113
935.478	0.0170633
935.557	0.0169415
935.635	0.0169749
935.713	0.0169828
935.791	0.0169556
935.869	0.0169953
935.947	0.0169785
936.025	0.0167654
936.103	0.0169314
936.182	0.0167919
936.260	0.0170074
936.338	0.0168988
936.416	0.0167053
936.494	0.0168603
936.572	0.0170015
936.650	0.0168408
936.728	0.0168192
936.807	0.0169051
936.885	0.0168550
936.963	0.0170111
937.041	0.0168330
937.119	0.0168096
937.197	0.0169144
937.275	0.0168228
937.353	0.0168758
937.432	0.0168687
937.510	0.0168781
937.588	0.0169227
937.666	0.0169049
937.744	0.0169556
937.822	0.0169572
937.900	0.0169253
937.978	0.0168322
938.057	0.0168917
938.135	0.0169077
938.213	0.0167727
938.291	0.0167879
938.369	0.0169485
938.447	0.0167180
938.525	0.0166729
938.603	0.0166576
938.682	0.0167022
938.760	0.0168758
938.838	0.0167146
938.916	0.0166505
938.994	0.0166996
939.072	0.0166946
939.150	0.0167475
939.228	0.0167093
939.307	0.0166264
939.385	0.0167069
939.463	0.0168253
939.541	0.0167796
939.619	0.0167108
939.697	0.0168974
939.775	0.0168401
939.853	0.0168733
939.932	0.0168455
940.010	0.0167458
940.088	0.0168049
940.166	0.0168087
940.244	0.0168869
940.322	0.0168931
940.400	0.0167785
940.478	0.0168429
940.557	0.0167501
940.635	0.0167336
940.713	0.0166429
940.791	0.0167877
940.869	0.0166631
940.947	0.0166611
941.025	0.0167616
941.103	0.0167984
941.182	0.0166679
941.260	0.0167914
941.338	0.0167175
941.416	0.0167225
941.494	0.0167191
941.572	0.0167583
941.650	0.0165638
941.728	0.0168272
941.807	0.0168160
941.885	0.0167901
941.963	0.0167990
942.041	0.0168761
942.119	0.0168473
942.197	0.0168792
942.275	0.0168510
942.353	0.0169056
942.432	0.0170277
942.510	0.0169164
942.588	0.0168939
942.666	0.0171645
942.744	0.0169466
942.822	0.0169346
942.900	0.0170131
942.978	0.0168029
943.057	0.0169292
943.135	0.0168587
943.213	0.0167628
943.291	0.0169172
943.369	0.0168208
943.447	0.0168232
943.525	0.0166308
943.603	0.0167144
943.682	0.0167596
943.760	0.0166582
943.838	0.0166566
943.916	0.0166048
943.994	0.0166542
944.072	0.0167377
944.150	0.0168295
944.228	0.0166982
944.307	0.0165849
944.385	0.0166992
944.463	0.0168925
944.541	0.0167075
944.619	0.0167511
944.697	0.0167229
944.775	0.0168117
944.853	0.0167439
944.932	0.0166757
945.010	0.0166893
945.088	0.0167162
945.166	0.0166975
945.244	0.0167311
945.322	0.0167757
945.400	0.0167253
945.478	0.0168182
945.557	0.0167466
945.635	0.0167628
945.713	0.0167868
945.791	0.0168103
945.869	0.0168238
945.947	0.0168615
946.025	0.0167352
946.103	0.0168335
946.182	0.0169076
946.260	0.0168607
946.338	0.0168501
946.416	0.0168421
946.494	0.0169456
946.572	0.0169236
946.650	0.0170459
946.728	0.0169817
946.807	0.0169121
946.885	0.0169257
946.963	0.0168105
947.041	0.0170159
947.119	0.0169247
947.197	0.0169491
947.275	0.0170327
947.353	0.0169418
947.432	0.0169829
947.510	0.0168965
947.588	0.0170625
947.666	0.0168800
947.744	0.0169711
947.822	0.0169971
947.900	0.0170004
947.978	0.0170012
948.057	0.0170341
948.135	0.0168706
948.213	0.0167236
948.291	0.0168904
948.369	0.0169523
948.447	0.0169555
948.525	0.0170532
948.603	0.0168707
948.682	0.0168715
948.760	0.0169051
948.838	0.0168525
948.916	0.0168010
948.994	0.0169041
949.072	0.0169147
949.150	0.0168693
949.228	0.0166934
949.307	0.0169610
949.385	0.0167977
949.463	0.0167659
949.541	0.0167919
949.619	0.0168918
949.697	0.0168591
949.775	0.0169623
949.853	0.0168793
949.932	0.0167970
950.010	0.0168366
950.088	0.0167588
950.166	0.0168937
950.244	0.0169341
950.322	0.0167845
950.400	0.0168866
950.478	0.0170000
950.557	0.0168265
950.635	0.0169115
950.713	0.0169637
950.791	0.0167731
950.869	0.0168578
950.947	0.0169037
951.025	0.0167719
951.103	0.0169844
951.182	0.0168812
951.260	0.0168071
951.338	0.0168845
951.416	0.0167776
951.494	0.0169202
951.572	0.0170287
951.650	0.0169123
951.728	0.0169116
951.807	0.0169653
951.885	0.0170358
951.963	0.0170708
952.041	0.0171349
952.119	0.0171249
952.197	0.0170509
952.275	0.0170192
952.353	0.0171534
952.432	0.0169591
952.510	0.0170339
952.588	0.0169572
952.666	0.0170831
952.744	0.0170502
952.822	0.0171542
952.900	0.0170918
952.978	0.0169380
953.057	0.0171136
953.135	0.0169965
953.213	0.0170495
953.291	0.0171372
953.369	0.0171441
953.447	0.0170572
953.525	0.0170851
953.603	0.0171783
953.682	0.0169016
953.760	0.0170818
953.838	0.0170801
953.916	0.0170964
953.994	0.0169617
954.072	0.0169769
954.150	0.0170292
954.228	0.0168763
954.307	0.0169096
954.385	0.0169231
954.463	0.0168451
954.541	0.0168606
954.619	0.0169817
954.697	0.0168565
954.775	0.0168886
954.853	0.0170551
954.932	0.0169210
955.010	0.0169168
955.088	0.0169183
955.166	0.0169904
955.244	0.0170232
955.322	0.0169801
955.400	0.0169066
955.478	0.0169822
955.557	0.0168438
955.635	0.0168419
955.713	0.0168417
955.791	0.0170353
955.869	0.0169195
955.947	0.0167951
956.025	0.0169849
956.103	0.0171432
956.182	0.0170107
956.260	0.0169044
956.338	0.0169335
956.416	0.0168312
956.494	0.0166682
956.572	0.0168027
956.650	0.0168434
956.728	0.0167538
956.807	0.0166504
956.885	0.0166348
956.963	0.0168188
957.041	0.0167621
957.119	0.0167273
957.197	0.0166558
957.275	0.0166913
957.353	0.0167077
957.432	0.0168027
957.510	0.0167570
957.588	0.0167937
957.666	0.0168093
957.744	0.0167096
957.822	0.0168844
957.900	0.0167876
957.978	0.0169303
958.057	0.0169796
958.135	0.0170821
958.213	0.0169598
958.291	0.0169949
958.369	0.0168020
958.447	0.0168562
958.525	0.0167830
958.603	0.0167543
958.682	0.0169068
958.760	0.0168198
958.838	0.0168296
958.916	0.0166871
958.994	0.0168447
959.072	0.0167717
959.150	0.0168676
959.228	0.0167950
959.307	0.0168010
959.385	0.0167599
959.463	0.0168173
959.541	0.0169631
959.619	0.0170472
959.697	0.0169341
959.775	0.0169240
959.853	0.0169027
959.932	0.0169807
960.010	0.0169543
960.088	0.0169630
960.166	0.0169177
960.244	0.0168050
960.322	0.0169025
960.400	0.0169881
960.478	0.0169645
960.557	0.0169195
960.635	0.0169390
960.713	0.0168598
960.791	0.0168845
960.869	0.0168314
960.947	0.0170027
961.025	0.0170179
961.103	0.0169115
961.182	0.0168990
961.260	0.0168941
961.338	0.0167639
961.416	0.0168350
961.494	0.0169373
961.572	0.0167572
961.650	0.0169198
961.728	0.0167973
961.807	0.0166568
961.885	0.0168259
961.963	0.0169223
962.041	0.0168636
962.119	0.0169103
962.197	0.0168015
962.275	0.0167696
962.353	0.0169406
962.432	0.0169125
962.510	0.0168777
962.588	0.0168184
962.666	0.0168819
962.744	0.0168276
962.822	0.0168069
962.900	0.0168907
962.978	0.0167282
963.057	0.0168237
963.135	0.0167873
963.213	0.0167575
963.291	0.0166280
963.369	0.0167439
963.447	0.0167816
963.525	0.0168050
963.603	0.0167313
963.682	0.0166908
963.760	0.0168221
963.838	0.0168160
963.916	0.0167585
963.994	0.0168288
964.072	0.0165904
964.150	0.0166212
964.228	0.0167636
964.307	0.0168346
964.385	0.0167086
964.463	0.0167025
964.541	0.0166659
964.619	0.0167773
964.697	0.0167664
964.775	0.0167808
964.853	0.0168730
964.932	0.0167924
965.010	0.0169340
965.088	0.0169535
965.166	0.0169280
965.244	0.0167536
965.322	0.0168951
965.400	0.0167573
965.478	0.0167934
965.557	0.0168282
965.635	0.0168680
965.713	0.0167497
965.791	0.0167026
965.869	0.0168634
965.947	0.0168768
966.025	0.0168482
966.103	0.0168423
966.182	0.0167751
966.260	0.0167897
966.338	0.0168811
966.416	0.0168108
966.494	0.0168748
966.572	0.0168414
966.650	0.0167886
966.728	0.0167797
966.807	0.0169936
966.885	0.0170497
966.963	0.0168869
967.041	0.0169483
967.119	0.0167892
967.197	0.0167381
967.275	0.0168558
967.353	0.0168625
967.432	0.0169394
967.510	0.0168510
967.588	0.0168425
967.666	0.0168047
967.744	0.0167089
967.822	0.0168010
967.900	0.0168510
967.978	0.0167007
968.057	0.0169141
968.135	0.0166859
968.213	0.0167098
968.291	0.0168550
968.369	0.0168311
968.447	0.0167134
968.525	0.0167916
968.603	0.0167957
968.682	0.0168897
968.760	0.0168792
968.838	0.0168893
968.916	0.0169683
968.994	0.0169714
969.072	0.0169261
969.150	0.0169378
969.228	0.0169441
969.307	0.0169836
969.385	0.0171555
969.463	0.0168602
969.541	0.0168381
969.619	0.0169688
969.697	0.0168668
969.775	0.0167716
969.853	0.0166817
969.932	0.0167073
